Data from 0283_chest_Reflection__1__201.txt Node

Date: Fri Oct 20 22:21:50 CDT 2023
User: ToomeyLab
Spectrometer: FLMS14357
Trigger mode: 0
Integration Time (sec): 1.000000E-2
Scans to average: 100
Electric dark correction enabled: true
Nonlinearity correction enabled: false
Boxcar width: 0
XAxis mode: Wavelengths
Number of Pixels in Spectrum: 2048
>>>>>Begin Spectral Data<<<<<
189.047	140.88
189.435	140.88
189.823	140.88
190.211	54.17
190.599	834.62
190.987	-26.12
191.375	92.54
191.763	109.79
192.151	-21.39
192.538	-11.63
192.926	42.46
193.314	38.2
193.702	176.3
194.089	2805.56
194.477	3.03
194.864	-12.3
195.252	120.71
195.639	-9.51
196.027	-79.62
196.414	88.91
196.801	50.27
197.189	190084628794500
197.576	29.62
197.963	-630
198.351	20.31
198.738	18.52
199.125	20.82
199.512	100.28
199.899	14.84
200.286	44.59
200.673	20.83
201.06	38.08
201.447	2.04
201.833	37.96
202.22	46.99
202.607	56.97
202.994	50.1
203.38	3.38
203.767	15.12
204.154	45.31
204.54	40.71
204.927	33.5
205.313	23.5
205.699	69.19
206.086	29.92
206.472	52.64
206.858	61.25
207.245	-7.99
207.631	16.73
208.017	26.62
208.403	38.61
208.789	38.42
209.175	-11.08
209.561	31.76
209.947	-21.19
210.333	60.33
210.719	7.49
211.105	32.57
211.491	19.69
211.876	1.35
212.262	34.14
212.648	37.6
213.034	-2.71
213.419	30.8
213.805	10.85
214.19	23.47
214.576	9.51
214.961	28.55
215.346	35.11
215.732	41.36
216.117	-44.82
216.502	8.81
216.888	6.76
217.273	-4.75
217.658	14.35
218.043	18.99
218.428	-1.92
218.813	13.52
219.198	36.01
219.583	-9.26
219.968	-5.46
220.353	24.96
220.738	13.54
221.122	10.84
221.507	6.31
221.892	20.89
222.276	16.54
222.661	19.86
223.046	14.71
223.43	11.05
223.815	25.53
224.199	16.31
224.583	4.99
224.968	4.75
225.352	4.03
225.736	8.93
226.121	13.16
226.505	3.91
226.889	14.88
227.273	9.87
227.657	15.63
228.041	8.53
228.425	5.05
228.809	4.6
229.193	6.44
229.577	10.46
229.961	5.03
230.344	6.43
230.728	5.72
231.112	6.25
231.495	6.03
231.879	6.6
232.263	7.15
232.646	3.89
233.03	5.68
233.413	4.7
233.797	4.92
234.18	6.83
234.563	6.93
234.946	7.44
235.33	6.48
235.713	8.94
236.096	6.06
236.479	7.13
236.862	6.04
237.245	5.42
237.628	6.3
238.011	7.44
238.394	4.66
238.777	7.68
239.16	6.35
239.543	6.03
239.925	7.86
240.308	5.53
240.691	7.48
241.073	7.54
241.456	6.47
241.838	5.74
242.221	6.23
242.603	6.63
242.986	5.57
243.368	6.5
243.75	6.01
244.133	5.72
244.515	5.48
244.897	5.69
245.279	5.87
245.661	5.42
246.043	6.27
246.425	5.38
246.807	5.87
247.189	5.8
247.571	5.06
247.953	6.27
248.335	5.91
248.717	5.33
249.098	5.5
249.48	5.27
249.862	5.62
250.243	5.88
250.625	5.72
251.006	5.77
251.388	5.71
251.769	6.47
252.151	5.56
252.532	5.49
252.913	4.96
253.295	4.78
253.676	5.9
254.057	5.62
254.438	5.6
254.819	5.88
255.2	5.91
255.581	5.55
255.962	4.89
256.343	6.08
256.724	5.16
257.105	5.67
257.486	5.4
257.867	6.04
258.247	5.62
258.628	4.91
259.009	5.28
259.389	5.32
259.77	5.03
260.15	5.15
260.531	5.62
260.911	5.73
261.292	5.1
261.672	5.22
262.052	5.37
262.432	5.18
262.813	5.14
263.193	5.72
263.573	5
263.953	5.06
264.333	4.86
264.713	5.9
265.093	6.52
265.473	5.4
265.853	5.28
266.233	5.08
266.612	4.88
266.992	5.3
267.372	4.68
267.752	4.7
268.131	5.41
268.511	5.48
268.89	5.11
269.27	5.05
269.649	4.64
270.029	5.04
270.408	5.05
270.787	5.44
271.167	4.69
271.546	5.84
271.925	5.59
272.304	4.99
272.683	4.93
273.062	4.71
273.441	5.32
273.82	5.21
274.199	4.91
274.578	5.07
274.957	5.33
275.336	5.48
275.715	5.3
276.093	4.97
276.472	5.19
276.851	4.72
277.229	5.39
277.608	4.81
277.986	4.76
278.365	5.4
278.743	4.84
279.122	4.57
279.5	4.78
279.878	4.41
280.257	4.87
280.635	5.39
281.013	5.58
281.391	5.29
281.769	4.42
282.147	4.4
282.525	4.92
282.903	5.21
283.281	5.26
283.659	4.69
284.037	4.93
284.415	4.51
284.792	4.79
285.17	5.15
285.548	5.06
285.925	4.32
286.303	4.55
286.68	4.72
287.058	5.26
287.435	5.1
287.813	4.41
288.19	4.88
288.567	4.66
288.945	5.04
289.322	5.5
289.699	4.71
290.076	5.3
290.453	5.06
290.83	4.97
291.207	5.11
291.584	4.68
291.961	5.02
292.338	4.72
292.715	5.28
293.092	5.19
293.469	5.28
293.845	5
294.222	4.89
294.599	4.78
294.975	5.62
295.352	5.46
295.728	5.17
296.105	5.23
296.481	5.08
296.858	5.27
297.234	5.31
297.61	4.97
297.986	5.11
298.363	5.36
298.739	5.72
299.115	5
299.491	4.95
299.867	5.1
300.243	5.02
300.619	4.89
300.995	5.01
301.371	5.6
301.746	5.37
302.122	5.5
302.498	4.63
302.874	5.34
303.249	5.09
303.625	5.32
304	6.05
304.376	5.07
304.751	4.91
305.127	5.39
305.502	6.08
305.878	5.47
306.253	5.19
306.628	5.66
307.003	5.55
307.378	5.62
307.754	5.44
308.129	5.97
308.504	5.62
308.879	5.74
309.254	6.04
309.629	4.93
310.003	4.87
310.378	5.55
310.753	5.65
311.128	5.83
311.502	5.28
311.877	5.34
312.252	5.65
312.626	5.79
313.001	5.72
313.375	5.58
313.75	5.68
314.124	5.32
314.498	5.79
314.873	5.48
315.247	5.98
315.621	5.85
315.995	6.04
316.369	5.22
316.743	5.81
317.117	5.17
317.491	5.15
317.865	5.95
318.239	6.06
318.613	6.14
318.987	5.22
319.361	5.13
319.734	5.41
320.108	5.23
320.482	5.31
320.855	6.05
321.229	5.81
321.602	6.02
321.976	5.91
322.349	6.46
322.723	5.02
323.096	5.71
323.469	6
323.843	5.79
324.216	5.06
324.589	5.53
324.962	6.26
325.335	6.67
325.708	5.78
326.081	5.84
326.454	5.75
326.827	6.23
327.2	5.97
327.573	5.82
327.945	5.81
328.318	5.6
328.691	5.62
329.063	6.23
329.436	5.5
329.809	5.64
330.181	6.43
330.553	6.11
330.926	6.24
331.298	5.75
331.671	5.5
332.043	5.41
332.415	6.11
332.787	6.75
333.159	5.22
333.532	5.96
333.904	6.02
334.276	5.39
334.648	5.67
335.02	6.11
335.391	5.51
335.763	5.93
336.135	6.02
336.507	6.22
336.879	5.99
337.25	6.06
337.622	6.27
337.993	6.37
338.365	6.1
338.736	5.9
339.108	6.13
339.479	5.64
339.851	5.95
340.222	5.73
340.593	5.51
340.964	5.8
341.336	6.16
341.707	5.84
342.078	6.23
342.449	5.46
342.82	5.35
343.191	5.68
343.562	6.09
343.933	5.63
344.303	6.12
344.674	6.02
345.045	6
345.416	6.34
345.786	5.82
346.157	6.35
346.527	5.41
346.898	6.13
347.268	5.9
347.639	6.39
348.009	5.64
348.38	6.01
348.75	5.9
349.12	5.9
349.49	5.77
349.861	5.96
350.231	5.84
350.601	5.73
350.971	6.2
351.341	6.31
351.711	6.57
352.081	6.16
352.45	6.17
352.82	6.23
353.19	6.36
353.56	6.21
353.929	6.14
354.299	6.02
354.669	6.09
355.038	6.27
355.408	6.06
355.777	6.04
356.147	5.78
356.516	5.79
356.885	6.26
357.254	6.29
357.624	5.85
357.993	5.74
358.362	6.09
358.731	5.9
359.1	5.77
359.469	5.79
359.838	6.04
360.207	5.89
360.576	6.16
360.945	5.96
361.314	6.16
361.682	6.22
362.051	5.93
362.42	5.84
362.788	6.11
363.157	6.16
363.525	5.57
363.894	5.79
364.262	5.93
364.631	6.08
364.999	6.07
365.367	6.26
365.735	6.04
366.104	6.23
366.472	6.17
366.84	6.1
367.208	5.79
367.576	6
367.944	6.06
368.312	5.83
368.68	6.31
369.048	6.13
369.416	6.03
369.783	6.17
370.151	6.06
370.519	6.21
370.886	6.51
371.254	6.36
371.621	6.16
371.989	6.03
372.356	6.38
372.724	6.19
373.091	5.98
373.458	5.92
373.826	6.16
374.193	5.95
374.56	6
374.927	6.31
375.294	6.37
375.661	6.02
376.028	6.33
376.395	6.2
376.762	5.93
377.129	6.37
377.496	6.28
377.863	6.56
378.229	6.15
378.596	6.04
378.963	6.09
379.329	6.42
379.696	6.04
380.062	6.23
380.429	6.09
380.795	5.85
381.161	6.32
381.528	6.55
381.894	6.15
382.26	6.23
382.626	6.52
382.993	6.16
383.359	6.11
383.725	6.29
384.091	6.35
384.457	6.36
384.823	6.29
385.188	6.56
385.554	6.18
385.92	6.14
386.286	6.35
386.651	6.1
387.017	6.3
387.383	6.27
387.748	6.04
388.114	5.84
388.479	6.25
388.845	6.65
389.21	6.01
389.575	5.77
389.94	6.04
390.306	5.99
390.671	6.11
391.036	6.31
391.401	6.49
391.766	6.31
392.131	6.34
392.496	6.47
392.861	6.3
393.226	6.17
393.591	6.19
393.956	6.55
394.32	6.3
394.685	6.15
395.05	6.39
395.414	6.56
395.779	6.21
396.143	6.12
396.508	6.14
396.872	6.43
397.236	6.19
397.601	6.16
397.965	6.04
398.329	6.2
398.694	6.36
399.058	6.16
399.422	6.42
399.786	6.3
400.15	6.18
400.514	6.23
400.878	6.48
401.242	6.41
401.605	6.3
401.969	5.88
402.333	6.36
402.697	6.37
403.06	6.28
403.424	6.36
403.787	5.98
404.151	6.13
404.514	6.19
404.878	6.14
405.241	6.31
405.604	6.26
405.968	6.34
406.331	6.2
406.694	6.35
407.057	6.37
407.42	6.42
407.783	6.26
408.146	6.23
408.509	6.31
408.872	6.38
409.235	6.39
409.598	6.31
409.961	6.39
410.323	6.48
410.686	5.98
411.049	6.38
411.411	6.2
411.774	6.17
412.136	6.17
412.499	6.44
412.861	6.54
413.223	6.37
413.586	6.42
413.948	6.58
414.31	6.68
414.672	6.34
415.035	6.21
415.397	6.46
415.759	6.33
416.121	6.5
416.483	6.34
416.845	6.38
417.206	6.48
417.568	6.65
417.93	6.45
418.292	6.17
418.653	6.4
419.015	6.18
419.377	6.24
419.738	6.28
420.1	6.13
420.461	6.29
420.822	6.19
421.184	6.19
421.545	6.22
421.906	6.26
422.267	6.26
422.629	6.21
422.99	6.13
423.351	6.11
423.712	6.15
424.073	6.16
424.434	6.1
424.795	6.18
425.155	6.22
425.516	6.22
425.877	6.17
426.238	6.12
426.598	6.28
426.959	6.17
427.32	6.25
427.68	6.28
428.041	6.42
428.401	6.36
428.761	6.3
429.122	6.26
429.482	6.4
429.842	6.31
430.202	6.41
430.563	6.37
430.923	6.45
431.283	6.28
431.643	6.46
432.003	6.63
432.363	6.48
432.722	6.44
433.082	6.38
433.442	6.29
433.802	6.56
434.161	6.33
434.521	6.44
434.881	6.36
435.24	6.3
435.6	6.31
435.959	6.35
436.319	6.33
436.678	6.38
437.037	6.39
437.396	6.52
437.756	6.5
438.115	6.45
438.474	6.52
438.833	6.52
439.192	6.31
439.551	6.22
439.91	6.44
440.269	6.46
440.628	6.29
440.987	6.52
441.345	6.3
441.704	6.39
442.063	6.41
442.421	6.36
442.78	6.16
443.138	6.39
443.497	6.48
443.855	6.45
444.214	6.41
444.572	6.38
444.93	6.41
445.288	6.32
445.647	6.56
446.005	6.27
446.363	6.33
446.721	6.46
447.079	6.54
447.437	6.39
447.795	6.37
448.153	6.25
448.51	6.34
448.868	6.27
449.226	6.27
449.584	6.33
449.941	6.28
450.299	6.39
450.656	6.35
451.014	6.34
451.371	6.53
451.729	6.41
452.086	6.29
452.443	6.44
452.801	6.45
453.158	6.53
453.515	6.41
453.872	6.44
454.229	6.55
454.586	6.57
454.943	6.62
455.3	6.36
455.657	6.53
456.014	6.31
456.371	6.41
456.727	6.61
457.084	6.46
457.441	6.56
457.797	6.53
458.154	6.4
458.51	6.51
458.867	6.46
459.223	6.49
459.58	6.53
459.936	6.7
460.292	6.5
460.648	6.51
461.005	6.28
461.361	6.47
461.717	6.29
462.073	6.39
462.429	6.36
462.785	6.48
463.141	6.68
463.496	6.6
463.852	6.53
464.208	6.61
464.564	6.78
464.919	6.37
465.275	6.73
465.631	6.82
465.986	6.78
466.342	6.6
466.697	6.64
467.052	6.59
467.408	6.68
467.763	6.71
468.118	6.74
468.473	6.61
468.829	6.57
469.184	6.7
469.539	6.71
469.894	6.73
470.249	6.67
470.603	6.56
470.958	6.72
471.313	6.79
471.668	6.65
472.023	6.76
472.377	6.66
472.732	6.6
473.086	6.85
473.441	6.95
473.795	6.91
474.15	6.73
474.504	6.58
474.859	6.66
475.213	6.82
475.567	6.75
475.921	6.66
476.275	6.8
476.63	6.75
476.984	6.82
477.338	6.74
477.692	6.72
478.045	6.63
478.399	6.82
478.753	6.84
479.107	6.64
479.461	6.63
479.814	6.76
480.168	6.76
480.521	6.72
480.875	6.76
481.228	6.74
481.582	6.8
481.935	6.68
482.289	6.67
482.642	6.63
482.995	6.61
483.348	6.67
483.701	6.68
484.055	6.69
484.408	6.55
484.761	6.46
485.114	6.49
485.466	6.4
485.819	6.27
486.172	6.18
486.525	6.23
486.878	6.27
487.23	6.42
487.583	6.52
487.936	6.41
488.288	6.55
488.641	6.6
488.993	6.41
489.345	6.41
489.698	6.41
490.05	6.35
490.402	6.43
490.754	6.46
491.107	6.52
491.459	6.61
491.811	6.65
492.163	6.62
492.515	6.64
492.866	6.64
493.218	6.49
493.57	6.51
493.922	6.46
494.274	6.45
494.625	6.59
494.977	6.58
495.328	6.64
495.68	6.71
496.031	6.73
496.383	6.9
496.734	6.79
497.086	6.75
497.437	6.77
497.788	6.9
498.139	6.96
498.49	6.68
498.842	6.65
499.193	6.75
499.544	6.85
499.894	6.81
500.245	6.61
500.596	6.85
500.947	6.85
501.298	6.82
501.648	6.89
501.999	6.96
502.35	6.84
502.7	7.02
503.051	6.96
503.401	6.94
503.752	6.91
504.102	6.88
504.452	6.79
504.803	6.78
505.153	6.94
505.503	7.01
505.853	6.87
506.203	6.82
506.553	6.9
506.903	6.9
507.253	6.89
507.603	6.98
507.953	6.94
508.303	6.95
508.652	7.11
509.002	7.06
509.352	6.89
509.701	6.98
510.051	6.89
510.4	7
510.75	6.95
511.099	6.92
511.449	7.02
511.798	6.98
512.147	7
512.496	7.09
512.846	6.94
513.195	7.07
513.544	7.1
513.893	6.91
514.242	7.01
514.591	7.01
514.939	6.98
515.288	6.94
515.637	7.06
515.986	7.21
516.334	7.01
516.683	7.14
517.032	6.97
517.38	6.96
517.729	7.16
518.077	7.17
518.426	7.01
518.774	7.04
519.122	7.03
519.47	7.08
519.819	7.04
520.167	6.95
520.515	7.04
520.863	7.03
521.211	7.03
521.559	6.97
521.907	7.1
522.255	7.06
522.602	7.22
522.95	7.16
523.298	7.06
523.645	7.24
523.993	7.24
524.341	7.26
524.688	7.12
525.036	7.31
525.383	7.18
525.73	7.23
526.078	7.33
526.425	7.28
526.772	7.22
527.119	7.23
527.466	7.15
527.814	7.19
528.161	7.02
528.508	7.12
528.854	7.13
529.201	7.11
529.548	7.12
529.895	7.12
530.242	6.95
530.588	6.95
530.935	6.87
531.282	6.95
531.628	7.02
531.975	6.94
532.321	7.1
532.667	7.19
533.014	7.21
533.36	7.31
533.706	7.32
534.052	7.3
534.399	7.24
534.745	7.14
535.091	7.19
535.437	7.23
535.783	7.14
536.129	7.25
536.474	7.34
536.82	7.34
537.166	7.29
537.512	7.47
537.857	7.44
538.203	7.39
538.549	7.52
538.894	7.35
539.239	7.37
539.585	7.46
539.93	7.49
540.276	7.66
540.621	7.62
540.966	7.62
541.311	7.67
541.656	7.6
542.001	7.71
542.346	7.56
542.691	7.54
543.036	7.5
543.381	7.35
543.726	7.33
544.071	7.36
544.415	7.46
544.76	7.45
545.105	7.52
545.449	7.44
545.794	7.66
546.138	7.53
546.483	7.6
546.827	7.62
547.171	7.76
547.516	7.78
547.86	7.79
548.204	7.7
548.548	7.7
548.892	7.72
549.236	7.74
549.58	7.76
549.924	7.75
550.268	7.88
550.612	7.98
550.956	8.1
551.3	7.82
551.643	7.91
551.987	8.02
552.33	7.94
552.674	8.03
553.017	8.04
553.361	8.06
553.704	8.19
554.048	8.07
554.391	8.08
554.734	8.17
555.077	8.06
555.42	8.04
555.764	7.93
556.107	8.23
556.45	8.18
556.793	7.96
557.135	8.04
557.478	8.17
557.821	8.18
558.164	8.36
558.507	8.32
558.849	8.28
559.192	8.36
559.534	8.52
559.877	8.3
560.219	8.38
560.562	8.4
560.904	8.26
561.246	8.38
561.589	8.37
561.931	8.44
562.273	8.66
562.615	8.67
562.957	8.52
563.299	8.59
563.641	8.62
563.983	8.55
564.325	8.52
564.667	8.61
565.008	8.53
565.35	8.58
565.692	8.67
566.033	8.74
566.375	8.76
566.716	8.67
567.058	8.66
567.399	8.81
567.741	8.65
568.082	8.74
568.423	8.92
568.764	8.56
569.105	8.83
569.447	8.58
569.788	8.79
570.129	8.95
570.47	8.81
570.811	8.95
571.151	8.81
571.492	8.91
571.833	9.1
572.174	8.87
572.514	9.04
572.855	8.81
573.195	9.05
573.536	8.9
573.876	9.09
574.217	8.95
574.557	8.99
574.898	8.8
575.238	8.98
575.578	8.93
575.918	8.89
576.258	9.12
576.598	9.34
576.938	9.18
577.278	9.1
577.618	8.9
577.958	9.09
578.298	9.3
578.638	9.34
578.977	9.36
579.317	9.3
579.657	9.19
579.996	9.53
580.336	9.46
580.675	9.28
581.014	9.48
581.354	9.56
581.693	9.42
582.032	9.77
582.372	9.44
582.711	9.72
583.05	9.67
583.389	9.59
583.728	9.62
584.067	9.47
584.406	9.89
584.745	9.75
585.083	9.63
585.422	9.78
585.761	9.69
586.1	9.84
586.438	9.48
586.777	9.92
587.115	9.81
587.454	9.86
587.792	9.98
588.13	10.09
588.469	10.1
588.807	9.91
589.145	10.09
589.483	9.94
589.821	10.11
590.159	10.08
590.497	10.36
590.835	10.3
591.173	10
591.511	10.07
591.849	10
592.187	10.19
592.524	10.07
592.862	10.19
593.2	10.59
593.537	9.94
593.875	10.18
594.212	10.35
594.55	10.17
594.887	10.59
595.224	10.64
595.561	10.29
595.899	10.27
596.236	10.44
596.573	10.57
596.91	10.66
597.247	10.63
597.584	10.38
597.921	10.66
598.258	10.35
598.594	10.58
598.931	10.44
599.268	10.44
599.604	10.52
599.941	10.48
600.277	10.56
600.614	10.52
600.95	10.7
601.287	10.44
601.623	10.59
601.959	10.8
602.296	10.8
602.632	11.19
602.968	10.76
603.304	11.26
603.64	10.84
603.976	10.86
604.312	11.18
604.648	11.02
604.984	11.01
605.319	11.02
605.655	10.72
605.991	11
606.326	10.71
606.662	10.92
606.998	10.74
607.333	11.07
607.668	10.97
608.004	11.04
608.339	11.22
608.674	11.2
609.01	11.1
609.345	11.57
609.68	11.32
610.015	11.21
610.35	11.38
610.685	11.32
611.02	11.57
611.355	11.19
611.689	11.27
612.024	11.5
612.359	11.33
612.694	11.45
613.028	11.52
613.363	11.45
613.697	11.66
614.032	11.48
614.366	11.42
614.7	11.86
615.035	11.72
615.369	12.17
615.703	11.2
616.037	12
616.371	11.75
616.705	11.88
617.039	11.93
617.373	11.86
617.707	11.93
618.041	11.9
618.375	12.16
618.709	12.06
619.042	12.1
619.376	12.25
619.71	12.34
620.043	11.97
620.377	11.79
620.71	12.36
621.043	12.35
621.377	12.2
621.71	12.35
622.043	12.44
622.376	12.2
622.709	12.4
623.043	12.51
623.376	12.27
623.709	12.31
624.041	12.49
624.374	12.61
624.707	12.5
625.04	12.67
625.373	12.55
625.705	12.65
626.038	12.63
626.37	12.34
626.703	12.55
627.035	12.62
627.368	12.3
627.7	12.76
628.032	12.75
628.365	12.76
628.697	12.74
629.029	12.55
629.361	12.66
629.693	12.54
630.025	12.77
630.357	12.75
630.689	12.42
631.021	13.15
631.353	12.81
631.684	12.68
632.016	13.43
632.348	12.87
632.679	13.17
633.011	13.32
633.342	12.97
633.674	12.97
634.005	13.09
634.336	13.51
634.668	13.02
634.999	13.31
635.33	12.85
635.661	13.78
635.992	13.42
636.323	13.61
636.654	13.32
636.985	13.22
637.316	13.35
637.647	13.27
637.977	13.56
638.308	13.18
638.639	13.16
638.969	13.73
639.3	13.24
639.63	13.23
639.961	13.25
640.291	13.32
640.622	13.27
640.952	14.11
641.282	13.64
641.612	13.57
641.943	14.21
642.273	13.62
642.603	14.17
642.933	14.25
643.263	14.1
643.592	13.85
643.922	14.23
644.252	13.92
644.582	13.79
644.911	14.26
645.241	14.39
645.571	14.6
645.9	14
646.23	14.18
646.559	13.69
646.888	14.29
647.218	14.24
647.547	13.78
647.876	14.25
648.205	14.3
648.534	14.36
648.863	13.92
649.192	14.25
649.521	14.14
649.85	14.27
650.179	14.42
650.508	14.3
650.837	14.72
651.165	14.76
651.494	14.35
651.822	14.24
652.151	14.56
652.479	14.54
652.808	14.91
653.136	14.42
653.465	15.26
653.793	14.81
654.121	14.89
654.449	14.83
654.777	14.95
655.105	15.01
655.433	14.96
655.761	15.36
656.089	15.48
656.417	14.59
656.745	15.19
657.073	15.25
657.4	15.9
657.728	15.43
658.056	15.36
658.383	15.45
658.711	14.89
659.038	15.75
659.365	15.65
659.693	15.54
660.02	15.45
660.347	15.23
660.674	15.19
661.001	15.37
661.329	15.59
661.656	15.38
661.982	15.31
662.309	15.64
662.636	15.33
662.963	15.79
663.29	15.97
663.616	16.07
663.943	15.06
664.27	15.75
664.596	15.73
664.923	15.75
665.249	15.66
665.576	16.01
665.902	15.62
666.228	15.84
666.554	16.14
666.881	15.09
667.207	16.1
667.533	16.2
667.859	16.03
668.185	16.26
668.511	16.35
668.837	16.69
669.162	16.76
669.488	16.44
669.814	15.82
670.139	15.88
670.465	15.65
670.791	16.44
671.116	15.81
671.442	16.35
671.767	16.67
672.092	16.26
672.418	16.91
672.743	16.51
673.068	16.57
673.393	16.91
673.718	16.85
674.043	16.72
674.368	16.57
674.693	17.1
675.018	16.69
675.343	16.68
675.667	16.1
675.992	17.02
676.317	17.22
676.641	17.39
676.966	17.2
677.29	17.85
677.615	17.49
677.939	16.49
678.264	15.99
678.588	16.95
678.912	17.64
679.236	17.56
679.56	17.1
679.885	17.13
680.209	17.34
680.532	16.97
680.856	16.27
681.18	16.99
681.504	17.04
681.828	17.22
682.152	17.47
682.475	16.92
682.799	17.92
683.122	17.02
683.446	17.2
683.769	17.39
684.093	17.33
684.416	17.39
684.739	16.47
685.062	17.33
685.386	16.97
685.709	17.05
686.032	16.99
