Data from 0283_forehead_Reflection__4__214.txt Node

Date: Fri Oct 20 22:25:29 CDT 2023
User: ToomeyLab
Spectrometer: FLMS14357
Trigger mode: 0
Integration Time (sec): 1.000000E-2
Scans to average: 100
Electric dark correction enabled: true
Nonlinearity correction enabled: false
Boxcar width: 0
XAxis mode: Wavelengths
Number of Pixels in Spectrum: 2048
>>>>>Begin Spectral Data<<<<<
189.047	81.33
189.435	81.33
189.823	81.33
190.211	-174.26
190.599	1072.12
190.987	33.35
191.375	-87.64
191.763	104.96
192.151	-103.39
192.538	57.7
192.926	31.47
193.314	73.72
193.702	-46.51
194.089	1673.61
194.477	-37.2
194.864	303.89
195.252	56.19
195.639	-36.33
196.027	25.34
196.414	87.35
196.801	74.52
197.189	842599276948950
197.576	283.49
197.963	-64.17
198.351	25.3
198.738	32.04
199.125	56.13
199.512	116.12
199.899	32.68
200.286	-11.77
200.673	42.99
201.06	30.76
201.447	30.73
201.833	60.76
202.22	41.29
202.607	54.7
202.994	42.53
203.38	6.1
203.767	49.54
204.154	19.06
204.54	50.31
204.927	24.43
205.313	-1.3
205.699	70.74
206.086	17.47
206.472	56.82
206.858	73.44
207.245	6.44
207.631	50.94
208.017	46.08
208.403	33.07
208.789	47.31
209.175	-3.91
209.561	20.82
209.947	21.56
210.333	9.04
210.719	43.89
211.105	51.71
211.491	23.29
211.876	17.18
212.262	65.74
212.648	35.69
213.034	9.92
213.419	15.36
213.805	20.84
214.19	15.17
214.576	39.88
214.961	62.41
215.346	8.45
215.732	33.62
216.117	-12.11
216.502	33.55
216.888	20.07
217.273	-8.87
217.658	22.07
218.043	17.04
218.428	21.08
218.813	1.78
219.198	2.9
219.583	-8.3
219.968	15.71
220.353	22.99
220.738	23.12
221.122	1.6
221.507	4.78
221.892	16.13
222.276	16.34
222.661	18.1
223.046	13.91
223.43	16.13
223.815	20.89
224.199	17.66
224.583	4.12
224.968	-0.06
225.352	-0.21
225.736	1.22
226.121	7.14
226.505	1.53
226.889	14.17
227.273	5.84
227.657	9.57
228.041	11.26
228.425	6.83
228.809	9.61
229.193	4.66
229.577	7.55
229.961	4.63
230.344	4.92
230.728	4.14
231.112	4.87
231.495	4.02
231.879	4.69
232.263	6.28
232.646	2.18
233.03	4.15
233.413	5
233.797	5.58
234.18	3.77
234.563	6.04
234.946	8.04
235.33	4.48
235.713	5.99
236.096	6.47
236.479	5.69
236.862	4.65
237.245	3.39
237.628	4.83
238.011	5.98
238.394	4.84
238.777	5.89
239.16	4.81
239.543	6.37
239.925	5.31
240.308	6.97
240.691	5.62
241.073	3.95
241.456	5.76
241.838	6.46
242.221	7.17
242.603	5.31
242.986	5.43
243.368	4.78
243.75	4.86
244.133	4.26
244.515	4.71
244.897	4.73
245.279	4.95
245.661	5
246.043	4.36
246.425	4.51
246.807	4.88
247.189	4.75
247.571	4.55
247.953	5.13
248.335	4.92
248.717	4.68
249.098	4.85
249.48	4.71
249.862	4.98
250.243	5.23
250.625	5
251.006	5.03
251.388	5.15
251.769	5.52
252.151	4.35
252.532	5.2
252.913	5.62
253.295	4.78
253.676	4.55
254.057	5.4
254.438	4.92
254.819	5.2
255.2	5.26
255.581	4.32
255.962	5.25
256.343	5.71
256.724	4.83
257.105	5.84
257.486	4.9
257.867	5.43
258.247	5.55
258.628	4.54
259.009	4.96
259.389	4.71
259.77	4.84
260.15	5.27
260.531	5.02
260.911	5.13
261.292	4.45
261.672	5.02
262.052	4.78
262.432	5.01
262.813	4.79
263.193	4.86
263.573	5.13
263.953	4.72
264.333	5.25
264.713	5.25
265.093	4.98
265.473	5.72
265.853	5.08
266.233	4.92
266.612	5.02
266.992	4.68
267.372	5.39
267.752	5.18
268.131	5.75
268.511	5.08
268.89	4.67
269.27	4.66
269.649	4.23
270.029	4.45
270.408	4.97
270.787	5.17
271.167	4.13
271.546	4.86
271.925	5.07
272.304	5.12
272.683	5.08
273.062	4.93
273.441	4.49
273.82	4.59
274.199	4.61
274.578	4.59
274.957	4.71
275.336	4.7
275.715	4.9
276.093	4.58
276.472	5.24
276.851	4.91
277.229	4.38
277.608	4.02
277.986	4.31
278.365	4.6
278.743	4.48
279.122	4.29
279.5	4.83
279.878	4.44
280.257	4.84
280.635	5.12
281.013	5.4
281.391	5.14
281.769	4.43
282.147	4.32
282.525	4.83
282.903	4.74
283.281	4.57
283.659	4.81
284.037	4.89
284.415	4.62
284.792	4.39
285.17	4.41
285.548	4.41
285.925	4.41
286.303	4.17
286.68	4.36
287.058	5.09
287.435	4.72
287.813	4.19
288.19	4.22
288.567	4.63
288.945	4.89
289.322	5.49
289.699	4.02
290.076	5.52
290.453	5.04
290.83	4.88
291.207	5.33
291.584	4.37
291.961	4.78
292.338	4.87
292.715	5.01
293.092	4.72
293.469	5.19
293.845	4.77
294.222	5.16
294.599	5.06
294.975	5.57
295.352	5.51
295.728	5.5
296.105	5.18
296.481	5.52
296.858	5.09
297.234	5.28
297.61	5.09
297.986	5.36
298.363	5.45
298.739	5.19
299.115	5.3
299.491	5.5
299.867	5.14
300.243	5.36
300.619	5.05
300.995	5.26
301.371	6.39
301.746	5.91
302.122	6.28
302.498	6.18
302.874	5.71
303.249	6.16
303.625	5.94
304	6.79
304.376	5.63
304.751	5.58
305.127	5.51
305.502	6.9
305.878	6.8
306.253	6.03
306.628	6.58
307.003	5.91
307.378	6.06
307.754	6.02
308.129	6.71
308.504	6.45
308.879	6.58
309.254	7.22
309.629	6.59
310.003	6
310.378	6.97
310.753	6.92
311.128	7.22
311.502	6.97
311.877	7.06
312.252	6.66
312.626	7.19
313.001	7.31
313.375	7.15
313.75	7.07
314.124	6.83
314.498	7.12
314.873	6.55
315.247	7.41
315.621	7.84
315.995	7.47
316.369	7.57
316.743	7.88
317.117	7.55
317.491	7.44
317.865	8.18
318.239	8.19
318.613	8.5
318.987	7.83
319.361	6.88
319.734	7.65
320.108	8.08
320.482	8.08
320.855	8.19
321.229	8.33
321.602	8.43
321.976	7.9
322.349	8.89
322.723	8.34
323.096	8.06
323.469	8.45
323.843	9.17
324.216	8.77
324.589	8.74
324.962	8.6
325.335	8.57
325.708	8.92
326.081	9.01
326.454	9.16
326.827	9.19
327.2	9.25
327.573	9.54
327.945	8.85
328.318	8.77
328.691	9.16
329.063	9.3
329.436	9.06
329.809	9.61
330.181	9.22
330.553	9.17
330.926	9.45
331.298	9.26
331.671	9.02
332.043	9.12
332.415	9.6
332.787	9.74
333.159	9.52
333.532	10.23
333.904	10.08
334.276	9.55
334.648	10.06
335.02	9.95
335.391	10.06
335.763	10.29
336.135	9.53
336.507	9.73
336.879	9.56
337.25	10.32
337.622	10.2
337.993	10.59
338.365	9.93
338.736	10.4
339.108	10.15
339.479	9.8
339.851	9.94
340.222	9.87
340.593	9.48
340.964	9.99
341.336	10.7
341.707	10.48
342.078	10.41
342.449	10.02
342.82	10.5
343.191	10.4
343.562	10.8
343.933	10.25
344.303	10.34
344.674	10.39
345.045	11
345.416	10.87
345.786	10.01
346.157	10.4
346.527	10.36
346.898	10.35
347.268	10.98
347.639	10.81
348.009	10.84
348.38	10.66
348.75	10.92
349.12	10.49
349.49	10.94
349.861	11.18
350.231	10.97
350.601	11.37
350.971	11
351.341	11.53
351.711	11.92
352.081	11.13
352.45	11.33
352.82	11.73
353.19	11.83
353.56	11.56
353.929	11.11
354.299	11.32
354.669	11.69
355.038	11.49
355.408	11.89
355.777	11.56
356.147	11.73
356.516	11.39
356.885	11.93
357.254	11.56
357.624	11.43
357.993	11.55
358.362	11.98
358.731	11.44
359.1	11.46
359.469	11.61
359.838	11.59
360.207	11.92
360.576	12.15
360.945	11.53
361.314	12.05
361.682	11.87
362.051	11.68
362.42	12.13
362.788	12.08
363.157	11.91
363.525	11.87
363.894	11.91
364.262	12.02
364.631	12.09
364.999	12.3
365.367	12.31
365.735	12.37
366.104	12.24
366.472	12.26
366.84	12.5
367.208	12.74
367.576	12.39
367.944	12.54
368.312	12.53
368.68	12.54
369.048	12.82
369.416	12.9
369.783	12.98
370.151	12.94
370.519	13.27
370.886	13.13
371.254	13.42
371.621	13.38
371.989	12.98
372.356	13.22
372.724	13.26
373.091	13.12
373.458	13.04
373.826	13.03
374.193	13.13
374.56	13.13
374.927	13.43
375.294	13.33
375.661	13.61
376.028	13.65
376.395	13.6
376.762	13.32
377.129	13.49
377.496	13.19
377.863	13.7
378.229	13.66
378.596	13.73
378.963	13.61
379.329	14.03
379.696	13.29
380.062	13.56
380.429	13.52
380.795	13.55
381.161	13.73
381.528	14.07
381.894	13.83
382.26	14.14
382.626	14.32
382.993	13.98
383.359	14.06
383.725	13.95
384.091	14.01
384.457	14.19
384.823	14.14
385.188	14.48
385.554	14.12
385.92	14.26
386.286	14.41
386.651	14.37
387.017	14.42
387.383	14.21
387.748	14.1
388.114	14.19
388.479	14.49
388.845	14.6
389.21	14.46
389.575	14.24
389.94	14.38
390.306	14.52
390.671	14.46
391.036	14.84
391.401	14.91
391.766	14.82
392.131	14.71
392.496	14.73
392.861	14.88
393.226	15.02
393.591	14.75
393.956	14.87
394.32	14.97
394.685	14.82
395.05	15.09
395.414	15.09
395.779	14.86
396.143	15.11
396.508	14.9
396.872	15.16
397.236	15.12
397.601	15.2
397.965	15.17
398.329	15.18
398.694	15.38
399.058	15.12
399.422	15.46
399.786	15.56
400.15	15.09
400.514	15.42
400.878	15.65
401.242	15.55
401.605	15.73
401.969	15.51
402.333	15.52
402.697	15.83
403.06	15.88
403.424	15.68
403.787	15.84
404.151	16.02
404.514	15.93
404.878	15.92
405.241	16.19
405.604	15.88
405.968	15.97
406.331	15.64
406.694	15.95
407.057	15.89
407.42	16.16
407.783	16.11
408.146	15.96
408.509	16.03
408.872	15.94
409.235	16.23
409.598	16.3
409.961	16.45
410.323	16.52
410.686	15.96
411.049	16.39
411.411	16.48
411.774	16.53
412.136	16.39
412.499	16.53
412.861	16.44
413.223	16.37
413.586	16.61
413.948	16.88
414.31	16.78
414.672	16.55
415.035	16.52
415.397	16.77
415.759	17.12
416.121	16.86
416.483	16.92
416.845	16.98
417.206	16.89
417.568	16.85
417.93	17.09
418.292	16.76
418.653	16.97
419.015	16.83
419.377	16.72
419.738	16.71
420.1	16.74
420.461	16.93
420.822	16.87
421.184	16.8
421.545	16.83
421.906	16.96
422.267	16.91
422.629	16.96
422.99	16.79
423.351	16.77
423.712	16.87
424.073	17.07
424.434	16.96
424.795	17.21
425.155	17.11
425.516	17.01
425.877	17.21
426.238	16.97
426.598	17.18
426.959	17.13
427.32	17.29
427.68	17.35
428.041	17.44
428.401	17.53
428.761	17.73
429.122	17.69
429.482	17.71
429.842	17.79
430.202	18.06
430.563	18.02
430.923	18.06
431.283	17.95
431.643	18.24
432.003	18.2
432.363	17.91
432.722	18.06
433.082	18.2
433.442	17.92
433.802	18.41
434.161	18.12
434.521	18.45
434.881	18.19
435.24	18.16
435.6	18.2
435.959	18.26
436.319	18.44
436.678	18.38
437.037	18.5
437.396	18.66
437.756	18.65
438.115	18.39
438.474	18.74
438.833	18.7
439.192	18.39
439.551	18.66
439.91	18.62
440.269	18.76
440.628	18.86
440.987	18.72
441.345	18.76
441.704	18.67
442.063	18.75
442.421	18.57
442.78	18.71
443.138	18.91
443.497	18.74
443.855	18.93
444.214	18.82
444.572	19.13
444.93	19.08
445.288	19.27
445.647	19.36
446.005	19.08
446.363	19.22
446.721	19.34
447.079	19.22
447.437	19.1
447.795	18.96
448.153	19.08
448.51	19.11
448.868	19.03
449.226	19.14
449.584	19.2
449.941	19.31
450.299	19.36
450.656	19.41
451.014	19.54
451.371	19.72
451.729	19.62
452.086	19.68
452.443	19.86
452.801	19.94
453.158	19.87
453.515	19.79
453.872	19.99
454.229	19.92
454.586	19.89
454.943	20.15
455.3	20.08
455.657	20.37
456.014	20.28
456.371	20.17
456.727	20.26
457.084	20.29
457.441	20.33
457.797	20.46
458.154	20.24
458.51	20.56
458.867	20.57
459.223	20.6
459.58	20.59
459.936	20.73
460.292	20.5
460.648	20.31
461.005	20.52
461.361	20.35
461.717	20.29
462.073	20.2
462.429	20.34
462.785	20.49
463.141	20.75
463.496	20.7
463.852	20.83
464.208	20.99
464.564	21.06
464.919	20.98
465.275	21.17
465.631	21.31
465.986	21.17
466.342	21.05
466.697	21.13
467.052	21.23
467.408	21.19
467.763	21.24
468.118	21.37
468.473	21.41
468.829	21.31
469.184	21.43
469.539	21.56
469.894	21.74
470.249	21.45
470.603	21.72
470.958	21.34
471.313	21.73
471.668	21.69
472.023	21.72
472.377	21.74
472.732	21.63
473.086	21.99
473.441	22.05
473.795	22.19
474.15	22.07
474.504	21.91
474.859	22.07
475.213	22.09
475.567	22.05
475.921	22.12
476.275	22.17
476.63	22.19
476.984	22.49
477.338	22.38
477.692	22.58
478.045	22.42
478.399	22.34
478.753	22.49
479.107	22.41
479.461	22.48
479.814	22.56
480.168	22.46
480.521	22.5
480.875	22.38
481.228	22.64
481.582	22.86
481.935	22.5
482.289	22.63
482.642	22.52
482.995	22.61
483.348	22.72
483.701	22.67
484.055	22.6
484.408	22.41
484.761	22.58
485.114	22.22
485.466	21.97
485.819	21.68
486.172	21.59
486.525	21.7
486.878	21.99
487.23	22.13
487.583	22.48
487.936	22.46
488.288	22.54
488.641	22.58
488.993	22.35
489.345	22.26
489.698	22.2
490.05	22.22
490.402	22.29
490.754	22.5
491.107	22.65
491.459	22.93
491.811	23.08
492.163	23.18
492.515	23.29
492.866	23.18
493.218	23.05
493.57	22.77
493.922	22.67
494.274	22.85
494.625	23.16
494.977	23.19
495.328	23.61
495.68	23.83
496.031	23.89
496.383	24.15
496.734	24.14
497.086	24.15
497.437	24.07
497.788	24.06
498.139	24.18
498.49	24.2
498.842	23.99
499.193	24.12
499.544	24.06
499.894	24.25
500.245	24.12
500.596	24.34
500.947	24.33
501.298	24.4
501.648	24.51
501.999	24.6
502.35	24.71
502.7	24.77
503.051	24.76
503.401	24.71
503.752	25.01
504.102	25.02
504.452	24.98
504.803	24.97
505.153	25.05
505.503	24.94
505.853	25.03
506.203	25.11
506.553	25.15
506.903	25.11
507.253	25.33
507.603	25.26
507.953	25.37
508.303	25.39
508.652	25.55
509.002	25.35
509.352	25.59
509.701	25.4
510.051	25.45
510.4	25.41
510.75	25.46
511.099	25.38
511.449	25.43
511.798	25.55
512.147	25.47
512.496	25.69
512.846	25.59
513.195	25.77
513.544	25.77
513.893	25.74
514.242	25.75
514.591	25.97
514.939	25.81
515.288	25.93
515.637	26.03
515.986	26.08
516.334	26.08
516.683	26.19
517.032	26.15
517.38	26.26
517.729	26.34
518.077	26.45
518.426	26.47
518.774	26.35
519.122	26.35
519.47	26.36
519.819	26.46
520.167	26.22
520.515	26.24
520.863	26.1
521.211	26.12
521.559	26.21
521.907	26.4
522.255	26.39
522.602	26.7
522.95	26.66
523.298	26.97
523.645	26.76
523.993	26.98
524.341	27.05
524.688	27.04
525.036	27.09
525.383	27.23
525.73	27.2
526.078	27.29
526.425	27.24
526.772	27.05
527.119	27.15
527.466	26.94
527.814	26.88
528.161	26.88
528.508	26.85
528.854	26.92
529.201	26.96
529.548	27.09
529.895	26.96
530.242	26.66
530.588	26.39
530.935	26.34
531.282	26.59
531.628	26.75
531.975	26.77
532.321	27.06
532.667	27.26
533.014	27.32
533.36	27.58
533.706	27.68
534.052	27.67
534.399	27.6
534.745	27.65
535.091	27.39
535.437	27.39
535.783	27.38
536.129	27.51
536.474	27.74
536.82	27.94
537.166	28.09
537.512	28.23
537.857	28.22
538.203	28.28
538.549	28.22
538.894	28.12
539.239	28.07
539.585	28.37
539.93	28.56
540.276	28.72
540.621	28.88
540.966	28.93
541.311	28.95
541.656	29.2
542.001	28.89
542.346	28.91
542.691	28.75
543.036	28.5
543.381	28.12
543.726	28.15
544.071	28.23
544.415	28.39
544.76	28.6
545.105	28.74
545.449	28.78
545.794	29.05
546.138	29.11
546.483	29.25
546.827	29.4
547.171	29.55
547.516	29.57
547.86	29.64
548.204	29.41
548.548	29.5
548.892	29.53
549.236	29.48
549.58	29.56
549.924	29.84
550.268	29.87
550.612	30.03
550.956	30.25
551.3	30.28
551.643	30.37
551.987	30.68
552.33	30.48
552.674	30.7
553.017	30.46
553.361	30.51
553.704	30.75
554.048	30.88
554.391	30.6
554.734	30.73
555.077	30.61
555.42	30.58
555.764	30.61
556.107	30.87
556.45	30.84
556.793	31.02
557.135	30.85
557.478	31.14
557.821	31.28
558.164	31.35
558.507	31.62
558.849	31.49
559.192	31.31
559.534	31.59
559.877	31.52
560.219	31.62
560.562	31.75
560.904	31.41
561.246	31.52
561.589	31.61
561.931	31.64
562.273	32.15
562.615	32.05
562.957	31.69
563.299	32.09
563.641	32.01
563.983	32.1
564.325	31.88
564.667	32.11
565.008	32.06
565.35	31.95
565.692	32.27
566.033	32.23
566.375	32.38
566.716	32.43
567.058	32.36
567.399	32.38
567.741	32.35
568.082	32.56
568.423	32.46
568.764	32.26
569.105	32.47
569.447	32.35
569.788	32.58
570.129	32.59
570.47	32.85
570.811	32.79
571.151	32.86
571.492	32.81
571.833	33.03
572.174	32.89
572.514	33.27
572.855	32.91
573.195	33.02
573.536	32.92
573.876	33.09
574.217	33.01
574.557	33.06
574.898	33
575.238	33.16
575.578	33.14
575.918	33.21
576.258	33.65
576.598	33.32
576.938	33.47
577.278	33.62
577.618	33.38
577.958	33.36
578.298	33.44
578.638	33.46
578.977	33.64
579.317	33.81
579.657	33.8
579.996	34
580.336	34.15
580.675	34.13
581.014	34.26
581.354	34.4
581.693	34.36
582.032	34.71
582.372	34.45
582.711	34.61
583.05	34.63
583.389	34.6
583.728	34.79
584.067	34.61
584.406	34.94
584.745	35.04
585.083	34.7
585.422	35.04
585.761	35.01
586.1	35.23
586.438	34.92
586.777	35.25
587.115	35.28
587.454	35.31
587.792	35.29
588.13	35.4
588.469	35.2
588.807	35.44
589.145	35.31
589.483	35.22
589.821	35.51
590.159	35.42
590.497	35.44
590.835	35.44
591.173	35.23
591.511	35.72
591.849	35.34
592.187	35.23
592.524	35.64
592.862	35.59
593.2	35.69
593.537	35.85
593.875	35.81
594.212	35.92
594.55	36.09
594.887	36.16
595.224	36.02
595.561	36.1
595.899	36.31
596.236	35.93
596.573	36.16
596.91	36.48
597.247	36.32
597.584	36.07
597.921	36.2
598.258	36.55
598.594	36.38
598.931	35.9
599.268	35.88
599.604	36.18
599.941	36.4
600.277	36.13
600.614	36.77
600.95	36.7
601.287	36.7
601.623	36.99
601.959	37.11
602.296	36.76
602.632	37.17
602.968	36.74
603.304	37.39
603.64	36.83
603.976	37.4
604.312	37.17
604.648	37.06
604.984	37.32
605.319	36.93
605.655	37.06
605.991	37.26
606.326	37.19
606.662	37
606.998	37.05
607.333	37
607.668	37.09
608.004	37.04
608.339	37.31
608.674	37.58
609.01	37.61
609.345	37.79
609.68	37.78
610.015	37.98
610.35	37.82
610.685	38.29
611.02	37.94
611.355	37.64
611.689	37.57
612.024	37.79
612.359	37.88
612.694	38.05
613.028	38.06
613.363	38.05
613.697	38.22
614.032	38.35
614.366	38.4
614.7	38.49
615.035	38.68
615.369	39.17
615.703	38.06
616.037	38.77
616.371	38.21
616.705	38.84
617.039	38.82
617.373	38.84
617.707	39.08
618.041	38.86
618.375	38.81
618.709	39.15
619.042	39.15
619.376	39.58
619.71	39.18
620.043	39.65
620.377	38.85
620.71	39.13
621.043	39.12
621.377	39.42
621.71	39.21
622.043	39.05
622.376	39.7
622.709	39.7
623.043	39.08
623.376	39.58
623.709	39.17
624.041	39.44
624.374	39.83
624.707	39.75
625.04	39.51
625.373	39.75
625.705	39.69
626.038	39.94
626.37	39.68
626.703	39.7
627.035	39.83
627.368	39.91
627.7	40.01
628.032	40.32
628.365	40.38
628.697	40.01
629.029	39.6
629.361	39.7
629.693	39.7
630.025	40.22
630.357	40.51
630.689	40.3
631.021	40.41
631.353	40.71
631.684	40.19
632.016	40.77
632.348	40.45
632.679	40.09
633.011	40.78
633.342	40.86
633.674	40.92
634.005	40.64
634.336	40.72
634.668	40.71
634.999	40.47
635.33	40.57
635.661	40.7
635.992	41.12
636.323	41.12
636.654	41.04
636.985	41.32
637.316	40.96
637.647	41.27
637.977	41.15
638.308	41.38
638.639	41.36
638.969	40.96
639.3	40.77
639.63	41.07
639.961	41.28
640.291	40.82
640.622	41.41
640.952	41.9
641.282	41.35
641.612	41.55
641.943	41.44
642.273	42.04
642.603	41.86
642.933	42.15
643.263	42.36
643.592	42.07
643.922	42.09
644.252	41.98
644.582	41.96
644.911	42.02
645.241	42.31
645.571	42.41
645.9	42.44
646.23	42.33
646.559	41.77
646.888	42.39
647.218	42.14
647.547	42.42
647.876	42.37
648.205	42.38
648.534	43.02
648.863	42.66
649.192	42.47
649.521	42.62
649.85	42.51
650.179	42.52
650.508	42.62
650.837	42.61
651.165	42.94
651.494	42.62
651.822	42.84
652.151	42.95
652.479	42.9
652.808	42.79
653.136	43.12
653.465	43.1
653.793	42.96
654.121	43.62
654.449	42.97
654.777	43.16
655.105	42.58
655.433	42.58
655.761	43.35
656.089	43.56
656.417	43.41
656.745	43.23
657.073	43.31
657.4	43.99
657.728	43.99
658.056	43.39
658.383	43.56
658.711	44.12
659.038	43.6
659.365	43.75
659.693	43.27
660.02	43.42
660.347	43.3
660.674	43.64
661.001	43.05
661.329	43.61
661.656	43.56
661.982	43.44
662.309	43.92
662.636	43.7
662.963	44.2
663.29	44.04
663.616	44.12
663.943	43.81
664.27	43.71
664.596	43.38
664.923	43.4
665.249	43.98
665.576	43.91
665.902	43.21
666.228	44.35
666.554	44.33
666.881	44.17
667.207	43.88
667.533	44.54
667.859	44.95
668.185	44.61
668.511	45.05
668.837	45
669.162	44.63
669.488	44.68
669.814	44.69
670.139	44.2
