Data from 0283_forehead_Reflection__1__211.txt Node

Date: Fri Oct 20 22:24:57 CDT 2023
User: ToomeyLab
Spectrometer: FLMS14357
Trigger mode: 0
Integration Time (sec): 1.000000E-2
Scans to average: 100
Electric dark correction enabled: true
Nonlinearity correction enabled: false
Boxcar width: 0
XAxis mode: Wavelengths
Number of Pixels in Spectrum: 2048
>>>>>Begin Spectral Data<<<<<
189.047	99.75
189.435	99.75
189.823	99.75
190.211	211.16
190.599	1197.12
190.987	76.34
191.375	156.15
191.763	151.65
192.151	95.56
192.538	-65.05
192.926	51.95
193.314	78.04
193.702	240.02
194.089	3504.17
194.477	26.41
194.864	-221.93
195.252	302.4
195.639	29.24
196.027	175.75
196.414	34.43
196.801	-33.31
197.189	932397877448450
197.576	19.77
197.963	-1549.17
198.351	58.45
198.738	47.41
199.125	12.7
199.512	100.85
199.899	22.37
200.286	-33.13
200.673	84.13
201.06	42.27
201.447	35.43
201.833	79.93
202.22	36.17
202.607	11.32
202.994	42.86
203.38	46.39
203.767	42.7
204.154	16.08
204.54	58.66
204.927	48.97
205.313	-7.01
205.699	78.66
206.086	50.62
206.472	50.97
206.858	58.53
207.245	7.5
207.631	50.49
208.017	38.37
208.403	53.45
208.789	22.98
209.175	39.84
209.561	19.55
209.947	15.96
210.333	39.26
210.719	25.02
211.105	68.7
211.491	22.13
211.876	25.61
212.262	11.11
212.648	68.01
213.034	14.94
213.419	54
213.805	17.64
214.19	3.87
214.576	23.1
214.961	51.89
215.346	42.53
215.732	32.58
216.117	11.2
216.502	24.95
216.888	25.87
217.273	23.29
217.658	7.01
218.043	17.06
218.428	16.97
218.813	23.89
219.198	32.34
219.583	-19.87
219.968	7.61
220.353	19.29
220.738	24.08
221.122	9.05
221.507	14.12
221.892	16.53
222.276	13.71
222.661	21.3
223.046	7.97
223.43	13.17
223.815	20.98
224.199	24.72
224.583	1.33
224.968	1.68
225.352	-0.38
225.736	8.02
226.121	9.85
226.505	-1.53
226.889	8.57
227.273	16.43
227.657	12.45
228.041	10.09
228.425	5.8
228.809	7.46
229.193	6.46
229.577	8.12
229.961	5.79
230.344	6.19
230.728	4.55
231.112	5.94
231.495	5.07
231.879	6.5
232.263	7.4
232.646	4.51
233.03	6.26
233.413	4.31
233.797	4.67
234.18	7.44
234.563	8.91
234.946	8.18
235.33	6.86
235.713	5.29
236.096	8.05
236.479	6.7
236.862	5.66
237.245	8.06
237.628	5.15
238.011	5.97
238.394	4.84
238.777	8.61
239.16	5.93
239.543	8.11
239.925	7.42
240.308	7.86
240.691	6.07
241.073	5.98
241.456	7.19
241.838	5.86
242.221	7.75
242.603	6.31
242.986	6.26
243.368	5.86
243.75	5.65
244.133	5.76
244.515	5.71
244.897	5.85
245.279	6.15
245.661	5.5
246.043	5.87
246.425	5.71
246.807	5.86
247.189	6.13
247.571	5.58
247.953	6.24
248.335	5.67
248.717	5.53
249.098	5.39
249.48	5.74
249.862	5.79
250.243	5.98
250.625	5.82
251.006	6.06
251.388	5.9
251.769	6.4
252.151	6.06
252.532	6.42
252.913	6.67
253.295	5.31
253.676	5.98
254.057	5.65
254.438	6.28
254.819	5.6
255.2	5.46
255.581	5.88
255.962	6.47
256.343	6.46
256.724	5.31
257.105	7.31
257.486	6.43
257.867	6.14
258.247	6.26
258.628	6.71
259.009	6.05
259.389	6.05
259.77	5.59
260.15	6.17
260.531	5.68
260.911	6.09
261.292	5.75
261.672	5.65
262.052	5.79
262.432	5.7
262.813	5.6
263.193	5.92
263.573	5.97
263.953	5.8
264.333	6.06
264.713	6.27
265.093	6.59
265.473	6.78
265.853	6.06
266.233	6.18
266.612	5.99
266.992	5.4
267.372	5.65
267.752	6.17
268.131	5.54
268.511	5.78
268.89	5.53
269.27	5.78
269.649	5.53
270.029	5.91
270.408	5.73
270.787	5.86
271.167	5.96
271.546	5.47
271.925	6.37
272.304	6.15
272.683	5.85
273.062	5.91
273.441	5.89
273.82	5.19
274.199	6.07
274.578	5.85
274.957	5.72
275.336	5.53
275.715	5.91
276.093	5.18
276.472	5.65
276.851	5.82
277.229	5.87
277.608	5.51
277.986	5.06
278.365	6.51
278.743	5.39
279.122	5.35
279.5	5.95
279.878	4.81
280.257	5.05
280.635	5.67
281.013	5.49
281.391	5.23
281.769	5.68
282.147	5.39
282.525	5.33
282.903	5.82
283.281	5.45
283.659	5.8
284.037	5.66
284.415	4.85
284.792	5.26
285.17	5.2
285.548	5.36
285.925	5.1
286.303	5.12
286.68	5.36
287.058	6.02
287.435	5.88
287.813	5.13
288.19	5.4
288.567	5.5
288.945	5.8
289.322	5.99
289.699	4.98
290.076	6.28
290.453	5.51
290.83	5.49
291.207	6.05
291.584	5.42
291.961	5.63
292.338	5.59
292.715	5.5
293.092	5.93
293.469	5.96
293.845	6.07
294.222	5.79
294.599	6.06
294.975	6.83
295.352	6.21
295.728	6.23
296.105	6.05
296.481	6.41
296.858	6.06
297.234	6.49
297.61	5.87
297.986	6.33
298.363	6.63
298.739	6.49
299.115	6.16
299.491	6.47
299.867	6.72
300.243	6.58
300.619	6.41
300.995	6.63
301.371	6.92
301.746	6.93
302.122	7.2
302.498	6.7
302.874	6.62
303.249	7.16
303.625	7.33
304	7.87
304.376	7.03
304.751	6.42
305.127	7.02
305.502	7.6
305.878	6.92
306.253	7.07
306.628	7.65
307.003	7.19
307.378	7.19
307.754	7.58
308.129	8.01
308.504	8.35
308.879	8.27
309.254	8
309.629	7.61
310.003	7.61
310.378	8.34
310.753	8.28
311.128	8.54
311.502	8.06
311.877	8.31
312.252	8.52
312.626	8.7
313.001	8.56
313.375	8.62
313.75	8.72
314.124	8.29
314.498	8.71
314.873	8.7
315.247	9.27
315.621	9.2
315.995	8.92
316.369	9.37
316.743	8.98
317.117	9.2
317.491	9.34
317.865	9.46
318.239	10.31
318.613	9.72
318.987	9.25
319.361	8.37
319.734	9.47
320.108	9.7
320.482	10.46
320.855	10.01
321.229	10.25
321.602	10.18
321.976	10.06
322.349	10.75
322.723	10.63
323.096	10.78
323.469	10.71
323.843	11.03
324.216	10.44
324.589	10.92
324.962	11.37
325.335	10.33
325.708	10.71
326.081	11.04
326.454	11.33
326.827	11.43
327.2	11.24
327.573	11.49
327.945	11.06
328.318	10.55
328.691	11.24
329.063	11.63
329.436	11.06
329.809	11.2
330.181	11.36
330.553	11.8
330.926	11.48
331.298	11.56
331.671	11.8
332.043	11.01
332.415	11.96
332.787	12.07
333.159	11.19
333.532	12.16
333.904	11.45
334.276	12.21
334.648	12.05
335.02	12.28
335.391	12.4
335.763	12.52
336.135	12.45
336.507	12.08
336.879	12.4
337.25	12.53
337.622	12.73
337.993	12.93
338.365	12.73
338.736	12.69
339.108	13.16
339.479	12.47
339.851	13.26
340.222	12.76
340.593	13
340.964	12.47
341.336	13.16
341.707	12.98
342.078	13.36
342.449	12.56
342.82	12.71
343.191	13.26
343.562	13.29
343.933	13.26
344.303	13.28
344.674	13.62
345.045	13.45
345.416	14.02
345.786	13.6
346.157	13.19
346.527	13.66
346.898	13.66
347.268	13.86
347.639	13.68
348.009	13.32
348.38	13.81
348.75	13.99
349.12	13.33
349.49	14.06
349.861	14.3
350.231	13.45
350.601	13.67
350.971	13.87
351.341	14.59
351.711	14.65
352.081	14.22
352.45	13.92
352.82	14.73
353.19	14.65
353.56	14.28
353.929	14.28
354.299	14.56
354.669	14.66
355.038	14.25
355.408	15.22
355.777	14.12
356.147	14.36
356.516	14.72
356.885	14.59
357.254	14.75
357.624	14.65
357.993	14.7
358.362	15.06
358.731	14.85
359.1	14.46
359.469	15.06
359.838	15.23
360.207	15.22
360.576	15.67
360.945	14.88
361.314	15.28
361.682	15.31
362.051	15.05
362.42	15.4
362.788	15.52
363.157	15.36
363.525	15.21
363.894	15.43
364.262	15.46
364.631	15.61
364.999	15.51
365.367	15.96
365.735	15.76
366.104	15.79
366.472	15.94
366.84	16.15
367.208	16.33
367.576	15.9
367.944	16
368.312	16.05
368.68	16.25
369.048	16.44
369.416	16.44
369.783	16.38
370.151	16.54
370.519	16.62
370.886	17.09
371.254	16.69
371.621	16.8
371.989	16.51
372.356	16.88
372.724	16.87
373.091	17.1
373.458	16.69
373.826	16.96
374.193	16.69
374.56	17.16
374.927	16.94
375.294	17.02
375.661	17.1
376.028	17.26
376.395	17.64
376.762	17.25
377.129	17.52
377.496	17.61
377.863	17.33
378.229	17.38
378.596	17.76
378.963	17.54
379.329	17.74
379.696	17.63
380.062	17.61
380.429	17.75
380.795	17.89
381.161	17.62
381.528	18.29
381.894	18.02
382.26	17.85
382.626	18.05
382.993	18.35
383.359	18.16
383.725	18.24
384.091	18.53
384.457	18.22
384.823	18.75
385.188	18.73
385.554	18.32
385.92	18.63
386.286	18.59
386.651	18.58
387.017	18.56
387.383	18.67
387.748	18.69
388.114	18.33
388.479	18.71
388.845	18.88
389.21	18.59
389.575	18.68
389.94	18.95
390.306	18.91
390.671	19.19
391.036	19.19
391.401	19.12
391.766	19.2
392.131	19.13
392.496	19.32
392.861	19.12
393.226	19.24
393.591	19.29
393.956	19.33
394.32	19.6
394.685	19.44
395.05	19.63
395.414	19.97
395.779	19.51
396.143	19.69
396.508	19.78
396.872	19.77
397.236	19.97
397.601	19.85
397.965	19.8
398.329	19.92
398.694	20.12
399.058	19.78
399.422	20.2
399.786	20.17
400.15	20.32
400.514	20.26
400.878	20.23
401.242	20.53
401.605	20.4
401.969	20.24
402.333	20.5
402.697	20.6
403.06	20.68
403.424	20.6
403.787	20.49
404.151	20.68
404.514	20.72
404.878	20.74
405.241	20.86
405.604	20.72
405.968	20.81
406.331	20.81
406.694	20.91
407.057	20.96
407.42	21.11
407.783	21.25
408.146	20.98
408.509	21.16
408.872	21.08
409.235	20.97
409.598	21.32
409.961	21.28
410.323	21.5
410.686	21.12
411.049	21.85
411.411	21.38
411.774	21.54
412.136	21.61
412.499	21.74
412.861	21.76
413.223	21.55
413.586	21.53
413.948	21.94
414.31	22.13
414.672	21.53
415.035	21.72
415.397	22.07
415.759	22.29
416.121	22.01
416.483	22
416.845	21.98
417.206	22.11
417.568	22.28
417.93	22.05
418.292	22.07
418.653	22.36
419.015	22.33
419.377	22.14
419.738	22.33
420.1	22.21
420.461	22.14
420.822	22.22
421.184	22.23
421.545	22.24
421.906	22.28
422.267	22.26
422.629	22.41
422.99	22.22
423.351	22.26
423.712	22.24
424.073	22.43
424.434	22.46
424.795	22.62
425.155	22.73
425.516	22.52
425.877	22.53
426.238	22.5
426.598	22.71
426.959	22.57
427.32	22.92
427.68	22.96
428.041	22.89
428.401	23.07
428.761	23.34
429.122	23.2
429.482	23.32
429.842	23.53
430.202	23.67
430.563	23.7
430.923	23.73
431.283	23.54
431.643	23.89
432.003	23.73
432.363	23.53
432.722	23.81
433.082	24.02
433.442	23.8
433.802	23.97
434.161	24.05
434.521	23.99
434.881	23.68
435.24	24.03
435.6	23.99
435.959	23.95
436.319	24.17
436.678	24.3
437.037	24.13
437.396	24.47
437.756	24.54
438.115	24.41
438.474	24.68
438.833	24.46
439.192	24.54
439.551	24.63
439.91	24.72
440.269	24.66
440.628	24.74
440.987	24.78
441.345	24.76
441.704	24.65
442.063	24.68
442.421	24.55
442.78	24.63
443.138	24.88
443.497	24.69
443.855	25.03
444.214	25.14
444.572	24.8
444.93	25.2
445.288	25.22
445.647	25.46
446.005	25.08
446.363	25.24
446.721	25.29
447.079	25.38
447.437	25.27
447.795	25.03
448.153	25.16
448.51	25.16
448.868	25.17
449.226	25.2
449.584	25.33
449.941	25.44
450.299	25.5
450.656	25.76
451.014	25.73
451.371	25.98
451.729	25.96
452.086	26.01
452.443	26.09
452.801	25.91
453.158	26.25
453.515	26.26
453.872	26.26
454.229	26.36
454.586	26.33
454.943	26.31
455.3	26.22
455.657	26.31
456.014	26.47
456.371	26.57
456.727	26.68
457.084	26.73
457.441	26.84
457.797	26.79
458.154	26.77
458.51	26.76
458.867	27.03
459.223	27.17
459.58	27.03
459.936	27.1
460.292	26.86
460.648	26.84
461.005	26.83
461.361	26.89
461.717	26.66
462.073	26.7
462.429	26.71
462.785	26.89
463.141	27.03
463.496	27.13
463.852	27.31
464.208	27.47
464.564	27.7
464.919	27.59
465.275	27.77
465.631	27.55
465.986	27.81
466.342	27.83
466.697	27.71
467.052	27.77
467.408	27.8
467.763	27.93
468.118	28.11
468.473	28.01
468.829	27.96
469.184	27.98
469.539	28.29
469.894	28.11
470.249	28.23
470.603	28.29
470.958	28.26
471.313	28.36
471.668	28.43
472.023	28.33
472.377	28.36
472.732	28.36
473.086	28.57
473.441	28.65
473.795	28.82
474.15	28.74
474.504	28.59
474.859	28.91
475.213	28.88
475.567	28.76
475.921	28.89
476.275	28.95
476.63	29.07
476.984	28.91
477.338	29.16
477.692	29.18
478.045	29.22
478.399	29.24
478.753	29.33
479.107	29.13
479.461	29.25
479.814	29.29
480.168	29.35
480.521	29.55
480.875	29.34
481.228	29.4
481.582	29.51
481.935	29.66
482.289	29.6
482.642	29.45
482.995	29.5
483.348	29.47
483.701	29.59
484.055	29.47
484.408	29.18
484.761	29.31
485.114	29.15
485.466	28.77
485.819	28.66
486.172	28.63
486.525	28.67
486.878	28.77
487.23	28.96
487.583	29.15
487.936	29.33
488.288	29.42
488.641	29.51
488.993	29.34
489.345	29.33
489.698	29.2
490.05	29.24
490.402	29.29
490.754	29.34
491.107	29.59
491.459	29.84
491.811	29.97
492.163	30.12
492.515	30.32
492.866	30.26
493.218	30.03
493.57	29.77
493.922	29.74
494.274	29.87
494.625	29.92
494.977	30.17
495.328	30.35
495.68	30.72
496.031	30.84
496.383	30.98
496.734	31.2
497.086	31.17
497.437	31.23
497.788	31.53
498.139	31.4
498.49	31.25
498.842	31.26
499.193	31.25
499.544	31.23
499.894	31.4
500.245	31.4
500.596	31.47
500.947	31.61
501.298	31.71
501.648	31.77
501.999	31.88
502.35	31.91
502.7	31.97
503.051	32.09
503.401	32.09
503.752	32.21
504.102	32.02
504.452	32.21
504.803	32.24
505.153	32.29
505.503	32.13
505.853	32.13
506.203	32.22
506.553	32.31
506.903	32.31
507.253	32.42
507.603	32.49
507.953	32.54
508.303	32.58
508.652	32.67
509.002	32.61
509.352	32.46
509.701	32.78
510.051	32.7
510.4	32.69
510.75	32.8
511.099	32.72
511.449	32.73
511.798	32.8
512.147	32.91
512.496	32.99
512.846	32.81
513.195	32.99
513.544	32.92
513.893	32.97
514.242	33.01
514.591	33.2
514.939	33.12
515.288	33.15
515.637	33.26
515.986	33.29
516.334	33.56
516.683	33.54
517.032	33.6
517.38	33.44
517.729	33.86
518.077	33.95
518.426	33.73
518.774	33.45
519.122	33.72
519.47	33.64
519.819	33.65
520.167	33.48
520.515	33.52
520.863	33.46
521.211	33.47
521.559	33.5
521.907	33.61
522.255	33.71
522.602	33.99
522.95	33.9
523.298	34.29
523.645	34.21
523.993	34.31
524.341	34.51
524.688	34.54
525.036	34.53
525.383	34.49
525.73	34.35
526.078	34.52
526.425	34.69
526.772	34.47
527.119	34.34
527.466	34.23
527.814	34.29
528.161	34.06
528.508	34.2
528.854	34.3
529.201	34.38
529.548	34.31
529.895	34.21
530.242	33.96
530.588	33.62
530.935	33.69
531.282	33.85
531.628	33.89
531.975	33.93
532.321	34.24
532.667	34.39
533.014	34.61
533.36	34.86
533.706	34.87
534.052	34.9
534.399	34.9
534.745	34.87
535.091	34.85
535.437	34.74
535.783	34.57
536.129	34.8
536.474	34.86
536.82	34.97
537.166	35.2
537.512	35.33
537.857	35.54
538.203	35.37
538.549	35.38
538.894	35.24
539.239	35.32
539.585	35.5
539.93	35.82
540.276	35.75
540.621	36.04
540.966	35.98
541.311	36.11
541.656	36.26
542.001	36.28
542.346	36.18
542.691	36
543.036	35.6
543.381	35.42
543.726	35.33
544.071	35.48
544.415	35.53
544.76	35.72
545.105	35.9
545.449	35.88
545.794	36.02
546.138	36.22
546.483	36.51
546.827	36.54
547.171	36.59
547.516	36.69
547.86	36.73
548.204	36.53
548.548	36.82
548.892	36.73
549.236	36.79
549.58	36.8
549.924	36.78
550.268	37.13
550.612	37.17
550.956	37.62
551.3	37.34
551.643	37.66
551.987	38.02
552.33	37.64
552.674	37.66
553.017	37.84
553.361	37.86
553.704	38.2
554.048	37.97
554.391	37.92
554.734	37.85
555.077	37.97
555.42	38
555.764	37.82
556.107	38.1
556.45	37.88
556.793	37.99
557.135	37.99
557.478	38.12
557.821	38.43
558.164	38.52
558.507	38.54
558.849	38.74
559.192	38.52
559.534	38.61
559.877	38.57
560.219	38.95
560.562	38.49
560.904	38.55
561.246	38.61
561.589	38.77
561.931	38.87
562.273	39
562.615	39.11
562.957	38.87
563.299	39.02
563.641	39.09
563.983	38.92
564.325	39.01
564.667	38.99
565.008	39.36
565.35	39.03
565.692	39.33
566.033	39.19
566.375	39.37
566.716	39.26
567.058	39.6
567.399	39.48
567.741	39.17
568.082	39.31
568.423	39.44
568.764	39.1
569.105	39.27
569.447	39.37
569.788	39.52
570.129	39.4
570.47	39.62
570.811	39.7
571.151	39.8
571.492	39.75
571.833	39.72
572.174	39.67
572.514	40.13
572.855	39.88
573.195	39.76
573.536	39.71
573.876	39.85
574.217	39.82
574.557	39.67
574.898	39.99
575.238	39.94
575.578	40.01
575.918	39.9
576.258	40.19
576.598	40.36
576.938	40.15
577.278	40.06
577.618	40.22
577.958	40.29
578.298	40.39
578.638	40.37
578.977	40.45
579.317	40.64
579.657	40.56
579.996	40.73
580.336	40.95
580.675	40.92
581.014	40.84
581.354	41.15
581.693	41.13
582.032	41.01
582.372	41.3
582.711	41.26
583.05	41.23
583.389	41.29
583.728	41.34
584.067	41.3
584.406	41.4
584.745	41.56
585.083	41.8
585.422	41.54
585.761	41.44
586.1	41.58
586.438	41.62
586.777	41.73
587.115	41.69
587.454	41.55
587.792	42
588.13	41.86
588.469	42
588.807	41.97
589.145	41.99
589.483	41.79
589.821	41.97
590.159	41.99
590.497	42.16
590.835	42.05
591.173	42
591.511	42.39
591.849	41.92
592.187	42.2
592.524	42.09
592.862	42.22
593.2	42.4
593.537	42.19
593.875	42.42
594.212	42.75
594.55	42.5
594.887	42.53
595.224	42.57
595.561	42.31
595.899	42.49
596.236	42.78
596.573	42.56
596.91	42.53
597.247	42.67
597.584	42.72
597.921	42.6
598.258	42.63
598.594	43.2
598.931	42.36
599.268	42.34
599.604	42.63
599.941	42.43
600.277	42.51
600.614	42.83
600.95	43
601.287	42.6
601.623	43.01
601.959	43.05
602.296	43.42
602.632	43.43
602.968	42.91
603.304	43.76
603.64	43.33
603.976	43.54
604.312	43.66
604.648	43.27
604.984	43.6
605.319	43.29
605.655	43.15
605.991	43.31
606.326	43.37
606.662	43.1
606.998	43.24
607.333	43.29
607.668	43.3
608.004	43.27
608.339	43.39
608.674	43.69
609.01	43.57
609.345	44.13
609.68	44.19
610.015	43.88
610.35	43.77
610.685	44.16
611.02	44.13
611.355	43.82
611.689	43.61
612.024	43.84
612.359	43.85
612.694	43.82
613.028	44.05
613.363	44.19
613.697	44.55
614.032	44.23
614.366	44.42
614.7	44.43
615.035	44.89
615.369	44.65
615.703	44.19
616.037	44.55
616.371	44.45
616.705	44.85
617.039	44.84
617.373	44.66
617.707	44.94
618.041	44.54
618.375	44.92
618.709	44.95
619.042	45.05
619.376	45.49
619.71	44.73
620.043	45.32
620.377	44.88
620.71	45.17
621.043	45.23
621.377	45.19
621.71	44.9
622.043	45.59
622.376	45.54
622.709	45.56
623.043	45.61
623.376	45.03
623.709	45.39
624.041	45.31
624.374	45.95
624.707	45.98
625.04	45.45
625.373	45.7
625.705	45.47
626.038	45.69
626.37	45.32
626.703	45.64
627.035	45.83
627.368	45.44
627.7	45.93
628.032	45.96
628.365	45.55
628.697	45.51
629.029	45.53
629.361	45.4
629.693	45.54
630.025	45.57
630.357	46.08
630.689	46.18
631.021	46.29
631.353	45.98
631.684	46.22
632.016	46.21
632.348	46.11
632.679	46.18
633.011	46.17
633.342	46.7
633.674	46.37
634.005	46
634.336	46.59
634.668	46.79
634.999	46.39
635.33	46.05
635.661	46.66
635.992	46.45
636.323	46.71
636.654	46.6
636.985	46.74
637.316	46.41
637.647	46.64
637.977	46.42
638.308	46.39
638.639	46.85
638.969	46.62
639.3	46.24
639.63	46.87
639.961	46.79
640.291	46.79
640.622	47.05
640.952	47.16
641.282	47.16
641.612	47.06
641.943	47.11
642.273	46.87
642.603	47.27
642.933	47.37
643.263	48.14
643.592	46.95
643.922	47.19
644.252	47.41
644.582	47.34
644.911	47.18
645.241	47.54
645.571	47.74
645.9	47.22
646.23	47.73
646.559	47.21
646.888	47.74
647.218	47.63
647.547	47.7
647.876	47.53
648.205	47.44
648.534	48.01
648.863	47.69
649.192	47.8
649.521	47.86
649.85	47.71
650.179	46.93
650.508	48.03
650.837	47.54
651.165	48.14
651.494	48.14
651.822	48.15
652.151	47.9
652.479	47.85
652.808	48.3
653.136	47.72
653.465	48.07
653.793	48.54
654.121	48.62
654.449	48.39
654.777	48.52
655.105	48.41
655.433	48.01
655.761	48.49
656.089	48.48
656.417	48.56
656.745	48.95
657.073	48.53
657.4	49.23
657.728	49.34
658.056	48.8
658.383	48.67
658.711	48.79
659.038	49.08
659.365	48.6
659.693	48.86
660.02	48.27
660.347	48.56
660.674	48.98
661.001	49.18
661.329	49.34
661.656	48.78
661.982	48.88
662.309	48.86
662.636	48.67
662.963	49.2
663.29	48.92
663.616	48.89
663.943	48.95
664.27	49.5
664.596	48.71
664.923	48.84
665.249	48.7
665.576	48.53
665.902	48.91
666.228	49.38
666.554	49.44
666.881	48.45
667.207	49.04
667.533	49.23
667.859	49.81
668.185	49.73
668.511	49.85
668.837	50.2
669.162	49.56
669.488	49.57
