Data from 0283_crown_Reflection__4__209.txt Node

Date: Fri Oct 20 22:24:14 CDT 2023
User: ToomeyLab
Spectrometer: FLMS14357
Trigger mode: 0
Integration Time (sec): 1.000000E-2
Scans to average: 100
Electric dark correction enabled: true
Nonlinearity correction enabled: false
Boxcar width: 0
XAxis mode: Wavelengths
Number of Pixels in Spectrum: 2048
>>>>>Begin Spectral Data<<<<<
189.047	-144.76
189.435	-144.76
189.823	-144.76
190.211	-202.08
190.599	-1786.54
190.987	108.22
191.375	189.36
191.763	235.85
192.151	-97.14
192.538	29.69
192.926	167.46
193.314	72.8
193.702	322.56
194.089	5513.89
194.477	59.01
194.864	137.3
195.252	152.78
195.639	-51.03
196.027	4.48
196.414	160.99
196.801	178.16
197.189	169765237440600
197.576	109.37
197.963	-528.33
198.351	19.89
198.738	-13.91
199.125	22.83
199.512	104.94
199.899	1.69
200.286	-0.26
200.673	33.16
201.06	-16.88
201.447	-4.46
201.833	59.41
202.22	28.31
202.607	49.71
202.994	31.06
203.38	-7.39
203.767	-2.24
204.154	30.54
204.54	41.93
204.927	17.93
205.313	-5.89
205.699	40.93
206.086	22.5
206.472	52.07
206.858	77.68
207.245	30.53
207.631	41.78
208.017	5.93
208.403	45.25
208.789	44.35
209.175	-21.47
209.561	23.77
209.947	1.5
210.333	36.73
210.719	30.64
211.105	53.81
211.491	45.56
211.876	-7.33
212.262	29.23
212.648	35.72
213.034	32.92
213.419	-2.58
213.805	-8.82
214.19	-18.93
214.576	-10.8
214.961	6.57
215.346	17.44
215.732	41.07
216.117	-32.77
216.502	9.61
216.888	8.92
217.273	-9.73
217.658	10.73
218.043	10.27
218.428	-9.46
218.813	9.79
219.198	-16.16
219.583	-50.08
219.968	-13.27
220.353	12.08
220.738	4.7
221.122	-4.22
221.507	4.74
221.892	7.68
222.276	11.27
222.661	17.33
223.046	18.35
223.43	8.87
223.815	15.18
224.199	15.37
224.583	-0.16
224.968	8.01
225.352	-6.06
225.736	8.48
226.121	13.11
226.505	11.56
226.889	6.55
227.273	9.23
227.657	17.32
228.041	5.92
228.425	6.19
228.809	6.71
229.193	9.43
229.577	9.13
229.961	6.35
230.344	7.16
230.728	6.67
231.112	7.27
231.495	7.12
231.879	6.65
232.263	7.43
232.646	5.76
233.03	4.69
233.413	6.05
233.797	7.5
234.18	5.95
234.563	7.02
234.946	6.91
235.33	10.59
235.713	6.57
236.096	8.08
236.479	7.33
236.862	7.12
237.245	5.78
237.628	7.46
238.011	8.77
238.394	7.03
238.777	9.09
239.16	6.66
239.543	8.89
239.925	9.09
240.308	6.65
240.691	4.69
241.073	7.78
241.456	6.37
241.838	6.55
242.221	7.75
242.603	6.31
242.986	6.85
243.368	7.28
243.75	6.77
244.133	6.57
244.515	6.34
244.897	6.43
245.279	6.4
245.661	6.46
246.043	6.13
246.425	6.44
246.807	7.09
247.189	6.77
247.571	6.31
247.953	6.58
248.335	6.4
248.717	6.49
249.098	5.75
249.48	5.9
249.862	6.22
250.243	6.27
250.625	6.21
251.006	6.38
251.388	6.37
251.769	7.04
252.151	5.89
252.532	6.9
252.913	6.75
253.295	5.46
253.676	6.72
254.057	5.94
254.438	6.11
254.819	6.4
255.2	5.22
255.581	6.09
255.962	5.72
256.343	7.45
256.724	5.33
257.105	5.5
257.486	6.54
257.867	5.55
258.247	6.69
258.628	5.15
259.009	5.3
259.389	5.35
259.77	5.35
260.15	5.44
260.531	6.02
260.911	6.16
261.292	5.35
261.672	5.57
262.052	5.64
262.432	5.66
262.813	5.75
263.193	5.94
263.573	5.39
263.953	5.74
264.333	5.52
264.713	5.84
265.093	6.28
265.473	6.12
265.853	5.28
266.233	5.44
266.612	5.23
266.992	5.93
267.372	5.29
267.752	5.46
268.131	6.43
268.511	5.67
268.89	5.5
269.27	4.64
269.649	5.01
270.029	5.85
270.408	5.18
270.787	5.02
271.167	5.52
271.546	5.94
271.925	6.25
272.304	5.22
272.683	5.8
273.062	5.49
273.441	5.61
273.82	5.5
274.199	5.35
274.578	5.41
274.957	5.4
275.336	6.09
275.715	5.42
276.093	5.05
276.472	5.29
276.851	5.21
277.229	5.09
277.608	5.1
277.986	5.27
278.365	6.01
278.743	4.84
279.122	5.3
279.5	4.84
279.878	4.64
280.257	4.85
280.635	5.01
281.013	5.1
281.391	5.18
281.769	4.64
282.147	4.47
282.525	5.36
282.903	5
283.281	5
283.659	5.06
284.037	5.52
284.415	4.66
284.792	5.15
285.17	5.19
285.548	5
285.925	4.65
286.303	4.66
286.68	4.76
287.058	5.52
287.435	5.27
287.813	4.46
288.19	4.71
288.567	5.09
288.945	5.44
289.322	5.14
289.699	4.8
290.076	5.3
290.453	4.96
290.83	4.54
291.207	5.59
291.584	4.87
291.961	4.58
292.338	4.57
292.715	4.81
293.092	5.09
293.469	4.87
293.845	4.5
294.222	4.88
294.599	4.32
294.975	5.55
295.352	4.99
295.728	5.02
296.105	4.85
296.481	4.82
296.858	4.47
297.234	4.73
297.61	4.3
297.986	4.55
298.363	4.8
298.739	4.64
299.115	4.73
299.491	4.79
299.867	4.89
300.243	4.74
300.619	4.63
300.995	4.3
301.371	5.12
301.746	4.61
302.122	5.51
302.498	4.21
302.874	4.49
303.249	4.73
303.625	5.01
304	4.91
304.376	4.61
304.751	4.41
305.127	4.11
305.502	5.15
305.878	4.68
306.253	4.69
306.628	4.75
307.003	4.68
307.378	4.43
307.754	4.54
308.129	5.03
308.504	4.81
308.879	5.06
309.254	4.77
309.629	4.05
310.003	4.14
310.378	4.48
310.753	4.42
311.128	4.63
311.502	4.78
311.877	5.03
312.252	4.41
312.626	4.77
313.001	4.49
313.375	4.67
313.75	4.78
314.124	4.49
314.498	4.5
314.873	4.6
315.247	4.61
315.621	4.48
315.995	4.61
316.369	4.28
316.743	4.93
317.117	4.64
317.491	3.85
317.865	5
318.239	4.92
318.613	4.79
318.987	4.59
319.361	4.09
319.734	4.2
320.108	4.62
320.482	4.8
320.855	5.01
321.229	5.32
321.602	4.83
321.976	4.36
322.349	4.68
322.723	4.13
323.096	4.77
323.469	4.01
323.843	4.58
324.216	5
324.589	4.11
324.962	4.99
325.335	5.48
325.708	4.72
326.081	4.82
326.454	4.62
326.827	4.7
327.2	5.12
327.573	4.48
327.945	4.28
328.318	4.71
328.691	4.61
329.063	4.66
329.436	4.72
329.809	4.95
330.181	4.68
330.553	4.92
330.926	4.36
331.298	4.69
331.671	4.32
332.043	4.4
332.415	4.33
332.787	4.91
333.159	4.51
333.532	4.84
333.904	5.26
334.276	4.3
334.648	4.31
335.02	5.13
335.391	4.36
335.763	4.83
336.135	4.72
336.507	4.75
336.879	4.34
337.25	4.7
337.622	4.89
337.993	4.64
338.365	5.17
338.736	4.68
339.108	5.04
339.479	4.16
339.851	4.67
340.222	4.27
340.593	4.04
340.964	4.53
341.336	4.87
341.707	4.64
342.078	5.21
342.449	4.58
342.82	4.46
343.191	4.27
343.562	4.65
343.933	4.95
344.303	4.55
344.674	4.41
345.045	4.86
345.416	4.82
345.786	4.89
346.157	4.68
346.527	4.36
346.898	4.83
347.268	4.79
347.639	4.6
348.009	4.57
348.38	4.73
348.75	4.37
349.12	4.57
349.49	4.69
349.861	4.88
350.231	4.35
350.601	4.55
350.971	5.16
351.341	4.75
351.711	5.22
352.081	4.98
352.45	4.57
352.82	4.88
353.19	4.86
353.56	4.74
353.929	4.68
354.299	4.64
354.669	4.81
355.038	4.62
355.408	5.12
355.777	4.38
356.147	4.62
356.516	4.24
356.885	4.96
357.254	4.96
357.624	4.92
357.993	4.56
358.362	4.82
358.731	4.23
359.1	4.51
359.469	4.7
359.838	4.9
360.207	4.85
360.576	4.82
360.945	4.46
361.314	4.7
361.682	4.82
362.051	4.65
362.42	4.74
362.788	4.73
363.157	4.7
363.525	4.45
363.894	4.56
364.262	4.55
364.631	4.98
364.999	4.82
365.367	4.79
365.735	4.8
366.104	4.76
366.472	4.83
366.84	5.02
367.208	4.75
367.576	4.7
367.944	4.97
368.312	4.89
368.68	4.77
369.048	4.74
369.416	5.17
369.783	5.04
370.151	5.02
370.519	4.99
370.886	5.04
371.254	5.16
371.621	4.96
371.989	4.95
372.356	4.9
372.724	5.11
373.091	4.76
373.458	4.5
373.826	4.57
374.193	4.62
374.56	4.63
374.927	5.04
375.294	4.74
375.661	5.28
376.028	5.14
376.395	5.15
376.762	4.84
377.129	5.16
377.496	4.93
377.863	5.13
378.229	5.3
378.596	5.22
378.963	4.81
379.329	4.99
379.696	4.95
380.062	5.18
380.429	5.04
380.795	4.9
381.161	5
381.528	5.3
381.894	4.85
382.26	4.99
382.626	5.28
382.993	5.07
383.359	5.15
383.725	5.09
384.091	5.14
384.457	5.14
384.823	4.99
385.188	5.24
385.554	4.96
385.92	4.96
386.286	5.32
386.651	4.95
387.017	5.32
387.383	5.19
387.748	4.81
388.114	4.9
388.479	5.21
388.845	5.38
389.21	4.62
389.575	4.81
389.94	5.15
390.306	5
390.671	5.27
391.036	4.99
391.401	5.38
391.766	5.14
392.131	5.21
392.496	5.34
392.861	5
393.226	5.01
393.591	5.01
393.956	5.31
394.32	5.35
394.685	5.21
395.05	5.2
395.414	5.4
395.779	4.95
396.143	5.01
396.508	5
396.872	5.17
397.236	5.14
397.601	5.16
397.965	4.99
398.329	5.05
398.694	5.38
399.058	4.97
399.422	5.29
399.786	5.14
400.15	4.85
400.514	5.26
400.878	5.07
401.242	5.03
401.605	5.36
401.969	5.06
402.333	5.12
402.697	5.52
403.06	5.24
403.424	5.11
403.787	5.12
404.151	5.43
404.514	5.14
404.878	5.23
405.241	5.34
405.604	5.14
405.968	5.07
406.331	5.22
406.694	5.17
407.057	5.31
407.42	5.4
407.783	5.49
408.146	5.21
408.509	5.43
408.872	5.08
409.235	5.19
409.598	5.39
409.961	5.32
410.323	5.22
410.686	5.2
411.049	5.23
411.411	5.22
411.774	5.34
412.136	5.31
412.499	5.4
412.861	5.58
413.223	5.27
413.586	5.2
413.948	5.37
414.31	5.51
414.672	5.02
415.035	5.21
415.397	5.38
415.759	5.31
416.121	5.45
416.483	5.42
416.845	5.26
417.206	5.23
417.568	5.41
417.93	5.23
418.292	5.02
418.653	5.46
419.015	5.29
419.377	5.24
419.738	5.24
420.1	5.03
420.461	5.19
420.822	5.14
421.184	5.2
421.545	5.13
421.906	5.25
422.267	5.17
422.629	5.24
422.99	5.1
423.351	5.15
423.712	5.1
424.073	5.22
424.434	5.04
424.795	5.1
425.155	5.1
425.516	5.22
425.877	5.19
426.238	5.07
426.598	5.15
426.959	4.98
427.32	5.19
427.68	5.24
428.041	5.01
428.401	5.25
428.761	5.2
429.122	5.29
429.482	5.29
429.842	5.31
430.202	5.29
430.563	5.25
430.923	5.39
431.283	5.2
431.643	5.32
432.003	5.5
432.363	5.29
432.722	5.39
433.082	5.33
433.442	5.39
433.802	5.5
434.161	5.24
434.521	5.33
434.881	5.28
435.24	5.26
435.6	5.24
435.959	5.32
436.319	5.34
436.678	5.31
437.037	5.2
437.396	5.39
437.756	5.42
438.115	5.16
438.474	5.28
438.833	5.28
439.192	5.21
439.551	5.25
439.91	5.27
440.269	5.35
440.628	5.32
440.987	5.43
441.345	5.25
441.704	5.25
442.063	5.4
442.421	5.18
442.78	5.18
443.138	5.34
443.497	5.25
443.855	5.22
444.214	5.24
444.572	5.21
444.93	5.29
445.288	5.24
445.647	5.52
446.005	5.07
446.363	5.23
446.721	5.24
447.079	5.47
447.437	5.38
447.795	5.13
448.153	5.21
448.51	5.21
448.868	5.18
449.226	5.18
449.584	5.23
449.941	5.18
450.299	5.26
450.656	5.15
451.014	5.29
451.371	5.3
451.729	5.25
452.086	5.3
452.443	5.42
452.801	5.34
453.158	5.28
453.515	5.44
453.872	5.25
454.229	5.44
454.586	5.4
454.943	5.29
455.3	5.12
455.657	5.32
456.014	5.32
456.371	5.37
456.727	5.46
457.084	5.35
457.441	5.34
457.797	5.34
458.154	5.34
458.51	5.38
458.867	5.28
459.223	5.37
459.58	5.32
459.936	5.4
460.292	5.29
460.648	5.15
461.005	5.19
461.361	5.26
461.717	5.08
462.073	5.22
462.429	5.21
462.785	5.18
463.141	5.36
463.496	5.28
463.852	5.29
464.208	5.38
464.564	5.36
464.919	5.35
465.275	5.55
465.631	5.59
465.986	5.49
466.342	5.34
466.697	5.23
467.052	5.33
467.408	5.27
467.763	5.3
468.118	5.45
468.473	5.4
468.829	5.21
469.184	5.32
469.539	5.44
469.894	5.39
470.249	5.29
470.603	5.43
470.958	5.52
471.313	5.46
471.668	5.35
472.023	5.5
472.377	5.5
472.732	5.24
473.086	5.5
473.441	5.3
473.795	5.69
474.15	5.31
474.504	5.29
474.859	5.31
475.213	5.42
475.567	5.4
475.921	5.33
476.275	5.32
476.63	5.54
476.984	5.57
477.338	5.17
477.692	5.41
478.045	5.3
478.399	5.31
478.753	5.47
479.107	5.29
479.461	5.36
479.814	5.38
480.168	5.33
480.521	5.32
480.875	5.25
481.228	5.48
481.582	5.35
481.935	5.23
482.289	5.37
482.642	5.35
482.995	5.33
483.348	5.24
483.701	5.26
484.055	5.21
484.408	5.2
484.761	5.2
485.114	5.08
485.466	5
485.819	4.95
486.172	4.86
486.525	4.89
486.878	4.97
487.23	5.05
487.583	5.1
487.936	5.08
488.288	5.12
488.641	5.19
488.993	5.07
489.345	5.01
489.698	5.01
490.05	4.94
490.402	5
490.754	5
491.107	5.05
491.459	5.1
491.811	5.25
492.163	5.18
492.515	5.17
492.866	5.22
493.218	5.09
493.57	5
493.922	5.05
494.274	5.05
494.625	5.09
494.977	5.09
495.328	5.22
495.68	5.32
496.031	5.23
496.383	5.38
496.734	5.3
497.086	5.21
497.437	5.32
497.788	5.08
498.139	5.46
498.49	5.26
498.842	5.23
499.193	5.34
499.544	5.26
499.894	5.24
500.245	5.22
500.596	5.24
500.947	5.36
501.298	5.22
501.648	5.3
501.999	5.32
502.35	5.36
502.7	5.46
503.051	5.28
503.401	5.36
503.752	5.51
504.102	5.44
504.452	5.24
504.803	5.24
505.153	5.33
505.503	5.27
505.853	5.42
506.203	5.19
506.553	5.29
506.903	5.34
507.253	5.29
507.603	5.32
507.953	5.31
508.303	5.35
508.652	5.37
509.002	5.27
509.352	5.42
509.701	5.34
510.051	5.23
510.4	5.27
510.75	5.4
511.099	5.28
511.449	5.27
511.798	5.3
512.147	5.31
512.496	5.35
512.846	5.33
513.195	5.3
513.544	5.25
513.893	5.22
514.242	5.23
514.591	5.32
514.939	5.25
515.288	5.19
515.637	5.36
515.986	5.38
516.334	5.31
516.683	5.23
517.032	5.13
517.38	5.2
517.729	5.26
518.077	5.42
518.426	5.26
518.774	5.15
519.122	5.23
519.47	5.27
519.819	5.17
520.167	5.29
520.515	5.12
520.863	5.23
521.211	5.14
521.559	5.29
521.907	5.26
522.255	5.1
522.602	5.39
522.95	5.17
523.298	5.24
523.645	5.4
523.993	5.36
524.341	5.37
524.688	5.27
525.036	5.28
525.383	5.18
525.73	5.39
526.078	5.36
526.425	5.4
526.772	5.25
527.119	5.13
527.466	5.13
527.814	5.27
528.161	5.09
528.508	5.08
528.854	5.18
529.201	5.12
529.548	5.11
529.895	5.18
530.242	5.08
530.588	4.97
530.935	4.92
531.282	5.02
531.628	5.05
531.975	5
532.321	5.12
532.667	5.17
533.014	5.19
533.36	5.18
533.706	5.28
534.052	5.25
534.399	5.06
534.745	5.08
535.091	5.08
535.437	5.14
535.783	5.06
536.129	5.13
536.474	5.13
536.82	5.18
537.166	5.14
537.512	5.26
537.857	5.31
538.203	5.3
538.549	5.32
538.894	5.24
539.239	5.21
539.585	5.12
539.93	5.23
540.276	5.3
540.621	5.26
540.966	5.37
541.311	5.42
541.656	5.44
542.001	5.3
542.346	5.27
542.691	5.12
543.036	5.22
543.381	5.06
543.726	5.02
544.071	5.1
544.415	5.09
544.76	5.13
545.105	5.12
545.449	5.16
545.794	5.19
546.138	5.22
546.483	5.23
546.827	5.27
547.171	5.22
547.516	5.23
547.86	5.26
548.204	5.03
548.548	5.29
548.892	5.15
549.236	5.32
549.58	5.19
549.924	5.17
550.268	5.22
550.612	5.29
550.956	5.34
551.3	5.36
551.643	5.36
551.987	5.42
552.33	5.42
552.674	5.42
553.017	5.31
553.361	5.3
553.704	5.38
554.048	5.29
554.391	5.28
554.734	5.29
555.077	5.34
555.42	5.24
555.764	5.22
556.107	5.52
556.45	5.22
556.793	5.13
557.135	5.26
557.478	5.26
557.821	5.3
558.164	5.24
558.507	5.45
558.849	5.44
559.192	5.45
559.534	5.48
559.877	5.21
560.219	5.41
560.562	5.54
560.904	5.15
561.246	5.41
561.589	5.34
561.931	5.46
562.273	5.46
562.615	5.44
562.957	5.49
563.299	5.36
563.641	5.47
563.983	5.31
564.325	5.18
564.667	5.4
565.008	5.35
565.35	5.38
565.692	5.31
566.033	5.39
566.375	5.5
566.716	5.45
567.058	5.46
567.399	5.49
567.741	5.17
568.082	5.54
568.423	5.39
568.764	5.16
569.105	5.4
569.447	5.24
569.788	5.34
570.129	5.34
570.47	5.36
570.811	5.45
571.151	5.31
571.492	5.45
571.833	5.55
572.174	5.46
572.514	5.49
572.855	5.3
573.195	5.43
573.536	5.26
573.876	5.34
574.217	5.28
574.557	5.36
574.898	5.28
575.238	5.38
575.578	5.38
575.918	5.27
576.258	5.47
576.598	5.4
576.938	5.45
577.278	5.46
577.618	5.11
577.958	5.21
578.298	5.39
578.638	5.4
578.977	5.41
579.317	5.3
579.657	5.32
579.996	5.4
580.336	5.38
580.675	5.49
581.014	5.33
581.354	5.36
581.693	5.55
582.032	5.68
582.372	5.3
582.711	5.62
583.05	5.7
583.389	5.41
583.728	5.58
584.067	5.55
584.406	5.42
584.745	5.36
585.083	5.23
585.422	5.38
585.761	5.69
586.1	5.48
586.438	5.09
586.777	5.37
587.115	5.6
587.454	5.73
587.792	5.19
588.13	5.53
588.469	5.43
588.807	5.2
589.145	5.34
589.483	5.23
589.821	5.38
590.159	5.56
590.497	5.46
590.835	5.49
591.173	5.51
591.511	5.63
591.849	5.07
592.187	5.18
592.524	5.17
592.862	5.38
593.2	5.59
593.537	5.33
593.875	5.28
594.212	5.63
594.55	5.51
594.887	5.53
595.224	5.37
595.561	5.39
595.899	5.42
596.236	5.66
596.573	5.6
596.91	5.54
597.247	5.45
597.584	5.22
597.921	5.57
598.258	5.47
598.594	5.39
598.931	5.3
599.268	5.25
599.604	5.36
599.941	5.38
600.277	5.26
600.614	5.48
600.95	5.28
601.287	5.27
601.623	5.52
601.959	5.66
602.296	5.7
602.632	5.28
602.968	5.11
603.304	5.5
603.64	5.44
603.976	5.48
604.312	5.76
604.648	5.51
604.984	5.32
605.319	5.38
605.655	5.38
605.991	5.28
606.326	5.28
606.662	5.21
606.998	5.39
607.333	5.25
607.668	5.15
608.004	5.37
608.339	5.34
608.674	5.32
609.01	5.28
609.345	5.53
609.68	5.74
610.015	5.24
610.35	5.56
610.685	5.29
611.02	5.42
611.355	5.2
611.689	5.14
612.024	5.44
612.359	5.53
612.694	5.31
613.028	5.39
613.363	5.17
613.697	5.42
614.032	5.53
614.366	5.68
614.7	5.42
615.035	5.52
615.369	5.52
615.703	4.88
616.037	5.5
616.371	5.31
616.705	5.27
617.039	5.71
617.373	5.47
617.707	5.72
618.041	5.46
618.375	5.33
618.709	5.16
619.042	5.45
619.376	5.78
619.71	5.6
620.043	5.35
620.377	5.42
620.71	5.31
621.043	5.75
621.377	5.48
621.71	5.39
622.043	5.62
622.376	5.98
622.709	5.54
623.043	5.61
623.376	4.96
623.709	5
624.041	5.25
624.374	5.42
624.707	5.02
625.04	5.67
625.373	5.54
625.705	5.22
626.038	5.75
626.37	5.12
626.703	5.54
627.035	5.26
627.368	5.54
627.7	5.5
628.032	5.42
628.365	5.59
628.697	5.11
629.029	5.38
629.361	5.56
629.693	5.36
630.025	5.44
630.357	5.3
630.689	5.37
631.021	5.79
631.353	5.57
631.684	5.43
632.016	5.67
632.348	5.4
632.679	5.09
633.011	5.42
633.342	5.29
633.674	5.37
634.005	5.44
634.336	5.69
634.668	5.36
634.999	5.5
635.33	5.38
635.661	5.51
635.992	5.52
636.323	5.99
636.654	5.52
636.985	5.19
637.316	5.45
637.647	5.16
637.977	5.31
638.308	5.48
638.639	5.3
638.969	5.41
639.3	5.13
639.63	5.43
639.961	5.33
640.291	5.4
640.622	5.41
640.952	5.6
641.282	5.36
641.612	5.8
641.943	5.87
642.273	5.31
642.603	5.72
642.933	5.18
643.263	5.51
643.592	5.59
643.922	5.81
644.252	5.42
644.582	5.17
644.911	5.56
645.241	5.51
645.571	5.75
645.9	5.72
646.23	5.46
646.559	5.41
646.888	5.77
647.218	5.82
647.547	5.09
647.876	5.8
648.205	5.34
648.534	5.42
648.863	5.4
649.192	5.51
649.521	5.59
649.85	5.55
650.179	5.27
650.508	5.3
650.837	5.69
651.165	5.79
651.494	5.57
651.822	5.75
652.151	6.05
652.479	5.35
652.808	5.75
653.136	5.16
653.465	5.58
653.793	5.51
654.121	5.93
654.449	5.6
654.777	5.71
655.105	6.04
655.433	5.64
655.761	5.86
656.089	6
656.417	5.46
656.745	5.5
657.073	5.78
657.4	5.99
657.728	6.08
658.056	5.67
658.383	5.47
658.711	5.53
659.038	5.84
659.365	5.95
659.693	5.98
660.02	5.78
660.347	5.58
660.674	5.91
661.001	5.32
661.329	5.55
661.656	5.67
661.982	5.49
662.309	5.67
662.636	5.27
662.963	5.74
663.29	5.63
663.616	5.69
663.943	5.37
664.27	5.71
664.596	5.81
664.923	5.49
665.249	5.5
665.576	5.02
665.902	5.61
666.228	5.84
666.554	6.3
666.881	5.23
667.207	6
667.533	5.95
667.859	5.29
668.185	5.88
668.511	6.21
668.837	6.08
669.162	6.14
669.488	5.65
669.814	5.47
670.139	5.49
670.465	4.86
670.791	5.54
671.116	5.34
671.442	5.61
671.767	5.42
672.092	5.77
672.418	5.72
672.743	5.19
673.068	5.86
673.393	5.55
673.718	5.67
674.043	5.7
674.368	5.5
674.693	6.22
675.018	6.35
675.343	6.16
675.667	5.23
675.992	5.44
676.317	5.44
676.641	5.83
676.966	5.88
677.29	5.98
677.615	5.67
677.939	5.45
678.264	6.27
678.588	5.07
678.912	5.88
679.236	5.58
679.56	5.34
679.885	5.22
680.209	5.77
680.532	5.5
680.856	5.33
681.18	5.53
681.504	6.24
681.828	5.91
682.152	5.71
682.475	5.46
682.799	5.5
683.122	5.87
683.446	5.71
683.769	5.92
684.093	5.7
684.416	5.85
684.739	5.31
685.062	4.59
685.386	5.44
685.709	5.84
686.032	5.84
686.355	6.03
686.678	6.07
687.001	6.27
687.324	5.94
687.646	5.49
687.969	6.35
688.292	6.46
688.614	5.13
688.937	5.59
689.26	4.77
689.582	4.9
689.904	5.4
690.227	5.94
690.549	6.07
690.871	5.79
691.194	5.06
691.516	5.93
691.838	5.98
692.16	5.47
692.482	5.91
692.804	5.46
