Data from 0283_chest_Reflection__4__204.txt Node

Date: Fri Oct 20 22:22:41 CDT 2023
User: ToomeyLab
Spectrometer: FLMS14357
Trigger mode: 0
Integration Time (sec): 1.000000E-2
Scans to average: 100
Electric dark correction enabled: true
Nonlinearity correction enabled: false
Boxcar width: 0
XAxis mode: Wavelengths
Number of Pixels in Spectrum: 2048
>>>>>Begin Spectral Data<<<<<
189.047	92.65
189.435	92.65
189.823	92.65
190.211	-39.43
190.599	1854.81
190.987	125.3
191.375	127.69
191.763	196.89
192.151	-204.14
192.538	27.4
192.926	145.16
193.314	223.99
193.702	32.55
194.089	1498.61
194.477	41.81
194.864	287.09
195.252	440.28
195.639	15.63
196.027	150.48
196.414	58.01
196.801	40.59
197.189	-288076532259050
197.576	164.06
197.963	-1452.5
198.351	53.14
198.738	-9.93
199.125	48.97
199.512	56.85
199.899	6.3
200.286	1.69
200.673	27.42
201.06	28.78
201.447	-26.59
201.833	20.29
202.22	18.83
202.607	35.49
202.994	41.46
203.38	21.39
203.767	-5.52
204.154	27.45
204.54	32.84
204.927	-3.19
205.313	23.58
205.699	35.09
206.086	35.18
206.472	32.59
206.858	65.21
207.245	6.92
207.631	40.49
208.017	1.43
208.403	32.5
208.789	24.04
209.175	-5.85
209.561	25.66
209.947	-0.11
210.333	25.97
210.719	29.99
211.105	35.81
211.491	37.36
211.876	36.63
212.262	23.81
212.648	30.76
213.034	16.38
213.419	-12.11
213.805	14.7
214.19	1.18
214.576	-4.85
214.961	34.19
215.346	22.85
215.732	-8.57
216.117	-56.52
216.502	3.69
216.888	-2.78
217.273	-14.3
217.658	-7.88
218.043	2.1
218.428	-29.58
218.813	6.79
219.198	-3.46
219.583	-37.04
219.968	15.03
220.353	22.02
220.738	9.67
221.122	-6.07
221.507	4.07
221.892	11.03
222.276	13.81
222.661	14.91
223.046	10.33
223.43	-1.57
223.815	2.6
224.199	10.38
224.583	0.27
224.968	0.11
225.352	-2.15
225.736	-3.07
226.121	6.46
226.505	3.1
226.889	12.95
227.273	3.03
227.657	11.65
228.041	3.08
228.425	5.85
228.809	5.91
229.193	2.52
229.577	4.78
229.961	3.12
230.344	3.56
230.728	2.34
231.112	3.38
231.495	2.7
231.879	2.59
232.263	4.84
232.646	3.46
233.03	2.85
233.413	2.67
233.797	3.31
234.18	2.41
234.563	3.28
234.946	5.93
235.33	5.76
235.713	3.12
236.096	4.43
236.479	3.2
236.862	3.64
237.245	4.23
237.628	1.18
238.011	3.65
238.394	3.21
238.777	3.34
239.16	3.53
239.543	5.61
239.925	4.78
240.308	3.06
240.691	2.51
241.073	5.43
241.456	5.08
241.838	3.95
242.221	4.36
242.603	3.58
242.986	3.78
243.368	3.77
243.75	2.81
244.133	3.09
244.515	3.32
244.897	2.93
245.279	3.45
245.661	3.42
246.043	3.58
246.425	3.01
246.807	4.23
247.189	2.42
247.571	2.59
247.953	3.54
248.335	3.4
248.717	2.74
249.098	3
249.48	2.9
249.862	3.27
250.243	3.3
250.625	3.53
251.006	3.66
251.388	3.1
251.769	3.78
252.151	3.17
252.532	3.21
252.913	3.14
253.295	2.47
253.676	3.98
254.057	2.97
254.438	3.32
254.819	3.73
255.2	2.99
255.581	3.16
255.962	3.26
256.343	4.27
256.724	2.43
257.105	3.31
257.486	2.88
257.867	3.42
258.247	3.89
258.628	2.93
259.009	1.92
259.389	3.36
259.77	2.61
260.15	3.39
260.531	3.19
260.911	3.16
261.292	3.21
261.672	2.93
262.052	3.33
262.432	3.09
262.813	3.09
263.193	3.07
263.573	2.98
263.953	3.42
264.333	3.5
264.713	3.59
265.093	3.52
265.473	3.3
265.853	2.61
266.233	3.02
266.612	3.18
266.992	2.66
267.372	3.1
267.752	3.21
268.131	3.68
268.511	3.08
268.89	3.5
269.27	3.41
269.649	2.37
270.029	3.3
270.408	3.05
270.787	3.04
271.167	3.61
271.546	3.09
271.925	3.54
272.304	3.31
272.683	3.27
273.062	3.24
273.441	2.81
273.82	3.31
274.199	3.32
274.578	3.17
274.957	3.17
275.336	2.81
275.715	3.39
276.093	2.95
276.472	2.83
276.851	3.58
277.229	3.01
277.608	2.75
277.986	2.88
278.365	3.43
278.743	2.74
279.122	3.27
279.5	2.79
279.878	2.43
280.257	3.42
280.635	2.7
281.013	3.16
281.391	3.54
281.769	2.8
282.147	2.57
282.525	2.96
282.903	3.24
283.281	3.19
283.659	3.31
284.037	3.08
284.415	2.32
284.792	2.43
285.17	3.43
285.548	3.03
285.925	2.68
286.303	2.83
286.68	2.96
287.058	3.74
287.435	3.22
287.813	2.77
288.19	3.16
288.567	3.25
288.945	3.33
289.322	3.27
289.699	2.53
290.076	3.2
290.453	2.76
290.83	3.16
291.207	3.14
291.584	2.59
291.961	3.07
292.338	2.89
292.715	3
293.092	3.03
293.469	3.47
293.845	3.25
294.222	2.79
294.599	2.93
294.975	3.82
295.352	3.53
295.728	2.97
296.105	3.11
296.481	2.87
296.858	2.99
297.234	3.7
297.61	2.55
297.986	3.06
298.363	3.06
298.739	3.13
299.115	3.01
299.491	3.33
299.867	3.21
300.243	3.51
300.619	3.73
300.995	2.78
301.371	3.91
301.746	3.08
302.122	3.72
302.498	3.19
302.874	3.76
303.249	3.01
303.625	3.56
304	3.43
304.376	3.1
304.751	2.71
305.127	2.88
305.502	3.76
305.878	3.08
306.253	3.52
306.628	3.61
307.003	3.58
307.378	3.15
307.754	3.13
308.129	3.81
308.504	3.94
308.879	3.96
309.254	4.25
309.629	3.43
310.003	3.09
310.378	3.89
310.753	3.94
311.128	3.77
311.502	3.69
311.877	3.75
312.252	3.38
312.626	3.56
313.001	3.82
313.375	3.69
313.75	3.78
314.124	3.16
314.498	3.64
314.873	3.36
315.247	3.86
315.621	3.15
315.995	4.06
316.369	3.55
316.743	3.7
317.117	3.4
317.491	3.46
317.865	3.92
318.239	4.24
318.613	3.73
318.987	3.74
319.361	3.12
319.734	3.32
320.108	3.5
320.482	4.08
320.855	3.81
321.229	4.17
321.602	3.83
321.976	3.78
322.349	4.21
322.723	3.54
323.096	3.48
323.469	3.56
323.843	3.88
324.216	4.1
324.589	4.01
324.962	3.92
325.335	4.28
325.708	3.62
326.081	3.95
326.454	3.83
326.827	4.56
327.2	4.07
327.573	3.93
327.945	3.82
328.318	3.35
328.691	3.72
329.063	4.21
329.436	3.46
329.809	3.55
330.181	4.47
330.553	4.18
330.926	3.68
331.298	3.45
331.671	3.66
332.043	3.77
332.415	4.08
332.787	4.48
333.159	3.66
333.532	4.12
333.904	4.16
334.276	3.49
334.648	4.15
335.02	4.21
335.391	3.94
335.763	4.17
336.135	4.29
336.507	4.27
336.879	4.03
337.25	3.81
337.622	3.98
337.993	4.49
338.365	4
338.736	4.27
339.108	4.26
339.479	3.82
339.851	4.45
340.222	3.92
340.593	3.13
340.964	4.11
341.336	4.68
341.707	3.95
342.078	4.08
342.449	3.69
342.82	3.68
343.191	3.83
343.562	4.19
343.933	4.18
344.303	3.42
344.674	4.22
345.045	4.21
345.416	4.48
345.786	3.87
346.157	3.95
346.527	3.84
346.898	4.2
347.268	4.05
347.639	4.51
348.009	3.82
348.38	4.24
348.75	4.27
349.12	4.11
349.49	3.83
349.861	4.75
350.231	3.85
350.601	4.24
350.971	4.16
351.341	4.22
351.711	4.76
352.081	3.95
352.45	3.84
352.82	4.24
353.19	4.38
353.56	4.25
353.929	4.14
354.299	4.01
354.669	4.23
355.038	4
355.408	4.67
355.777	4.01
356.147	4.09
356.516	3.78
356.885	4.35
357.254	4.46
357.624	4.06
357.993	3.92
358.362	4.17
358.731	3.61
359.1	3.58
359.469	4
359.838	4.39
360.207	4.26
360.576	4.33
360.945	4.27
361.314	4.21
361.682	3.92
362.051	3.81
362.42	3.82
362.788	4.33
363.157	4.03
363.525	3.95
363.894	4.13
364.262	3.91
364.631	4.17
364.999	4.44
365.367	4.13
365.735	4.38
366.104	4.08
366.472	4.18
366.84	4.41
367.208	4.3
367.576	4.04
367.944	4.19
368.312	4.19
368.68	4.37
369.048	4.42
369.416	4.46
369.783	4.29
370.151	4.18
370.519	4.4
370.886	4.63
371.254	4.3
371.621	4.36
371.989	4.09
372.356	4.34
372.724	4.6
373.091	4.22
373.458	3.9
373.826	4.1
374.193	4.08
374.56	4.06
374.927	4.36
375.294	4.4
375.661	4.64
376.028	4.76
376.395	4.01
376.762	4.2
377.129	4.11
377.496	4.51
377.863	4.76
378.229	4.84
378.596	4.5
378.963	4.48
379.329	4.39
379.696	4.29
380.062	4.16
380.429	4.39
380.795	4.24
381.161	4.48
381.528	4.68
381.894	4.44
382.26	4.32
382.626	4.57
382.993	4.65
383.359	4.3
383.725	4.41
384.091	4.22
384.457	4.24
384.823	4.59
385.188	4.61
385.554	4.29
385.92	4.4
386.286	4.37
386.651	4.4
387.017	4.38
387.383	4.42
387.748	4.04
388.114	4.6
388.479	4.49
388.845	4.56
389.21	4.25
389.575	4.12
389.94	4.44
390.306	4.27
390.671	4.51
391.036	4.5
391.401	4.7
391.766	4.48
392.131	4.51
392.496	4.54
392.861	4.56
393.226	4.83
393.591	4.39
393.956	4.64
394.32	4.83
394.685	4.39
395.05	4.64
395.414	4.75
395.779	4.42
396.143	4.51
396.508	4.67
396.872	4.78
397.236	4.5
397.601	4.55
397.965	4.51
398.329	4.6
398.694	4.63
399.058	4.49
399.422	4.65
399.786	4.51
400.15	4.32
400.514	4.47
400.878	4.54
401.242	4.8
401.605	4.65
401.969	4.4
402.333	4.7
402.697	4.61
403.06	4.59
403.424	4.57
403.787	4.51
404.151	4.7
404.514	4.63
404.878	4.59
405.241	4.69
405.604	4.65
405.968	4.59
406.331	4.58
406.694	4.74
407.057	4.53
407.42	4.95
407.783	4.81
408.146	4.59
408.509	4.48
408.872	4.7
409.235	4.74
409.598	4.7
409.961	4.79
410.323	4.74
410.686	4.4
411.049	4.65
411.411	4.6
411.774	4.5
412.136	4.53
412.499	4.71
412.861	4.84
413.223	4.93
413.586	4.78
413.948	4.71
414.31	4.98
414.672	4.52
415.035	4.72
415.397	4.86
415.759	4.69
416.121	4.72
416.483	4.89
416.845	4.63
417.206	4.77
417.568	4.72
417.93	4.76
418.292	4.5
418.653	4.72
419.015	4.71
419.377	4.57
419.738	4.6
420.1	4.63
420.461	4.67
420.822	4.56
421.184	4.6
421.545	4.68
421.906	4.63
422.267	4.69
422.629	4.71
422.99	4.52
423.351	4.71
423.712	4.68
424.073	4.62
424.434	4.62
424.795	4.72
425.155	4.74
425.516	4.62
425.877	4.64
426.238	4.62
426.598	4.74
426.959	4.68
427.32	4.72
427.68	4.7
428.041	4.73
428.401	4.7
428.761	4.66
429.122	4.65
429.482	4.78
429.842	4.77
430.202	4.8
430.563	4.78
430.923	4.86
431.283	4.73
431.643	4.94
432.003	4.97
432.363	4.71
432.722	4.68
433.082	4.81
433.442	4.75
433.802	5.02
434.161	4.88
434.521	4.93
434.881	4.83
435.24	4.75
435.6	4.67
435.959	4.86
436.319	4.82
436.678	4.87
437.037	4.78
437.396	4.94
437.756	4.9
438.115	4.77
438.474	5
438.833	4.88
439.192	5.09
439.551	4.59
439.91	4.93
440.269	5
440.628	4.91
440.987	4.87
441.345	4.73
441.704	4.81
442.063	4.9
442.421	4.84
442.78	4.81
443.138	4.88
443.497	4.98
443.855	4.93
444.214	4.88
444.572	4.94
444.93	4.95
445.288	5.02
445.647	5.14
446.005	4.65
446.363	5.04
446.721	4.83
447.079	5.04
447.437	4.87
447.795	4.83
448.153	4.9
448.51	4.92
448.868	4.85
449.226	4.99
449.584	4.89
449.941	4.9
450.299	4.92
450.656	4.79
451.014	4.96
451.371	4.98
451.729	4.85
452.086	4.98
452.443	5.2
452.801	5.02
453.158	5.13
453.515	5.05
453.872	4.95
454.229	5.19
454.586	5.07
454.943	5
455.3	4.89
455.657	4.94
456.014	4.89
456.371	5.06
456.727	5.23
457.084	5.12
457.441	5.19
457.797	5.1
458.154	4.98
458.51	5.13
458.867	5.08
459.223	5.05
459.58	5.01
459.936	5.02
460.292	5.03
460.648	5.07
461.005	4.82
461.361	5.16
461.717	4.92
462.073	5.08
462.429	5.01
462.785	5.01
463.141	5.18
463.496	5.07
463.852	5.03
464.208	5.18
464.564	5.24
464.919	4.99
465.275	5.27
465.631	5.34
465.986	5.17
466.342	5.3
466.697	5.24
467.052	5.17
467.408	5.23
467.763	5.22
468.118	5.4
468.473	5.15
468.829	5.08
469.184	5.22
469.539	5.12
469.894	5.2
470.249	5.31
470.603	5.28
470.958	5.24
471.313	5.38
471.668	5.13
472.023	5.27
472.377	5.29
472.732	5.26
473.086	5.25
473.441	5.19
473.795	5.46
474.15	5.2
474.504	5.31
474.859	5.35
475.213	5.24
475.567	5.3
475.921	5.45
476.275	5.24
476.63	5.41
476.984	5.24
477.338	5.24
477.692	5.31
478.045	5.41
478.399	5.23
478.753	5.45
479.107	5.38
479.461	5.42
479.814	5.52
480.168	5.42
480.521	5.46
480.875	5.3
481.228	5.39
481.582	5.38
481.935	5.34
482.289	5.33
482.642	5.28
482.995	5.36
483.348	5.29
483.701	5.31
484.055	5.19
484.408	5.3
484.761	5.3
485.114	5.19
485.466	5.1
485.819	5.06
486.172	5.01
486.525	5.05
486.878	5.08
487.23	5.11
487.583	5.18
487.936	5.19
488.288	5.26
488.641	5.35
488.993	5.18
489.345	5.16
489.698	5.16
490.05	5.17
490.402	5.09
490.754	5.19
491.107	5.22
491.459	5.31
491.811	5.39
492.163	5.34
492.515	5.42
492.866	5.43
493.218	5.29
493.57	5.27
493.922	5.24
494.274	5.22
494.625	5.27
494.977	5.24
495.328	5.43
495.68	5.53
496.031	5.32
496.383	5.54
496.734	5.57
497.086	5.52
497.437	5.62
497.788	5.44
498.139	5.61
498.49	5.44
498.842	5.55
499.193	5.59
499.544	5.6
499.894	5.53
500.245	5.43
500.596	5.57
500.947	5.65
501.298	5.57
501.648	5.61
501.999	5.66
502.35	5.63
502.7	5.82
503.051	5.58
503.401	5.72
503.752	5.7
504.102	5.66
504.452	5.68
504.803	5.69
505.153	5.91
505.503	5.73
505.853	5.72
506.203	5.68
506.553	5.62
506.903	5.76
507.253	5.79
507.603	5.8
507.953	5.76
508.303	5.58
508.652	5.92
509.002	5.67
509.352	5.84
509.701	5.9
510.051	5.67
510.4	5.77
510.75	5.82
511.099	5.81
511.449	5.8
511.798	5.86
512.147	5.83
512.496	5.79
512.846	5.73
513.195	5.88
513.544	5.84
513.893	5.78
514.242	5.79
514.591	5.89
514.939	5.76
515.288	5.84
515.637	5.87
515.986	5.96
516.334	5.93
516.683	5.94
517.032	5.84
517.38	5.83
517.729	6
518.077	6.04
518.426	5.92
518.774	5.93
519.122	6.03
519.47	5.92
519.819	5.96
520.167	5.92
520.515	5.92
520.863	6
521.211	5.96
521.559	6
521.907	5.9
522.255	5.99
522.602	6.19
522.95	5.94
523.298	6.02
523.645	6.06
523.993	5.91
524.341	6.19
524.688	6.03
525.036	6.13
525.383	6.13
525.73	6.22
526.078	6.21
526.425	6.18
526.772	6.12
527.119	6.04
527.466	6.14
527.814	6.13
528.161	6.05
528.508	6.1
528.854	6.1
529.201	6.17
529.548	6.18
529.895	6.1
530.242	6.06
530.588	5.96
530.935	5.91
531.282	6.05
531.628	6.02
531.975	5.99
532.321	6.11
532.667	6.15
533.014	6.24
533.36	6.23
533.706	6.32
534.052	6.33
534.399	6.21
534.745	6.2
535.091	6.3
535.437	6.34
535.783	6.27
536.129	6.28
536.474	6.34
536.82	6.4
537.166	6.3
537.512	6.49
537.857	6.5
538.203	6.47
538.549	6.54
538.894	6.4
539.239	6.4
539.585	6.51
539.93	6.5
540.276	6.64
540.621	6.63
540.966	6.63
541.311	6.69
541.656	6.57
542.001	6.8
542.346	6.75
542.691	6.69
543.036	6.55
543.381	6.54
543.726	6.45
544.071	6.49
544.415	6.48
544.76	6.5
545.105	6.64
545.449	6.57
545.794	6.69
546.138	6.63
546.483	6.73
546.827	6.69
547.171	6.81
547.516	6.78
547.86	6.79
548.204	6.76
548.548	6.99
548.892	6.79
549.236	6.81
549.58	6.69
549.924	6.88
550.268	6.84
550.612	7
550.956	7.19
551.3	6.91
551.643	7.03
551.987	7.15
552.33	6.92
552.674	7.07
553.017	7.06
553.361	7.16
553.704	7.25
554.048	7.16
554.391	7.21
554.734	7.19
555.077	7.23
555.42	7.19
555.764	7.19
556.107	7.35
556.45	7.32
556.793	7.21
557.135	7.11
557.478	7.31
557.821	7.32
558.164	7.54
558.507	7.54
558.849	7.3
559.192	7.45
559.534	7.44
559.877	7.27
560.219	7.44
560.562	7.3
560.904	7.45
561.246	7.49
561.589	7.51
561.931	7.61
562.273	7.65
562.615	7.69
562.957	7.73
563.299	7.74
563.641	7.89
563.983	7.6
564.325	7.63
564.667	7.7
565.008	7.6
565.35	7.55
565.692	7.54
566.033	7.73
566.375	7.74
566.716	7.88
567.058	7.79
567.399	7.89
567.741	7.83
568.082	7.77
568.423	7.97
568.764	7.57
569.105	7.91
569.447	7.83
569.788	7.94
570.129	7.91
570.47	8.04
570.811	8.17
571.151	8.08
571.492	8.09
571.833	8.37
572.174	8.12
572.514	8.07
572.855	8.04
573.195	8.28
573.536	8.07
573.876	8.14
574.217	8.27
574.557	8.04
574.898	8.17
575.238	8.16
575.578	8.28
575.918	8.06
576.258	8.26
576.598	8.33
576.938	8.36
577.278	8.3
577.618	8.1
577.958	8.38
578.298	8.39
578.638	8.4
578.977	8.41
579.317	8.6
579.657	8.57
579.996	8.46
580.336	8.51
580.675	8.7
581.014	8.53
581.354	8.7
581.693	8.8
582.032	8.71
582.372	8.72
582.711	8.87
583.05	8.99
583.389	8.71
583.728	8.56
584.067	8.91
584.406	8.82
584.745	9.09
585.083	8.65
585.422	9.06
585.761	9.08
586.1	9.13
586.438	8.8
586.777	9.09
587.115	9.24
587.454	9.26
587.792	9.03
588.13	9.36
588.469	9.49
588.807	8.66
589.145	9.17
589.483	8.94
589.821	9.17
590.159	9.28
590.497	9.17
590.835	9.32
591.173	9.31
591.511	9.38
591.849	9.13
592.187	9.36
592.524	9.24
592.862	9.42
593.2	9.55
593.537	9.19
593.875	9.3
594.212	9.54
594.55	9.64
594.887	9.47
595.224	9.48
595.561	9.39
595.899	9.74
596.236	9.56
596.573	9.7
596.91	9.9
597.247	9.81
597.584	9.5
597.921	9.75
598.258	9.77
598.594	10.01
598.931	9.76
599.268	9.74
599.604	9.83
599.941	9.66
600.277	9.69
600.614	9.75
600.95	9.84
601.287	9.73
601.623	10.23
601.959	10.32
602.296	10.15
602.632	10.12
602.968	10.06
603.304	10.22
603.64	10.01
603.976	10.2
604.312	10.48
604.648	10.26
604.984	10.35
605.319	10.25
605.655	10.02
605.991	10.31
606.326	10.28
606.662	10.29
606.998	10.2
607.333	10.37
607.668	10.08
608.004	10.25
608.339	10.25
608.674	10.28
609.01	10.3
609.345	10.67
609.68	10.69
610.015	10.65
610.35	10.59
610.685	10.62
611.02	10.43
611.355	10.53
611.689	10.57
612.024	10.82
612.359	10.75
612.694	10.66
613.028	10.95
613.363	10.92
613.697	10.75
614.032	10.85
614.366	10.72
614.7	10.94
615.035	11.12
615.369	11.06
615.703	10.48
616.037	10.9
616.371	10.8
616.705	11.33
617.039	11.04
617.373	10.97
617.707	11.32
618.041	11.22
618.375	11.16
618.709	11.28
619.042	11.46
619.376	11.58
619.71	11.39
620.043	11.27
620.377	11.36
620.71	11.72
621.043	11.6
621.377	11.16
621.71	11.21
622.043	11.44
622.376	11.41
622.709	12.08
623.043	11.86
623.376	11.33
623.709	11.24
624.041	11.86
624.374	12.22
624.707	11.33
625.04	11.82
625.373	11.91
625.705	11.62
626.038	11.86
626.37	11.49
626.703	11.77
627.035	11.73
627.368	11.75
627.7	12.01
628.032	11.91
628.365	12.01
628.697	12.31
629.029	12.04
629.361	11.97
629.693	11.8
630.025	11.77
630.357	11.99
630.689	12.07
631.021	12.41
631.353	11.84
631.684	12.37
632.016	12.43
632.348	12.2
632.679	12.06
633.011	12.63
633.342	12.16
633.674	12.24
634.005	12.31
634.336	12.3
634.668	12.39
634.999	12.16
635.33	12.32
635.661	13.14
635.992	12.75
636.323	12.9
636.654	12.61
636.985	12.58
637.316	12.64
637.647	12.64
637.977	11.92
638.308	12.59
638.639	12.81
638.969	12.82
639.3	12.27
639.63	12.72
639.961	12.94
640.291	13.03
640.622	12.95
640.952	13.1
641.282	13.04
641.612	12.96
641.943	13.23
642.273	12.65
642.603	13.47
642.933	13.43
643.263	13.54
643.592	13.18
643.922	13.68
644.252	12.75
644.582	13.24
644.911	13.08
645.241	13.96
645.571	13.77
645.9	13.4
646.23	12.93
646.559	13.75
646.888	13.62
647.218	14.21
647.547	13.46
647.876	13.54
648.205	13.4
648.534	13.52
648.863	13.7
649.192	13.08
649.521	13.72
649.85	13.5
650.179	13.4
650.508	13.86
650.837	13.74
651.165	13.88
651.494	13.7
651.822	14.13
652.151	13.62
652.479	13.65
652.808	14.11
653.136	13.72
653.465	14.15
653.793	14.24
654.121	14.48
654.449	14.36
654.777	14.22
655.105	14.03
655.433	14.11
655.761	14.35
656.089	14.6
656.417	14.39
656.745	14.44
657.073	14.19
657.4	14.8
657.728	14.86
658.056	14.55
658.383	14.53
658.711	14.25
659.038	14.88
659.365	14.43
659.693	14.86
660.02	14.6
660.347	14.49
660.674	14.19
661.001	14.5
661.329	14.69
661.656	14.87
661.982	14.69
662.309	14.39
662.636	14.52
662.963	14.93
663.29	14.97
663.616	14.85
663.943	14.8
664.27	14.68
664.596	14.57
664.923	14.52
665.249	15.25
665.576	14.56
665.902	15.21
666.228	15.54
666.554	15.54
666.881	14.77
667.207	15.15
667.533	15.06
667.859	15.16
668.185	15.48
668.511	15.4
668.837	15.32
669.162	15.43
669.488	15.4
669.814	15.18
670.139	15.07
670.465	15.71
670.791	15.7
671.116	14.83
671.442	15.71
671.767	15.44
672.092	15.84
672.418	16.02
672.743	14.97
673.068	16.38
673.393	15.68
673.718	14.88
674.043	15.66
674.368	16.13
674.693	15.97
675.018	16.63
675.343	16.02
675.667	15.99
675.992	16.23
676.317	15.99
676.641	16.26
676.966	16.13
677.29	16.27
677.615	16.07
677.939	16.04
678.264	15.99
678.588	15.19
678.912	16.65
679.236	16.1
679.56	15.93
679.885	16.06
680.209	16.6
680.532	16.93
680.856	15.75
681.18	16.54
681.504	16.52
681.828	16.78
682.152	16.59
682.475	16.3
682.799	16.17
683.122	16.27
683.446	16.78
683.769	16.69
684.093	17.09
684.416	16.93
684.739	16.81
685.062	15.85
685.386	15.89
685.709	16.36
686.032	16.63
686.355	17.05
686.678	16.67
687.001	17.09
