Data from 0283_crown_Reflection__2__207.txt Node

Date: Fri Oct 20 22:23:55 CDT 2023
User: ToomeyLab
Spectrometer: FLMS14357
Trigger mode: 0
Integration Time (sec): 1.000000E-2
Scans to average: 100
Electric dark correction enabled: true
Nonlinearity correction enabled: false
Boxcar width: 0
XAxis mode: Wavelengths
Number of Pixels in Spectrum: 2048
>>>>>Begin Spectral Data<<<<<
189.047	-165.88
189.435	-165.88
189.823	-165.88
190.211	-193.45
190.599	-303.85
190.987	87.37
191.375	120.72
191.763	244.71
192.151	-118.98
192.538	-17.76
192.926	-54.52
193.314	145.25
193.702	21.1
194.089	3505.56
194.477	140.92
194.864	-195.9
195.252	315.66
195.639	24.81
196.027	104.62
196.414	-63.1
196.801	-76.65
197.189	-114050777276750
197.576	32.34
197.963	-1456.67
198.351	26.56
198.738	41.03
199.125	8.72
199.512	27.4
199.899	8.31
200.286	-30.87
200.673	31.85
201.06	29.14
201.447	10.91
201.833	38.72
202.22	45.68
202.607	45.61
202.994	5.13
203.38	8.02
203.767	40.59
204.154	61.91
204.54	32.8
204.927	-10.24
205.313	6.78
205.699	72.41
206.086	24.62
206.472	20.23
206.858	49.89
207.245	26.41
207.631	42.89
208.017	3.24
208.403	48.99
208.789	45.59
209.175	-6.89
209.561	1.09
209.947	1.47
210.333	35.54
210.719	62.11
211.105	32.26
211.491	16.72
211.876	-18.78
212.262	37.35
212.648	22.09
213.034	11.32
213.419	11.22
213.805	23.86
214.19	12.43
214.576	6.56
214.961	43.15
215.346	24.12
215.732	6.06
216.117	-43.55
216.502	11.71
216.888	-4.43
217.273	10.56
217.658	-9.63
218.043	-27.11
218.428	2.21
218.813	16.79
219.198	16.5
219.583	6.45
219.968	-12.92
220.353	1.28
220.738	-2.72
221.122	7.39
221.507	11.45
221.892	8.77
222.276	-2.87
222.661	19.64
223.046	10.15
223.43	15.97
223.815	6.89
224.199	20.81
224.583	6.82
224.968	4.6
225.352	-6.8
225.736	0.09
226.121	8.44
226.505	7.62
226.889	13.59
227.273	9.7
227.657	18.3
228.041	11.97
228.425	5.9
228.809	10.32
229.193	8.13
229.577	11.83
229.961	8.67
230.344	8.63
230.728	8.67
231.112	9.08
231.495	8.47
231.879	8.42
232.263	10.83
232.646	7.69
233.03	8.31
233.413	7.87
233.797	8.65
234.18	8.21
234.563	11.06
234.946	14.63
235.33	8.3
235.713	8.17
236.096	9.56
236.479	8.31
236.862	8.59
237.245	8.01
237.628	8.78
238.011	6.7
238.394	7.04
238.777	9.3
239.16	8.41
239.543	9.68
239.925	9.14
240.308	8.14
240.691	8.33
241.073	10.38
241.456	9.31
241.838	8.97
242.221	10.12
242.603	8.2
242.986	7.78
243.368	8.58
243.75	7.79
244.133	8.21
244.515	7.91
244.897	7.79
245.279	8.15
245.661	7.32
246.043	7.01
246.425	7.65
246.807	8.09
247.189	6.46
247.571	7.36
247.953	7.24
248.335	8.27
248.717	7.59
249.098	7.28
249.48	7.5
249.862	7.57
250.243	7.6
250.625	7.7
251.006	7.6
251.388	7.73
251.769	7.45
252.151	7.26
252.532	7.23
252.913	7.65
253.295	6.45
253.676	6.63
254.057	7.01
254.438	7.42
254.819	7.18
255.2	7.26
255.581	6.87
255.962	6.16
256.343	8.23
256.724	5.74
257.105	8.03
257.486	7.41
257.867	7.65
258.247	7.61
258.628	7.26
259.009	6.05
259.389	6.63
259.77	6.73
260.15	6.64
260.531	6.96
260.911	7.02
261.292	6.58
261.672	6.89
262.052	6.93
262.432	6.82
262.813	6.82
263.193	6.52
263.573	6.6
263.953	7.23
264.333	7.33
264.713	7.16
265.093	7.12
265.473	6.89
265.853	6.38
266.233	7.51
266.612	6.68
266.992	6.73
267.372	6.88
267.752	6.7
268.131	6.98
268.511	6.68
268.89	6.27
269.27	6.45
269.649	6.17
270.029	6.78
270.408	7.21
270.787	6.37
271.167	6.35
271.546	6.34
271.925	7.33
272.304	6.81
272.683	6.33
273.062	6.76
273.441	6.57
273.82	6.65
274.199	6.71
274.578	6.35
274.957	6.2
275.336	6.61
275.715	6.01
276.093	6.22
276.472	6.43
276.851	6.62
277.229	6.23
277.608	6.28
277.986	6.07
278.365	7
278.743	5.8
279.122	5.63
279.5	5.6
279.878	6.2
280.257	6.18
280.635	6.04
281.013	6.39
281.391	6.57
281.769	6.25
282.147	5.88
282.525	6.55
282.903	6.4
283.281	6.09
283.659	6.27
284.037	6.36
284.415	5.61
284.792	5.76
285.17	5.75
285.548	6.17
285.925	6.19
286.303	5.68
286.68	6.32
287.058	6.56
287.435	6.24
287.813	5.7
288.19	5.92
288.567	5.78
288.945	6.32
289.322	6.3
289.699	5.68
290.076	6.11
290.453	5.83
290.83	5.9
291.207	6.48
291.584	5.83
291.961	5.72
292.338	5.94
292.715	5.67
293.092	6.15
293.469	6.7
293.845	5.96
294.222	5.74
294.599	5.9
294.975	6.1
295.352	5.73
295.728	5.86
296.105	5.8
296.481	6.07
296.858	5.93
297.234	6.2
297.61	5.43
297.986	5.49
298.363	6
298.739	5.95
299.115	5.85
299.491	5.85
299.867	5.52
300.243	6.15
300.619	5.77
300.995	5.63
301.371	6.5
301.746	5.78
302.122	5.89
302.498	5.41
302.874	5.87
303.249	5.51
303.625	6.47
304	6.3
304.376	5.47
304.751	5.06
305.127	5.66
305.502	6.28
305.878	5.58
306.253	5.62
306.628	5.49
307.003	5.49
307.378	5.72
307.754	5.7
308.129	6.09
308.504	6.11
308.879	6.03
309.254	5.96
309.629	4.93
310.003	4.84
310.378	5.84
310.753	5.91
311.128	6.04
311.502	5.97
311.877	5.52
312.252	5.51
312.626	5.85
313.001	5.75
313.375	5.53
313.75	5.84
314.124	5.24
314.498	6.31
314.873	5.52
315.247	5.94
315.621	5.46
315.995	5.78
316.369	5.87
316.743	5.53
317.117	5.83
317.491	5.38
317.865	6.26
318.239	5.9
318.613	5.5
318.987	5.61
319.361	4.98
319.734	5.92
320.108	5.35
320.482	6.41
320.855	5.73
321.229	6.49
321.602	5.23
321.976	5.67
322.349	6.2
322.723	5.12
323.096	6.19
323.469	5.45
323.843	5.5
324.216	5.78
324.589	5.8
324.962	6.59
325.335	5.48
325.708	5.58
326.081	5.52
326.454	6.22
326.827	6.24
327.2	5.8
327.573	5.92
327.945	5.61
328.318	5.7
328.691	5.87
329.063	6.34
329.436	5.76
329.809	6.15
330.181	5.64
330.553	5.44
330.926	5.61
331.298	5.41
331.671	5.05
332.043	5.06
332.415	6.19
332.787	6.2
333.159	5.6
333.532	6.45
333.904	5.99
334.276	5.9
334.648	5.7
335.02	6.14
335.391	6.21
335.763	5.85
336.135	5.64
336.507	5.71
336.879	6.07
337.25	6.07
337.622	6.59
337.993	6.26
338.365	5.27
338.736	5.69
339.108	6.02
339.479	5.81
339.851	5.89
340.222	5.78
340.593	5.72
340.964	6.11
341.336	6.34
341.707	6.06
342.078	6.26
342.449	5.96
342.82	5.77
343.191	5.65
343.562	5.95
343.933	5.66
344.303	5.83
344.674	6.18
345.045	6.07
345.416	6.52
345.786	5.87
346.157	5.93
346.527	6.08
346.898	6
347.268	5.97
347.639	6.12
348.009	5.86
348.38	6.08
348.75	6.18
349.12	6.22
349.49	6.18
349.861	6.15
350.231	6.17
350.601	6.15
350.971	6.37
351.341	5.99
351.711	6.2
352.081	6.17
352.45	6.24
352.82	6.51
353.19	6.62
353.56	5.87
353.929	6.23
354.299	6.02
354.669	6
355.038	6.27
355.408	6.5
355.777	6.14
356.147	5.83
356.516	5.88
356.885	6.4
357.254	6.17
357.624	6.23
357.993	6.03
358.362	6.03
358.731	5.84
359.1	5.8
359.469	5.96
359.838	6.3
360.207	6.2
360.576	6.29
360.945	5.96
361.314	6.28
361.682	6.39
362.051	5.95
362.42	5.93
362.788	6.23
363.157	6.29
363.525	6.05
363.894	6.07
364.262	6.21
364.631	6.25
364.999	6.14
365.367	6.19
365.735	6.04
366.104	6.05
366.472	6.36
366.84	6.44
367.208	6.48
367.576	6.11
367.944	6.32
368.312	6.46
368.68	6.3
369.048	6.23
369.416	6.36
369.783	6.61
370.151	6.46
370.519	6.43
370.886	6.49
371.254	6.29
371.621	6.51
371.989	6.07
372.356	6.55
372.724	6.2
373.091	6.46
373.458	5.78
373.826	6.42
374.193	6.21
374.56	6.19
374.927	6.39
375.294	6.49
375.661	6.54
376.028	6.62
376.395	6.6
376.762	6.35
377.129	6.41
377.496	6.72
377.863	6.57
378.229	6.78
378.596	6.35
378.963	6.71
379.329	6.8
379.696	6.52
380.062	6.51
380.429	6.23
380.795	6.07
381.161	6.5
381.528	6.52
381.894	6.16
382.26	6.58
382.626	6.66
382.993	6.47
383.359	6.38
383.725	6.65
384.091	6.38
384.457	6.36
384.823	6.58
385.188	6.84
385.554	6.34
385.92	6.56
386.286	6.61
386.651	6.09
387.017	6.3
387.383	6.36
387.748	6.18
388.114	6.14
388.479	6.34
388.845	6.6
389.21	6.48
389.575	6.34
389.94	6.45
390.306	6.5
390.671	6.64
391.036	6.6
391.401	6.44
391.766	6.5
392.131	6.69
392.496	6.63
392.861	6.69
393.226	6.56
393.591	6.29
393.956	6.43
394.32	6.6
394.685	6.39
395.05	6.74
395.414	6.79
395.779	6.53
396.143	6.57
396.508	6.56
396.872	6.51
397.236	6.51
397.601	6.45
397.965	6.63
398.329	6.49
398.694	6.74
399.058	6.37
399.422	6.6
399.786	6.44
400.15	6.45
400.514	6.48
400.878	6.73
401.242	6.87
401.605	6.65
401.969	6.38
402.333	6.52
402.697	6.7
403.06	6.43
403.424	6.59
403.787	6.67
404.151	6.74
404.514	6.57
404.878	6.89
405.241	6.63
405.604	6.43
405.968	6.66
406.331	6.38
406.694	6.6
407.057	6.45
407.42	6.88
407.783	6.73
408.146	6.46
408.509	6.59
408.872	6.68
409.235	6.5
409.598	6.61
409.961	6.64
410.323	6.73
410.686	6.61
411.049	6.64
411.411	6.75
411.774	6.82
412.136	6.61
412.499	6.58
412.861	6.73
413.223	6.58
413.586	6.52
413.948	6.87
414.31	6.85
414.672	6.51
415.035	6.71
415.397	6.91
415.759	6.62
416.121	6.88
416.483	6.92
416.845	6.82
417.206	6.49
417.568	6.74
417.93	6.62
418.292	6.5
418.653	6.75
419.015	6.57
419.377	6.61
419.738	6.67
420.1	6.52
420.461	6.51
420.822	6.45
421.184	6.48
421.545	6.61
421.906	6.57
422.267	6.47
422.629	6.55
422.99	6.41
423.351	6.47
423.712	6.36
424.073	6.56
424.434	6.38
424.795	6.43
425.155	6.6
425.516	6.5
425.877	6.47
426.238	6.42
426.598	6.42
426.959	6.43
427.32	6.59
427.68	6.61
428.041	6.54
428.401	6.64
428.761	6.64
429.122	6.5
429.482	6.55
429.842	6.66
430.202	6.75
430.563	6.81
430.923	6.65
431.283	6.4
431.643	6.8
432.003	6.88
432.363	6.52
432.722	6.69
433.082	6.66
433.442	6.54
433.802	6.81
434.161	6.58
434.521	6.64
434.881	6.65
435.24	6.65
435.6	6.46
435.959	6.58
436.319	6.71
436.678	6.57
437.037	6.51
437.396	6.76
437.756	6.83
438.115	6.37
438.474	6.6
438.833	6.62
439.192	6.41
439.551	6.6
439.91	6.49
440.269	6.56
440.628	6.5
440.987	6.52
441.345	6.45
441.704	6.66
442.063	6.59
442.421	6.41
442.78	6.54
443.138	6.54
443.497	6.53
443.855	6.58
444.214	6.67
444.572	6.53
444.93	6.55
445.288	6.59
445.647	6.7
446.005	6.35
446.363	6.51
446.721	6.55
447.079	6.68
447.437	6.58
447.795	6.4
448.153	6.43
448.51	6.4
448.868	6.36
449.226	6.47
449.584	6.48
449.941	6.39
450.299	6.48
450.656	6.31
451.014	6.45
451.371	6.42
451.729	6.41
452.086	6.48
452.443	6.62
452.801	6.33
453.158	6.57
453.515	6.54
453.872	6.64
454.229	6.79
454.586	6.67
454.943	6.49
455.3	6.55
455.657	6.56
456.014	6.49
456.371	6.54
456.727	6.43
457.084	6.6
457.441	6.56
457.797	6.48
458.154	6.46
458.51	6.57
458.867	6.62
459.223	6.56
459.58	6.4
459.936	6.4
460.292	6.59
460.648	6.34
461.005	6.4
461.361	6.53
461.717	6.22
462.073	6.44
462.429	6.47
462.785	6.43
463.141	6.49
463.496	6.56
463.852	6.42
464.208	6.68
464.564	6.48
464.919	6.36
465.275	6.64
465.631	6.64
465.986	6.54
466.342	6.51
466.697	6.39
467.052	6.51
467.408	6.54
467.763	6.57
468.118	6.74
468.473	6.62
468.829	6.51
469.184	6.62
469.539	6.62
469.894	6.48
470.249	6.46
470.603	6.45
470.958	6.56
471.313	6.74
471.668	6.44
472.023	6.64
472.377	6.56
472.732	6.47
473.086	6.63
473.441	6.59
473.795	6.81
474.15	6.55
474.504	6.41
474.859	6.53
475.213	6.56
475.567	6.63
475.921	6.59
476.275	6.53
476.63	6.54
476.984	6.51
477.338	6.47
477.692	6.44
478.045	6.56
478.399	6.45
478.753	6.57
479.107	6.54
479.461	6.52
479.814	6.38
480.168	6.5
480.521	6.54
480.875	6.39
481.228	6.46
481.582	6.51
481.935	6.32
482.289	6.45
482.642	6.45
482.995	6.39
483.348	6.37
483.701	6.37
484.055	6.36
484.408	6.2
484.761	6.21
485.114	6.2
485.466	6.11
485.819	6.02
486.172	5.91
486.525	5.95
486.878	6.02
487.23	6.15
487.583	6.16
487.936	6.11
488.288	6.21
488.641	6.3
488.993	6.09
489.345	6.11
489.698	6.06
490.05	6.04
490.402	6.06
490.754	6.1
491.107	6.15
491.459	6.26
491.811	6.31
492.163	6.22
492.515	6.31
492.866	6.25
493.218	6.17
493.57	5.99
493.922	6.05
494.274	6.1
494.625	6.13
494.977	6.11
495.328	6.24
495.68	6.32
496.031	6.27
496.383	6.31
496.734	6.37
497.086	6.36
497.437	6.35
497.788	6.29
498.139	6.42
498.49	6.43
498.842	6.21
499.193	6.27
499.544	6.37
499.894	6.35
500.245	6.29
500.596	6.39
500.947	6.42
501.298	6.35
501.648	6.4
501.999	6.34
502.35	6.28
502.7	6.44
503.051	6.34
503.401	6.47
503.752	6.49
504.102	6.41
504.452	6.27
504.803	6.35
505.153	6.3
505.503	6.26
505.853	6.36
506.203	6.29
506.553	6.12
506.903	6.37
507.253	6.41
507.603	6.38
507.953	6.42
508.303	6.31
508.652	6.49
509.002	6.34
509.352	6.22
509.701	6.4
510.051	6.28
510.4	6.33
510.75	6.39
511.099	6.28
511.449	6.31
511.798	6.31
512.147	6.23
512.496	6.25
512.846	6.17
513.195	6.36
513.544	6.37
513.893	6.21
514.242	6.22
514.591	6.38
514.939	6.34
515.288	6.21
515.637	6.29
515.986	6.39
516.334	6.37
516.683	6.28
517.032	6.13
517.38	6.15
517.729	6.3
518.077	6.35
518.426	6.34
518.774	6.19
519.122	6.28
519.47	6.24
519.819	6.15
520.167	6.11
520.515	6.12
520.863	6.19
521.211	6.11
521.559	6.25
521.907	6.21
522.255	6.23
522.602	6.37
522.95	6.28
523.298	6.25
523.645	6.2
523.993	6.19
524.341	6.23
524.688	6.28
525.036	6.18
525.383	6.17
525.73	6.21
526.078	6.29
526.425	6.21
526.772	6.08
527.119	6.12
527.466	6.06
527.814	6.1
528.161	6.09
528.508	6.02
528.854	6.06
529.201	6.04
529.548	6.04
529.895	6.07
530.242	5.93
530.588	5.82
530.935	5.8
531.282	5.87
531.628	5.92
531.975	5.88
532.321	6.01
532.667	6.04
533.014	6.07
533.36	6.1
533.706	6.14
534.052	6.02
534.399	5.98
534.745	5.97
535.091	5.93
535.437	5.95
535.783	5.95
536.129	6.01
536.474	6.05
536.82	6.09
537.166	6.01
537.512	6.23
537.857	6.08
538.203	5.99
538.549	6.15
538.894	6.06
539.239	6.04
539.585	6.02
539.93	6.15
540.276	6.28
540.621	6.18
540.966	6.19
541.311	6.23
541.656	6.13
542.001	6.13
542.346	6.12
542.691	6
543.036	5.99
543.381	5.92
543.726	5.81
544.071	5.9
544.415	5.96
544.76	5.99
545.105	6.08
545.449	6.03
545.794	6.04
546.138	6.03
546.483	6.07
546.827	6.02
547.171	6.18
547.516	5.98
547.86	6.18
548.204	6.06
548.548	6.04
548.892	5.95
549.236	6.04
549.58	6.07
549.924	6.01
550.268	6.07
550.612	6.17
550.956	6.25
551.3	6.16
551.643	6.13
551.987	6.27
552.33	6.01
552.674	6.18
553.017	6.14
553.361	6.1
553.704	6.24
554.048	6.29
554.391	6.25
554.734	6.14
555.077	6.13
555.42	5.99
555.764	6.05
556.107	6.21
556.45	6.16
556.793	6.09
557.135	6.08
557.478	5.97
557.821	6.18
558.164	6.38
558.507	6.31
558.849	6.37
559.192	6.26
559.534	6.19
559.877	6.05
560.219	6.19
560.562	6.24
560.904	6.09
561.246	6.2
561.589	5.88
561.931	6.12
562.273	6.34
562.615	6.24
562.957	6.18
563.299	6.21
563.641	6.24
563.983	5.92
564.325	6.07
564.667	6.17
565.008	6.15
565.35	6.07
565.692	6.11
566.033	6.03
566.375	6.27
566.716	6.16
567.058	6.13
567.399	6.17
567.741	6.17
568.082	6.15
568.423	6.16
568.764	5.89
569.105	6.15
569.447	6.01
569.788	6.03
570.129	6.03
570.47	6.09
570.811	6.29
571.151	6.19
571.492	6.17
571.833	6.37
572.174	6.23
572.514	6.19
572.855	6.04
573.195	6.08
573.536	5.97
573.876	6.18
574.217	5.99
574.557	5.98
574.898	5.9
575.238	5.92
575.578	5.92
575.918	6.11
576.258	6.22
576.598	6.14
576.938	6.16
577.278	6.15
577.618	5.99
577.958	5.96
578.298	5.96
578.638	6.07
578.977	6.02
579.317	5.98
579.657	5.93
579.996	6.15
580.336	6.25
580.675	6.1
581.014	6.23
581.354	6.21
581.693	6.09
582.032	5.93
582.372	5.92
582.711	6.1
583.05	6.13
583.389	5.92
583.728	6.12
584.067	6.1
584.406	6.13
584.745	6
585.083	6.04
585.422	6.03
585.761	6.05
586.1	6.26
586.438	5.87
586.777	6.08
587.115	6.31
587.454	6.08
587.792	6.1
588.13	6.02
588.469	6.14
588.807	5.8
589.145	6.05
589.483	6.03
589.821	6.08
590.159	6.15
590.497	5.96
590.835	5.91
591.173	6.12
591.511	6.15
591.849	6.14
592.187	5.94
592.524	5.89
592.862	6.1
593.2	6.14
593.537	5.89
593.875	5.93
594.212	6.22
594.55	6.13
594.887	6.12
595.224	5.89
595.561	5.8
595.899	5.92
596.236	6.26
596.573	5.68
596.91	5.98
597.247	6.16
597.584	5.97
597.921	5.93
598.258	5.98
598.594	6.23
598.931	5.72
599.268	5.89
599.604	5.94
599.941	5.91
600.277	6.03
600.614	6.14
600.95	5.97
601.287	5.95
601.623	5.91
601.959	6.27
602.296	6.04
602.632	6.23
602.968	5.99
603.304	6.22
603.64	5.83
603.976	6.19
604.312	6.38
604.648	6.23
604.984	6.27
605.319	5.98
605.655	5.8
605.991	6.16
606.326	6.01
606.662	5.92
606.998	5.87
607.333	5.71
607.668	5.82
608.004	5.81
608.339	5.73
608.674	5.98
609.01	5.92
609.345	6.22
609.68	6.14
610.015	5.97
610.35	6.21
610.685	6.01
611.02	6.01
611.355	5.85
611.689	5.98
612.024	6.02
612.359	6.01
612.694	5.87
613.028	6.13
613.363	5.85
613.697	5.79
614.032	5.99
614.366	5.97
614.7	6
615.035	5.97
615.369	6.08
615.703	5.41
616.037	5.92
616.371	5.91
616.705	5.78
617.039	5.74
617.373	5.57
617.707	6.04
618.041	5.78
618.375	5.81
618.709	5.92
619.042	6.02
619.376	6.28
619.71	6.19
620.043	6.21
620.377	5.93
620.71	6.22
621.043	5.83
621.377	6.02
621.71	5.92
622.043	5.93
622.376	6.15
622.709	6.38
623.043	6.13
623.376	5.82
623.709	5.58
624.041	6
624.374	5.89
624.707	5.8
625.04	6.35
625.373	6.14
625.705	5.75
626.038	6.14
626.37	5.64
626.703	5.35
627.035	6.02
627.368	5.92
627.7	6.16
628.032	5.86
628.365	5.78
628.697	5.71
629.029	5.75
629.361	5.82
629.693	5.83
630.025	5.96
630.357	5.89
630.689	5.59
631.021	6
631.353	5.67
631.684	6.08
632.016	5.99
632.348	6
632.679	5.86
633.011	5.73
633.342	5.33
633.674	5.76
634.005	5.75
634.336	6.1
634.668	5.67
634.999	5.77
635.33	5.53
635.661	5.99
635.992	6.02
636.323	5.82
636.654	5.96
636.985	5.93
637.316	5.78
637.647	5.87
637.977	5.24
638.308	5.91
638.639	5.72
638.969	5.82
639.3	5.73
639.63	5.97
639.961	5.84
640.291	5.95
640.622	5.8
640.952	5.93
641.282	5.9
641.612	6.27
641.943	6.29
642.273	6.26
642.603	6.28
642.933	5.71
643.263	6.05
643.592	5.78
643.922	6.11
644.252	5.72
644.582	5.77
644.911	6.04
645.241	6.21
645.571	5.81
645.9	5.47
646.23	5.36
646.559	5.62
646.888	6.49
647.218	5.79
647.547	5.75
647.876	6.04
648.205	6.08
648.534	5.71
648.863	5.94
649.192	5.58
649.521	6.18
649.85	5.79
650.179	5.78
650.508	5.97
650.837	6.04
651.165	5.92
651.494	5.54
651.822	6.03
652.151	5.98
652.479	5.77
652.808	5.83
653.136	6.02
653.465	5.89
653.793	5.72
654.121	6.11
654.449	5.65
654.777	5.96
655.105	5.69
655.433	5.96
655.761	6.01
656.089	5.96
656.417	5.84
656.745	5.98
657.073	5.91
657.4	6.71
657.728	5.88
658.056	5.85
658.383	6.34
658.711	5.56
659.038	6.21
659.365	5.9
659.693	5.97
660.02	5.79
660.347	5.65
660.674	5.48
661.001	5.93
661.329	5.77
661.656	5.94
661.982	5.85
662.309	5.98
662.636	5.89
662.963	5.64
663.29	5.84
663.616	6.02
663.943	6.11
664.27	6.16
664.596	5.85
664.923	5.72
665.249	5.17
665.576	5.54
665.902	6
666.228	6.18
666.554	5.81
666.881	5.77
667.207	5.98
667.533	5.76
667.859	6.17
668.185	6.22
668.511	6.28
668.837	6.52
669.162	6.42
669.488	6.03
669.814	5.61
670.139	6.38
670.465	5.83
670.791	6.69
671.116	6.23
671.442	6.08
671.767	5.79
672.092	6.08
672.418	5.98
672.743	6.29
673.068	6.58
673.393	6.12
673.718	5.67
674.043	5.8
674.368	5.97
674.693	5.91
675.018	6.21
675.343	6
675.667	5.46
675.992	6.18
676.317	6.22
676.641	6.48
676.966	6.01
677.29	5.93
677.615	5.66
677.939	5.37
678.264	5.96
678.588	5.82
678.912	6.22
679.236	6.08
679.56	6.02
679.885	6.04
680.209	6.16
680.532	6.01
680.856	5.82
681.18	5.65
681.504	5.96
681.828	6.08
682.152	6.06
682.475	5.38
682.799	6.16
683.122	5.82
683.446	6.13
683.769	5.95
684.093	6.22
684.416	5.87
684.739	5.73
685.062	5.17
685.386	5.69
685.709	5.8
686.032	6.23
686.355	6.61
686.678	5.77
687.001	5.98
687.324	5.66
687.646	5.75
687.969	6.6
688.292	6.32
688.614	6.02
688.937	5.92
689.26	5.29
689.582	5.32
689.904	5.64
690.227	5.38
690.549	6.21
690.871	5.92
691.194	6.31
691.516	5.72
691.838	6.64
692.16	5.73
