Data from 0283_forehead_Reflection__0__210.txt Node

Date: Fri Oct 20 22:24:46 CDT 2023
User: ToomeyLab
Spectrometer: FLMS14357
Trigger mode: 0
Integration Time (sec): 1.000000E-2
Scans to average: 100
Electric dark correction enabled: true
Nonlinearity correction enabled: false
Boxcar width: 0
XAxis mode: Wavelengths
Number of Pixels in Spectrum: 2048
>>>>>Begin Spectral Data<<<<<
189.047	-96.03
189.435	-96.03
189.823	-96.03
190.211	-312.95
190.599	1337.5
190.987	136.98
191.375	-4.49
191.763	-36.57
192.151	-111.52
192.538	111.38
192.926	53.83
193.314	55.59
193.702	201.22
194.089	5468.06
194.477	33.98
194.864	321.11
195.252	-151.39
195.639	31.39
196.027	149.52
196.414	53.68
196.801	-0.48
197.189	618430507819100
197.576	188.11
197.963	672.5
198.351	61.15
198.738	64.25
199.125	86.89
199.512	94.81
199.899	46.29
200.286	33.65
200.673	73.43
201.06	60.19
201.447	44.68
201.833	116.08
202.22	52.94
202.607	72.01
202.994	59.26
203.38	15.07
203.767	80.05
204.154	94.33
204.54	65.95
204.927	56.25
205.313	26.85
205.699	65
206.086	59.31
206.472	61.71
206.858	77.17
207.245	66.61
207.631	42.64
208.017	43.19
208.403	37.58
208.789	42.94
209.175	31.48
209.561	50.39
209.947	2.03
210.333	46.28
210.719	29.53
211.105	68.74
211.491	60.52
211.876	59.57
212.262	88.52
212.648	40.21
213.034	34.63
213.419	24.24
213.805	82.86
214.19	67.86
214.576	32.87
214.961	29.8
215.346	44.34
215.732	53.85
216.117	-4.75
216.502	38.28
216.888	15.18
217.273	58.45
217.658	17.93
218.043	3.47
218.428	20.05
218.813	45.36
219.198	7.44
219.583	35.41
219.968	30.31
220.353	52.47
220.738	40.73
221.122	35.47
221.507	34.04
221.892	9.31
222.276	16.3
222.661	23.54
223.046	13.19
223.43	19.09
223.815	19.66
224.199	34.19
224.583	10.57
224.968	7.33
225.352	9.19
225.736	20.41
226.121	14.79
226.505	18.65
226.889	22.88
227.273	10.41
227.657	21.82
228.041	12.1
228.425	12.47
228.809	11.1
229.193	8.06
229.577	10.7
229.961	6.26
230.344	7.99
230.728	7.11
231.112	7.52
231.495	6.42
231.879	6.8
232.263	8.11
232.646	6.41
233.03	6.77
233.413	7.36
233.797	7.22
234.18	8.2
234.563	9.87
234.946	9.05
235.33	9.56
235.713	7.2
236.096	9.21
236.479	8.57
236.862	8.29
237.245	7.95
237.628	8.86
238.011	9.68
238.394	7.35
238.777	9.07
239.16	7.23
239.543	9.1
239.925	9.43
240.308	9.26
240.691	8.58
241.073	9.17
241.456	9.88
241.838	6.41
242.221	8.77
242.603	7.86
242.986	8.7
243.368	7.35
243.75	7.03
244.133	7.06
244.515	6.85
244.897	6.97
245.279	7.04
245.661	6.87
246.043	6.8
246.425	7.12
246.807	8.11
247.189	8.18
247.571	7.83
247.953	7.52
248.335	7.05
248.717	6.7
249.098	6.63
249.48	6.72
249.862	7.08
250.243	7.21
250.625	7.28
251.006	7.44
251.388	7.78
251.769	7.78
252.151	6.45
252.532	7.76
252.913	7.75
253.295	7.17
253.676	7.97
254.057	7.66
254.438	7.29
254.819	7.75
255.2	7.62
255.581	7.21
255.962	8.02
256.343	7.86
256.724	7.05
257.105	8.12
257.486	8.32
257.867	7.73
258.247	7.66
258.628	8.16
259.009	7.34
259.389	6.71
259.77	6.83
260.15	7.16
260.531	7.21
260.911	7.46
261.292	6.73
261.672	6.93
262.052	6.91
262.432	6.96
262.813	6.71
263.193	7.15
263.573	6.77
263.953	7.21
264.333	7.86
264.713	7.62
265.093	7.86
265.473	7.48
265.853	7.01
266.233	7.09
266.612	7.33
266.992	7.48
267.372	7.07
267.752	7.42
268.131	7.3
268.511	6.92
268.89	6.82
269.27	6.74
269.649	6.2
270.029	7.17
270.408	7.38
270.787	6.58
271.167	6.87
271.546	6.2
271.925	7.48
272.304	7.48
272.683	6.75
273.062	6.93
273.441	6.58
273.82	6.86
274.199	6.82
274.578	6.41
274.957	7.02
275.336	6.69
275.715	6.79
276.093	6.7
276.472	6.55
276.851	7.28
277.229	6.36
277.608	5.85
277.986	6.02
278.365	7.17
278.743	6.57
279.122	6.43
279.5	6.9
279.878	6.14
280.257	6.46
280.635	6.8
281.013	7.03
281.391	7.45
281.769	6.44
282.147	6.89
282.525	6.75
282.903	6.69
283.281	6.76
283.659	6.48
284.037	6.53
284.415	6.15
284.792	6.38
285.17	6.57
285.548	6.14
285.925	6.61
286.303	6.5
286.68	6.56
287.058	6.76
287.435	6.64
287.813	6.05
288.19	6.38
288.567	6.2
288.945	6.42
289.322	7.02
289.699	6.54
290.076	7.42
290.453	6.95
290.83	6.56
291.207	7.2
291.584	6.94
291.961	6.63
292.338	6.49
292.715	6.66
293.092	6.57
293.469	7.07
293.845	7.03
294.222	7.29
294.599	6.51
294.975	7.26
295.352	7.59
295.728	7.35
296.105	6.32
296.481	7.38
296.858	7.56
297.234	7.53
297.61	6.68
297.986	7.41
298.363	7.5
298.739	7.38
299.115	7.27
299.491	7.44
299.867	7.48
300.243	7.81
300.619	7.13
300.995	7.64
301.371	7.56
301.746	7.92
302.122	8.77
302.498	7.85
302.874	7.77
303.249	8.14
303.625	8.42
304	8.31
304.376	7.83
304.751	8.03
305.127	8.6
305.502	8.36
305.878	8.37
306.253	8.82
306.628	8.84
307.003	8.88
307.378	8.73
307.754	8.93
308.129	9.54
308.504	9.32
308.879	9.33
309.254	9.8
309.629	8.71
310.003	8.72
310.378	9.6
310.753	10.04
311.128	9.8
311.502	9.78
311.877	9.69
312.252	9.5
312.626	10.44
313.001	9.85
313.375	9.91
313.75	10.3
314.124	10.05
314.498	10.08
314.873	10.22
315.247	10.53
315.621	10.81
315.995	10.84
316.369	10.74
316.743	10.97
317.117	11.11
317.491	10.88
317.865	11.02
318.239	11.77
318.613	11.72
318.987	11.64
319.361	11.07
319.734	11.25
320.108	11.4
320.482	12.4
320.855	12.49
321.229	11.88
321.602	12.19
321.976	11.91
322.349	12.1
322.723	11.98
323.096	11.71
323.469	12.31
323.843	12.54
324.216	13.13
324.589	12.7
324.962	12.84
325.335	12.72
325.708	12.71
326.081	13.04
326.454	13.55
326.827	13.19
327.2	13.34
327.573	13.33
327.945	13.14
328.318	13.03
328.691	13.43
329.063	13.76
329.436	13.32
329.809	13.56
330.181	14.26
330.553	14.02
330.926	14.36
331.298	13.73
331.671	13.4
332.043	13.85
332.415	14.37
332.787	14.38
333.159	14.17
333.532	14.43
333.904	14.35
334.276	14
334.648	14.79
335.02	14.59
335.391	14.55
335.763	14.91
336.135	14.97
336.507	14.93
336.879	14.65
337.25	15.15
337.622	14.99
337.993	15.73
338.365	14.69
338.736	15.02
339.108	15.46
339.479	14.83
339.851	15.22
340.222	14.97
340.593	15.17
340.964	15.46
341.336	16.43
341.707	15.75
342.078	15.83
342.449	16.03
342.82	15.71
343.191	15.96
343.562	16.08
343.933	16.01
344.303	16.5
344.674	16.2
345.045	16.35
345.416	16.6
345.786	16.53
346.157	16.29
346.527	16.82
346.898	16.94
347.268	16.78
347.639	17
348.009	16.83
348.38	16.66
348.75	16.98
349.12	17.31
349.49	16.84
349.861	17.46
350.231	16.81
350.601	17.18
350.971	17.07
351.341	17.25
351.711	18.05
352.081	17.52
352.45	17.8
352.82	17.65
353.19	18.32
353.56	18.15
353.929	17.78
354.299	18.25
354.669	17.87
355.038	18
355.408	18.41
355.777	18.13
356.147	18.12
356.516	17.72
356.885	18.38
357.254	18.33
357.624	18.46
357.993	17.73
358.362	18.45
358.731	18.37
359.1	18.19
359.469	18.31
359.838	18.64
360.207	18.83
360.576	19.04
360.945	18.59
361.314	18.95
361.682	18.83
362.051	19.3
362.42	19.15
362.788	19.16
363.157	19.09
363.525	19.35
363.894	19.15
364.262	19.04
364.631	19.2
364.999	19.52
365.367	19.48
365.735	19.56
366.104	19.67
366.472	19.64
366.84	20.26
367.208	20.03
367.576	19.73
367.944	20.1
368.312	20.27
368.68	20.52
369.048	20.35
369.416	20.46
369.783	20.29
370.151	20.63
370.519	20.62
370.886	20.87
371.254	20.87
371.621	21.17
371.989	20.88
372.356	20.91
372.724	21.22
373.091	21.13
373.458	20.78
373.826	21.1
374.193	21
374.56	21.47
374.927	21.32
375.294	21.46
375.661	21.91
376.028	21.71
376.395	21.96
376.762	20.91
377.129	22.08
377.496	21.99
377.863	21.89
378.229	22.33
378.596	22.06
378.963	22.3
379.329	22.14
379.696	22.05
380.062	22.45
380.429	22.46
380.795	22.43
381.161	22.43
381.528	22.99
381.894	22.24
382.26	22.73
382.626	23.24
382.993	23.01
383.359	23.02
383.725	23.01
384.091	22.92
384.457	22.83
384.823	23.28
385.188	23.34
385.554	23.25
385.92	23.45
386.286	23.68
386.651	23.45
387.017	23.67
387.383	23.83
387.748	23.47
388.114	23.65
388.479	23.67
388.845	24.01
389.21	23.76
389.575	24
389.94	24.07
390.306	23.78
390.671	24.23
391.036	24.07
391.401	24.33
391.766	24.32
392.131	24.48
392.496	24.3
392.861	24.21
393.226	24.64
393.591	24.74
393.956	24.9
394.32	24.95
394.685	25.04
395.05	25.06
395.414	25.01
395.779	25.3
396.143	24.73
396.508	25.25
396.872	25.24
397.236	24.98
397.601	25.26
397.965	25.18
398.329	25.5
398.694	25.6
399.058	25.49
399.422	25.6
399.786	25.89
400.15	25.76
400.514	25.5
400.878	25.86
401.242	26.15
401.605	26.09
401.969	25.96
402.333	25.94
402.697	26.26
403.06	26.3
403.424	26.42
403.787	26.54
404.151	26.41
404.514	26.56
404.878	26.63
405.241	26.58
405.604	26.45
405.968	26.55
406.331	26.73
406.694	26.37
407.057	26.56
407.42	26.94
407.783	27.11
408.146	26.91
408.509	26.81
408.872	27.19
409.235	27.2
409.598	27.68
409.961	27.68
410.323	27.55
410.686	27.33
411.049	27.7
411.411	27.8
411.774	27.7
412.136	27.5
412.499	27.53
412.861	27.88
413.223	28.05
413.586	27.69
413.948	28.11
414.31	28.11
414.672	28.06
415.035	28.18
415.397	28.13
415.759	28.26
416.121	28.56
416.483	28.36
416.845	28.41
417.206	28.45
417.568	28.61
417.93	28.65
418.292	28.42
418.653	28.7
419.015	28.57
419.377	28.47
419.738	28.66
420.1	28.58
420.461	28.69
420.822	28.72
421.184	28.56
421.545	28.66
421.906	28.78
422.267	28.67
422.629	28.76
422.99	28.74
423.351	28.75
423.712	28.74
424.073	28.82
424.434	28.89
424.795	29.22
425.155	29.08
425.516	29.19
425.877	29.3
426.238	29.34
426.598	29.27
426.959	29.35
427.32	29.49
427.68	29.59
428.041	29.52
428.401	29.88
428.761	30.16
429.122	30.1
429.482	30.42
429.842	30.19
430.202	30.53
430.563	30.56
430.923	30.88
431.283	30.73
431.643	30.55
432.003	30.96
432.363	30.72
432.722	30.97
433.082	30.98
433.442	31.15
433.802	31.18
434.161	31.08
434.521	31.25
434.881	31.14
435.24	31.12
435.6	31.17
435.959	31.21
436.319	31.37
436.678	31.32
437.037	31.39
437.396	31.72
437.756	31.82
438.115	31.7
438.474	32.02
438.833	32
439.192	31.72
439.551	31.92
439.91	31.97
440.269	31.79
440.628	32.04
440.987	32.03
441.345	32.4
441.704	32.14
442.063	32.24
442.421	32.01
442.78	32.28
443.138	32.26
443.497	32.33
443.855	32.53
444.214	32.41
444.572	32.7
444.93	32.93
445.288	32.92
445.647	33.25
446.005	32.99
446.363	33.04
446.721	32.88
447.079	33.02
447.437	33.17
447.795	32.96
448.153	32.8
448.51	32.92
448.868	33
449.226	32.99
449.584	33.05
449.941	33.18
450.299	33.4
450.656	33.43
451.014	33.52
451.371	33.62
451.729	33.7
452.086	33.84
452.443	33.9
452.801	34.16
453.158	34.18
453.515	34.23
453.872	34.3
454.229	34.28
454.586	34.42
454.943	34.25
455.3	34.35
455.657	34.71
456.014	34.48
456.371	34.72
456.727	34.88
457.084	34.93
457.441	34.94
457.797	35.25
458.154	35.31
458.51	35.14
458.867	35.27
459.223	35.35
459.58	35.16
459.936	35.46
460.292	35.24
460.648	35.13
461.005	35.2
461.361	35.37
461.717	35.1
462.073	34.94
462.429	35.05
462.785	35.27
463.141	35.48
463.496	35.67
463.852	35.94
464.208	35.99
464.564	36.03
464.919	36.01
465.275	36.33
465.631	36.43
465.986	36.14
466.342	36.48
466.697	36.35
467.052	36.53
467.408	36.35
467.763	36.66
468.118	36.76
468.473	36.79
468.829	36.65
469.184	36.6
469.539	36.82
469.894	36.88
470.249	37.08
470.603	36.9
470.958	37.1
471.313	37.27
471.668	37.32
472.023	37.16
472.377	37.34
472.732	37.25
473.086	37.64
473.441	37.53
473.795	38.03
474.15	37.72
474.504	37.57
474.859	37.9
475.213	37.92
475.567	38.03
475.921	37.84
476.275	37.94
476.63	38.24
476.984	38.25
477.338	38.3
477.692	38.59
478.045	38.48
478.399	38.47
478.753	38.4
479.107	38.6
479.461	38.56
479.814	38.7
480.168	38.6
480.521	38.71
480.875	38.57
481.228	38.84
481.582	39.09
481.935	38.9
482.289	39.08
482.642	39.03
482.995	38.96
483.348	38.9
483.701	38.84
484.055	38.67
484.408	38.69
484.761	38.77
485.114	38.51
485.466	38.21
485.819	38.05
486.172	38.13
486.525	38.16
486.878	38.13
487.23	38.18
487.583	38.43
487.936	38.69
488.288	38.88
488.641	39.07
488.993	38.8
489.345	38.72
489.698	38.6
490.05	38.69
490.402	38.74
490.754	38.88
491.107	39.03
491.459	39.44
491.811	39.66
492.163	39.66
492.515	39.94
492.866	39.86
493.218	39.8
493.57	39.47
493.922	39.39
494.274	39.48
494.625	39.64
494.977	39.74
495.328	40.29
495.68	40.48
496.031	40.71
496.383	40.95
496.734	41.1
497.086	41.39
497.437	41.51
497.788	41.4
498.139	41.53
498.49	41.07
498.842	41.19
499.193	41.11
499.544	41.14
499.894	41.35
500.245	41.36
500.596	41.35
500.947	41.59
501.298	41.76
501.648	41.66
501.999	41.75
502.35	41.83
502.7	42.12
503.051	42.41
503.401	42.11
503.752	42.3
504.102	42.28
504.452	42.46
504.803	42.58
505.153	42.56
505.503	42.51
505.853	42.68
506.203	42.78
506.553	42.69
506.903	42.65
507.253	42.96
507.603	42.96
507.953	43
508.303	43.02
508.652	43.11
509.002	43.19
509.352	43.29
509.701	43.16
510.051	43.16
510.4	43.36
510.75	43.24
511.099	43.18
511.449	43.12
511.798	43.21
512.147	43.39
512.496	43.44
512.846	43.32
513.195	43.46
513.544	43.54
513.893	43.55
514.242	43.6
514.591	43.86
514.939	43.63
515.288	43.89
515.637	43.72
515.986	44.08
516.334	44.05
516.683	44.43
517.032	44.19
517.38	44.26
517.729	44.43
518.077	44.67
518.426	44.64
518.774	44.5
519.122	44.49
519.47	44.54
519.819	44.57
520.167	44.31
520.515	44.36
520.863	44.25
521.211	44.12
521.559	44.19
521.907	44.42
522.255	44.44
522.602	44.93
522.95	44.99
523.298	45.24
523.645	45.11
523.993	45.28
524.341	45.33
524.688	45.56
525.036	45.48
525.383	45.36
525.73	45.62
526.078	45.54
526.425	45.69
526.772	45.55
527.119	45.62
527.466	45.33
527.814	45.41
528.161	45.28
528.508	45.29
528.854	45.34
529.201	45.41
529.548	45.4
529.895	45.31
530.242	45.03
530.588	44.87
530.935	44.89
531.282	45.03
531.628	44.95
531.975	44.87
532.321	45.14
532.667	45.37
533.014	45.78
533.36	45.96
533.706	46.13
534.052	46.15
534.399	46.17
534.745	45.95
535.091	45.93
535.437	45.97
535.783	45.75
536.129	45.83
536.474	46.08
536.82	46.23
537.166	46.38
537.512	46.66
537.857	46.88
538.203	46.76
538.549	46.84
538.894	46.64
539.239	46.61
539.585	46.79
539.93	47.04
540.276	47.17
540.621	47.5
540.966	47.55
541.311	47.75
541.656	47.94
542.001	47.79
542.346	47.57
542.691	47.47
543.036	47.3
543.381	46.98
543.726	46.7
544.071	46.9
544.415	46.97
544.76	47.13
545.105	47.43
545.449	47.41
545.794	47.84
546.138	47.83
546.483	47.91
546.827	48.05
547.171	48.21
547.516	48.43
547.86	48.42
548.204	48.41
548.548	48.38
548.892	48.47
549.236	48.38
549.58	48.43
549.924	48.51
550.268	48.55
550.612	48.95
550.956	48.99
551.3	49.17
551.643	49.17
551.987	49.81
552.33	49.64
552.674	49.74
553.017	49.7
553.361	49.85
553.704	50.12
554.048	49.77
554.391	49.69
554.734	49.88
555.077	49.85
555.42	49.7
555.764	50.09
556.107	50.13
556.45	49.93
556.793	50.13
557.135	50.3
557.478	50.45
557.821	50.36
558.164	50.56
558.507	50.69
558.849	50.39
559.192	50.53
559.534	50.61
559.877	50.87
560.219	50.82
560.562	51.05
560.904	50.89
561.246	50.88
561.589	51.25
561.931	50.9
562.273	51.15
562.615	51.44
562.957	51.33
563.299	51.33
563.641	51.32
563.983	51.37
564.325	51.62
564.667	51.34
565.008	51.61
565.35	51.56
565.692	51.8
566.033	51.56
566.375	51.52
566.716	51.63
567.058	51.53
567.399	51.93
567.741	51.84
568.082	51.6
568.423	51.75
568.764	51.52
569.105	51.52
569.447	51.7
569.788	51.79
570.129	51.8
570.47	52.26
570.811	52.08
571.151	52.2
571.492	52.41
571.833	52.21
572.174	52.35
572.514	52.87
572.855	52.46
573.195	52.31
573.536	52.11
573.876	52.26
574.217	52.42
574.557	52.47
574.898	52.56
575.238	52.63
575.578	52.57
575.918	52.68
576.258	52.88
576.598	52.68
576.938	52.84
577.278	52.56
577.618	53.02
577.958	52.8
578.298	52.98
578.638	53.09
578.977	53.15
579.317	53.14
579.657	53.6
579.996	53.45
580.336	53.44
580.675	53.89
581.014	53.75
581.354	53.78
581.693	54.31
582.032	54
582.372	54.14
582.711	54.2
583.05	54.33
583.389	54.12
583.728	54.26
584.067	53.96
584.406	54.41
584.745	54.61
585.083	54.33
585.422	54.62
585.761	54.6
586.1	54.77
586.438	54.64
586.777	54.91
587.115	54.76
587.454	54.68
587.792	55.12
588.13	54.85
588.469	54.7
588.807	54.91
589.145	55.24
589.483	54.74
589.821	54.91
590.159	54.81
590.497	55.08
590.835	55.38
591.173	54.99
591.511	55.45
591.849	55.12
592.187	55.2
592.524	55.22
592.862	55.41
593.2	55.77
593.537	55.67
593.875	55.32
594.212	55.89
594.55	55.71
594.887	55.77
595.224	55.82
595.561	55.98
595.899	55.86
596.236	55.71
596.573	55.75
596.91	56.02
597.247	56.14
597.584	56.06
597.921	55.9
598.258	56.18
598.594	56.18
598.931	55.78
599.268	55.56
599.604	55.82
599.941	55.91
600.277	55.69
600.614	55.97
600.95	56.46
601.287	56.14
601.623	56.63
601.959	56.68
602.296	56.85
602.632	57.15
602.968	56.9
603.304	56.81
603.64	56.69
603.976	57.07
604.312	57.17
604.648	56.93
604.984	57.09
605.319	56.96
605.655	56.92
605.991	56.92
606.326	56.88
606.662	56.53
606.998	56.83
607.333	56.79
607.668	56.74
608.004	56.88
608.339	56.94
608.674	57.47
609.01	57.33
609.345	57.5
609.68	58
610.015	57.85
610.35	57.62
610.685	58.01
611.02	57.61
611.355	57.4
611.689	57.14
612.024	57.58
612.359	57.5
612.694	57.56
613.028	57.83
613.363	57.7
613.697	58.19
614.032	58.54
614.366	58.1
614.7	58.4
615.035	58.39
615.369	58.59
615.703	58.33
616.037	58.86
616.371	58.23
616.705	58.74
617.039	58.89
617.373	59.14
617.707	58.78
618.041	58.5
618.375	59.21
618.709	59.05
619.042	58.89
619.376	59.39
619.71	58.93
620.043	59.44
620.377	59.02
620.71	59.18
621.043	59.34
621.377	59.42
621.71	59.68
622.043	59.11
622.376	59.59
622.709	59.92
623.043	59.87
623.376	59.55
623.709	59.26
624.041	59.24
624.374	60.05
624.707	59.79
625.04	59.77
625.373	59.8
625.705	59.91
626.038	60.18
626.37	59.73
626.703	60.43
627.035	60.18
627.368	60.05
627.7	60.3
628.032	60.28
628.365	60.23
628.697	59.43
629.029	60.04
629.361	59.74
629.693	59.77
630.025	60.16
630.357	60.42
630.689	59.92
631.021	61.26
631.353	60.7
631.684	60.61
632.016	60.92
632.348	60.54
632.679	60.26
633.011	60.65
633.342	60.92
633.674	60.76
634.005	60.87
634.336	60.98
634.668	61.05
634.999	60.76
635.33	60.98
635.661	61.09
635.992	61.34
636.323	61.83
636.654	60.93
636.985	61.38
637.316	61.15
637.647	61.43
637.977	61.67
638.308	60.91
638.639	61.33
638.969	61.2
639.3	61.13
639.63	61.79
639.961	61.41
640.291	61.26
640.622	61.36
640.952	62.28
641.282	62.31
641.612	62.17
641.943	62.31
642.273	61.42
642.603	62.11
642.933	62.29
643.263	62.22
643.592	62.06
643.922	62.39
644.252	62.68
644.582	62.33
644.911	62.54
645.241	62.25
645.571	62.98
645.9	63.14
646.23	62.68
646.559	62.62
646.888	62.82
647.218	62.09
647.547	62.51
647.876	63
648.205	62.59
648.534	63.13
648.863	62.75
649.192	62.55
649.521	63.18
649.85	62.68
650.179	62.61
650.508	63.26
650.837	63.57
651.165	63.74
651.494	63.74
651.822	62.89
652.151	62.35
652.479	62.76
652.808	63.41
653.136	63.63
653.465	63.57
653.793	63.52
654.121	63.68
654.449	63.17
654.777	63.8
655.105	63.57
655.433	63.71
655.761	64.23
656.089	64.36
656.417	63.45
656.745	63.86
657.073	64.52
657.4	64.61
657.728	64.04
658.056	63.72
658.383	64.49
658.711	64.07
659.038	64.18
659.365	64.6
659.693	64.14
660.02	63.59
660.347	63.82
660.674	64.66
661.001	64.26
661.329	64.79
661.656	63.98
661.982	64.43
662.309	64.25
662.636	64.07
662.963	64.04
663.29	64.56
663.616	64.51
663.943	64.67
664.27	65.04
664.596	64.62
664.923	64.46
665.249	64.68
665.576	64.42
665.902	65.03
666.228	64.94
666.554	65.02
666.881	64.43
667.207	64.78
667.533	65.05
667.859	65.07
668.185	64.79
668.511	65.33
