Data from 0283_crown_Reflection__3__208.txt Node

Date: Fri Oct 20 22:24:05 CDT 2023
User: ToomeyLab
Spectrometer: FLMS14357
Trigger mode: 0
Integration Time (sec): 1.000000E-2
Scans to average: 100
Electric dark correction enabled: true
Nonlinearity correction enabled: false
Boxcar width: 0
XAxis mode: Wavelengths
Number of Pixels in Spectrum: 2048
>>>>>Begin Spectral Data<<<<<
189.047	-52.2
189.435	-52.2
189.823	-52.2
190.211	78.87
190.599	1290.38
190.987	167.39
191.375	168.37
191.763	67.06
192.151	-43.52
192.538	-84.18
192.926	10.68
193.314	206.6
193.702	59.58
194.089	3747.22
194.477	72.43
194.864	181.56
195.252	30.56
195.639	-7.74
196.027	176.22
196.414	65.02
196.801	163.32
197.189	1006137604136050
197.576	-9.1
197.963	718.33
198.351	52.3
198.738	57.87
199.125	21.57
199.512	60.1
199.899	3.54
200.286	-21.47
200.673	27.65
201.06	21.27
201.447	25.41
201.833	57.38
202.22	40.45
202.607	37.7
202.994	22.36
203.38	0.56
203.767	20.02
204.154	44.49
204.54	55.04
204.927	30.75
205.313	19.02
205.699	62.05
206.086	28.52
206.472	40.43
206.858	68.95
207.245	26.05
207.631	36.47
208.017	27.53
208.403	14.79
208.789	9.28
209.175	-11.29
209.561	38.65
209.947	-1.44
210.333	20.84
210.719	-20.9
211.105	55.85
211.491	29.82
211.876	15.97
212.262	27.09
212.648	-1.06
213.034	-2.15
213.419	7.21
213.805	-0.47
214.19	-7.16
214.576	-19.36
214.961	7.38
215.346	50.02
215.732	16.5
216.117	-2.23
216.502	-6.91
216.888	2.21
217.273	4.88
217.658	5.7
218.043	15.29
218.428	-5.83
218.813	21.43
219.198	20.1
219.583	-2.74
219.968	-26.14
220.353	23.45
220.738	3.83
221.122	11.16
221.507	15.14
221.892	9.04
222.276	7.72
222.661	31.32
223.046	18.5
223.43	-0.55
223.815	32.37
224.199	17.05
224.583	-10.21
224.968	3.96
225.352	7.58
225.736	9.58
226.121	12.03
226.505	2.65
226.889	6.3
227.273	6.74
227.657	15.29
228.041	12.41
228.425	9.65
228.809	12
229.193	8.41
229.577	10.58
229.961	9.3
230.344	7.81
230.728	7.6
231.112	7.87
231.495	7.74
231.879	8.67
232.263	7.89
232.646	7.18
233.03	6.02
233.413	8.33
233.797	7.81
234.18	9.59
234.563	10.28
234.946	9.57
235.33	9.53
235.713	7.32
236.096	7.77
236.479	8.62
236.862	7.64
237.245	7.14
237.628	7.43
238.011	8.45
238.394	6.9
238.777	10.28
239.16	7.86
239.543	9.44
239.925	10.1
240.308	8.33
240.691	7.84
241.073	10.49
241.456	8.11
241.838	8.02
242.221	8.49
242.603	8.7
242.986	7.96
243.368	7.89
243.75	7.67
244.133	7.14
244.515	7.22
244.897	7.36
245.279	7.63
245.661	7.23
246.043	7.4
246.425	6.55
246.807	6.85
247.189	7.24
247.571	6.14
247.953	6.96
248.335	7.49
248.717	6.74
249.098	6.8
249.48	6.95
249.862	7.11
250.243	6.94
250.625	7.24
251.006	7.49
251.388	6.98
251.769	6.55
252.151	6.68
252.532	8.98
252.913	6.97
253.295	6.86
253.676	7.18
254.057	7.15
254.438	6.44
254.819	6.8
255.2	7.2
255.581	6.11
255.962	7.05
256.343	6.44
256.724	6.5
257.105	6.63
257.486	6.37
257.867	7.19
258.247	6.67
258.628	7.26
259.009	6.83
259.389	5.66
259.77	6.33
260.15	6.77
260.531	6.76
260.911	7.12
261.292	6.48
261.672	6.24
262.052	6.43
262.432	6.54
262.813	6.54
263.193	6.62
263.573	6.1
263.953	6.48
264.333	6.52
264.713	6.73
265.093	6.42
265.473	7.29
265.853	6.25
266.233	6.42
266.612	6.47
266.992	6.3
267.372	5.92
267.752	5.97
268.131	6.71
268.511	6.17
268.89	6.18
269.27	5.78
269.649	5.98
270.029	6.14
270.408	6.59
270.787	6.34
271.167	5.59
271.546	6.64
271.925	6.6
272.304	6.46
272.683	6.42
273.062	6.38
273.441	5.81
273.82	5.87
274.199	6.51
274.578	6.19
274.957	6.23
275.336	6.08
275.715	6.03
276.093	6.63
276.472	6.56
276.851	6.37
277.229	5.95
277.608	5.58
277.986	5.35
278.365	6.22
278.743	6.04
279.122	6.22
279.5	6.23
279.878	5.38
280.257	5.91
280.635	6.14
281.013	6.06
281.391	6.43
281.769	6.2
282.147	5.41
282.525	5.85
282.903	5.52
283.281	6.22
283.659	5.83
284.037	5.99
284.415	5.22
284.792	5.85
285.17	5.46
285.548	5.65
285.925	5.86
286.303	5.62
286.68	5.82
287.058	5.96
287.435	5.74
287.813	5.09
288.19	5.6
288.567	5.78
288.945	5.75
289.322	5.94
289.699	4.83
290.076	6.19
290.453	5.65
290.83	5.37
291.207	5.95
291.584	5.4
291.961	5.6
292.338	5.14
292.715	5.3
293.092	5.58
293.469	5.74
293.845	5.51
294.222	5.78
294.599	5.07
294.975	5.99
295.352	5.32
295.728	5.53
296.105	5
296.481	5.6
296.858	5.54
297.234	6.17
297.61	5.21
297.986	5.28
298.363	5.46
298.739	5.33
299.115	5.24
299.491	5.24
299.867	5.48
300.243	5.26
300.619	5.33
300.995	5.55
301.371	5.12
301.746	5.64
302.122	5.78
302.498	5.07
302.874	5.33
303.249	5.82
303.625	5.22
304	5.91
304.376	4.88
304.751	4.87
305.127	5.04
305.502	5.8
305.878	5.23
306.253	5.07
306.628	5.5
307.003	5.52
307.378	4.84
307.754	5.24
308.129	6.16
308.504	5.13
308.879	5.41
309.254	5.53
309.629	4.87
310.003	4.26
310.378	5.22
310.753	5.38
311.128	5.27
311.502	5.44
311.877	5.71
312.252	4.88
312.626	5.57
313.001	5.13
313.375	5.38
313.75	5.53
314.124	4.9
314.498	5.05
314.873	5.05
315.247	5.34
315.621	5.56
315.995	5.59
316.369	4.67
316.743	5.16
317.117	5.11
317.491	4.92
317.865	5.61
318.239	5.45
318.613	5.42
318.987	4.64
319.361	4.35
319.734	5.18
320.108	4.72
320.482	5.23
320.855	5.18
321.229	5.91
321.602	5.09
321.976	5.08
322.349	6.22
322.723	5.21
323.096	5.44
323.469	5.1
323.843	5.38
324.216	5.09
324.589	5.34
324.962	5.8
325.335	5.4
325.708	5.04
326.081	5.17
326.454	5.25
326.827	5.44
327.2	5.24
327.573	5.98
327.945	5.55
328.318	5.24
328.691	5.61
329.063	5.62
329.436	5.03
329.809	5.47
330.181	5.77
330.553	5.69
330.926	5.4
331.298	4.73
331.671	4.99
332.043	4.91
332.415	4.52
332.787	5.72
333.159	4.68
333.532	5.93
333.904	5.66
334.276	5.08
334.648	5.39
335.02	5.64
335.391	5.07
335.763	5.46
336.135	5.39
336.507	5.14
336.879	5.35
337.25	5.3
337.622	5.08
337.993	5.5
338.365	4.76
338.736	5.19
339.108	5.38
339.479	5.01
339.851	5.18
340.222	4.99
340.593	4.76
340.964	4.85
341.336	5.7
341.707	5.33
342.078	4.99
342.449	5.06
342.82	5.28
343.191	5.36
343.562	5.52
343.933	5.07
344.303	5.16
344.674	5.5
345.045	5.96
345.416	5.65
345.786	5.04
346.157	5.25
346.527	5.36
346.898	5.59
347.268	5.17
347.639	5.8
348.009	5.51
348.38	5.31
348.75	5.25
349.12	5.75
349.49	5.08
349.861	6.08
350.231	5.1
350.601	5.52
350.971	5.64
351.341	5.6
351.711	6.05
352.081	5.13
352.45	5.42
352.82	5.55
353.19	5.81
353.56	5.76
353.929	5.42
354.299	5.33
354.669	5.26
355.038	5.57
355.408	6.01
355.777	5.25
356.147	5.23
356.516	5.26
356.885	5.78
357.254	5.62
357.624	5.6
357.993	4.93
358.362	5.74
358.731	4.91
359.1	4.98
359.469	5.15
359.838	5.3
360.207	5.15
360.576	5.47
360.945	5.05
361.314	5.21
361.682	5.53
362.051	5.63
362.42	5.53
362.788	5.77
363.157	5.67
363.525	5.11
363.894	5.3
364.262	5.12
364.631	5.42
364.999	5.64
365.367	5.61
365.735	5.14
366.104	5.51
366.472	5.68
366.84	5.86
367.208	5.65
367.576	5.55
367.944	5.69
368.312	5.3
368.68	5.84
369.048	6.04
369.416	5.72
369.783	5.62
370.151	5.73
370.519	5.48
370.886	5.94
371.254	5.93
371.621	5.88
371.989	5.74
372.356	5.74
372.724	5.66
373.091	5.62
373.458	5.39
373.826	5.65
374.193	5.4
374.56	5.78
374.927	5.79
375.294	5.82
375.661	6.15
376.028	5.74
376.395	6.11
376.762	5.49
377.129	5.71
377.496	5.72
377.863	6.23
378.229	5.74
378.596	6.05
378.963	5.77
379.329	5.89
379.696	5.58
380.062	5.64
380.429	5.58
380.795	5.54
381.161	5.92
381.528	6.1
381.894	5.82
382.26	5.69
382.626	6.14
382.993	5.67
383.359	5.73
383.725	5.74
384.091	5.91
384.457	5.9
384.823	5.87
385.188	6.03
385.554	5.98
385.92	5.88
386.286	6.03
386.651	5.89
387.017	5.6
387.383	5.74
387.748	5.62
388.114	5.57
388.479	5.67
388.845	5.91
389.21	5.83
389.575	5.79
389.94	5.98
390.306	5.93
390.671	5.94
391.036	5.75
391.401	6.02
391.766	5.93
392.131	5.77
392.496	6.04
392.861	5.7
393.226	5.83
393.591	5.84
393.956	5.95
394.32	6.05
394.685	5.78
395.05	6.03
395.414	6.05
395.779	5.77
396.143	5.87
396.508	5.9
396.872	6.01
397.236	6.03
397.601	5.84
397.965	5.93
398.329	5.95
398.694	6.02
399.058	5.77
399.422	6.09
399.786	5.93
400.15	5.98
400.514	5.77
400.878	6.09
401.242	6.1
401.605	6
401.969	5.85
402.333	5.99
402.697	5.98
403.06	6.1
403.424	5.99
403.787	6.01
404.151	6.02
404.514	5.92
404.878	6.14
405.241	6.17
405.604	5.95
405.968	6.1
406.331	5.92
406.694	5.87
407.057	5.92
407.42	6.24
407.783	6.06
408.146	5.87
408.509	6.15
408.872	6.21
409.235	6.01
409.598	6.11
409.961	6.02
410.323	6.12
410.686	5.78
411.049	6.06
411.411	6.08
411.774	6.01
412.136	5.84
412.499	5.81
412.861	6.01
413.223	6.02
413.586	6.07
413.948	6.24
414.31	5.95
414.672	5.88
415.035	5.86
415.397	6.14
415.759	5.96
416.121	5.99
416.483	6.42
416.845	6.06
417.206	6.19
417.568	6.16
417.93	6.12
418.292	5.85
418.653	6.23
419.015	5.9
419.377	6
419.738	6
420.1	5.78
420.461	5.97
420.822	5.99
421.184	5.91
421.545	5.93
421.906	5.92
422.267	5.9
422.629	6.04
422.99	5.73
423.351	5.92
423.712	5.8
424.073	5.95
424.434	5.9
424.795	5.86
425.155	5.92
425.516	5.89
425.877	5.97
426.238	5.94
426.598	5.79
426.959	5.87
427.32	5.93
427.68	5.83
428.041	5.97
428.401	5.99
428.761	5.96
429.122	5.95
429.482	5.94
429.842	6.05
430.202	6.04
430.563	6.18
430.923	6.29
431.283	5.97
431.643	6.24
432.003	6.24
432.363	6.06
432.722	6.1
433.082	5.93
433.442	5.91
433.802	6.17
434.161	5.86
434.521	6.1
434.881	6.13
435.24	6.11
435.6	6.02
435.959	6.14
436.319	6.07
436.678	6.04
437.037	6.06
437.396	6.22
437.756	6.01
438.115	5.96
438.474	5.99
438.833	6.2
439.192	5.98
439.551	6.07
439.91	6.16
440.269	6.19
440.628	6.11
440.987	6.04
441.345	6.03
441.704	6.13
442.063	6.06
442.421	5.9
442.78	5.94
443.138	6.02
443.497	6.1
443.855	5.93
444.214	6.09
444.572	6.06
444.93	6.27
445.288	6.19
445.647	6.34
446.005	6.03
446.363	6.06
446.721	5.97
447.079	6.1
447.437	5.97
447.795	5.92
448.153	5.87
448.51	5.95
448.868	5.92
449.226	5.94
449.584	5.97
449.941	5.88
450.299	5.96
450.656	5.95
451.014	5.93
451.371	6.02
451.729	6.02
452.086	5.86
452.443	6.15
452.801	5.95
453.158	6.13
453.515	6.12
453.872	6.1
454.229	6.2
454.586	6.11
454.943	6.11
455.3	5.85
455.657	6.24
456.014	5.93
456.371	6.08
456.727	6.23
457.084	6.2
457.441	6.14
457.797	6.09
458.154	6.03
458.51	6.13
458.867	6.16
459.223	6.12
459.58	6.02
459.936	6.2
460.292	6.09
460.648	5.88
461.005	5.91
461.361	6.04
461.717	5.89
462.073	5.95
462.429	5.87
462.785	6
463.141	6.06
463.496	6
463.852	6.12
464.208	6.22
464.564	6.15
464.919	6
465.275	6.17
465.631	6.18
465.986	6.18
466.342	6.15
466.697	5.99
467.052	5.95
467.408	6.07
467.763	6.21
468.118	6.34
468.473	6.34
468.829	6.13
469.184	5.99
469.539	6.04
469.894	6.12
470.249	5.92
470.603	6.02
470.958	6.13
471.313	6.14
471.668	6.06
472.023	6.14
472.377	6.14
472.732	6.06
473.086	6.25
473.441	6.29
473.795	6.36
474.15	6.06
474.504	6
474.859	6.15
475.213	6.23
475.567	6.11
475.921	6.13
476.275	5.99
476.63	6.3
476.984	6.14
477.338	6.1
477.692	6.09
478.045	6.05
478.399	5.99
478.753	6.11
479.107	6.04
479.461	6.09
479.814	6.09
480.168	6.09
480.521	6.05
480.875	6.04
481.228	6.12
481.582	6.17
481.935	5.96
482.289	6.08
482.642	5.99
482.995	6.03
483.348	5.97
483.701	6.02
484.055	5.95
484.408	5.95
484.761	5.81
485.114	5.8
485.466	5.74
485.819	5.62
486.172	5.51
486.525	5.61
486.878	5.67
487.23	5.73
487.583	5.79
487.936	5.82
488.288	5.85
488.641	5.89
488.993	5.76
489.345	5.73
489.698	5.7
490.05	5.65
490.402	5.7
490.754	5.71
491.107	5.81
491.459	5.83
491.811	5.93
492.163	5.93
492.515	5.99
492.866	5.83
493.218	5.85
493.57	5.71
493.922	5.63
494.274	5.72
494.625	5.78
494.977	5.79
495.328	5.89
495.68	5.98
496.031	5.93
496.383	6.03
496.734	6.01
497.086	6.06
497.437	6.09
497.788	5.83
498.139	6.04
498.49	5.92
498.842	5.94
499.193	6.02
499.544	5.96
499.894	6.01
500.245	5.84
500.596	6.01
500.947	5.9
501.298	5.98
501.648	5.9
501.999	5.96
502.35	5.98
502.7	6.14
503.051	6.07
503.401	6.06
503.752	6.07
504.102	6.09
504.452	5.92
504.803	5.98
505.153	6.04
505.503	6.02
505.853	6.02
506.203	6.04
506.553	5.92
506.903	5.92
507.253	6.06
507.603	5.95
507.953	6.08
508.303	5.85
508.652	6
509.002	6.02
509.352	6.16
509.701	5.99
510.051	5.98
510.4	6.01
510.75	6.05
511.099	5.94
511.449	5.96
511.798	6.04
512.147	5.92
512.496	5.91
512.846	5.92
513.195	6.11
513.544	5.99
513.893	5.76
514.242	5.85
514.591	6
514.939	5.86
515.288	5.86
515.637	5.87
515.986	5.95
516.334	6
516.683	5.97
517.032	5.81
517.38	5.81
517.729	5.92
518.077	5.99
518.426	5.86
518.774	5.91
519.122	5.89
519.47	6.02
519.819	5.87
520.167	5.87
520.515	5.81
520.863	5.83
521.211	5.79
521.559	5.86
521.907	5.85
522.255	5.92
522.602	5.94
522.95	5.86
523.298	5.93
523.645	5.95
523.993	5.87
524.341	5.97
524.688	5.94
525.036	6.02
525.383	5.84
525.73	6.02
526.078	6.01
526.425	5.97
526.772	6.01
527.119	5.89
527.466	5.82
527.814	5.8
528.161	5.75
528.508	5.77
528.854	5.9
529.201	5.79
529.548	5.86
529.895	5.79
530.242	5.67
530.588	5.56
530.935	5.51
531.282	5.64
531.628	5.72
531.975	5.66
532.321	5.69
532.667	5.79
533.014	5.79
533.36	5.86
533.706	5.91
534.052	5.86
534.399	5.72
534.745	5.65
535.091	5.75
535.437	5.79
535.783	5.67
536.129	5.71
536.474	5.83
536.82	5.87
537.166	5.85
537.512	5.91
537.857	5.93
538.203	5.88
538.549	5.97
538.894	5.77
539.239	5.75
539.585	5.86
539.93	5.92
540.276	5.95
540.621	6.01
540.966	5.95
541.311	5.99
541.656	5.92
542.001	6.04
542.346	5.78
542.691	5.73
543.036	5.75
543.381	5.66
543.726	5.66
544.071	5.67
544.415	5.78
544.76	5.81
545.105	5.86
545.449	5.8
545.794	5.88
546.138	5.79
546.483	5.85
546.827	5.92
547.171	6.01
547.516	5.89
547.86	5.88
548.204	5.86
548.548	5.96
548.892	5.76
549.236	5.93
549.58	5.83
549.924	5.94
550.268	5.99
550.612	5.96
550.956	6.12
551.3	5.87
551.643	6.1
551.987	6.23
552.33	5.94
552.674	6.01
553.017	5.91
553.361	5.98
553.704	6.13
554.048	6.07
554.391	5.93
554.734	5.97
555.077	6.07
555.42	6.02
555.764	5.77
556.107	5.98
556.45	6.06
556.793	5.99
557.135	5.87
557.478	5.93
557.821	6.14
558.164	6.22
558.507	6.19
558.849	6.2
559.192	6.12
559.534	6.09
559.877	5.74
560.219	6.1
560.562	6.01
560.904	5.8
561.246	6.06
561.589	6.07
561.931	6.05
562.273	6.07
562.615	6.08
562.957	6
563.299	5.91
563.641	6.06
563.983	6.03
564.325	5.91
564.667	5.94
565.008	5.98
565.35	6.07
565.692	6.03
566.033	6.09
566.375	6.05
566.716	6.01
567.058	6.08
567.399	6.24
567.741	5.92
568.082	6.11
568.423	5.95
568.764	5.82
569.105	6
569.447	5.95
569.788	5.9
570.129	5.99
570.47	6.02
570.811	6.1
571.151	5.97
571.492	6.13
571.833	6.05
572.174	6.05
572.514	6.05
572.855	5.87
573.195	5.9
573.536	5.85
573.876	6.18
574.217	5.94
574.557	5.87
574.898	5.78
575.238	5.93
575.578	6.07
575.918	5.89
576.258	6.07
576.598	6.12
576.938	5.96
577.278	5.94
577.618	5.77
577.958	6.07
578.298	5.99
578.638	5.9
578.977	5.97
579.317	5.82
579.657	5.96
579.996	6.02
580.336	6.18
580.675	6
581.014	6.07
581.354	5.99
581.693	6.21
582.032	6.03
582.372	6.19
582.711	6.14
583.05	6.37
583.389	6.16
583.728	5.89
584.067	6.09
584.406	6.05
584.745	6.03
585.083	5.88
585.422	6.14
585.761	5.74
586.1	5.79
586.438	5.78
586.777	6.06
587.115	6.11
587.454	6.08
587.792	6.23
588.13	6.04
588.469	6.08
588.807	5.76
589.145	5.86
589.483	6.04
589.821	6.01
590.159	6.1
590.497	5.84
590.835	5.99
591.173	5.97
591.511	6.04
591.849	5.86
592.187	6
592.524	5.52
592.862	5.91
593.2	6.15
593.537	5.85
593.875	5.85
594.212	6.21
594.55	6.1
594.887	5.8
595.224	5.91
595.561	5.96
595.899	6.05
596.236	6.02
596.573	6.02
596.91	6.07
597.247	5.96
597.584	5.8
597.921	6.2
598.258	6.05
598.594	6.05
598.931	5.61
599.268	5.87
599.604	5.88
599.941	5.78
600.277	5.91
600.614	5.92
600.95	6.09
601.287	5.79
601.623	5.95
601.959	5.97
602.296	6.27
602.632	5.8
602.968	5.76
603.304	6.07
603.64	5.58
603.976	5.92
604.312	6.12
604.648	5.96
604.984	6.13
605.319	6.07
605.655	5.76
605.991	5.9
606.326	5.9
606.662	5.63
606.998	5.74
607.333	5.82
607.668	5.77
608.004	5.89
608.339	5.81
608.674	5.94
609.01	5.74
609.345	5.93
609.68	6.14
610.015	5.78
610.35	5.87
610.685	6.03
611.02	5.94
611.355	5.86
611.689	5.74
612.024	5.99
612.359	5.91
612.694	5.65
613.028	6.17
613.363	5.89
613.697	5.9
614.032	6.15
614.366	6.01
614.7	5.83
615.035	5.84
615.369	6.24
615.703	5.73
616.037	6.1
616.371	5.96
616.705	6.01
617.039	5.79
617.373	6.03
617.707	6.3
618.041	5.8
618.375	5.75
618.709	5.68
619.042	6.1
619.376	6.14
619.71	6.02
620.043	6.19
620.377	5.88
620.71	6.05
621.043	6.35
621.377	5.94
621.71	5.96
622.043	5.94
622.376	6.13
622.709	6.11
623.043	6.06
623.376	5.93
623.709	5.84
624.041	6.03
624.374	6.01
624.707	5.8
625.04	6.23
625.373	6.27
625.705	5.9
626.038	5.82
626.37	5.63
626.703	5.67
627.035	5.8
627.368	5.83
627.7	5.76
628.032	5.73
628.365	6.07
628.697	5.75
629.029	6.12
629.361	5.8
629.693	5.48
630.025	5.83
630.357	5.72
630.689	5.89
631.021	6.31
631.353	6.09
631.684	5.54
632.016	6.22
632.348	5.87
632.679	5.64
633.011	5.9
633.342	5.58
633.674	5.84
634.005	6.04
634.336	6.22
634.668	5.86
634.999	5.67
635.33	5.74
635.661	5.92
635.992	6.08
636.323	5.97
636.654	5.92
636.985	5.71
637.316	5.94
637.647	5.74
637.977	5.6
638.308	5.84
638.639	5.74
638.969	6.03
639.3	5.63
639.63	5.7
639.961	5.82
640.291	5.74
640.622	5.75
640.952	5.86
641.282	5.9
641.612	5.93
641.943	6.04
642.273	5.5
642.603	6.04
642.933	5.82
643.263	6.21
643.592	5.77
643.922	5.65
644.252	5.69
644.582	5.99
644.911	5.82
645.241	6.23
645.571	6.36
645.9	5.69
646.23	5.59
646.559	5.73
646.888	6.14
647.218	5.69
647.547	5.83
647.876	5.39
648.205	5.76
648.534	6.13
648.863	5.97
649.192	5.83
649.521	5.74
649.85	5.93
650.179	5.44
650.508	5.69
650.837	5.96
651.165	6.02
651.494	5.23
651.822	5.41
652.151	6.45
652.479	5.7
652.808	5.57
653.136	5.73
653.465	6.13
653.793	6.05
654.121	6.16
654.449	5.82
654.777	5.6
655.105	5.96
655.433	6.59
655.761	6.01
656.089	5.87
656.417	5.71
656.745	5.99
657.073	5.61
657.4	6.52
657.728	6.29
658.056	5.7
658.383	6.15
658.711	5.93
659.038	6.28
659.365	6.03
659.693	5.77
660.02	5.95
660.347	5.74
660.674	5.99
661.001	5.75
661.329	6.04
661.656	5.93
661.982	5.81
662.309	5.86
662.636	5.68
662.963	5.88
663.29	5.66
663.616	5.68
663.943	5.62
664.27	6.38
664.596	5.89
664.923	5.79
665.249	5.88
665.576	5.86
665.902	5.6
666.228	5.81
666.554	6.4
666.881	5.59
667.207	6.17
667.533	6.18
667.859	6
668.185	5.98
668.511	6.42
668.837	6.23
669.162	6.42
669.488	5.99
669.814	5.6
670.139	5.85
670.465	5.2
670.791	5.81
671.116	6.23
671.442	6.02
671.767	6.06
672.092	5.92
672.418	6.27
672.743	5.84
673.068	6.56
673.393	6.24
673.718	5.46
674.043	6.22
674.368	6.18
674.693	6.44
675.018	6.58
675.343	5.83
675.667	6.91
675.992	6.15
676.317	5.87
676.641	6.04
676.966	6.48
677.29	6.38
677.615	6.05
677.939	5.61
678.264	6.09
678.588	5.67
678.912	6.44
679.236	5.76
679.56	6.04
679.885	6.19
680.209	6.15
680.532	5.86
680.856	6.07
681.18	6.24
681.504	6.3
681.828	6.32
682.152	6.29
682.475	5.71
682.799	6.06
683.122	6.1
683.446	6.11
683.769	5.95
684.093	6.14
684.416	6.1
684.739	6.13
685.062	4.82
685.386	5.48
685.709	5.44
686.032	6.35
686.355	6.59
686.678	5.81
687.001	6.44
687.324	5.87
687.646	6.18
687.969	6.74
688.292	6.42
688.614	6.03
688.937	5.79
689.26	5.98
689.582	5.89
689.904	5.36
690.227	5.92
690.549	5.62
690.871	5.91
691.194	6.04
691.516	5.48
691.838	6.92
692.16	5.75
692.482	6.28
692.804	5.75
