Data from 0283_chest_Reflection__0__200.txt Node

Date: Fri Oct 20 22:21:40 CDT 2023
User: ToomeyLab
Spectrometer: FLMS14357
Trigger mode: 0
Integration Time (sec): 1.000000E-2
Scans to average: 100
Electric dark correction enabled: true
Nonlinearity correction enabled: false
Boxcar width: 0
XAxis mode: Wavelengths
Number of Pixels in Spectrum: 2048
>>>>>Begin Spectral Data<<<<<
189.047	-63.05
189.435	-63.05
189.823	-63.05
190.211	224.18
190.599	997.6
190.987	57.68
191.375	134.63
191.763	186.08
192.151	-5.61
192.538	45.99
192.926	-3.86
193.314	26.65
193.702	9.54
194.089	4803.47
194.477	65.08
194.864	440.47
195.252	10.42
195.639	-3.61
196.027	123.54
196.414	84.8
196.801	62.81
197.189	-546165575665250
197.576	81.15
197.963	-382.08
198.351	41.31
198.738	51.17
199.125	31.68
199.512	31.86
199.899	15.11
200.286	-91.75
200.673	34
201.06	34.83
201.447	-7.85
201.833	39.76
202.22	48.43
202.607	8.65
202.994	37.07
203.38	16.23
203.767	1.41
204.154	37.51
204.54	24.41
204.927	14.3
205.313	27.43
205.699	46.44
206.086	20.36
206.472	36.99
206.858	44.34
207.245	25.28
207.631	33.05
208.017	6.99
208.403	0.77
208.789	49.07
209.175	7.27
209.561	30.23
209.947	13.15
210.333	28.57
210.719	1.08
211.105	18.63
211.491	4.28
211.876	-23.98
212.262	19.15
212.648	24.87
213.034	-8.85
213.419	-9.93
213.805	14.2
214.19	-41.91
214.576	-8.9
214.961	15.59
215.346	12.06
215.732	11.88
216.117	-22.24
216.502	16.42
216.888	-12.61
217.273	3.27
217.658	13.36
218.043	2.37
218.428	-0.33
218.813	12.42
219.198	22.75
219.583	-33.29
219.968	-3.57
220.353	16.3
220.738	21.69
221.122	-14.5
221.507	7.27
221.892	0.96
222.276	0.88
222.661	26.71
223.046	2.86
223.43	15.4
223.815	9.41
224.199	16.8
224.583	1.82
224.968	6.71
225.352	1.19
225.736	-1.21
226.121	17.25
226.505	3.18
226.889	8.14
227.273	8.82
227.657	11.79
228.041	7.76
228.425	3.72
228.809	6.89
229.193	5.91
229.577	8.15
229.961	4.46
230.344	3.43
230.728	2.26
231.112	3.48
231.495	2.49
231.879	3.14
232.263	3.6
232.646	3.46
233.03	1.99
233.413	2.01
233.797	2.99
234.18	2.54
234.563	4.03
234.946	3.02
235.33	2.59
235.713	4.43
236.096	4.73
236.479	3.83
236.862	3.53
237.245	2.74
237.628	1.1
238.011	1.94
238.394	2.01
238.777	4.81
239.16	3.42
239.543	3.52
239.925	5.81
240.308	3.43
240.691	4.21
241.073	4.26
241.456	2.48
241.838	3.67
242.221	4.33
242.603	4.5
242.986	3.31
243.368	3.78
243.75	3.11
244.133	2.93
244.515	2.94
244.897	3.22
245.279	3.22
245.661	3.04
246.043	3.13
246.425	2.7
246.807	3.81
247.189	3.46
247.571	3.08
247.953	3.36
248.335	3.49
248.717	3.06
249.098	3.27
249.48	2.89
249.862	3.35
250.243	3.58
250.625	3.83
251.006	3.32
251.388	3.38
251.769	4.11
252.151	3.04
252.532	4.19
252.913	3.62
253.295	3.34
253.676	3.47
254.057	3.16
254.438	3.38
254.819	3.27
255.2	3.52
255.581	3.3
255.962	3.5
256.343	3.39
256.724	2.62
257.105	3.25
257.486	2.53
257.867	3.44
258.247	4.04
258.628	3.65
259.009	2.75
259.389	3.5
259.77	2.63
260.15	3.83
260.531	3.09
260.911	3.49
261.292	3.25
261.672	3.16
262.052	3.15
262.432	3.17
262.813	3.11
263.193	3.04
263.573	2.52
263.953	3
264.333	3.62
264.713	3.32
265.093	3.16
265.473	3.36
265.853	2.69
266.233	3.95
266.612	3.08
266.992	2.94
267.372	3.1
267.752	2.8
268.131	3.44
268.511	3.22
268.89	3.31
269.27	3.05
269.649	2.75
270.029	3.14
270.408	3.26
270.787	3.1
271.167	2.48
271.546	3.51
271.925	3.63
272.304	3.14
272.683	3.23
273.062	3.47
273.441	3.04
273.82	3.26
274.199	3.21
274.578	2.98
274.957	3.32
275.336	3.36
275.715	3.22
276.093	3.06
276.472	3.02
276.851	3.2
277.229	2.91
277.608	2.37
277.986	2.62
278.365	3.82
278.743	3.09
279.122	3.16
279.5	2.72
279.878	2.72
280.257	3.5
280.635	3.73
281.013	3.1
281.391	3.17
281.769	2.84
282.147	2.7
282.525	3.01
282.903	2.94
283.281	3.35
283.659	3.09
284.037	2.99
284.415	2.5
284.792	2.83
285.17	3.08
285.548	2.19
285.925	2.84
286.303	2.96
286.68	2.38
287.058	3.59
287.435	2.96
287.813	2.63
288.19	2.68
288.567	3.5
288.945	3.13
289.322	3.51
289.699	2.34
290.076	3.68
290.453	3.39
290.83	2.8
291.207	3.32
291.584	2.61
291.961	3.09
292.338	2.72
292.715	2.92
293.092	3.03
293.469	3.16
293.845	2.6
294.222	3.36
294.599	2.84
294.975	3.84
295.352	3.29
295.728	3.59
296.105	2.69
296.481	3.14
296.858	3.43
297.234	3.65
297.61	2.86
297.986	2.81
298.363	3.15
298.739	3.41
299.115	2.98
299.491	3.2
299.867	3.04
300.243	3.27
300.619	3.19
300.995	2.89
301.371	3.24
301.746	3.3
302.122	3.8
302.498	3.11
302.874	3.27
303.249	3.52
303.625	3.42
304	3.59
304.376	3.02
304.751	3.07
305.127	3.04
305.502	3.64
305.878	3.58
306.253	3.23
306.628	3.47
307.003	3.62
307.378	3.69
307.754	3.31
308.129	4.26
308.504	3.61
308.879	3.4
309.254	3.29
309.629	3.39
310.003	3.14
310.378	3.65
310.753	3.71
311.128	3.7
311.502	3.52
311.877	3.51
312.252	3.28
312.626	3.83
313.001	3.39
313.375	3.72
313.75	3.62
314.124	3.09
314.498	3.48
314.873	3.43
315.247	3.62
315.621	3.21
315.995	4.21
316.369	3.25
316.743	3.7
317.117	4.03
317.491	2.96
317.865	3.42
318.239	3.57
318.613	4.09
318.987	3.09
319.361	2.54
319.734	3.89
320.108	3.25
320.482	3.97
320.855	3.94
321.229	4.41
321.602	3.49
321.976	3
322.349	4.03
322.723	3.34
323.096	3.54
323.469	3.17
323.843	3.58
324.216	3.79
324.589	3.72
324.962	3.88
325.335	3.22
325.708	3.72
326.081	3.71
326.454	3.97
326.827	3.84
327.2	3.71
327.573	3.86
327.945	3.82
328.318	3.41
328.691	4.01
329.063	4.18
329.436	3.8
329.809	4.23
330.181	4.17
330.553	4.26
330.926	3.94
331.298	3.46
331.671	3.77
332.043	3.24
332.415	3.54
332.787	4.25
333.159	3.61
333.532	4.17
333.904	3.91
334.276	3.74
334.648	3.58
335.02	3.77
335.391	3.46
335.763	4.19
336.135	3.89
336.507	4.04
336.879	4.14
337.25	4.17
337.622	4.33
337.993	4.49
338.365	4.25
338.736	4.69
339.108	4.32
339.479	3.64
339.851	3.73
340.222	3.35
340.593	2.9
340.964	3.77
341.336	4.34
341.707	4
342.078	4.35
342.449	4.03
342.82	3.45
343.191	3.99
343.562	4.2
343.933	3.71
344.303	4.29
344.674	4.15
345.045	4.19
345.416	4.35
345.786	3.84
346.157	4.06
346.527	3.8
346.898	3.81
347.268	4.1
347.639	3.94
348.009	3.63
348.38	3.84
348.75	3.82
349.12	3.59
349.49	4
349.861	4.36
350.231	3.65
350.601	3.92
350.971	4.46
351.341	4.36
351.711	4.86
352.081	4.06
352.45	3.72
352.82	3.74
353.19	4.79
353.56	3.88
353.929	3.9
354.299	3.48
354.669	3.83
355.038	4.31
355.408	4.43
355.777	3.61
356.147	4.01
356.516	3.96
356.885	3.93
357.254	4.24
357.624	3.75
357.993	3.77
358.362	4.04
358.731	3.83
359.1	3.62
359.469	3.6
359.838	3.87
360.207	4.27
360.576	3.87
360.945	3.81
361.314	3.78
361.682	3.64
362.051	3.57
362.42	3.78
362.788	4.16
363.157	3.83
363.525	3.88
363.894	3.83
364.262	3.87
364.631	3.94
364.999	3.89
365.367	3.93
365.735	3.87
366.104	3.69
366.472	3.86
366.84	4.45
367.208	3.91
367.576	3.65
367.944	4.1
368.312	3.86
368.68	3.84
369.048	3.94
369.416	4.04
369.783	4.1
370.151	4.14
370.519	3.86
370.886	3.95
371.254	4.24
371.621	4.42
371.989	4.3
372.356	3.7
372.724	4.22
373.091	4.1
373.458	4.03
373.826	3.83
374.193	3.91
374.56	4.05
374.927	3.71
375.294	4.24
375.661	4.05
376.028	3.94
376.395	4.26
376.762	3.7
377.129	4.12
377.496	4.13
377.863	4.41
378.229	4.3
378.596	4.17
378.963	4.17
379.329	4.26
379.696	4.31
380.062	4.05
380.429	4.03
380.795	4.18
381.161	4.07
381.528	4.38
381.894	4.15
382.26	3.91
382.626	4.33
382.993	4.25
383.359	4.02
383.725	4.25
384.091	4.1
384.457	4.3
384.823	4.33
385.188	4.42
385.554	4.12
385.92	4.15
386.286	4.42
386.651	4.01
387.017	4.23
387.383	4.24
387.748	3.76
388.114	4.06
388.479	4.19
388.845	4.47
389.21	3.78
389.575	3.95
389.94	4.06
390.306	4.2
390.671	4.15
391.036	4.04
391.401	4.48
391.766	4.33
392.131	4.25
392.496	4.24
392.861	4.22
393.226	4.3
393.591	4.27
393.956	4.4
394.32	4.28
394.685	4.09
395.05	4.37
395.414	4.6
395.779	4.02
396.143	4.14
396.508	4.32
396.872	4.14
397.236	4.4
397.601	4.22
397.965	4.1
398.329	4.14
398.694	4.54
399.058	3.98
399.422	4.33
399.786	4.1
400.15	4.24
400.514	4.18
400.878	4.54
401.242	4.36
401.605	4.09
401.969	4.02
402.333	4.3
402.697	4.45
403.06	4.31
403.424	4.46
403.787	4.23
404.151	4.15
404.514	4.38
404.878	4.43
405.241	4.27
405.604	4.13
405.968	4.3
406.331	4.21
406.694	4.27
407.057	4.19
407.42	4.54
407.783	4.42
408.146	4.36
408.509	4.14
408.872	4.38
409.235	4.22
409.598	4.36
409.961	4.36
410.323	4.22
410.686	4.24
411.049	4.37
411.411	4.28
411.774	4.26
412.136	4.45
412.499	4.47
412.861	4.56
413.223	4.4
413.586	4.27
413.948	4.35
414.31	4.58
414.672	4.09
415.035	4.21
415.397	4.41
415.759	4.33
416.121	4.26
416.483	4.3
416.845	4.2
417.206	4.41
417.568	4.64
417.93	4.5
418.292	4.15
418.653	4.55
419.015	4.29
419.377	4.29
419.738	4.31
420.1	4.25
420.461	4.28
420.822	4.16
421.184	4.22
421.545	4.28
421.906	4.28
422.267	4.34
422.629	4.34
422.99	4.09
423.351	4.16
423.712	4.23
424.073	4.25
424.434	4.18
424.795	4.28
425.155	4.37
425.516	4.27
425.877	4.28
426.238	4.24
426.598	4.37
426.959	4.18
427.32	4.27
427.68	4.35
428.041	4.27
428.401	4.33
428.761	4.34
429.122	4.26
429.482	4.5
429.842	4.3
430.202	4.28
430.563	4.4
430.923	4.52
431.283	4.34
431.643	4.46
432.003	4.63
432.363	4.55
432.722	4.46
433.082	4.55
433.442	4.31
433.802	4.6
434.161	4.17
434.521	4.55
434.881	4.58
435.24	4.43
435.6	4.38
435.959	4.26
436.319	4.47
436.678	4.41
437.037	4.39
437.396	4.5
437.756	4.6
438.115	4.44
438.474	4.57
438.833	4.62
439.192	4.27
439.551	4.41
439.91	4.53
440.269	4.45
440.628	4.39
440.987	4.5
441.345	4.28
441.704	4.41
442.063	4.52
442.421	4.52
442.78	4.44
443.138	4.56
443.497	4.5
443.855	4.52
444.214	4.5
444.572	4.48
444.93	4.52
445.288	4.58
445.647	4.67
446.005	4.25
446.363	4.46
446.721	4.43
447.079	4.6
447.437	4.44
447.795	4.44
448.153	4.35
448.51	4.46
448.868	4.42
449.226	4.45
449.584	4.46
449.941	4.45
450.299	4.55
450.656	4.53
451.014	4.54
451.371	4.68
451.729	4.49
452.086	4.55
452.443	4.55
452.801	4.56
453.158	4.64
453.515	4.58
453.872	4.63
454.229	4.76
454.586	4.52
454.943	4.61
455.3	4.42
455.657	4.62
456.014	4.56
456.371	4.69
456.727	4.67
457.084	4.65
457.441	4.54
457.797	4.63
458.154	4.65
458.51	4.53
458.867	4.6
459.223	4.57
459.58	4.6
459.936	4.7
460.292	4.63
460.648	4.43
461.005	4.56
461.361	4.6
461.717	4.46
462.073	4.65
462.429	4.57
462.785	4.62
463.141	4.64
463.496	4.56
463.852	4.6
464.208	4.78
464.564	4.97
464.919	4.71
465.275	4.89
465.631	4.73
465.986	4.76
466.342	4.71
466.697	4.81
467.052	4.79
467.408	4.62
467.763	4.84
468.118	4.92
468.473	4.7
468.829	4.65
469.184	4.72
469.539	4.68
469.894	4.69
470.249	4.86
470.603	4.77
470.958	4.87
471.313	4.92
471.668	4.83
472.023	4.73
472.377	4.79
472.732	4.54
473.086	4.8
473.441	4.81
473.795	5.05
474.15	4.76
474.504	4.82
474.859	4.75
475.213	4.95
475.567	4.75
475.921	4.87
476.275	4.96
476.63	5.03
476.984	4.9
477.338	4.77
477.692	4.74
478.045	4.97
478.399	4.91
478.753	4.84
479.107	4.89
479.461	4.85
479.814	5.09
480.168	5.08
480.521	4.94
480.875	5.04
481.228	4.87
481.582	5.05
481.935	4.86
482.289	5.03
482.642	4.88
482.995	4.78
483.348	4.89
483.701	4.85
484.055	4.96
484.408	4.84
484.761	4.72
485.114	4.65
485.466	4.65
485.819	4.51
486.172	4.47
486.525	4.5
486.878	4.66
487.23	4.7
487.583	4.74
487.936	4.72
488.288	4.79
488.641	4.77
488.993	4.67
489.345	4.76
489.698	4.63
490.05	4.66
490.402	4.66
490.754	4.72
491.107	4.74
491.459	4.87
491.811	4.88
492.163	4.86
492.515	4.93
492.866	4.88
493.218	4.85
493.57	4.7
493.922	4.74
494.274	4.72
494.625	4.86
494.977	4.89
495.328	4.89
495.68	5.04
496.031	4.94
496.383	5.09
496.734	5.12
497.086	5.02
497.437	5.12
497.788	5.02
498.139	5.17
498.49	5.06
498.842	5.03
499.193	5.15
499.544	5.08
499.894	5.12
500.245	5.11
500.596	5.1
500.947	5.05
501.298	5.01
501.648	5.08
501.999	5.13
502.35	5.23
502.7	5.36
503.051	5.36
503.401	5.11
503.752	5.28
504.102	5.21
504.452	5.19
504.803	5.21
505.153	5.23
505.503	5.34
505.853	5.35
506.203	5.11
506.553	5.21
506.903	5.36
507.253	5.22
507.603	5.27
507.953	5.3
508.303	5.23
508.652	5.47
509.002	5.32
509.352	5.36
509.701	5.28
510.051	5.19
510.4	5.28
510.75	5.36
511.099	5.2
511.449	5.34
511.798	5.38
512.147	5.29
512.496	5.27
512.846	5.25
513.195	5.33
513.544	5.42
513.893	5.39
514.242	5.35
514.591	5.37
514.939	5.36
515.288	5.3
515.637	5.38
515.986	5.52
516.334	5.36
516.683	5.46
517.032	5.41
517.38	5.35
517.729	5.45
518.077	5.49
518.426	5.55
518.774	5.5
519.122	5.51
519.47	5.52
519.819	5.39
520.167	5.33
520.515	5.32
520.863	5.49
521.211	5.42
521.559	5.48
521.907	5.5
522.255	5.51
522.602	5.68
522.95	5.56
523.298	5.54
523.645	5.62
523.993	5.62
524.341	5.62
524.688	5.63
525.036	5.76
525.383	5.59
525.73	5.79
526.078	5.69
526.425	5.68
526.772	5.65
527.119	5.59
527.466	5.52
527.814	5.7
528.161	5.57
528.508	5.59
528.854	5.64
529.201	5.65
529.548	5.63
529.895	5.64
530.242	5.53
530.588	5.38
530.935	5.39
531.282	5.46
531.628	5.57
531.975	5.52
532.321	5.57
532.667	5.64
533.014	5.68
533.36	5.74
533.706	5.83
534.052	5.78
534.399	5.81
534.745	5.79
535.091	5.64
535.437	5.7
535.783	5.67
536.129	5.81
536.474	5.78
536.82	5.81
537.166	5.84
537.512	6
537.857	6.03
538.203	5.91
538.549	6.03
538.894	5.91
539.239	6
539.585	6.02
539.93	5.98
540.276	6.13
540.621	6.12
540.966	6.17
541.311	6.2
541.656	6.21
542.001	6.26
542.346	6.14
542.691	6.03
543.036	6.01
543.381	5.89
543.726	5.92
544.071	5.97
544.415	6
544.76	6.09
545.105	6.14
545.449	6.18
545.794	6.2
546.138	6.28
546.483	6.23
546.827	6.3
547.171	6.5
547.516	6.32
547.86	6.48
548.204	6.28
548.548	6.42
548.892	6.37
549.236	6.4
549.58	6.35
549.924	6.37
550.268	6.43
550.612	6.52
550.956	6.69
551.3	6.58
551.643	6.56
551.987	6.86
552.33	6.67
552.674	6.64
553.017	6.64
553.361	6.86
553.704	6.81
554.048	6.73
554.391	6.71
554.734	6.71
555.077	6.65
555.42	6.78
555.764	6.65
556.107	6.95
556.45	6.82
556.793	6.8
557.135	6.76
557.478	6.93
557.821	7.09
558.164	6.98
558.507	6.99
558.849	7
559.192	6.94
559.534	7.23
559.877	6.8
560.219	7.24
560.562	7.07
560.904	6.92
561.246	7.24
561.589	6.99
561.931	7.31
562.273	7.33
562.615	7.34
562.957	7.32
563.299	7.28
563.641	7.27
563.983	7.18
564.325	7.15
564.667	7.27
565.008	7.35
565.35	7.33
565.692	7.31
566.033	7.47
566.375	7.49
566.716	7.52
567.058	7.43
567.399	7.45
567.741	7.31
568.082	7.56
568.423	7.44
568.764	7.35
569.105	7.48
569.447	7.28
569.788	7.51
570.129	7.67
570.47	7.63
570.811	7.74
571.151	7.62
571.492	7.84
571.833	7.85
572.174	7.87
572.514	7.89
572.855	7.67
573.195	7.81
573.536	7.64
573.876	7.89
574.217	7.73
574.557	7.78
574.898	7.74
575.238	7.82
575.578	7.91
575.918	7.87
576.258	7.88
576.598	8.17
576.938	7.93
577.278	7.96
577.618	7.89
577.958	8
578.298	8.09
578.638	8.11
578.977	8.11
579.317	8.17
579.657	8.1
579.996	8.3
580.336	8.45
580.675	8.35
581.014	8.11
581.354	8.46
581.693	8.52
582.032	8.44
582.372	8.49
582.711	8.56
583.05	8.75
583.389	8.74
583.728	8.7
584.067	8.61
584.406	8.51
584.745	8.55
585.083	8.52
585.422	8.38
585.761	8.69
586.1	8.73
586.438	8.62
586.777	8.92
587.115	8.8
587.454	8.91
587.792	8.84
588.13	8.91
588.469	9.04
588.807	8.55
589.145	8.94
589.483	8.7
589.821	8.75
590.159	9
590.497	9.06
590.835	9.31
591.173	9.19
591.511	9.18
591.849	8.99
592.187	9.08
592.524	8.92
592.862	9.19
593.2	9.35
593.537	9.11
593.875	9.33
594.212	9.37
594.55	9.52
594.887	9.41
595.224	9.37
595.561	9.52
595.899	9.53
596.236	9.56
596.573	9.57
596.91	9.54
597.247	9.41
597.584	9.46
597.921	9.58
598.258	9.56
598.594	9.76
598.931	9.54
599.268	9.47
599.604	9.64
599.941	9.63
600.277	9.5
600.614	9.84
600.95	9.93
601.287	10.03
601.623	10.04
601.959	10.11
602.296	10.08
602.632	10.14
602.968	9.77
603.304	10.23
603.64	10.05
603.976	10.28
604.312	10.23
604.648	10.14
604.984	10.2
605.319	10.23
605.655	10.06
605.991	10.17
606.326	10.05
606.662	9.93
606.998	9.91
607.333	10.21
607.668	10.27
608.004	10.5
608.339	10.33
608.674	10.69
609.01	10.56
609.345	10.8
609.68	10.91
610.015	10.38
610.35	10.74
610.685	10.94
611.02	10.53
611.355	10.5
611.689	10.42
612.024	10.87
612.359	10.51
612.694	10.6
613.028	10.82
613.363	10.92
613.697	10.76
614.032	10.91
614.366	11
614.7	11.07
615.035	10.97
615.369	10.91
615.703	10.74
616.037	11.04
616.371	11.04
616.705	10.99
617.039	11.16
617.373	11.2
617.707	11.27
618.041	11.32
618.375	11.05
618.709	11.31
619.042	11.47
619.376	11.78
619.71	11.58
620.043	11.75
620.377	11.06
620.71	11.65
621.043	11.79
621.377	11.62
621.71	11.77
622.043	11.5
622.376	11.69
622.709	11.92
623.043	11.84
623.376	11.66
623.709	11.63
624.041	12.1
624.374	12.13
624.707	11.52
625.04	12.11
625.373	12.36
625.705	12.02
626.038	12.18
626.37	11.76
626.703	12
627.035	12.09
627.368	12.18
627.7	12.46
628.032	12.05
628.365	12.07
628.697	11.95
629.029	12.32
629.361	12.2
629.693	12.16
630.025	12.49
630.357	12.28
630.689	12.37
631.021	12.83
631.353	12.56
631.684	12.58
632.016	12.91
632.348	12.58
632.679	12.32
633.011	12.42
633.342	12.33
633.674	12.92
634.005	12.4
634.336	12.77
634.668	12.93
634.999	12.43
635.33	12.62
635.661	13.44
635.992	12.98
636.323	13.2
636.654	12.94
636.985	12.95
637.316	13.03
637.647	13.12
637.977	13.24
638.308	13.22
638.639	13.4
638.969	13.11
639.3	12.81
639.63	13.37
639.961	13.08
640.291	13.33
640.622	13.44
640.952	13.56
641.282	13.44
641.612	13.69
641.943	13.75
642.273	13.15
642.603	13.93
642.933	13.95
643.263	14.04
643.592	13.81
643.922	14.34
644.252	13.33
644.582	13.6
644.911	14.09
645.241	14.27
645.571	14.36
645.9	13.97
646.23	13.61
646.559	13.88
646.888	14.18
647.218	14.07
647.547	13.62
647.876	14.22
648.205	14.05
648.534	14.29
648.863	14.59
649.192	14.14
649.521	14.54
649.85	14.53
650.179	14.15
650.508	14.13
650.837	14.1
651.165	14.4
651.494	14.37
651.822	14.61
652.151	14.52
652.479	14.61
652.808	14.28
653.136	14.76
653.465	14.78
653.793	14.64
654.121	15.04
654.449	15.27
654.777	14.75
655.105	15.12
655.433	15.44
655.761	14.9
656.089	15.22
656.417	15.13
656.745	14.94
657.073	15.47
657.4	16.09
657.728	15.64
658.056	15.49
658.383	15.42
658.711	14.67
659.038	15.4
659.365	15.63
659.693	15.56
660.02	15.44
660.347	15.59
660.674	15.68
661.001	15.4
661.329	15.23
661.656	15.44
661.982	15.6
662.309	15.58
662.636	15.7
662.963	15.77
663.29	15.78
663.616	16
663.943	15.56
664.27	15.89
664.596	15.8
664.923	15.59
665.249	15.81
665.576	15.8
665.902	16.01
666.228	16.56
666.554	15.96
666.881	15.93
667.207	16.57
667.533	16.24
667.859	16.03
668.185	16.7
668.511	16.54
668.837	16.55
669.162	16.79
669.488	16.71
669.814	15.58
670.139	16.02
670.465	16.57
670.791	16.86
671.116	16.44
671.442	16.43
671.767	16.59
672.092	16.47
672.418	17.06
672.743	16.47
673.068	16.93
673.393	17.1
673.718	17.58
674.043	16.95
674.368	17.03
674.693	17.17
675.018	17.13
675.343	17.56
675.667	16.56
675.992	17.67
676.317	17.36
676.641	17.71
676.966	17.5
677.29	17.53
677.615	17.5
677.939	17.08
678.264	17.85
678.588	17.06
678.912	18.26
679.236	17.66
679.56	17.76
679.885	17.49
680.209	17.93
680.532	16.85
680.856	17.42
681.18	17.24
681.504	18.24
681.828	17.62
682.152	18
682.475	17.49
682.799	17.78
683.122	17.6
683.446	17.89
683.769	18.18
684.093	17.78
684.416	18.35
684.739	17.41
685.062	18.07
685.386	17.51
685.709	18.29
686.032	17.85
686.355	18.9
686.678	18.47
687.001	18.32
