Data from 0283_chest_Reflection__2__202.txt Node

Date: Fri Oct 20 22:22:03 CDT 2023
User: ToomeyLab
Spectrometer: FLMS14357
Trigger mode: 0
Integration Time (sec): 1.000000E-2
Scans to average: 100
Electric dark correction enabled: true
Nonlinearity correction enabled: false
Boxcar width: 0
XAxis mode: Wavelengths
Number of Pixels in Spectrum: 2048
>>>>>Begin Spectral Data<<<<<
189.047	-92.91
189.435	-92.91
189.823	-92.91
190.211	-233.93
190.599	742.31
190.987	215.4
191.375	-102.49
191.763	94.97
192.151	-43.67
192.538	25.51
192.926	-71.61
193.314	112.15
193.702	222.4
194.089	1283.33
194.477	-36.97
194.864	131.97
195.252	358.08
195.639	112.13
196.027	21.47
196.414	219.56
196.801	151.92
197.189	759027586703300
197.576	63.86
197.963	-1956.67
198.351	57.37
198.738	8.89
199.125	32.66
199.512	35.7
199.899	3.26
200.286	36.9
200.673	12.64
201.06	45.68
201.447	-0.76
201.833	65.84
202.22	37.04
202.607	24.28
202.994	40.88
203.38	-2.79
203.767	2.82
204.154	60.59
204.54	20.55
204.927	44.92
205.313	10.32
205.699	37.6
206.086	41.54
206.472	44.01
206.858	72.29
207.245	34.85
207.631	23.27
208.017	9.56
208.403	20.82
208.789	47.16
209.175	6.05
209.561	11.04
209.947	-14.79
210.333	-7.57
210.719	-1.89
211.105	6.51
211.491	32.22
211.876	-6.89
212.262	9.81
212.648	24.59
213.034	-2.07
213.419	38.46
213.805	21.97
214.19	2.25
214.576	-13.64
214.961	28.75
215.346	36.52
215.732	49.09
216.117	28.09
216.502	13.51
216.888	25.4
217.273	-1.05
217.658	2.75
218.043	22
218.428	11.06
218.813	-0.12
219.198	9.24
219.583	-49.24
219.968	-14.23
220.353	28.17
220.738	20.08
221.122	-3.71
221.507	3.58
221.892	18.29
222.276	3.13
222.661	11.74
223.046	7.47
223.43	18.04
223.815	14.97
224.199	22.23
224.583	-0.32
224.968	3.12
225.352	8.88
225.736	-2
226.121	7.56
226.505	-1.78
226.889	4.98
227.273	2.63
227.657	10.17
228.041	9.57
228.425	7.81
228.809	5.07
229.193	8.93
229.577	11.07
229.961	3.19
230.344	5.82
230.728	5.07
231.112	5.95
231.495	5.14
231.879	6.05
232.263	7.79
232.646	5.01
233.03	4.95
233.413	4.64
233.797	5.93
234.18	6.01
234.563	5.79
234.946	9.16
235.33	7.09
235.713	6.14
236.096	7.12
236.479	5.81
236.862	6.39
237.245	5.06
237.628	4.98
238.011	6.34
238.394	5.89
238.777	7.17
239.16	5.69
239.543	6.66
239.925	8.32
240.308	5.08
240.691	6.47
241.073	8.03
241.456	6.31
241.838	6.3
242.221	6.41
242.603	5.81
242.986	5.05
243.368	6.27
243.75	4.98
244.133	5.26
244.515	5.19
244.897	4.95
245.279	5.31
245.661	5.18
246.043	4.71
246.425	4.81
246.807	4.76
247.189	4.03
247.571	4.9
247.953	5.22
248.335	5.31
248.717	4.73
249.098	4.91
249.48	4.89
249.862	5.14
250.243	5.04
250.625	5.22
251.006	5.41
251.388	5.31
251.769	5.76
252.151	5.08
252.532	6.94
252.913	5.79
253.295	4.48
253.676	5.56
254.057	4.63
254.438	5.14
254.819	5.14
255.2	4.91
255.581	5.57
255.962	4.57
256.343	6.56
256.724	3.87
257.105	5.24
257.486	4.9
257.867	3.82
258.247	5.4
258.628	4.22
259.009	4.34
259.389	5.08
259.77	4.21
260.15	4.84
260.531	4.83
260.911	4.74
261.292	4.49
261.672	4.67
262.052	4.66
262.432	4.53
262.813	4.67
263.193	4.67
263.573	4.46
263.953	5.13
264.333	4.86
264.713	5.53
265.093	5.4
265.473	5.69
265.853	4.75
266.233	4.57
266.612	4.86
266.992	5.21
267.372	4.53
267.752	4.57
268.131	4.84
268.511	4.25
268.89	4.5
269.27	4.72
269.649	3.81
270.029	4.52
270.408	4.71
270.787	4.7
271.167	4.5
271.546	5.23
271.925	5.11
272.304	5.11
272.683	5.11
273.062	4.79
273.441	4.87
273.82	4.56
274.199	4.78
274.578	4.37
274.957	4.92
275.336	4.65
275.715	5.3
276.093	4.96
276.472	4.72
276.851	4.78
277.229	4.8
277.608	4.06
277.986	4.33
278.365	4.79
278.743	3.89
279.122	4.29
279.5	4.35
279.878	3.99
280.257	4.25
280.635	5.17
281.013	5.06
281.391	4.91
281.769	4.74
282.147	4.41
282.525	4.6
282.903	4.56
283.281	4.45
283.659	4.51
284.037	4.36
284.415	3.67
284.792	4.45
285.17	4.36
285.548	4.38
285.925	4.06
286.303	4.15
286.68	4.4
287.058	5.05
287.435	4.79
287.813	4.08
288.19	4.39
288.567	4.23
288.945	4.69
289.322	4.8
289.699	4.12
290.076	5.09
290.453	4.7
290.83	4.32
291.207	4.83
291.584	4.44
291.961	4.2
292.338	3.97
292.715	4.41
293.092	4.33
293.469	4.96
293.845	4.26
294.222	4.21
294.599	4.01
294.975	4.93
295.352	4.96
295.728	3.97
296.105	4.34
296.481	4.17
296.858	4.15
297.234	4.65
297.61	3.82
297.986	4.41
298.363	4.48
298.739	4.21
299.115	4.33
299.491	4.42
299.867	4.45
300.243	4.51
300.619	4.36
300.995	4.08
301.371	4.08
301.746	4.42
302.122	4.83
302.498	4.59
302.874	4.49
303.249	4.31
303.625	4.56
304	4.64
304.376	4.29
304.751	4.24
305.127	4.18
305.502	4.44
305.878	4.56
306.253	4.63
306.628	4.69
307.003	4.7
307.378	4.02
307.754	4.8
308.129	5.06
308.504	4.79
308.879	4.62
309.254	4.72
309.629	3.74
310.003	4.34
310.378	4.88
310.753	4.65
311.128	4.72
311.502	4.03
311.877	4.46
312.252	4.05
312.626	4.63
313.001	4.34
313.375	4.41
313.75	4.51
314.124	4.31
314.498	4.36
314.873	4.43
315.247	4.98
315.621	4.69
315.995	4.92
316.369	4.16
316.743	4.59
317.117	5.16
317.491	3.77
317.865	4.36
318.239	5.31
318.613	4.82
318.987	3.93
319.361	3.95
319.734	3.75
320.108	3.75
320.482	4.24
320.855	4.9
321.229	5.44
321.602	4.54
321.976	4.46
322.349	5.24
322.723	4.01
323.096	4.17
323.469	4.9
323.843	5.07
324.216	4.26
324.589	3.83
324.962	4.97
325.335	4.47
325.708	4.34
326.081	4.35
326.454	4.5
326.827	5.02
327.2	4.62
327.573	5.26
327.945	4.42
328.318	4.04
328.691	4.56
329.063	4.72
329.436	4.41
329.809	4.4
330.181	5.15
330.553	4.39
330.926	4.82
331.298	4.46
331.671	4.16
332.043	4.53
332.415	4.51
332.787	4.94
333.159	3.89
333.532	4.51
333.904	4.89
334.276	4.47
334.648	4.33
335.02	5.29
335.391	4.49
335.763	4.75
336.135	4.28
336.507	4.52
336.879	4.25
337.25	4.18
337.622	5
337.993	5.03
338.365	4.86
338.736	4.91
339.108	4.82
339.479	4.22
339.851	4.95
340.222	4.24
340.593	3.89
340.964	4.26
341.336	4.86
341.707	4.31
342.078	4.56
342.449	3.97
342.82	3.94
343.191	4.72
343.562	4.4
343.933	4.66
344.303	4.51
344.674	4.95
345.045	4.67
345.416	4.85
345.786	4.79
346.157	4.23
346.527	4.13
346.898	4.61
347.268	4.73
347.639	4.65
348.009	4.46
348.38	4.84
348.75	4.62
349.12	4.59
349.49	4.02
349.861	4.67
350.231	4.5
350.601	4.73
350.971	4.92
351.341	5
351.711	5.27
352.081	4.52
352.45	4.77
352.82	4.89
353.19	5.11
353.56	4.71
353.929	4.64
354.299	4.81
354.669	4.76
355.038	4.69
355.408	4.81
355.777	4.72
356.147	4.74
356.516	4.55
356.885	4.83
357.254	4.49
357.624	4.71
357.993	4.24
358.362	4.38
358.731	4.26
359.1	4.05
359.469	4.48
359.838	4.69
360.207	4.59
360.576	4.57
360.945	4.38
361.314	4.8
361.682	4.46
362.051	4.17
362.42	4.29
362.788	4.73
363.157	4.88
363.525	4.37
363.894	4.59
364.262	4.55
364.631	4.58
364.999	4.66
365.367	4.61
365.735	4.59
366.104	4.62
366.472	4.5
366.84	4.92
367.208	4.61
367.576	4.11
367.944	4.86
368.312	4.68
368.68	5.03
369.048	4.6
369.416	4.58
369.783	4.94
370.151	4.93
370.519	4.59
370.886	4.84
371.254	5.31
371.621	4.98
371.989	4.33
372.356	4.58
372.724	4.93
373.091	4.5
373.458	4.6
373.826	4.95
374.193	4.53
374.56	4.63
374.927	4.54
375.294	4.8
375.661	4.73
376.028	5.07
376.395	4.88
376.762	4.58
377.129	4.62
377.496	4.7
377.863	4.91
378.229	4.83
378.596	5.04
378.963	4.78
379.329	4.81
379.696	4.78
380.062	4.72
380.429	4.66
380.795	4.35
381.161	4.71
381.528	4.88
381.894	4.75
382.26	4.6
382.626	4.99
382.993	5
383.359	4.41
383.725	4.82
384.091	4.64
384.457	4.77
384.823	4.7
385.188	5.24
385.554	4.71
385.92	4.87
386.286	5
386.651	4.39
387.017	4.71
387.383	4.83
387.748	4.54
388.114	4.55
388.479	4.52
388.845	4.84
389.21	4.63
389.575	4.39
389.94	4.52
390.306	4.64
390.671	4.63
391.036	4.7
391.401	4.7
391.766	4.83
392.131	4.87
392.496	4.9
392.861	4.75
393.226	4.66
393.591	4.42
393.956	4.76
394.32	4.8
394.685	4.58
395.05	4.89
395.414	4.97
395.779	4.48
396.143	4.65
396.508	4.53
396.872	4.75
397.236	4.4
397.601	4.45
397.965	4.45
398.329	4.54
398.694	4.84
399.058	4.46
399.422	4.85
399.786	4.64
400.15	4.6
400.514	4.85
400.878	4.88
401.242	4.99
401.605	4.88
401.969	4.69
402.333	4.86
402.697	4.7
403.06	4.75
403.424	4.76
403.787	4.9
404.151	4.83
404.514	5.04
404.878	4.84
405.241	4.84
405.604	4.45
405.968	4.84
406.331	4.66
406.694	4.75
407.057	4.69
407.42	4.95
407.783	4.86
408.146	4.71
408.509	4.51
408.872	5.09
409.235	4.71
409.598	4.75
409.961	4.79
410.323	4.97
410.686	4.75
411.049	4.84
411.411	4.79
411.774	4.95
412.136	4.87
412.499	4.73
412.861	4.85
413.223	4.96
413.586	4.67
413.948	5
414.31	4.96
414.672	4.5
415.035	4.78
415.397	5.06
415.759	4.87
416.121	4.69
416.483	4.87
416.845	4.57
417.206	4.98
417.568	4.88
417.93	4.71
418.292	4.74
418.653	4.92
419.015	4.8
419.377	4.7
419.738	4.65
420.1	4.56
420.461	4.81
420.822	4.77
421.184	4.76
421.545	4.77
421.906	4.8
422.267	4.69
422.629	4.72
422.99	4.58
423.351	4.56
423.712	4.7
424.073	4.67
424.434	4.63
424.795	4.69
425.155	4.74
425.516	4.55
425.877	4.62
426.238	4.63
426.598	4.74
426.959	4.59
427.32	4.74
427.68	4.86
428.041	4.71
428.401	4.77
428.761	4.83
429.122	4.81
429.482	4.77
429.842	4.81
430.202	4.81
430.563	4.87
430.923	4.86
431.283	4.72
431.643	4.94
432.003	5.1
432.363	4.8
432.722	5.02
433.082	4.76
433.442	4.74
433.802	4.95
434.161	4.64
434.521	4.85
434.881	4.83
435.24	4.8
435.6	4.55
435.959	4.8
436.319	4.71
436.678	4.86
437.037	4.78
437.396	4.86
437.756	4.92
438.115	4.73
438.474	4.87
438.833	4.79
439.192	4.58
439.551	4.72
439.91	4.8
440.269	4.91
440.628	4.8
440.987	4.81
441.345	4.59
441.704	4.8
442.063	4.75
442.421	4.76
442.78	4.68
443.138	4.81
443.497	4.79
443.855	4.79
444.214	4.7
444.572	4.77
444.93	4.9
445.288	4.9
445.647	5.06
446.005	4.71
446.363	4.82
446.721	4.81
447.079	4.84
447.437	4.81
447.795	4.67
448.153	4.68
448.51	4.7
448.868	4.7
449.226	4.7
449.584	4.82
449.941	4.72
450.299	4.93
450.656	4.79
451.014	4.83
451.371	4.82
451.729	4.73
452.086	4.81
452.443	4.97
452.801	4.88
453.158	4.83
453.515	4.82
453.872	4.81
454.229	5.09
454.586	4.9
454.943	4.87
455.3	4.75
455.657	4.98
456.014	4.8
456.371	4.89
456.727	4.86
457.084	4.92
457.441	4.79
457.797	4.9
458.154	4.79
458.51	4.93
458.867	4.91
459.223	4.77
459.58	4.72
459.936	4.84
460.292	4.8
460.648	4.66
461.005	4.75
461.361	4.85
461.717	4.69
462.073	4.79
462.429	4.83
462.785	4.76
463.141	4.87
463.496	4.89
463.852	4.9
464.208	4.97
464.564	4.97
464.919	4.91
465.275	5.14
465.631	4.99
465.986	4.94
466.342	5.01
466.697	5.11
467.052	4.95
467.408	4.91
467.763	4.95
468.118	5.03
468.473	5.04
468.829	4.99
469.184	4.94
469.539	5.04
469.894	4.81
470.249	4.9
470.603	5.01
470.958	4.95
471.313	4.86
471.668	4.98
472.023	4.91
472.377	4.97
472.732	4.8
473.086	4.91
473.441	4.97
473.795	5.22
474.15	5
474.504	4.86
474.859	4.95
475.213	4.9
475.567	4.92
475.921	4.9
476.275	4.87
476.63	5.27
476.984	5.1
477.338	5.06
477.692	4.99
478.045	4.93
478.399	4.95
478.753	5.12
479.107	4.96
479.461	5.01
479.814	5.09
480.168	5.07
480.521	4.97
480.875	5.05
481.228	4.99
481.582	5.05
481.935	5.08
482.289	4.99
482.642	4.96
482.995	5
483.348	4.99
483.701	4.97
484.055	4.88
484.408	4.77
484.761	4.81
485.114	4.68
485.466	4.67
485.819	4.66
486.172	4.59
486.525	4.6
486.878	4.66
487.23	4.72
487.583	4.76
487.936	4.79
488.288	4.86
488.641	4.87
488.993	4.78
489.345	4.73
489.698	4.75
490.05	4.69
490.402	4.72
490.754	4.74
491.107	4.79
491.459	4.86
491.811	4.86
492.163	4.92
492.515	4.91
492.866	4.95
493.218	4.78
493.57	4.8
493.922	4.81
494.274	4.73
494.625	4.79
494.977	4.88
495.328	4.88
495.68	4.94
496.031	4.88
496.383	4.98
496.734	4.96
497.086	4.93
497.437	5.04
497.788	4.97
498.139	5.14
498.49	5.01
498.842	4.93
499.193	4.96
499.544	5.05
499.894	5.08
500.245	4.99
500.596	4.97
500.947	5.01
501.298	4.99
501.648	5
501.999	5.04
502.35	5.03
502.7	5.16
503.051	4.96
503.401	4.98
503.752	5.07
504.102	5.15
504.452	5.05
504.803	5.06
505.153	5.07
505.503	5.01
505.853	5.05
506.203	5.03
506.553	5.08
506.903	5.1
507.253	5.13
507.603	4.88
507.953	5.14
508.303	5.1
508.652	5.2
509.002	5.18
509.352	5.19
509.701	5.16
510.051	5.04
510.4	5.13
510.75	4.98
511.099	5.13
511.449	5.07
511.798	5.14
512.147	5.12
512.496	5.08
512.846	5.11
513.195	5.1
513.544	5.12
513.893	5.09
514.242	5.01
514.591	5.15
514.939	5.13
515.288	5.07
515.637	5.09
515.986	5.16
516.334	5.02
516.683	5.2
517.032	5.1
517.38	5.11
517.729	5.31
518.077	5.16
518.426	5.16
518.774	5.14
519.122	5.11
519.47	5.1
519.819	5.21
520.167	5.15
520.515	5.13
520.863	5.2
521.211	5.04
521.559	5.13
521.907	5.18
522.255	5.14
522.602	5.29
522.95	5.08
523.298	5.21
523.645	5.27
523.993	5.14
524.341	5.3
524.688	5.26
525.036	5.34
525.383	5.24
525.73	5.32
526.078	5.24
526.425	5.25
526.772	5.19
527.119	5.29
527.466	5.22
527.814	5.23
528.161	5.13
528.508	5.17
528.854	5.21
529.201	5.2
529.548	5.24
529.895	5.18
530.242	5.11
530.588	5.02
530.935	4.96
531.282	5.06
531.628	5.08
531.975	5.07
532.321	5.15
532.667	5.15
533.014	5.27
533.36	5.21
533.706	5.36
534.052	5.23
534.399	5.27
534.745	5.23
535.091	5.18
535.437	5.28
535.783	5.19
536.129	5.27
536.474	5.31
536.82	5.35
537.166	5.31
537.512	5.46
537.857	5.52
538.203	5.4
538.549	5.52
538.894	5.31
539.239	5.28
539.585	5.43
539.93	5.45
540.276	5.52
540.621	5.45
540.966	5.43
541.311	5.55
541.656	5.58
542.001	5.52
542.346	5.41
542.691	5.39
543.036	5.43
543.381	5.36
543.726	5.26
544.071	5.32
544.415	5.37
544.76	5.34
545.105	5.42
545.449	5.47
545.794	5.51
546.138	5.49
546.483	5.52
546.827	5.48
547.171	5.64
547.516	5.55
547.86	5.71
548.204	5.57
548.548	5.56
548.892	5.55
549.236	5.63
549.58	5.59
549.924	5.62
550.268	5.53
550.612	5.72
550.956	5.99
551.3	5.63
551.643	5.77
551.987	5.86
552.33	5.76
552.674	5.7
553.017	5.79
553.361	5.89
553.704	5.97
554.048	5.83
554.391	5.82
554.734	5.88
555.077	5.84
555.42	5.79
555.764	5.78
556.107	5.97
556.45	5.8
556.793	5.82
557.135	5.83
557.478	5.88
557.821	5.96
558.164	6.15
558.507	6.18
558.849	6.09
559.192	6.01
559.534	6.06
559.877	5.96
560.219	6.09
560.562	6.08
560.904	5.89
561.246	6.21
561.589	6.03
561.931	6.07
562.273	6.28
562.615	6.19
562.957	6.24
563.299	6.21
563.641	6.3
563.983	6.16
564.325	6.04
564.667	6.38
565.008	6.17
565.35	6.17
565.692	6.07
566.033	6.15
566.375	6.34
566.716	6.34
567.058	6.16
567.399	6.41
567.741	6.2
568.082	6.36
568.423	6.26
568.764	6.17
569.105	6.47
569.447	6.31
569.788	6.25
570.129	6.35
570.47	6.34
570.811	6.41
571.151	6.46
571.492	6.45
571.833	6.49
572.174	6.44
572.514	6.47
572.855	6.4
573.195	6.62
573.536	6.31
573.876	6.5
574.217	6.54
574.557	6.39
574.898	6.33
575.238	6.39
575.578	6.47
575.918	6.46
576.258	6.67
576.598	6.55
576.938	6.62
577.278	6.46
577.618	6.44
577.958	6.49
578.298	6.38
578.638	6.63
578.977	6.72
579.317	6.73
579.657	6.74
579.996	7.03
580.336	6.87
580.675	6.68
581.014	6.84
581.354	6.85
581.693	6.86
582.032	7.02
582.372	6.83
582.711	6.82
583.05	7.07
583.389	6.95
583.728	7.15
584.067	6.94
584.406	7.05
584.745	7.11
585.083	7
585.422	7.17
585.761	7
586.1	7.26
586.438	6.85
586.777	7.25
587.115	7.11
587.454	7.05
587.792	7.19
588.13	7.19
588.469	7.39
588.807	7.01
589.145	7.25
589.483	6.94
589.821	6.89
590.159	7.16
590.497	7.26
590.835	7.27
591.173	7.27
591.511	7.5
591.849	7.01
592.187	7.33
592.524	7.02
592.862	7.22
593.2	7.32
593.537	7.21
593.875	7.34
594.212	7.36
594.55	7.55
594.887	7.55
595.224	7.5
595.561	7.54
595.899	7.47
596.236	7.74
596.573	7.58
596.91	7.64
597.247	7.53
597.584	7.46
597.921	7.79
598.258	7.53
598.594	7.85
598.931	7.41
599.268	7.33
599.604	7.58
599.941	7.58
600.277	7.57
600.614	7.72
600.95	7.79
601.287	7.45
601.623	7.87
601.959	7.97
602.296	7.91
602.632	8.04
602.968	7.64
603.304	8.11
603.64	7.73
603.976	7.97
604.312	8.18
604.648	8.11
604.984	8.27
605.319	8.03
605.655	7.71
605.991	8.13
606.326	7.96
606.662	7.79
606.998	7.72
607.333	7.92
607.668	7.96
608.004	8.1
608.339	8.05
608.674	8.23
609.01	8.2
609.345	8.29
609.68	8.49
610.015	8.35
610.35	8.47
610.685	8.44
611.02	8.36
611.355	8.16
611.689	8
612.024	8.35
612.359	8.29
612.694	8.3
613.028	8.49
613.363	8.2
613.697	8.49
614.032	8.78
614.366	8.37
614.7	8.78
615.035	8.87
615.369	8.71
615.703	8.41
616.037	8.64
616.371	8.78
616.705	8.79
617.039	8.68
617.373	9
617.707	8.91
618.041	8.57
618.375	8.35
618.709	8.55
619.042	9.03
619.376	9.11
619.71	8.95
620.043	9.1
620.377	8.7
620.71	8.77
621.043	9.14
621.377	8.54
621.71	8.87
622.043	8.87
622.376	9.38
622.709	9.24
623.043	8.85
623.376	8.84
623.709	8.67
624.041	9.26
624.374	9.2
624.707	8.81
625.04	9.18
625.373	9.61
625.705	9.26
626.038	9.24
626.37	8.88
626.703	9.21
627.035	8.94
627.368	8.97
627.7	9.59
628.032	9.11
628.365	9.6
628.697	9.31
629.029	9.46
629.361	9.14
629.693	9.15
630.025	9.69
630.357	9.4
630.689	9.27
631.021	9.73
631.353	9.45
631.684	9.22
632.016	9.64
632.348	9.47
632.679	9.3
633.011	9.66
633.342	9.45
633.674	9.6
634.005	9.99
634.336	10.24
634.668	9.64
634.999	9.48
635.33	9.77
635.661	10.4
635.992	10.04
636.323	9.89
636.654	10.1
636.985	10.09
637.316	9.85
637.647	9.74
637.977	9.6
638.308	9.65
638.639	9.98
638.969	10.1
639.3	9.99
639.63	9.98
639.961	9.75
640.291	10.08
640.622	9.93
640.952	10.04
641.282	9.86
641.612	9.86
641.943	9.88
642.273	10.07
642.603	10.52
642.933	10.2
643.263	10.76
643.592	10.11
643.922	11.21
644.252	10.34
644.582	10.67
644.911	10.57
645.241	10.72
645.571	10.71
645.9	10.51
646.23	10.48
646.559	10.35
646.888	10.91
647.218	10.61
647.547	10.81
647.876	10.61
648.205	10.73
648.534	10.38
648.863	10.38
649.192	10.57
649.521	10.89
649.85	10.65
650.179	10.79
650.508	10.59
650.837	11.09
651.165	11.01
651.494	11.03
651.822	11.1
652.151	11.49
652.479	10.78
652.808	11.2
653.136	10.88
653.465	11.19
653.793	11.18
654.121	11.48
654.449	11.07
654.777	10.82
655.105	11.16
655.433	11.53
655.761	11.48
656.089	11.27
656.417	11.13
656.745	11.37
657.073	11.58
657.4	12.15
657.728	11.32
658.056	11.42
658.383	11.35
658.711	11.53
659.038	11.98
659.365	11.5
659.693	11.4
660.02	11.77
660.347	11.77
660.674	11.36
661.001	11.27
661.329	11.86
661.656	11.45
661.982	11.61
662.309	11.79
662.636	11.24
662.963	11.7
663.29	11.66
663.616	11.94
663.943	11.62
664.27	12.04
664.596	11.28
664.923	11.59
665.249	11.53
665.576	11.83
665.902	11.69
666.228	12.24
666.554	12.2
666.881	11.44
667.207	12.37
667.533	11.93
667.859	12.5
668.185	12.43
668.511	12.39
668.837	12.41
669.162	12.35
669.488	12.6
669.814	12.04
670.139	12.22
670.465	12.36
670.791	12.39
671.116	12.12
671.442	12.29
671.767	12.54
672.092	12.57
672.418	12.44
672.743	12.45
673.068	13.2
673.393	12.47
673.718	12.51
674.043	12.73
674.368	12.06
674.693	12.67
675.018	12.6
675.343	12.68
675.667	12.52
675.992	12.25
676.317	13.01
676.641	12.6
676.966	12.76
677.29	12.86
677.615	12.66
677.939	12.45
678.264	12.96
678.588	11.78
678.912	13.18
679.236	13.12
679.56	13.58
679.885	13.43
680.209	13.03
680.532	12.63
680.856	12.67
681.18	12.93
681.504	13.42
681.828	13.15
682.152	13.06
682.475	12.5
682.799	13.19
683.122	13.04
683.446	13.18
683.769	13.31
684.093	13.43
684.416	13.24
684.739	13.28
685.062	12.57
685.386	13.37
685.709	13.33
686.032	13.57
686.355	13.68
686.678	13.43
687.001	13.72
687.324	13.53
687.646	13.24
687.969	14.6
688.292	14.21
688.614	13.66
688.937	13.84
689.26	13.01
