Data from 0215_chest_Reflection__4__209.txt Node

Date: Fri Sep 22 22:30:52 CDT 2023
User: ToomeyLab
Spectrometer: FLMS14357
Trigger mode: 0
Integration Time (sec): 1.000000E-2
Scans to average: 100
Electric dark correction enabled: true
Nonlinearity correction enabled: false
Boxcar width: 0
XAxis mode: Wavelengths
Number of Pixels in Spectrum: 2048
>>>>>Begin Spectral Data<<<<<
189.047	-30.22
189.435	-30.22
189.823	-30.22
190.211	-0.25
190.599	-107.46
190.987	7.64
191.375	94.84
191.763	134.06
192.151	42.98
192.538	185.14
192.926	21.93
193.314	124.6
193.702	380.21
194.089	23.64
194.477	331.17
194.864	200
195.252	6.35
195.639	35.28
196.027	48.56
196.414	178.14
196.801	562.67
197.189	45.83
197.576	862
197.963	116.26
198.351	11.91
198.738	10.96
199.125	-6.1
199.512	23.39
199.899	38.45
200.286	59.74
200.673	33.48
201.06	68.25
201.447	33.58
201.833	-11.42
202.22	89.39
202.607	77.57
202.994	57.71
203.38	84.59
203.767	-2.5
204.154	59.43
204.54	98.24
204.927	-10.66
205.313	35.82
205.699	45.89
206.086	56.99
206.472	59.05
206.858	42.82
207.245	13.6
207.631	34.42
208.017	12.28
208.403	62.82
208.789	24.85
209.175	55.68
209.561	39.05
209.947	47.29
210.333	23.83
210.719	12.23
211.105	47.53
211.491	29.32
211.876	66.41
212.262	35.29
212.648	27.48
213.034	53.57
213.419	58.33
213.805	5.89
214.19	53.88
214.576	42.18
214.961	-2.41
215.346	12.66
215.732	34.35
216.117	10.66
216.502	57.88
216.888	0.28
217.273	14.29
217.658	22.41
218.043	31.75
218.428	20.86
218.813	-15.06
219.198	36.72
219.583	5.79
219.968	-8.48
220.353	26.51
220.738	-5.68
221.122	15.79
221.507	-6.07
221.892	-2.49
222.276	11.12
222.661	-33.68
223.046	20.1
223.43	29.68
223.815	5.24
224.199	-8.64
224.583	13.82
224.968	15.28
225.352	7.73
225.736	8.41
226.121	14.1
226.505	6.18
226.889	15.58
227.273	1.57
227.657	8.47
228.041	2.97
228.425	11.1
228.809	1.71
229.193	2.84
229.577	9.46
229.961	7.05
230.344	5.62
230.728	2.77
231.112	4.48
231.495	3.81
231.879	3.58
232.263	2.82
232.646	5.46
233.03	4
233.413	2.71
233.797	5.89
234.18	3.53
234.563	6.42
234.946	3.83
235.33	3.56
235.713	2.88
236.096	4.64
236.479	2.68
236.862	5.67
237.245	5.31
237.628	4.74
238.011	4.36
238.394	3.76
238.777	5.9
239.16	4.23
239.543	5.25
239.925	5.29
240.308	6.74
240.691	5.08
241.073	6.06
241.456	3.98
241.838	3.38
242.221	4.18
242.603	3.72
242.986	3.64
243.368	3.05
243.75	3.88
244.133	3.8
244.515	3.68
244.897	3.05
245.279	3.66
245.661	3.2
246.043	4.05
246.425	3.21
246.807	3.83
247.189	2
247.571	3.56
247.953	4.38
248.335	3.37
248.717	3.55
249.098	3.29
249.48	3.14
249.862	3.18
250.243	3.12
250.625	3.11
251.006	3.14
251.388	3.2
251.769	3.9
252.151	3.42
252.532	3.44
252.913	3.96
253.295	3.59
253.676	3.8
254.057	3.14
254.438	3.55
254.819	2.62
255.2	3.67
255.581	3.72
255.962	3.4
256.343	2.86
256.724	3.45
257.105	3.25
257.486	3.65
257.867	3.67
258.247	3.08
258.628	3.53
259.009	2.96
259.389	3.07
259.77	3.88
260.15	3.6
260.531	3.17
260.911	3.6
261.292	3.35
261.672	2.73
262.052	3.09
262.432	3.02
262.813	3.29
263.193	3.01
263.573	3.46
263.953	3.21
264.333	3.92
264.713	3.08
265.093	3.46
265.473	3.32
265.853	2.84
266.233	3.97
266.612	3.12
266.992	3.64
267.372	3.69
267.752	4.26
268.131	3.95
268.511	2.88
268.89	3.49
269.27	2.92
269.649	3.4
270.029	3.3
270.408	3.38
270.787	3.59
271.167	3.38
271.546	2.52
271.925	3.05
272.304	2.76
272.683	3.6
273.062	4.06
273.441	3.31
273.82	3.35
274.199	3.42
274.578	3.94
274.957	3.29
275.336	3.16
275.715	3.18
276.093	3.35
276.472	2.92
276.851	3.46
277.229	2.95
277.608	3.43
277.986	2.86
278.365	3.17
278.743	3.29
279.122	3.28
279.5	3.35
279.878	2.97
280.257	3.83
280.635	3.29
281.013	3.41
281.391	2.9
281.769	2.88
282.147	2.79
282.525	3.05
282.903	3.23
283.281	2.82
283.659	3.26
284.037	3.14
284.415	3.19
284.792	2.96
285.17	2.88
285.548	3.63
285.925	3.47
286.303	3.15
286.68	2.4
287.058	2.95
287.435	3.32
287.813	3.08
288.19	2.63
288.567	3.05
288.945	3
289.322	3.27
289.699	3.4
290.076	3.33
290.453	2.66
290.83	2.52
291.207	2.84
291.584	2.87
291.961	2.77
292.338	2.98
292.715	3.19
293.092	2.48
293.469	2.61
293.845	3.27
294.222	2.99
294.599	2.79
294.975	3.38
295.352	3.2
295.728	2.71
296.105	3.49
296.481	3.17
296.858	3.22
297.234	3.5
297.61	3.22
297.986	3.04
298.363	2.98
298.739	2.94
299.115	3.19
299.491	3.17
299.867	3.15
300.243	2.86
300.619	3.32
300.995	2.85
301.371	3.35
301.746	3.34
302.122	3.23
302.498	3.29
302.874	3.29
303.249	3.15
303.625	3.44
304	3.23
304.376	3.59
304.751	3.71
305.127	3.91
305.502	3.39
305.878	3.33
306.253	3.49
306.628	3.31
307.003	3.22
307.378	3.04
307.754	3.27
308.129	2.78
308.504	3.12
308.879	3.3
309.254	3.68
309.629	3.63
310.003	3.4
310.378	3.87
310.753	3.46
311.128	3.31
311.502	3.32
311.877	3.17
312.252	3.04
312.626	3.12
313.001	3.21
313.375	3.1
313.75	3.66
314.124	3.49
314.498	3.02
314.873	3.2
315.247	3.19
315.621	3.6
315.995	3.39
316.369	2.98
316.743	3.18
317.117	3.92
317.491	3.46
317.865	3.32
318.239	3.22
318.613	3.17
318.987	3.56
319.361	3.02
319.734	3.37
320.108	3.76
320.482	2.84
320.855	3.74
321.229	3.46
321.602	3.53
321.976	3.19
322.349	3.36
322.723	3.18
323.096	3.7
323.469	3.31
323.843	3.44
324.216	3.49
324.589	2.93
324.962	2.94
325.335	3.01
325.708	3.44
326.081	3.54
326.454	3.12
326.827	3.17
327.2	3.36
327.573	3.89
327.945	3.03
328.318	3.44
328.691	3.7
329.063	3.44
329.436	3.4
329.809	3.97
330.181	3.51
330.553	3.53
330.926	3.8
331.298	3.32
331.671	3.54
332.043	3.04
332.415	3.28
332.787	3.26
333.159	3.72
333.532	2.6
333.904	3.06
334.276	2.9
334.648	2.79
335.02	2.97
335.391	3.51
335.763	3.19
336.135	3.24
336.507	3.01
336.879	2.83
337.25	3.27
337.622	3.59
337.993	3.25
338.365	3.25
338.736	3.51
339.108	3.24
339.479	3.01
339.851	2.75
340.222	3.2
340.593	3.02
340.964	3.07
341.336	2.9
341.707	3.28
342.078	3.39
342.449	3.41
342.82	2.86
343.191	3.14
343.562	3.39
343.933	2.99
344.303	3.22
344.674	3.25
345.045	3.36
345.416	3.54
345.786	2.9
346.157	2.64
346.527	3.3
346.898	3.3
347.268	3.16
347.639	3.18
348.009	2.96
348.38	3.47
348.75	3.83
349.12	3.47
349.49	3.35
349.861	3.28
350.231	3.03
350.601	3.07
350.971	3.53
351.341	3.15
351.711	3.21
352.081	3.09
352.45	2.94
352.82	3.34
353.19	3.56
353.56	3.37
353.929	3.09
354.299	3.49
354.669	2.97
355.038	3.12
355.408	3.52
355.777	3.76
356.147	3.26
356.516	3.61
356.885	3.35
357.254	3.6
357.624	2.84
357.993	3.59
358.362	3.3
358.731	3.25
359.1	3.14
359.469	3.41
359.838	2.84
360.207	3.37
360.576	3.47
360.945	3.17
361.314	3.58
361.682	3.54
362.051	3.48
362.42	3.14
362.788	3.18
363.157	3.41
363.525	3.06
363.894	3.01
364.262	3.16
364.631	3.06
364.999	3.06
365.367	3.24
365.735	3.27
366.104	3.17
366.472	3.55
366.84	3.36
367.208	3.61
367.576	3.7
367.944	3.36
368.312	3.34
368.68	3.2
369.048	3.64
369.416	3.21
369.783	2.86
370.151	3.39
370.519	3.38
370.886	3.18
371.254	3.38
371.621	3.3
371.989	3.29
372.356	2.91
372.724	3.43
373.091	3.37
373.458	3.43
373.826	3.39
374.193	3.51
374.56	3.46
374.927	3.45
375.294	3.25
375.661	3.18
376.028	3.44
376.395	3.55
376.762	3.1
377.129	3.51
377.496	3.66
377.863	3.82
378.229	3.32
378.596	3.21
378.963	3.39
379.329	3.35
379.696	3.58
380.062	3.17
380.429	3.33
380.795	3.56
381.161	3.12
381.528	3.36
381.894	2.88
382.26	3.11
382.626	3.17
382.993	3.35
383.359	3.26
383.725	3.33
384.091	3.36
384.457	3.21
384.823	3.47
385.188	3.49
385.554	3.28
385.92	3.59
386.286	3.21
386.651	3.27
387.017	3.27
387.383	3.59
387.748	3.18
388.114	3.23
388.479	3.41
388.845	3.19
389.21	3.22
389.575	3.41
389.94	3.34
390.306	3.36
390.671	3.45
391.036	3.22
391.401	3.09
391.766	3.17
392.131	3.52
392.496	3.4
392.861	3.52
393.226	3.45
393.591	3.47
393.956	3.33
394.32	3.37
394.685	3.23
395.05	3.56
395.414	3.44
395.779	3.41
396.143	3.4
396.508	3.4
396.872	3.42
397.236	3.26
397.601	3.2
397.965	3.56
398.329	3.18
398.694	3.2
399.058	3.52
399.422	3.54
399.786	3.41
400.15	3.34
400.514	3.52
400.878	3.36
401.242	3.36
401.605	3.28
401.969	3.11
402.333	3.64
402.697	3.16
403.06	3.47
403.424	3.32
403.787	3.41
404.151	3.49
404.514	3.58
404.878	3.63
405.241	3.63
405.604	3.57
405.968	3.53
406.331	3.47
406.694	3.58
407.057	3.29
407.42	3.69
407.783	3.64
408.146	3.44
408.509	3.37
408.872	3.6
409.235	3.46
409.598	3.39
409.961	3.45
410.323	3.42
410.686	3.33
411.049	3.75
411.411	3.68
411.774	3.28
412.136	3.48
412.499	3.53
412.861	3.44
413.223	3.42
413.586	3.11
413.948	3.31
414.31	3.42
414.672	3.42
415.035	3.35
415.397	3.51
415.759	3.71
416.121	3.31
416.483	3.55
416.845	3.32
417.206	3.47
417.568	3.48
417.93	3.61
418.292	3.42
418.653	3.33
419.015	3.43
419.377	3.21
419.738	3.47
420.1	3.23
420.461	3.39
420.822	3.36
421.184	3.46
421.545	3.39
421.906	3.35
422.267	3.31
422.629	3.43
422.99	3.37
423.351	3.29
423.712	3.32
424.073	3.31
424.434	3.34
424.795	3.45
425.155	3.39
425.516	3.34
425.877	3.29
426.238	3.38
426.598	3.28
426.959	3.41
427.32	3.35
427.68	3.34
428.041	3.37
428.401	3.5
428.761	3.49
429.122	3.54
429.482	3.44
429.842	3.43
430.202	3.48
430.563	3.57
430.923	3.4
431.283	3.49
431.643	3.72
432.003	3.55
432.363	3.61
432.722	3.67
433.082	3.61
433.442	3.45
433.802	3.48
434.161	3.38
434.521	3.53
434.881	3.45
435.24	3.44
435.6	3.37
435.959	3.33
436.319	3.38
436.678	3.5
437.037	3.6
437.396	3.42
437.756	3.45
438.115	3.47
438.474	3.43
438.833	3.49
439.192	3.62
439.551	3.63
439.91	3.73
440.269	3.46
440.628	3.41
440.987	3.48
441.345	3.61
441.704	3.6
442.063	3.4
442.421	3.43
442.78	3.43
443.138	3.51
443.497	3.37
443.855	3.35
444.214	3.39
444.572	3.61
444.93	3.64
445.288	3.45
445.647	3.61
446.005	3.43
446.363	3.5
446.721	3.49
447.079	3.49
447.437	3.48
447.795	3.54
448.153	3.41
448.51	3.45
448.868	3.36
449.226	3.46
449.584	3.49
449.941	3.39
450.299	3.54
450.656	3.55
451.014	3.55
451.371	3.61
451.729	3.62
452.086	3.46
452.443	3.59
452.801	3.54
453.158	3.6
453.515	3.69
453.872	3.46
454.229	3.55
454.586	3.66
454.943	3.39
455.3	3.57
455.657	3.47
456.014	3.52
456.371	3.58
456.727	3.91
457.084	3.69
457.441	3.43
457.797	3.61
458.154	3.61
458.51	3.62
458.867	3.61
459.223	3.66
459.58	3.69
459.936	3.59
460.292	3.66
460.648	3.71
461.005	3.59
461.361	3.69
461.717	3.53
462.073	3.57
462.429	3.38
462.785	3.49
463.141	3.55
463.496	3.67
463.852	3.73
464.208	3.54
464.564	3.64
464.919	3.63
465.275	3.71
465.631	3.81
465.986	3.74
466.342	3.72
466.697	3.93
467.052	3.35
467.408	3.77
467.763	3.67
468.118	3.88
468.473	3.89
468.829	3.64
469.184	3.44
469.539	3.72
469.894	3.49
470.249	3.67
470.603	3.6
470.958	3.73
471.313	3.71
471.668	3.71
472.023	3.75
472.377	3.54
472.732	3.58
473.086	3.93
473.441	3.58
473.795	3.93
474.15	3.66
474.504	3.67
474.859	3.91
475.213	3.58
475.567	3.66
475.921	3.7
476.275	3.74
476.63	3.77
476.984	3.75
477.338	3.82
477.692	3.86
478.045	3.83
478.399	3.83
478.753	3.8
479.107	3.77
479.461	3.74
479.814	3.79
480.168	3.72
480.521	3.7
480.875	3.76
481.228	3.68
481.582	3.61
481.935	3.73
482.289	3.67
482.642	3.61
482.995	3.62
483.348	3.56
483.701	3.72
484.055	3.7
484.408	3.62
484.761	3.71
485.114	3.49
485.466	3.5
485.819	3.48
486.172	3.42
486.525	3.43
486.878	3.43
487.23	3.54
487.583	3.52
487.936	3.59
488.288	3.69
488.641	3.61
488.993	3.56
489.345	3.55
489.698	3.52
490.05	3.54
490.402	3.59
490.754	3.51
491.107	3.55
491.459	3.62
491.811	3.64
492.163	3.61
492.515	3.59
492.866	3.63
493.218	3.74
493.57	3.67
493.922	3.53
494.274	3.57
494.625	3.65
494.977	3.67
495.328	3.85
495.68	3.79
496.031	3.76
496.383	3.82
496.734	3.66
497.086	3.79
497.437	3.83
497.788	3.81
498.139	3.84
498.49	3.92
498.842	3.7
499.193	3.67
499.544	3.95
499.894	3.84
500.245	3.86
500.596	3.93
500.947	3.9
501.298	3.9
501.648	3.98
501.999	3.86
502.35	3.86
502.7	3.91
503.051	3.88
503.401	3.98
503.752	3.99
504.102	3.91
504.452	3.77
504.803	3.84
505.153	4.02
505.503	3.93
505.853	4.06
506.203	3.83
506.553	4.02
506.903	4.02
507.253	3.92
507.603	3.96
507.953	4.09
508.303	3.96
508.652	3.95
509.002	4.2
509.352	3.89
509.701	4.21
510.051	4.05
510.4	3.87
510.75	3.96
511.099	3.82
511.449	3.9
511.798	4.05
512.147	4.04
512.496	4.01
512.846	3.97
513.195	3.95
513.544	4
513.893	4.1
514.242	4.03
514.591	4.04
514.939	4.08
515.288	4.02
515.637	4.04
515.986	4.07
516.334	3.9
516.683	4.02
517.032	4.25
517.38	4.12
517.729	4.04
518.077	4.21
518.426	4.03
518.774	4.11
519.122	4.08
519.47	4.05
519.819	4.12
520.167	4.1
520.515	4.07
520.863	3.97
521.211	4.07
521.559	4.07
521.907	4.1
522.255	4.07
522.602	4.21
522.95	4.09
523.298	4.22
523.645	4.17
523.993	4.11
524.341	4.21
524.688	4.28
525.036	4.16
525.383	4.3
525.73	4.27
526.078	4.2
526.425	4.21
526.772	4.33
527.119	4.19
527.466	4.05
527.814	4.18
528.161	4.02
528.508	4.15
528.854	4.16
529.201	4.18
529.548	4.16
529.895	4.07
530.242	4.03
530.588	4.01
530.935	3.96
531.282	3.97
531.628	4.08
531.975	4.08
532.321	4.09
532.667	4.2
533.014	4.17
533.36	4.29
533.706	4.38
534.052	4.35
534.399	4.4
534.745	4.29
535.091	4.17
535.437	4.17
535.783	4.15
536.129	4.22
536.474	4.34
536.82	4.22
537.166	4.45
537.512	4.4
537.857	4.38
538.203	4.41
538.549	4.35
538.894	4.3
539.239	4.25
539.585	4.36
539.93	4.44
540.276	4.4
540.621	4.45
540.966	4.44
541.311	4.7
541.656	4.49
542.001	4.59
542.346	4.55
542.691	4.6
543.036	4.46
543.381	4.32
543.726	4.35
544.071	4.43
544.415	4.37
544.76	4.42
545.105	4.4
545.449	4.48
545.794	4.59
546.138	4.57
546.483	4.59
546.827	4.54
547.171	4.66
547.516	4.74
547.86	4.78
548.204	4.83
548.548	4.8
548.892	4.75
549.236	4.66
549.58	4.73
549.924	4.89
550.268	4.88
550.612	4.87
550.956	4.8
551.3	4.71
551.643	4.93
551.987	4.94
552.33	5.02
552.674	4.89
553.017	4.88
553.361	4.96
553.704	5.04
554.048	5.04
554.391	5.01
554.734	5.06
555.077	4.85
555.42	4.94
555.764	4.98
556.107	5.05
556.45	5.09
556.793	5.09
557.135	5.04
557.478	4.86
557.821	5.12
558.164	5.44
558.507	5.53
558.849	5.13
559.192	5.32
559.534	5.27
559.877	5.28
560.219	5.24
560.562	5.36
560.904	5.07
561.246	5.5
561.589	5.42
561.931	5.31
562.273	5.18
562.615	5.11
562.957	5.29
563.299	5.36
563.641	5.3
563.983	5.42
564.325	5.4
564.667	5.47
565.008	5.58
565.35	5.48
565.692	5.52
566.033	5.47
566.375	5.66
566.716	5.53
567.058	5.45
567.399	5.65
567.741	5.77
568.082	5.58
568.423	5.63
568.764	5.77
569.105	5.43
569.447	5.55
569.788	5.56
570.129	5.71
570.47	5.67
570.811	5.55
571.151	5.84
571.492	5.51
571.833	5.6
572.174	5.74
572.514	5.7
572.855	5.68
573.195	5.83
573.536	5.68
573.876	5.69
574.217	5.72
574.557	5.69
574.898	5.92
575.238	5.77
575.578	5.83
575.918	6.02
576.258	5.73
576.598	5.8
576.938	5.88
577.278	6.11
577.618	6.13
577.958	6
578.298	6.16
578.638	6.06
578.977	6.23
579.317	6.05
579.657	6.07
579.996	6.2
580.336	6.13
580.675	6.17
581.014	6.13
581.354	6.2
581.693	6.39
582.032	6.32
582.372	6.54
582.711	6.3
583.05	6.49
583.389	6.14
583.728	6.43
584.067	6.52
584.406	6.69
584.745	6.21
585.083	6.48
585.422	6.68
585.761	6.43
586.1	6.88
586.438	6.52
586.777	6.53
587.115	6.9
587.454	6.39
587.792	6.77
588.13	6.71
588.469	6.72
588.807	6.75
589.145	6.65
589.483	6.88
589.821	6.76
590.159	6.94
590.497	6.84
590.835	7
591.173	6.78
591.511	6.9
591.849	7.19
592.187	6.9
592.524	7.22
592.862	7.05
593.2	6.82
593.537	6.94
593.875	6.99
594.212	7.05
594.55	7.34
594.887	7.04
595.224	7.23
595.561	7.37
595.899	7.37
596.236	7.65
596.573	7.11
596.91	7.39
597.247	7.14
597.584	7.21
597.921	7.37
598.258	7.39
598.594	7.38
598.931	7.21
599.268	7.25
599.604	7.32
599.941	7.29
600.277	7.27
600.614	7.39
600.95	7.41
601.287	7.57
601.623	7.53
601.959	7.83
602.296	7.53
602.632	7.51
602.968	7.82
603.304	7.57
603.64	7.67
603.976	7.77
604.312	7.8
604.648	7.72
604.984	7.77
605.319	7.72
605.655	7.72
605.991	7.86
606.326	7.87
606.662	7.56
606.998	7.88
607.333	7.99
607.668	7.99
608.004	7.94
608.339	7.89
608.674	8.23
609.01	8
609.345	8.16
609.68	8.28
610.015	8.05
610.35	8.23
610.685	8.29
611.02	8.19
611.355	8.49
611.689	8.28
612.024	8.17
612.359	8.21
612.694	8.19
613.028	8.3
613.363	8.38
613.697	8.18
614.032	8.5
614.366	8.51
614.7	8.33
615.035	8.64
615.369	8.56
615.703	8.38
616.037	8.58
616.371	8.77
616.705	8.85
617.039	8.75
617.373	8.91
617.707	8.58
618.041	8.99
618.375	8.97
618.709	8.67
619.042	8.9
619.376	9.06
619.71	9.27
620.043	8.61
620.377	8.74
620.71	8.77
621.043	9.15
621.377	8.84
621.71	9.03
622.043	9.11
622.376	9.27
622.709	9.24
623.043	9.45
623.376	9.35
623.709	9.49
624.041	9.14
624.374	9.2
624.707	9.6
625.04	8.98
625.373	9.03
625.705	9.4
626.038	9.54
626.37	9.88
626.703	9.28
627.035	9.32
627.368	9.36
627.7	9.65
628.032	9.65
628.365	9.63
628.697	9.6
629.029	9.73
629.361	9.84
629.693	9.47
630.025	9.58
630.357	9.76
630.689	9.98
631.021	9.54
631.353	9.48
631.684	9.6
632.016	10.01
632.348	9.94
632.679	9.55
633.011	9.71
633.342	10.01
633.674	10.4
634.005	9.7
634.336	10.04
634.668	10.25
634.999	10.18
635.33	10.48
635.661	10.22
635.992	10.12
636.323	9.95
636.654	10
636.985	10.32
637.316	10.07
637.647	10.49
637.977	10
638.308	10.54
638.639	10.26
638.969	10.64
639.3	10.34
639.63	10.63
639.961	10.09
640.291	10.4
640.622	10.89
640.952	10.75
641.282	10.61
641.612	10.72
641.943	11.16
642.273	10.79
642.603	10.58
642.933	10.43
643.263	10.26
643.592	10.72
643.922	11.07
644.252	10.9
644.582	11.12
644.911	11.09
645.241	10.97
645.571	10.94
645.9	11.14
646.23	11.19
646.559	11.16
646.888	11.07
647.218	11.34
647.547	10.75
647.876	10.97
648.205	10.72
648.534	11.17
648.863	11.22
649.192	11.24
649.521	11.43
649.85	11.83
650.179	11.55
650.508	11.33
650.837	11.94
651.165	11.79
651.494	11.71
651.822	11.39
652.151	11.6
652.479	11.54
652.808	11.59
653.136	11.93
653.465	11.97
653.793	11.53
654.121	12.1
654.449	11.7
654.777	11.54
655.105	11.65
655.433	11.92
655.761	12.44
656.089	11.63
656.417	11.65
656.745	12.4
657.073	12.15
657.4	12.32
657.728	11.94
658.056	11.8
658.383	12.05
658.711	12.26
659.038	12.03
659.365	12.28
659.693	11.91
660.02	12.64
660.347	12.81
660.674	11.92
661.001	12.23
661.329	12.45
661.656	12.37
661.982	12.12
662.309	12.31
662.636	12.23
662.963	12.85
663.29	12.8
663.616	12.53
663.943	12.91
664.27	12.66
664.596	12.62
664.923	13.06
665.249	12.81
665.576	11.81
665.902	12.68
666.228	12.56
666.554	13.01
666.881	13.45
667.207	12.86
667.533	12.51
667.859	12.78
668.185	12.89
668.511	13.46
668.837	12.81
669.162	12.93
669.488	13.21
669.814	12.87
670.139	13.27
670.465	12.91
670.791	13.28
671.116	13.3
671.442	13.96
671.767	12.29
672.092	13.3
672.418	13.63
672.743	13.37
673.068	13.7
673.393	13.3
673.718	13.83
674.043	13.59
674.368	13.35
674.693	13.85
675.018	13.47
675.343	13.82
675.667	13.49
675.992	13.31
676.317	14.15
676.641	14.21
676.966	13.76
677.29	13.69
677.615	14.28
677.939	14.05
678.264	13.85
678.588	14.78
678.912	13.75
679.236	14.6
679.56	14.37
679.885	14.3
680.209	14.6
680.532	13.61
680.856	13.65
681.18	14.88
681.504	14.33
681.828	15.17
682.152	13.86
682.475	14.82
682.799	14.5
683.122	14.27
683.446	14.44
683.769	14.5
684.093	14.3
684.416	14.84
684.739	14.56
685.062	14.76
685.386	15.06
685.709	14.66
686.032	14.95
686.355	14.01
686.678	14.49
687.001	14.98
687.324	15.61
687.646	14.43
687.969	15.8
688.292	15.42
688.614	15.34
688.937	14.79
