Data from 0215_crown_Reflection__2__212.txt Node

Date: Fri Sep 22 22:32:34 CDT 2023
User: ToomeyLab
Spectrometer: FLMS14357
Trigger mode: 0
Integration Time (sec): 1.000000E-2
Scans to average: 100
Electric dark correction enabled: true
Nonlinearity correction enabled: false
Boxcar width: 0
XAxis mode: Wavelengths
Number of Pixels in Spectrum: 2048
>>>>>Begin Spectral Data<<<<<
189.047	-1938.85
189.435	-1938.85
189.823	-1938.85
190.211	-7.85
190.599	27.29
190.987	-441.8
191.375	271.69
191.763	11.35
192.151	96.68
192.538	-56.66
192.926	63.2
193.314	-33.3
193.702	721.05
194.089	29.69
194.477	17.58
194.864	-1430.23
195.252	155.94
195.639	27.22
196.027	30.68
196.414	37.7
196.801	1046.67
197.189	-12.68
197.576	445.45
197.963	-56.84
198.351	28.87
198.738	44.12
199.125	11.6
199.512	22.58
199.899	60.11
200.286	15.28
200.673	2.02
201.06	73.23
201.447	63.23
201.833	-39.05
202.22	34.1
202.607	21.76
202.994	20.26
203.38	2.75
203.767	21.9
204.154	56.89
204.54	22.59
204.927	81.96
205.313	28.04
205.699	63.6
206.086	25.43
206.472	50.97
206.858	-8.57
207.245	10.46
207.631	21.83
208.017	49.66
208.403	35.55
208.789	33.01
209.175	48.58
209.561	38.78
209.947	36.02
210.333	28.43
210.719	-22.86
211.105	85.25
211.491	27.5
211.876	47.45
212.262	44.2
212.648	39.32
213.034	42.07
213.419	11.38
213.805	11.63
214.19	14.43
214.576	19.25
214.961	41.55
215.346	13.38
215.732	32.47
216.117	-4.24
216.502	44.66
216.888	33.64
217.273	58.17
217.658	-0.12
218.043	41.65
218.428	33.16
218.813	-16.19
219.198	21.93
219.583	19.13
219.968	9.09
220.353	31.34
220.738	-1.33
221.122	4.42
221.507	17.76
221.892	3.75
222.276	17.8
222.661	-26.76
223.046	32.61
223.43	26.75
223.815	-4.41
224.199	-15.27
224.583	8.68
224.968	9.58
225.352	10.07
225.736	14.59
226.121	4.94
226.505	7.12
226.889	12.63
227.273	1.53
227.657	6.61
228.041	4.66
228.425	11.18
228.809	9.1
229.193	5.76
229.577	8.78
229.961	2.99
230.344	6.39
230.728	2.42
231.112	3.49
231.495	3.28
231.879	3.11
232.263	2.61
232.646	2.68
233.03	3.01
233.413	4.67
233.797	4.12
234.18	0.77
234.563	6.06
234.946	4.66
235.33	4.05
235.713	2.69
236.096	2.77
236.479	3.54
236.862	4.72
237.245	2.77
237.628	4.2
238.011	5.5
238.394	3.48
238.777	4.91
239.16	3.58
239.543	7.16
239.925	3.7
240.308	4.33
240.691	3.08
241.073	4.17
241.456	4.54
241.838	2.14
242.221	3.3
242.603	1.68
242.986	2.88
243.368	3.5
243.75	3.56
244.133	4.12
244.515	3.05
244.897	3.27
245.279	3.41
245.661	3.36
246.043	3.51
246.425	2.66
246.807	3.83
247.189	1.49
247.571	3.27
247.953	4.21
248.335	3.45
248.717	3.3
249.098	3.01
249.48	3.11
249.862	3
250.243	3.06
250.625	3.35
251.006	2.72
251.388	3.52
251.769	3.64
252.151	1.92
252.532	3.39
252.913	3.95
253.295	4.65
253.676	3.55
254.057	3.03
254.438	3.14
254.819	2.44
255.2	3.44
255.581	2.96
255.962	3.76
256.343	1.88
256.724	3.42
257.105	3.91
257.486	2.6
257.867	2.37
258.247	4.14
258.628	3.73
259.009	3.5
259.389	2.93
259.77	3.32
260.15	3.79
260.531	2.74
260.911	3.13
261.292	3.35
261.672	2.89
262.052	2.86
262.432	2.89
262.813	2.88
263.193	2.8
263.573	3.12
263.953	2.91
264.333	3.53
264.713	3.22
265.093	2.5
265.473	2.96
265.853	2.76
266.233	3.58
266.612	3.11
266.992	3.2
267.372	4
267.752	3.37
268.131	3.07
268.511	2.42
268.89	2.78
269.27	2.6
269.649	2.8
270.029	3
270.408	2.63
270.787	3.11
271.167	3.13
271.546	2.35
271.925	3.37
272.304	2.52
272.683	2.53
273.062	3.03
273.441	2.85
273.82	3.29
274.199	3.27
274.578	3.49
274.957	2.59
275.336	2.98
275.715	2.89
276.093	2.57
276.472	2.42
276.851	2.87
277.229	2.43
277.608	3.29
277.986	3.22
278.365	2.61
278.743	3.24
279.122	3
279.5	3
279.878	3.18
280.257	3.79
280.635	2.55
281.013	3.28
281.391	2.38
281.769	3.36
282.147	3.23
282.525	3.15
282.903	3.45
283.281	2.84
283.659	3.14
284.037	3.18
284.415	2.98
284.792	2.54
285.17	3.11
285.548	3.27
285.925	2.47
286.303	2.94
286.68	2.61
287.058	2.85
287.435	2.89
287.813	2.82
288.19	2.5
288.567	2.96
288.945	2.82
289.322	3.19
289.699	2.84
290.076	3.49
290.453	2.94
290.83	2.78
291.207	2.45
291.584	2.72
291.961	2.61
292.338	2.87
292.715	2.88
293.092	2.83
293.469	2.94
293.845	3.22
294.222	3.08
294.599	3.09
294.975	3.81
295.352	3.47
295.728	3.23
296.105	2.95
296.481	3
296.858	3.11
297.234	2.86
297.61	2.85
297.986	3.24
298.363	3.21
298.739	3.23
299.115	3.13
299.491	3.07
299.867	3.06
300.243	2.69
300.619	3.01
300.995	2.96
301.371	3.45
301.746	3.25
302.122	3.07
302.498	3.01
302.874	2.86
303.249	2.78
303.625	3.2
304	3.38
304.376	3.55
304.751	3.52
305.127	3.1
305.502	3.42
305.878	3.19
306.253	2.77
306.628	3.06
307.003	3.54
307.378	3.11
307.754	2.92
308.129	3.29
308.504	3.35
308.879	3.41
309.254	3.29
309.629	3
310.003	3.56
310.378	3.4
310.753	3.24
311.128	3.18
311.502	3.61
311.877	2.77
312.252	2.98
312.626	3.32
313.001	3.36
313.375	3.31
313.75	3.57
314.124	3.45
314.498	2.98
314.873	3.31
315.247	3.65
315.621	2.91
315.995	3.12
316.369	3.02
316.743	3.15
317.117	3.47
317.491	3.25
317.865	2.98
318.239	3.24
318.613	3.47
318.987	3.2
319.361	2.85
319.734	3.23
320.108	3.28
320.482	2.95
320.855	3.41
321.229	3.24
321.602	3.1
321.976	3.13
322.349	3.49
322.723	3.77
323.096	3.87
323.469	3.29
323.843	3.17
324.216	3.73
324.589	3.61
324.962	2.91
325.335	3.2
325.708	3.05
326.081	3.56
326.454	2.73
326.827	3.37
327.2	3.2
327.573	3.69
327.945	3.18
328.318	3.51
328.691	3.54
329.063	3.54
329.436	3.41
329.809	3.15
330.181	2.67
330.553	3.7
330.926	3.7
331.298	2.95
331.671	3.4
332.043	2.83
332.415	3.91
332.787	3.39
333.159	3.07
333.532	3.27
333.904	3.41
334.276	2.96
334.648	2.9
335.02	2.79
335.391	3.18
335.763	3.55
336.135	3.27
336.507	3.02
336.879	2.83
337.25	3.04
337.622	3.94
337.993	3.18
338.365	3.55
338.736	3.74
339.108	3.63
339.479	2.85
339.851	2.7
340.222	3.27
340.593	2.96
340.964	2.87
341.336	3.12
341.707	3.02
342.078	3.11
342.449	3.2
342.82	2.88
343.191	2.86
343.562	2.66
343.933	3.23
344.303	2.86
344.674	3.34
345.045	3.27
345.416	3.63
345.786	2.64
346.157	3.17
346.527	2.9
346.898	2.73
347.268	3.02
347.639	3.3
348.009	2.97
348.38	3.29
348.75	3.46
349.12	2.9
349.49	3.53
349.861	3.42
350.231	3.31
350.601	3.07
350.971	3.21
351.341	2.81
351.711	3.27
352.081	2.81
352.45	3.35
352.82	3.3
353.19	3.53
353.56	3.09
353.929	3.29
354.299	3.21
354.669	2.84
355.038	2.68
355.408	2.79
355.777	3.33
356.147	3.04
356.516	3.03
356.885	2.76
357.254	3.29
357.624	2.9
357.993	3.03
358.362	2.83
358.731	2.85
359.1	2.89
359.469	2.93
359.838	2.85
360.207	2.85
360.576	3.11
360.945	3.08
361.314	3.06
361.682	3.03
362.051	3.53
362.42	3
362.788	2.98
363.157	3.16
363.525	2.96
363.894	2.96
364.262	3.01
364.631	2.96
364.999	2.81
365.367	2.91
365.735	3.1
366.104	3.19
366.472	3.33
366.84	3.11
367.208	3.31
367.576	3.25
367.944	3.28
368.312	3.18
368.68	2.88
369.048	3.28
369.416	3.18
369.783	2.97
370.151	3.15
370.519	3.03
370.886	3.08
371.254	3.32
371.621	3.1
371.989	3.17
372.356	2.77
372.724	3.28
373.091	3.21
373.458	3.42
373.826	3.22
374.193	3.34
374.56	3.3
374.927	3.17
375.294	2.82
375.661	3.14
376.028	3.27
376.395	3.25
376.762	2.83
377.129	3.21
377.496	3.39
377.863	3.04
378.229	3.11
378.596	2.87
378.963	3.47
379.329	3.02
379.696	3.31
380.062	2.97
380.429	3.2
380.795	3.22
381.161	2.87
381.528	3.17
381.894	2.67
382.26	3.25
382.626	3.13
382.993	3.38
383.359	3.11
383.725	2.95
384.091	3.35
384.457	3.16
384.823	3.12
385.188	3.09
385.554	3.38
385.92	3.37
386.286	3.36
386.651	3.25
387.017	3.36
387.383	3.28
387.748	3.07
388.114	3.05
388.479	3.21
388.845	2.81
389.21	3.09
389.575	3.6
389.94	2.9
390.306	3.38
390.671	3.3
391.036	2.84
391.401	3.14
391.766	3.25
392.131	3.13
392.496	3.47
392.861	3.07
393.226	3.36
393.591	3.05
393.956	3.3
394.32	3.27
394.685	3.17
395.05	3.25
395.414	3.34
395.779	3.25
396.143	3.19
396.508	3.13
396.872	2.94
397.236	3.32
397.601	2.95
397.965	3.32
398.329	3.15
398.694	3.07
399.058	3.12
399.422	3.19
399.786	3.14
400.15	3.07
400.514	3.09
400.878	3.26
401.242	3.2
401.605	3
401.969	2.74
402.333	3.37
402.697	2.93
403.06	3.14
403.424	3.05
403.787	3.16
404.151	3.25
404.514	3.26
404.878	3.41
405.241	3.5
405.604	3.39
405.968	3.44
406.331	3.35
406.694	3.25
407.057	3.2
407.42	3.35
407.783	3.24
408.146	3.27
408.509	3.25
408.872	3.32
409.235	3.27
409.598	3.12
409.961	3.41
410.323	3.43
410.686	3.23
411.049	3.2
411.411	3.38
411.774	3.05
412.136	3.03
412.499	3.11
412.861	3.35
413.223	3.41
413.586	3.28
413.948	3.34
414.31	3.24
414.672	3.24
415.035	3.34
415.397	3.35
415.759	3.51
416.121	3.11
416.483	3.2
416.845	3.13
417.206	3.12
417.568	3.27
417.93	3.17
418.292	3.2
418.653	3.07
419.015	3.06
419.377	3.13
419.738	3.18
420.1	3.1
420.461	3.24
420.822	3.16
421.184	3.14
421.545	3.21
421.906	3.13
422.267	3.26
422.629	3.16
422.99	3.16
423.351	3.15
423.712	3.09
424.073	3.16
424.434	3.16
424.795	3.13
425.155	3.21
425.516	3.15
425.877	3.24
426.238	3.08
426.598	3.15
426.959	3.13
427.32	3.21
427.68	3.12
428.041	3.17
428.401	3.29
428.761	3.23
429.122	3.3
429.482	3.32
429.842	3.2
430.202	3.24
430.563	3.25
430.923	3.28
431.283	3.42
431.643	3.3
432.003	3.37
432.363	3.32
432.722	3.32
433.082	3.33
433.442	3.26
433.802	3.32
434.161	3.21
434.521	3.42
434.881	3.32
435.24	3.34
435.6	3.08
435.959	3.15
436.319	3.27
436.678	3.38
437.037	3.34
437.396	3.28
437.756	3.27
438.115	3.29
438.474	3.37
438.833	3.39
439.192	3.39
439.551	3.23
439.91	3.45
440.269	3.33
440.628	3.16
440.987	3.32
441.345	3.41
441.704	3.34
442.063	3.22
442.421	3.31
442.78	3.27
443.138	3.25
443.497	3.27
443.855	3.27
444.214	3.12
444.572	3.42
444.93	3.34
445.288	3.32
445.647	3.4
446.005	3.26
446.363	3.28
446.721	3.4
447.079	3.18
447.437	3.29
447.795	3.4
448.153	3.21
448.51	3.29
448.868	3.23
449.226	3.33
449.584	3.3
449.941	3.23
450.299	3.4
450.656	3.32
451.014	3.41
451.371	3.28
451.729	3.29
452.086	3.29
452.443	3.36
452.801	3.5
453.158	3.3
453.515	3.56
453.872	3.36
454.229	3.61
454.586	3.52
454.943	3.27
455.3	3.34
455.657	3.38
456.014	3.34
456.371	3.49
456.727	3.5
457.084	3.38
457.441	3.37
457.797	3.48
458.154	3.34
458.51	3.43
458.867	3.39
459.223	3.44
459.58	3.51
459.936	3.6
460.292	3.55
460.648	3.55
461.005	3.47
461.361	3.52
461.717	3.25
462.073	3.38
462.429	3.35
462.785	3.33
463.141	3.4
463.496	3.57
463.852	3.52
464.208	3.37
464.564	3.62
464.919	3.42
465.275	3.76
465.631	3.69
465.986	3.65
466.342	3.64
466.697	3.61
467.052	3.5
467.408	3.53
467.763	3.64
468.118	3.56
468.473	3.55
468.829	3.63
469.184	3.52
469.539	3.56
469.894	3.55
470.249	3.51
470.603	3.58
470.958	3.69
471.313	3.56
471.668	3.64
472.023	3.67
472.377	3.51
472.732	3.51
473.086	3.75
473.441	3.54
473.795	3.78
474.15	3.46
474.504	3.54
474.859	3.7
475.213	3.35
475.567	3.44
475.921	3.57
476.275	3.57
476.63	3.46
476.984	3.42
477.338	3.75
477.692	3.47
478.045	3.69
478.399	3.64
478.753	3.51
479.107	3.58
479.461	3.5
479.814	3.68
480.168	3.61
480.521	3.64
480.875	3.59
481.228	3.53
481.582	3.43
481.935	3.62
482.289	3.53
482.642	3.63
482.995	3.56
483.348	3.66
483.701	3.52
484.055	3.57
484.408	3.56
484.761	3.61
485.114	3.46
485.466	3.42
485.819	3.38
486.172	3.37
486.525	3.34
486.878	3.39
487.23	3.44
487.583	3.46
487.936	3.48
488.288	3.55
488.641	3.53
488.993	3.5
489.345	3.45
489.698	3.43
490.05	3.46
490.402	3.49
490.754	3.44
491.107	3.49
491.459	3.56
491.811	3.55
492.163	3.51
492.515	3.61
492.866	3.59
493.218	3.6
493.57	3.64
493.922	3.54
494.274	3.49
494.625	3.48
494.977	3.55
495.328	3.66
495.68	3.74
496.031	3.66
496.383	3.7
496.734	3.74
497.086	3.6
497.437	3.77
497.788	3.68
498.139	3.81
498.49	3.78
498.842	3.58
499.193	3.72
499.544	3.71
499.894	3.62
500.245	3.77
500.596	3.62
500.947	3.74
501.298	3.85
501.648	3.78
501.999	3.71
502.35	3.74
502.7	3.76
503.051	3.73
503.401	3.87
503.752	3.85
504.102	3.83
504.452	3.84
504.803	3.73
505.153	3.72
505.503	3.62
505.853	4
506.203	3.79
506.553	3.81
506.903	3.85
507.253	3.73
507.603	3.84
507.953	3.77
508.303	3.79
508.652	3.9
509.002	3.89
509.352	3.86
509.701	3.87
510.051	3.8
510.4	3.8
510.75	3.77
511.099	3.69
511.449	3.87
511.798	3.72
512.147	3.74
512.496	3.78
512.846	3.81
513.195	3.85
513.544	3.83
513.893	3.92
514.242	3.74
514.591	3.85
514.939	3.85
515.288	3.76
515.637	3.83
515.986	3.79
516.334	3.8
516.683	3.9
517.032	3.98
517.38	3.99
517.729	3.87
518.077	3.92
518.426	3.96
518.774	3.95
519.122	3.82
519.47	3.73
519.819	3.94
520.167	3.91
520.515	3.83
520.863	3.79
521.211	3.8
521.559	3.82
521.907	3.84
522.255	3.84
522.602	3.94
522.95	3.87
523.298	3.95
523.645	3.94
523.993	3.84
524.341	3.91
524.688	3.97
525.036	4
525.383	3.96
525.73	3.93
526.078	3.91
526.425	3.89
526.772	4.03
527.119	3.96
527.466	3.84
527.814	3.84
528.161	3.9
528.508	3.85
528.854	3.87
529.201	3.92
529.548	3.79
529.895	3.81
530.242	3.84
530.588	3.81
530.935	3.76
531.282	3.74
531.628	3.8
531.975	3.73
532.321	3.76
532.667	3.91
533.014	3.85
533.36	3.88
533.706	3.85
534.052	3.99
534.399	4.01
534.745	3.97
535.091	3.91
535.437	3.83
535.783	3.85
536.129	3.88
536.474	3.97
536.82	3.85
537.166	4.02
537.512	4.01
537.857	3.92
538.203	4.13
538.549	3.96
538.894	3.89
539.239	4.03
539.585	4.02
539.93	4.08
540.276	4.07
540.621	4.02
540.966	4.04
541.311	4.18
541.656	4.07
542.001	4.12
542.346	4.12
542.691	4.13
543.036	4
543.381	3.97
543.726	3.88
544.071	3.95
544.415	3.92
544.76	3.87
545.105	3.89
545.449	3.93
545.794	4.06
546.138	4.05
546.483	4.02
546.827	4.05
547.171	4
547.516	4.16
547.86	4.21
548.204	4.04
548.548	4.17
548.892	4.13
549.236	4.09
549.58	4.04
549.924	4.23
550.268	4.28
550.612	4.14
550.956	4.2
551.3	4.14
551.643	4.23
551.987	4.22
552.33	4.34
552.674	4.15
553.017	4.37
553.361	4.23
553.704	4.24
554.048	4.2
554.391	4.32
554.734	4.38
555.077	4.12
555.42	4.06
555.764	4.24
556.107	4.27
556.45	4.26
556.793	4.22
557.135	4.34
557.478	4.14
557.821	4.19
558.164	4.35
558.507	4.44
558.849	4.35
559.192	4.42
559.534	4.45
559.877	4.24
560.219	4.4
560.562	4.37
560.904	4.36
561.246	4.58
561.589	4.36
561.931	4.33
562.273	4.23
562.615	4.34
562.957	4.21
563.299	4.38
563.641	4.33
563.983	4.43
564.325	4.4
564.667	4.49
565.008	4.51
565.35	4.49
565.692	4.23
566.033	4.61
566.375	4.46
566.716	4.29
567.058	4.38
567.399	4.49
567.741	4.59
568.082	4.29
568.423	4.37
568.764	4.65
569.105	4.25
569.447	4.3
569.788	4.39
570.129	4.42
570.47	4.45
570.811	4.46
571.151	4.34
571.492	4.26
571.833	4.34
572.174	4.33
572.514	4.53
572.855	4.4
573.195	4.43
573.536	4.48
573.876	4.36
574.217	4.48
574.557	4.3
574.898	4.43
575.238	4.52
575.578	4.62
575.918	4.34
576.258	4.34
576.598	4.45
576.938	4.51
577.278	4.56
577.618	4.33
577.958	4.6
578.298	4.58
578.638	4.48
578.977	4.67
579.317	4.47
579.657	4.46
579.996	4.56
580.336	4.61
580.675	4.67
581.014	4.3
581.354	4.54
581.693	4.73
582.032	4.48
582.372	4.62
582.711	4.77
583.05	4.7
583.389	4.59
583.728	4.46
584.067	4.69
584.406	4.5
584.745	4.43
585.083	4.83
585.422	4.76
585.761	4.77
586.1	4.85
586.438	4.53
586.777	4.73
587.115	4.91
587.454	4.45
587.792	4.78
588.13	4.79
588.469	4.54
588.807	4.74
589.145	4.78
589.483	4.78
589.821	4.68
590.159	4.76
590.497	4.82
590.835	4.81
591.173	4.69
591.511	4.75
591.849	4.79
592.187	4.6
592.524	4.84
592.862	4.49
593.2	4.64
593.537	4.55
593.875	4.77
594.212	4.67
594.55	5.12
594.887	4.64
595.224	4.82
595.561	4.95
595.899	4.9
596.236	5.13
596.573	5
596.91	5.04
597.247	4.82
597.584	4.86
597.921	4.79
598.258	4.82
598.594	4.96
598.931	4.78
599.268	4.69
599.604	4.88
599.941	4.82
600.277	4.67
600.614	4.72
600.95	4.88
601.287	4.7
601.623	4.76
601.959	5.04
602.296	4.91
602.632	4.54
602.968	4.89
603.304	4.9
603.64	4.96
603.976	4.82
604.312	4.85
604.648	4.92
604.984	4.94
605.319	4.75
605.655	4.69
605.991	4.96
606.326	4.93
606.662	4.79
606.998	4.8
607.333	4.83
607.668	4.87
608.004	5.11
608.339	4.65
608.674	5.14
609.01	4.68
609.345	4.86
609.68	5.27
610.015	5.11
610.35	4.84
610.685	5.19
611.02	4.93
611.355	5.23
611.689	4.85
612.024	5.03
612.359	4.85
612.694	5.05
613.028	5
613.363	4.84
613.697	4.88
614.032	5.07
614.366	4.83
614.7	5.11
615.035	5.11
615.369	5.04
615.703	4.9
616.037	4.82
616.371	5.35
616.705	5.36
617.039	5.15
617.373	5.1
617.707	4.86
618.041	5.06
618.375	5.04
618.709	5.34
619.042	5.46
619.376	5.26
619.71	5.39
620.043	4.82
620.377	4.72
620.71	5.18
621.043	5.32
621.377	4.94
621.71	5.04
622.043	5.04
622.376	5.48
622.709	5.21
623.043	5.21
623.376	5.37
623.709	5.24
624.041	5.07
624.374	5.2
624.707	5.29
625.04	5.51
625.373	4.87
625.705	4.88
626.038	5.03
626.37	5.43
626.703	4.98
627.035	5.19
627.368	5.3
627.7	5.29
628.032	5.31
628.365	5.54
628.697	4.96
629.029	5.28
629.361	5.2
629.693	5.19
630.025	5.17
630.357	5.19
630.689	5.32
631.021	5.04
631.353	5.01
631.684	5.56
632.016	5.47
632.348	5.44
632.679	5.08
633.011	5.3
633.342	5.45
633.674	5.55
634.005	5
634.336	5.39
634.668	5.47
634.999	5.12
635.33	5.57
635.661	5.3
635.992	4.96
636.323	5.24
636.654	5.17
636.985	4.92
637.316	5.26
637.647	5.54
637.977	5.04
638.308	5.63
638.639	5.46
638.969	5.15
639.3	5.34
639.63	5.65
639.961	5.1
640.291	5.53
640.622	5.8
640.952	5.09
641.282	5.26
641.612	5.42
641.943	5.48
642.273	5.69
642.603	5.1
642.933	5.59
643.263	4.84
643.592	5.5
643.922	5.44
644.252	5.82
644.582	5.99
644.911	5.31
645.241	5.7
645.571	5.31
645.9	5.79
646.23	5.59
646.559	5.54
646.888	5.63
647.218	5.74
647.547	5.52
647.876	5.52
648.205	5.47
648.534	5.68
648.863	5.54
649.192	5.61
649.521	6.11
649.85	5.98
650.179	5.59
650.508	5.16
650.837	5.9
651.165	5.54
651.494	5.44
651.822	5.56
652.151	5.27
652.479	5.46
652.808	5.79
653.136	5.85
653.465	5.86
653.793	5.49
654.121	5.75
654.449	4.8
654.777	5.74
655.105	5.97
655.433	5.88
655.761	5.93
656.089	5.93
656.417	5.44
656.745	6.09
657.073	5.74
657.4	6.09
657.728	5.68
658.056	5.99
658.383	5.74
658.711	5.63
659.038	5.51
659.365	5.68
659.693	5.66
660.02	5.48
660.347	5.91
660.674	5.24
661.001	5.22
661.329	5.84
661.656	6.02
661.982	5.83
662.309	5.78
662.636	5.32
662.963	5.77
663.29	5.97
663.616	5.98
663.943	6.15
664.27	5.88
664.596	5.56
664.923	5.87
665.249	5.32
665.576	4.8
665.902	6.25
666.228	5.67
666.554	5.26
666.881	6.13
667.207	5.69
667.533	5.82
667.859	6.23
668.185	6
668.511	6.92
668.837	6.16
669.162	5.91
669.488	5.84
669.814	5.47
670.139	6.08
670.465	6.17
670.791	5.66
671.116	5.66
671.442	6.04
671.767	5.61
672.092	5.92
672.418	6.63
672.743	5.61
673.068	5.9
673.393	6.02
673.718	6.34
674.043	6.02
674.368	6.23
674.693	5.76
675.018	6.19
675.343	6.64
675.667	6.32
675.992	6.1
676.317	6.61
676.641	6.58
676.966	6.63
677.29	6.02
677.615	6.56
677.939	6.23
678.264	5.88
678.588	6.95
678.912	6.58
679.236	6.29
679.56	5.95
679.885	5.84
680.209	6.95
680.532	6.23
680.856	5.93
681.18	6.41
681.504	6.25
681.828	6.52
682.152	6.23
682.475	6.64
682.799	6.35
683.122	6.05
683.446	6.43
683.769	6.11
684.093	6.3
684.416	6.21
684.739	6.21
685.062	6.34
685.386	5.53
685.709	6.2
686.032	5.87
686.355	5.93
686.678	6.39
687.001	6.73
687.324	6.69
687.646	6.4
687.969	6.85
688.292	6.38
688.614	6.67
688.937	6.17
689.26	6.29
689.582	6.64
689.904	6.85
690.227	6.59
690.549	6.47
690.871	6.02
691.194	6.83
691.516	6.4
691.838	6.58
692.16	6.21
692.482	7.05
692.804	6.22
