Data from 0215_crown_Reflection__0__210.txt Node

Date: Fri Sep 22 22:32:14 CDT 2023
User: ToomeyLab
Spectrometer: FLMS14357
Trigger mode: 0
Integration Time (sec): 1.000000E-2
Scans to average: 100
Electric dark correction enabled: true
Nonlinearity correction enabled: false
Boxcar width: 0
XAxis mode: Wavelengths
Number of Pixels in Spectrum: 2048
>>>>>Begin Spectral Data<<<<<
189.047	-641.37
189.435	-641.37
189.823	-641.37
190.211	121.11
190.599	55.57
190.987	-54.69
191.375	102.28
191.763	62.91
192.151	52.97
192.538	-8.51
192.926	39.74
193.314	83.69
193.702	194.63
194.089	61.92
194.477	-86.93
194.864	-5477.91
195.252	25.72
195.639	-13.36
196.027	61.06
196.414	7.49
196.801	-367.33
197.189	91.99
197.576	90.33
197.963	-168.2
198.351	10.68
198.738	48.8
199.125	32.93
199.512	18.47
199.899	43.64
200.286	10
200.673	8.35
201.06	30.98
201.447	26.41
201.833	-72.44
202.22	46.42
202.607	47.11
202.994	44.51
203.38	43.16
203.767	-14.76
204.154	39.9
204.54	20.82
204.927	-0.37
205.313	-20.84
205.699	43.45
206.086	54.28
206.472	35.44
206.858	46.62
207.245	-14.85
207.631	31.38
208.017	20.1
208.403	-19.64
208.789	29.77
209.175	10.27
209.561	30.58
209.947	18.16
210.333	55.98
210.719	-12.6
211.105	39.97
211.491	25.28
211.876	55.79
212.262	13.98
212.648	1.18
213.034	7.1
213.419	41.56
213.805	28.46
214.19	2.78
214.576	30.9
214.961	-4.55
215.346	26.35
215.732	31.48
216.117	-32.19
216.502	33.7
216.888	19.87
217.273	-1.5
217.658	-32.74
218.043	14.85
218.428	29.3
218.813	18.28
219.198	-5.42
219.583	17.92
219.968	-11.62
220.353	29.05
220.738	10.73
221.122	4.69
221.507	14.64
221.892	7.4
222.276	18.49
222.661	-6.1
223.046	10.89
223.43	28.97
223.815	2.96
224.199	-13
224.583	13.03
224.968	14.13
225.352	12.11
225.736	1.58
226.121	10.18
226.505	7.44
226.889	12.47
227.273	3.37
227.657	4.03
228.041	-0.45
228.425	5.06
228.809	5.11
229.193	7.64
229.577	3.58
229.961	3.24
230.344	4.83
230.728	2.17
231.112	3.77
231.495	2.56
231.879	3.36
232.263	3.29
232.646	2.28
233.03	3.54
233.413	3.86
233.797	3.01
234.18	2.66
234.563	4.03
234.946	3.82
235.33	-0.06
235.713	1.24
236.096	2.55
236.479	1.44
236.862	5.58
237.245	1.7
237.628	4.69
238.011	3.54
238.394	2.59
238.777	5.21
239.16	3.27
239.543	5.77
239.925	2.54
240.308	3.56
240.691	1.31
241.073	5.08
241.456	3.85
241.838	3
242.221	2.02
242.603	1.75
242.986	2.7
243.368	2.11
243.75	2.47
244.133	2.8
244.515	2.55
244.897	2.02
245.279	1.97
245.661	2
246.043	2.56
246.425	2.52
246.807	2.32
247.189	1.35
247.571	2.46
247.953	2.3
248.335	2.85
248.717	2.47
249.098	2.66
249.48	2.1
249.862	2.09
250.243	2.58
250.625	2.4
251.006	1.91
251.388	2.35
251.769	3.06
252.151	1.75
252.532	2.12
252.913	3.38
253.295	3.51
253.676	1.98
254.057	1.91
254.438	2.84
254.819	2.01
255.2	2.22
255.581	1.9
255.962	2.73
256.343	1.4
256.724	1.37
257.105	2.54
257.486	2.18
257.867	2.2
258.247	3.15
258.628	3.14
259.009	2.45
259.389	1.81
259.77	2.67
260.15	2.54
260.531	2.09
260.911	2.34
261.292	2.42
261.672	1.76
262.052	2.31
262.432	2.37
262.813	2.26
263.193	1.88
263.573	3.2
263.953	2.1
264.333	2.11
264.713	2.2
265.093	2.25
265.473	1.85
265.853	1.77
266.233	2.17
266.612	2.05
266.992	2.37
267.372	2
267.752	2.7
268.131	2.37
268.511	2.1
268.89	2.45
269.27	2.41
269.649	1.93
270.029	2.4
270.408	2.69
270.787	2.5
271.167	2.45
271.546	2.52
271.925	2.05
272.304	1.92
272.683	2.4
273.062	2.68
273.441	2.8
273.82	2.59
274.199	2.54
274.578	2.53
274.957	2.29
275.336	2.33
275.715	2.34
276.093	1.92
276.472	1.85
276.851	2.78
277.229	2.43
277.608	2.94
277.986	1.82
278.365	2.67
278.743	2.08
279.122	2.45
279.5	2.39
279.878	1.91
280.257	2.98
280.635	2.54
281.013	2.28
281.391	1.5
281.769	1.53
282.147	2.22
282.525	1.58
282.903	2.37
283.281	2.48
283.659	2.31
284.037	1.66
284.415	2.12
284.792	1.76
285.17	2.59
285.548	2.48
285.925	2.33
286.303	1.85
286.68	1.7
287.058	1.8
287.435	2.1
287.813	1.8
288.19	1.65
288.567	2.27
288.945	2
289.322	2.06
289.699	1.86
290.076	1.88
290.453	2
290.83	1.96
291.207	1.9
291.584	1.2
291.961	1.55
292.338	1.94
292.715	2.52
293.092	2
293.469	2.13
293.845	1.78
294.222	1.75
294.599	2.29
294.975	2.49
295.352	2.25
295.728	2.58
296.105	2.27
296.481	2.32
296.858	1.9
297.234	1.91
297.61	1.78
297.986	2.49
298.363	1.88
298.739	1.8
299.115	2
299.491	2.1
299.867	2
300.243	1.8
300.619	1.76
300.995	1.9
301.371	2.1
301.746	2
302.122	1.88
302.498	1.58
302.874	1.65
303.249	2.32
303.625	1.42
304	2.08
304.376	1.88
304.751	2.47
305.127	1.82
305.502	2.32
305.878	1.94
306.253	1.84
306.628	2.02
307.003	2.42
307.378	1.88
307.754	1.9
308.129	2.36
308.504	2.25
308.879	1.75
309.254	2.55
309.629	1.65
310.003	2.76
310.378	2.24
310.753	2.23
311.128	2.06
311.502	1.93
311.877	1.88
312.252	2.01
312.626	2.18
313.001	2.17
313.375	2.19
313.75	2.41
314.124	2.7
314.498	1.7
314.873	2.03
315.247	2.28
315.621	2.33
315.995	1.93
316.369	2.23
316.743	2.14
317.117	2.45
317.491	2.67
317.865	1.97
318.239	1.86
318.613	2.33
318.987	2.42
319.361	2.13
319.734	1.77
320.108	2.31
320.482	2.22
320.855	2.02
321.229	2.5
321.602	1.69
321.976	1.52
322.349	1.96
322.723	2.23
323.096	2.09
323.469	2.27
323.843	1.91
324.216	1.86
324.589	1.99
324.962	1.59
325.335	1.65
325.708	1.7
326.081	2.23
326.454	1.79
326.827	2.11
327.2	1.81
327.573	2.34
327.945	2.6
328.318	2.25
328.691	2.37
329.063	2.18
329.436	2.44
329.809	2.21
330.181	2.08
330.553	1.97
330.926	2.13
331.298	2.37
331.671	2.24
332.043	1.43
332.415	2.02
332.787	2.29
333.159	2.3
333.532	1.44
333.904	1.69
334.276	1.82
334.648	1.75
335.02	1.87
335.391	1.62
335.763	2.18
336.135	1.56
336.507	2.29
336.879	1.8
337.25	2.5
337.622	2.42
337.993	2.08
338.365	2.43
338.736	2.48
339.108	2.38
339.479	2.17
339.851	1.85
340.222	2.11
340.593	2
340.964	1.72
341.336	1.96
341.707	2.09
342.078	2.14
342.449	2.36
342.82	2.12
343.191	1.42
343.562	2.38
343.933	2.3
344.303	2.12
344.674	2.31
345.045	2.26
345.416	2.42
345.786	1.72
346.157	2.03
346.527	1.83
346.898	1.95
347.268	1.72
347.639	1.79
348.009	1.94
348.38	1.96
348.75	1.98
349.12	1.94
349.49	2.27
349.861	2.22
350.231	2.37
350.601	2.22
350.971	2.02
351.341	2.04
351.711	1.79
352.081	2.1
352.45	1.9
352.82	1.99
353.19	1.98
353.56	1.99
353.929	2.01
354.299	2.51
354.669	1.91
355.038	1.9
355.408	2.09
355.777	2.28
356.147	2.01
356.516	2.18
356.885	1.79
357.254	2.33
357.624	2.2
357.993	1.99
358.362	1.84
358.731	2.04
359.1	1.72
359.469	2.02
359.838	1.82
360.207	1.82
360.576	2.12
360.945	2.2
361.314	1.98
361.682	2.31
362.051	2.24
362.42	2.03
362.788	1.87
363.157	2.07
363.525	2.02
363.894	2.03
364.262	1.89
364.631	1.92
364.999	1.8
365.367	2.29
365.735	2.06
366.104	1.91
366.472	2.12
366.84	1.92
367.208	2.22
367.576	1.95
367.944	2.01
368.312	2.14
368.68	1.89
369.048	2
369.416	2.25
369.783	1.8
370.151	1.98
370.519	2.07
370.886	1.94
371.254	2.07
371.621	1.92
371.989	2.02
372.356	1.8
372.724	2.23
373.091	2.15
373.458	2.11
373.826	2.18
374.193	2.53
374.56	2.41
374.927	2.04
375.294	1.96
375.661	2.01
376.028	2.13
376.395	2.07
376.762	2.1
377.129	2.09
377.496	2.32
377.863	2.44
378.229	2.29
378.596	2.2
378.963	2.57
379.329	2.34
379.696	2.29
380.062	1.75
380.429	2.31
380.795	2.2
381.161	2.16
381.528	2.28
381.894	1.66
382.26	2.13
382.626	1.85
382.993	2.28
383.359	1.92
383.725	2.04
384.091	2.04
384.457	1.98
384.823	1.91
385.188	2.24
385.554	2.33
385.92	2.45
386.286	2.22
386.651	2.23
387.017	2.3
387.383	2.15
387.748	1.97
388.114	2.19
388.479	2.5
388.845	2.08
389.21	1.8
389.575	2.23
389.94	1.86
390.306	2.36
390.671	2.31
391.036	1.87
391.401	2.1
391.766	2.26
392.131	1.89
392.496	2.28
392.861	2.05
393.226	2.42
393.591	2.16
393.956	2.1
394.32	2.07
394.685	2.09
395.05	2.33
395.414	2.28
395.779	2.27
396.143	2.19
396.508	2.08
396.872	2.27
397.236	2.25
397.601	1.99
397.965	2.37
398.329	2.05
398.694	2.24
399.058	2.42
399.422	2.22
399.786	2.31
400.15	2.28
400.514	2.11
400.878	2.16
401.242	2.14
401.605	2.28
401.969	1.85
402.333	2.21
402.697	1.97
403.06	2.2
403.424	2.18
403.787	2.32
404.151	2.31
404.514	2.29
404.878	2.33
405.241	2.3
405.604	2.14
405.968	2.46
406.331	2.12
406.694	2.29
407.057	2.06
407.42	2.36
407.783	2.14
408.146	2.31
408.509	2.18
408.872	2.27
409.235	2.3
409.598	2.23
409.961	2.26
410.323	2.44
410.686	2.27
411.049	2.17
411.411	2.53
411.774	2.05
412.136	2.1
412.499	2.25
412.861	2.18
413.223	2.29
413.586	2.21
413.948	2.23
414.31	2.27
414.672	2.13
415.035	1.94
415.397	2.55
415.759	2.59
416.121	2.21
416.483	2.31
416.845	2.3
417.206	2.12
417.568	2.25
417.93	2.16
418.292	2.26
418.653	2.11
419.015	2.17
419.377	2.31
419.738	2.17
420.1	2.24
420.461	2.3
420.822	2.1
421.184	2.21
421.545	2.15
421.906	2.16
422.267	2.02
422.629	2.2
422.99	2.2
423.351	2.12
423.712	2.12
424.073	2.13
424.434	2.2
424.795	2.12
425.155	2.26
425.516	2.24
425.877	2.19
426.238	1.96
426.598	2.12
426.959	2.13
427.32	2.18
427.68	2.14
428.041	2.07
428.401	2.26
428.761	2.33
429.122	2.27
429.482	2.08
429.842	2.14
430.202	2.03
430.563	2.24
430.923	2.31
431.283	2.31
431.643	2.42
432.003	2.33
432.363	2.34
432.722	2.3
433.082	2.33
433.442	2.31
433.802	2.33
434.161	2.09
434.521	2.29
434.881	2.23
435.24	2.14
435.6	2.04
435.959	2.18
436.319	2.15
436.678	2.2
437.037	2.33
437.396	2.26
437.756	2.23
438.115	2.25
438.474	2.19
438.833	2.25
439.192	2.31
439.551	2.38
439.91	2.35
440.269	2.35
440.628	2.23
440.987	2.23
441.345	2.33
441.704	2.31
442.063	2.3
442.421	2.14
442.78	2.29
443.138	2.19
443.497	2.16
443.855	2.26
444.214	2.12
444.572	2.32
444.93	2.26
445.288	2.15
445.647	2.42
446.005	2.31
446.363	2.18
446.721	2.27
447.079	2.16
447.437	2.18
447.795	2.23
448.153	2.18
448.51	2.2
448.868	2.16
449.226	2.18
449.584	2.15
449.941	2.12
450.299	2.37
450.656	2.35
451.014	2.27
451.371	2.18
451.729	2.26
452.086	2.19
452.443	2.29
452.801	2.34
453.158	2.26
453.515	2.26
453.872	2.27
454.229	2.37
454.586	2.29
454.943	2.21
455.3	2.28
455.657	2.25
456.014	2.22
456.371	2.35
456.727	2.48
457.084	2.4
457.441	2.2
457.797	2.41
458.154	2.26
458.51	2.15
458.867	2.25
459.223	2.3
459.58	2.26
459.936	2.16
460.292	2.45
460.648	2.43
461.005	2.32
461.361	2.29
461.717	2.06
462.073	2.21
462.429	2.17
462.785	2.21
463.141	2.28
463.496	2.27
463.852	2.22
464.208	2.21
464.564	2.44
464.919	2.25
465.275	2.3
465.631	2.44
465.986	2.51
466.342	2.43
466.697	2.44
467.052	2.37
467.408	2.48
467.763	2.35
468.118	2.46
468.473	2.32
468.829	2.39
469.184	2.28
469.539	2.38
469.894	2.24
470.249	2.39
470.603	2.24
470.958	2.42
471.313	2.29
471.668	2.34
472.023	2.41
472.377	2.45
472.732	2.35
473.086	2.49
473.441	2.13
473.795	2.51
474.15	2.15
474.504	2.37
474.859	2.59
475.213	2.15
475.567	2.37
475.921	2.34
476.275	2.52
476.63	2.26
476.984	2.16
477.338	2.56
477.692	2.37
478.045	2.52
478.399	2.52
478.753	2.32
479.107	2.34
479.461	2.28
479.814	2.44
480.168	2.35
480.521	2.35
480.875	2.3
481.228	2.26
481.582	2.22
481.935	2.29
482.289	2.27
482.642	2.24
482.995	2.33
483.348	2.37
483.701	2.3
484.055	2.34
484.408	2.27
484.761	2.29
485.114	2.2
485.466	2.15
485.819	2.11
486.172	2.14
486.525	2.13
486.878	2.16
487.23	2.19
487.583	2.28
487.936	2.23
488.288	2.3
488.641	2.18
488.993	2.22
489.345	2.24
489.698	2.2
490.05	2.21
490.402	2.23
490.754	2.16
491.107	2.19
491.459	2.29
491.811	2.2
492.163	2.24
492.515	2.29
492.866	2.28
493.218	2.29
493.57	2.27
493.922	2.16
494.274	2.2
494.625	2.25
494.977	2.35
495.328	2.39
495.68	2.34
496.031	2.35
496.383	2.43
496.734	2.35
497.086	2.32
497.437	2.42
497.788	2.45
498.139	2.37
498.49	2.49
498.842	2.3
499.193	2.22
499.544	2.44
499.894	2.42
500.245	2.43
500.596	2.43
500.947	2.36
501.298	2.46
501.648	2.39
501.999	2.4
502.35	2.39
502.7	2.37
503.051	2.44
503.401	2.43
503.752	2.45
504.102	2.37
504.452	2.4
504.803	2.43
505.153	2.44
505.503	2.3
505.853	2.51
506.203	2.28
506.553	2.41
506.903	2.41
507.253	2.38
507.603	2.35
507.953	2.45
508.303	2.42
508.652	2.34
509.002	2.46
509.352	2.45
509.701	2.4
510.051	2.44
510.4	2.4
510.75	2.28
511.099	2.26
511.449	2.35
511.798	2.38
512.147	2.38
512.496	2.27
512.846	2.36
513.195	2.37
513.544	2.35
513.893	2.42
514.242	2.42
514.591	2.38
514.939	2.41
515.288	2.37
515.637	2.43
515.986	2.4
516.334	2.27
516.683	2.44
517.032	2.47
517.38	2.45
517.729	2.41
518.077	2.38
518.426	2.34
518.774	2.48
519.122	2.45
519.47	2.24
519.819	2.34
520.167	2.44
520.515	2.39
520.863	2.28
521.211	2.33
521.559	2.41
521.907	2.42
522.255	2.43
522.602	2.45
522.95	2.32
523.298	2.5
523.645	2.45
523.993	2.34
524.341	2.29
524.688	2.36
525.036	2.34
525.383	2.56
525.73	2.39
526.078	2.39
526.425	2.41
526.772	2.52
527.119	2.41
527.466	2.28
527.814	2.37
528.161	2.3
528.508	2.34
528.854	2.32
529.201	2.37
529.548	2.38
529.895	2.33
530.242	2.28
530.588	2.26
530.935	2.2
531.282	2.19
531.628	2.29
531.975	2.25
532.321	2.3
532.667	2.41
533.014	2.34
533.36	2.38
533.706	2.42
534.052	2.41
534.399	2.44
534.745	2.42
535.091	2.31
535.437	2.25
535.783	2.27
536.129	2.37
536.474	2.39
536.82	2.31
537.166	2.43
537.512	2.49
537.857	2.39
538.203	2.5
538.549	2.36
538.894	2.31
539.239	2.31
539.585	2.39
539.93	2.47
540.276	2.44
540.621	2.51
540.966	2.41
541.311	2.47
541.656	2.4
542.001	2.53
542.346	2.41
542.691	2.36
543.036	2.36
543.381	2.33
543.726	2.33
544.071	2.31
544.415	2.3
544.76	2.33
545.105	2.24
545.449	2.29
545.794	2.45
546.138	2.42
546.483	2.5
546.827	2.36
547.171	2.34
547.516	2.49
547.86	2.47
548.204	2.5
548.548	2.3
548.892	2.55
549.236	2.33
549.58	2.44
549.924	2.52
550.268	2.65
550.612	2.34
550.956	2.52
551.3	2.48
551.643	2.57
551.987	2.43
552.33	2.51
552.674	2.51
553.017	2.5
553.361	2.43
553.704	2.48
554.048	2.51
554.391	2.48
554.734	2.54
555.077	2.55
555.42	2.48
555.764	2.42
556.107	2.44
556.45	2.48
556.793	2.43
557.135	2.45
557.478	2.47
557.821	2.63
558.164	2.54
558.507	2.71
558.849	2.4
559.192	2.54
559.534	2.55
559.877	2.54
560.219	2.5
560.562	2.5
560.904	2.4
561.246	2.58
561.589	2.59
561.931	2.54
562.273	2.39
562.615	2.45
562.957	2.27
563.299	2.51
563.641	2.67
563.983	2.57
564.325	2.65
564.667	2.64
565.008	2.57
565.35	2.62
565.692	2.63
566.033	2.53
566.375	2.44
566.716	2.43
567.058	2.53
567.399	2.53
567.741	2.61
568.082	2.47
568.423	2.45
568.764	2.78
569.105	2.37
569.447	2.51
569.788	2.42
570.129	2.49
570.47	2.53
570.811	2.37
571.151	2.7
571.492	2.47
571.833	2.48
572.174	2.51
572.514	2.64
572.855	2.48
573.195	2.59
573.536	2.49
573.876	2.47
574.217	2.37
574.557	2.49
574.898	2.6
575.238	2.45
575.578	2.58
575.918	2.53
576.258	2.43
576.598	2.61
576.938	2.5
577.278	2.58
577.618	2.35
577.958	2.5
578.298	2.62
578.638	2.46
578.977	2.58
579.317	2.66
579.657	2.57
579.996	2.65
580.336	2.56
580.675	2.76
581.014	2.49
581.354	2.49
581.693	2.45
582.032	2.54
582.372	2.69
582.711	2.64
583.05	2.59
583.389	2.47
583.728	2.51
584.067	2.79
584.406	2.6
584.745	2.41
585.083	2.77
585.422	2.87
585.761	2.37
586.1	2.73
586.438	2.46
586.777	2.57
587.115	2.52
587.454	2.21
587.792	2.78
588.13	2.65
588.469	2.52
588.807	2.59
589.145	2.65
589.483	2.57
589.821	2.7
590.159	2.15
590.497	2.96
590.835	2.77
591.173	2.52
591.511	2.54
591.849	2.9
592.187	2.63
592.524	2.44
592.862	2.7
593.2	2.43
593.537	2.53
593.875	2.35
594.212	2.58
594.55	2.85
594.887	2.48
595.224	2.64
595.561	2.91
595.899	2.73
596.236	2.9
596.573	2.73
596.91	2.63
597.247	2.7
597.584	2.77
597.921	2.85
598.258	2.55
598.594	2.77
598.931	2.47
599.268	2.56
599.604	2.69
599.941	2.61
600.277	2.5
600.614	2.73
600.95	2.58
601.287	2.53
601.623	2.53
601.959	2.74
602.296	2.78
602.632	2.41
602.968	2.78
603.304	2.88
603.64	2.4
603.976	2.55
604.312	2.66
604.648	2.4
604.984	2.83
605.319	2.71
605.655	2.5
605.991	2.56
606.326	2.66
606.662	2.42
606.998	2.56
607.333	2.65
607.668	2.54
608.004	2.92
608.339	2.56
608.674	2.66
609.01	2.56
609.345	2.66
609.68	2.91
610.015	2.73
610.35	2.52
610.685	2.82
611.02	2.63
611.355	2.72
611.689	2.75
612.024	2.82
612.359	2.57
612.694	2.55
613.028	2.66
613.363	2.66
613.697	2.85
614.032	2.5
614.366	2.61
614.7	2.66
615.035	2.71
615.369	2.63
615.703	2.86
616.037	2.74
616.371	2.64
616.705	2.96
617.039	2.74
617.373	2.78
617.707	2.43
618.041	2.74
618.375	2.64
618.709	2.3
619.042	2.81
619.376	2.78
619.71	3.02
620.043	2.24
620.377	2.54
620.71	2.74
621.043	3.11
621.377	2.74
621.71	2.63
622.043	2.64
622.376	2.78
622.709	2.66
623.043	2.57
623.376	2.95
623.709	2.65
624.041	2.8
624.374	2.99
624.707	2.9
625.04	2.87
625.373	2.28
625.705	2.63
626.038	2.41
626.37	2.86
626.703	2.77
627.035	2.64
627.368	2.54
627.7	2.68
628.032	2.73
628.365	2.9
628.697	2.84
629.029	2.94
629.361	2.55
629.693	2.59
630.025	2.57
630.357	2.61
630.689	2.66
631.021	2.74
631.353	2.7
631.684	2.54
632.016	2.59
632.348	2.8
632.679	2.51
633.011	2.83
633.342	2.6
633.674	2.97
634.005	2.43
634.336	2.8
634.668	2.97
634.999	2.92
635.33	2.87
635.661	2.76
635.992	2.75
636.323	2.56
636.654	2.75
636.985	2.46
637.316	2.61
637.647	2.68
637.977	2.27
638.308	3.05
638.639	2.39
638.969	3.05
639.3	2.92
639.63	3.03
639.961	2.75
640.291	2.8
640.622	2.74
640.952	2.85
641.282	2.91
641.612	2.46
641.943	3.06
642.273	2.88
642.603	2.77
642.933	2.92
643.263	2.05
643.592	2.37
643.922	2.85
644.252	3.02
644.582	2.95
644.911	2.38
645.241	3.06
645.571	2.68
645.9	2.69
646.23	2.98
646.559	2.87
646.888	3.39
647.218	2.56
647.547	2.47
647.876	2.47
648.205	2.44
648.534	2.99
648.863	2.8
649.192	2.55
649.521	3.04
649.85	2.96
650.179	2.86
650.508	2.54
650.837	2.96
651.165	2.95
651.494	2.69
651.822	2.62
652.151	2.25
652.479	3.12
652.808	2.94
653.136	2.94
653.465	3.03
653.793	2.48
654.121	3.07
654.449	2.6
654.777	2.69
655.105	3.24
655.433	2.87
655.761	3.38
656.089	2.61
656.417	2.73
656.745	3.07
657.073	2.64
657.4	3.22
657.728	3.02
658.056	2.67
658.383	2.71
658.711	2.68
659.038	2.7
659.365	2.98
659.693	2.45
660.02	3.32
660.347	2.83
660.674	2.27
661.001	2.8
661.329	2.98
661.656	2.78
661.982	2.51
662.309	3.25
662.636	3.02
662.963	2.85
663.29	3.11
663.616	2.7
663.943	2.93
664.27	3.1
664.596	2.73
664.923	2.73
665.249	2.74
665.576	2.76
665.902	3.14
666.228	2.54
666.554	2.2
666.881	2.89
667.207	3.03
667.533	3.43
667.859	2.76
668.185	2.91
668.511	3.27
668.837	2.64
669.162	2.89
669.488	3.27
669.814	2.92
670.139	2.96
670.465	3.24
670.791	2.81
671.116	2.79
671.442	3.29
671.767	2.75
672.092	2.88
672.418	3.1
672.743	3.1
673.068	3.17
673.393	2.72
673.718	3.23
674.043	3.42
674.368	3.27
674.693	2.39
675.018	2.94
675.343	3.14
675.667	3.42
675.992	2.7
676.317	3.04
676.641	2.88
676.966	2.88
677.29	2.54
677.615	3.16
677.939	3.24
678.264	3.05
678.588	3.21
678.912	3.28
679.236	3.2
679.56	3.2
679.885	2.74
680.209	3.64
680.532	2.61
680.856	3.28
681.18	3.49
681.504	3.05
681.828	3.56
682.152	2.73
682.475	3.39
682.799	2.95
683.122	2.67
683.446	2.69
683.769	2.95
684.093	3.46
684.416	3.12
684.739	3.06
685.062	3.11
685.386	3.13
685.709	3.4
686.032	2.62
686.355	3.13
686.678	3.02
687.001	3.29
687.324	3.24
687.646	3.32
687.969	2.97
688.292	2.7
688.614	3.52
688.937	3.58
689.26	2.51
689.582	3.62
689.904	3.12
690.227	3.53
690.549	3.46
690.871	2.72
691.194	3.76
691.516	3.27
691.838	3.08
692.16	2.33
692.482	3.02
692.804	2.95
693.126	2.89
693.448	3.7
