Data from 0215_crown_Reflection__1__211.txt Node

Date: Fri Sep 22 22:32:24 CDT 2023
User: ToomeyLab
Spectrometer: FLMS14357
Trigger mode: 0
Integration Time (sec): 1.000000E-2
Scans to average: 100
Electric dark correction enabled: true
Nonlinearity correction enabled: false
Boxcar width: 0
XAxis mode: Wavelengths
Number of Pixels in Spectrum: 2048
>>>>>Begin Spectral Data<<<<<
189.047	634.53
189.435	634.53
189.823	634.53
190.211	68
190.599	81.02
190.987	-159.56
191.375	178.56
191.763	-151.48
192.151	79.82
192.538	191.33
192.926	43.16
193.314	124.02
193.702	397.89
194.089	94.41
194.477	-97.19
194.864	-4274.42
195.252	-19.34
195.639	17.03
196.027	148.19
196.414	-36.5
196.801	514.67
197.189	-23.5
197.576	454.55
197.963	-95.65
198.351	23.35
198.738	9.02
199.125	14.53
199.512	-26.95
199.899	57.31
200.286	46.04
200.673	-15.31
201.06	-14.23
201.447	35.69
201.833	8.67
202.22	17.71
202.607	52.47
202.994	34.44
203.38	3.71
203.767	-7.98
204.154	30.69
204.54	54.79
204.927	2.57
205.313	15.57
205.699	69.33
206.086	48.4
206.472	44.63
206.858	58.86
207.245	19.04
207.631	51.67
208.017	73.44
208.403	28.59
208.789	42.91
209.175	35.9
209.561	46.15
209.947	49.5
210.333	4.69
210.719	-10.23
211.105	74.12
211.491	22.88
211.876	35.78
212.262	15.12
212.648	21.83
213.034	47.26
213.419	-0.15
213.805	-8.18
214.19	23.94
214.576	52.68
214.961	45.05
215.346	-20.29
215.732	25.52
216.117	11.98
216.502	38.58
216.888	1.59
217.273	29.39
217.658	16.92
218.043	12.35
218.428	23.34
218.813	-10.05
219.198	22.88
219.583	20.12
219.968	6.95
220.353	37.96
220.738	10.05
221.122	15.9
221.507	9.74
221.892	9.6
222.276	27.96
222.661	-15.23
223.046	19.28
223.43	14.49
223.815	9.79
224.199	-9.9
224.583	10.84
224.968	21.43
225.352	9.88
225.736	7.93
226.121	13.5
226.505	16.91
226.889	11.76
227.273	8.57
227.657	6.61
228.041	8.74
228.425	7.32
228.809	8.46
229.193	6.78
229.577	8.03
229.961	9.03
230.344	8.65
230.728	6.45
231.112	7.61
231.495	7.31
231.879	7.21
232.263	7.7
232.646	6.44
233.03	6.47
233.413	8.46
233.797	7.99
234.18	8.8
234.563	10.6
234.946	9.43
235.33	5.15
235.713	7
236.096	6.18
236.479	8.05
236.862	9.11
237.245	5.52
237.628	6.71
238.011	8.5
238.394	6.9
238.777	8.54
239.16	8.38
239.543	8.88
239.925	8.88
240.308	7
240.691	7.39
241.073	7.53
241.456	7.37
241.838	6.46
242.221	6.65
242.603	7.75
242.986	6.1
243.368	7.7
243.75	7.42
244.133	6.95
244.515	6.96
244.897	6.62
245.279	6.55
245.661	6.64
246.043	6.92
246.425	6.46
246.807	7.41
247.189	6.1
247.571	7.01
247.953	7.46
248.335	6.74
248.717	6.65
249.098	6.5
249.48	6.54
249.862	6.51
250.243	6.35
250.625	6.36
251.006	6.08
251.388	6.27
251.769	6.95
252.151	7.47
252.532	7.22
252.913	6.51
253.295	8.13
253.676	6.4
254.057	6.62
254.438	6.93
254.819	6.31
255.2	6.65
255.581	6.94
255.962	7.81
256.343	5.41
256.724	6.88
257.105	6.96
257.486	6.8
257.867	7.38
258.247	5.42
258.628	6.68
259.009	5.82
259.389	5.67
259.77	6.84
260.15	7.41
260.531	5.6
260.911	6.6
261.292	5.92
261.672	5.8
262.052	6.12
262.432	6.09
262.813	6.15
263.193	5.86
263.573	6.55
263.953	6.27
264.333	5.88
264.713	6.26
265.093	5.54
265.473	6.15
265.853	6.14
266.233	6.97
266.612	5.74
266.992	6.87
267.372	6.62
267.752	6.68
268.131	5.93
268.511	5.57
268.89	5.96
269.27	5.87
269.649	6.39
270.029	5.75
270.408	6.2
270.787	5.97
271.167	5.78
271.546	5.5
271.925	6.05
272.304	5.79
272.683	6.24
273.062	6.09
273.441	5.99
273.82	6.03
274.199	6.12
274.578	6.22
274.957	5.36
275.336	5.97
275.715	6.22
276.093	5.56
276.472	5.93
276.851	5.56
277.229	5.08
277.608	6.34
277.986	6.02
278.365	6.25
278.743	6.4
279.122	5.97
279.5	6.17
279.878	5.75
280.257	6.38
280.635	6.04
281.013	6.41
281.391	5.46
281.769	5.91
282.147	5.63
282.525	6.08
282.903	6.21
283.281	5.46
283.659	5.86
284.037	5.3
284.415	5.86
284.792	5.47
285.17	5.34
285.548	5.98
285.925	5.63
286.303	5.35
286.68	5.71
287.058	5.46
287.435	5.75
287.813	5.79
288.19	5.18
288.567	5.66
288.945	5.38
289.322	5.92
289.699	5.68
290.076	5.54
290.453	5.13
290.83	4.89
291.207	5.69
291.584	5.3
291.961	5.47
292.338	5.67
292.715	5.93
293.092	5.24
293.469	5.67
293.845	5.22
294.222	5.8
294.599	5.34
294.975	6.01
295.352	5.53
295.728	5.43
296.105	5.42
296.481	5.15
296.858	5.44
297.234	5.21
297.61	5.22
297.986	5.42
298.363	5.23
298.739	5.35
299.115	5.32
299.491	5.45
299.867	5.32
300.243	5.14
300.619	5.32
300.995	5.16
301.371	5.27
301.746	5.36
302.122	5.39
302.498	5.33
302.874	4.98
303.249	5.37
303.625	4.76
304	5.91
304.376	5.36
304.751	5.02
305.127	5.11
305.502	5.56
305.878	5.19
306.253	5.51
306.628	5.32
307.003	5.19
307.378	5.42
307.754	4.39
308.129	4.96
308.504	4.61
308.879	4.72
309.254	5.1
309.629	5.58
310.003	5.34
310.378	5.47
310.753	4.92
311.128	5.29
311.502	5.37
311.877	4.78
312.252	5
312.626	5.16
313.001	5.34
313.375	5.24
313.75	5.32
314.124	5.36
314.498	4.4
314.873	5.2
315.247	4.99
315.621	5.16
315.995	5.21
316.369	4.55
316.743	5.17
317.117	5.14
317.491	5.4
317.865	5.2
318.239	5.08
318.613	5.09
318.987	4.87
319.361	4.99
319.734	4.42
320.108	5.15
320.482	4.51
320.855	4.8
321.229	5.43
321.602	5
321.976	4.66
322.349	5.25
322.723	5.03
323.096	4.87
323.469	4.6
323.843	4.97
324.216	5.75
324.589	5.25
324.962	4.54
325.335	5.22
325.708	4.58
326.081	4.79
326.454	4.35
326.827	5.06
327.2	4.88
327.573	5
327.945	4.9
328.318	4.81
328.691	4.98
329.063	4.74
329.436	5.31
329.809	5.34
330.181	5.35
330.553	5.15
330.926	5.12
331.298	4.87
331.671	5.14
332.043	4.29
332.415	5.06
332.787	4.86
333.159	4.4
333.532	4.83
333.904	4.58
334.276	4.7
334.648	4.2
335.02	4.78
335.391	4.99
335.763	5.04
336.135	5.22
336.507	4.3
336.879	4.4
337.25	4.56
337.622	4.56
337.993	4.95
338.365	5.14
338.736	4.67
339.108	5.25
339.479	4.3
339.851	4.43
340.222	4.48
340.593	4.69
340.964	4.71
341.336	4.69
341.707	4.99
342.078	5.13
342.449	4.57
342.82	4.38
343.191	4.81
343.562	4.48
343.933	4.89
344.303	4.8
344.674	5.01
345.045	4.92
345.416	4.39
345.786	4.47
346.157	4.7
346.527	4.7
346.898	4.52
347.268	4.53
347.639	4.81
348.009	4.67
348.38	4.95
348.75	4.72
349.12	4.66
349.49	5.06
349.861	4.25
350.231	4.92
350.601	5.09
350.971	5.12
351.341	4.64
351.711	4.7
352.081	4.76
352.45	4.93
352.82	5.21
353.19	4.99
353.56	4.85
353.929	4.74
354.299	5.05
354.669	4.5
355.038	4.57
355.408	5.25
355.777	5.37
356.147	4.65
356.516	4.98
356.885	5.02
357.254	5.2
357.624	4.47
357.993	5.05
358.362	4.88
358.731	4.61
359.1	4.52
359.469	4.82
359.838	4.58
360.207	4.4
360.576	4.63
360.945	4.8
361.314	4.72
361.682	5.22
362.051	5.1
362.42	4.81
362.788	4.88
363.157	5.13
363.525	4.76
363.894	4.84
364.262	4.71
364.631	4.67
364.999	4.65
365.367	5.03
365.735	4.66
366.104	4.64
366.472	5.28
366.84	4.76
367.208	5.27
367.576	4.96
367.944	4.83
368.312	4.89
368.68	5.1
369.048	4.94
369.416	5.18
369.783	4.98
370.151	4.71
370.519	4.83
370.886	4.99
371.254	4.91
371.621	5.03
371.989	4.87
372.356	4.9
372.724	5.23
373.091	5
373.458	4.88
373.826	5.16
374.193	5.21
374.56	4.86
374.927	5.15
375.294	4.86
375.661	4.89
376.028	5
376.395	5.27
376.762	4.95
377.129	4.84
377.496	5.17
377.863	5.32
378.229	5.14
378.596	4.89
378.963	5.22
379.329	5.18
379.696	5.18
380.062	4.77
380.429	5.13
380.795	4.78
381.161	4.91
381.528	4.78
381.894	4.61
382.26	5.1
382.626	5.49
382.993	5.44
383.359	4.89
383.725	4.96
384.091	4.86
384.457	4.71
384.823	4.85
385.188	5.09
385.554	5.38
385.92	5.31
386.286	5.2
386.651	5.07
387.017	5.1
387.383	5.05
387.748	5.18
388.114	4.97
388.479	5.22
388.845	4.87
389.21	5
389.575	5.35
389.94	4.81
390.306	5.28
390.671	5.48
391.036	4.98
391.401	5.01
391.766	4.92
392.131	5.1
392.496	5.19
392.861	4.71
393.226	5.15
393.591	5.18
393.956	5.08
394.32	5.02
394.685	5.18
395.05	5.25
395.414	5.2
395.779	5.19
396.143	5.1
396.508	5.06
396.872	5.05
397.236	5.19
397.601	5.14
397.965	5.44
398.329	5.27
398.694	5.26
399.058	5.48
399.422	5.19
399.786	5.32
400.15	5.45
400.514	5.4
400.878	5.11
401.242	5.32
401.605	4.93
401.969	4.79
402.333	5.31
402.697	5.1
403.06	5.19
403.424	4.98
403.787	5.19
404.151	5.3
404.514	5.4
404.878	5.48
405.241	5.4
405.604	5.23
405.968	5.35
406.331	5.25
406.694	5.38
407.057	5.16
407.42	5.28
407.783	5.4
408.146	5.09
408.509	5.15
408.872	5.06
409.235	5.31
409.598	5.19
409.961	5.36
410.323	5.48
410.686	5.31
411.049	5.42
411.411	5.34
411.774	5.36
412.136	5.32
412.499	5.2
412.861	5.37
413.223	5.39
413.586	5.24
413.948	5.43
414.31	5.16
414.672	5.22
415.035	5.37
415.397	5.43
415.759	5.58
416.121	5.28
416.483	5.21
416.845	5.28
417.206	5.55
417.568	5.24
417.93	5.27
418.292	5.54
418.653	5.2
419.015	5.27
419.377	5.07
419.738	5.55
420.1	5.19
420.461	5.2
420.822	5.15
421.184	5.25
421.545	5.22
421.906	5.15
422.267	5.18
422.629	5.22
422.99	5.11
423.351	5.27
423.712	5.09
424.073	5.1
424.434	5.25
424.795	5.27
425.155	5.26
425.516	5.19
425.877	5.17
426.238	5.14
426.598	5.23
426.959	5.26
427.32	5.23
427.68	5.18
428.041	5.15
428.401	5.2
428.761	5.32
429.122	5.28
429.482	5.4
429.842	5.14
430.202	5.41
430.563	5.55
430.923	5.31
431.283	5.52
431.643	5.31
432.003	5.49
432.363	5.48
432.722	5.43
433.082	5.48
433.442	5.21
433.802	5.53
434.161	5.42
434.521	5.46
434.881	5.42
435.24	5.34
435.6	5.28
435.959	5.23
436.319	5.15
436.678	5.42
437.037	5.47
437.396	5.44
437.756	5.4
438.115	5.63
438.474	5.38
438.833	5.35
439.192	5.35
439.551	5.34
439.91	5.57
440.269	5.37
440.628	5.23
440.987	5.33
441.345	5.53
441.704	5.46
442.063	5.45
442.421	5.32
442.78	5.39
443.138	5.4
443.497	5.25
443.855	5.43
444.214	5.18
444.572	5.48
444.93	5.39
445.288	5.45
445.647	5.52
446.005	5.3
446.363	5.15
446.721	5.56
447.079	5.33
447.437	5.45
447.795	5.5
448.153	5.32
448.51	5.28
448.868	5.29
449.226	5.35
449.584	5.28
449.941	5.26
450.299	5.48
450.656	5.44
451.014	5.39
451.371	5.46
451.729	5.46
452.086	5.53
452.443	5.46
452.801	5.42
453.158	5.37
453.515	5.51
453.872	5.43
454.229	5.47
454.586	5.54
454.943	5.43
455.3	5.37
455.657	5.53
456.014	5.47
456.371	5.63
456.727	5.69
457.084	5.53
457.441	5.41
457.797	5.59
458.154	5.45
458.51	5.31
458.867	5.45
459.223	5.61
459.58	5.64
459.936	5.56
460.292	5.4
460.648	5.57
461.005	5.39
461.361	5.62
461.717	5.27
462.073	5.38
462.429	5.27
462.785	5.34
463.141	5.45
463.496	5.57
463.852	5.5
464.208	5.42
464.564	5.47
464.919	5.56
465.275	5.76
465.631	5.69
465.986	5.53
466.342	5.47
466.697	5.64
467.052	5.53
467.408	5.57
467.763	5.52
468.118	5.56
468.473	5.38
468.829	5.41
469.184	5.54
469.539	5.66
469.894	5.62
470.249	5.6
470.603	5.45
470.958	5.53
471.313	5.59
471.668	5.64
472.023	5.71
472.377	5.61
472.732	5.58
473.086	5.83
473.441	5.36
473.795	5.73
474.15	5.48
474.504	5.57
474.859	5.54
475.213	5.49
475.567	5.56
475.921	5.64
476.275	5.46
476.63	5.66
476.984	5.63
477.338	5.78
477.692	5.6
478.045	5.67
478.399	5.63
478.753	5.71
479.107	5.66
479.461	5.58
479.814	5.65
480.168	5.68
480.521	5.63
480.875	5.64
481.228	5.65
481.582	5.48
481.935	5.53
482.289	5.53
482.642	5.5
482.995	5.58
483.348	5.61
483.701	5.51
484.055	5.5
484.408	5.5
484.761	5.52
485.114	5.37
485.466	5.37
485.819	5.28
486.172	5.25
486.525	5.25
486.878	5.22
487.23	5.31
487.583	5.35
487.936	5.37
488.288	5.48
488.641	5.35
488.993	5.4
489.345	5.39
489.698	5.29
490.05	5.28
490.402	5.34
490.754	5.32
491.107	5.31
491.459	5.42
491.811	5.41
492.163	5.42
492.515	5.5
492.866	5.5
493.218	5.5
493.57	5.47
493.922	5.33
494.274	5.35
494.625	5.37
494.977	5.46
495.328	5.57
495.68	5.58
496.031	5.48
496.383	5.56
496.734	5.68
497.086	5.58
497.437	5.69
497.788	5.64
498.139	5.58
498.49	5.68
498.842	5.51
499.193	5.63
499.544	5.59
499.894	5.59
500.245	5.6
500.596	5.62
500.947	5.67
501.298	5.63
501.648	5.55
501.999	5.71
502.35	5.65
502.7	5.76
503.051	5.76
503.401	5.59
503.752	5.82
504.102	5.66
504.452	5.69
504.803	5.64
505.153	5.71
505.503	5.66
505.853	5.82
506.203	5.56
506.553	5.74
506.903	5.57
507.253	5.55
507.603	5.61
507.953	5.69
508.303	5.63
508.652	5.71
509.002	5.82
509.352	5.68
509.701	5.74
510.051	5.55
510.4	5.61
510.75	5.66
511.099	5.55
511.449	5.71
511.798	5.66
512.147	5.66
512.496	5.56
512.846	5.62
513.195	5.57
513.544	5.7
513.893	5.73
514.242	5.57
514.591	5.66
514.939	5.67
515.288	5.61
515.637	5.69
515.986	5.64
516.334	5.62
516.683	5.63
517.032	5.84
517.38	5.75
517.729	5.75
518.077	5.72
518.426	5.65
518.774	5.73
519.122	5.58
519.47	5.63
519.819	5.58
520.167	5.68
520.515	5.62
520.863	5.47
521.211	5.53
521.559	5.67
521.907	5.65
522.255	5.69
522.602	5.69
522.95	5.67
523.298	5.69
523.645	5.76
523.993	5.72
524.341	5.82
524.688	5.76
525.036	5.77
525.383	5.65
525.73	5.9
526.078	5.7
526.425	5.67
526.772	5.74
527.119	5.72
527.466	5.5
527.814	5.52
528.161	5.48
528.508	5.64
528.854	5.65
529.201	5.62
529.548	5.54
529.895	5.54
530.242	5.54
530.588	5.43
530.935	5.4
531.282	5.43
531.628	5.45
531.975	5.44
532.321	5.43
532.667	5.56
533.014	5.6
533.36	5.67
533.706	5.57
534.052	5.64
534.399	5.76
534.745	5.64
535.091	5.56
535.437	5.51
535.783	5.41
536.129	5.55
536.474	5.58
536.82	5.48
537.166	5.62
537.512	5.58
537.857	5.59
538.203	5.7
538.549	5.63
538.894	5.6
539.239	5.65
539.585	5.59
539.93	5.76
540.276	5.67
540.621	5.65
540.966	5.8
541.311	5.76
541.656	5.76
542.001	5.76
542.346	5.76
542.691	5.61
543.036	5.59
543.381	5.54
543.726	5.54
544.071	5.52
544.415	5.56
544.76	5.46
545.105	5.43
545.449	5.53
545.794	5.65
546.138	5.56
546.483	5.66
546.827	5.57
547.171	5.63
547.516	5.74
547.86	5.63
548.204	5.73
548.548	5.72
548.892	5.75
549.236	5.61
549.58	5.71
549.924	5.78
550.268	5.73
550.612	5.64
550.956	5.69
551.3	5.7
551.643	5.79
551.987	5.77
552.33	5.8
552.674	5.88
553.017	5.7
553.361	5.81
553.704	5.89
554.048	5.79
554.391	5.79
554.734	5.85
555.077	5.81
555.42	5.69
555.764	5.74
556.107	5.71
556.45	5.76
556.793	5.77
557.135	5.76
557.478	5.72
557.821	5.88
558.164	5.98
558.507	5.88
558.849	5.69
559.192	5.87
559.534	5.92
559.877	5.85
560.219	5.9
560.562	5.88
560.904	5.88
561.246	5.89
561.589	5.81
561.931	5.89
562.273	5.72
562.615	5.68
562.957	5.8
563.299	5.9
563.641	5.86
563.983	5.77
564.325	5.96
564.667	5.82
565.008	5.74
565.35	5.85
565.692	5.87
566.033	5.85
566.375	5.79
566.716	5.81
567.058	5.88
567.399	5.92
567.741	6.01
568.082	5.74
568.423	5.78
568.764	5.94
569.105	5.67
569.447	5.79
569.788	5.68
570.129	5.89
570.47	5.84
570.811	5.68
571.151	5.96
571.492	5.73
571.833	5.75
572.174	5.92
572.514	5.87
572.855	5.77
573.195	5.79
573.536	5.76
573.876	5.6
574.217	5.72
574.557	5.81
574.898	5.87
575.238	5.69
575.578	5.89
575.918	5.75
576.258	5.66
576.598	5.77
576.938	5.7
577.278	5.73
577.618	5.6
577.958	5.74
578.298	5.74
578.638	5.71
578.977	5.88
579.317	5.95
579.657	5.63
579.996	5.87
580.336	5.88
580.675	5.83
581.014	5.77
581.354	5.85
581.693	6.06
582.032	5.76
582.372	5.78
582.711	5.7
583.05	6.03
583.389	5.68
583.728	5.8
584.067	5.8
584.406	5.98
584.745	5.47
585.083	6.02
585.422	5.97
585.761	5.84
586.1	5.75
586.438	5.78
586.777	6.09
587.115	5.86
587.454	5.71
587.792	5.82
588.13	6.12
588.469	6
588.807	6
589.145	6.04
589.483	5.87
589.821	5.9
590.159	5.71
590.497	6.13
590.835	5.82
591.173	5.67
591.511	5.96
591.849	5.8
592.187	5.73
592.524	5.73
592.862	5.75
593.2	5.62
593.537	5.75
593.875	5.86
594.212	5.76
594.55	6.23
594.887	5.71
595.224	5.79
595.561	5.96
595.899	5.98
596.236	6.15
596.573	6.13
596.91	5.96
597.247	5.8
597.584	5.97
597.921	6.04
598.258	5.89
598.594	5.92
598.931	5.79
599.268	5.61
599.604	5.89
599.941	5.81
600.277	5.66
600.614	5.61
600.95	5.78
601.287	5.71
601.623	5.79
601.959	5.79
602.296	5.78
602.632	5.73
602.968	5.93
603.304	5.67
603.64	5.74
603.976	6.02
604.312	5.84
604.648	5.62
604.984	5.8
605.319	5.8
605.655	5.8
605.991	5.72
606.326	5.78
606.662	5.66
606.998	5.82
607.333	5.9
607.668	5.75
608.004	5.93
608.339	5.75
608.674	5.85
609.01	5.77
609.345	5.65
609.68	6
610.015	5.79
610.35	5.86
610.685	5.91
611.02	5.83
611.355	5.94
611.689	5.81
612.024	6.04
612.359	5.73
612.694	5.96
613.028	5.74
613.363	5.72
613.697	5.72
614.032	5.97
614.366	5.79
614.7	5.77
615.035	5.87
615.369	5.53
615.703	5.82
616.037	5.98
616.371	5.94
616.705	5.81
617.039	5.63
617.373	5.79
617.707	5.57
618.041	5.93
618.375	5.76
618.709	5.65
619.042	6.06
619.376	5.73
619.71	5.72
620.043	5.84
620.377	5.6
620.71	5.49
621.043	6.05
621.377	5.65
621.71	5.93
622.043	5.89
622.376	6.14
622.709	5.92
623.043	5.79
623.376	5.94
623.709	5.78
624.041	5.86
624.374	5.9
624.707	5.71
625.04	5.92
625.373	5.32
625.705	5.78
626.038	5.79
626.37	5.77
626.703	5.56
627.035	5.99
627.368	5.84
627.7	6.2
628.032	6.17
628.365	6.03
628.697	6.1
629.029	5.74
629.361	5.65
629.693	5.96
630.025	5.89
630.357	5.64
630.689	5.94
631.021	5.71
631.353	5.65
631.684	5.62
632.016	5.74
632.348	5.79
632.679	5.62
633.011	5.59
633.342	5.95
633.674	6.08
634.005	5.63
634.336	6.15
634.668	5.79
634.999	6.01
635.33	5.85
635.661	6.01
635.992	5.81
636.323	5.62
636.654	5.57
636.985	5.29
637.316	5.83
637.647	5.78
637.977	5.32
638.308	6.09
638.639	5.55
638.969	5.97
639.3	5.78
639.63	6.02
639.961	5.75
640.291	5.46
640.622	5.78
640.952	5.99
641.282	5.87
641.612	5.6
641.943	6.2
642.273	5.9
642.603	5.39
642.933	5.67
643.263	5.52
643.592	5.9
643.922	5.85
644.252	5.44
644.582	6.48
644.911	5.99
645.241	6.03
645.571	5.64
645.9	6.17
646.23	5.94
646.559	5.57
646.888	5.82
647.218	5.79
647.547	5.65
647.876	5.58
648.205	5.54
648.534	5.92
648.863	5.67
649.192	5.62
649.521	5.83
649.85	5.95
650.179	5.84
650.508	5.59
650.837	6.01
651.165	5.68
651.494	6.02
651.822	5.72
652.151	5.82
652.479	5.97
652.808	5.69
653.136	6.07
653.465	5.66
653.793	5.6
654.121	5.81
654.449	5.33
654.777	5.83
655.105	5.87
655.433	5.67
655.761	6.59
656.089	5.65
656.417	5.82
656.745	5.89
657.073	6.06
657.4	6.54
657.728	6.09
658.056	5.7
658.383	6.12
658.711	5.59
659.038	5.89
659.365	5.65
659.693	5.59
660.02	5.81
660.347	5.53
660.674	5.25
661.001	5.26
661.329	5.93
661.656	5.7
661.982	5.6
662.309	5.95
662.636	5.71
662.963	5.84
663.29	6.12
663.616	5.51
663.943	5.77
664.27	5.88
664.596	5.97
664.923	6.01
665.249	6.09
665.576	5.35
665.902	5.95
666.228	5.76
666.554	5.75
666.881	6.4
667.207	5.68
667.533	6.22
667.859	5.93
668.185	6.06
668.511	6.28
668.837	5.24
669.162	5.84
669.488	5.7
669.814	5.85
670.139	6.27
670.465	6.51
670.791	6.07
671.116	5.84
671.442	6.36
671.767	5.36
672.092	6.18
672.418	6.04
672.743	5.45
673.068	5.73
673.393	5.88
673.718	5.72
674.043	6.44
674.368	6.19
674.693	6.53
675.018	5.54
675.343	5.52
675.667	6.25
675.992	5.53
676.317	6.25
676.641	6.46
676.966	6.3
677.29	5.73
677.615	5.62
677.939	6.04
678.264	6.39
678.588	6.19
678.912	5.87
679.236	6.33
679.56	6.19
679.885	5.91
680.209	6.6
680.532	6.39
680.856	5.41
681.18	6.23
681.504	6.35
681.828	5.87
682.152	6.03
682.475	6.72
682.799	6.9
683.122	5.71
683.446	6.04
683.769	5.79
684.093	6.18
684.416	6.15
684.739	5.98
685.062	6.67
685.386	6
685.709	5.96
686.032	5.58
686.355	5.85
686.678	6.59
687.001	6.73
687.324	6.03
687.646	6.02
687.969	6.85
688.292	6.22
688.614	6.54
688.937	6.13
689.26	5.92
689.582	6.2
689.904	5.43
690.227	6.55
690.549	6.26
690.871	5.78
691.194	6.04
691.516	6.17
691.838	5.94
692.16	5.78
692.482	5.8
692.804	5.44
