Data from 0215_chest_Reflection__2__207.txt Node

Date: Fri Sep 22 22:30:28 CDT 2023
User: ToomeyLab
Spectrometer: FLMS14357
Trigger mode: 0
Integration Time (sec): 1.000000E-2
Scans to average: 100
Electric dark correction enabled: true
Nonlinearity correction enabled: false
Boxcar width: 0
XAxis mode: Wavelengths
Number of Pixels in Spectrum: 2048
>>>>>Begin Spectral Data<<<<<
189.047	302.16
189.435	302.16
189.823	302.16
190.211	445.83
190.599	62.32
190.987	-271.76
191.375	-124.97
191.763	36.7
192.151	34.42
192.538	125.08
192.926	52.28
193.314	9.47
193.702	231.58
194.089	13.91
194.477	19.5
194.864	-4827.91
195.252	267.16
195.639	65.65
196.027	92.92
196.414	-71.26
196.801	1061.33
197.189	-8.84
197.576	196.74
197.963	-40.58
198.351	-52.46
198.738	20.49
199.125	-4.67
199.512	10.73
199.899	39.27
200.286	42.8
200.673	21.31
201.06	42.26
201.447	37.08
201.833	-10.22
202.22	16.91
202.607	48.21
202.994	53.95
203.38	8.24
203.767	-7.16
204.154	43.18
204.54	55.22
204.927	40.7
205.313	17.25
205.699	43.25
206.086	33.21
206.472	36.78
206.858	26.87
207.245	-53.65
207.631	33.46
208.017	7.17
208.403	24.87
208.789	22.64
209.175	42.38
209.561	63.34
209.947	8.62
210.333	46.65
210.719	16.25
211.105	47.69
211.491	28.4
211.876	40.46
212.262	18.29
212.648	5.75
213.034	57.82
213.419	19.73
213.805	-6.28
214.19	-9.8
214.576	3.02
214.961	-4.63
215.346	-0.8
215.732	22.18
216.117	-10.23
216.502	40.46
216.888	13.61
217.273	61.62
217.658	-5.15
218.043	5.97
218.428	36.34
218.813	-3.32
219.198	18.35
219.583	37.4
219.968	0.21
220.353	29
220.738	21.78
221.122	10.1
221.507	16.31
221.892	-4.98
222.276	14.89
222.661	-12.55
223.046	7.49
223.43	20.31
223.815	7.02
224.199	5.59
224.583	10.65
224.968	22.15
225.352	-4.13
225.736	8.56
226.121	6.42
226.505	9.57
226.889	12.04
227.273	9.48
227.657	5.83
228.041	3.05
228.425	6.95
228.809	5.18
229.193	6.68
229.577	3.11
229.961	8.11
230.344	5.39
230.728	3.31
231.112	5.28
231.495	3.47
231.879	4.02
232.263	2.61
232.646	3.46
233.03	3.59
233.413	3.95
233.797	3.38
234.18	3.73
234.563	5.44
234.946	3.44
235.33	2.95
235.713	2.24
236.096	3.56
236.479	4.02
236.862	5.25
237.245	3.04
237.628	3.17
238.011	5.72
238.394	3.43
238.777	4.66
239.16	5.55
239.543	4.42
239.925	3.56
240.308	4.65
240.691	5.19
241.073	4.71
241.456	4.61
241.838	4.82
242.221	5.4
242.603	4.27
242.986	4.22
243.368	3.03
243.75	4.42
244.133	4.54
244.515	4.04
244.897	3.31
245.279	3.73
245.661	3.42
246.043	4.09
246.425	3.04
246.807	3.65
247.189	1.51
247.571	3.4
247.953	3.11
248.335	3.36
248.717	3.7
249.098	3.65
249.48	3.49
249.862	3.48
250.243	3.35
250.625	4.1
251.006	2.88
251.388	3.62
251.769	4.37
252.151	3.5
252.532	4.14
252.913	4.44
253.295	5.22
253.676	2.97
254.057	3.95
254.438	4.32
254.819	3.13
255.2	3.51
255.581	4.12
255.962	3.18
256.343	3.89
256.724	2.5
257.105	3.76
257.486	3.59
257.867	3.13
258.247	4.06
258.628	3.63
259.009	3.96
259.389	3.33
259.77	3.8
260.15	3.63
260.531	3.77
260.911	3.35
261.292	3.28
261.672	3.07
262.052	3.34
262.432	3.29
262.813	3.49
263.193	3.39
263.573	3.59
263.953	3.68
264.333	3.38
264.713	3.65
265.093	3.02
265.473	3.45
265.853	3.05
266.233	3.4
266.612	3.67
266.992	3.54
267.372	2.98
267.752	4.39
268.131	3.43
268.511	3.03
268.89	3.48
269.27	3.22
269.649	3.14
270.029	3.55
270.408	3.47
270.787	3.4
271.167	3.93
271.546	3.36
271.925	3.18
272.304	2.73
272.683	3.26
273.062	3.77
273.441	3.36
273.82	3.49
274.199	3.67
274.578	3.75
274.957	3.07
275.336	3.1
275.715	3.27
276.093	3.74
276.472	2.99
276.851	3.53
277.229	2.44
277.608	3.29
277.986	3.05
278.365	3.41
278.743	3.07
279.122	3.25
279.5	3.73
279.878	2.76
280.257	3.49
280.635	3.03
281.013	3.74
281.391	3.31
281.769	3.69
282.147	2.92
282.525	3.11
282.903	3.7
283.281	3.31
283.659	3.43
284.037	3.01
284.415	3.3
284.792	3.1
285.17	3.12
285.548	3.73
285.925	3.38
286.303	3.13
286.68	3.3
287.058	2.86
287.435	3.2
287.813	3.21
288.19	3.05
288.567	3.42
288.945	3.12
289.322	2.96
289.699	3.23
290.076	3.02
290.453	3.04
290.83	2.45
291.207	3.13
291.584	2.82
291.961	2.96
292.338	2.95
292.715	3.26
293.092	3.18
293.469	3.22
293.845	3.39
294.222	3.44
294.599	3.23
294.975	3.37
295.352	3.31
295.728	2.91
296.105	3.56
296.481	2.89
296.858	3
297.234	3.15
297.61	3.86
297.986	2.87
298.363	3.05
298.739	3.05
299.115	3.23
299.491	3.1
299.867	3.35
300.243	3
300.619	3.07
300.995	2.77
301.371	3.37
301.746	3.09
302.122	2.86
302.498	2.9
302.874	2.92
303.249	3.18
303.625	2.15
304	3.58
304.376	3.5
304.751	2.82
305.127	2.73
305.502	3.1
305.878	2.96
306.253	3.47
306.628	3.04
307.003	3.05
307.378	3
307.754	3.05
308.129	2.79
308.504	2.69
308.879	3.16
309.254	3.26
309.629	2.98
310.003	3.81
310.378	3.46
310.753	3.21
311.128	3
311.502	3.09
311.877	2.64
312.252	2.6
312.626	3.34
313.001	3.12
313.375	3.27
313.75	3.34
314.124	3.23
314.498	2.99
314.873	2.89
315.247	2.81
315.621	2.87
315.995	3.35
316.369	3
316.743	3.21
317.117	3.28
317.491	3.35
317.865	2.79
318.239	3.4
318.613	3.28
318.987	2.9
319.361	2.99
319.734	2.86
320.108	3.2
320.482	2.91
320.855	3.31
321.229	3.44
321.602	3.17
321.976	3.08
322.349	2.75
322.723	3.27
323.096	3.17
323.469	3.28
323.843	3.21
324.216	3.32
324.589	4.25
324.962	2.5
325.335	2.82
325.708	2.79
326.081	3.29
326.454	2.56
326.827	3.22
327.2	2.94
327.573	2.99
327.945	3.01
328.318	3.15
328.691	2.66
329.063	3.04
329.436	3.26
329.809	2.9
330.181	3.07
330.553	3.17
330.926	2.94
331.298	3.13
331.671	3.55
332.043	2.19
332.415	2.8
332.787	3.66
333.159	2.84
333.532	2.94
333.904	3.02
334.276	2.96
334.648	2.23
335.02	2.99
335.391	3.18
335.763	3.23
336.135	3.39
336.507	3.15
336.879	3.14
337.25	2.74
337.622	3.38
337.993	3.13
338.365	3.24
338.736	2.89
339.108	3.34
339.479	3.06
339.851	2.52
340.222	2.98
340.593	2.61
340.964	2.61
341.336	3.1
341.707	2.55
342.078	3.31
342.449	2.89
342.82	2.94
343.191	2.92
343.562	2.75
343.933	2.99
344.303	3.03
344.674	2.82
345.045	2.83
345.416	3.33
345.786	2.58
346.157	3.09
346.527	3.14
346.898	2.91
347.268	2.84
347.639	3.14
348.009	2.82
348.38	3.05
348.75	3.09
349.12	2.76
349.49	3.16
349.861	3.12
350.231	3.33
350.601	2.95
350.971	3.2
351.341	2.67
351.711	2.73
352.081	3.08
352.45	2.81
352.82	3.4
353.19	3.19
353.56	2.71
353.929	2.88
354.299	3
354.669	2.7
355.038	2.7
355.408	2.8
355.777	3.3
356.147	3.01
356.516	3.09
356.885	2.89
357.254	3.29
357.624	2.76
357.993	2.85
358.362	2.69
358.731	2.88
359.1	2.84
359.469	2.85
359.838	2.8
360.207	2.86
360.576	3.12
360.945	2.83
361.314	2.82
361.682	3.27
362.051	3.35
362.42	2.95
362.788	3.07
363.157	3.26
363.525	2.95
363.894	2.89
364.262	2.93
364.631	2.85
364.999	2.79
365.367	3.39
365.735	2.86
366.104	3.03
366.472	3.02
366.84	2.93
367.208	3.38
367.576	3.08
367.944	3.09
368.312	3.05
368.68	3.13
369.048	2.95
369.416	3.06
369.783	2.77
370.151	2.82
370.519	3
370.886	2.95
371.254	3.45
371.621	2.76
371.989	2.96
372.356	2.77
372.724	3.2
373.091	3.3
373.458	2.78
373.826	2.86
374.193	3.16
374.56	3.16
374.927	3.3
375.294	3.08
375.661	2.96
376.028	3.26
376.395	3.32
376.762	2.69
377.129	3.03
377.496	3.5
377.863	3.45
378.229	3.11
378.596	2.95
378.963	3.33
379.329	3.22
379.696	3.26
380.062	2.94
380.429	3.16
380.795	3
381.161	2.68
381.528	3
381.894	2.74
382.26	2.9
382.626	3.05
382.993	3.02
383.359	2.83
383.725	3.01
384.091	3.05
384.457	2.78
384.823	2.71
385.188	3.07
385.554	2.99
385.92	3.3
386.286	3.11
386.651	3.12
387.017	3.04
387.383	2.92
387.748	2.98
388.114	3.03
388.479	2.95
388.845	3.13
389.21	3.06
389.575	3.38
389.94	2.93
390.306	2.99
390.671	3.54
391.036	2.81
391.401	2.87
391.766	2.89
392.131	2.93
392.496	3.07
392.861	2.95
393.226	3.14
393.591	3.43
393.956	3.21
394.32	3.11
394.685	2.76
395.05	3.08
395.414	3.16
395.779	2.87
396.143	3.27
396.508	3.15
396.872	3.17
397.236	3.05
397.601	2.99
397.965	3.31
398.329	3.26
398.694	3.07
399.058	2.97
399.422	3.19
399.786	3.38
400.15	3.21
400.514	3.22
400.878	2.94
401.242	3.2
401.605	2.83
401.969	2.78
402.333	3.17
402.697	3.07
403.06	3.1
403.424	3.14
403.787	3.2
404.151	3.02
404.514	3.19
404.878	3.14
405.241	3.42
405.604	3.09
405.968	3.31
406.331	3.09
406.694	3.14
407.057	2.94
407.42	3.22
407.783	3
408.146	3.12
408.509	3.08
408.872	3.13
409.235	3.02
409.598	3.13
409.961	3.26
410.323	3.23
410.686	2.95
411.049	3.29
411.411	3.33
411.774	3.22
412.136	3.06
412.499	2.92
412.861	3.09
413.223	3.06
413.586	3.16
413.948	3.01
414.31	3.02
414.672	3.28
415.035	2.99
415.397	3.29
415.759	3.55
416.121	2.94
416.483	2.95
416.845	2.96
417.206	3.06
417.568	3.16
417.93	3.09
418.292	3.16
418.653	2.94
419.015	3.23
419.377	2.91
419.738	3.26
420.1	3.02
420.461	3.15
420.822	3.16
421.184	3.06
421.545	2.96
421.906	3
422.267	3.03
422.629	3.07
422.99	2.98
423.351	2.92
423.712	2.95
424.073	2.94
424.434	2.96
424.795	3.05
425.155	3.17
425.516	3.07
425.877	3.04
426.238	2.98
426.598	3
426.959	3.03
427.32	3.07
427.68	2.95
428.041	2.95
428.401	3.14
428.761	3.17
429.122	3.09
429.482	3.04
429.842	3.2
430.202	3.1
430.563	3.16
430.923	3.32
431.283	3.19
431.643	3.17
432.003	3.33
432.363	3.2
432.722	3.29
433.082	3.12
433.442	3.15
433.802	3.2
434.161	3.18
434.521	2.98
434.881	3.25
435.24	3.07
435.6	3.16
435.959	3.13
436.319	3.12
436.678	3.13
437.037	3.03
437.396	3.05
437.756	3.01
438.115	3.19
438.474	3.08
438.833	3.17
439.192	3.13
439.551	3.07
439.91	3.47
440.269	3.06
440.628	2.94
440.987	3.02
441.345	3.23
441.704	3.17
442.063	3.04
442.421	3.1
442.78	3.1
443.138	3.09
443.497	3.04
443.855	3.09
444.214	3
444.572	3.28
444.93	3.22
445.288	3.05
445.647	3.31
446.005	3.09
446.363	3.03
446.721	3.25
447.079	3.08
447.437	3.14
447.795	3.14
448.153	3.13
448.51	3.15
448.868	3.01
449.226	3.08
449.584	3.07
449.941	3.08
450.299	3.13
450.656	3.19
451.014	3.21
451.371	3.12
451.729	3.13
452.086	3.1
452.443	3.24
452.801	3.19
453.158	3.19
453.515	3.31
453.872	3.24
454.229	3.26
454.586	3.24
454.943	3.08
455.3	3.21
455.657	3.12
456.014	3.25
456.371	3.23
456.727	3.31
457.084	3.21
457.441	3.21
457.797	3.21
458.154	3.32
458.51	3.15
458.867	3.18
459.223	3.14
459.58	3.47
459.936	3.3
460.292	3.23
460.648	3.36
461.005	3
461.361	3.2
461.717	3.12
462.073	3.05
462.429	3.03
462.785	3.13
463.141	3.04
463.496	3.24
463.852	3.28
464.208	3.25
464.564	3.25
464.919	3.18
465.275	3.43
465.631	3.33
465.986	3.37
466.342	3.17
466.697	3.38
467.052	3.05
467.408	3.24
467.763	3.11
468.118	3.34
468.473	3.22
468.829	3.22
469.184	3.22
469.539	3.39
469.894	3.21
470.249	3.29
470.603	3.03
470.958	3.3
471.313	3.27
471.668	3.43
472.023	3.35
472.377	3.27
472.732	3.27
473.086	3.5
473.441	3.03
473.795	3.48
474.15	3.17
474.504	3.25
474.859	3.33
475.213	3.08
475.567	3.06
475.921	3.13
476.275	3.24
476.63	3.19
476.984	3.18
477.338	3.31
477.692	3.27
478.045	3.57
478.399	3.51
478.753	3.24
479.107	3.27
479.461	3.32
479.814	3.3
480.168	3.28
480.521	3.3
480.875	3.29
481.228	3.13
481.582	3.17
481.935	3.26
482.289	3.26
482.642	3.18
482.995	3.18
483.348	3.25
483.701	3.33
484.055	3.25
484.408	3.13
484.761	3.25
485.114	3.08
485.466	3.08
485.819	3.04
486.172	3
486.525	3.03
486.878	3.02
487.23	3.08
487.583	3.12
487.936	3.14
488.288	3.22
488.641	3.15
488.993	3.19
489.345	3.09
489.698	3.08
490.05	3.11
490.402	3.11
490.754	3.05
491.107	3.07
491.459	3.19
491.811	3.18
492.163	3.16
492.515	3.22
492.866	3.24
493.218	3.31
493.57	3.19
493.922	3.09
494.274	3.1
494.625	3.15
494.977	3.23
495.328	3.3
495.68	3.33
496.031	3.35
496.383	3.26
496.734	3.38
497.086	3.3
497.437	3.49
497.788	3.35
498.139	3.39
498.49	3.51
498.842	3.3
499.193	3.31
499.544	3.36
499.894	3.33
500.245	3.34
500.596	3.44
500.947	3.4
501.298	3.44
501.648	3.32
501.999	3.42
502.35	3.35
502.7	3.39
503.051	3.46
503.401	3.39
503.752	3.38
504.102	3.39
504.452	3.34
504.803	3.44
505.153	3.55
505.503	3.36
505.853	3.48
506.203	3.31
506.553	3.36
506.903	3.45
507.253	3.3
507.603	3.43
507.953	3.41
508.303	3.49
508.652	3.43
509.002	3.64
509.352	3.35
509.701	3.48
510.051	3.46
510.4	3.45
510.75	3.35
511.099	3.28
511.449	3.42
511.798	3.48
512.147	3.37
512.496	3.33
512.846	3.41
513.195	3.37
513.544	3.38
513.893	3.5
514.242	3.25
514.591	3.45
514.939	3.48
515.288	3.29
515.637	3.46
515.986	3.42
516.334	3.53
516.683	3.44
517.032	3.6
517.38	3.42
517.729	3.4
518.077	3.57
518.426	3.42
518.774	3.48
519.122	3.45
519.47	3.38
519.819	3.53
520.167	3.48
520.515	3.47
520.863	3.36
521.211	3.31
521.559	3.44
521.907	3.53
522.255	3.54
522.602	3.52
522.95	3.49
523.298	3.48
523.645	3.64
523.993	3.45
524.341	3.63
524.688	3.48
525.036	3.56
525.383	3.54
525.73	3.54
526.078	3.62
526.425	3.45
526.772	3.57
527.119	3.51
527.466	3.48
527.814	3.47
528.161	3.39
528.508	3.47
528.854	3.5
529.201	3.51
529.548	3.51
529.895	3.5
530.242	3.41
530.588	3.36
530.935	3.31
531.282	3.35
531.628	3.4
531.975	3.42
532.321	3.45
532.667	3.51
533.014	3.52
533.36	3.51
533.706	3.59
534.052	3.6
534.399	3.59
534.745	3.67
535.091	3.52
535.437	3.49
535.783	3.44
536.129	3.53
536.474	3.56
536.82	3.56
537.166	3.73
537.512	3.71
537.857	3.63
538.203	3.83
538.549	3.6
538.894	3.61
539.239	3.54
539.585	3.61
539.93	3.7
540.276	3.65
540.621	3.78
540.966	3.62
541.311	3.84
541.656	3.68
542.001	3.73
542.346	3.73
542.691	3.81
543.036	3.62
543.381	3.59
543.726	3.64
544.071	3.58
544.415	3.61
544.76	3.64
545.105	3.65
545.449	3.62
545.794	3.71
546.138	3.71
546.483	3.76
546.827	3.66
547.171	3.76
547.516	3.77
547.86	3.89
548.204	3.8
548.548	3.85
548.892	3.9
549.236	3.8
549.58	3.91
549.924	3.9
550.268	3.92
550.612	3.8
550.956	4.05
551.3	3.94
551.643	4.01
551.987	4.02
552.33	4.1
552.674	4.01
553.017	4.07
553.361	3.97
553.704	4.05
554.048	4.01
554.391	4.09
554.734	4.11
555.077	3.98
555.42	4.02
555.764	3.98
556.107	3.97
556.45	4
556.793	4.07
557.135	4.09
557.478	4.01
557.821	4.18
558.164	4.17
558.507	4.29
558.849	4.01
559.192	4.3
559.534	4.23
559.877	4.35
560.219	4.23
560.562	4.23
560.904	4.41
561.246	4.48
561.589	4.18
561.931	4.05
562.273	4.09
562.615	4.18
562.957	4.35
563.299	4.14
563.641	4.11
563.983	4.33
564.325	4.49
564.667	4.42
565.008	4.3
565.35	4.26
565.692	4.34
566.033	4.36
566.375	4.48
566.716	4.45
567.058	4.39
567.399	4.39
567.741	4.6
568.082	4.31
568.423	4.5
568.764	4.55
569.105	4.26
569.447	4.37
569.788	4.35
570.129	4.55
570.47	4.52
570.811	4.48
571.151	4.6
571.492	4.59
571.833	4.63
572.174	4.45
572.514	4.6
572.855	4.61
573.195	4.47
573.536	4.66
573.876	4.48
574.217	4.56
574.557	4.49
574.898	4.62
575.238	4.6
575.578	4.67
575.918	4.77
576.258	4.44
576.598	4.64
576.938	4.64
577.278	4.72
577.618	4.56
577.958	4.86
578.298	4.83
578.638	4.63
578.977	4.8
579.317	4.77
579.657	4.88
579.996	4.82
580.336	4.76
580.675	4.99
581.014	4.75
581.354	4.85
581.693	5.15
582.032	4.81
582.372	4.95
582.711	4.87
583.05	5.01
583.389	5.15
583.728	5.16
584.067	5.05
584.406	4.98
584.745	4.8
585.083	5.14
585.422	5.19
585.761	4.85
586.1	5.08
586.438	5.18
586.777	5.17
587.115	5.39
587.454	5.05
587.792	5.38
588.13	5.09
588.469	4.88
588.807	5.27
589.145	5.01
589.483	5.25
589.821	5.26
590.159	5.2
590.497	5.58
590.835	5.16
591.173	5.22
591.511	5.28
591.849	5.43
592.187	5.3
592.524	5.63
592.862	5.46
593.2	5.51
593.537	5.28
593.875	5.4
594.212	5.56
594.55	5.75
594.887	5.44
595.224	5.56
595.561	5.72
595.899	5.84
596.236	5.69
596.573	5.64
596.91	5.63
597.247	5.7
597.584	5.93
597.921	5.89
598.258	5.91
598.594	5.63
598.931	5.63
599.268	5.64
599.604	5.74
599.941	5.62
600.277	5.57
600.614	5.64
600.95	5.69
601.287	5.74
601.623	5.75
601.959	6.11
602.296	5.98
602.632	5.86
602.968	5.96
603.304	5.97
603.64	5.84
603.976	5.91
604.312	6.12
604.648	5.84
604.984	6.2
605.319	5.86
605.655	5.81
605.991	5.97
606.326	6.33
606.662	5.81
606.998	5.81
607.333	6.16
607.668	5.95
608.004	6.28
608.339	6.05
608.674	6.31
609.01	6.06
609.345	6.06
609.68	6.52
610.015	6.35
610.35	6.1
610.685	6.59
611.02	6.32
611.355	6.53
611.689	6.2
612.024	6.43
612.359	6.34
612.694	6.37
613.028	6.26
613.363	6.26
613.697	6.42
614.032	6.29
614.366	6.44
614.7	6.46
615.035	6.44
615.369	6.55
615.703	6.52
616.037	6.64
616.371	7.21
616.705	6.8
617.039	6.78
617.373	6.48
617.707	6.69
618.041	6.53
618.375	6.76
618.709	6.63
619.042	6.73
619.376	6.97
619.71	6.65
620.043	6.62
620.377	6.75
620.71	7.09
621.043	7.16
621.377	6.6
621.71	6.83
622.043	6.85
622.376	7.27
622.709	7.13
623.043	7.06
623.376	7.18
623.709	7.06
624.041	6.91
624.374	7.03
624.707	7.16
625.04	7.47
625.373	6.58
625.705	6.97
626.038	7.46
626.37	7.81
626.703	7.13
627.035	7.37
627.368	7.4
627.7	7.49
628.032	7.48
628.365	7.1
628.697	7.28
629.029	7.28
629.361	7.44
629.693	7.6
630.025	7.21
630.357	7.15
630.689	7.31
631.021	7.6
631.353	7.53
631.684	7.66
632.016	7.62
632.348	7.39
632.679	7.4
633.011	7.55
633.342	7.75
633.674	7.92
634.005	7.35
634.336	7.74
634.668	7.84
634.999	7.83
635.33	7.82
635.661	7.87
635.992	7.59
636.323	7.79
636.654	7.48
636.985	7.44
637.316	7.71
637.647	7.91
637.977	7.34
638.308	8.4
638.639	7.68
638.969	8.1
639.3	7.93
639.63	8.3
639.961	7.77
640.291	7.75
640.622	8.05
640.952	8.06
641.282	8.22
641.612	8.15
641.943	8.06
642.273	8.38
642.603	8.14
642.933	8.04
643.263	7.39
643.592	8.2
643.922	8.48
644.252	8.5
644.582	8.75
644.911	8.14
645.241	8.77
645.571	8.32
645.9	8.5
646.23	8.44
646.559	8.54
646.888	8.7
647.218	8.29
647.547	8.4
647.876	8.45
648.205	8.56
648.534	8.95
648.863	8.48
649.192	8.47
649.521	8.54
649.85	8.86
650.179	8.8
650.508	8.39
650.837	9.07
651.165	8.73
651.494	8.85
651.822	8.92
652.151	8.91
652.479	9.15
652.808	8.49
653.136	9.21
653.465	8.93
653.793	8.95
654.121	9.32
654.449	8.54
654.777	9.07
655.105	8.75
655.433	9.35
655.761	9.47
656.089	9.25
656.417	8.94
656.745	9.38
657.073	9.1
657.4	9.42
657.728	9.46
658.056	8.66
658.383	9.64
658.711	9.53
659.038	8.84
659.365	9.57
659.693	9.13
660.02	9.84
660.347	9.39
660.674	9.2
661.001	9.39
661.329	9.45
661.656	9.55
661.982	9.21
662.309	9.78
662.636	9.35
662.963	9.72
663.29	9.78
663.616	9.57
663.943	9.82
664.27	9.82
664.596	9.63
664.923	9.62
665.249	9.88
665.576	9.2
665.902	9.7
666.228	10.05
666.554	9.81
666.881	10.13
667.207	9.95
667.533	10.32
667.859	10.05
668.185	10.18
668.511	10.27
668.837	9.75
669.162	10
669.488	10.05
669.814	9.72
670.139	9.98
670.465	10.61
670.791	10.1
671.116	9.9
671.442	10.63
671.767	9.5
672.092	10.64
672.418	10.27
672.743	10.58
673.068	10.63
673.393	10.12
673.718	11.16
674.043	10.81
674.368	10.45
674.693	10.39
675.018	11.01
675.343	10.41
675.667	10.73
675.992	10.47
676.317	11.38
676.641	11.16
676.966	10.85
677.29	10.62
677.615	10.96
677.939	11.1
678.264	10.97
678.588	11.19
678.912	10.71
679.236	10.82
679.56	10.29
679.885	10.62
680.209	11.38
680.532	10.48
680.856	9.71
681.18	11.15
681.504	11.2
681.828	11
682.152	10.74
682.475	11.53
682.799	11.26
683.122	10.92
683.446	10.69
683.769	11.17
684.093	11.17
684.416	11.2
684.739	11.61
685.062	11.93
685.386	11.58
685.709	11.05
686.032	10.92
686.355	11.74
686.678	11.72
687.001	12.01
687.324	12.05
687.646	11.03
687.969	12.04
688.292	10.87
688.614	12.16
688.937	11.87
689.26	10.86
689.582	12.29
689.904	11.65
690.227	12.47
690.549	11.81
690.871	11.59
691.194	12.35
691.516	12.23
691.838	12.25
