Data from 0215_crown_Reflection__3__213.txt Node

Date: Fri Sep 22 22:32:44 CDT 2023
User: ToomeyLab
Spectrometer: FLMS14357
Trigger mode: 0
Integration Time (sec): 1.000000E-2
Scans to average: 100
Electric dark correction enabled: true
Nonlinearity correction enabled: false
Boxcar width: 0
XAxis mode: Wavelengths
Number of Pixels in Spectrum: 2048
>>>>>Begin Spectral Data<<<<<
189.047	-465.11
189.435	-465.11
189.823	-465.11
190.211	-36.67
190.599	121.01
190.987	139.27
191.375	13.6
191.763	-191.37
192.151	190.11
192.538	386.84
192.926	60.19
193.314	71.85
193.702	66
194.089	-19.95
194.477	-100.66
194.864	-9131.4
195.252	89.85
195.639	-5.85
196.027	50.84
196.414	13.28
196.801	546
197.189	20.53
197.576	626.22
197.963	-408.62
198.351	15.36
198.738	22.69
199.125	20.02
199.512	-13.74
199.899	24.67
200.286	-4.4
200.673	-30.13
201.06	42.52
201.447	35.37
201.833	-6.93
202.22	13.28
202.607	21.39
202.994	36.5
203.38	32.94
203.767	16.95
204.154	38.4
204.54	50.46
204.927	14
205.313	10.14
205.699	43.59
206.086	35.33
206.472	31.74
206.858	45.91
207.245	4
207.631	39.42
208.017	12.92
208.403	-22.13
208.789	36.2
209.175	51.91
209.561	66.22
209.947	65.56
210.333	30.36
210.719	17.06
211.105	51.89
211.491	9.06
211.876	57.77
212.262	-1.13
212.648	8.34
213.034	24.15
213.419	37.4
213.805	15.02
214.19	1.62
214.576	38.31
214.961	24.9
215.346	25.82
215.732	3.6
216.117	3.75
216.502	59.14
216.888	29.15
217.273	-1.19
217.658	-14.42
218.043	32.02
218.428	40.45
218.813	-7.75
219.198	-11.42
219.583	23.3
219.968	0.83
220.353	40.44
220.738	-19.81
221.122	1.86
221.507	-2.6
221.892	-10.05
222.276	-24.53
222.661	-12.69
223.046	13.31
223.43	17.17
223.815	-3.85
224.199	9.78
224.583	10.45
224.968	19.79
225.352	8.09
225.736	11.17
226.121	9.54
226.505	10.67
226.889	3.13
227.273	6.88
227.657	7.4
228.041	7.14
228.425	11.4
228.809	5.45
229.193	2.72
229.577	6.83
229.961	6.04
230.344	7.37
230.728	3.98
231.112	5.44
231.495	5.16
231.879	5.62
232.263	4.41
232.646	4.43
233.03	5.14
233.413	5.96
233.797	5.16
234.18	5.27
234.563	7.25
234.946	2.87
235.33	1.32
235.713	2.93
236.096	5.96
236.479	5.05
236.862	7.55
237.245	5.42
237.628	5.83
238.011	6.74
238.394	5.81
238.777	5.73
239.16	6.57
239.543	5.13
239.925	5.7
240.308	5.05
240.691	5.38
241.073	6.78
241.456	4.98
241.838	4.46
242.221	6.15
242.603	4.68
242.986	4.68
243.368	4.28
243.75	5.73
244.133	5.94
244.515	4.82
244.897	4.31
245.279	5.11
245.661	5.14
246.043	5.86
246.425	5.42
246.807	5.28
247.189	3.86
247.571	4.96
247.953	5.64
248.335	5.19
248.717	5.18
249.098	4.53
249.48	4.8
249.862	4.8
250.243	5.01
250.625	5.12
251.006	4.23
251.388	4.99
251.769	5.4
252.151	4.46
252.532	5.68
252.913	5.93
253.295	6.01
253.676	5.72
254.057	4.9
254.438	5.36
254.819	4.83
255.2	5.02
255.581	4.41
255.962	6.12
256.343	5.33
256.724	3.48
257.105	4.57
257.486	4.54
257.867	4.9
258.247	4.55
258.628	5.76
259.009	3.87
259.389	3.95
259.77	5.19
260.15	5.56
260.531	4.1
260.911	4.6
261.292	4.46
261.672	4.56
262.052	4.79
262.432	4.49
262.813	4.6
263.193	4.49
263.573	4.69
263.953	4.74
264.333	5.23
264.713	5.29
265.093	4.97
265.473	4.77
265.853	4.37
266.233	4.06
266.612	5.26
266.992	5.5
267.372	5.15
267.752	5.39
268.131	5.03
268.511	3.71
268.89	5.45
269.27	4.47
269.649	4.86
270.029	4.49
270.408	4.11
270.787	4.08
271.167	5.15
271.546	3.76
271.925	4.16
272.304	4.26
272.683	4.62
273.062	5.59
273.441	4.44
273.82	5.03
274.199	4.45
274.578	4.75
274.957	4.4
275.336	4.28
275.715	4.55
276.093	4.23
276.472	4.29
276.851	4.6
277.229	4.06
277.608	5.06
277.986	4.22
278.365	4.76
278.743	4.49
279.122	4.83
279.5	4.18
279.878	3.92
280.257	4.98
280.635	4.29
281.013	4.62
281.391	3.89
281.769	4.28
282.147	5.05
282.525	4.41
282.903	4.64
283.281	4.78
283.659	4.16
284.037	4.07
284.415	4.74
284.792	4.47
285.17	4.59
285.548	5.05
285.925	4.32
286.303	4.18
286.68	4.43
287.058	4.14
287.435	4.15
287.813	3.88
288.19	3.75
288.567	4.51
288.945	3.86
289.322	4.17
289.699	4.51
290.076	4.46
290.453	3.73
290.83	3.53
291.207	3.89
291.584	3.61
291.961	3.82
292.338	4.07
292.715	4.4
293.092	4.28
293.469	4.04
293.845	3.75
294.222	4.37
294.599	4.72
294.975	4.2
295.352	4.46
295.728	3.97
296.105	4.68
296.481	3.65
296.858	4.34
297.234	4.18
297.61	3.99
297.986	3.83
298.363	4.11
298.739	3.73
299.115	3.83
299.491	3.99
299.867	3.93
300.243	3.96
300.619	4.09
300.995	3.85
301.371	4.13
301.746	4.42
302.122	3.74
302.498	3.67
302.874	4.13
303.249	4.25
303.625	3.59
304	4.17
304.376	3.81
304.751	4.21
305.127	3.85
305.502	3.74
305.878	3.96
306.253	3.86
306.628	4.02
307.003	3.95
307.378	3.75
307.754	3.86
308.129	4.07
308.504	3.26
308.879	4.1
309.254	3.74
309.629	3.55
310.003	4.17
310.378	4.25
310.753	3.55
311.128	3.85
311.502	4.1
311.877	2.91
312.252	3.58
312.626	3.39
313.001	3.8
313.375	3.96
313.75	4.17
314.124	3.95
314.498	3.16
314.873	3.7
315.247	4.25
315.621	3.89
315.995	3.66
316.369	3.4
316.743	3.51
317.117	3.71
317.491	4.16
317.865	3.3
318.239	3.74
318.613	4.12
318.987	4.01
319.361	3.64
319.734	3.93
320.108	4.34
320.482	4.19
320.855	3.65
321.229	4.33
321.602	3.99
321.976	3.74
322.349	3.72
322.723	3.78
323.096	3.49
323.469	3.46
323.843	3.37
324.216	3.42
324.589	3.34
324.962	3.16
325.335	3.39
325.708	3.93
326.081	4.03
326.454	2.71
326.827	3.42
327.2	3.81
327.573	4.25
327.945	3.58
328.318	3.35
328.691	3.84
329.063	3.57
329.436	4.12
329.809	3.68
330.181	3.35
330.553	3.89
330.926	3.8
331.298	3.89
331.671	3.97
332.043	3.24
332.415	2.98
332.787	4.21
333.159	3.61
333.532	3.37
333.904	3.41
334.276	3.61
334.648	3.54
335.02	3.68
335.391	3.77
335.763	4.05
336.135	4.05
336.507	3.94
336.879	4.12
337.25	3.56
337.622	4.15
337.993	3.63
338.365	3.99
338.736	3.82
339.108	4.13
339.479	3.32
339.851	2.98
340.222	3.49
340.593	3.2
340.964	3.17
341.336	3.4
341.707	3.06
342.078	3.93
342.449	3.84
342.82	4.06
343.191	3.4
343.562	3.32
343.933	3.85
344.303	3.65
344.674	3.43
345.045	3.66
345.416	3.9
345.786	3.67
346.157	3.84
346.527	3.69
346.898	3.42
347.268	3.48
347.639	3.75
348.009	3.07
348.38	3.87
348.75	4
349.12	3.43
349.49	3.8
349.861	3.32
350.231	3.95
350.601	3.72
350.971	3.48
351.341	3.31
351.711	3.51
352.081	3.32
352.45	3.18
352.82	3.44
353.19	3.64
353.56	3.42
353.929	3.47
354.299	3.43
354.669	3.59
355.038	3.3
355.408	3.6
355.777	3.86
356.147	3.71
356.516	3.94
356.885	3.63
357.254	3.83
357.624	3.16
357.993	3.74
358.362	3.69
358.731	3.17
359.1	3.68
359.469	3.51
359.838	3.22
360.207	3.64
360.576	3.69
360.945	3.67
361.314	3.39
361.682	3.69
362.051	3.89
362.42	3.47
362.788	3.46
363.157	3.4
363.525	3.7
363.894	3.54
364.262	3.45
364.631	3.6
364.999	3.33
365.367	3.65
365.735	3.87
366.104	3.56
366.472	3.87
366.84	3.39
367.208	3.8
367.576	3.64
367.944	3.65
368.312	3.88
368.68	3.56
369.048	3.96
369.416	3.79
369.783	3.43
370.151	3.29
370.519	3.63
370.886	3.6
371.254	3.96
371.621	3.59
371.989	3.59
372.356	3.62
372.724	3.72
373.091	3.67
373.458	3.81
373.826	3.81
374.193	3.88
374.56	3.81
374.927	3.76
375.294	3.71
375.661	3.28
376.028	4.14
376.395	3.84
376.762	3.58
377.129	3.98
377.496	3.89
377.863	3.89
378.229	3.97
378.596	3.48
378.963	4.19
379.329	3.83
379.696	3.95
380.062	3.44
380.429	3.94
380.795	3.57
381.161	3.62
381.528	3.73
381.894	3.36
382.26	3.69
382.626	3.71
382.993	3.95
383.359	3.56
383.725	3.66
384.091	3.96
384.457	3.66
384.823	3.95
385.188	3.76
385.554	3.72
385.92	3.88
386.286	3.68
386.651	3.82
387.017	4.05
387.383	3.48
387.748	3.75
388.114	3.99
388.479	3.99
388.845	3.6
389.21	3.67
389.575	4.17
389.94	3.51
390.306	3.7
390.671	3.9
391.036	3.73
391.401	3.59
391.766	3.8
392.131	3.82
392.496	3.99
392.861	3.75
393.226	3.89
393.591	4.07
393.956	3.76
394.32	3.66
394.685	3.79
395.05	3.98
395.414	3.89
395.779	3.7
396.143	3.8
396.508	3.82
396.872	3.89
397.236	3.97
397.601	3.92
397.965	4.21
398.329	3.97
398.694	3.78
399.058	3.97
399.422	4
399.786	4.08
400.15	4.08
400.514	3.76
400.878	3.83
401.242	3.99
401.605	3.82
401.969	3.73
402.333	3.97
402.697	3.61
403.06	3.73
403.424	3.79
403.787	4.06
404.151	4.09
404.514	4
404.878	3.99
405.241	4.18
405.604	4.18
405.968	4.22
406.331	4.05
406.694	3.95
407.057	3.88
407.42	4.18
407.783	4.04
408.146	3.89
408.509	3.87
408.872	3.77
409.235	4.05
409.598	3.95
409.961	4.41
410.323	4.09
410.686	4.01
411.049	4.24
411.411	4.13
411.774	3.87
412.136	3.98
412.499	4.16
412.861	4.1
413.223	4.21
413.586	4.07
413.948	4.01
414.31	3.8
414.672	4.25
415.035	4.04
415.397	4.21
415.759	4.33
416.121	4.07
416.483	3.94
416.845	4.04
417.206	3.94
417.568	3.97
417.93	4.05
418.292	4.19
418.653	4.11
419.015	3.97
419.377	4.12
419.738	4.09
420.1	3.99
420.461	4.05
420.822	4.01
421.184	4.15
421.545	4.03
421.906	4.07
422.267	4.01
422.629	4.05
422.99	3.82
423.351	3.95
423.712	3.98
424.073	4.01
424.434	4.09
424.795	3.98
425.155	4.06
425.516	4.02
425.877	4.01
426.238	3.88
426.598	3.97
426.959	3.99
427.32	4.06
427.68	4
428.041	4
428.401	4.23
428.761	4.12
429.122	4.24
429.482	4.14
429.842	4.02
430.202	4.18
430.563	4.23
430.923	4.31
431.283	4.2
431.643	4.3
432.003	4.26
432.363	4.21
432.722	4.17
433.082	4.26
433.442	4.08
433.802	4.21
434.161	4.19
434.521	4.11
434.881	4.17
435.24	4.09
435.6	3.94
435.959	4.03
436.319	4.02
436.678	4.2
437.037	4.03
437.396	4.07
437.756	4.22
438.115	4.15
438.474	4.04
438.833	4.13
439.192	4.07
439.551	4.09
439.91	4.31
440.269	4.29
440.628	3.98
440.987	4.23
441.345	4.27
441.704	4.26
442.063	4.2
442.421	4.07
442.78	4.26
443.138	4.11
443.497	4.2
443.855	4.23
444.214	4.08
444.572	4.3
444.93	4.22
445.288	4.28
445.647	4.31
446.005	4.1
446.363	4.11
446.721	4.35
447.079	4.11
447.437	4.17
447.795	4.19
448.153	4.1
448.51	4.13
448.868	4.13
449.226	4.18
449.584	4.18
449.941	4.07
450.299	4.36
450.656	4.31
451.014	4.21
451.371	4.3
451.729	4.28
452.086	4.2
452.443	4.25
452.801	4.33
453.158	4.3
453.515	4.29
453.872	4.46
454.229	4.27
454.586	4.16
454.943	4.26
455.3	4.32
455.657	4.28
456.014	4.16
456.371	4.33
456.727	4.36
457.084	4.42
457.441	4.36
457.797	4.35
458.154	4.29
458.51	4.16
458.867	4.4
459.223	4.27
459.58	4.48
459.936	4.41
460.292	4.36
460.648	4.38
461.005	4.44
461.361	4.36
461.717	4.16
462.073	4.23
462.429	4.24
462.785	4.19
463.141	4.32
463.496	4.39
463.852	4.37
464.208	4.23
464.564	4.45
464.919	4.35
465.275	4.48
465.631	4.33
465.986	4.37
466.342	4.52
466.697	4.45
467.052	4.33
467.408	4.61
467.763	4.39
468.118	4.41
468.473	4.36
468.829	4.39
469.184	4.34
469.539	4.32
469.894	4.43
470.249	4.39
470.603	4.41
470.958	4.42
471.313	4.5
471.668	4.6
472.023	4.41
472.377	4.42
472.732	4.4
473.086	4.62
473.441	4.39
473.795	4.65
474.15	4.26
474.504	4.21
474.859	4.45
475.213	4.31
475.567	4.34
475.921	4.36
476.275	4.39
476.63	4.47
476.984	4.34
477.338	4.61
477.692	4.48
478.045	4.67
478.399	4.58
478.753	4.4
479.107	4.43
479.461	4.47
479.814	4.53
480.168	4.44
480.521	4.52
480.875	4.62
481.228	4.36
481.582	4.37
481.935	4.44
482.289	4.31
482.642	4.36
482.995	4.44
483.348	4.45
483.701	4.42
484.055	4.39
484.408	4.33
484.761	4.52
485.114	4.3
485.466	4.26
485.819	4.13
486.172	4.11
486.525	4.16
486.878	4.16
487.23	4.31
487.583	4.28
487.936	4.29
488.288	4.39
488.641	4.34
488.993	4.27
489.345	4.22
489.698	4.21
490.05	4.26
490.402	4.26
490.754	4.24
491.107	4.27
491.459	4.38
491.811	4.42
492.163	4.43
492.515	4.4
492.866	4.37
493.218	4.42
493.57	4.4
493.922	4.28
494.274	4.28
494.625	4.35
494.977	4.43
495.328	4.5
495.68	4.56
496.031	4.45
496.383	4.46
496.734	4.58
497.086	4.54
497.437	4.62
497.788	4.5
498.139	4.64
498.49	4.65
498.842	4.53
499.193	4.4
499.544	4.53
499.894	4.45
500.245	4.56
500.596	4.53
500.947	4.69
501.298	4.59
501.648	4.6
501.999	4.48
502.35	4.64
502.7	4.6
503.051	4.66
503.401	4.57
503.752	4.64
504.102	4.55
504.452	4.54
504.803	4.52
505.153	4.47
505.503	4.48
505.853	4.73
506.203	4.54
506.553	4.71
506.903	4.58
507.253	4.57
507.603	4.58
507.953	4.71
508.303	4.72
508.652	4.64
509.002	4.74
509.352	4.62
509.701	4.83
510.051	4.58
510.4	4.62
510.75	4.6
511.099	4.49
511.449	4.65
511.798	4.56
512.147	4.59
512.496	4.62
512.846	4.57
513.195	4.65
513.544	4.67
513.893	4.62
514.242	4.62
514.591	4.6
514.939	4.67
515.288	4.51
515.637	4.58
515.986	4.63
516.334	4.69
516.683	4.58
517.032	4.86
517.38	4.61
517.729	4.61
518.077	4.73
518.426	4.74
518.774	4.7
519.122	4.69
519.47	4.57
519.819	4.67
520.167	4.75
520.515	4.59
520.863	4.54
521.211	4.53
521.559	4.58
521.907	4.58
522.255	4.65
522.602	4.61
522.95	4.65
523.298	4.71
523.645	4.69
523.993	4.64
524.341	4.64
524.688	4.69
525.036	4.64
525.383	4.72
525.73	4.7
526.078	4.77
526.425	4.68
526.772	4.83
527.119	4.61
527.466	4.53
527.814	4.55
528.161	4.46
528.508	4.51
528.854	4.53
529.201	4.6
529.548	4.53
529.895	4.5
530.242	4.49
530.588	4.39
530.935	4.36
531.282	4.37
531.628	4.41
531.975	4.44
532.321	4.47
532.667	4.56
533.014	4.62
533.36	4.58
533.706	4.65
534.052	4.65
534.399	4.61
534.745	4.61
535.091	4.45
535.437	4.48
535.783	4.36
536.129	4.52
536.474	4.56
536.82	4.55
537.166	4.72
537.512	4.67
537.857	4.67
538.203	4.67
538.549	4.55
538.894	4.53
539.239	4.55
539.585	4.62
539.93	4.65
540.276	4.66
540.621	4.59
540.966	4.64
541.311	4.75
541.656	4.76
542.001	4.73
542.346	4.72
542.691	4.72
543.036	4.56
543.381	4.53
543.726	4.45
544.071	4.49
544.415	4.49
544.76	4.46
545.105	4.58
545.449	4.52
545.794	4.65
546.138	4.7
546.483	4.6
546.827	4.61
547.171	4.62
547.516	4.69
547.86	4.67
548.204	4.69
548.548	4.65
548.892	4.68
549.236	4.65
549.58	4.62
549.924	4.74
550.268	4.74
550.612	4.7
550.956	4.76
551.3	4.9
551.643	4.75
551.987	4.75
552.33	4.86
552.674	4.61
553.017	4.72
553.361	4.77
553.704	4.94
554.048	4.75
554.391	4.75
554.734	4.73
555.077	4.7
555.42	4.72
555.764	4.73
556.107	4.76
556.45	4.74
556.793	4.59
557.135	4.62
557.478	4.58
557.821	4.93
558.164	4.78
558.507	4.85
558.849	4.61
559.192	4.73
559.534	4.98
559.877	4.92
560.219	4.76
560.562	4.89
560.904	4.84
561.246	4.9
561.589	4.89
561.931	4.53
562.273	4.65
562.615	4.57
562.957	4.79
563.299	4.9
563.641	4.78
563.983	4.67
564.325	4.72
564.667	4.84
565.008	4.84
565.35	4.78
565.692	4.92
566.033	4.83
566.375	4.77
566.716	4.96
567.058	4.68
567.399	4.68
567.741	4.88
568.082	4.73
568.423	4.79
568.764	5.02
569.105	4.7
569.447	4.78
569.788	4.76
570.129	4.88
570.47	4.84
570.811	4.72
571.151	5
571.492	4.78
571.833	4.68
572.174	4.57
572.514	4.68
572.855	4.55
573.195	4.67
573.536	4.81
573.876	4.76
574.217	4.72
574.557	4.77
574.898	4.87
575.238	4.76
575.578	4.71
575.918	4.7
576.258	4.72
576.598	4.76
576.938	4.75
577.278	4.89
577.618	4.51
577.958	4.88
578.298	4.78
578.638	4.69
578.977	4.85
579.317	4.72
579.657	4.88
579.996	4.82
580.336	4.91
580.675	4.88
581.014	4.88
581.354	4.73
581.693	4.92
582.032	4.6
582.372	4.86
582.711	4.88
583.05	4.72
583.389	4.78
583.728	4.7
584.067	4.99
584.406	4.75
584.745	4.71
585.083	4.97
585.422	4.86
585.761	4.89
586.1	4.88
586.438	4.79
586.777	4.75
587.115	4.84
587.454	4.73
587.792	4.87
588.13	4.57
588.469	4.72
588.807	4.96
589.145	4.7
589.483	4.6
589.821	4.7
590.159	4.83
590.497	5.01
590.835	4.89
591.173	4.71
591.511	5
591.849	4.85
592.187	4.9
592.524	4.9
592.862	4.73
593.2	4.63
593.537	4.92
593.875	4.85
594.212	4.96
594.55	5.13
594.887	4.84
595.224	4.83
595.561	5.14
595.899	4.96
596.236	4.82
596.573	4.88
596.91	4.76
597.247	4.72
597.584	4.82
597.921	4.92
598.258	5.02
598.594	4.93
598.931	4.61
599.268	4.75
599.604	4.84
599.941	4.92
600.277	4.59
600.614	4.75
600.95	4.91
601.287	4.57
601.623	4.83
601.959	4.86
602.296	4.77
602.632	4.53
602.968	4.79
603.304	4.86
603.64	4.62
603.976	4.84
604.312	4.71
604.648	4.73
604.984	4.52
605.319	4.71
605.655	4.61
605.991	4.67
606.326	4.88
606.662	4.62
606.998	4.69
607.333	4.78
607.668	4.56
608.004	4.65
608.339	4.62
608.674	4.69
609.01	4.64
609.345	4.85
609.68	4.93
610.015	4.74
610.35	4.75
610.685	4.87
611.02	4.85
611.355	5.02
611.689	4.8
612.024	4.76
612.359	4.69
612.694	4.81
613.028	4.64
613.363	4.55
613.697	4.71
614.032	4.83
614.366	4.57
614.7	4.62
615.035	4.7
615.369	4.67
615.703	4.64
616.037	4.8
616.371	4.91
616.705	5.02
617.039	4.96
617.373	4.61
617.707	4.59
618.041	4.83
618.375	5.21
618.709	4.78
619.042	5.29
619.376	4.94
619.71	4.79
620.043	4.36
620.377	4.42
620.71	4.74
621.043	5.01
621.377	4.94
621.71	4.84
622.043	5.05
622.376	5.39
622.709	4.9
623.043	5.03
623.376	4.91
623.709	4.91
624.041	4.7
624.374	4.81
624.707	4.98
625.04	5.18
625.373	4.36
625.705	4.83
626.038	4.73
626.37	4.93
626.703	4.79
627.035	4.9
627.368	4.86
627.7	5.19
628.032	4.97
628.365	4.97
628.697	4.89
629.029	4.81
629.361	4.58
629.693	4.59
630.025	4.89
630.357	4.63
630.689	4.81
631.021	4.48
631.353	4.84
631.684	4.68
632.016	5.03
632.348	4.61
632.679	4.44
633.011	4.72
633.342	4.6
633.674	5.07
634.005	4.45
634.336	5.12
634.668	4.94
634.999	4.9
635.33	5.02
635.661	4.6
635.992	4.61
636.323	4.78
636.654	4.46
636.985	4.56
637.316	4.76
637.647	4.83
637.977	4.64
638.308	4.83
638.639	4.87
638.969	4.88
639.3	4.92
639.63	4.99
639.961	4.79
640.291	4.52
640.622	4.96
640.952	5.14
641.282	4.72
641.612	4.76
641.943	4.6
642.273	4.88
642.603	5.13
642.933	4.87
643.263	4.03
643.592	4.76
643.922	4.94
644.252	4.68
644.582	4.68
644.911	4.9
645.241	4.88
645.571	4.51
645.9	4.87
646.23	4.8
646.559	4.9
646.888	4.83
647.218	4.85
647.547	4.83
647.876	4.6
648.205	4.43
648.534	5.19
648.863	4.77
649.192	4.47
649.521	4.76
649.85	5.26
650.179	5.1
650.508	4.4
650.837	4.99
651.165	5.26
651.494	4.56
651.822	4.8
652.151	4.55
652.479	4.79
652.808	4.43
653.136	5.01
653.465	4.86
653.793	4.62
654.121	5.22
654.449	4.41
654.777	4.82
655.105	4.67
655.433	4.85
655.761	5.16
656.089	4.83
656.417	4.97
656.745	4.75
657.073	5.19
657.4	5.47
657.728	4.92
658.056	4.86
658.383	5.17
658.711	4.66
659.038	4.54
659.365	4.76
659.693	4.74
660.02	5.29
660.347	5.29
660.674	4.58
661.001	4.39
661.329	4.6
661.656	4.8
661.982	4.79
662.309	5.02
662.636	4.95
662.963	5.29
663.29	5.06
663.616	4.84
663.943	5.05
664.27	4.94
664.596	5.03
664.923	4.56
665.249	5.12
665.576	4.3
665.902	4.63
666.228	4.74
666.554	4.64
666.881	5.08
667.207	4.61
667.533	4.36
667.859	5.04
668.185	4.37
668.511	5.07
668.837	4.53
669.162	4.91
669.488	4.86
669.814	4.82
670.139	4.53
670.465	5.48
670.791	4.84
671.116	4.62
671.442	5.26
671.767	4.57
672.092	5.17
672.418	5.53
672.743	4.67
673.068	4.79
673.393	4.87
673.718	5.57
674.043	5.04
674.368	5.46
674.693	4.95
675.018	4.66
675.343	4.67
675.667	4.87
675.992	4.81
676.317	5.48
676.641	5.29
676.966	5.41
677.29	4.7
677.615	5.14
677.939	5.19
678.264	4.95
678.588	5.66
678.912	4.92
679.236	5.09
679.56	5.16
679.885	5.1
680.209	5.39
680.532	4.45
680.856	4.76
681.18	4.86
681.504	4.53
681.828	5.02
682.152	4.87
682.475	5.93
682.799	4.89
683.122	5.03
683.446	4.96
683.769	4.81
684.093	4.91
684.416	4.66
684.739	4.82
685.062	5.85
685.386	4.83
685.709	4.82
686.032	4.8
686.355	4.4
686.678	4.69
687.001	4.62
687.324	5.83
687.646	5.05
687.969	5.58
688.292	5.49
688.614	5.57
688.937	5.35
689.26	4.11
689.582	4.86
689.904	5.02
690.227	5.41
690.549	5.72
690.871	4.75
691.194	5.17
691.516	5.43
691.838	5.18
692.16	4.79
692.482	4.55
