Data from 0215_forehead_Reflection__3__218.txt Node

Date: Fri Sep 22 22:33:57 CDT 2023
User: ToomeyLab
Spectrometer: FLMS14357
Trigger mode: 0
Integration Time (sec): 1.000000E-2
Scans to average: 100
Electric dark correction enabled: true
Nonlinearity correction enabled: false
Boxcar width: 0
XAxis mode: Wavelengths
Number of Pixels in Spectrum: 2048
>>>>>Begin Spectral Data<<<<<
189.047	176.26
189.435	176.26
189.823	176.26
190.211	101.25
190.599	-149.86
190.987	-175.96
191.375	77.96
191.763	-346.35
192.151	93.26
192.538	160.06
192.926	42.72
193.314	88.69
193.702	524.84
194.089	65.65
194.477	-68.09
194.864	-9625.58
195.252	-7.9
195.639	6.97
196.027	124.02
196.414	78.36
196.801	2246.67
197.189	27.18
197.576	703.73
197.963	66.18
198.351	42.07
198.738	26.5
199.125	37.25
199.512	49.56
199.899	27.61
200.286	25.12
200.673	53.43
201.06	42.05
201.447	40.29
201.833	10.19
202.22	84.2
202.607	69.24
202.994	44.84
203.38	58.82
203.767	54.58
204.154	50.78
204.54	56.13
204.927	11.04
205.313	24.1
205.699	64.37
206.086	54.37
206.472	69.42
206.858	65.36
207.245	-1.29
207.631	20.7
208.017	63.37
208.403	42.57
208.789	19.54
209.175	45.37
209.561	29.54
209.947	33.42
210.333	42.6
210.719	1.26
211.105	44.51
211.491	-21.5
211.876	38.6
212.262	37.41
212.648	11.25
213.034	70.87
213.419	23.56
213.805	38.91
214.19	13.61
214.576	24.66
214.961	18.92
215.346	30.3
215.732	39.08
216.117	22.34
216.502	46.06
216.888	29.79
217.273	56.42
217.658	39.04
218.043	38.22
218.428	44.23
218.813	-8.52
219.198	20.54
219.583	54.69
219.968	21.13
220.353	36.59
220.738	36.35
221.122	28.87
221.507	-5.22
221.892	14.67
222.276	35.58
222.661	-15.35
223.046	31.14
223.43	40.84
223.815	11.16
224.199	7.72
224.583	8.23
224.968	12.67
225.352	4.69
225.736	16.71
226.121	5.7
226.505	11.41
226.889	6.37
227.273	9.42
227.657	9.68
228.041	8.65
228.425	14.72
228.809	5.17
229.193	3.76
229.577	7.28
229.961	4.99
230.344	7.74
230.728	2.8
231.112	3.38
231.495	3.2
231.879	3.29
232.263	3.07
232.646	3.36
233.03	3.53
233.413	5.4
233.797	4.92
234.18	3.74
234.563	7.3
234.946	3.42
235.33	2.65
235.713	3.47
236.096	3.55
236.479	0.87
236.862	3.68
237.245	4.44
237.628	5.31
238.011	4.29
238.394	4.88
238.777	5.47
239.16	5.02
239.543	8.19
239.925	4.08
240.308	5.81
240.691	5.47
241.073	5.02
241.456	4.61
241.838	3.96
242.221	4.25
242.603	3.06
242.986	3.4
243.368	3.15
243.75	3.67
244.133	3.53
244.515	2.93
244.897	2.66
245.279	2.66
245.661	3.1
246.043	3.06
246.425	2.3
246.807	4.03
247.189	1.63
247.571	4.42
247.953	3.55
248.335	2.59
248.717	3.33
249.098	2.99
249.48	2.46
249.862	2.47
250.243	2.73
250.625	3.1
251.006	2.68
251.388	2.87
251.769	3.76
252.151	3.18
252.532	2.96
252.913	4.23
253.295	4.79
253.676	3.08
254.057	3.31
254.438	3.83
254.819	2.27
255.2	3.61
255.581	3.32
255.962	1.84
256.343	3.62
256.724	3.38
257.105	3.52
257.486	4.28
257.867	3.96
258.247	4.07
258.628	4.42
259.009	2.97
259.389	3.15
259.77	4.44
260.15	3.83
260.531	3.33
260.911	2.69
261.292	3.34
261.672	2.83
262.052	2.98
262.432	2.83
262.813	2.88
263.193	2.63
263.573	3.14
263.953	2.79
264.333	3.08
264.713	2.59
265.093	2.72
265.473	2.84
265.853	2.16
266.233	3.53
266.612	3.78
266.992	2.5
267.372	4.24
267.752	3.15
268.131	3.03
268.511	2.34
268.89	3.68
269.27	2.66
269.649	2.97
270.029	3.11
270.408	3.08
270.787	3.73
271.167	3.03
271.546	2.74
271.925	3.23
272.304	2.41
272.683	3.4
273.062	2.86
273.441	3.11
273.82	3.3
274.199	3.11
274.578	3.35
274.957	2.85
275.336	2.96
275.715	3.14
276.093	2.82
276.472	3.07
276.851	3.2
277.229	2.34
277.608	2.95
277.986	3.02
278.365	2.81
278.743	2.9
279.122	3.21
279.5	3.42
279.878	2.71
280.257	3.17
280.635	2.5
281.013	3.36
281.391	2.98
281.769	3.07
282.147	3.37
282.525	2.68
282.903	3.36
283.281	3.35
283.659	2.83
284.037	3.1
284.415	3.31
284.792	2.97
285.17	3.02
285.548	3.04
285.925	2.95
286.303	2.8
286.68	2.73
287.058	2.5
287.435	3.22
287.813	2.69
288.19	2.69
288.567	3.03
288.945	3.13
289.322	2.81
289.699	2.98
290.076	3.61
290.453	3.21
290.83	3.2
291.207	2.91
291.584	2.85
291.961	2.85
292.338	3.19
292.715	3.39
293.092	3.15
293.469	2.95
293.845	3.32
294.222	3.41
294.599	3.58
294.975	3.83
295.352	3.87
295.728	3.17
296.105	3.35
296.481	3.18
296.858	3.62
297.234	3.25
297.61	3.04
297.986	3.75
298.363	3.72
298.739	3.62
299.115	3.66
299.491	3.65
299.867	3.59
300.243	3.29
300.619	3.48
300.995	3.58
301.371	3.88
301.746	4
302.122	3.65
302.498	3.3
302.874	3.37
303.249	4.04
303.625	3.89
304	4.1
304.376	4.03
304.751	4.36
305.127	4.07
305.502	4.59
305.878	4.23
306.253	4.6
306.628	4.51
307.003	4.43
307.378	4.3
307.754	4.05
308.129	3.91
308.504	4.11
308.879	4.48
309.254	5.04
309.629	4.67
310.003	4.83
310.378	5.04
310.753	5.1
311.128	4.68
311.502	4.88
311.877	3.79
312.252	4.7
312.626	4.46
313.001	4.53
313.375	4.69
313.75	4.89
314.124	5.06
314.498	4.52
314.873	4.73
315.247	5.11
315.621	5.01
315.995	4.46
316.369	5.13
316.743	4.57
317.117	5.31
317.491	4.8
317.865	4.79
318.239	4.83
318.613	5.71
318.987	4.96
319.361	5.21
319.734	5.49
320.108	5.7
320.482	5.21
320.855	5.39
321.229	5.55
321.602	5.92
321.976	5.03
322.349	5.73
322.723	5.58
323.096	6.02
323.469	5.23
323.843	5.04
324.216	6.09
324.589	5.58
324.962	5.17
325.335	5.57
325.708	5.08
326.081	5.73
326.454	5.57
326.827	6
327.2	5.81
327.573	6.24
327.945	6.27
328.318	6.09
328.691	6.48
329.063	5.78
329.436	6.52
329.809	6.13
330.181	6.46
330.553	5.65
330.926	5.73
331.298	6.04
331.671	6.34
332.043	5.99
332.415	6.29
332.787	7.11
333.159	5.34
333.532	5.39
333.904	6.22
334.276	6.27
334.648	6.37
335.02	6.36
335.391	6.54
335.763	6.68
336.135	6.69
336.507	6.73
336.879	6.08
337.25	6.82
337.622	7.08
337.993	6.7
338.365	6.99
338.736	6.74
339.108	6.72
339.479	6.99
339.851	6.29
340.222	6.45
340.593	6.6
340.964	6.43
341.336	6.63
341.707	6.8
342.078	6.78
342.449	6.43
342.82	6.58
343.191	6.72
343.562	7.21
343.933	6.98
344.303	7.17
344.674	7.08
345.045	7.43
345.416	6.78
345.786	6.9
346.157	7.31
346.527	6.99
346.898	7.02
347.268	7.11
347.639	7.33
348.009	7.3
348.38	7.44
348.75	7.4
349.12	7.28
349.49	7.41
349.861	7.34
350.231	7.71
350.601	7.61
350.971	7.89
351.341	7.19
351.711	7.55
352.081	7.49
352.45	7.15
352.82	7.89
353.19	7.82
353.56	7.43
353.929	8.1
354.299	7.54
354.669	7.63
355.038	7.36
355.408	7.62
355.777	8.21
356.147	8.16
356.516	8.22
356.885	8.01
357.254	8.2
357.624	7.34
357.993	8.01
358.362	8.42
358.731	8.07
359.1	8.11
359.469	8.15
359.838	8.16
360.207	8.07
360.576	8.12
360.945	8.04
361.314	8.34
361.682	8.56
362.051	8.45
362.42	8.42
362.788	8.18
363.157	8.47
363.525	8.34
363.894	8.17
364.262	8.17
364.631	8.43
364.999	8.34
365.367	8.53
365.735	8.61
366.104	8.65
366.472	8.85
366.84	8.85
367.208	9.16
367.576	8.59
367.944	8.77
368.312	9.1
368.68	8.71
369.048	9.05
369.416	8.81
369.783	8.63
370.151	8.96
370.519	8.85
370.886	9
371.254	9.46
371.621	8.94
371.989	9.15
372.356	9.08
372.724	9.31
373.091	9.48
373.458	8.87
373.826	9.15
374.193	9.32
374.56	9.19
374.927	9.22
375.294	9.18
375.661	9.3
376.028	9.74
376.395	9.7
376.762	9.39
377.129	9.53
377.496	9.78
377.863	9.83
378.229	9.96
378.596	9.97
378.963	9.9
379.329	9.96
379.696	9.96
380.062	9.32
380.429	9.83
380.795	9.92
381.161	9.57
381.528	9.82
381.894	9.35
382.26	10
382.626	10.3
382.993	10.16
383.359	9.95
383.725	9.98
384.091	10.02
384.457	9.96
384.823	10.03
385.188	10.25
385.554	10.18
385.92	10.4
386.286	10.33
386.651	10.46
387.017	10.67
387.383	10.12
387.748	10.44
388.114	10.37
388.479	10.58
388.845	10.42
389.21	10.19
389.575	10.71
389.94	10.67
390.306	10.9
390.671	10.78
391.036	10.45
391.401	10.61
391.766	10.45
392.131	10.95
392.496	10.78
392.861	10.56
393.226	10.88
393.591	10.59
393.956	10.89
394.32	10.89
394.685	10.94
395.05	11.26
395.414	10.97
395.779	10.8
396.143	10.8
396.508	10.89
396.872	10.97
397.236	10.84
397.601	10.85
397.965	11.43
398.329	11.34
398.694	11.31
399.058	11.37
399.422	11.28
399.786	11.51
400.15	11.43
400.514	11.63
400.878	11.46
401.242	11.49
401.605	11.39
401.969	11.38
402.333	11.57
402.697	11.42
403.06	11.62
403.424	11.56
403.787	11.64
404.151	11.83
404.514	11.88
404.878	12.03
405.241	12.13
405.604	11.74
405.968	11.87
406.331	11.83
406.694	11.99
407.057	11.64
407.42	11.9
407.783	11.87
408.146	11.74
408.509	12.11
408.872	11.7
409.235	12.03
409.598	12.16
409.961	12
410.323	12.3
410.686	12.16
411.049	12.21
411.411	12.35
411.774	12
412.136	12.38
412.499	12.15
412.861	12.27
413.223	12.39
413.586	12.29
413.948	12.36
414.31	12.18
414.672	12.62
415.035	12.52
415.397	12.58
415.759	12.75
416.121	12.57
416.483	12.6
416.845	12.5
417.206	12.45
417.568	12.72
417.93	12.5
418.292	12.82
418.653	12.46
419.015	12.69
419.377	12.45
419.738	12.8
420.1	12.5
420.461	12.66
420.822	12.65
421.184	12.55
421.545	12.66
421.906	12.65
422.267	12.6
422.629	12.72
422.99	12.73
423.351	12.78
423.712	12.59
424.073	12.67
424.434	12.83
424.795	12.84
425.155	13
425.516	12.91
425.877	13.04
426.238	12.74
426.598	12.83
426.959	13.04
427.32	12.98
427.68	13.01
428.041	12.95
428.401	13.27
428.761	13.35
429.122	13.49
429.482	13.36
429.842	13.52
430.202	13.43
430.563	13.57
430.923	13.82
431.283	13.61
431.643	13.71
432.003	13.73
432.363	13.9
432.722	13.86
433.082	13.86
433.442	13.93
433.802	13.72
434.161	13.84
434.521	13.91
434.881	13.72
435.24	13.73
435.6	13.9
435.959	13.83
436.319	13.93
436.678	14.04
437.037	14.01
437.396	13.97
437.756	14.05
438.115	14.03
438.474	14.21
438.833	14.3
439.192	14.13
439.551	14.5
439.91	14.26
440.269	14.39
440.628	14.2
440.987	14.32
441.345	14.33
441.704	14.45
442.063	14.25
442.421	14.2
442.78	14.32
443.138	14.4
443.497	14.48
443.855	14.56
444.214	14.46
444.572	14.59
444.93	14.6
445.288	14.72
445.647	14.66
446.005	14.67
446.363	14.61
446.721	14.83
447.079	14.79
447.437	14.86
447.795	14.83
448.153	14.72
448.51	14.76
448.868	14.72
449.226	14.83
449.584	14.73
449.941	14.8
450.299	14.95
450.656	14.97
451.014	15.02
451.371	15.07
451.729	15.13
452.086	15.14
452.443	15.48
452.801	15.41
453.158	15.44
453.515	15.52
453.872	15.32
454.229	15.31
454.586	15.66
454.943	15.38
455.3	15.45
455.657	15.3
456.014	15.51
456.371	15.75
456.727	16.01
457.084	15.64
457.441	15.64
457.797	15.72
458.154	15.82
458.51	15.74
458.867	15.82
459.223	15.99
459.58	16.06
459.936	16.02
460.292	15.96
460.648	15.95
461.005	16.01
461.361	15.92
461.717	15.69
462.073	15.76
462.429	15.72
462.785	15.69
463.141	15.91
463.496	16.12
463.852	16.26
464.208	16.15
464.564	16.48
464.919	16.17
465.275	16.47
465.631	16.53
465.986	16.38
466.342	16.67
466.697	16.41
467.052	16.49
467.408	16.59
467.763	16.48
468.118	16.64
468.473	16.63
468.829	16.51
469.184	16.56
469.539	16.59
469.894	16.68
470.249	16.78
470.603	16.65
470.958	16.74
471.313	16.91
471.668	16.95
472.023	17.13
472.377	17.27
472.732	16.87
473.086	17.24
473.441	17.04
473.795	17.34
474.15	16.92
474.504	17.1
474.859	17.25
475.213	17.14
475.567	17.02
475.921	17.38
476.275	17.33
476.63	17.26
476.984	17.18
477.338	17.61
477.692	17.49
478.045	17.57
478.399	17.68
478.753	17.54
479.107	17.54
479.461	17.48
479.814	17.63
480.168	17.58
480.521	17.68
480.875	17.7
481.228	17.64
481.582	17.76
481.935	17.71
482.289	17.69
482.642	17.75
482.995	17.87
483.348	17.72
483.701	17.78
484.055	17.6
484.408	17.78
484.761	17.61
485.114	17.53
485.466	17.38
485.819	17.12
486.172	17.07
486.525	17.11
486.878	17.16
487.23	17.26
487.583	17.36
487.936	17.58
488.288	17.73
488.641	17.78
488.993	17.73
489.345	17.61
489.698	17.59
490.05	17.54
490.402	17.61
490.754	17.62
491.107	17.71
491.459	17.87
491.811	18
492.163	18.19
492.515	18.3
492.866	18.41
493.218	18.32
493.57	18.24
493.922	17.96
494.274	18.04
494.625	18.15
494.977	18.37
495.328	18.51
495.68	18.7
496.031	18.68
496.383	18.91
496.734	18.93
497.086	18.94
497.437	19.3
497.788	19.09
498.139	19.29
498.49	19.36
498.842	19.05
499.193	19.09
499.544	19.02
499.894	19.19
500.245	19.34
500.596	19.33
500.947	19.5
501.298	19.4
501.648	19.3
501.999	19.5
502.35	19.63
502.7	19.78
503.051	19.74
503.401	19.85
503.752	19.81
504.102	19.74
504.452	19.85
504.803	19.78
505.153	20.02
505.503	19.89
505.853	20.12
506.203	19.76
506.553	20.01
506.903	20.11
507.253	19.95
507.603	19.99
507.953	20.19
508.303	20.29
508.652	20.18
509.002	20.28
509.352	20.19
509.701	20.24
510.051	20.29
510.4	20.27
510.75	20.29
511.099	20.25
511.449	20.28
511.798	20.44
512.147	20.45
512.496	20.33
512.846	20.48
513.195	20.49
513.544	20.62
513.893	20.62
514.242	20.65
514.591	20.65
514.939	20.71
515.288	20.56
515.637	20.7
515.986	20.82
516.334	20.85
516.683	20.91
517.032	20.94
517.38	21.1
517.729	21.18
518.077	21.25
518.426	21.16
518.774	20.87
519.122	21.16
519.47	21.12
519.819	21.18
520.167	21.09
520.515	21.06
520.863	21.04
521.211	20.94
521.559	21.08
521.907	21.11
522.255	21.12
522.602	21.25
522.95	21.39
523.298	21.49
523.645	21.62
523.993	21.62
524.341	21.61
524.688	21.74
525.036	21.56
525.383	21.89
525.73	21.84
526.078	21.86
526.425	21.94
526.772	21.81
527.119	21.72
527.466	21.52
527.814	21.64
528.161	21.41
528.508	21.72
528.854	21.66
529.201	21.87
529.548	21.71
529.895	21.59
530.242	21.58
530.588	21.37
530.935	21.3
531.282	21.37
531.628	21.41
531.975	21.47
532.321	21.57
532.667	21.86
533.014	21.84
533.36	22.22
533.706	22.28
534.052	22.38
534.399	22.29
534.745	22.49
535.091	22.06
535.437	22.03
535.783	21.89
536.129	22.09
536.474	22.22
536.82	22.37
537.166	22.54
537.512	22.56
537.857	22.6
538.203	22.74
538.549	22.73
538.894	22.67
539.239	22.72
539.585	22.73
539.93	23.04
540.276	22.94
540.621	23.22
540.966	23.17
541.311	23.43
541.656	23.4
542.001	23.34
542.346	23.35
542.691	23.39
543.036	23.06
543.381	22.97
543.726	22.67
544.071	22.84
544.415	22.87
544.76	22.89
545.105	23.03
545.449	23.35
545.794	23.42
546.138	23.44
546.483	23.59
546.827	23.59
547.171	23.77
547.516	23.92
547.86	23.93
548.204	23.97
548.548	23.93
548.892	24.02
549.236	23.77
549.58	23.89
549.924	24.14
550.268	24.25
550.612	24.3
550.956	24.33
551.3	24.45
551.643	24.51
551.987	24.74
552.33	24.7
552.674	24.79
553.017	24.92
553.361	24.82
553.704	24.84
554.048	25.04
554.391	24.65
554.734	24.84
555.077	24.84
555.42	25
555.764	25.04
556.107	25
556.45	25.16
556.793	25.06
557.135	25.25
557.478	25.15
557.821	25.5
558.164	25.45
558.507	25.42
558.849	25.39
559.192	25.58
559.534	25.55
559.877	25.51
560.219	25.64
560.562	25.71
560.904	25.8
561.246	25.91
561.589	25.81
561.931	25.91
562.273	25.82
562.615	25.7
562.957	25.77
563.299	25.95
563.641	26.09
563.983	25.89
564.325	26.03
564.667	26.16
565.008	26.21
565.35	26.37
565.692	26.12
566.033	26.22
566.375	26.35
566.716	26.28
567.058	26.37
567.399	26.46
567.741	26.37
568.082	26.39
568.423	26.52
568.764	26.65
569.105	26.59
569.447	26.37
569.788	26.54
570.129	26.7
570.47	26.88
570.811	26.67
571.151	27.13
571.492	26.68
571.833	26.87
572.174	26.91
572.514	26.95
572.855	26.85
573.195	26.98
573.536	27.1
573.876	26.96
574.217	27.12
574.557	26.92
574.898	26.95
575.238	27.07
575.578	27.19
575.918	27.18
576.258	27.33
576.598	27.38
576.938	27.34
577.278	27.42
577.618	27.32
577.958	27.45
578.298	27.6
578.638	27.51
578.977	27.72
579.317	27.61
579.657	27.69
579.996	27.97
580.336	28.01
580.675	27.8
581.014	27.9
581.354	27.98
581.693	28.33
582.032	28.05
582.372	28.24
582.711	28.28
583.05	28.23
583.389	28.15
583.728	28.33
584.067	28.39
584.406	28.35
584.745	28.16
585.083	28.49
585.422	28.84
585.761	28.38
586.1	28.72
586.438	28.87
586.777	28.59
587.115	28.97
587.454	28.6
587.792	28.96
588.13	28.79
588.469	28.76
588.807	28.88
589.145	28.88
589.483	29.05
589.821	29.08
590.159	28.88
590.497	29.05
590.835	29.38
591.173	28.99
591.511	29.19
591.849	28.88
592.187	29.09
592.524	29.3
592.862	29.38
593.2	29.3
593.537	29.16
593.875	29.62
594.212	29.29
594.55	29.81
594.887	29.24
595.224	29.67
595.561	29.92
595.899	29.76
596.236	29.62
596.573	30.02
596.91	30
597.247	29.66
597.584	29.99
597.921	30.01
598.258	30.2
598.594	30.11
598.931	29.87
599.268	29.59
599.604	29.72
599.941	29.76
600.277	29.62
600.614	30.07
600.95	30.14
601.287	30.24
601.623	30.35
601.959	30.44
602.296	30.77
602.632	30.34
602.968	30.4
603.304	30.34
603.64	30.25
603.976	30.34
604.312	30.67
604.648	30.49
604.984	30.7
605.319	30.6
605.655	30.6
605.991	30.54
606.326	30.67
606.662	30.55
606.998	30.68
607.333	30.62
607.668	30.67
608.004	30.9
608.339	30.96
608.674	31.12
609.01	30.96
609.345	30.97
609.68	31.16
610.015	31.06
610.35	31.11
610.685	31.16
611.02	30.95
611.355	31.44
611.689	31.25
612.024	31.24
612.359	30.94
612.694	31.16
613.028	31.47
613.363	31.36
613.697	31.17
614.032	31.78
614.366	31.73
614.7	31.3
615.035	31.45
615.369	31.64
615.703	31.57
616.037	31.9
616.371	32.09
616.705	32.56
617.039	31.82
617.373	32.34
617.707	31.94
618.041	32.03
618.375	32.16
618.709	31.95
619.042	32.12
619.376	32.25
619.71	32.2
620.043	32.08
620.377	32.06
620.71	32.59
621.043	32.5
621.377	32
621.71	32.38
622.043	32.51
622.376	32.52
622.709	32.87
623.043	32.48
623.376	32.76
623.709	32.4
624.041	32.39
624.374	33.09
624.707	32.91
625.04	32.94
625.373	32.54
625.705	32.81
626.038	32.99
626.37	32.99
626.703	33.04
627.035	32.61
627.368	32.99
627.7	32.86
628.032	33.01
628.365	33.09
628.697	33.15
629.029	33.09
629.361	33.21
629.693	33.12
630.025	33.23
630.357	32.79
630.689	33.1
631.021	33.19
631.353	33.56
631.684	33.67
632.016	33.33
632.348	33.24
632.679	33.52
633.011	33.69
633.342	33.53
633.674	33.94
634.005	32.99
634.336	33.8
634.668	34.04
634.999	33.89
635.33	33.5
635.661	34.16
635.992	33.86
636.323	33.57
636.654	34.04
636.985	33.76
637.316	33.55
637.647	33.65
637.977	33.92
638.308	34.25
638.639	34.02
638.969	34.46
639.3	34.04
639.63	34.32
639.961	34.46
640.291	34.17
640.622	34.68
640.952	34.18
641.282	34.26
641.612	34.5
641.943	35.24
642.273	34.76
642.603	34.2
642.933	34.71
643.263	34.6
643.592	34.59
643.922	35.23
644.252	34.66
644.582	34.91
644.911	34.63
645.241	35.24
645.571	34.44
645.9	34.79
646.23	35.06
646.559	35.14
646.888	35.5
647.218	34.83
647.547	34.77
647.876	34.78
648.205	34.63
648.534	34.37
648.863	35.14
649.192	34.86
649.521	35.33
649.85	35.4
650.179	35.37
650.508	35.23
650.837	35.14
651.165	35.43
651.494	35.69
651.822	35.4
652.151	35.37
652.479	35.61
652.808	35.5
653.136	35.55
653.465	35.19
653.793	35.66
654.121	35.67
654.449	35.79
654.777	35.91
655.105	35.39
655.433	36.16
655.761	36.65
656.089	35.8
656.417	35.87
656.745	36.14
657.073	36.34
657.4	35.98
657.728	36.28
658.056	36.04
658.383	36.88
658.711	36.17
659.038	35.78
659.365	35.91
659.693	36.34
660.02	36.48
660.347	36.45
660.674	36.11
661.001	35.74
661.329	36.03
661.656	36.23
661.982	36.08
662.309	36.25
662.636	36.32
662.963	36.69
663.29	36.5
663.616	36.44
663.943	36.57
664.27	36.73
664.596	36.43
664.923	36.5
665.249	37.03
665.576	36.3
665.902	36.63
666.228	36.97
666.554	36.31
666.881	37.16
667.207	37.08
667.533	37.04
667.859	37.37
668.185	36.98
668.511	37.58
668.837	36.99
669.162	37.4
669.488	36.78
669.814	37.07
670.139	37.16
670.465	37.22
670.791	37.91
671.116	36.82
671.442	37.67
671.767	36.73
672.092	37.82
672.418	37.9
672.743	37.82
673.068	37.47
