Data from 0215_chest_Reflection__0__205.txt Node

Date: Fri Sep 22 22:30:08 CDT 2023
User: ToomeyLab
Spectrometer: FLMS14357
Trigger mode: 0
Integration Time (sec): 1.000000E-2
Scans to average: 100
Electric dark correction enabled: true
Nonlinearity correction enabled: false
Boxcar width: 0
XAxis mode: Wavelengths
Number of Pixels in Spectrum: 2048
>>>>>Begin Spectral Data<<<<<
189.047	-430.58
189.435	-430.58
189.823	-430.58
190.211	311.02
190.599	-74.65
190.987	-339.15
191.375	198.03
191.763	-430.25
192.151	106.37
192.538	414.09
192.926	54.4
193.314	46.71
193.702	598.21
194.089	52.78
194.477	-197.56
194.864	-4722.09
195.252	5.42
195.639	-4.03
196.027	72.23
196.414	45.63
196.801	1431.33
197.189	-64.46
197.576	439.74
197.963	-265.62
198.351	42.87
198.738	36.77
199.125	-1.64
199.512	15.85
199.899	73.24
200.286	39.32
200.673	16.99
201.06	29.69
201.447	34.71
201.833	-27.13
202.22	55.2
202.607	37.72
202.994	46.18
203.38	101.5
203.767	-5.08
204.154	38.69
204.54	22.12
204.927	39.88
205.313	65.1
205.699	88.32
206.086	24.61
206.472	36.58
206.858	36.22
207.245	33.95
207.631	29.04
208.017	59.95
208.403	27.61
208.789	43.45
209.175	39.56
209.561	43.93
209.947	43.21
210.333	28.93
210.719	-12.78
211.105	27.64
211.491	5.13
211.876	62.58
212.262	29.05
212.648	53.56
213.034	33.5
213.419	40.4
213.805	-6.99
214.19	0.53
214.576	26.81
214.961	30.66
215.346	18.08
215.732	17.19
216.117	31.76
216.502	36.84
216.888	19.91
217.273	22.14
217.658	13.83
218.043	45.45
218.428	53.82
218.813	-29.23
219.198	33.52
219.583	18.29
219.968	4.66
220.353	38.23
220.738	10.48
221.122	13.43
221.507	4.74
221.892	3.25
222.276	20.11
222.661	-10.48
223.046	31.11
223.43	23.34
223.815	10.1
224.199	-2.1
224.583	10.59
224.968	8.19
225.352	15.47
225.736	8.68
226.121	9.41
226.505	2.36
226.889	10.59
227.273	15.7
227.657	2.57
228.041	4.88
228.425	12.74
228.809	4.25
229.193	1.17
229.577	8.77
229.961	7.32
230.344	5.81
230.728	4.62
231.112	5.19
231.495	4.44
231.879	4.02
232.263	4.49
232.646	3.37
233.03	3.01
233.413	5.24
233.797	5.35
234.18	3.43
234.563	7.35
234.946	7.95
235.33	2.71
235.713	3.35
236.096	2.5
236.479	3.66
236.862	6.76
237.245	4.02
237.628	5.61
238.011	5.98
238.394	5.08
238.777	7.55
239.16	3.59
239.543	4.98
239.925	6.46
240.308	6.5
240.691	5.13
241.073	6.21
241.456	5.82
241.838	5.62
242.221	4.4
242.603	4.65
242.986	3.37
243.368	4.24
243.75	5.11
244.133	4.69
244.515	4.47
244.897	4.07
245.279	4.69
245.661	4.18
246.043	4.6
246.425	3.68
246.807	5.25
247.189	3.77
247.571	4.94
247.953	5.25
248.335	4.5
248.717	4.16
249.098	4.4
249.48	4.49
249.862	4.39
250.243	4.34
250.625	4.71
251.006	4.44
251.388	4.98
251.769	4.96
252.151	4.56
252.532	4.96
252.913	5.93
253.295	5.59
253.676	4.64
254.057	4.6
254.438	5.05
254.819	3.91
255.2	5.2
255.581	3.71
255.962	5.33
256.343	4.67
256.724	3.87
257.105	5.68
257.486	4.22
257.867	5.89
258.247	5.27
258.628	5.05
259.009	4.13
259.389	4.68
259.77	5
260.15	5.03
260.531	4.78
260.911	4.59
261.292	4.72
261.672	3.85
262.052	4.65
262.432	4.32
262.813	4.53
263.193	4.59
263.573	4.62
263.953	4.55
264.333	4.04
264.713	4.55
265.093	4.65
265.473	4.34
265.853	4.15
266.233	4.04
266.612	4.36
266.992	3.92
267.372	5.33
267.752	4.86
268.131	4.5
268.511	4.03
268.89	4.69
269.27	4.05
269.649	4.82
270.029	4.1
270.408	3.98
270.787	4.34
271.167	4.37
271.546	3.33
271.925	3.81
272.304	4.03
272.683	4.25
273.062	4.52
273.441	4.26
273.82	4.44
274.199	4.25
274.578	4.46
274.957	4.22
275.336	3.91
275.715	4.1
276.093	4.37
276.472	4.06
276.851	4.27
277.229	3.07
277.608	4.11
277.986	4.14
278.365	4.31
278.743	4.36
279.122	4.42
279.5	4.65
279.878	4.2
280.257	4.82
280.635	3.95
281.013	4.03
281.391	4.02
281.769	3.99
282.147	4.45
282.525	4.16
282.903	4.6
283.281	4.41
283.659	4.01
284.037	3.66
284.415	4.39
284.792	4.2
285.17	4.37
285.548	4.84
285.925	4.8
286.303	4.42
286.68	3.89
287.058	4.22
287.435	3.95
287.813	3.81
288.19	3.75
288.567	4.16
288.945	3.61
289.322	4.17
289.699	4.42
290.076	4.9
290.453	3.82
290.83	3.93
291.207	4.33
291.584	3.83
291.961	3.93
292.338	4.28
292.715	4.04
293.092	4.35
293.469	4.56
293.845	4.4
294.222	4.55
294.599	4.73
294.975	4.94
295.352	4.76
295.728	4.98
296.105	4.66
296.481	4.74
296.858	4.93
297.234	4.77
297.61	4.43
297.986	4.69
298.363	4.65
298.739	4.55
299.115	4.8
299.491	4.94
299.867	4.87
300.243	4.69
300.619	4.95
300.995	4.66
301.371	5.26
301.746	5.86
302.122	4.83
302.498	4.91
302.874	4.83
303.249	5.11
303.625	4.61
304	5.31
304.376	5.24
304.751	5.53
305.127	4.79
305.502	5.88
305.878	5.42
306.253	5.5
306.628	5.25
307.003	5.22
307.378	5.46
307.754	5.19
308.129	5.36
308.504	5.84
308.879	5.37
309.254	5.46
309.629	5.91
310.003	5.78
310.378	5.94
310.753	5.55
311.128	5.88
311.502	5.82
311.877	5.02
312.252	5.62
312.626	5.5
313.001	5.62
313.375	5.93
313.75	5.74
314.124	5.93
314.498	5.44
314.873	5.65
315.247	5.52
315.621	5.48
315.995	5.68
316.369	5.69
316.743	5.41
317.117	6.33
317.491	5.96
317.865	5.74
318.239	5.96
318.613	5.81
318.987	5.63
319.361	5.32
319.734	5.49
320.108	6.23
320.482	5.91
320.855	5.04
321.229	6
321.602	6.32
321.976	5.8
322.349	6.19
322.723	6.25
323.096	5.53
323.469	5.66
323.843	5.65
324.216	6.43
324.589	6.3
324.962	5.39
325.335	5.83
325.708	5.96
326.081	6.4
326.454	5.16
326.827	5.84
327.2	5.82
327.573	6.33
327.945	5.75
328.318	6.01
328.691	6.71
329.063	6.14
329.436	6.29
329.809	5.88
330.181	6.4
330.553	6.42
330.926	5.92
331.298	5.8
331.671	6.38
332.043	5.96
332.415	5.49
332.787	6.04
333.159	5.99
333.532	6.25
333.904	6.12
334.276	5.72
334.648	5.92
335.02	5.61
335.391	6.23
335.763	6.53
336.135	6.07
336.507	6.28
336.879	5.76
337.25	6.64
337.622	6.56
337.993	6.14
338.365	6.6
338.736	6.07
339.108	6.45
339.479	6.17
339.851	5.75
340.222	6.15
340.593	6.46
340.964	6.28
341.336	6.4
341.707	6.23
342.078	6.58
342.449	6.56
342.82	6
343.191	6.04
343.562	6.33
343.933	6.13
344.303	6.2
344.674	6.04
345.045	6.15
345.416	7.08
345.786	5.91
346.157	6.41
346.527	6.32
346.898	6.02
347.268	6.16
347.639	6.12
348.009	6.25
348.38	6.87
348.75	6.61
349.12	6.35
349.49	6.7
349.861	6.41
350.231	6.61
350.601	6.35
350.971	6.64
351.341	6.38
351.711	6.17
352.081	6.23
352.45	6.25
352.82	6.62
353.19	6.33
353.56	6.69
353.929	6.32
354.299	6.55
354.669	6.49
355.038	6.38
355.408	6.23
355.777	6.77
356.147	6.6
356.516	6.99
356.885	6.52
357.254	6.87
357.624	6.39
357.993	6.64
358.362	6.61
358.731	6.29
359.1	6.46
359.469	6.65
359.838	6.26
360.207	6.39
360.576	6.61
360.945	6.57
361.314	6.32
361.682	6.81
362.051	6.89
362.42	6.5
362.788	6.29
363.157	6.34
363.525	6.51
363.894	6.36
364.262	6.49
364.631	6.49
364.999	6.37
365.367	6.68
365.735	6.29
366.104	6.55
366.472	7.19
366.84	6.48
367.208	6.6
367.576	6.91
367.944	6.68
368.312	6.79
368.68	6.69
369.048	6.97
369.416	7.08
369.783	6.65
370.151	6.19
370.519	6.42
370.886	6.43
371.254	6.9
371.621	6.36
371.989	6.66
372.356	6.5
372.724	6.77
373.091	6.67
373.458	6.69
373.826	6.96
374.193	6.79
374.56	6.76
374.927	6.66
375.294	6.82
375.661	6.38
376.028	6.96
376.395	6.86
376.762	6.8
377.129	7.04
377.496	7.21
377.863	6.96
378.229	7.16
378.596	6.9
378.963	7.12
379.329	6.45
379.696	7
380.062	6.61
380.429	6.94
380.795	7.1
381.161	6.55
381.528	6.76
381.894	6.67
382.26	7.19
382.626	6.84
382.993	7.03
383.359	6.45
383.725	6.64
384.091	6.99
384.457	6.93
384.823	6.87
385.188	7.04
385.554	6.73
385.92	7.09
386.286	7.02
386.651	6.91
387.017	7.1
387.383	6.61
387.748	6.57
388.114	6.85
388.479	6.84
388.845	6.83
389.21	6.55
389.575	7.25
389.94	6.71
390.306	7.21
390.671	7.33
391.036	6.57
391.401	6.94
391.766	6.94
392.131	7.04
392.496	7.21
392.861	7.17
393.226	7.22
393.591	7.09
393.956	7.11
394.32	7.07
394.685	6.91
395.05	7.25
395.414	7.24
395.779	7.28
396.143	7.06
396.508	6.82
396.872	6.94
397.236	7.29
397.601	7.02
397.965	7.29
398.329	6.96
398.694	6.93
399.058	7.13
399.422	6.86
399.786	7.28
400.15	7.13
400.514	6.88
400.878	7.11
401.242	7.26
401.605	7.24
401.969	7.06
402.333	7.41
402.697	7.05
403.06	7.03
403.424	7.28
403.787	7.4
404.151	7.36
404.514	7.33
404.878	7.26
405.241	7.57
405.604	7.36
405.968	7.3
406.331	7.28
406.694	7.33
407.057	7.07
407.42	7.22
407.783	7.42
408.146	7.2
408.509	7.15
408.872	7.24
409.235	7.31
409.598	7.17
409.961	7.35
410.323	7.23
410.686	7.46
411.049	7.54
411.411	7.41
411.774	7.33
412.136	7.29
412.499	7.31
412.861	7.3
413.223	7.53
413.586	7.32
413.948	7.34
414.31	7.35
414.672	7.3
415.035	7.51
415.397	7.36
415.759	7.89
416.121	7.36
416.483	7.51
416.845	7.4
417.206	7.24
417.568	7.56
417.93	7.51
418.292	7.35
418.653	7.22
419.015	7.44
419.377	7.16
419.738	7.42
420.1	7.32
420.461	7.43
420.822	7.31
421.184	7.35
421.545	7.37
421.906	7.23
422.267	7.16
422.629	7.36
422.99	7.25
423.351	7.21
423.712	7.26
424.073	7.21
424.434	7.32
424.795	7.32
425.155	7.37
425.516	7.24
425.877	7.39
426.238	7.14
426.598	7.2
426.959	7.22
427.32	7.41
427.68	7.35
428.041	7.31
428.401	7.34
428.761	7.44
429.122	7.5
429.482	7.44
429.842	7.5
430.202	7.49
430.563	7.48
430.923	7.62
431.283	7.8
431.643	7.68
432.003	7.73
432.363	7.81
432.722	7.77
433.082	7.66
433.442	7.61
433.802	7.83
434.161	7.43
434.521	7.57
434.881	7.67
435.24	7.72
435.6	7.5
435.959	7.49
436.319	7.68
436.678	7.69
437.037	7.74
437.396	7.72
437.756	7.61
438.115	7.5
438.474	7.53
438.833	7.77
439.192	7.75
439.551	7.7
439.91	7.82
440.269	7.68
440.628	7.73
440.987	7.74
441.345	7.69
441.704	7.72
442.063	7.75
442.421	7.66
442.78	7.62
443.138	7.62
443.497	7.6
443.855	7.7
444.214	7.62
444.572	7.85
444.93	7.72
445.288	7.53
445.647	7.82
446.005	7.74
446.363	7.63
446.721	7.75
447.079	7.78
447.437	7.8
447.795	7.87
448.153	7.66
448.51	7.75
448.868	7.71
449.226	7.74
449.584	7.71
449.941	7.62
450.299	7.78
450.656	7.82
451.014	7.86
451.371	7.95
451.729	7.96
452.086	7.79
452.443	7.99
452.801	7.94
453.158	7.77
453.515	7.99
453.872	8.02
454.229	7.9
454.586	7.98
454.943	7.94
455.3	7.98
455.657	7.92
456.014	8.06
456.371	8.02
456.727	8.23
457.084	7.98
457.441	7.94
457.797	7.92
458.154	8.18
458.51	7.95
458.867	8.04
459.223	8.08
459.58	8.05
459.936	8.09
460.292	8.11
460.648	8.21
461.005	8.03
461.361	8.14
461.717	7.87
462.073	8.05
462.429	7.94
462.785	7.89
463.141	7.98
463.496	8.09
463.852	8.18
464.208	8.04
464.564	8.27
464.919	8.06
465.275	8.37
465.631	8.42
465.986	8.26
466.342	8.25
466.697	8.38
467.052	8.12
467.408	8.26
467.763	8.34
468.118	8.5
468.473	8.11
468.829	8.24
469.184	8.37
469.539	8.23
469.894	8.2
470.249	8.29
470.603	8.12
470.958	8.31
471.313	8.3
471.668	8.36
472.023	8.28
472.377	8.32
472.732	8.32
473.086	8.53
473.441	8.32
473.795	8.56
474.15	8.12
474.504	8.28
474.859	8.61
475.213	8.04
475.567	8.34
475.921	8.48
476.275	8.44
476.63	8.29
476.984	8.39
477.338	8.52
477.692	8.43
478.045	8.61
478.399	8.53
478.753	8.36
479.107	8.46
479.461	8.5
479.814	8.48
480.168	8.54
480.521	8.56
480.875	8.54
481.228	8.56
481.582	8.4
481.935	8.41
482.289	8.55
482.642	8.5
482.995	8.62
483.348	8.55
483.701	8.57
484.055	8.43
484.408	8.5
484.761	8.52
485.114	8.35
485.466	8.32
485.819	8.19
486.172	8.2
486.525	8.19
486.878	8.13
487.23	8.13
487.583	8.25
487.936	8.33
488.288	8.43
488.641	8.35
488.993	8.33
489.345	8.39
489.698	8.38
490.05	8.34
490.402	8.33
490.754	8.33
491.107	8.35
491.459	8.39
491.811	8.44
492.163	8.66
492.515	8.58
492.866	8.66
493.218	8.63
493.57	8.69
493.922	8.56
494.274	8.49
494.625	8.45
494.977	8.56
495.328	8.61
495.68	8.68
496.031	8.6
496.383	8.85
496.734	8.75
497.086	8.77
497.437	8.87
497.788	8.96
498.139	8.79
498.49	9.05
498.842	8.87
499.193	8.91
499.544	8.94
499.894	8.91
500.245	9
500.596	9
500.947	9.02
501.298	9.07
501.648	8.96
501.999	9.05
502.35	9.07
502.7	9.2
503.051	9.24
503.401	9.16
503.752	9.1
504.102	9.06
504.452	9.21
504.803	9.23
505.153	9.05
505.503	9.11
505.853	9.31
506.203	9.09
506.553	9.22
506.903	9.32
507.253	9.21
507.603	9.31
507.953	9.34
508.303	9.35
508.652	9.42
509.002	9.46
509.352	9.16
509.701	9.45
510.051	9.33
510.4	9.51
510.75	9.38
511.099	9.23
511.449	9.39
511.798	9.33
512.147	9.37
512.496	9.32
512.846	9.49
513.195	9.35
513.544	9.48
513.893	9.48
514.242	9.38
514.591	9.55
514.939	9.45
515.288	9.44
515.637	9.55
515.986	9.53
516.334	9.55
516.683	9.69
517.032	9.63
517.38	9.68
517.729	9.64
518.077	9.73
518.426	9.58
518.774	9.61
519.122	9.6
519.47	9.71
519.819	9.72
520.167	9.7
520.515	9.75
520.863	9.69
521.211	9.66
521.559	9.69
521.907	9.7
522.255	9.78
522.602	9.89
522.95	9.83
523.298	9.83
523.645	9.89
523.993	9.9
524.341	9.97
524.688	10.11
525.036	10.07
525.383	10.05
525.73	10.08
526.078	9.96
526.425	10.09
526.772	10.17
527.119	10.09
527.466	9.91
527.814	10.03
528.161	9.93
528.508	10.04
528.854	10.01
529.201	10.04
529.548	9.99
529.895	9.97
530.242	10.01
530.588	9.88
530.935	9.83
531.282	9.87
531.628	9.81
531.975	9.82
532.321	9.81
532.667	10.03
533.014	10.05
533.36	10.22
533.706	10.27
534.052	10.39
534.399	10.4
534.745	10.33
535.091	10.25
535.437	10.22
535.783	10.19
536.129	10.29
536.474	10.32
536.82	10.2
537.166	10.42
537.512	10.45
537.857	10.5
538.203	10.55
538.549	10.48
538.894	10.59
539.239	10.64
539.585	10.52
539.93	10.69
540.276	10.62
540.621	10.73
540.966	10.69
541.311	10.85
541.656	10.83
542.001	10.87
542.346	10.85
542.691	10.89
543.036	10.8
543.381	10.81
543.726	10.74
544.071	10.73
544.415	10.64
544.76	10.68
545.105	10.69
545.449	10.79
545.794	10.99
546.138	11.01
546.483	10.91
546.827	11.07
547.171	11.06
547.516	11.2
547.86	11.31
548.204	11.27
548.548	11.3
548.892	11.32
549.236	11.18
549.58	11.29
549.924	11.54
550.268	11.46
550.612	11.39
550.956	11.48
551.3	11.55
551.643	11.47
551.987	11.62
552.33	11.71
552.674	11.7
553.017	11.7
553.361	11.64
553.704	11.92
554.048	11.93
554.391	11.97
554.734	11.88
555.077	11.95
555.42	11.83
555.764	11.9
556.107	11.79
556.45	11.93
556.793	11.85
557.135	12.2
557.478	11.77
557.821	12.19
558.164	12.35
558.507	12.38
558.849	12.08
559.192	12.19
559.534	12.29
559.877	12.32
560.219	12.44
560.562	12.37
560.904	12.47
561.246	12.4
561.589	12.23
561.931	12.53
562.273	12.3
562.615	12.56
562.957	12.41
563.299	12.62
563.641	12.66
563.983	12.67
564.325	12.66
564.667	12.66
565.008	12.72
565.35	12.87
565.692	12.92
566.033	12.69
566.375	12.88
566.716	12.89
567.058	12.82
567.399	12.95
567.741	13.12
568.082	13.03
568.423	13.01
568.764	13.1
569.105	12.67
569.447	13
569.788	12.76
570.129	13.14
570.47	13.13
570.811	13.35
571.151	13.37
571.492	13.2
571.833	13.38
572.174	13.33
572.514	13.28
572.855	13.27
573.195	13.22
573.536	13.55
573.876	13.29
574.217	13.5
574.557	13.51
574.898	13.49
575.238	13.5
575.578	13.63
575.918	13.61
576.258	13.44
576.598	13.7
576.938	13.73
577.278	13.9
577.618	13.71
577.958	13.84
578.298	13.82
578.638	13.83
578.977	13.99
579.317	14.01
579.657	14.1
579.996	14.12
580.336	14.32
580.675	14.23
581.014	14.23
581.354	14.16
581.693	14.24
582.032	14.35
582.372	14.33
582.711	14.26
583.05	14.37
583.389	14.47
583.728	14.36
584.067	14.55
584.406	14.72
584.745	14.43
585.083	14.94
585.422	14.65
585.761	14.44
586.1	14.88
586.438	14.9
586.777	14.79
587.115	15.07
587.454	14.76
587.792	15.07
588.13	15.1
588.469	15.09
588.807	15.24
589.145	14.98
589.483	15.16
589.821	15.18
590.159	14.97
590.497	15.26
590.835	15.25
591.173	15.59
591.511	15.24
591.849	15.32
592.187	15.38
592.524	15.63
592.862	15.35
593.2	15.51
593.537	15.52
593.875	15.52
594.212	15.46
594.55	16.01
594.887	15.58
595.224	15.57
595.561	15.85
595.899	15.87
596.236	16.09
596.573	15.98
596.91	15.81
597.247	15.47
597.584	15.96
597.921	15.93
598.258	16.17
598.594	16
598.931	16.05
599.268	15.97
599.604	15.99
599.941	16.09
600.277	15.95
600.614	15.95
600.95	16.07
601.287	16.35
601.623	16.15
601.959	16.34
602.296	16.36
602.632	16.23
602.968	16.37
603.304	16.56
603.64	16.59
603.976	16.29
604.312	16.51
604.648	16.43
604.984	16.76
605.319	16.77
605.655	16.73
605.991	16.76
606.326	16.83
606.662	16.71
606.998	16.67
607.333	16.89
607.668	16.75
608.004	16.87
608.339	16.89
608.674	17.04
609.01	16.97
609.345	17.02
609.68	17.45
610.015	17.04
610.35	16.95
610.685	16.92
611.02	17.35
611.355	17.62
611.689	17.31
612.024	17.41
612.359	17.21
612.694	17.23
613.028	17.39
613.363	17.15
613.697	17.48
614.032	17.27
614.366	17.45
614.7	17.6
615.035	17.53
615.369	17.43
615.703	17.79
616.037	17.84
616.371	17.95
616.705	18.16
617.039	18.15
617.373	17.97
617.707	18.19
618.041	18.12
618.375	18.4
618.709	18.33
619.042	18.61
619.376	18.59
619.71	18.26
620.043	17.92
620.377	18.14
620.71	18.65
621.043	18.74
621.377	18.09
621.71	18.35
622.043	18.48
622.376	18.69
622.709	18.34
623.043	18.49
623.376	18.79
623.709	18.57
624.041	18.53
624.374	18.94
624.707	18.85
625.04	19.26
625.373	18.51
625.705	18.83
626.038	18.72
626.37	19.23
626.703	19.18
627.035	18.94
627.368	19.32
627.7	19.07
628.032	19.33
628.365	19.37
628.697	19.29
629.029	19.22
629.361	19.47
629.693	19.6
630.025	19.38
630.357	19.21
630.689	19.55
631.021	19.46
631.353	19.45
631.684	19.46
632.016	19.88
632.348	19.31
632.679	19.46
633.011	19.92
633.342	19.78
633.674	20.21
634.005	19.93
634.336	19.97
634.668	20.04
634.999	19.66
635.33	20.22
635.661	19.9
635.992	20.29
636.323	19.9
636.654	20.45
636.985	19.67
637.316	19.89
637.647	20.13
637.977	20
638.308	20.33
638.639	19.96
638.969	20.38
639.3	20.38
639.63	20.68
639.961	19.75
640.291	20.36
640.622	20.81
640.952	20.26
641.282	20.83
641.612	20.33
641.943	20.86
642.273	21
642.603	20.82
642.933	20.83
643.263	20.09
643.592	20.43
643.922	21.11
644.252	20.47
644.582	20.94
644.911	21.08
645.241	21.3
645.571	21.01
645.9	21.54
646.23	21.39
646.559	21.48
646.888	21.18
647.218	21.31
647.547	20.96
647.876	21.25
648.205	21
648.534	21.59
648.863	21.53
649.192	20.92
649.521	21.91
649.85	21.61
650.179	21.19
650.508	21.39
650.837	21.76
651.165	22.1
651.494	21.73
651.822	21.65
652.151	21.54
652.479	21.78
652.808	21.43
653.136	22.24
653.465	21.65
653.793	22.14
654.121	22.05
654.449	21.76
654.777	21.85
655.105	22.01
655.433	22.25
655.761	22.28
656.089	22.24
656.417	21.93
656.745	22.44
657.073	22.51
657.4	22.85
657.728	22.26
658.056	22.14
658.383	23.07
658.711	21.93
659.038	22.44
659.365	22.62
659.693	22.86
660.02	23.4
660.347	22.72
660.674	22.69
661.001	22.96
661.329	23.08
661.656	22.49
661.982	22.52
662.309	22.79
662.636	22.61
662.963	22.91
663.29	22.79
663.616	22.86
663.943	23.53
664.27	22.75
664.596	22.93
664.923	23.12
665.249	23.26
665.576	22.45
665.902	23.5
666.228	23.44
666.554	23.21
666.881	24.11
667.207	23.4
667.533	22.66
667.859	23.82
668.185	23.59
668.511	24.25
668.837	23.35
669.162	23.72
669.488	23.52
669.814	23.42
670.139	24.03
670.465	23.77
670.791	24.04
671.116	23.36
671.442	24.12
671.767	23.19
672.092	23.94
672.418	24.14
672.743	23.75
673.068	24.01
673.393	23.41
673.718	24.17
674.043	24.09
674.368	24.09
674.693	23.74
675.018	24.2
675.343	23.83
675.667	24.59
675.992	24.33
676.317	24.76
676.641	24.69
676.966	24.31
677.29	24.69
677.615	24.7
677.939	24.62
678.264	25.06
678.588	24.51
678.912	24.69
679.236	24.47
679.56	24.35
679.885	24.43
680.209	25.36
680.532	24.79
680.856	24.6
681.18	24.51
681.504	25.22
