Data from 0215_forehead_Reflection__0__215.txt Node

Date: Fri Sep 22 22:33:26 CDT 2023
User: ToomeyLab
Spectrometer: FLMS14357
Trigger mode: 0
Integration Time (sec): 1.000000E-2
Scans to average: 100
Electric dark correction enabled: true
Nonlinearity correction enabled: false
Boxcar width: 0
XAxis mode: Wavelengths
Number of Pixels in Spectrum: 2048
>>>>>Begin Spectral Data<<<<<
189.047	848.2
189.435	848.2
189.823	848.2
190.211	372.98
190.599	221.62
190.987	-178.18
191.375	199.49
191.763	-279.47
192.151	144.69
192.538	662.23
192.926	73.81
193.314	34.27
193.702	376.21
194.089	71.98
194.477	186.26
194.864	-8290.7
195.252	27.97
195.639	15.01
196.027	120.14
196.414	141.09
196.801	1348
197.189	0.12
197.576	903.73
197.963	-416.59
198.351	27.72
198.738	-11.7
199.125	18.38
199.512	15.06
199.899	58.19
200.286	26.51
200.673	17.69
201.06	86.59
201.447	52.05
201.833	-39.57
202.22	69.71
202.607	73.75
202.994	32.55
203.38	-27.32
203.767	-5.58
204.154	37.8
204.54	60.35
204.927	5.44
205.313	39.31
205.699	58.65
206.086	55.39
206.472	61.61
206.858	69.92
207.245	7.74
207.631	49.19
208.017	41.83
208.403	-2.89
208.789	58.24
209.175	59.86
209.561	35.59
209.947	41.32
210.333	49.94
210.719	23.47
211.105	81.81
211.491	74.11
211.876	56.12
212.262	43.07
212.648	41.19
213.034	10.46
213.419	22.99
213.805	30.96
214.19	42.86
214.576	42.89
214.961	22.1
215.346	3.36
215.732	26.4
216.117	43.52
216.502	45.85
216.888	11.67
217.273	16.67
217.658	27.43
218.043	26.29
218.428	40.87
218.813	-28.89
219.198	10.22
219.583	24.2
219.968	0.73
220.353	39.68
220.738	6.92
221.122	22.73
221.507	19.66
221.892	39.45
222.276	6.75
222.661	2.67
223.046	19.06
223.43	27.36
223.815	12.94
224.199	-11.95
224.583	19.64
224.968	11.25
225.352	4.93
225.736	11.45
226.121	12.55
226.505	9.02
226.889	6.61
227.273	4.64
227.657	4.32
228.041	10.86
228.425	10.09
228.809	1.98
229.193	1.89
229.577	5.69
229.961	4.22
230.344	5.13
230.728	2.46
231.112	3.47
231.495	2.84
231.879	3.51
232.263	2.95
232.646	3.81
233.03	3.02
233.413	4.1
233.797	4.38
234.18	3.7
234.563	6.42
234.946	5.22
235.33	2.05
235.713	2.3
236.096	4.06
236.479	4.01
236.862	5.49
237.245	4.37
237.628	4.15
238.011	4.9
238.394	2.77
238.777	5.19
239.16	3.55
239.543	3.74
239.925	5.34
240.308	5.24
240.691	5.95
241.073	3.62
241.456	1.6
241.838	3.82
242.221	4.01
242.603	3.3
242.986	3.6
243.368	2.46
243.75	3.84
244.133	4.25
244.515	3
244.897	3.18
245.279	3.18
245.661	3.06
246.043	2.83
246.425	2.52
246.807	3.88
247.189	2.78
247.571	4
247.953	3.87
248.335	3.7
248.717	3.77
249.098	3.39
249.48	3.25
249.862	3.37
250.243	3.22
250.625	3.52
251.006	3.29
251.388	3.2
251.769	4.2
252.151	3.5
252.532	3.59
252.913	3.35
253.295	4.7
253.676	4.19
254.057	3.53
254.438	3.64
254.819	3.24
255.2	3.49
255.581	3.4
255.962	5.14
256.343	4.39
256.724	3.26
257.105	3.83
257.486	3.44
257.867	4.09
258.247	4.93
258.628	4.97
259.009	4.13
259.389	3.56
259.77	3.63
260.15	4.55
260.531	3.17
260.911	3.36
261.292	3.41
261.672	3.15
262.052	3.39
262.432	3.31
262.813	3.35
263.193	3.11
263.573	3.83
263.953	3.38
264.333	2.73
264.713	3.81
265.093	3.67
265.473	3.6
265.853	3.25
266.233	3.1
266.612	4.07
266.992	3.11
267.372	3.49
267.752	4.72
268.131	3.54
268.511	3.07
268.89	3.64
269.27	3.56
269.649	4.13
270.029	3.33
270.408	3.05
270.787	3.48
271.167	3.67
271.546	3.46
271.925	4.06
272.304	3.09
272.683	3.32
273.062	3.31
273.441	3.36
273.82	3.77
274.199	3.06
274.578	3.92
274.957	3.45
275.336	3.43
275.715	3.47
276.093	3.25
276.472	3.49
276.851	3.43
277.229	2.89
277.608	3.86
277.986	3.61
278.365	3.73
278.743	3.35
279.122	3.58
279.5	3.54
279.878	3.16
280.257	3.84
280.635	2.88
281.013	3.67
281.391	2.88
281.769	3.47
282.147	3.91
282.525	4.03
282.903	3.44
283.281	3.59
283.659	3.55
284.037	3.22
284.415	4.03
284.792	3.4
285.17	3.64
285.548	4.2
285.925	3.4
286.303	3.2
286.68	3.16
287.058	3.3
287.435	3.05
287.813	3.41
288.19	2.91
288.567	3.53
288.945	3.38
289.322	3.42
289.699	3.48
290.076	3.69
290.453	3.27
290.83	3.49
291.207	3.5
291.584	3.5
291.961	3.39
292.338	3.81
292.715	4.18
293.092	3.73
293.469	3.78
293.845	4.04
294.222	4.35
294.599	4.25
294.975	4.59
295.352	4.39
295.728	4.53
296.105	4.9
296.481	4.07
296.858	4.04
297.234	4.25
297.61	4.25
297.986	4.27
298.363	4.3
298.739	4
299.115	4.22
299.491	4.27
299.867	4.52
300.243	4.06
300.619	4.19
300.995	4.29
301.371	4.62
301.746	4.54
302.122	4.36
302.498	4.48
302.874	4.41
303.249	4.53
303.625	4.22
304	5.13
304.376	5.38
304.751	4.94
305.127	4.72
305.502	5.37
305.878	5.35
306.253	5.38
306.628	4.91
307.003	5.19
307.378	5.06
307.754	5.13
308.129	4.95
308.504	5.46
308.879	5.06
309.254	5.45
309.629	5.29
310.003	6.07
310.378	6.18
310.753	5.49
311.128	5.92
311.502	5.74
311.877	5.08
312.252	5.41
312.626	5.55
313.001	5.64
313.375	5.73
313.75	5.9
314.124	5.95
314.498	5.6
314.873	6.43
315.247	6.44
315.621	6.44
315.995	6.3
316.369	6.2
316.743	6.41
317.117	6.6
317.491	7.09
317.865	6.22
318.239	6.28
318.613	6.84
318.987	6.52
319.361	6.13
319.734	6.83
320.108	7.55
320.482	6.48
320.855	6.77
321.229	7.36
321.602	6.95
321.976	6.92
322.349	7.1
322.723	7.25
323.096	7.31
323.469	6.84
323.843	7.02
324.216	7.16
324.589	7.75
324.962	6.79
325.335	7.29
325.708	7.46
326.081	7.5
326.454	7.23
326.827	7.86
327.2	7.09
327.573	8.07
327.945	7.89
328.318	7.46
328.691	7.83
329.063	7.77
329.436	7.35
329.809	8.1
330.181	8.29
330.553	8.34
330.926	8.23
331.298	7.85
331.671	8.25
332.043	7.67
332.415	7.57
332.787	8.63
333.159	7.71
333.532	7.86
333.904	8.28
334.276	7.8
334.648	7.97
335.02	8.29
335.391	8.38
335.763	8.66
336.135	8.35
336.507	8.69
336.879	8.37
337.25	8.67
337.622	9.01
337.993	8.04
338.365	9.25
338.736	8.77
339.108	9.15
339.479	8.42
339.851	8.89
340.222	8.76
340.593	8.05
340.964	8.27
341.336	8.82
341.707	8.99
342.078	9.02
342.449	9.1
342.82	8.82
343.191	8.95
343.562	8.85
343.933	9.24
344.303	9.15
344.674	9.29
345.045	9.54
345.416	9.9
345.786	9.48
346.157	9.35
346.527	9.25
346.898	9.1
347.268	9.44
347.639	9.67
348.009	9.58
348.38	9.97
348.75	10.05
349.12	9.43
349.49	9.76
349.861	9.59
350.231	9.84
350.601	9.86
350.971	10.02
351.341	9.88
351.711	10.11
352.081	9.91
352.45	9.78
352.82	10.33
353.19	10.34
353.56	9.96
353.929	10.28
354.299	10.47
354.669	9.89
355.038	9.96
355.408	10.04
355.777	10.58
356.147	10.21
356.516	10.51
356.885	10.73
357.254	10.71
357.624	10.06
357.993	10.6
358.362	10.85
358.731	10.23
359.1	10.31
359.469	10.88
359.838	10.28
360.207	10.44
360.576	10.66
360.945	10.61
361.314	10.84
361.682	11.16
362.051	11.26
362.42	10.8
362.788	10.9
363.157	10.98
363.525	11.08
363.894	10.85
364.262	10.78
364.631	10.81
364.999	11.24
365.367	11.12
365.735	11.29
366.104	11.36
366.472	11.7
366.84	11.32
367.208	11.45
367.576	11.58
367.944	11.45
368.312	11.95
368.68	11.73
369.048	11.57
369.416	11.85
369.783	11.31
370.151	11.27
370.519	11.65
370.886	11.68
371.254	11.76
371.621	11.73
371.989	11.9
372.356	11.87
372.724	11.81
373.091	12.24
373.458	12.34
373.826	12.01
374.193	12.41
374.56	12.21
374.927	12.3
375.294	12
375.661	12.1
376.028	12.27
376.395	12.63
376.762	12.56
377.129	12.81
377.496	12.63
377.863	12.86
378.229	12.83
378.596	12.68
378.963	13.09
379.329	12.6
379.696	12.87
380.062	12.83
380.429	12.71
380.795	12.8
381.161	12.99
381.528	13.07
381.894	12.58
382.26	12.93
382.626	13.22
382.993	13.38
383.359	12.89
383.725	13.14
384.091	13.17
384.457	13.28
384.823	13.05
385.188	13.64
385.554	13.51
385.92	13.81
386.286	13.56
386.651	13.28
387.017	13.71
387.383	13.74
387.748	13.65
388.114	13.73
388.479	13.83
388.845	13.77
389.21	13.6
389.575	14.1
389.94	13.75
390.306	13.94
390.671	14.3
391.036	13.91
391.401	14.17
391.766	13.79
392.131	14.13
392.496	14.11
392.861	14.01
393.226	14.43
393.591	14.17
393.956	14.15
394.32	14.35
394.685	14.32
395.05	14.65
395.414	14.56
395.779	14.46
396.143	14.49
396.508	14.58
396.872	14.6
397.236	14.5
397.601	14.49
397.965	14.79
398.329	15.09
398.694	14.87
399.058	14.67
399.422	15.03
399.786	15.2
400.15	15.43
400.514	14.96
400.878	15.13
401.242	15.02
401.605	15.06
401.969	15.01
402.333	15.5
402.697	15.13
403.06	15.13
403.424	15.27
403.787	15.56
404.151	15.59
404.514	15.68
404.878	15.88
405.241	15.91
405.604	15.72
405.968	15.85
406.331	15.63
406.694	15.67
407.057	15.66
407.42	15.75
407.783	15.88
408.146	15.82
408.509	15.99
408.872	15.94
409.235	16.16
409.598	15.91
409.961	16.24
410.323	16.31
410.686	16.1
411.049	16.27
411.411	16.12
411.774	16.21
412.136	16.32
412.499	16.27
412.861	16.34
413.223	16.31
413.586	16.53
413.948	16.62
414.31	16.64
414.672	16.71
415.035	16.64
415.397	17.06
415.759	16.83
416.121	16.68
416.483	16.69
416.845	16.66
417.206	16.84
417.568	16.75
417.93	16.77
418.292	16.88
418.653	16.85
419.015	16.91
419.377	16.85
419.738	17.09
420.1	16.86
420.461	16.8
420.822	16.86
421.184	16.94
421.545	16.93
421.906	16.81
422.267	17.05
422.629	17.01
422.99	16.96
423.351	17.01
423.712	16.95
424.073	17.03
424.434	17.24
424.795	17.18
425.155	17.43
425.516	17.35
425.877	17.25
426.238	17.25
426.598	17.17
426.959	17.38
427.32	17.54
427.68	17.47
428.041	17.56
428.401	17.77
428.761	17.79
429.122	17.87
429.482	17.88
429.842	17.99
430.202	18.03
430.563	18.04
430.923	18.35
431.283	18.39
431.643	18.31
432.003	18.29
432.363	18.65
432.722	18.41
433.082	18.3
433.442	18.54
433.802	18.66
434.161	18.58
434.521	18.49
434.881	18.52
435.24	18.59
435.6	18.51
435.959	18.63
436.319	18.63
436.678	18.96
437.037	18.72
437.396	18.82
437.756	18.83
438.115	18.85
438.474	19.12
438.833	19.17
439.192	18.98
439.551	18.98
439.91	19.2
440.269	19.18
440.628	19.02
440.987	19.22
441.345	19.3
441.704	19.15
442.063	19.32
442.421	19.31
442.78	19.1
443.138	19.24
443.497	19.27
443.855	19.59
444.214	19.37
444.572	19.54
444.93	19.6
445.288	19.82
445.647	19.72
446.005	19.87
446.363	19.66
446.721	19.85
447.079	19.77
447.437	19.87
447.795	19.87
448.153	19.78
448.51	19.81
448.868	19.73
449.226	19.81
449.584	19.89
449.941	19.94
450.299	20.07
450.656	20.28
451.014	20.11
451.371	20.33
451.729	20.44
452.086	20.42
452.443	20.59
452.801	20.9
453.158	20.6
453.515	20.65
453.872	20.77
454.229	20.77
454.586	20.8
454.943	20.87
455.3	20.95
455.657	20.84
456.014	21.08
456.371	21.13
456.727	21.16
457.084	21.08
457.441	21.14
457.797	21.26
458.154	21.23
458.51	21.21
458.867	21.36
459.223	21.24
459.58	21.49
459.936	21.53
460.292	21.74
460.648	21.76
461.005	21.53
461.361	21.61
461.717	21.28
462.073	21.2
462.429	21.22
462.785	21.29
463.141	21.55
463.496	21.71
463.852	21.93
464.208	21.97
464.564	22.13
464.919	22.07
465.275	22.35
465.631	22.51
465.986	22.49
466.342	22.37
466.697	22.51
467.052	22.33
467.408	22.53
467.763	22.55
468.118	22.55
468.473	22.65
468.829	22.62
469.184	22.69
469.539	22.69
469.894	22.85
470.249	22.9
470.603	22.7
470.958	22.79
471.313	22.93
471.668	22.94
472.023	23.01
472.377	23.05
472.732	23.04
473.086	23.22
473.441	22.99
473.795	23.33
474.15	23.27
474.504	23.24
474.859	23.42
475.213	23.34
475.567	23.09
475.921	23.49
476.275	23.58
476.63	23.37
476.984	23.62
477.338	23.8
477.692	23.64
478.045	23.92
478.399	23.87
478.753	23.84
479.107	23.8
479.461	23.74
479.814	23.94
480.168	23.94
480.521	23.94
480.875	24.08
481.228	23.99
481.582	24.02
481.935	24.1
482.289	24.03
482.642	24.09
482.995	24.27
483.348	24.17
483.701	24.21
484.055	24.23
484.408	24.18
484.761	23.97
485.114	23.8
485.466	23.64
485.819	23.35
486.172	23.31
486.525	23.39
486.878	23.59
487.23	23.78
487.583	23.91
487.936	24.02
488.288	24.23
488.641	24.25
488.993	24.21
489.345	24.07
489.698	24.06
490.05	24.05
490.402	24.09
490.754	24.21
491.107	24.26
491.459	24.54
491.811	24.72
492.163	24.86
492.515	25
492.866	25.03
493.218	24.98
493.57	24.87
493.922	24.52
494.274	24.64
494.625	24.85
494.977	25.05
495.328	25.36
495.68	25.61
496.031	25.63
496.383	25.93
496.734	25.93
497.086	26.02
497.437	26.31
497.788	26.12
498.139	26.17
498.49	26.3
498.842	25.98
499.193	26.08
499.544	26.14
499.894	26.21
500.245	26.37
500.596	26.46
500.947	26.52
501.298	26.47
501.648	26.65
501.999	26.71
502.35	26.75
502.7	26.9
503.051	26.86
503.401	27.07
503.752	27.2
504.102	27.11
504.452	27.06
504.803	27.11
505.153	27.22
505.503	27.13
505.853	27.33
506.203	27.15
506.553	27.56
506.903	27.52
507.253	27.29
507.603	27.59
507.953	27.79
508.303	27.73
508.652	27.65
509.002	27.87
509.352	27.8
509.701	27.84
510.051	27.71
510.4	27.79
510.75	27.81
511.099	27.8
511.449	28.03
511.798	27.99
512.147	28.05
512.496	27.82
512.846	28.12
513.195	28.11
513.544	28.24
513.893	28.3
514.242	28.23
514.591	28.26
514.939	28.39
515.288	28.33
515.637	28.55
515.986	28.66
516.334	28.73
516.683	28.58
517.032	28.79
517.38	28.74
517.729	28.97
518.077	28.95
518.426	28.85
518.774	29.31
519.122	29.3
519.47	29.05
519.819	29.07
520.167	28.97
520.515	28.86
520.863	28.81
521.211	28.84
521.559	28.93
521.907	29.26
522.255	29.07
522.602	29.37
522.95	29.45
523.298	29.54
523.645	29.55
523.993	29.75
524.341	29.89
524.688	30.12
525.036	29.88
525.383	30.13
525.73	30.03
526.078	30.12
526.425	30.05
526.772	30.3
527.119	30.04
527.466	29.82
527.814	29.8
528.161	29.71
528.508	29.9
528.854	30.01
529.201	30.08
529.548	29.93
529.895	29.93
530.242	29.82
530.588	29.58
530.935	29.51
531.282	29.63
531.628	29.78
531.975	29.92
532.321	30.02
532.667	30.23
533.014	30.44
533.36	30.56
533.706	30.88
534.052	30.84
534.399	31.02
534.745	30.91
535.091	30.55
535.437	30.54
535.783	30.35
536.129	30.66
536.474	30.92
536.82	30.95
537.166	31.21
537.512	31.39
537.857	31.29
538.203	31.5
538.549	31.57
538.894	31.28
539.239	31.38
539.585	31.32
539.93	31.78
540.276	31.98
540.621	32.09
540.966	32.02
541.311	32.52
541.656	32.28
542.001	32.46
542.346	32.49
542.691	32.23
543.036	31.98
543.381	31.77
543.726	31.61
544.071	31.77
544.415	31.96
544.76	32.07
545.105	32.12
545.449	32.28
545.794	32.45
546.138	32.53
546.483	32.58
546.827	32.64
547.171	32.91
547.516	33.18
547.86	33.1
548.204	33.43
548.548	33.42
548.892	33.34
549.236	33.1
549.58	33.23
549.924	33.48
550.268	33.55
550.612	33.69
550.956	33.93
551.3	33.87
551.643	34.13
551.987	34.29
552.33	34.35
552.674	34.36
553.017	34.64
553.361	34.6
553.704	34.65
554.048	34.43
554.391	34.61
554.734	34.52
555.077	34.59
555.42	34.7
555.764	34.58
556.107	34.78
556.45	34.87
556.793	34.93
557.135	35.03
557.478	35.06
557.821	35.35
558.164	35.29
558.507	35.23
558.849	35.44
559.192	35.74
559.534	35.87
559.877	35.39
560.219	35.31
560.562	35.95
560.904	35.78
561.246	35.81
561.589	35.86
561.931	35.94
562.273	35.84
562.615	35.79
562.957	36.02
563.299	36.08
563.641	36.14
563.983	35.98
564.325	35.97
564.667	36.45
565.008	36.22
565.35	36.22
565.692	36.38
566.033	36.62
566.375	36.56
566.716	36.32
567.058	36.56
567.399	36.81
567.741	36.78
568.082	36.5
568.423	36.51
568.764	36.88
569.105	36.63
569.447	36.91
569.788	36.84
570.129	37.07
570.47	37.2
570.811	37.07
571.151	37.35
571.492	37.29
571.833	37.16
572.174	37.36
572.514	37.3
572.855	37.59
573.195	37.27
573.536	37.51
573.876	37.4
574.217	37.48
574.557	37.6
574.898	37.52
575.238	37.6
575.578	37.8
575.918	37.77
576.258	37.75
576.598	38.03
576.938	38.08
577.278	38.07
577.618	37.94
577.958	38.22
578.298	38.22
578.638	38.21
578.977	38.57
579.317	38.36
579.657	38.62
579.996	38.72
580.336	38.87
580.675	38.65
581.014	38.54
581.354	38.87
581.693	39.55
582.032	38.95
582.372	39.21
582.711	39.42
583.05	39.07
583.389	39.33
583.728	39.22
584.067	39.54
584.406	39.7
584.745	39.31
585.083	39.68
585.422	40.04
585.761	39.69
586.1	39.82
586.438	40
586.777	40.15
587.115	40.42
587.454	39.88
587.792	40.16
588.13	40.14
588.469	40.15
588.807	40.35
589.145	40.55
589.483	40.47
589.821	40.59
590.159	40.21
590.497	40.44
590.835	40.7
591.173	40.77
591.511	40.53
591.849	40.72
592.187	40.35
592.524	40.68
592.862	40.99
593.2	40.86
593.537	40.77
593.875	40.87
594.212	41.03
594.55	41.48
594.887	40.91
595.224	41.18
595.561	41.53
595.899	41.4
596.236	41.39
596.573	41.4
596.91	41.2
597.247	41.39
597.584	41.37
597.921	41.7
598.258	41.76
598.594	41.42
598.931	41.5
599.268	41.29
599.604	41.19
599.941	41.4
600.277	41.32
600.614	41.61
600.95	41.79
601.287	42.11
601.623	41.98
601.959	42.19
602.296	42.47
602.632	42.02
602.968	42.54
603.304	42.22
603.64	42.15
603.976	42.67
604.312	42.59
604.648	42.52
604.984	42.65
605.319	42.48
605.655	42.35
605.991	42.52
606.326	42.71
606.662	42.12
606.998	42.46
607.333	42.55
607.668	42.37
608.004	42.72
608.339	42.6
608.674	43.12
609.01	43.26
609.345	43.46
609.68	43.39
610.015	43.1
610.35	43.69
610.685	43.11
611.02	43.22
611.355	43.69
611.689	43.35
612.024	43.47
612.359	43.16
612.694	43.25
613.028	43.4
613.363	43.63
613.697	43.76
614.032	44.09
614.366	43.79
614.7	43.78
615.035	43.98
615.369	44.36
615.703	43.86
616.037	44.52
616.371	44.48
616.705	44.62
617.039	44.72
617.373	44.42
617.707	44.62
618.041	44.83
618.375	44.9
618.709	44.69
619.042	45.02
619.376	44.57
619.71	45.18
620.043	44.68
620.377	44.97
620.71	45.04
621.043	45.23
621.377	45.07
621.71	44.95
622.043	45.02
622.376	45.61
622.709	45.43
623.043	45.32
623.376	45.48
623.709	45.2
624.041	44.98
624.374	45.79
624.707	45.62
625.04	45.7
625.373	45.29
625.705	45.59
626.038	45.65
626.37	46.14
626.703	45.85
627.035	45.42
627.368	45.73
627.7	45.84
628.032	45.76
628.365	45.7
628.697	46.02
629.029	45.56
629.361	45.99
629.693	45.93
630.025	46.32
630.357	46.53
630.689	46.47
631.021	46.01
631.353	46.4
631.684	46.34
632.016	46.84
632.348	46.59
632.679	46.76
633.011	46.86
633.342	46.97
633.674	46.9
634.005	46.72
634.336	46.94
634.668	47.01
634.999	46.95
635.33	47.12
635.661	47.16
635.992	46.93
636.323	47.1
636.654	47
636.985	46.99
637.316	47.18
637.647	47.23
637.977	47.1
638.308	47.63
638.639	47.45
638.969	47.55
639.3	47.64
639.63	47.71
639.961	47.41
640.291	47.33
640.622	47.57
640.952	47.63
641.282	47.76
641.612	48.07
641.943	47.76
642.273	47.95
642.603	47.96
642.933	48.19
643.263	48.05
643.592	47.71
643.922	48.15
644.252	48.1
644.582	48.19
644.911	48.26
645.241	48.64
645.571	48.54
645.9	48.48
646.23	48.44
646.559	48.78
646.888	48.61
647.218	48.31
647.547	48.38
647.876	48.63
648.205	48.97
648.534	48.56
648.863	48.83
649.192	48.58
649.521	49.21
649.85	49.39
650.179	48.64
650.508	49.08
650.837	48.81
651.165	48.86
651.494	49.25
651.822	48.99
652.151	48.95
652.479	49.51
652.808	49
653.136	49.5
653.465	49.18
653.793	49.22
654.121	49.52
654.449	48.87
654.777	49.04
655.105	48.98
655.433	49.82
655.761	50.1
656.089	48.89
656.417	49.31
656.745	50.21
657.073	49.78
657.4	49.98
657.728	49.7
658.056	49.77
658.383	50.02
658.711	49.7
659.038	50.01
659.365	50.01
659.693	49.7
660.02	50.19
660.347	50.85
660.674	49.83
661.001	50.2
661.329	50.78
661.656	50.13
661.982	49.84
662.309	50.52
662.636	50.28
662.963	50.1
663.29	51.1
663.616	50.48
663.943	50.67
664.27	50.61
664.596	50.77
664.923	50.17
665.249	50.9
665.576	50.08
665.902	50.53
666.228	51.37
666.554	50.56
666.881	51.57
667.207	51.29
667.533	50.25
667.859	51.29
668.185	51.44
668.511	50.9
668.837	50.89
669.162	51.15
669.488	51.07
669.814	51.65
670.139	51.2
670.465	51.26
670.791	51.83
671.116	51.5
