Data from 0215_forehead_Reflection__2__217.txt Node

Date: Fri Sep 22 22:33:48 CDT 2023
User: ToomeyLab
Spectrometer: FLMS14357
Trigger mode: 0
Integration Time (sec): 1.000000E-2
Scans to average: 100
Electric dark correction enabled: true
Nonlinearity correction enabled: false
Boxcar width: 0
XAxis mode: Wavelengths
Number of Pixels in Spectrum: 2048
>>>>>Begin Spectral Data<<<<<
189.047	-309.35
189.435	-309.35
189.823	-309.35
190.211	47.07
190.599	-32.29
190.987	-240.44
191.375	274.82
191.763	-330.64
192.151	22.24
192.538	453.87
192.926	31.75
193.314	30.84
193.702	758.32
194.089	46.82
194.477	-158.64
194.864	-4367.44
195.252	-47.68
195.639	23.2
196.027	193.5
196.414	186.45
196.801	-1949.33
197.189	-11.4
197.576	495.57
197.963	252.17
198.351	45.99
198.738	33.75
199.125	44.4
199.512	34.12
199.899	79.71
200.286	29.39
200.673	78.35
201.06	90.31
201.447	45.78
201.833	89.7
202.22	87.63
202.607	53.32
202.994	52.33
203.38	82.06
203.767	31.75
204.154	55.43
204.54	54.79
204.927	41.89
205.313	90.86
205.699	75.9
206.086	48.22
206.472	59.98
206.858	30.05
207.245	20.51
207.631	44.16
208.017	34.06
208.403	82.16
208.789	47.49
209.175	47.11
209.561	39.01
209.947	66.44
210.333	39.52
210.719	-16.89
211.105	60.73
211.491	40.5
211.876	68.71
212.262	63.09
212.648	40.64
213.034	60.05
213.419	48.91
213.805	16.39
214.19	52.29
214.576	74.81
214.961	32.72
215.346	14.4
215.732	29.36
216.117	41.13
216.502	37.6
216.888	34.31
217.273	73.45
217.658	27.56
218.043	10.55
218.428	31.67
218.813	17.11
219.198	-5.2
219.583	44.6
219.968	9.08
220.353	41.68
220.738	7.76
221.122	22.28
221.507	15.41
221.892	24.65
222.276	10.29
222.661	-17.11
223.046	33.29
223.43	22.34
223.815	18.69
224.199	10.48
224.583	8.64
224.968	29.94
225.352	8.78
225.736	9.35
226.121	4.43
226.505	14.08
226.889	7.53
227.273	4.22
227.657	9.13
228.041	0.5
228.425	9.34
228.809	10.69
229.193	3.49
229.577	7.11
229.961	5.59
230.344	6.01
230.728	2.98
231.112	3.29
231.495	3.97
231.879	3.63
232.263	2.76
232.646	3.85
233.03	2.53
233.413	4.79
233.797	3.41
234.18	3.99
234.563	7.18
234.946	6.53
235.33	4.41
235.713	1.89
236.096	3.4
236.479	3.07
236.862	5.32
237.245	4.32
237.628	5.2
238.011	5.74
238.394	5.35
238.777	5.42
239.16	3.11
239.543	5.67
239.925	3.7
240.308	3.18
240.691	4.37
241.073	4.68
241.456	3.35
241.838	3.83
242.221	3.92
242.603	3.15
242.986	4.07
243.368	3.36
243.75	3.98
244.133	4.01
244.515	3.07
244.897	2.87
245.279	2.81
245.661	3.06
246.043	3.6
246.425	3.2
246.807	4.13
247.189	2.63
247.571	4.35
247.953	3.94
248.335	3.36
248.717	3.17
249.098	3.22
249.48	2.91
249.862	2.71
250.243	2.79
250.625	3.23
251.006	3.03
251.388	2.79
251.769	3.73
252.151	3.57
252.532	3.34
252.913	3.85
253.295	5.11
253.676	4.04
254.057	3.52
254.438	3.76
254.819	3.28
255.2	3.46
255.581	3.31
255.962	3.75
256.343	4.13
256.724	3.79
257.105	5.06
257.486	3.44
257.867	3.1
258.247	4.41
258.628	4.28
259.009	3.68
259.389	4
259.77	4.11
260.15	3.87
260.531	2.31
260.911	3.64
261.292	3.33
261.672	2.77
262.052	2.78
262.432	3.08
262.813	3.3
263.193	2.58
263.573	3.49
263.953	3.16
264.333	3.43
264.713	3.17
265.093	3.03
265.473	3.64
265.853	3.31
266.233	2.98
266.612	4.05
266.992	3.87
267.372	3.04
267.752	3.72
268.131	3.4
268.511	3.29
268.89	3.01
269.27	2.64
269.649	3.36
270.029	2.86
270.408	3.43
270.787	3.39
271.167	2.69
271.546	3
271.925	3.15
272.304	3.47
272.683	3.32
273.062	3.88
273.441	3.39
273.82	3.35
274.199	3.12
274.578	3.33
274.957	2.69
275.336	3.26
275.715	2.96
276.093	2.76
276.472	2.92
276.851	3.9
277.229	3.11
277.608	3.76
277.986	3.02
278.365	3.93
278.743	3.35
279.122	3.32
279.5	3.84
279.878	2.83
280.257	3.91
280.635	3.38
281.013	3.06
281.391	3.25
281.769	3.18
282.147	3.31
282.525	2.75
282.903	3.8
283.281	3.64
283.659	3.23
284.037	2.64
284.415	3.49
284.792	3.1
285.17	3.16
285.548	3.18
285.925	3.25
286.303	3.39
286.68	3.21
287.058	3.29
287.435	3.17
287.813	2.97
288.19	2.53
288.567	3.12
288.945	2.8
289.322	3.26
289.699	3.35
290.076	3.73
290.453	2.76
290.83	3.44
291.207	3.24
291.584	2.93
291.961	3.04
292.338	3.64
292.715	3.59
293.092	3.25
293.469	3.66
293.845	3.5
294.222	3.49
294.599	3.97
294.975	3.77
295.352	3.93
295.728	3.82
296.105	4.07
296.481	3.5
296.858	3.64
297.234	3.71
297.61	3.58
297.986	4.16
298.363	3.55
298.739	3.71
299.115	3.68
299.491	3.84
299.867	3.76
300.243	3.51
300.619	3.75
300.995	4.02
301.371	4.48
301.746	4.07
302.122	4.29
302.498	3.79
302.874	3.54
303.249	4.1
303.625	3.76
304	4.44
304.376	4.55
304.751	4.86
305.127	4.82
305.502	4.55
305.878	4.2
306.253	4.65
306.628	4.41
307.003	4.51
307.378	4.53
307.754	4.16
308.129	4.39
308.504	4.44
308.879	4.84
309.254	4.55
309.629	4.88
310.003	4.92
310.378	4.9
310.753	5.02
311.128	4.6
311.502	4.7
311.877	4.53
312.252	4.65
312.626	4.72
313.001	4.89
313.375	4.79
313.75	5.43
314.124	5.4
314.498	4.84
314.873	4.84
315.247	5.43
315.621	5.18
315.995	5.56
316.369	5.46
316.743	5.11
317.117	5.78
317.491	6.07
317.865	5
318.239	5.41
318.613	5.68
318.987	5.62
319.361	5.52
319.734	5.45
320.108	5.88
320.482	5.99
320.855	5.88
321.229	6.62
321.602	6
321.976	5.7
322.349	5.95
322.723	6.32
323.096	6.18
323.469	5.94
323.843	5.47
324.216	6.43
324.589	5.74
324.962	6.11
325.335	6.44
325.708	6.33
326.081	6.28
326.454	5.48
326.827	6.2
327.2	6.08
327.573	6.97
327.945	6.82
328.318	6.44
328.691	6.15
329.063	6.3
329.436	6.79
329.809	6.2
330.181	6.88
330.553	6.42
330.926	6.73
331.298	6.83
331.671	6.81
332.043	6.33
332.415	6.51
332.787	7.3
333.159	6.61
333.532	6.33
333.904	7.12
334.276	6.61
334.648	6.01
335.02	6.49
335.391	6.96
335.763	6.92
336.135	6.96
336.507	7.18
336.879	6.42
337.25	7.25
337.622	7.52
337.993	7.54
338.365	7.46
338.736	7.66
339.108	7.53
339.479	6.95
339.851	6.9
340.222	7.07
340.593	7.21
340.964	6.79
341.336	7.18
341.707	6.61
342.078	7.42
342.449	7.21
342.82	7.24
343.191	6.88
343.562	7.2
343.933	7.46
344.303	7.74
344.674	7.49
345.045	7.45
345.416	8.19
345.786	7.03
346.157	7.62
346.527	7.21
346.898	7.31
347.268	7.2
347.639	7.62
348.009	7.56
348.38	7.82
348.75	7.94
349.12	7.92
349.49	8.71
349.861	7.96
350.231	7.6
350.601	8.05
350.971	8.13
351.341	7.63
351.711	8.15
352.081	7.91
352.45	7.83
352.82	8.31
353.19	7.96
353.56	8.13
353.929	8.29
354.299	8.11
354.669	8.05
355.038	8.05
355.408	8.04
355.777	8.8
356.147	8.53
356.516	8.54
356.885	8.45
357.254	8.77
357.624	8.13
357.993	8.61
358.362	8.53
358.731	8.31
359.1	8.41
359.469	8.6
359.838	8.4
360.207	8.5
360.576	8.68
360.945	8.45
361.314	8.97
361.682	8.91
362.051	9.02
362.42	8.35
362.788	8.59
363.157	8.77
363.525	8.84
363.894	8.62
364.262	8.52
364.631	8.7
364.999	8.59
365.367	9.07
365.735	8.95
366.104	9.25
366.472	9.29
366.84	9.03
367.208	9.28
367.576	9.41
367.944	9.29
368.312	9.22
368.68	9.52
369.048	9.8
369.416	9.43
369.783	9.18
370.151	9.55
370.519	9.4
370.886	9.4
371.254	9.73
371.621	9.46
371.989	9.75
372.356	9.46
372.724	9.87
373.091	10.05
373.458	10
373.826	9.79
374.193	9.91
374.56	9.71
374.927	10.15
375.294	9.49
375.661	9.78
376.028	9.8
376.395	10.09
376.762	10.08
377.129	10.14
377.496	10.62
377.863	10.31
378.229	10.03
378.596	10.32
378.963	10.65
379.329	9.99
379.696	10.44
380.062	10.01
380.429	10.32
380.795	10.28
381.161	10.62
381.528	10.34
381.894	9.82
382.26	10.24
382.626	10.56
382.993	10.9
383.359	10.06
383.725	10.38
384.091	10.63
384.457	10.56
384.823	10.5
385.188	10.73
385.554	11.01
385.92	10.7
386.286	10.64
386.651	10.6
387.017	10.76
387.383	10.67
387.748	10.98
388.114	10.78
388.479	11.02
388.845	10.76
389.21	10.79
389.575	11.16
389.94	10.83
390.306	11.14
390.671	11.28
391.036	10.74
391.401	11.08
391.766	11.16
392.131	11.16
392.496	11.08
392.861	11.17
393.226	11.4
393.591	11.49
393.956	11.34
394.32	11.38
394.685	11.27
395.05	11.31
395.414	11.67
395.779	11.41
396.143	11.64
396.508	11.6
396.872	11.5
397.236	11.51
397.601	11.34
397.965	11.94
398.329	11.68
398.694	11.92
399.058	11.99
399.422	11.78
399.786	12.02
400.15	11.88
400.514	11.97
400.878	11.8
401.242	12.03
401.605	11.93
401.969	11.75
402.333	12.2
402.697	11.89
403.06	12.2
403.424	12.2
403.787	12.3
404.151	12.1
404.514	12.56
404.878	12.3
405.241	12.66
405.604	12.38
405.968	12.36
406.331	12.5
406.694	12.56
407.057	12.4
407.42	12.51
407.783	12.4
408.146	12.4
408.509	12.61
408.872	12.49
409.235	12.52
409.598	12.34
409.961	12.83
410.323	12.6
410.686	12.85
411.049	12.96
411.411	13.06
411.774	12.88
412.136	12.96
412.499	12.95
412.861	12.89
413.223	13.07
413.586	12.88
413.948	12.93
414.31	12.96
414.672	13.25
415.035	13.07
415.397	13.36
415.759	13.46
416.121	13.3
416.483	13.1
416.845	13.38
417.206	13.38
417.568	13.21
417.93	13.17
418.292	13.07
418.653	13.17
419.015	13.1
419.377	13.23
419.738	13.34
420.1	13.08
420.461	13.23
420.822	13.22
421.184	13.32
421.545	13.19
421.906	13.34
422.267	13.22
422.629	13.3
422.99	13.28
423.351	13.2
423.712	13.29
424.073	13.39
424.434	13.53
424.795	13.48
425.155	13.61
425.516	13.63
425.877	13.58
426.238	13.44
426.598	13.51
426.959	13.6
427.32	13.79
427.68	13.66
428.041	13.67
428.401	13.93
428.761	13.92
429.122	14
429.482	14.02
429.842	14.08
430.202	14.17
430.563	14.11
430.923	14.41
431.283	14.29
431.643	14.5
432.003	14.51
432.363	14.63
432.722	14.21
433.082	14.55
433.442	14.42
433.802	14.38
434.161	14.36
434.521	14.5
434.881	14.66
435.24	14.47
435.6	14.39
435.959	14.47
436.319	14.42
436.678	14.7
437.037	14.62
437.396	14.75
437.756	14.84
438.115	14.84
438.474	14.83
438.833	14.97
439.192	14.93
439.551	14.94
439.91	14.95
440.269	15.12
440.628	14.88
440.987	15.05
441.345	15.06
441.704	15.1
442.063	15.15
442.421	15.1
442.78	15.02
443.138	15
443.497	15.16
443.855	15.19
444.214	15.15
444.572	15.36
444.93	15.36
445.288	15.47
445.647	15.65
446.005	15.34
446.363	15.45
446.721	15.47
447.079	15.67
447.437	15.56
447.795	15.53
448.153	15.4
448.51	15.37
448.868	15.45
449.226	15.49
449.584	15.45
449.941	15.46
450.299	15.7
450.656	15.78
451.014	15.88
451.371	15.88
451.729	15.93
452.086	15.85
452.443	16.11
452.801	16.14
453.158	16.13
453.515	16.22
453.872	16.22
454.229	16.11
454.586	16.2
454.943	16.22
455.3	16.31
455.657	16.19
456.014	16.43
456.371	16.5
456.727	16.37
457.084	16.46
457.441	16.4
457.797	16.52
458.154	16.46
458.51	16.68
458.867	16.68
459.223	16.6
459.58	16.69
459.936	16.75
460.292	16.74
460.648	16.73
461.005	16.66
461.361	16.81
461.717	16.64
462.073	16.63
462.429	16.49
462.785	16.58
463.141	16.77
463.496	16.9
463.852	17.12
464.208	16.9
464.564	17.09
464.919	17.09
465.275	17.41
465.631	17.41
465.986	17.65
466.342	17.37
466.697	17.44
467.052	17.17
467.408	17.48
467.763	17.5
468.118	17.64
468.473	17.54
468.829	17.37
469.184	17.56
469.539	17.68
469.894	17.68
470.249	17.79
470.603	17.62
470.958	17.89
471.313	17.88
471.668	17.88
472.023	17.86
472.377	17.89
472.732	17.93
473.086	18.27
473.441	17.9
473.795	18.15
474.15	18
474.504	18.2
474.859	18.4
475.213	17.95
475.567	17.98
475.921	18.21
476.275	18.36
476.63	18.28
476.984	18.32
477.338	18.62
477.692	18.35
478.045	18.59
478.399	18.62
478.753	18.45
479.107	18.48
479.461	18.44
479.814	18.53
480.168	18.49
480.521	18.6
480.875	18.65
481.228	18.63
481.582	18.76
481.935	18.6
482.289	18.61
482.642	18.88
482.995	18.96
483.348	18.87
483.701	18.75
484.055	18.66
484.408	18.8
484.761	18.59
485.114	18.34
485.466	18.32
485.819	18.04
486.172	17.96
486.525	18.06
486.878	18.2
487.23	18.23
487.583	18.42
487.936	18.55
488.288	18.77
488.641	18.73
488.993	18.66
489.345	18.59
489.698	18.52
490.05	18.54
490.402	18.58
490.754	18.61
491.107	18.75
491.459	18.94
491.811	19.1
492.163	19.24
492.515	19.34
492.866	19.41
493.218	19.29
493.57	18.99
493.922	18.91
494.274	18.96
494.625	19.2
494.977	19.42
495.328	19.61
495.68	19.84
496.031	19.9
496.383	20.07
496.734	20.07
497.086	20.19
497.437	20.36
497.788	20.25
498.139	20.39
498.49	20.29
498.842	20.18
499.193	20.17
499.544	20.28
499.894	20.37
500.245	20.38
500.596	20.37
500.947	20.58
501.298	20.53
501.648	20.46
501.999	20.78
502.35	20.68
502.7	20.92
503.051	20.73
503.401	20.95
503.752	20.99
504.102	21.07
504.452	20.91
504.803	21.16
505.153	21.3
505.503	21.11
505.853	21.33
506.203	21.06
506.553	21.31
506.903	21.2
507.253	21.28
507.603	21.3
507.953	21.32
508.303	21.41
508.652	21.41
509.002	21.64
509.352	21.59
509.701	21.55
510.051	21.54
510.4	21.53
510.75	21.53
511.099	21.56
511.449	21.63
511.798	21.66
512.147	21.77
512.496	21.62
512.846	21.82
513.195	21.7
513.544	21.78
513.893	21.84
514.242	21.8
514.591	21.87
514.939	21.93
515.288	21.89
515.637	21.88
515.986	22.11
516.334	22.24
516.683	22.06
517.032	22.45
517.38	22.32
517.729	22.29
518.077	22.34
518.426	22.33
518.774	22.57
519.122	22.55
519.47	22.37
519.819	22.48
520.167	22.51
520.515	22.25
520.863	22.24
521.211	22.3
521.559	22.39
521.907	22.49
522.255	22.59
522.602	22.63
522.95	22.82
523.298	22.96
523.645	22.84
523.993	22.88
524.341	23.1
524.688	22.98
525.036	23.08
525.383	23.19
525.73	23.32
526.078	23.28
526.425	23.05
526.772	23.32
527.119	23.19
527.466	22.98
527.814	22.95
528.161	22.98
528.508	23.1
528.854	23.12
529.201	23.26
529.548	23.21
529.895	23.03
530.242	22.93
530.588	22.66
530.935	22.61
531.282	22.81
531.628	22.87
531.975	22.98
532.321	22.95
532.667	23.28
533.014	23.38
533.36	23.71
533.706	23.74
534.052	23.92
534.399	23.75
534.745	23.91
535.091	23.7
535.437	23.47
535.783	23.42
536.129	23.57
536.474	23.77
536.82	23.92
537.166	24.12
537.512	24.13
537.857	24.18
538.203	24.38
538.549	24.23
538.894	24.23
539.239	24.29
539.585	24.29
539.93	24.46
540.276	24.53
540.621	24.69
540.966	24.83
541.311	24.95
541.656	24.91
542.001	25.02
542.346	25.08
542.691	24.93
543.036	24.73
543.381	24.5
543.726	24.3
544.071	24.41
544.415	24.42
544.76	24.59
545.105	24.64
545.449	24.91
545.794	24.99
546.138	25.08
546.483	25.31
546.827	25.24
547.171	25.44
547.516	25.5
547.86	25.56
548.204	25.63
548.548	25.66
548.892	25.6
549.236	25.54
549.58	25.57
549.924	25.74
550.268	25.91
550.612	25.98
550.956	26.05
551.3	26.34
551.643	26.41
551.987	26.49
552.33	26.67
552.674	26.49
553.017	26.6
553.361	26.73
553.704	26.84
554.048	26.75
554.391	26.75
554.734	26.72
555.077	26.68
555.42	26.64
555.764	26.78
556.107	26.81
556.45	26.91
556.793	26.95
557.135	27.22
557.478	27.01
557.821	27.35
558.164	27.55
558.507	27.21
558.849	27.32
559.192	27.55
559.534	27.32
559.877	27.57
560.219	27.58
560.562	27.57
560.904	27.72
561.246	27.84
561.589	27.99
561.931	27.92
562.273	27.83
562.615	27.86
562.957	28
563.299	27.7
563.641	27.85
563.983	27.74
564.325	27.9
564.667	28.1
565.008	28.24
565.35	28.25
565.692	28.59
566.033	28.36
566.375	28.31
566.716	28.47
567.058	28.46
567.399	28.49
567.741	28.67
568.082	28.37
568.423	28.52
568.764	28.73
569.105	28.44
569.447	28.52
569.788	28.47
570.129	28.7
570.47	28.74
570.811	28.7
571.151	28.95
571.492	28.55
571.833	28.76
572.174	29.09
572.514	29.06
572.855	29.03
573.195	28.78
573.536	28.73
573.876	29.08
574.217	29.12
574.557	29.19
574.898	29.16
575.238	29.14
575.578	29.35
575.918	29.27
576.258	29.39
576.598	29.32
576.938	29.39
577.278	29.49
577.618	29.26
577.958	29.67
578.298	29.7
578.638	29.45
578.977	29.76
579.317	29.88
579.657	29.96
579.996	30
580.336	30.25
580.675	30.01
581.014	30.19
581.354	30.08
581.693	30.54
582.032	30.38
582.372	30.61
582.711	30.72
583.05	30.39
583.389	30.34
583.728	30.4
584.067	30.54
584.406	30.77
584.745	30.79
585.083	30.8
585.422	31.02
585.761	30.83
586.1	31.18
586.438	31
586.777	30.96
587.115	31.14
587.454	30.79
587.792	31.02
588.13	31.2
588.469	31.17
588.807	31.44
589.145	31.32
589.483	31.52
589.821	31.62
590.159	31.68
590.497	31.51
590.835	31.43
591.173	31.58
591.511	31.81
591.849	31.82
592.187	31.57
592.524	31.77
592.862	31.72
593.2	31.67
593.537	31.62
593.875	31.97
594.212	31.96
594.55	32.2
594.887	31.98
595.224	32.06
595.561	32.18
595.899	32.55
596.236	32.27
596.573	32.34
596.91	32.62
597.247	32.18
597.584	32.55
597.921	32.49
598.258	32.58
598.594	32.44
598.931	32.42
599.268	31.97
599.604	32.08
599.941	32.2
600.277	32.24
600.614	32.1
600.95	32.75
601.287	32.8
601.623	32.81
601.959	32.63
602.296	33.13
602.632	32.73
602.968	33.13
603.304	33.35
603.64	32.93
603.976	33.1
604.312	33.3
604.648	32.98
604.984	33.26
605.319	33.05
605.655	33.09
605.991	33.22
606.326	33.09
606.662	32.98
606.998	33.36
607.333	33.21
607.668	33.22
608.004	33.27
608.339	33.44
608.674	33.61
609.01	33.86
609.345	33.96
609.68	34.1
610.015	33.83
610.35	34.04
610.685	33.8
611.02	33.83
611.355	34.18
611.689	34.06
612.024	33.9
612.359	33.72
612.694	33.88
613.028	33.83
613.363	34
613.697	33.96
614.032	34.39
614.366	34.29
614.7	34.15
615.035	34.45
615.369	34.39
615.703	34.21
616.037	34.43
616.371	34.92
616.705	34.76
617.039	34.86
617.373	34.93
617.707	34.8
618.041	34.9
618.375	34.67
618.709	34.56
619.042	35.14
619.376	34.99
619.71	34.89
620.043	34.87
620.377	35.28
620.71	35.09
621.043	35.61
621.377	35.23
621.71	34.77
622.043	35.46
622.376	35.75
622.709	35.83
623.043	35.46
623.376	35.69
623.709	35.65
624.041	35.67
624.374	36.35
624.707	35.59
625.04	35.74
625.373	35.49
625.705	35.99
626.038	36.14
626.37	36.06
626.703	36.03
627.035	35.55
627.368	36.39
627.7	36.27
628.032	35.81
628.365	36.03
628.697	36.03
629.029	35.76
629.361	36.26
629.693	36.21
630.025	36.19
630.357	36.04
630.689	36.33
631.021	35.74
631.353	36.16
631.684	36.56
632.016	36.18
632.348	36.37
632.679	36.53
633.011	36.84
633.342	36.41
633.674	37.32
634.005	36.35
634.336	37.1
634.668	36.94
634.999	36.52
635.33	36.71
635.661	37.04
635.992	36.84
636.323	37
636.654	36.64
636.985	36.8
637.316	36.42
637.647	36.96
637.977	36.79
638.308	37.24
638.639	36.71
638.969	37.61
639.3	37.67
639.63	37.58
639.961	37.34
640.291	37.5
640.622	37.71
640.952	37.13
641.282	37.72
641.612	37.74
641.943	38.03
642.273	37.7
642.603	37.6
642.933	37.55
643.263	37.83
643.592	37.37
643.922	38.19
644.252	37.8
644.582	38.03
644.911	37.85
645.241	37.7
645.571	38.24
645.9	38.02
646.23	38.52
646.559	37.92
646.888	37.84
647.218	38.18
647.547	38.12
647.876	38.56
648.205	38.52
648.534	38.11
648.863	38.6
649.192	38.31
649.521	38.92
649.85	38
650.179	38.44
650.508	38.9
650.837	38.56
651.165	39.03
651.494	38.62
651.822	38.51
652.151	38.89
652.479	39.46
652.808	38.6
653.136	39.23
653.465	38.94
653.793	39.04
654.121	39.26
654.449	38.59
654.777	38.93
655.105	38.65
655.433	39.46
655.761	39.39
656.089	38.99
656.417	39.35
656.745	39.39
657.073	39.67
657.4	39.7
657.728	39.54
658.056	39.82
658.383	39.45
658.711	39.35
659.038	39.47
659.365	39.66
659.693	39.3
660.02	39.52
660.347	39.99
660.674	39.96
661.001	39.51
661.329	39.66
661.656	39.41
661.982	39.34
662.309	39.66
662.636	39.91
662.963	39.81
663.29	40.23
663.616	39.47
663.943	40.74
664.27	39.73
664.596	39.82
664.923	39.91
665.249	40.45
665.576	39.93
665.902	40.56
666.228	40.28
666.554	39.82
666.881	40.28
667.207	40.92
667.533	40.27
667.859	40.44
668.185	40.6
668.511	40.86
668.837	40.28
669.162	40.95
669.488	40.14
669.814	40.82
670.139	40.99
670.465	40.45
670.791	40.81
671.116	40.87
671.442	41.21
671.767	40.16
672.092	41.57
672.418	41.27
672.743	41.04
673.068	40.76
