Data from 0372_crown_Reflection__2__161.txt Node

Date: Fri Dec 15 18:03:42 CST 2023
User: ToomeyLab
Spectrometer: FLMS14357
Trigger mode: 0
Integration Time (sec): 1.000000E-2
Scans to average: 100
Electric dark correction enabled: true
Nonlinearity correction enabled: false
Boxcar width: 0
XAxis mode: Wavelengths
Number of Pixels in Spectrum: 2048
>>>>>Begin Spectral Data<<<<<
189.047	-288.04
189.435	-288.04
189.823	-288.04
190.211	-76.14
190.599	390.04
190.987	122.84
191.375	133.76
191.763	-79.15
192.151	186.32
192.538	187.51
192.926	-85.34
193.314	310.2
193.702	6462.62
194.089	-30.11
194.477	65.58
194.864	100.46
195.252	138.35
195.639	95.97
196.027	143.43
196.414	127.43
196.801	-481.07
197.189	77.02
197.576	-60
197.963	341.98
198.351	-66.82
198.738	-59.5
199.125	-46.39
199.512	-4.66
199.899	5.85
200.286	29.11
200.673	8.09
201.06	-5.87
201.447	-76.47
201.833	17.71
202.22	10.63
202.607	50.59
202.994	4.27
203.38	6.03
203.767	15.53
204.154	23.09
204.54	26.89
204.927	-55.65
205.313	24.71
205.699	27.7
206.086	44.94
206.472	-11.31
206.858	27.94
207.245	-101.4
207.631	2.59
208.017	20.43
208.403	-21.79
208.789	-11.54
209.175	-17.37
209.561	-16.51
209.947	-29.15
210.333	-1.73
210.719	-7.64
211.105	5.47
211.491	-75.85
211.876	9.35
212.262	-9.15
212.648	-15.54
213.034	16.64
213.419	-15.73
213.805	-12.1
214.19	-30.52
214.576	-35.77
214.961	-8.17
215.346	-73.47
215.732	-11.43
216.117	-12.59
216.502	-21.8
216.888	8.89
217.273	-1.83
217.658	4.56
218.043	-14.24
218.428	-56.32
218.813	-42.74
219.198	-40.36
219.583	-21.28
219.968	9.56
220.353	-20.91
220.738	29.35
221.122	-3.28
221.507	-51.87
221.892	-17.61
222.276	-41.92
222.661	-15.24
223.046	6.37
223.43	2.98
223.815	18.98
224.199	-7.75
224.583	-11.41
224.968	-4.79
225.352	7.14
225.736	6.97
226.121	-15.35
226.505	0.1
226.889	8.63
227.273	-0.85
227.657	6.16
228.041	4.72
228.425	1.77
228.809	6.26
229.193	9.01
229.577	1.73
229.961	3.51
230.344	4.44
230.728	4.59
231.112	5.78
231.495	5.12
231.879	4.75
232.263	6.19
232.646	6.27
233.03	4.89
233.413	2.38
233.797	4.33
234.18	2.2
234.563	3.21
234.946	3.31
235.33	4.46
235.713	3.97
236.096	4.43
236.479	3.82
236.862	2.46
237.245	6.23
237.628	4.14
238.011	4.04
238.394	7.61
238.777	5.69
239.16	5.64
239.543	6.39
239.925	6.92
240.308	5.3
240.691	4.2
241.073	5.94
241.456	5.56
241.838	4.65
242.221	4.1
242.603	4.87
242.986	5.77
243.368	4.51
243.75	5.28
244.133	4.97
244.515	5.34
244.897	5.3
245.279	4.93
245.661	4.46
246.043	3.61
246.425	3.65
246.807	5.48
247.189	4.95
247.571	5.13
247.953	4.58
248.335	4.98
248.717	5.34
249.098	5.1
249.48	5.21
249.862	5.22
250.243	5.16
250.625	5.01
251.006	4.98
251.388	3.94
251.769	4.7
252.151	4.98
252.532	5.26
252.913	4.91
253.295	3.81
253.676	5.01
254.057	5.35
254.438	4.56
254.819	4.37
255.2	4.61
255.581	3.88
255.962	3.3
256.343	4.27
256.724	4.49
257.105	4.76
257.486	4.22
257.867	5.49
258.247	5.22
258.628	4.14
259.009	4.47
259.389	4.56
259.77	4.54
260.15	4.34
260.531	4.16
260.911	5.46
261.292	4.78
261.672	5.02
262.052	4.87
262.432	4.94
262.813	4.32
263.193	4.19
263.573	3.93
263.953	4.58
264.333	5.15
264.713	4.79
265.093	4.18
265.473	4.42
265.853	2.71
266.233	4.37
266.612	2.91
266.992	3.35
267.372	3.68
267.752	4.05
268.131	4.69
268.511	5.07
268.89	4.64
269.27	4.37
269.649	4
270.029	3.78
270.408	4.9
270.787	4.59
271.167	4.74
271.546	5.16
271.925	3.71
272.304	4.86
272.683	5.35
273.062	3.85
273.441	4.44
273.82	4.09
274.199	3.98
274.578	4.35
274.957	4.92
275.336	4.11
275.715	4.03
276.093	4
276.472	3.94
276.851	4.15
277.229	3.81
277.608	3.58
277.986	4.65
278.365	4.77
278.743	3.91
279.122	4.02
279.5	4.32
279.878	4.66
280.257	3.71
280.635	3.35
281.013	4.26
281.391	4.08
281.769	4.38
282.147	4.82
282.525	4.78
282.903	4.1
283.281	4.09
283.659	4.25
284.037	4.21
284.415	4.35
284.792	4.45
285.17	3.85
285.548	3.92
285.925	4.11
286.303	4.26
286.68	4
287.058	4.18
287.435	4.21
287.813	4.3
288.19	4.29
288.567	3.96
288.945	4.59
289.322	4.1
289.699	3.68
290.076	3.89
290.453	3.83
290.83	3.74
291.207	4.45
291.584	4.17
291.961	4.78
292.338	4.35
292.715	4.61
293.092	3.81
293.469	3.89
293.845	4.5
294.222	3.75
294.599	3.86
294.975	3.29
295.352	4.2
295.728	3.82
296.105	3.99
296.481	4.32
296.858	4.17
297.234	3.74
297.61	4.27
297.986	4.07
298.363	4.29
298.739	4.05
299.115	3.86
299.491	3.63
299.867	4.12
300.243	4.29
300.619	3.46
300.995	4.13
301.371	4.44
301.746	3.69
302.122	4.43
302.498	4
302.874	4.07
303.249	4.35
303.625	4.26
304	4.41
304.376	4.27
304.751	3.04
305.127	4.55
305.502	3.7
305.878	3.27
306.253	4.27
306.628	4.67
307.003	3.81
307.378	4.09
307.754	4.37
308.129	3.19
308.504	4.6
308.879	4.27
309.254	4.53
309.629	4.02
310.003	3.89
310.378	4.82
310.753	4.29
311.128	3.97
311.502	3.88
311.877	4.59
312.252	3.53
312.626	3.66
313.001	4.22
313.375	4.41
313.75	4.09
314.124	4.25
314.498	4.24
314.873	3.6
315.247	3.34
315.621	4.2
315.995	3.49
316.369	3.61
316.743	3.81
317.117	3.93
317.491	3.89
317.865	4.5
318.239	4.01
318.613	4.06
318.987	4.18
319.361	3.57
319.734	3.99
320.108	3.97
320.482	3.98
320.855	4.21
321.229	3.4
321.602	4.02
321.976	4.27
322.349	3.32
322.723	3.51
323.096	4.44
323.469	3.32
323.843	3.83
324.216	4.6
324.589	4.19
324.962	4.06
325.335	3.58
325.708	4.13
326.081	3.29
326.454	4.38
326.827	3.47
327.2	3.69
327.573	3.7
327.945	3.89
328.318	3.59
328.691	3.11
329.063	3.55
329.436	3.61
329.809	4.27
330.181	3.54
330.553	3.99
330.926	4.13
331.298	4.01
331.671	3.53
332.043	3.96
332.415	5.01
332.787	4.18
333.159	4.79
333.532	4.02
333.904	4.23
334.276	3.67
334.648	4.32
335.02	4.17
335.391	4.19
335.763	3.54
336.135	4.09
336.507	4.84
336.879	4.19
337.25	3.5
337.622	3.67
337.993	4.06
338.365	4.05
338.736	3.88
339.108	4.29
339.479	3.61
339.851	4.02
340.222	3.79
340.593	3.93
340.964	3.7
341.336	4.61
341.707	3.66
342.078	3.68
342.449	3.81
342.82	3.97
343.191	4.07
343.562	4.03
343.933	4.13
344.303	3.85
344.674	3.45
345.045	4.15
345.416	4.56
345.786	3.6
346.157	3.91
346.527	3.61
346.898	3.87
347.268	3.94
347.639	3.88
348.009	4.12
348.38	3.67
348.75	3.87
349.12	3.49
349.49	4.56
349.861	4.3
350.231	3.95
350.601	3.73
350.971	4.07
351.341	3.89
351.711	4.21
352.081	3.86
352.45	4.18
352.82	4.43
353.19	4.05
353.56	4.04
353.929	4.16
354.299	4.42
354.669	3.98
355.038	4.4
355.408	4.13
355.777	4.1
356.147	3.78
356.516	4.03
356.885	4.18
357.254	4.1
357.624	4.72
357.993	4.57
358.362	3.85
358.731	3.86
359.1	4.15
359.469	3.98
359.838	4.4
360.207	4.26
360.576	3.96
360.945	4.18
361.314	4.78
361.682	3.89
362.051	4.06
362.42	4.3
362.788	4.36
363.157	4.22
363.525	4.47
363.894	4.26
364.262	4.67
364.631	4.2
364.999	4.27
365.367	3.63
365.735	4.99
366.104	4.63
366.472	4.27
366.84	3.96
367.208	4.31
367.576	4.49
367.944	4.47
368.312	4.2
368.68	3.56
369.048	4.61
369.416	4.52
369.783	3.82
370.151	4.74
370.519	4.87
370.886	4.71
371.254	4.42
371.621	4.52
371.989	4.56
372.356	3.76
372.724	4.32
373.091	4.27
373.458	4.4
373.826	4.15
374.193	4.11
374.56	4.3
374.927	4.76
375.294	4.43
375.661	3.93
376.028	4.1
376.395	4.77
376.762	4.48
377.129	4.25
377.496	4.15
377.863	4.26
378.229	4.06
378.596	4.55
378.963	4.17
379.329	4.44
379.696	4.48
380.062	4.65
380.429	4.19
380.795	4.16
381.161	4.62
381.528	4.77
381.894	4.65
382.26	4.28
382.626	4.54
382.993	3.82
383.359	4.69
383.725	4.09
384.091	4.25
384.457	4.55
384.823	4.55
385.188	4.33
385.554	4.18
385.92	4.47
386.286	4.95
386.651	4.83
387.017	4.59
387.383	4.75
387.748	4.53
388.114	4.6
388.479	4.47
388.845	4.83
389.21	4.69
389.575	4.78
389.94	4.18
390.306	4.6
390.671	4.82
391.036	4.1
391.401	4.2
391.766	4.42
392.131	4.41
392.496	4.53
392.861	4.41
393.226	4.94
393.591	4.89
393.956	4.41
394.32	4.45
394.685	4.43
395.05	4.54
395.414	4.84
395.779	4.01
396.143	4.64
396.508	4.6
396.872	4.64
397.236	4.99
397.601	4.35
397.965	4.53
398.329	4.57
398.694	4.5
399.058	4.88
399.422	4.58
399.786	4.8
400.15	4.47
400.514	4.5
400.878	4.83
401.242	5.06
401.605	4.74
401.969	4.63
402.333	4.65
402.697	4.49
403.06	4.74
403.424	4.47
403.787	4.63
404.151	4.95
404.514	4.66
404.878	4.73
405.241	4.79
405.604	4.88
405.968	4.68
406.331	4.69
406.694	4.84
407.057	4.62
407.42	4.66
407.783	4.5
408.146	4.79
408.509	4.73
408.872	4.52
409.235	4.74
409.598	5.05
409.961	4.84
410.323	4.91
410.686	4.76
411.049	4.65
411.411	4.9
411.774	4.63
412.136	4.74
412.499	4.6
412.861	4.63
413.223	4.71
413.586	4.73
413.948	4.83
414.31	4.65
414.672	4.78
415.035	4.59
415.397	5.19
415.759	4.53
416.121	5.13
416.483	4.71
416.845	4.87
417.206	4.81
417.568	4.77
417.93	4.7
418.292	4.65
418.653	4.8
419.015	4.87
419.377	4.63
419.738	4.74
420.1	4.74
420.461	4.85
420.822	4.85
421.184	4.81
421.545	4.87
421.906	4.65
422.267	4.83
422.629	4.85
422.99	4.78
423.351	4.57
423.712	4.75
424.073	4.8
424.434	4.68
424.795	4.67
425.155	4.73
425.516	4.67
425.877	4.68
426.238	4.7
426.598	4.78
426.959	4.7
427.32	4.69
427.68	4.7
428.041	4.75
428.401	4.77
428.761	4.82
429.122	4.94
429.482	4.59
429.842	4.76
430.202	4.8
430.563	4.8
430.923	4.75
431.283	4.85
431.643	4.84
432.003	4.81
432.363	4.96
432.722	4.78
433.082	4.81
433.442	4.83
433.802	4.71
434.161	4.98
434.521	4.98
434.881	5.04
435.24	4.84
435.6	5.05
435.959	4.92
436.319	4.85
436.678	5.1
437.037	4.88
437.396	5.01
437.756	4.96
438.115	4.97
438.474	5.04
438.833	4.73
439.192	4.71
439.551	5.03
439.91	4.98
440.269	4.98
440.628	4.79
440.987	4.85
441.345	4.74
441.704	4.88
442.063	4.79
442.421	4.82
442.78	4.9
443.138	4.8
443.497	4.93
443.855	4.89
444.214	4.9
444.572	4.92
444.93	4.89
445.288	5
445.647	4.97
446.005	4.83
446.363	4.96
446.721	5.03
447.079	4.95
447.437	4.86
447.795	4.98
448.153	4.8
448.51	4.91
448.868	4.89
449.226	4.89
449.584	4.89
449.941	5.01
450.299	4.92
450.656	4.96
451.014	4.96
451.371	4.88
451.729	4.9
452.086	4.98
452.443	4.96
452.801	5.03
453.158	4.9
453.515	5.01
453.872	4.98
454.229	4.84
454.586	4.87
454.943	4.97
455.3	5.06
455.657	4.9
456.014	5.05
456.371	5.02
456.727	4.93
457.084	5.16
457.441	4.92
457.797	5.01
458.154	5.26
458.51	5.16
458.867	5.15
459.223	5.07
459.58	5.12
459.936	5.18
460.292	5.06
460.648	4.97
461.005	4.99
461.361	4.95
461.717	5.02
462.073	4.89
462.429	5.05
462.785	4.96
463.141	4.95
463.496	5.28
463.852	5.14
464.208	5
464.564	5.23
464.919	5.02
465.275	5.09
465.631	5.31
465.986	5.01
466.342	5.17
466.697	4.92
467.052	5.2
467.408	5.13
467.763	5.07
468.118	4.96
468.473	4.95
468.829	5.05
469.184	5.03
469.539	5.2
469.894	4.99
470.249	5.18
470.603	5.18
470.958	5.25
471.313	5.22
471.668	5.25
472.023	5.15
472.377	5.17
472.732	5.11
473.086	5.13
473.441	4.9
473.795	5.18
474.15	5.1
474.504	5.14
474.859	5.3
475.213	4.92
475.567	5.02
475.921	5.07
476.275	5.03
476.63	5.14
476.984	5.22
477.338	5.18
477.692	5.11
478.045	4.96
478.399	5.04
478.753	5.41
479.107	5.16
479.461	5.1
479.814	5.22
480.168	5.05
480.521	5.22
480.875	5.01
481.228	4.96
481.582	5.09
481.935	5.07
482.289	5.13
482.642	5
482.995	5.03
483.348	5.03
483.701	5.08
484.055	5.07
484.408	5.15
484.761	5.04
485.114	4.98
485.466	4.86
485.819	4.85
486.172	4.84
486.525	4.89
486.878	4.92
487.23	4.95
487.583	5.06
487.936	5.09
488.288	5.06
488.641	5.04
488.993	4.91
489.345	4.87
489.698	4.94
490.05	4.86
490.402	4.98
490.754	4.98
491.107	5.06
491.459	5.02
491.811	5.14
492.163	5.09
492.515	5.13
492.866	5.08
493.218	5.08
493.57	4.98
493.922	4.94
494.274	5.04
494.625	5.12
494.977	5.16
495.328	5.17
495.68	5.11
496.031	5.3
496.383	5.26
496.734	5.34
497.086	5.25
497.437	5.15
497.788	5.18
498.139	5.11
498.49	5.36
498.842	5.06
499.193	5.12
499.544	5.29
499.894	5.23
500.245	5.2
500.596	5.21
500.947	5.22
501.298	5.16
501.648	5.14
501.999	5.25
502.35	5.12
502.7	5.31
503.051	5.18
503.401	5.15
503.752	5.25
504.102	5.29
504.452	5.26
504.803	5.3
505.153	5.21
505.503	5.14
505.853	5.31
506.203	5.16
506.553	5.18
506.903	5.05
507.253	5.18
507.603	5.19
507.953	5.38
508.303	5.36
508.652	5.13
509.002	5.4
509.352	5.34
509.701	5.24
510.051	5.18
510.4	5.25
510.75	5.09
511.099	5.28
511.449	5.11
511.798	5.18
512.147	5.27
512.496	5.16
512.846	5.26
513.195	5.21
513.544	5.15
513.893	5.3
514.242	5.26
514.591	5.3
514.939	5.17
515.288	5.24
515.637	5.26
515.986	5.25
516.334	5.27
516.683	5.26
517.032	5.2
517.38	5.32
517.729	5.27
518.077	5.22
518.426	5.42
518.774	5.3
519.122	5.23
519.47	5.4
519.819	5.08
520.167	5.19
520.515	5.18
520.863	5.17
521.211	5.15
521.559	5.21
521.907	5.25
522.255	5.19
522.602	5.36
522.95	5.19
523.298	5.17
523.645	5.33
523.993	5.16
524.341	5.39
524.688	5.39
525.036	5.17
525.383	5.32
525.73	5.42
526.078	5.3
526.425	5.17
526.772	5.27
527.119	5.23
527.466	5.22
527.814	5.17
528.161	5.2
528.508	5.26
528.854	5.15
529.201	5.14
529.548	5.18
529.895	5.14
530.242	5.03
530.588	5
530.935	5.03
531.282	5.09
531.628	5.02
531.975	5.15
532.321	5.19
532.667	5.21
533.014	5.27
533.36	5.27
533.706	5.18
534.052	5.25
534.399	5.06
534.745	5.14
535.091	5.19
535.437	5.13
535.783	5.23
536.129	5.08
536.474	5.18
536.82	5.17
537.166	5.29
537.512	5.32
537.857	5.27
538.203	5.21
538.549	5.17
538.894	5.2
539.239	5.24
539.585	5.23
539.93	5.24
540.276	5.38
540.621	5.32
540.966	5.36
541.311	5.19
541.656	5.1
542.001	5.3
542.346	5.32
542.691	5.18
543.036	5.09
543.381	5.03
543.726	5.08
544.071	5.16
544.415	5.2
544.76	5.17
545.105	5.13
545.449	5.28
545.794	5.31
546.138	5.23
546.483	5.25
546.827	5.22
547.171	5.42
547.516	5.28
547.86	5.16
548.204	5.19
548.548	5.17
548.892	5.35
549.236	5.23
549.58	5.23
549.924	5.21
550.268	5.43
550.612	5.39
550.956	5.49
551.3	5.19
551.643	5.59
551.987	5.54
552.33	5.26
552.674	5.37
553.017	5.22
553.361	5.23
553.704	5.45
554.048	5.23
554.391	5.28
554.734	5.2
555.077	5.16
555.42	5.18
555.764	5.23
556.107	5.09
556.45	5.16
556.793	5.28
557.135	5.23
557.478	5.46
557.821	5.42
558.164	5.15
558.507	5.31
558.849	5.1
559.192	5.42
559.534	5.26
559.877	5.53
560.219	5.14
560.562	5.5
560.904	5.41
561.246	5.35
561.589	5.44
561.931	5.37
562.273	5.05
562.615	5.34
562.957	5.38
563.299	5.01
563.641	5.41
563.983	5.28
564.325	5.22
564.667	5.22
565.008	5.17
565.35	5.25
565.692	4.95
566.033	5.18
566.375	5.3
566.716	5.39
567.058	5.08
567.399	5.23
567.741	5.18
568.082	5.18
568.423	5.21
568.764	5.18
569.105	5.19
569.447	5.25
569.788	5.24
570.129	5.47
570.47	5.25
570.811	5.24
571.151	5.2
571.492	5.3
571.833	5.2
572.174	5.19
572.514	5.28
572.855	5.13
573.195	5.24
573.536	5.27
573.876	4.99
574.217	5
574.557	5.17
574.898	5.33
575.238	5.34
575.578	5.15
575.918	5.38
576.258	5.34
576.598	5.28
576.938	5.2
577.278	5.2
577.618	5.18
577.958	5.2
578.298	5.11
578.638	5.13
578.977	5.23
579.317	5.18
579.657	5.39
579.996	5.39
580.336	5.37
580.675	5.22
581.014	5.21
581.354	5.43
581.693	5.28
582.032	4.9
582.372	5.2
582.711	5.49
583.05	4.99
583.389	5.2
583.728	5.17
584.067	5.33
584.406	5.24
584.745	5.15
585.083	5.27
585.422	5.42
585.761	5.46
586.1	5.28
586.438	5.39
586.777	5.28
587.115	5.43
587.454	5
587.792	5.12
588.13	5.46
588.469	5.21
588.807	5.17
589.145	4.97
589.483	5.29
589.821	5.12
590.159	5.2
590.497	5.62
590.835	5.6
591.173	5.27
591.511	5.36
591.849	5.07
592.187	5.28
592.524	5.15
592.862	5.13
593.2	5.22
593.537	5.37
593.875	5.07
594.212	5.09
594.55	5.42
594.887	5.31
595.224	5.18
595.561	5.33
595.899	5.22
596.236	5.41
596.573	5.3
596.91	4.76
597.247	4.88
597.584	5.09
597.921	5.1
598.258	5.16
598.594	5.2
598.931	5.29
599.268	5.3
599.604	5.06
599.941	5.46
600.277	5.41
600.614	5.16
600.95	5.12
601.287	5.2
601.623	5.06
601.959	5.19
602.296	5.08
602.632	5.1
602.968	5.39
603.304	5.4
603.64	5.2
603.976	5.27
604.312	5.17
604.648	5.24
604.984	5.37
605.319	5.25
605.655	5.01
605.991	5.32
606.326	5.29
606.662	5.12
606.998	4.99
607.333	5.16
607.668	5.16
608.004	5.27
608.339	5.43
608.674	5.3
609.01	4.9
609.345	5.03
609.68	5.54
610.015	5.35
610.35	5.31
610.685	4.95
611.02	5.19
611.355	5.08
611.689	5.1
612.024	5.32
612.359	5.11
612.694	5.28
613.028	4.96
613.363	5.21
613.697	5.39
614.032	5.39
614.366	5.38
614.7	5.25
615.035	5.24
615.369	5.19
615.703	5.34
616.037	5.44
616.371	4.79
616.705	4.73
617.039	5.18
617.373	5.27
617.707	5.01
618.041	4.9
618.375	5.33
618.709	5.62
619.042	4.84
619.376	5.45
619.71	5.83
620.043	5.5
620.377	4.85
620.71	5.19
621.043	4.87
621.377	5.14
621.71	5.33
622.043	4.82
622.376	4.8
622.709	5.21
623.043	5.36
623.376	5.19
623.709	5.08
624.041	5.59
624.374	5.42
624.707	5.39
625.04	5.42
625.373	4.64
625.705	5.38
626.038	5.02
626.37	5.22
626.703	4.86
627.035	5.48
627.368	5.68
627.7	5.4
628.032	5.38
628.365	5.43
628.697	5.36
629.029	5.12
629.361	5.32
629.693	5.21
630.025	4.92
630.357	5.69
630.689	5.44
631.021	5.33
631.353	5.3
631.684	4.78
632.016	4.86
632.348	5.3
632.679	5.02
633.011	5.52
633.342	5.62
633.674	5.47
634.005	5.98
634.336	5.47
634.668	5.75
634.999	4.78
635.33	5.76
635.661	5.5
635.992	5.05
636.323	5.55
636.654	5.6
636.985	5.26
637.316	5.22
637.647	4.99
637.977	5.63
638.308	5.95
638.639	5.19
638.969	5.07
639.3	4.81
639.63	5.28
639.961	5.25
640.291	5.22
640.622	5.69
640.952	4.97
641.282	5.67
641.612	5.51
641.943	4.83
642.273	5.33
642.603	6.14
642.933	5.6
643.263	5.4
643.592	5.03
643.922	5.29
644.252	5.29
644.582	5.35
644.911	5.16
645.241	5.24
645.571	5.24
645.9	5.18
646.23	5.62
646.559	5.47
646.888	5.12
647.218	5.29
647.547	5.1
647.876	5.18
648.205	5.49
648.534	4.94
648.863	4.78
649.192	5.66
649.521	5.39
649.85	5
650.179	5.23
650.508	4.84
650.837	4.81
651.165	5.18
651.494	5.54
651.822	5.2
652.151	4.99
652.479	5.03
652.808	4.92
653.136	5.32
653.465	4.21
653.793	4.89
654.121	5.13
654.449	5.3
654.777	5.26
655.105	5.29
655.433	4.97
655.761	4.88
656.089	5.53
656.417	5.68
656.745	5.4
657.073	5.01
657.4	5.93
657.728	4.77
658.056	5.47
658.383	5.25
658.711	5.25
659.038	5.78
659.365	5.58
659.693	5.19
660.02	5.21
660.347	5.17
660.674	4.88
661.001	5.18
661.329	4.57
661.656	5.55
661.982	5.4
662.309	5.29
662.636	5.13
662.963	5.82
663.29	5.47
663.616	5.45
663.943	5.09
664.27	5.07
664.596	5.34
664.923	5.37
665.249	5.18
665.576	5.12
665.902	6.06
666.228	5.25
666.554	5.16
666.881	4.75
667.207	5.56
667.533	5.29
667.859	5.4
668.185	5.67
668.511	4.94
668.837	3.55
669.162	5.55
669.488	4.82
669.814	5.32
670.139	5.6
670.465	5.36
670.791	5.48
671.116	6.64
671.442	5.05
671.767	5.5
672.092	5.74
672.418	5.52
672.743	5.74
673.068	4.71
673.393	5.61
673.718	5.33
674.043	5.14
674.368	4.49
674.693	6.44
675.018	5.16
675.343	4.83
675.667	4.76
675.992	5.61
676.317	6
676.641	5.41
676.966	5.17
677.29	4.98
677.615	5.81
677.939	5.96
678.264	5.8
678.588	5.28
678.912	5.89
679.236	5.84
679.56	5.15
679.885	5.46
680.209	5.4
680.532	5.13
680.856	5.98
681.18	5.67
681.504	5.7
681.828	6.22
682.152	5.08
682.475	5.87
682.799	5.5
683.122	5.75
683.446	5.2
683.769	5.52
684.093	5.33
684.416	5.86
684.739	5.1
685.062	5.25
685.386	5.38
685.709	4.95
686.032	5.59
686.355	5.35
686.678	5.34
687.001	4.84
687.324	5.97
687.646	4.87
687.969	4.97
688.292	5.02
688.614	4.98
688.937	5.76
689.26	5.56
689.582	5.77
689.904	5.38
690.227	6.03
690.549	5.35
690.871	5.91
691.194	5.68
691.516	5.29
691.838	5.18
692.16	5.55
692.482	5.62
