Data from 0372_crown_Reflection__1__160.txt Node

Date: Fri Dec 15 18:03:33 CST 2023
User: ToomeyLab
Spectrometer: FLMS14357
Trigger mode: 0
Integration Time (sec): 1.000000E-2
Scans to average: 100
Electric dark correction enabled: true
Nonlinearity correction enabled: false
Boxcar width: 0
XAxis mode: Wavelengths
Number of Pixels in Spectrum: 2048
>>>>>Begin Spectral Data<<<<<
189.047	-257.77
189.435	-257.77
189.823	-257.77
190.211	283.71
190.599	357.77
190.987	171.79
191.375	278.12
191.763	113.59
192.151	-40.39
192.538	194.26
192.926	215.25
193.314	120.54
193.702	1407.48
194.089	-114.83
194.477	49.32
194.864	-63.7
195.252	140.11
195.639	50.6
196.027	157.11
196.414	96.05
196.801	73.66
197.189	104.55
197.576	2743.03
197.963	117.32
198.351	-62.8
198.738	-63.9
199.125	-20.71
199.512	-88.11
199.899	2.09
200.286	-17.05
200.673	23.92
201.06	21.21
201.447	-53.37
201.833	69.72
202.22	27.67
202.607	21.57
202.994	20.6
203.38	-10.57
203.767	16.09
204.154	13.63
204.54	27.07
204.927	-47.21
205.313	14.23
205.699	60.83
206.086	38.1
206.472	12.08
206.858	1.16
207.245	23.66
207.631	23.48
208.017	-2.57
208.403	-3.21
208.789	21.13
209.175	-17.15
209.561	-33.22
209.947	-15.15
210.333	-22.96
210.719	23.08
211.105	22.05
211.491	-47.86
211.876	5.05
212.262	4.28
212.648	-33.98
213.034	10.66
213.419	-23.92
213.805	-27.4
214.19	-27.68
214.576	-13.76
214.961	-43.17
215.346	-62.32
215.732	-44.91
216.117	34.1
216.502	10.36
216.888	-3.05
217.273	11.56
217.658	-6.38
218.043	6.8
218.428	-66.32
218.813	12.28
219.198	-40.2
219.583	-5.42
219.968	-0.15
220.353	-26.32
220.738	-6.46
221.122	12.77
221.507	-30.16
221.892	-34.37
222.276	-24.16
222.661	4.11
223.046	3.18
223.43	15.88
223.815	-6.32
224.199	-18.8
224.583	1.42
224.968	-6.88
225.352	7.96
225.736	-4.4
226.121	-18.28
226.505	-0.18
226.889	4.83
227.273	1.4
227.657	10.25
228.041	4.2
228.425	1.57
228.809	0.74
229.193	3.28
229.577	1.4
229.961	3.37
230.344	3.74
230.728	1.78
231.112	3.42
231.495	2.56
231.879	2.77
232.263	3.12
232.646	2.33
233.03	1.25
233.413	1.54
233.797	2.07
234.18	1.16
234.563	3.93
234.946	-0.48
235.33	5.11
235.713	2.76
236.096	3.04
236.479	3.34
236.862	1.53
237.245	3.38
237.628	1.38
238.011	3.95
238.394	4.03
238.777	2.38
239.16	1.71
239.543	1.65
239.925	3.32
240.308	4.77
240.691	2.26
241.073	1.91
241.456	1.53
241.838	2.12
242.221	1.97
242.603	3.59
242.986	2.92
243.368	2.83
243.75	3.04
244.133	2.25
244.515	3.35
244.897	3.15
245.279	3.08
245.661	2.16
246.043	2.18
246.425	1.69
246.807	3.34
247.189	2.88
247.571	3.28
247.953	3.25
248.335	2.95
248.717	2.82
249.098	2.7
249.48	2.74
249.862	2.86
250.243	2.39
250.625	3
251.006	3.29
251.388	1.54
251.769	2.63
252.151	3.59
252.532	1.29
252.913	2.38
253.295	1.73
253.676	1.94
254.057	2.95
254.438	2.69
254.819	2.58
255.2	1.22
255.581	3.19
255.962	1.95
256.343	1.48
256.724	2.43
257.105	3.42
257.486	2.74
257.867	3.38
258.247	2.77
258.628	2.49
259.009	2.61
259.389	1.98
259.77	2.28
260.15	1.71
260.531	1.59
260.911	2.86
261.292	2.87
261.672	2.77
262.052	2.45
262.432	2.87
262.813	2.44
263.193	2.21
263.573	2.29
263.953	2.33
264.333	3.07
264.713	2.84
265.093	1.68
265.473	2.18
265.853	1.19
266.233	2.82
266.612	-0.35
266.992	0.81
267.372	3.05
267.752	1.99
268.131	2.86
268.511	3.08
268.89	3.28
269.27	2.66
269.649	2
270.029	2.19
270.408	3.32
270.787	2.47
271.167	2.89
271.546	2.81
271.925	1.65
272.304	3.07
272.683	2.4
273.062	2.13
273.441	2.97
273.82	2.03
274.199	2.33
274.578	2.67
274.957	2.22
275.336	2.13
275.715	2.12
276.093	2.37
276.472	2.62
276.851	2.44
277.229	1.78
277.608	1.46
277.986	1.97
278.365	2.2
278.743	1.86
279.122	2.64
279.5	2.46
279.878	2.36
280.257	1.79
280.635	1.64
281.013	2.81
281.391	2.57
281.769	2.55
282.147	2.23
282.525	2.56
282.903	1.81
283.281	2.11
283.659	2.64
284.037	2.19
284.415	2.26
284.792	2.67
285.17	1.79
285.548	2.05
285.925	2.15
286.303	2.48
286.68	1.94
287.058	2.22
287.435	2.57
287.813	2.13
288.19	2.13
288.567	2.3
288.945	2.95
289.322	2.17
289.699	2.23
290.076	1.93
290.453	2.3
290.83	1.76
291.207	2.17
291.584	2.39
291.961	2.47
292.338	2.22
292.715	2.71
293.092	2.59
293.469	2.15
293.845	2.89
294.222	1.66
294.599	2.48
294.975	1.98
295.352	2.5
295.728	1.84
296.105	2.04
296.481	2.66
296.858	2.48
297.234	1.78
297.61	2.02
297.986	1.88
298.363	2.44
298.739	2.4
299.115	2.11
299.491	1.8
299.867	2.16
300.243	1.69
300.619	1.97
300.995	2.31
301.371	2.04
301.746	2.35
302.122	2.78
302.498	1.67
302.874	2.44
303.249	1.73
303.625	1.81
304	3.01
304.376	1.89
304.751	1.38
305.127	3.1
305.502	1.83
305.878	1.25
306.253	2.35
306.628	2.9
307.003	2.04
307.378	2.15
307.754	2.57
308.129	1.34
308.504	1.66
308.879	1.63
309.254	3.19
309.629	2.93
310.003	1.86
310.378	2.43
310.753	2.57
311.128	1.82
311.502	2.25
311.877	2.3
312.252	2.01
312.626	2.48
313.001	1.86
313.375	2.48
313.75	1.97
314.124	2.28
314.498	1.95
314.873	1.93
315.247	2.42
315.621	2.41
315.995	2.13
316.369	2.24
316.743	1.76
317.117	2.13
317.491	1.95
317.865	2.81
318.239	2.45
318.613	1.9
318.987	2.5
319.361	1.61
319.734	2.06
320.108	2.4
320.482	2
320.855	2.47
321.229	2.47
321.602	1.98
321.976	2.31
322.349	2.1
322.723	2.02
323.096	2.16
323.469	1.07
323.843	2.07
324.216	3.14
324.589	2.34
324.962	2.02
325.335	1.56
325.708	1.83
326.081	1.78
326.454	2.26
326.827	2.19
327.2	2.21
327.573	1.78
327.945	2.24
328.318	1.97
328.691	1.8
329.063	2.22
329.436	2.17
329.809	2.39
330.181	2.23
330.553	2.37
330.926	2.31
331.298	2.07
331.671	1.73
332.043	3.23
332.415	2.04
332.787	2.22
333.159	3.15
333.532	2.12
333.904	2.4
334.276	2.51
334.648	2.13
335.02	2.17
335.391	2.34
335.763	1.96
336.135	1.75
336.507	2.43
336.879	2.44
337.25	2.13
337.622	2.16
337.993	2.47
338.365	2.68
338.736	1.99
339.108	2.2
339.479	2.15
339.851	2.07
340.222	1.92
340.593	1.97
340.964	2.31
341.336	3.15
341.707	1.34
342.078	2.53
342.449	2.09
342.82	1.95
343.191	2.31
343.562	2.42
343.933	2.56
344.303	2
344.674	2.36
345.045	1.98
345.416	2.76
345.786	1.57
346.157	2.61
346.527	1.77
346.898	1.63
347.268	2.66
347.639	2.23
348.009	2.2
348.38	2.05
348.75	2.16
349.12	2.12
349.49	3.14
349.861	2.46
350.231	1.95
350.601	2.4
350.971	2.21
351.341	2.54
351.711	2.43
352.081	2.38
352.45	2.41
352.82	2.7
353.19	1.84
353.56	2.3
353.929	2.49
354.299	2.08
354.669	1.92
355.038	3.12
355.408	2.05
355.777	2.36
356.147	2.03
356.516	1.92
356.885	2.79
357.254	2.14
357.624	2.98
357.993	2.48
358.362	2.14
358.731	1.91
359.1	2.16
359.469	2.46
359.838	2.58
360.207	2.09
360.576	2.42
360.945	2.5
361.314	2.74
361.682	2.27
362.051	2.14
362.42	2.62
362.788	2.4
363.157	2.53
363.525	2.64
363.894	2.47
364.262	2.65
364.631	2.62
364.999	2.35
365.367	1.85
365.735	3.42
366.104	2.49
366.472	2.59
366.84	2.15
367.208	2.12
367.576	2.6
367.944	2.54
368.312	2.46
368.68	2.14
369.048	2.52
369.416	2.2
369.783	2.16
370.151	2.85
370.519	2.57
370.886	2.65
371.254	2.35
371.621	2.4
371.989	2.95
372.356	2.25
372.724	2.21
373.091	2.44
373.458	2.59
373.826	2.36
374.193	2.24
374.56	2.38
374.927	2.84
375.294	2.47
375.661	2.22
376.028	2.43
376.395	1.79
376.762	2.6
377.129	1.87
377.496	2.37
377.863	2.39
378.229	1.65
378.596	2.49
378.963	2.36
379.329	2.45
379.696	2.42
380.062	2.54
380.429	2.48
380.795	2.35
381.161	2.6
381.528	2.77
381.894	2.33
382.26	2.4
382.626	2.59
382.993	2.12
383.359	2.55
383.725	2.34
384.091	2.33
384.457	2.24
384.823	2.53
385.188	2.45
385.554	2.61
385.92	2.23
386.286	2.85
386.651	2.81
387.017	2.77
387.383	2.48
387.748	2.48
388.114	2.58
388.479	2.18
388.845	2.71
389.21	2.76
389.575	2.64
389.94	2.61
390.306	2.56
390.671	2.87
391.036	2.07
391.401	2.33
391.766	2.75
392.131	2.32
392.496	2.63
392.861	2.37
393.226	2.77
393.591	2.57
393.956	2.51
394.32	2.54
394.685	2.25
395.05	2.41
395.414	2.67
395.779	2.26
396.143	2.73
396.508	2.72
396.872	2.53
397.236	2.53
397.601	2.18
397.965	2.74
398.329	2.62
398.694	2.72
399.058	2.83
399.422	2.53
399.786	2.65
400.15	2.54
400.514	2.8
400.878	2.71
401.242	2.83
401.605	2.56
401.969	2.71
402.333	2.83
402.697	2.77
403.06	2.75
403.424	2.91
403.787	2.5
404.151	2.83
404.514	2.67
404.878	2.55
405.241	2.9
405.604	2.73
405.968	2.91
406.331	2.72
406.694	2.86
407.057	2.66
407.42	2.67
407.783	2.42
408.146	2.53
408.509	2.65
408.872	2.37
409.235	2.75
409.598	2.89
409.961	2.85
410.323	2.68
410.686	2.72
411.049	2.48
411.411	2.61
411.774	2.57
412.136	2.53
412.499	2.68
412.861	2.49
413.223	2.88
413.586	2.79
413.948	2.58
414.31	2.6
414.672	2.6
415.035	2.44
415.397	3.12
415.759	2.73
416.121	2.92
416.483	2.67
416.845	2.7
417.206	2.68
417.568	2.66
417.93	2.5
418.292	2.69
418.653	2.61
419.015	2.8
419.377	2.61
419.738	2.89
420.1	2.85
420.461	2.77
420.822	2.82
421.184	2.82
421.545	2.75
421.906	2.6
422.267	2.74
422.629	2.67
422.99	2.65
423.351	2.66
423.712	2.71
424.073	2.77
424.434	2.62
424.795	2.65
425.155	2.65
425.516	2.51
425.877	2.61
426.238	2.65
426.598	2.7
426.959	2.62
427.32	2.58
427.68	2.66
428.041	2.74
428.401	2.84
428.761	2.71
429.122	2.72
429.482	2.68
429.842	2.81
430.202	2.79
430.563	2.75
430.923	2.63
431.283	2.88
431.643	2.7
432.003	2.58
432.363	2.72
432.722	2.69
433.082	2.92
433.442	3.01
433.802	2.56
434.161	2.65
434.521	3
434.881	2.89
435.24	2.8
435.6	2.92
435.959	2.7
436.319	2.83
436.678	2.67
437.037	2.71
437.396	2.88
437.756	2.73
438.115	2.62
438.474	2.9
438.833	2.74
439.192	2.8
439.551	2.99
439.91	2.64
440.269	2.7
440.628	2.68
440.987	2.69
441.345	2.56
441.704	2.74
442.063	2.66
442.421	2.71
442.78	2.73
443.138	2.64
443.497	2.85
443.855	2.73
444.214	2.92
444.572	2.81
444.93	2.82
445.288	2.74
445.647	2.84
446.005	2.64
446.363	2.94
446.721	2.88
447.079	2.66
447.437	2.74
447.795	2.8
448.153	2.71
448.51	2.74
448.868	2.64
449.226	2.72
449.584	2.72
449.941	2.92
450.299	2.81
450.656	2.87
451.014	2.91
451.371	2.9
451.729	2.78
452.086	2.89
452.443	2.89
452.801	2.93
453.158	2.79
453.515	2.73
453.872	2.89
454.229	2.85
454.586	2.6
454.943	2.76
455.3	2.94
455.657	2.69
456.014	2.87
456.371	2.88
456.727	2.85
457.084	2.92
457.441	2.79
457.797	2.93
458.154	3.03
458.51	2.79
458.867	2.97
459.223	2.78
459.58	2.78
459.936	2.81
460.292	2.91
460.648	2.71
461.005	2.74
461.361	3
461.717	2.69
462.073	2.71
462.429	2.85
462.785	2.91
463.141	2.91
463.496	2.91
463.852	3.08
464.208	3.02
464.564	3.08
464.919	2.82
465.275	2.74
465.631	2.91
465.986	2.8
466.342	2.87
466.697	2.78
467.052	2.98
467.408	2.98
467.763	2.79
468.118	2.73
468.473	2.83
468.829	2.88
469.184	2.89
469.539	2.82
469.894	2.86
470.249	2.98
470.603	3.04
470.958	2.96
471.313	3.02
471.668	2.73
472.023	2.8
472.377	2.9
472.732	2.8
473.086	2.78
473.441	2.71
473.795	2.9
474.15	3.02
474.504	2.9
474.859	3.03
475.213	2.88
475.567	2.92
475.921	2.69
476.275	3.01
476.63	3.02
476.984	2.93
477.338	2.95
477.692	2.81
478.045	2.86
478.399	2.95
478.753	2.99
479.107	2.95
479.461	2.87
479.814	2.93
480.168	2.88
480.521	2.91
480.875	2.85
481.228	2.77
481.582	2.8
481.935	2.74
482.289	2.78
482.642	2.87
482.995	2.84
483.348	2.78
483.701	2.74
484.055	2.88
484.408	2.91
484.761	2.79
485.114	2.76
485.466	2.62
485.819	2.61
486.172	2.67
486.525	2.77
486.878	2.81
487.23	2.83
487.583	2.89
487.936	2.81
488.288	2.85
488.641	2.83
488.993	2.71
489.345	2.63
489.698	2.7
490.05	2.72
490.402	2.83
490.754	2.77
491.107	2.94
491.459	3
491.811	2.91
492.163	2.87
492.515	2.78
492.866	2.89
493.218	2.81
493.57	2.66
493.922	2.71
494.274	2.89
494.625	3.02
494.977	2.97
495.328	2.98
495.68	2.89
496.031	3.03
496.383	3.01
496.734	3.04
497.086	3.04
497.437	3.01
497.788	2.87
498.139	2.84
498.49	2.89
498.842	2.88
499.193	2.76
499.544	2.93
499.894	2.9
500.245	2.9
500.596	2.88
500.947	2.94
501.298	2.92
501.648	3.02
501.999	3.03
502.35	3.01
502.7	3
503.051	2.85
503.401	2.89
503.752	2.96
504.102	2.95
504.452	2.88
504.803	2.99
505.153	2.93
505.503	2.9
505.853	2.96
506.203	2.84
506.553	2.77
506.903	2.95
507.253	2.99
507.603	2.99
507.953	2.9
508.303	3.12
508.652	2.82
509.002	3.08
509.352	2.91
509.701	2.91
510.051	2.93
510.4	2.92
510.75	2.79
511.099	2.86
511.449	2.84
511.798	2.99
512.147	3.02
512.496	2.88
512.846	3.01
513.195	3.03
513.544	2.84
513.893	2.95
514.242	2.89
514.591	3.07
514.939	2.87
515.288	2.81
515.637	2.93
515.986	3.01
516.334	3.05
516.683	3.01
517.032	2.96
517.38	3.09
517.729	2.95
518.077	2.79
518.426	2.93
518.774	2.98
519.122	2.8
519.47	2.84
519.819	2.68
520.167	2.86
520.515	2.82
520.863	2.98
521.211	2.97
521.559	3.07
521.907	2.84
522.255	2.91
522.602	2.93
522.95	2.91
523.298	2.9
523.645	2.98
523.993	2.84
524.341	3.1
524.688	3.01
525.036	2.88
525.383	2.93
525.73	3.06
526.078	2.94
526.425	2.87
526.772	3.02
527.119	2.89
527.466	2.8
527.814	2.89
528.161	2.86
528.508	2.94
528.854	2.86
529.201	2.85
529.548	2.85
529.895	2.89
530.242	2.63
530.588	2.66
530.935	2.74
531.282	2.82
531.628	2.85
531.975	2.89
532.321	2.96
532.667	2.95
533.014	2.99
533.36	2.9
533.706	2.92
534.052	2.94
534.399	2.82
534.745	2.81
535.091	2.76
535.437	2.82
535.783	2.85
536.129	2.9
536.474	2.97
536.82	2.96
537.166	3.08
537.512	3.02
537.857	2.87
538.203	2.89
538.549	2.85
538.894	2.84
539.239	2.96
539.585	2.87
539.93	2.87
540.276	3.14
540.621	3.13
540.966	2.97
541.311	2.82
541.656	2.94
542.001	2.84
542.346	3.08
542.691	2.75
543.036	2.76
543.381	2.74
543.726	2.82
544.071	2.92
544.415	2.96
544.76	2.9
545.105	2.91
545.449	2.91
545.794	2.94
546.138	2.91
546.483	3.01
546.827	2.98
547.171	2.9
547.516	3.12
547.86	2.83
548.204	2.88
548.548	2.86
548.892	2.99
549.236	2.95
549.58	2.92
549.924	2.98
550.268	2.99
550.612	3
550.956	3.03
551.3	2.99
551.643	3.23
551.987	3.15
552.33	2.81
552.674	3.06
553.017	3.01
553.361	2.74
553.704	3.1
554.048	3
554.391	2.85
554.734	2.75
555.077	3.16
555.42	2.88
555.764	2.88
556.107	2.79
556.45	2.9
556.793	2.9
557.135	3.1
557.478	3.14
557.821	3.14
558.164	3.08
558.507	2.93
558.849	2.84
559.192	3.03
559.534	3.09
559.877	3.03
560.219	2.93
560.562	3.25
560.904	2.91
561.246	2.92
561.589	3
561.931	2.89
562.273	2.87
562.615	3.19
562.957	2.94
563.299	2.91
563.641	2.87
563.983	3.05
564.325	2.83
564.667	3
565.008	3.11
565.35	3.08
565.692	2.96
566.033	2.8
566.375	2.89
566.716	3.04
567.058	2.87
567.399	2.96
567.741	2.71
568.082	2.91
568.423	2.75
568.764	2.92
569.105	3.08
569.447	3.07
569.788	3.02
570.129	3.02
570.47	2.96
570.811	3.07
571.151	3.05
571.492	3.08
571.833	3.14
572.174	2.83
572.514	3.03
572.855	3.01
573.195	2.89
573.536	2.98
573.876	2.75
574.217	2.77
574.557	2.91
574.898	3.11
575.238	3.16
575.578	2.79
575.918	3.11
576.258	3
576.598	3.08
576.938	2.88
577.278	2.85
577.618	2.83
577.958	2.96
578.298	3.06
578.638	2.89
578.977	2.87
579.317	2.88
579.657	3.16
579.996	2.97
580.336	2.89
580.675	2.95
581.014	3.07
581.354	3.07
581.693	3
582.032	2.75
582.372	2.81
582.711	2.85
583.05	2.85
583.389	3.01
583.728	2.95
584.067	3.26
584.406	2.99
584.745	3.02
585.083	3.46
585.422	3.03
585.761	3.07
586.1	3.04
586.438	2.77
586.777	3.2
587.115	2.95
587.454	2.92
587.792	2.93
588.13	3.19
588.469	2.91
588.807	3.04
589.145	3.08
589.483	3.18
589.821	3.02
590.159	3.06
590.497	3.34
590.835	3.18
591.173	2.94
591.511	3.06
591.849	2.93
592.187	3.06
592.524	2.91
592.862	2.99
593.2	3.25
593.537	2.95
593.875	2.91
594.212	2.82
594.55	2.86
594.887	3.16
595.224	3.01
595.561	3
595.899	2.99
596.236	2.98
596.573	2.9
596.91	2.83
597.247	2.81
597.584	3.14
597.921	2.82
598.258	2.74
598.594	3.01
598.931	2.91
599.268	3.13
599.604	3
599.941	3.27
600.277	2.8
600.614	2.98
600.95	2.8
601.287	3.17
601.623	3.17
601.959	3.07
602.296	3.22
602.632	2.91
602.968	3.05
603.304	2.8
603.64	2.79
603.976	3.09
604.312	2.74
604.648	3.02
604.984	3.05
605.319	3.11
605.655	3.09
605.991	3
606.326	2.94
606.662	2.91
606.998	2.73
607.333	2.81
607.668	2.98
608.004	2.93
608.339	3.26
608.674	3.19
609.01	2.82
609.345	2.55
609.68	3.24
610.015	3.07
610.35	3.04
610.685	2.98
611.02	2.82
611.355	2.93
611.689	2.87
612.024	2.98
612.359	2.82
612.694	3.05
613.028	2.91
613.363	3.21
613.697	3.35
614.032	3.07
614.366	2.8
614.7	3.12
615.035	2.97
615.369	2.84
615.703	3.16
616.037	3.14
616.371	2.8
616.705	2.7
617.039	3.2
617.373	2.58
617.707	2.88
618.041	2.84
618.375	3.24
618.709	3.34
619.042	2.87
619.376	3.33
619.71	3.22
620.043	3.33
620.377	3.13
620.71	2.8
621.043	3.02
621.377	2.83
621.71	3.05
622.043	2.83
622.376	2.44
622.709	2.72
623.043	3.04
623.376	3.1
623.709	2.53
624.041	3.72
624.374	2.97
624.707	2.78
625.04	3.38
625.373	2.58
625.705	3.38
626.038	2.72
626.37	2.66
626.703	3.15
627.035	2.88
627.368	3.37
627.7	3.1
628.032	3.05
628.365	3.26
628.697	3.04
629.029	2.85
629.361	2.83
629.693	2.89
630.025	2.87
630.357	2.76
630.689	2.82
631.021	2.97
631.353	3.04
631.684	2.96
632.016	2.88
632.348	2.98
632.679	3.24
633.011	3.21
633.342	3.53
633.674	3.18
634.005	3.31
634.336	2.93
634.668	3.5
634.999	2.93
635.33	2.99
635.661	3.08
635.992	2.7
636.323	3.12
636.654	3.48
636.985	2.78
637.316	3.11
637.647	2.72
637.977	3.25
638.308	3.45
638.639	2.62
638.969	2.81
639.3	2.7
639.63	2.48
639.961	3.02
640.291	2.93
640.622	3.19
640.952	2.54
641.282	3.25
641.612	3.28
641.943	2.98
642.273	3.04
642.603	3.36
642.933	3.46
643.263	3.09
643.592	2.69
643.922	2.57
644.252	2.65
644.582	3.08
644.911	2.71
645.241	3.34
645.571	2.81
645.9	2.66
646.23	2.72
646.559	3.11
646.888	2.63
647.218	2.4
647.547	3.42
647.876	2.97
648.205	2.41
648.534	3.16
648.863	2.28
649.192	3.48
649.521	2.73
649.85	2.75
650.179	2.93
650.508	3.04
650.837	2.57
651.165	2.71
651.494	2.67
651.822	2.8
652.151	2.58
652.479	2.85
652.808	3.08
653.136	2.95
653.465	2.16
653.793	2.31
654.121	2.91
654.449	3.34
654.777	3.48
655.105	3.16
655.433	3.04
655.761	2.95
656.089	3.1
656.417	3.08
656.745	2.96
657.073	2.47
657.4	3.5
657.728	2.74
658.056	3.12
658.383	2.57
658.711	3.01
659.038	2.99
659.365	3.83
659.693	3.07
660.02	2.67
660.347	2.98
660.674	3.09
661.001	3.25
661.329	2.08
661.656	3.03
661.982	3.09
662.309	3.03
662.636	2.62
662.963	3.69
663.29	3.01
663.616	3.39
663.943	2.61
664.27	3
664.596	3.31
664.923	3.06
665.249	3.17
665.576	2.65
665.902	3.51
666.228	3.33
666.554	3.61
666.881	2.96
667.207	3.22
667.533	3.29
667.859	3.29
668.185	3.41
668.511	2.65
668.837	2.06
669.162	3.23
669.488	2.55
669.814	2.8
670.139	3.93
670.465	3.18
670.791	2.86
671.116	3.62
671.442	2.89
671.767	3.3
672.092	3.43
672.418	3.75
672.743	2.93
673.068	2.64
673.393	3.3
673.718	2.85
674.043	3.1
674.368	2.96
674.693	3.84
675.018	3
675.343	2.33
675.667	2.42
675.992	3.35
676.317	3.51
676.641	3.48
676.966	3.46
677.29	3.11
677.615	3.7
677.939	3.05
678.264	3.36
678.588	2.82
678.912	3.32
679.236	3.21
679.56	2.61
679.885	3.29
680.209	2.86
680.532	3.23
680.856	3.67
681.18	3.23
681.504	2.78
681.828	3.33
682.152	2.77
682.475	3.77
682.799	3.32
683.122	3.39
683.446	2.65
683.769	3.3
684.093	3.09
684.416	3.53
684.739	3.58
685.062	3.53
685.386	3.1
685.709	2.68
686.032	2.51
686.355	3.82
686.678	2.53
687.001	2.85
687.324	2.89
687.646	2.84
687.969	2.72
688.292	3.53
688.614	2.89
688.937	3.18
689.26	2.96
689.582	3.56
689.904	2.8
690.227	2.91
690.549	3.25
690.871	4.43
691.194	2.43
691.516	1.96
691.838	3.28
692.16	2.13
