Data from 0372_crown_Reflection__0__159.txt Node

Date: Fri Dec 15 18:03:23 CST 2023
User: ToomeyLab
Spectrometer: FLMS14357
Trigger mode: 0
Integration Time (sec): 1.000000E-2
Scans to average: 100
Electric dark correction enabled: true
Nonlinearity correction enabled: false
Boxcar width: 0
XAxis mode: Wavelengths
Number of Pixels in Spectrum: 2048
>>>>>Begin Spectral Data<<<<<
189.047	142.23
189.435	142.23
189.823	142.23
190.211	258.35
190.599	1427.09
190.987	145.24
191.375	412.76
191.763	103.92
192.151	56.78
192.538	267.94
192.926	-712.61
193.314	312.29
193.702	626.17
194.089	-123.45
194.477	-28.61
194.864	-183.36
195.252	118.44
195.639	128.09
196.027	46.75
196.414	136.63
196.801	-154.64
197.189	126.35
197.576	3298.18
197.963	130.41
198.351	-52.08
198.738	-43.06
199.125	15.3
199.512	-25.85
199.899	24.96
200.286	32.7
200.673	-48.29
201.06	-5.17
201.447	-15.51
201.833	-1.02
202.22	13.36
202.607	23.98
202.994	32.67
203.38	9.76
203.767	25.6
204.154	10
204.54	37.03
204.927	-33.51
205.313	-1.01
205.699	51.41
206.086	60.03
206.472	-14.36
206.858	40.06
207.245	-7.31
207.631	48.89
208.017	-10.98
208.403	23.13
208.789	20.51
209.175	26.63
209.561	-32.76
209.947	-13.19
210.333	-49.7
210.719	14.69
211.105	0.31
211.491	-62.28
211.876	-7.38
212.262	-12.06
212.648	-30.62
213.034	14.75
213.419	23.17
213.805	3.02
214.19	-15.72
214.576	-28.99
214.961	22.65
215.346	-62.75
215.732	-15.03
216.117	-4.25
216.502	-14.78
216.888	-0.01
217.273	8.47
217.658	-0.53
218.043	-3.78
218.428	-66.82
218.813	-38.27
219.198	-51.04
219.583	12.76
219.968	1.98
220.353	-47.48
220.738	19.21
221.122	4.9
221.507	-24.32
221.892	-12.28
222.276	-1.35
222.661	4.16
223.046	15.4
223.43	13.7
223.815	8.68
224.199	-22.21
224.583	17.06
224.968	3.25
225.352	12.86
225.736	4.83
226.121	-11.61
226.505	3.35
226.889	15.46
227.273	1.13
227.657	11.81
228.041	5.48
228.425	4.02
228.809	5.51
229.193	10.61
229.577	4.41
229.961	5.71
230.344	4.73
230.728	5.36
231.112	6.19
231.495	6.09
231.879	5.8
232.263	6.03
232.646	5.82
233.03	7.23
233.413	5.22
233.797	4.17
234.18	4.47
234.563	6.62
234.946	5.31
235.33	8.34
235.713	6.89
236.096	5.84
236.479	7.47
236.862	4.48
237.245	7.91
237.628	5.85
238.011	5.7
238.394	6.75
238.777	5.21
239.16	5.46
239.543	7.78
239.925	9.46
240.308	6.55
240.691	6.47
241.073	7.07
241.456	6.62
241.838	4.88
242.221	4.44
242.603	6.52
242.986	5.79
243.368	6.3
243.75	5.96
244.133	5.65
244.515	6.1
244.897	5.88
245.279	6.5
245.661	5.97
246.043	5.55
246.425	3.66
246.807	6.38
247.189	5.74
247.571	6.04
247.953	5.94
248.335	5.72
248.717	5.79
249.098	5.5
249.48	5.93
249.862	5.79
250.243	5.55
250.625	5.44
251.006	5.28
251.388	4.33
251.769	4.93
252.151	5.17
252.532	5.01
252.913	4.35
253.295	5.77
253.676	4.98
254.057	5.17
254.438	5.76
254.819	4.53
255.2	5.27
255.581	5.47
255.962	4.54
256.343	5.93
256.724	4.13
257.105	4.96
257.486	5.91
257.867	5.74
258.247	4.01
258.628	4.92
259.009	4.65
259.389	5.58
259.77	5.41
260.15	4.98
260.531	4.38
260.911	5.82
261.292	5.07
261.672	5.4
262.052	5.3
262.432	5.29
262.813	5.13
263.193	5.53
263.573	4.94
263.953	4.89
264.333	5.82
264.713	5.69
265.093	4.23
265.473	5.21
265.853	4.28
266.233	3.92
266.612	2.12
266.992	3.81
267.372	5.33
267.752	5
268.131	4.16
268.511	5.65
268.89	4.62
269.27	4.52
269.649	4.38
270.029	4.18
270.408	5.59
270.787	4.89
271.167	5.48
271.546	5.48
271.925	4.13
272.304	5.19
272.683	5.04
273.062	5
273.441	5.03
273.82	4.15
274.199	4.5
274.578	4.9
274.957	4.84
275.336	4.88
275.715	4.49
276.093	4.57
276.472	4.96
276.851	4.6
277.229	4.22
277.608	3.66
277.986	5.13
278.365	5.06
278.743	4.42
279.122	4.13
279.5	4.87
279.878	4.71
280.257	4.81
280.635	3.59
281.013	4.37
281.391	5.13
281.769	4.25
282.147	4.83
282.525	5.24
282.903	4.55
283.281	4.77
283.659	4.5
284.037	4.95
284.415	4.5
284.792	4.67
285.17	3.84
285.548	3.92
285.925	4.52
286.303	4.59
286.68	4.06
287.058	4.27
287.435	4.43
287.813	4.86
288.19	4.49
288.567	4.41
288.945	4.7
289.322	4.93
289.699	4.31
290.076	4.67
290.453	4.41
290.83	3.84
291.207	4.32
291.584	4.53
291.961	4.3
292.338	4.2
292.715	4.6
293.092	4.71
293.469	4.2
293.845	4.34
294.222	3.41
294.599	4.36
294.975	4.61
295.352	4.55
295.728	3.92
296.105	3.97
296.481	4.49
296.858	4.32
297.234	3.95
297.61	3.98
297.986	3.71
298.363	4.09
298.739	4.2
299.115	4.02
299.491	4.03
299.867	4.51
300.243	4.14
300.619	4.06
300.995	4.39
301.371	4.32
301.746	4.03
302.122	4.82
302.498	4.37
302.874	3.91
303.249	4.31
303.625	4.31
304	3.84
304.376	4.03
304.751	3.63
305.127	4.88
305.502	3.63
305.878	3.21
306.253	3.73
306.628	4.85
307.003	4.26
307.378	4.82
307.754	4.12
308.129	3.75
308.504	4.45
308.879	3.82
309.254	4.96
309.629	4.81
310.003	4.17
310.378	4.12
310.753	5.06
311.128	4.33
311.502	3.69
311.877	4.28
312.252	3.99
312.626	3.84
313.001	4.06
313.375	4.38
313.75	3.89
314.124	4.28
314.498	4.17
314.873	4.14
315.247	4.12
315.621	4.2
315.995	3.77
316.369	3.96
316.743	4.25
317.117	4.46
317.491	4.7
317.865	4.15
318.239	3.95
318.613	4.29
318.987	4.06
319.361	3.09
319.734	4.27
320.108	3.88
320.482	3.97
320.855	4.8
321.229	3.85
321.602	4.19
321.976	4.74
322.349	3.91
322.723	4.23
323.096	4.53
323.469	3.63
323.843	4.09
324.216	4.32
324.589	3.96
324.962	4.99
325.335	3.84
325.708	4.08
326.081	4.02
326.454	4.56
326.827	3.99
327.2	4.35
327.573	4.33
327.945	3.93
328.318	3.77
328.691	3.91
329.063	3.75
329.436	3.97
329.809	4.38
330.181	3.64
330.553	4.04
330.926	4.58
331.298	4.51
331.671	3.83
332.043	4.87
332.415	4.94
332.787	4.41
333.159	5.13
333.532	4.52
333.904	4.58
334.276	4.62
334.648	4.75
335.02	4.57
335.391	3.98
335.763	4.1
336.135	4.03
336.507	4.73
336.879	4.38
337.25	3.94
337.622	4.41
337.993	3.98
338.365	4.74
338.736	4.35
339.108	3.97
339.479	4.1
339.851	4.29
340.222	4.08
340.593	4.57
340.964	4.35
341.336	4.96
341.707	3.47
342.078	4.69
342.449	4.96
342.82	4.32
343.191	4.46
343.562	4.47
343.933	4.51
344.303	4.34
344.674	4.09
345.045	4.73
345.416	4.98
345.786	3.94
346.157	4.81
346.527	3.64
346.898	3.96
347.268	4.77
347.639	4.6
348.009	4.87
348.38	4.25
348.75	4.27
349.12	4.13
349.49	5.06
349.861	5.28
350.231	4.16
350.601	4.44
350.971	4.59
351.341	4.78
351.711	5.08
352.081	4.81
352.45	4.58
352.82	5.01
353.19	4.15
353.56	4.66
353.929	4.64
354.299	4.53
354.669	4.23
355.038	4.63
355.408	4.56
355.777	4.88
356.147	4.54
356.516	4.5
356.885	4.36
357.254	4.76
357.624	4.39
357.993	4.38
358.362	4.1
358.731	4.41
359.1	4.48
359.469	4.4
359.838	4.67
360.207	4.46
360.576	4.3
360.945	4.58
361.314	5.17
361.682	4.35
362.051	4.84
362.42	4.69
362.788	4.56
363.157	4.74
363.525	4.79
363.894	4.72
364.262	4.87
364.631	4.74
364.999	4.74
365.367	4.47
365.735	5.38
366.104	4.91
366.472	4.59
366.84	4.7
367.208	4.6
367.576	4.86
367.944	4.9
368.312	4.8
368.68	4.54
369.048	4.78
369.416	4.4
369.783	4.59
370.151	5.27
370.519	5.44
370.886	5.13
371.254	4.09
371.621	4.7
371.989	4.69
372.356	4.39
372.724	5.15
373.091	4.5
373.458	4.65
373.826	4.89
374.193	4.74
374.56	4.76
374.927	4.86
375.294	4.86
375.661	4.94
376.028	5.09
376.395	4.51
376.762	4.93
377.129	5.13
377.496	4.51
377.863	4.83
378.229	4.44
378.596	5.09
378.963	5
379.329	4.64
379.696	5.17
380.062	4.83
380.429	4.95
380.795	4.61
381.161	4.76
381.528	5.2
381.894	5.25
382.26	4.56
382.626	5.18
382.993	4.69
383.359	5.21
383.725	4.7
384.091	4.9
384.457	5.33
384.823	4.95
385.188	5.2
385.554	5.11
385.92	4.87
386.286	5.21
386.651	4.91
387.017	5.15
387.383	5.22
387.748	5.13
388.114	5.21
388.479	4.72
388.845	5.12
389.21	5.04
389.575	5.33
389.94	5.09
390.306	5.1
390.671	5.27
391.036	4.73
391.401	4.89
391.766	5
392.131	5.03
392.496	5.27
392.861	4.97
393.226	5.33
393.591	5.25
393.956	5.01
394.32	5.23
394.685	4.83
395.05	4.94
395.414	5.24
395.779	4.72
396.143	5.21
396.508	4.91
396.872	5.07
397.236	5.21
397.601	4.7
397.965	5.36
398.329	5.21
398.694	5.46
399.058	5.37
399.422	4.63
399.786	5.37
400.15	5.34
400.514	5.03
400.878	5.11
401.242	5.25
401.605	5.23
401.969	5.33
402.333	5.24
402.697	5.43
403.06	5.4
403.424	5.27
403.787	5.01
404.151	5.46
404.514	5.39
404.878	5.05
405.241	5.61
405.604	5.38
405.968	5.14
406.331	5.54
406.694	5.27
407.057	5.27
407.42	5.35
407.783	5.06
408.146	5.28
408.509	5.29
408.872	5.2
409.235	5.42
409.598	5.5
409.961	5.2
410.323	5.47
410.686	5.29
411.049	5.19
411.411	5.22
411.774	5.55
412.136	5.44
412.499	5.23
412.861	5.08
413.223	5.26
413.586	5.26
413.948	5.31
414.31	5.3
414.672	5.25
415.035	5.34
415.397	5.58
415.759	5.17
416.121	5.67
416.483	5.22
416.845	5.25
417.206	5.31
417.568	5.59
417.93	5.14
418.292	5.26
418.653	5.38
419.015	5.26
419.377	5.15
419.738	5.35
420.1	5.18
420.461	5.39
420.822	5.22
421.184	5.15
421.545	5.31
421.906	5.23
422.267	5.18
422.629	5.27
422.99	5.21
423.351	5.25
423.712	5.26
424.073	5.29
424.434	5.26
424.795	5.24
425.155	5.28
425.516	5.19
425.877	5.18
426.238	5.28
426.598	5.32
426.959	5.17
427.32	5.25
427.68	5.26
428.041	5.43
428.401	5.53
428.761	5.34
429.122	5.29
429.482	5.16
429.842	5.5
430.202	5.46
430.563	5.44
430.923	5.21
431.283	5.64
431.643	5.62
432.003	5.39
432.363	5.33
432.722	5.24
433.082	5.39
433.442	5.37
433.802	5.01
434.161	5.33
434.521	5.51
434.881	5.54
435.24	5.3
435.6	5.36
435.959	5.22
436.319	5.24
436.678	5.31
437.037	5.36
437.396	5.26
437.756	5.4
438.115	5.35
438.474	5.62
438.833	5.31
439.192	5.29
439.551	5.4
439.91	5.52
440.269	5.38
440.628	5.47
440.987	5.36
441.345	5.16
441.704	5.36
442.063	5.36
442.421	5.34
442.78	5.25
443.138	5.32
443.497	5.48
443.855	5.41
444.214	5.35
444.572	5.47
444.93	5.41
445.288	5.5
445.647	5.56
446.005	5.27
446.363	5.43
446.721	5.58
447.079	5.2
447.437	5.51
447.795	5.5
448.153	5.32
448.51	5.32
448.868	5.45
449.226	5.38
449.584	5.4
449.941	5.5
450.299	5.46
450.656	5.51
451.014	5.38
451.371	5.42
451.729	5.31
452.086	5.72
452.443	5.33
452.801	5.57
453.158	5.36
453.515	5.46
453.872	5.55
454.229	5.5
454.586	5.38
454.943	5.47
455.3	5.39
455.657	5.49
456.014	5.31
456.371	5.4
456.727	5.55
457.084	5.74
457.441	5.61
457.797	5.53
458.154	5.82
458.51	5.63
458.867	5.61
459.223	5.62
459.58	5.58
459.936	5.62
460.292	5.46
460.648	5.59
461.005	5.45
461.361	5.45
461.717	5.39
462.073	5.42
462.429	5.37
462.785	5.47
463.141	5.4
463.496	5.58
463.852	5.66
464.208	5.61
464.564	5.64
464.919	5.56
465.275	5.43
465.631	5.52
465.986	5.61
466.342	5.45
466.697	5.57
467.052	5.53
467.408	5.6
467.763	5.57
468.118	5.38
468.473	5.59
468.829	5.64
469.184	5.52
469.539	5.63
469.894	5.29
470.249	5.59
470.603	5.66
470.958	5.73
471.313	5.74
471.668	5.55
472.023	5.62
472.377	5.48
472.732	5.74
473.086	5.53
473.441	5.43
473.795	5.84
474.15	5.64
474.504	5.64
474.859	5.46
475.213	5.6
475.567	5.6
475.921	5.62
476.275	5.57
476.63	5.73
476.984	5.71
477.338	5.81
477.692	5.44
478.045	5.36
478.399	5.58
478.753	5.55
479.107	5.53
479.461	5.48
479.814	5.59
480.168	5.62
480.521	5.49
480.875	5.53
481.228	5.5
481.582	5.52
481.935	5.62
482.289	5.61
482.642	5.5
482.995	5.59
483.348	5.48
483.701	5.43
484.055	5.55
484.408	5.56
484.761	5.34
485.114	5.41
485.466	5.18
485.819	5.14
486.172	5.15
486.525	5.23
486.878	5.31
487.23	5.37
487.583	5.44
487.936	5.42
488.288	5.37
488.641	5.46
488.993	5.24
489.345	5.24
489.698	5.2
490.05	5.28
490.402	5.35
490.754	5.3
491.107	5.4
491.459	5.45
491.811	5.48
492.163	5.5
492.515	5.36
492.866	5.44
493.218	5.41
493.57	5.23
493.922	5.28
494.274	5.43
494.625	5.47
494.977	5.51
495.328	5.6
495.68	5.57
496.031	5.61
496.383	5.55
496.734	5.74
497.086	5.65
497.437	5.54
497.788	5.63
498.139	5.56
498.49	5.58
498.842	5.42
499.193	5.52
499.544	5.59
499.894	5.62
500.245	5.44
500.596	5.53
500.947	5.67
501.298	5.52
501.648	5.62
501.999	5.68
502.35	5.61
502.7	5.49
503.051	5.5
503.401	5.5
503.752	5.57
504.102	5.45
504.452	5.67
504.803	5.59
505.153	5.5
505.503	5.51
505.853	5.48
506.203	5.54
506.553	5.46
506.903	5.54
507.253	5.55
507.603	5.36
507.953	5.67
508.303	5.89
508.652	5.47
509.002	5.58
509.352	5.61
509.701	5.46
510.051	5.42
510.4	5.5
510.75	5.47
511.099	5.49
511.449	5.42
511.798	5.53
512.147	5.57
512.496	5.41
512.846	5.54
513.195	5.64
513.544	5.54
513.893	5.69
514.242	5.43
514.591	5.72
514.939	5.58
515.288	5.34
515.637	5.59
515.986	5.6
516.334	5.56
516.683	5.57
517.032	5.42
517.38	5.66
517.729	5.76
518.077	5.45
518.426	5.54
518.774	5.56
519.122	5.5
519.47	5.54
519.819	5.33
520.167	5.41
520.515	5.43
520.863	5.32
521.211	5.54
521.559	5.49
521.907	5.5
522.255	5.48
522.602	5.43
522.95	5.52
523.298	5.46
523.645	5.7
523.993	5.4
524.341	5.52
524.688	5.5
525.036	5.34
525.383	5.44
525.73	5.57
526.078	5.46
526.425	5.41
526.772	5.55
527.119	5.45
527.466	5.41
527.814	5.46
528.161	5.34
528.508	5.42
528.854	5.41
529.201	5.3
529.548	5.39
529.895	5.29
530.242	5.14
530.588	5.13
530.935	5.19
531.282	5.25
531.628	5.24
531.975	5.33
532.321	5.42
532.667	5.38
533.014	5.52
533.36	5.45
533.706	5.4
534.052	5.35
534.399	5.29
534.745	5.27
535.091	5.27
535.437	5.24
535.783	5.3
536.129	5.32
536.474	5.39
536.82	5.4
537.166	5.52
537.512	5.39
537.857	5.28
538.203	5.42
538.549	5.31
538.894	5.25
539.239	5.41
539.585	5.42
539.93	5.33
540.276	5.55
540.621	5.4
540.966	5.32
541.311	5.35
541.656	5.38
542.001	5.33
542.346	5.6
542.691	5.27
543.036	5.14
543.381	5.07
543.726	5.17
544.071	5.34
544.415	5.34
544.76	5.29
545.105	5.33
545.449	5.29
545.794	5.34
546.138	5.43
546.483	5.4
546.827	5.38
547.171	5.33
547.516	5.55
547.86	5.43
548.204	5.31
548.548	5.34
548.892	5.38
549.236	5.3
549.58	5.37
549.924	5.35
550.268	5.45
550.612	5.56
550.956	5.57
551.3	5.44
551.643	5.66
551.987	5.66
552.33	5.38
552.674	5.47
553.017	5.28
553.361	5.18
553.704	5.43
554.048	5.37
554.391	5.24
554.734	5.31
555.077	5.48
555.42	5.3
555.764	5.4
556.107	5.23
556.45	5.2
556.793	5.35
557.135	5.39
557.478	5.47
557.821	5.55
558.164	5.32
558.507	5.44
558.849	5.42
559.192	5.51
559.534	5.29
559.877	5.39
560.219	5.32
560.562	5.57
560.904	5.14
561.246	5.46
561.589	5.21
561.931	5.44
562.273	5.41
562.615	5.47
562.957	5.21
563.299	5.15
563.641	5.39
563.983	5.31
564.325	5.44
564.667	5.31
565.008	5.27
565.35	5.22
565.692	5.17
566.033	5.37
566.375	5.71
566.716	5.44
567.058	5.27
567.399	5.12
567.741	5.04
568.082	5.32
568.423	5.22
568.764	5.14
569.105	5.38
569.447	5.32
569.788	5.26
570.129	5.4
570.47	5.15
570.811	5.4
571.151	5.39
571.492	5.35
571.833	5.34
572.174	5.24
572.514	5.25
572.855	5.2
573.195	5.29
573.536	5.21
573.876	5.12
574.217	5.21
574.557	5.25
574.898	5.47
575.238	5.35
575.578	5
575.918	5.52
576.258	5.4
576.598	5.23
576.938	5.09
577.278	5.22
577.618	5.15
577.958	5.19
578.298	5.23
578.638	5
578.977	5.01
579.317	4.91
579.657	5.15
579.996	5.25
580.336	5.17
580.675	5.06
581.014	5.27
581.354	5.16
581.693	5
582.032	5.31
582.372	5.19
582.711	5.17
583.05	5.21
583.389	5.17
583.728	4.83
584.067	5.43
584.406	5.37
584.745	5.35
585.083	5.14
585.422	5.39
585.761	5.53
586.1	5.5
586.438	5.39
586.777	5.46
587.115	5.4
587.454	5.21
587.792	5.26
588.13	5.3
588.469	5.21
588.807	5.22
589.145	4.91
589.483	5.06
589.821	4.97
590.159	5.37
590.497	5.43
590.835	5.32
591.173	5.16
591.511	5.35
591.849	5.23
592.187	5.32
592.524	5.15
592.862	5.12
593.2	5.39
593.537	5.12
593.875	5.02
594.212	5.13
594.55	5
594.887	5.36
595.224	5.01
595.561	5.25
595.899	5.04
596.236	5.09
596.573	5.03
596.91	4.76
597.247	4.91
597.584	5.36
597.921	4.92
598.258	4.76
598.594	5.05
598.931	5.1
599.268	5.22
599.604	5.08
599.941	5.14
600.277	4.96
600.614	5.07
600.95	4.93
601.287	5.21
601.623	4.8
601.959	4.98
602.296	5.08
602.632	5.08
602.968	5.24
603.304	5.18
603.64	5.05
603.976	5.01
604.312	4.96
604.648	4.87
604.984	4.9
605.319	5.17
605.655	5.13
605.991	5.16
606.326	5.15
606.662	5.18
606.998	4.88
607.333	5.07
607.668	5.15
608.004	5.08
608.339	5.3
608.674	5.15
609.01	4.78
609.345	4.92
609.68	5.29
610.015	4.81
610.35	5.12
610.685	5.17
611.02	4.99
611.355	5.26
611.689	4.86
612.024	5.08
612.359	4.99
612.694	4.93
613.028	5.06
613.363	4.92
613.697	4.95
614.032	5.16
614.366	4.77
614.7	5.14
615.035	5.28
615.369	5.09
615.703	4.91
616.037	5.25
616.371	4.58
616.705	4.72
617.039	4.85
617.373	4.59
617.707	4.92
618.041	4.9
618.375	5.25
618.709	5.67
619.042	4.77
619.376	5.04
619.71	5.6
620.043	5.29
620.377	4.92
620.71	5.07
621.043	4.93
621.377	4.63
621.71	5.14
622.043	4.78
622.376	4.7
622.709	5.24
623.043	5.08
623.376	5
623.709	5.17
624.041	5.48
624.374	5.08
624.707	4.89
625.04	5.55
625.373	4.81
625.705	5.13
626.038	4.9
626.37	4.73
626.703	4.83
627.035	4.86
627.368	5.35
627.7	5.14
628.032	4.84
628.365	4.97
628.697	4.76
629.029	4.8
629.361	5.06
629.693	5
630.025	4.97
630.357	5.08
630.689	5.1
631.021	4.84
631.353	5.13
631.684	4.71
632.016	4.47
632.348	5.22
632.679	5.08
633.011	5.2
633.342	5.44
633.674	4.99
634.005	5.23
634.336	4.58
634.668	5.48
634.999	4.82
635.33	5.02
635.661	4.96
635.992	4.99
636.323	5.01
636.654	5.57
636.985	4.88
637.316	5.21
637.647	4.88
637.977	4.95
638.308	5.11
638.639	4.74
638.969	4.5
639.3	4.71
639.63	4.64
639.961	4.75
640.291	4.85
640.622	5.52
640.952	4.98
641.282	5.69
641.612	4.99
641.943	4.94
642.273	5.04
642.603	5.25
642.933	5.25
643.263	5.25
643.592	4.33
643.922	4.42
644.252	4.88
644.582	4.81
644.911	4.86
645.241	4.33
645.571	4.55
645.9	4.54
646.23	4.8
646.559	4.48
646.888	4.92
647.218	4.42
647.547	4.96
647.876	4.63
648.205	4.89
648.534	5.02
648.863	4.85
649.192	4.62
649.521	4.58
649.85	4.53
650.179	4.76
650.508	4.72
650.837	4.5
651.165	4.42
651.494	4.8
651.822	4.87
652.151	4.43
652.479	5.29
652.808	4.38
653.136	5.12
653.465	4.37
653.793	4.66
654.121	4.28
654.449	4.63
654.777	5.1
655.105	5.09
655.433	4.32
655.761	4.98
656.089	4.87
656.417	5.12
656.745	4.83
657.073	4.56
657.4	6
657.728	4.8
658.056	5
658.383	4.98
658.711	4.93
659.038	5.53
659.365	5.6
659.693	4.27
660.02	4.37
660.347	5.37
660.674	5.06
661.001	4.95
661.329	4.3
661.656	4.85
661.982	4.82
662.309	4.7
662.636	4.7
662.963	4.65
663.29	4.96
663.616	5.04
663.943	4.4
664.27	4.6
664.596	4.91
664.923	5.03
665.249	5.28
665.576	5
665.902	5.23
666.228	4.74
666.554	4.95
666.881	4.53
667.207	4.91
667.533	4.86
667.859	5.08
668.185	5.13
668.511	4.36
668.837	3.89
669.162	4.9
669.488	4.15
669.814	5.44
670.139	5.35
670.465	5.22
670.791	5.35
671.116	5.8
671.442	4.82
671.767	5.16
672.092	5.82
672.418	5.07
672.743	5.41
673.068	4.54
673.393	4.93
673.718	4.9
674.043	4.5
674.368	4.83
674.693	5.75
675.018	5.01
675.343	4.68
675.667	4.73
675.992	4.88
676.317	5.28
676.641	5.27
676.966	5.31
677.29	4.64
677.615	5.47
677.939	5.44
678.264	5.05
678.588	4.85
678.912	5.27
679.236	5.79
679.56	4.85
679.885	5.29
680.209	5.2
680.532	4.99
680.856	5.34
681.18	4.38
681.504	5.01
681.828	4.73
682.152	4.39
682.475	4.7
682.799	5.07
683.122	5.01
683.446	4.41
683.769	5.18
684.093	4.84
684.416	5.62
684.739	5.3
685.062	4.2
685.386	5.81
685.709	4.31
686.032	5.89
686.355	4.99
686.678	4.75
687.001	4.68
687.324	5.13
687.646	5
687.969	4.73
688.292	4.8
688.614	5.05
688.937	6.33
689.26	5.22
689.582	5.28
689.904	4.64
690.227	5.33
690.549	5.1
690.871	5.2
691.194	4.91
691.516	4.97
691.838	4.83
692.16	4.59
692.482	4.78
