Data from 0372_chest_Reflection__3__157.txt Node

Date: Fri Dec 15 18:02:04 CST 2023
User: ToomeyLab
Spectrometer: FLMS14357
Trigger mode: 0
Integration Time (sec): 1.000000E-2
Scans to average: 100
Electric dark correction enabled: true
Nonlinearity correction enabled: false
Boxcar width: 0
XAxis mode: Wavelengths
Number of Pixels in Spectrum: 2048
>>>>>Begin Spectral Data<<<<<
189.047	-41.43
189.435	-41.43
189.823	-41.43
190.211	104.16
190.599	-640.64
190.987	162.64
191.375	465.55
191.763	108.13
192.151	-121.04
192.538	92.78
192.926	-734.31
193.314	162.02
193.702	2444.86
194.089	70.54
194.477	52.89
194.864	-80.68
195.252	76.81
195.639	78.28
196.027	232.93
196.414	149.26
196.801	-62.23
197.189	135.53
197.576	2419.39
197.963	405.43
198.351	-0.34
198.738	-10.34
199.125	33.92
199.512	40.19
199.899	20
200.286	26.63
200.673	12.42
201.06	-7.04
201.447	21.88
201.833	-22.09
202.22	7.2
202.607	58.63
202.994	3.86
203.38	79.28
203.767	45.08
204.154	43.15
204.54	35.22
204.927	-38.29
205.313	-19.44
205.699	16.81
206.086	84.52
206.472	21.99
206.858	-15.67
207.245	-26.49
207.631	17.92
208.017	26.42
208.403	3.06
208.789	-3.6
209.175	18.46
209.561	-9.84
209.947	-22.6
210.333	-7.69
210.719	-5.05
211.105	-5.4
211.491	-54.23
211.876	46.46
212.262	-0.91
212.648	36.29
213.034	-3.22
213.419	9.74
213.805	-34.07
214.19	10.08
214.576	-8.05
214.961	-2.05
215.346	-104.97
215.732	-6.05
216.117	2.37
216.502	4.86
216.888	2.13
217.273	57.78
217.658	-13.46
218.043	5.41
218.428	-6.48
218.813	-21.32
219.198	-23.68
219.583	-4.94
219.968	4.34
220.353	5.05
220.738	46.14
221.122	3.89
221.507	-32.62
221.892	-31.14
222.276	-7.69
222.661	-14.41
223.046	10.21
223.43	-1.83
223.815	6.88
224.199	-23.04
224.583	-0.69
224.968	-1.69
225.352	16.86
225.736	3.91
226.121	-15.52
226.505	6.12
226.889	8.9
227.273	3.29
227.657	8.89
228.041	-1.04
228.425	2.44
228.809	4.42
229.193	3.89
229.577	0.67
229.961	3.35
230.344	4.05
230.728	2.95
231.112	3.55
231.495	3.94
231.879	1.09
232.263	3.11
232.646	3.51
233.03	3.91
233.413	1.93
233.797	2.44
234.18	1.06
234.563	2.94
234.946	1.14
235.33	3.61
235.713	3.81
236.096	2.01
236.479	3.27
236.862	1.66
237.245	4.26
237.628	3.15
238.011	3.65
238.394	3.89
238.777	2.71
239.16	3.84
239.543	2.76
239.925	3.82
240.308	2.28
240.691	3.9
241.073	3.25
241.456	3.1
241.838	2.15
242.221	2.01
242.603	3.18
242.986	3.24
243.368	3.73
243.75	3.46
244.133	3.08
244.515	3.17
244.897	3.78
245.279	3.41
245.661	3.44
246.043	2.42
246.425	2.52
246.807	4.99
247.189	3.61
247.571	3.84
247.953	3.95
248.335	3.35
248.717	3.49
249.098	3.46
249.48	3.4
249.862	3.4
250.243	3.79
250.625	3.29
251.006	3.58
251.388	2.4
251.769	2.97
252.151	5.1
252.532	3.5
252.913	2.74
253.295	3.4
253.676	3.17
254.057	3.81
254.438	3.77
254.819	3.56
255.2	3.26
255.581	3.13
255.962	3.02
256.343	4.15
256.724	2.85
257.105	3.14
257.486	3.26
257.867	4.27
258.247	3.87
258.628	3.07
259.009	3.15
259.389	3.14
259.77	3.02
260.15	3.16
260.531	2.56
260.911	3.62
261.292	3.44
261.672	3.6
262.052	3.41
262.432	3.54
262.813	3.41
263.193	3.41
263.573	2.58
263.953	3.4
264.333	3.85
264.713	3.79
265.093	2.44
265.473	3.31
265.853	1.97
266.233	3.78
266.612	2.28
266.992	1.86
267.372	3.59
267.752	4.08
268.131	3.21
268.511	3.76
268.89	2.91
269.27	2.85
269.649	2.51
270.029	2.61
270.408	4.24
270.787	3.47
271.167	3.56
271.546	4.1
271.925	2.56
272.304	2.81
272.683	3.63
273.062	3.02
273.441	3.34
273.82	2.4
274.199	3.48
274.578	3.49
274.957	3.23
275.336	3.28
275.715	2.54
276.093	2.6
276.472	3.08
276.851	2.41
277.229	2.81
277.608	2.3
277.986	3.14
278.365	2.63
278.743	2.4
279.122	3.49
279.5	2.67
279.878	3.3
280.257	2.58
280.635	2.82
281.013	2.54
281.391	3.23
281.769	2.78
282.147	3.53
282.525	3.72
282.903	2.9
283.281	3.01
283.659	3.35
284.037	2.92
284.415	2.81
284.792	3.52
285.17	2.48
285.548	3.29
285.925	3.15
286.303	3.16
286.68	3.21
287.058	3.18
287.435	3
287.813	3.27
288.19	2.85
288.567	2.71
288.945	3.16
289.322	3.19
289.699	3.47
290.076	2.42
290.453	3.31
290.83	2.82
291.207	3.22
291.584	3.23
291.961	3.45
292.338	2.81
292.715	3.82
293.092	3.66
293.469	3.59
293.845	3.88
294.222	3.17
294.599	3.28
294.975	3.19
295.352	3.49
295.728	2.85
296.105	3.01
296.481	3.2
296.858	2.73
297.234	3.39
297.61	3.39
297.986	3.46
298.363	3.87
298.739	3.36
299.115	3.27
299.491	3.51
299.867	3.41
300.243	3.65
300.619	3.2
300.995	3.01
301.371	4.19
301.746	3.34
302.122	3.85
302.498	3.37
302.874	3.46
303.249	3.5
303.625	3.39
304	4.01
304.376	3.45
304.751	3.06
305.127	4.23
305.502	2.61
305.878	3.01
306.253	3.54
306.628	4.16
307.003	3.48
307.378	3.29
307.754	2.95
308.129	3.03
308.504	3.73
308.879	2.78
309.254	4.69
309.629	4.36
310.003	3.61
310.378	3.99
310.753	4.33
311.128	4.13
311.502	3.58
311.877	4.04
312.252	3.46
312.626	3.71
313.001	3.49
313.375	3.67
313.75	3.19
314.124	4.12
314.498	3.7
314.873	3.79
315.247	3.52
315.621	3.8
315.995	2.83
316.369	3.43
316.743	4.07
317.117	4.34
317.491	3.19
317.865	3.66
318.239	3.45
318.613	3.33
318.987	4.5
319.361	3.21
319.734	3.84
320.108	3.07
320.482	3.31
320.855	4.21
321.229	3.93
321.602	3.12
321.976	3.89
322.349	3.76
322.723	3.64
323.096	4.12
323.469	3.44
323.843	3.67
324.216	3.83
324.589	4.04
324.962	4.03
325.335	3.47
325.708	3.11
326.081	3.32
326.454	3.28
326.827	3.84
327.2	3.53
327.573	3.56
327.945	4.2
328.318	3.05
328.691	3.44
329.063	3.89
329.436	3.83
329.809	3.88
330.181	3.17
330.553	3.71
330.926	3.83
331.298	3.25
331.671	3.78
332.043	4.05
332.415	4.24
332.787	4.05
333.159	5.03
333.532	4.03
333.904	4.13
334.276	3.85
334.648	4.05
335.02	4.04
335.391	3.42
335.763	3.91
336.135	4.22
336.507	4.01
336.879	3.93
337.25	3.43
337.622	3.24
337.993	3.7
338.365	4.19
338.736	3.96
339.108	3.84
339.479	3.43
339.851	4.08
340.222	3.87
340.593	3.99
340.964	4.24
341.336	4.54
341.707	3.14
342.078	3.55
342.449	4.09
342.82	3.76
343.191	3.9
343.562	3.63
343.933	4.2
344.303	3.88
344.674	3.9
345.045	3.86
345.416	3.95
345.786	3.38
346.157	3.87
346.527	3.54
346.898	3.41
347.268	4.32
347.639	4.09
348.009	3.84
348.38	3.86
348.75	4.01
349.12	4.15
349.49	5.02
349.861	3.64
350.231	3.67
350.601	4.14
350.971	4.17
351.341	3.49
351.711	3.55
352.081	4.09
352.45	3.75
352.82	3.74
353.19	4.03
353.56	3.86
353.929	4.33
354.299	4.34
354.669	3.73
355.038	4.12
355.408	3.49
355.777	3.65
356.147	3.92
356.516	3.9
356.885	3.93
357.254	3.99
357.624	4.38
357.993	4.23
358.362	3.75
358.731	3.87
359.1	3.89
359.469	3.98
359.838	3.89
360.207	3.77
360.576	3.8
360.945	3.98
361.314	4.45
361.682	3.85
362.051	3.67
362.42	3.71
362.788	4.09
363.157	4.02
363.525	4.04
363.894	3.99
364.262	4.13
364.631	4.04
364.999	3.89
365.367	3.54
365.735	4.66
366.104	4.25
366.472	3.97
366.84	3.95
367.208	3.84
367.576	4.37
367.944	3.76
368.312	4.05
368.68	3.56
369.048	3.86
369.416	4.02
369.783	4.06
370.151	4.15
370.519	4.41
370.886	4.31
371.254	3.85
371.621	4
371.989	4.44
372.356	3.42
372.724	4.25
373.091	4
373.458	4.16
373.826	4
374.193	4.06
374.56	4.69
374.927	4.1
375.294	3.99
375.661	4
376.028	4.22
376.395	4.08
376.762	4.1
377.129	4.04
377.496	3.82
377.863	4.36
378.229	3.73
378.596	4.24
378.963	4.13
379.329	3.92
379.696	4.13
380.062	4.41
380.429	4.31
380.795	4.12
381.161	4.26
381.528	4.32
381.894	4.07
382.26	3.99
382.626	4.25
382.993	3.62
383.359	4.36
383.725	3.96
384.091	3.88
384.457	4.64
384.823	4.05
385.188	4.29
385.554	4.13
385.92	4.33
386.286	4.48
386.651	4.63
387.017	4.29
387.383	4.48
387.748	4.05
388.114	4.35
388.479	3.92
388.845	4.46
389.21	4.24
389.575	4.35
389.94	4.22
390.306	4.56
390.671	4.23
391.036	4.05
391.401	4.01
391.766	4.24
392.131	4.24
392.496	4.39
392.861	4.18
393.226	4.41
393.591	4.26
393.956	4.07
394.32	4.5
394.685	4.26
395.05	4.21
395.414	4.41
395.779	3.8
396.143	4.36
396.508	4.25
396.872	4.6
397.236	4.57
397.601	3.94
397.965	4.37
398.329	4.42
398.694	4.48
399.058	4.05
399.422	4.23
399.786	4.59
400.15	4.23
400.514	4.28
400.878	4.29
401.242	4.55
401.605	4.57
401.969	4.52
402.333	4.54
402.697	4.23
403.06	4.47
403.424	4.4
403.787	4.34
404.151	4.37
404.514	4.43
404.878	4.37
405.241	4.44
405.604	4.5
405.968	4.33
406.331	4.15
406.694	4.65
407.057	4.35
407.42	4.66
407.783	4.24
408.146	4.69
408.509	4.35
408.872	4.27
409.235	4.22
409.598	4.96
409.961	4.42
410.323	4.82
410.686	4.55
411.049	4.34
411.411	4.32
411.774	4.49
412.136	4.5
412.499	4.47
412.861	4.6
413.223	4.43
413.586	4.47
413.948	4.31
414.31	4.62
414.672	4.33
415.035	4.47
415.397	4.9
415.759	4.2
416.121	4.82
416.483	4.39
416.845	4.48
417.206	4.37
417.568	4.4
417.93	4.09
418.292	4.29
418.653	4.46
419.015	4.34
419.377	4.38
419.738	4.53
420.1	4.47
420.461	4.53
420.822	4.69
421.184	4.51
421.545	4.48
421.906	4.44
422.267	4.32
422.629	4.42
422.99	4.4
423.351	4.47
423.712	4.37
424.073	4.47
424.434	4.37
424.795	4.47
425.155	4.57
425.516	4.38
425.877	4.46
426.238	4.45
426.598	4.51
426.959	4.5
427.32	4.51
427.68	4.51
428.041	4.57
428.401	4.61
428.761	4.53
429.122	4.55
429.482	4.6
429.842	4.71
430.202	4.56
430.563	4.37
430.923	4.59
431.283	4.72
431.643	4.5
432.003	4.73
432.363	4.73
432.722	4.56
433.082	4.72
433.442	4.58
433.802	4.43
434.161	4.77
434.521	4.66
434.881	4.89
435.24	4.58
435.6	4.62
435.959	4.67
436.319	4.63
436.678	4.55
437.037	4.58
437.396	4.85
437.756	4.74
438.115	4.51
438.474	4.75
438.833	4.72
439.192	4.72
439.551	4.74
439.91	4.71
440.269	4.81
440.628	4.48
440.987	4.63
441.345	4.53
441.704	4.66
442.063	4.61
442.421	4.55
442.78	4.52
443.138	4.65
443.497	4.54
443.855	4.66
444.214	4.71
444.572	4.87
444.93	4.71
445.288	4.74
445.647	4.69
446.005	4.69
446.363	4.73
446.721	4.88
447.079	4.61
447.437	4.69
447.795	4.85
448.153	4.6
448.51	4.72
448.868	4.67
449.226	4.73
449.584	4.58
449.941	4.72
450.299	4.88
450.656	4.78
451.014	4.88
451.371	4.65
451.729	4.6
452.086	5.02
452.443	4.86
452.801	5
453.158	4.84
453.515	4.75
453.872	5.06
454.229	4.74
454.586	4.67
454.943	4.89
455.3	4.89
455.657	4.74
456.014	4.83
456.371	4.93
456.727	4.8
457.084	5.1
457.441	4.76
457.797	4.88
458.154	4.93
458.51	5
458.867	4.97
459.223	4.91
459.58	4.95
459.936	4.95
460.292	4.99
460.648	4.95
461.005	4.85
461.361	5
461.717	4.84
462.073	4.73
462.429	4.77
462.785	4.88
463.141	4.89
463.496	5.04
463.852	5.11
464.208	4.95
464.564	4.97
464.919	5.04
465.275	5.08
465.631	5.14
465.986	5.07
466.342	5.06
466.697	4.98
467.052	4.91
467.408	4.94
467.763	4.99
468.118	5.14
468.473	4.99
468.829	4.9
469.184	4.99
469.539	5.12
469.894	4.84
470.249	5.08
470.603	5
470.958	5.18
471.313	5.33
471.668	5.11
472.023	5.04
472.377	5.11
472.732	5.21
473.086	5.03
473.441	4.96
473.795	5.2
474.15	4.98
474.504	5.14
474.859	5.14
475.213	4.97
475.567	5.12
475.921	5.07
476.275	5.18
476.63	5.15
476.984	5.08
477.338	5.39
477.692	5.19
478.045	5.07
478.399	5.19
478.753	5.35
479.107	5.16
479.461	5.19
479.814	5.12
480.168	5.26
480.521	5.02
480.875	5.1
481.228	5.12
481.582	5.25
481.935	5.17
482.289	5.22
482.642	5.21
482.995	5.05
483.348	5.08
483.701	5.17
484.055	5.17
484.408	5.27
484.761	5.05
485.114	5
485.466	4.92
485.819	4.79
486.172	4.89
486.525	4.92
486.878	5.06
487.23	5.05
487.583	5.13
487.936	5.17
488.288	5.19
488.641	5.16
488.993	5.05
489.345	5
489.698	5.04
490.05	5.08
490.402	5.11
490.754	5.13
491.107	5.25
491.459	5.29
491.811	5.3
492.163	5.27
492.515	5.29
492.866	5.25
493.218	5.2
493.57	5.11
493.922	5.16
494.274	5.24
494.625	5.35
494.977	5.34
495.328	5.43
495.68	5.46
496.031	5.53
496.383	5.43
496.734	5.58
497.086	5.54
497.437	5.54
497.788	5.43
498.139	5.46
498.49	5.5
498.842	5.28
499.193	5.53
499.544	5.45
499.894	5.4
500.245	5.6
500.596	5.44
500.947	5.58
501.298	5.5
501.648	5.65
501.999	5.68
502.35	5.74
502.7	5.54
503.051	5.46
503.401	5.49
503.752	5.59
504.102	5.42
504.452	5.65
504.803	5.62
505.153	5.55
505.503	5.42
505.853	5.72
506.203	5.53
506.553	5.61
506.903	5.62
507.253	5.75
507.603	5.61
507.953	5.75
508.303	5.9
508.652	5.55
509.002	5.84
509.352	5.76
509.701	5.72
510.051	5.75
510.4	5.52
510.75	5.71
511.099	5.82
511.449	5.7
511.798	5.76
512.147	5.82
512.496	5.75
512.846	5.85
513.195	5.79
513.544	5.77
513.893	5.96
514.242	5.82
514.591	6.05
514.939	5.8
515.288	5.76
515.637	5.89
515.986	5.88
516.334	5.97
516.683	6.11
517.032	5.96
517.38	5.93
517.729	5.98
518.077	5.82
518.426	6.14
518.774	5.95
519.122	6.01
519.47	6.01
519.819	5.83
520.167	5.82
520.515	5.91
520.863	5.94
521.211	5.92
521.559	6.11
521.907	5.94
522.255	5.94
522.602	6.05
522.95	6.05
523.298	6.08
523.645	6.23
523.993	6
524.341	6.25
524.688	6.34
525.036	6.21
525.383	6.2
525.73	6.21
526.078	6.31
526.425	6.04
526.772	6.12
527.119	6.1
527.466	6.05
527.814	6.2
528.161	6.1
528.508	6.18
528.854	6.2
529.201	6.09
529.548	6.15
529.895	6.07
530.242	5.95
530.588	5.98
530.935	6.05
531.282	6.05
531.628	6.08
531.975	6.19
532.321	6.2
532.667	6.29
533.014	6.35
533.36	6.33
533.706	6.3
534.052	6.33
534.399	6.23
534.745	6.26
535.091	6.29
535.437	6.26
535.783	6.33
536.129	6.42
536.474	6.42
536.82	6.45
537.166	6.62
537.512	6.53
537.857	6.42
538.203	6.49
538.549	6.46
538.894	6.49
539.239	6.69
539.585	6.63
539.93	6.53
540.276	6.75
540.621	6.81
540.966	6.8
541.311	6.68
541.656	6.69
542.001	6.74
542.346	6.76
542.691	6.61
543.036	6.52
543.381	6.41
543.726	6.62
544.071	6.65
544.415	6.82
544.76	6.7
545.105	6.73
545.449	6.82
545.794	6.9
546.138	6.83
546.483	7.03
546.827	7
547.171	6.91
547.516	7.13
547.86	6.87
548.204	6.93
548.548	6.92
548.892	7.02
549.236	7.04
549.58	7.09
549.924	7.14
550.268	7.11
550.612	7.22
550.956	7.26
551.3	7.23
551.643	7.64
551.987	7.32
552.33	7.37
552.674	7.54
553.017	7.3
553.361	7.23
553.704	7.58
554.048	7.19
554.391	7.41
554.734	7.39
555.077	7.53
555.42	7.2
555.764	7.46
556.107	7.52
556.45	7.43
556.793	7.38
557.135	7.5
557.478	7.84
557.821	7.62
558.164	7.61
558.507	7.7
558.849	7.58
559.192	7.73
559.534	7.76
559.877	7.73
560.219	7.69
560.562	7.95
560.904	7.82
561.246	7.85
561.589	7.87
561.931	7.87
562.273	7.71
562.615	7.95
562.957	7.86
563.299	7.81
563.641	7.96
563.983	7.92
564.325	7.83
564.667	7.88
565.008	8.1
565.35	7.98
565.692	7.87
566.033	7.93
566.375	8.22
566.716	8.12
567.058	7.92
567.399	8.15
567.741	7.87
568.082	8.22
568.423	8.08
568.764	8.13
569.105	8.31
569.447	8.54
569.788	8.48
570.129	8.43
570.47	8.39
570.811	8.47
571.151	8.55
571.492	8.54
571.833	8.4
572.174	8.41
572.514	8.44
572.855	8.62
573.195	8.45
573.536	8.53
573.876	8.41
574.217	8.46
574.557	8.7
574.898	8.8
575.238	8.69
575.578	8.56
575.918	8.86
576.258	9.01
576.598	8.67
576.938	8.72
577.278	8.91
577.618	8.7
577.958	8.64
578.298	9.05
578.638	8.78
578.977	8.98
579.317	9.17
579.657	9.08
579.996	9.07
580.336	9.36
580.675	9.1
581.014	9.06
581.354	9.11
581.693	9.14
582.032	9.06
582.372	9.21
582.711	9.28
583.05	9.4
583.389	9.14
583.728	9.16
584.067	9.69
584.406	9.45
584.745	9.21
585.083	9.61
585.422	9.62
585.761	9.49
586.1	9.63
586.438	9.64
586.777	9.64
587.115	9.64
587.454	9.47
587.792	9.61
588.13	9.73
588.469	9.59
588.807	9.81
589.145	9.64
589.483	9.9
589.821	9.83
590.159	9.94
590.497	10.12
590.835	10.14
591.173	10.03
591.511	10.09
591.849	10.01
592.187	10.26
592.524	10.01
592.862	9.93
593.2	10.2
593.537	9.94
593.875	10.05
594.212	10.08
594.55	10.15
594.887	10.4
595.224	10.13
595.561	10.27
595.899	10.44
596.236	10.45
596.573	10.47
596.91	10.21
597.247	10.1
597.584	10.81
597.921	10.41
598.258	10.37
598.594	10.45
598.931	10.57
599.268	10.54
599.604	10.58
599.941	10.77
600.277	10.66
600.614	10.68
600.95	10.7
601.287	10.91
601.623	10.81
601.959	11
602.296	10.92
602.632	10.98
602.968	10.78
603.304	10.88
603.64	10.88
603.976	11.01
604.312	11.03
604.648	10.77
604.984	11.25
605.319	11.05
605.655	11.23
605.991	11.32
606.326	11.26
606.662	11.3
606.998	11.14
607.333	11.43
607.668	11.25
608.004	11.38
608.339	11.76
608.674	11.47
609.01	11.22
609.345	11.31
609.68	11.85
610.015	11.52
610.35	11.2
610.685	11.52
611.02	11.77
611.355	11.71
611.689	11.67
612.024	11.53
612.359	11.38
612.694	11.69
613.028	11.67
613.363	11.9
613.697	12.18
614.032	11.8
614.366	11.71
614.7	12.4
615.035	12
615.369	12.01
615.703	11.79
616.037	11.8
616.371	11.98
616.705	11.61
617.039	12.62
617.373	12.07
617.707	11.97
618.041	12.15
618.375	12.31
618.709	12.6
619.042	12.36
619.376	12.29
619.71	12.66
620.043	12.44
620.377	12.66
620.71	13.04
621.043	12.21
621.377	12.73
621.71	12.84
622.043	12.38
622.376	12.46
622.709	12.95
623.043	12.83
623.376	12.93
623.709	12.85
624.041	13.28
624.374	12.79
624.707	12.91
625.04	12.87
625.373	12.61
625.705	13.26
626.038	13.12
626.37	12.73
626.703	13.16
627.035	13.27
627.368	13.12
627.7	13.14
628.032	13.13
628.365	13.74
628.697	13.34
629.029	12.85
629.361	13.28
629.693	13.61
630.025	13.23
630.357	13.77
630.689	13.4
631.021	13.38
631.353	13.6
631.684	13.27
632.016	12.92
632.348	13.59
632.679	13.77
633.011	13.77
633.342	14.3
633.674	13.96
634.005	14.3
634.336	13.47
634.668	14.07
634.999	13.76
635.33	14.09
635.661	14.1
635.992	13.96
636.323	14.14
636.654	14.46
636.985	14.37
637.316	14.11
637.647	14.05
637.977	14.57
638.308	14.03
638.639	13.86
638.969	14.26
639.3	14.21
639.63	14.01
639.961	14.33
640.291	14.23
640.622	14.83
640.952	14.2
641.282	14.69
641.612	14.81
641.943	14.26
642.273	14.25
642.603	15.13
642.933	14.57
643.263	14.84
643.592	14.21
643.922	14.74
644.252	15.26
644.582	15.05
644.911	14.33
645.241	14.65
645.571	15.02
645.9	14.15
646.23	14.97
646.559	14.91
646.888	14.95
647.218	14.92
647.547	15.04
647.876	14.88
648.205	15.4
648.534	14.88
648.863	15.06
649.192	15.31
649.521	14.61
649.85	14.8
650.179	15.14
650.508	15.54
650.837	15.28
651.165	15.21
651.494	15.67
651.822	15.54
652.151	15.17
652.479	15.44
652.808	15.36
653.136	16.19
653.465	14.78
653.793	15.1
654.121	15.06
654.449	15.51
654.777	15.61
655.105	16.02
655.433	15.62
655.761	15.9
656.089	15.97
656.417	15.56
656.745	15.67
657.073	15.56
657.4	16.22
657.728	16.23
658.056	16.34
658.383	16.1
658.711	15.95
659.038	16.04
659.365	16.51
659.693	15.56
660.02	16.02
660.347	15.99
660.674	16.12
661.001	16.26
661.329	15.42
661.656	16.41
661.982	16.59
662.309	16.18
662.636	16.47
662.963	17.45
663.29	16.96
663.616	16.65
663.943	16.54
664.27	17.15
664.596	17.25
664.923	16.47
665.249	16.54
665.576	16.5
665.902	17.66
666.228	17.35
666.554	17.04
666.881	17.2
667.207	16.87
667.533	16.77
667.859	17.14
668.185	17.48
668.511	16.42
668.837	16.74
669.162	16.44
669.488	16.66
669.814	17.43
670.139	17.42
670.465	17.61
670.791	17.41
671.116	18
671.442	17.47
671.767	17.15
672.092	18.01
672.418	17.33
672.743	18.21
673.068	17.62
673.393	17.61
673.718	18.09
674.043	17.58
674.368	17.62
674.693	18.59
675.018	17.64
675.343	17.54
675.667	17.56
675.992	17.85
676.317	18.05
676.641	18.42
676.966	18
677.29	17.71
677.615	18.41
677.939	18.65
678.264	18.51
678.588	17.92
678.912	17.49
679.236	18.73
679.56	17.78
679.885	18.36
680.209	18.73
680.532	18.52
680.856	18.37
681.18	18.35
681.504	18.63
681.828	18.5
682.152	18.11
682.475	18.57
682.799	18.66
683.122	18.52
683.446	18.35
683.769	18.97
684.093	17.99
684.416	19.42
684.739	18.51
685.062	18.49
685.386	19.38
685.709	18.14
686.032	18.77
