Data from 0372_forehead_Reflection__3__167.txt Node

Date: Fri Dec 15 18:04:55 CST 2023
User: ToomeyLab
Spectrometer: FLMS14357
Trigger mode: 0
Integration Time (sec): 1.000000E-2
Scans to average: 100
Electric dark correction enabled: true
Nonlinearity correction enabled: false
Boxcar width: 0
XAxis mode: Wavelengths
Number of Pixels in Spectrum: 2048
>>>>>Begin Spectral Data<<<<<
189.047	163.82
189.435	163.82
189.823	163.82
190.211	117.11
190.599	-577.69
190.987	197.25
191.375	528.16
191.763	27.51
192.151	77.52
192.538	188.33
192.926	-775.95
193.314	301.02
193.702	5388.79
194.089	95.49
194.477	-139.7
194.864	32.25
195.252	149.54
195.639	110.75
196.027	141.86
196.414	158.38
196.801	-455.3
197.189	162
197.576	2808.48
197.963	162.97
198.351	-78.89
198.738	-57.16
199.125	34.79
199.512	-4.81
199.899	6.52
200.286	25.51
200.673	-44.15
201.06	-1.31
201.447	-1.94
201.833	11.4
202.22	47.3
202.607	21.06
202.994	-2.67
203.38	67.01
203.767	45.41
204.154	28.17
204.54	19.63
204.927	-46.75
205.313	-38.21
205.699	54.62
206.086	50
206.472	4.72
206.858	9.64
207.245	-5.64
207.631	26.07
208.017	44.22
208.403	1.71
208.789	34.02
209.175	11.67
209.561	-32.02
209.947	27.91
210.333	-3.12
210.719	3.81
211.105	3.42
211.491	-16.92
211.876	64.86
212.262	38.11
212.648	-5.05
213.034	30.39
213.419	-39.93
213.805	-0.35
214.19	13.4
214.576	-5.36
214.961	-28.46
215.346	-50.15
215.732	23.47
216.117	37.85
216.502	-3.23
216.888	12.19
217.273	64.53
217.658	-12.75
218.043	14.96
218.428	-17.73
218.813	-4.23
219.198	-2.93
219.583	0.12
219.968	-2.52
220.353	-21.19
220.738	17.25
221.122	28.29
221.507	-26.68
221.892	-25.45
222.276	-32.16
222.661	13.73
223.046	-2.46
223.43	15.08
223.815	24.64
224.199	-12.97
224.583	9.56
224.968	9.2
225.352	10.91
225.736	-4.86
226.121	-5.8
226.505	-3.1
226.889	7.11
227.273	-8.51
227.657	10.41
228.041	4.24
228.425	3.16
228.809	5.2
229.193	-0.23
229.577	1.55
229.961	4.6
230.344	1.71
230.728	2.76
231.112	3.59
231.495	3.04
231.879	3.5
232.263	1.92
232.646	3.58
233.03	3.27
233.413	0.25
233.797	2.26
234.18	0.62
234.563	-0.21
234.946	-1.49
235.33	1.96
235.713	2.48
236.096	4.24
236.479	3.13
236.862	1.54
237.245	4.19
237.628	3.13
238.011	3.23
238.394	3.12
238.777	3.87
239.16	-1.78
239.543	4.69
239.925	5.28
240.308	4.15
240.691	5.08
241.073	3.57
241.456	1.69
241.838	1.54
242.221	2.04
242.603	3.21
242.986	2.96
243.368	2.81
243.75	3.2
244.133	2.23
244.515	3.38
244.897	3.15
245.279	3.68
245.661	2.74
246.043	2.19
246.425	2.27
246.807	4.37
247.189	4.2
247.571	4.43
247.953	4.16
248.335	2.63
248.717	3.43
249.098	2.8
249.48	3.18
249.862	2.96
250.243	3.47
250.625	3.29
251.006	3.38
251.388	2.55
251.769	3.34
252.151	4.74
252.532	2.96
252.913	2.42
253.295	2.01
253.676	2.53
254.057	3.51
254.438	2.9
254.819	2.92
255.2	2.47
255.581	3.2
255.962	2.62
256.343	3.17
256.724	1.87
257.105	3.06
257.486	3.51
257.867	2.75
258.247	2.72
258.628	3.64
259.009	3.5
259.389	3.44
259.77	3.07
260.15	2.48
260.531	2.69
260.911	3.7
261.292	3.07
261.672	3.22
262.052	2.85
262.432	3.36
262.813	3.12
263.193	3.16
263.573	3.2
263.953	3.05
264.333	3.89
264.713	3.26
265.093	2.9
265.473	2.83
265.853	2.42
266.233	3.75
266.612	0.99
266.992	1.98
267.372	2.86
267.752	2.71
268.131	2.37
268.511	3.44
268.89	3.09
269.27	2.82
269.649	2.54
270.029	3.02
270.408	3.54
270.787	3.43
271.167	2.88
271.546	2.94
271.925	2.61
272.304	2.69
272.683	3.17
273.062	3.03
273.441	2.88
273.82	2.01
274.199	2.66
274.578	2.91
274.957	2.96
275.336	3.12
275.715	2.83
276.093	2.97
276.472	2.46
276.851	2.41
277.229	2.31
277.608	1.82
277.986	3.27
278.365	3.05
278.743	2.44
279.122	2.71
279.5	2.67
279.878	3.37
280.257	2.29
280.635	2.38
281.013	2.68
281.391	3.01
281.769	3.22
282.147	3.62
282.525	3.88
282.903	2.22
283.281	3.05
283.659	3.57
284.037	3.06
284.415	3.28
284.792	3.02
285.17	2.33
285.548	2.03
285.925	3.24
286.303	3.27
286.68	2.9
287.058	2.77
287.435	2.84
287.813	2.93
288.19	3.02
288.567	2.85
288.945	3.32
289.322	2.99
289.699	2.77
290.076	2.33
290.453	3.55
290.83	3.11
291.207	3.16
291.584	3.38
291.961	3.14
292.338	2.88
292.715	3.68
293.092	3.47
293.469	3.09
293.845	3.84
294.222	2.59
294.599	3.42
294.975	3.03
295.352	3.74
295.728	2.82
296.105	2.79
296.481	3.55
296.858	3.41
297.234	2.97
297.61	3.37
297.986	3.2
298.363	3.8
298.739	3.75
299.115	3.19
299.491	3.37
299.867	3.46
300.243	3.46
300.619	3.55
300.995	3.92
301.371	4.24
301.746	3.17
302.122	3.88
302.498	3.58
302.874	3.67
303.249	3.75
303.625	3.87
304	4.15
304.376	3.89
304.751	3.09
305.127	4.24
305.502	3.27
305.878	3.5
306.253	3.79
306.628	4.39
307.003	4.04
307.378	5.08
307.754	4.13
308.129	3.3
308.504	3.94
308.879	4.02
309.254	4.77
309.629	5.02
310.003	3.81
310.378	4.98
310.753	4.26
311.128	4.5
311.502	3.91
311.877	4.93
312.252	3.92
312.626	4.31
313.001	4.08
313.375	4.49
313.75	3.86
314.124	4.18
314.498	3.83
314.873	4.64
315.247	4.41
315.621	3.99
315.995	3.85
316.369	4.24
316.743	4.03
317.117	4.6
317.491	4.53
317.865	4.58
318.239	4.13
318.613	4.6
318.987	4.84
319.361	4.04
319.734	4.57
320.108	4.5
320.482	4.24
320.855	5.43
321.229	4.68
321.602	4.71
321.976	5.17
322.349	4.85
322.723	4.47
323.096	5.54
323.469	4.78
323.843	4.66
324.216	5.56
324.589	4.42
324.962	4.94
325.335	4.48
325.708	4.79
326.081	4.91
326.454	4.79
326.827	5.19
327.2	5.03
327.573	5.11
327.945	5.33
328.318	5.37
328.691	4.77
329.063	5.17
329.436	4.93
329.809	5.6
330.181	5.03
330.553	5.13
330.926	5.42
331.298	6.08
331.671	5.04
332.043	5.89
332.415	5.75
332.787	5.44
333.159	5.7
333.532	5.21
333.904	5.62
334.276	5.21
334.648	5.51
335.02	5.82
335.391	5.74
335.763	5.26
336.135	6.24
336.507	6.02
336.879	5.09
337.25	5.56
337.622	5.33
337.993	5.96
338.365	6.08
338.736	5.81
339.108	5.8
339.479	5.4
339.851	5.54
340.222	5.9
340.593	5.64
340.964	5.95
341.336	6.43
341.707	5.2
342.078	5.99
342.449	5.99
342.82	5.87
343.191	6.2
343.562	6.59
343.933	6.04
344.303	6.05
344.674	5.77
345.045	6.08
345.416	6.08
345.786	5.55
346.157	6.3
346.527	5.56
346.898	5.64
347.268	5.86
347.639	6.06
348.009	6.26
348.38	5.98
348.75	6.6
349.12	6.58
349.49	6.49
349.861	6.78
350.231	6.4
350.601	6.04
350.971	6.09
351.341	6.39
351.711	6.31
352.081	6.49
352.45	6.43
352.82	6.13
353.19	6.58
353.56	6.46
353.929	6.26
354.299	6.76
354.669	6.71
355.038	6.75
355.408	6.3
355.777	6.22
356.147	6.71
356.516	6.49
356.885	6.82
357.254	7.08
357.624	6.74
357.993	6.81
358.362	6.35
358.731	6.63
359.1	6.58
359.469	6.67
359.838	7.2
360.207	6.26
360.576	6.61
360.945	6.55
361.314	6.96
361.682	6.68
362.051	6.45
362.42	6.93
362.788	6.61
363.157	6.5
363.525	6.86
363.894	7.06
364.262	7.23
364.631	7.04
364.999	7.07
365.367	6.63
365.735	7.38
366.104	7.21
366.472	7.53
366.84	6.7
367.208	6.99
367.576	7.21
367.944	7.34
368.312	7.01
368.68	6.86
369.048	7.53
369.416	6.91
369.783	6.88
370.151	7.44
370.519	7.32
370.886	7.51
371.254	6.94
371.621	7.29
371.989	7.47
372.356	7.17
372.724	7.07
373.091	7.27
373.458	7.58
373.826	7.26
374.193	6.92
374.56	7.43
374.927	7.49
375.294	7.51
375.661	7.13
376.028	7.32
376.395	7.82
376.762	7.75
377.129	7.85
377.496	7.49
377.863	7.54
378.229	7.34
378.596	7.74
378.963	7.63
379.329	7.21
379.696	7.59
380.062	7.5
380.429	7.54
380.795	7.66
381.161	7.65
381.528	8.46
381.894	7.68
382.26	7.6
382.626	8.16
382.993	7.47
383.359	7.94
383.725	7.82
384.091	7.66
384.457	8
384.823	7.89
385.188	7.73
385.554	7.82
385.92	8.17
386.286	7.74
386.651	8.02
387.017	8.42
387.383	8.14
387.748	8.06
388.114	8.43
388.479	7.97
388.845	8.42
389.21	8.61
389.575	8.49
389.94	8.14
390.306	8.45
390.671	8.45
391.036	7.88
391.401	8.09
391.766	8.51
392.131	8.19
392.496	8.5
392.861	8.34
393.226	8.37
393.591	8.33
393.956	8.33
394.32	8.61
394.685	8.19
395.05	8.23
395.414	8.77
395.779	8.25
396.143	8.6
396.508	8.69
396.872	8.85
397.236	8.67
397.601	8.46
397.965	8.6
398.329	8.97
398.694	8.76
399.058	8.79
399.422	8.52
399.786	8.9
400.15	8.53
400.514	8.83
400.878	8.7
401.242	8.8
401.605	8.87
401.969	8.81
402.333	8.98
402.697	8.67
403.06	8.75
403.424	8.78
403.787	8.66
404.151	8.88
404.514	8.85
404.878	8.8
405.241	9.07
405.604	8.76
405.968	9.06
406.331	8.98
406.694	9.08
407.057	9.01
407.42	9.29
407.783	8.9
408.146	9.16
408.509	9.09
408.872	9.17
409.235	9.31
409.598	9.29
409.961	9.15
410.323	9.22
410.686	9.44
411.049	9.05
411.411	9.24
411.774	9.21
412.136	9.43
412.499	9.25
412.861	9.02
413.223	9.33
413.586	9.45
413.948	9.39
414.31	9.47
414.672	9.14
415.035	9.15
415.397	9.87
415.759	9.23
416.121	9.67
416.483	9.44
416.845	9.53
417.206	9.34
417.568	9.57
417.93	9.19
418.292	9.54
418.653	9.56
419.015	9.48
419.377	9.41
419.738	9.28
420.1	9.51
420.461	9.51
420.822	9.58
421.184	9.47
421.545	9.51
421.906	9.47
422.267	9.4
422.629	9.37
422.99	9.38
423.351	9.52
423.712	9.56
424.073	9.66
424.434	9.75
424.795	9.65
425.155	9.7
425.516	9.54
425.877	9.63
426.238	9.68
426.598	9.88
426.959	9.87
427.32	9.78
427.68	9.89
428.041	9.88
428.401	10.14
428.761	10.1
429.122	10.31
429.482	10.05
429.842	10.36
430.202	10.26
430.563	10.46
430.923	10.29
431.283	10.37
431.643	10.33
432.003	10.29
432.363	10.55
432.722	10.35
433.082	10.36
433.442	10.42
433.802	10.23
434.161	10.38
434.521	10.71
434.881	10.4
435.24	10.32
435.6	10.44
435.959	10.54
436.319	10.64
436.678	10.65
437.037	10.75
437.396	10.82
437.756	10.86
438.115	10.75
438.474	10.91
438.833	10.69
439.192	10.72
439.551	10.84
439.91	11.05
440.269	10.89
440.628	10.74
440.987	10.89
441.345	10.66
441.704	10.92
442.063	10.72
442.421	10.75
442.78	10.93
443.138	10.93
443.497	10.99
443.855	11.11
444.214	11.22
444.572	11.29
444.93	11.19
445.288	11.32
445.647	11.32
446.005	11.09
446.363	11.3
446.721	11.23
447.079	11.07
447.437	11.2
447.795	11.26
448.153	11.08
448.51	11.19
448.868	11.33
449.226	11.36
449.584	11.27
449.941	11.49
450.299	11.63
450.656	11.36
451.014	11.71
451.371	11.75
451.729	11.68
452.086	11.76
452.443	11.62
452.801	12.06
453.158	11.72
453.515	11.61
453.872	11.93
454.229	11.57
454.586	11.74
454.943	11.94
455.3	11.93
455.657	11.89
456.014	12.02
456.371	11.83
456.727	12.03
457.084	12.34
457.441	12.13
457.797	12.14
458.154	12.46
458.51	12.41
458.867	12.24
459.223	12.44
459.58	12.26
459.936	12.26
460.292	12.25
460.648	12.17
461.005	12.23
461.361	12.17
461.717	12.04
462.073	12
462.429	12.33
462.785	12.4
463.141	12.39
463.496	12.51
463.852	12.52
464.208	12.59
464.564	12.57
464.919	12.81
465.275	12.66
465.631	12.82
465.986	12.75
466.342	12.61
466.697	12.5
467.052	12.88
467.408	12.85
467.763	12.84
468.118	12.89
468.473	12.73
468.829	12.9
469.184	12.81
469.539	12.93
469.894	13.04
470.249	13.23
470.603	13.29
470.958	13.1
471.313	13.34
471.668	13.32
472.023	13.22
472.377	13.11
472.732	13.07
473.086	13.19
473.441	13.02
473.795	13.59
474.15	13.23
474.504	13.18
474.859	13.3
475.213	13.2
475.567	13.39
475.921	13.49
476.275	13.59
476.63	13.72
476.984	13.67
477.338	13.77
477.692	13.45
478.045	13.48
478.399	13.45
478.753	13.59
479.107	13.53
479.461	13.51
479.814	13.55
480.168	13.82
480.521	13.74
480.875	13.71
481.228	13.78
481.582	13.85
481.935	13.76
482.289	13.96
482.642	13.72
482.995	13.68
483.348	13.64
483.701	13.68
484.055	13.75
484.408	13.79
484.761	13.49
485.114	13.19
485.466	12.78
485.819	12.82
486.172	13.1
486.525	13.49
486.878	13.71
487.23	13.91
487.583	14.03
487.936	14.02
488.288	13.83
488.641	13.68
488.993	13.46
489.345	13.39
489.698	13.53
490.05	13.72
490.402	13.9
490.754	14.1
491.107	14.29
491.459	14.39
491.811	14.41
492.163	14.52
492.515	14.46
492.866	14.16
493.218	13.89
493.57	13.78
493.922	13.93
494.274	14.4
494.625	14.59
494.977	14.8
495.328	14.84
495.68	15.05
496.031	15
496.383	14.91
496.734	15.09
497.086	15.09
497.437	15
497.788	14.96
498.139	14.93
498.49	14.81
498.842	14.79
499.193	14.94
499.544	15.08
499.894	15.11
500.245	15.14
500.596	15.13
500.947	15.3
501.298	15.38
501.648	15.37
501.999	15.47
502.35	15.53
502.7	15.44
503.051	15.41
503.401	15.43
503.752	15.55
504.102	15.58
504.452	15.7
504.803	15.61
505.153	15.73
505.503	15.58
505.853	15.65
506.203	15.64
506.553	15.67
506.903	15.65
507.253	15.81
507.603	15.7
507.953	16.07
508.303	16.11
508.652	15.69
509.002	16.06
509.352	15.86
509.701	15.93
510.051	15.84
510.4	15.99
510.75	15.86
511.099	15.96
511.449	16.02
511.798	16.08
512.147	16.15
512.496	16.21
512.846	16.1
513.195	16.27
513.544	16.19
513.893	16.3
514.242	16.21
514.591	16.32
514.939	16.35
515.288	16.45
515.637	16.6
515.986	16.57
516.334	16.64
516.683	16.57
517.032	16.6
517.38	16.38
517.729	16.69
518.077	16.68
518.426	16.8
518.774	16.65
519.122	16.49
519.47	16.44
519.819	16.46
520.167	16.34
520.515	16.29
520.863	16.46
521.211	16.74
521.559	16.78
521.907	16.88
522.255	16.97
522.602	16.99
522.95	17.06
523.298	17.17
523.645	17.09
523.993	17.06
524.341	17.29
524.688	17.16
525.036	17.08
525.383	17.22
525.73	17.36
526.078	17.25
526.425	17.21
526.772	17.29
527.119	16.99
527.466	16.77
527.814	16.99
528.161	17.13
528.508	17.23
528.854	17.28
529.201	17.18
529.548	16.95
529.895	16.8
530.242	16.27
530.588	16.2
530.935	16.5
531.282	16.95
531.628	17.17
531.975	17.32
532.321	17.43
532.667	17.57
533.014	17.65
533.36	17.81
533.706	17.72
534.052	17.57
534.399	17.39
534.745	17.19
535.091	17.1
535.437	17.19
535.783	17.45
536.129	17.67
536.474	17.87
536.82	18.1
537.166	18.07
537.512	18.22
537.857	18.07
538.203	17.87
538.549	17.77
538.894	17.81
539.239	18.13
539.585	18.48
539.93	18.5
540.276	18.64
540.621	18.7
540.966	18.62
541.311	18.64
541.656	18.41
542.001	18.42
542.346	18.3
542.691	17.94
543.036	17.65
543.381	17.56
543.726	17.82
544.071	18.3
544.415	18.6
544.76	18.55
545.105	18.57
545.449	18.59
545.794	18.73
546.138	18.8
546.483	18.92
546.827	18.85
547.171	18.89
547.516	19.09
547.86	19.04
548.204	18.94
548.548	18.72
548.892	18.9
549.236	19.02
549.58	19.24
549.924	19.39
550.268	19.6
550.612	19.67
550.956	19.7
551.3	19.65
551.643	19.83
551.987	19.87
552.33	19.72
552.674	19.71
553.017	19.99
553.361	19.89
553.704	20.01
554.048	19.81
554.391	19.65
554.734	19.62
555.077	19.81
555.42	19.99
555.764	19.97
556.107	19.87
556.45	19.87
556.793	20.44
557.135	20.36
557.478	20.41
557.821	20.26
558.164	20.18
558.507	20.3
558.849	20.36
559.192	20.51
559.534	20.7
559.877	20.77
560.219	20.46
560.562	20.73
560.904	20.86
561.246	20.84
561.589	20.73
561.931	20.91
562.273	20.54
562.615	20.88
562.957	20.6
563.299	20.69
563.641	20.82
563.983	20.86
564.325	21.12
564.667	21.08
565.008	21.11
565.35	21.1
565.692	20.99
566.033	21.29
566.375	21.07
566.716	21.2
567.058	21.22
567.399	21.07
567.741	20.96
568.082	20.88
568.423	20.9
568.764	21.09
569.105	21.36
569.447	21.53
569.788	21.57
570.129	21.5
570.47	21.69
570.811	21.63
571.151	21.46
571.492	21.65
571.833	21.56
572.174	21.54
572.514	21.5
572.855	21.67
573.195	21.66
573.536	21.5
573.876	21.4
574.217	21.31
574.557	21.76
574.898	21.95
575.238	22.08
575.578	21.99
575.918	21.64
576.258	22.01
576.598	21.9
576.938	21.78
577.278	21.94
577.618	21.96
577.958	22.08
578.298	22.2
578.638	22.15
578.977	22.36
579.317	22.22
579.657	22.31
579.996	22.44
580.336	22.78
580.675	22.77
581.014	22.49
581.354	22.88
581.693	22.75
582.032	22.57
582.372	22.79
582.711	22.9
583.05	22.62
583.389	22.81
583.728	22.95
584.067	23.16
584.406	23.27
584.745	22.97
585.083	23.06
585.422	22.74
585.761	23.03
586.1	23.16
586.438	23.05
586.777	23.19
587.115	23.38
587.454	23.31
587.792	23.31
588.13	23.29
588.469	23.26
588.807	23.46
589.145	23.15
589.483	23.5
589.821	23.36
590.159	23.66
590.497	23.53
590.835	23.49
591.173	23.43
591.511	23.66
591.849	23.66
592.187	23.52
592.524	23.6
592.862	23.68
593.2	24.1
593.537	23.85
593.875	23.98
594.212	23.7
594.55	23.92
594.887	24.05
595.224	23.88
595.561	23.96
595.899	24
596.236	23.84
596.573	23.94
596.91	23.71
597.247	23.86
597.584	24.19
597.921	24.14
598.258	23.72
598.594	23.97
598.931	24.01
599.268	23.95
599.604	24.17
599.941	24.54
600.277	24.75
600.614	24.4
600.95	24.53
601.287	24.55
601.623	24.78
601.959	24.87
602.296	24.75
602.632	24.6
602.968	24.87
603.304	24.53
603.64	24.83
603.976	24.6
604.312	24.68
604.648	24.54
604.984	24.91
605.319	24.57
605.655	24.88
605.991	24.53
606.326	24.59
606.662	24.59
606.998	24.55
607.333	24.75
607.668	25.12
608.004	25.26
608.339	25.39
608.674	25.18
609.01	25.21
609.345	25.44
609.68	25.54
610.015	25.44
610.35	25.18
610.685	25.29
611.02	24.91
611.355	25.31
611.689	24.94
612.024	25.43
612.359	25.24
612.694	25.71
613.028	25.61
613.363	25.8
613.697	26.2
614.032	25.86
614.366	26.06
614.7	26.12
615.035	26.22
615.369	25.59
615.703	25.94
616.037	25.88
616.371	25.87
616.705	25.97
617.039	26.39
617.373	26.22
617.707	26.27
618.041	26.46
618.375	26.2
618.709	26.22
619.042	26.28
619.376	26.2
619.71	26.69
620.043	26.6
620.377	26.17
620.71	26.4
621.043	26.21
621.377	26.5
621.71	27.01
622.043	26.39
622.376	27.2
622.709	26.6
623.043	26.81
623.376	26.53
623.709	26.51
624.041	26.94
624.374	27.09
624.707	26.71
625.04	27.27
625.373	26.66
625.705	27.04
626.038	26.75
626.37	27
626.703	26.81
627.035	27.26
627.368	27.14
627.7	27.09
628.032	26.88
628.365	27.12
628.697	26.9
629.029	26.74
629.361	27.01
629.693	27.07
630.025	27.52
630.357	27.73
630.689	27.58
631.021	27.58
631.353	27.59
631.684	27.37
632.016	27.33
632.348	27.74
632.679	27.49
633.011	27.74
633.342	28.38
633.674	27.93
634.005	28.31
634.336	27.41
634.668	27.89
634.999	27.93
635.33	28.07
635.661	27.88
635.992	27.8
636.323	27.8
636.654	28.27
636.985	28.18
637.316	28.06
637.647	28.02
637.977	28.2
638.308	28.31
638.639	27.5
638.969	28.15
639.3	28.37
639.63	28.18
639.961	28.44
640.291	28.58
640.622	28.97
640.952	28.34
641.282	28.76
641.612	28.94
641.943	28.82
642.273	29.2
642.603	29.13
642.933	28.63
643.263	28.59
643.592	28.23
643.922	28.68
644.252	28.53
644.582	29.24
644.911	28.48
645.241	28.52
645.571	28.42
645.9	28.55
646.23	29.29
646.559	29.15
646.888	28.81
647.218	29.08
647.547	29.34
647.876	28.97
648.205	29.26
648.534	29.12
648.863	28.75
649.192	29.44
649.521	28.75
649.85	28.96
650.179	29.63
650.508	29.76
650.837	29.56
651.165	29.13
651.494	29.07
651.822	28.8
652.151	29.04
652.479	29.56
652.808	29.45
653.136	28.93
653.465	29.24
653.793	28.78
654.121	29.35
654.449	29.26
654.777	29.74
655.105	30
655.433	29.45
655.761	29.76
656.089	30.27
656.417	29.81
656.745	29.15
657.073	29.28
657.4	30.2
657.728	29.45
658.056	30.36
658.383	30.17
658.711	30.08
659.038	30.25
659.365	30.29
659.693	29.52
660.02	29.74
660.347	30.17
660.674	30.26
661.001	29.59
661.329	29.7
661.656	29.72
661.982	30.41
662.309	30.5
662.636	30.08
662.963	30.33
663.29	30.42
663.616	30.72
663.943	30.12
664.27	30.63
664.596	30.54
664.923	30.95
665.249	30.41
665.576	30.59
665.902	31.51
666.228	30.4
666.554	31.19
666.881	30.09
667.207	30.6
667.533	30.78
667.859	31.08
668.185	30.74
668.511	30.41
668.837	29.66
669.162	30.87
669.488	30.42
669.814	31.83
670.139	31.35
670.465	30.76
670.791	31.85
671.116	31.33
671.442	30.52
671.767	30.61
672.092	31.56
672.418	31.28
672.743	31.47
673.068	31.19
673.393	31.44
673.718	31.5
674.043	32.14
674.368	31.09
674.693	31.77
675.018	31.32
675.343	31.49
