Data from 0372_forehead_Reflection__0__164.txt Node

Date: Fri Dec 15 18:04:27 CST 2023
User: ToomeyLab
Spectrometer: FLMS14357
Trigger mode: 0
Integration Time (sec): 1.000000E-2
Scans to average: 100
Electric dark correction enabled: true
Nonlinearity correction enabled: false
Boxcar width: 0
XAxis mode: Wavelengths
Number of Pixels in Spectrum: 2048
>>>>>Begin Spectral Data<<<<<
189.047	-344.49
189.435	-344.49
189.823	-344.49
190.211	69.6
190.599	209.16
190.987	155.11
191.375	-52.11
191.763	39.2
192.151	175.35
192.538	182.85
192.926	-88.27
193.314	156.05
193.702	4587.85
194.089	-371.2
194.477	70.97
194.864	31.74
195.252	84.48
195.639	68.85
196.027	156.62
196.414	31.85
196.801	-454.64
197.189	175.23
197.576	1533.94
197.963	76.86
198.351	-3.18
198.738	-13.2
199.125	127.3
199.512	11.89
199.899	33.75
200.286	96.23
200.673	-8.09
201.06	39.78
201.447	35.18
201.833	4.47
202.22	28.66
202.607	58.26
202.994	6.93
203.38	64.13
203.767	64.18
204.154	16.63
204.54	45.8
204.927	0.26
205.313	-49.38
205.699	45.31
206.086	65.18
206.472	57.48
206.858	27.17
207.245	11.98
207.631	47.25
208.017	27.99
208.403	12.89
208.789	47.17
209.175	41.53
209.561	27.42
209.947	43.66
210.333	23.48
210.719	42.85
211.105	47.21
211.491	4.41
211.876	46.99
212.262	54.9
212.648	8.61
213.034	23.43
213.419	19.74
213.805	17.37
214.19	-18.94
214.576	14.65
214.961	18.14
215.346	-0.04
215.732	18.69
216.117	26.8
216.502	-11.38
216.888	37.08
217.273	58.22
217.658	-5.18
218.043	25.47
218.428	32.44
218.813	-4.18
219.198	-9.34
219.583	11.13
219.968	23.38
220.353	-8.7
220.738	35.15
221.122	30.5
221.507	0.37
221.892	-10.38
222.276	-7.28
222.661	9.66
223.046	7.37
223.43	17.53
223.815	26.88
224.199	2.63
224.583	14.9
224.968	6.17
225.352	17.34
225.736	13.09
226.121	-3.31
226.505	12.85
226.889	13.18
227.273	0.99
227.657	14.35
228.041	7.76
228.425	8.41
228.809	7.28
229.193	7.7
229.577	7.75
229.961	6.04
230.344	4.15
230.728	3.77
231.112	5.35
231.495	5.23
231.879	4.14
232.263	5.7
232.646	5.35
233.03	4.13
233.413	4.47
233.797	5.68
234.18	3.6
234.563	5.14
234.946	4.94
235.33	5.13
235.713	6.2
236.096	4.3
236.479	5.57
236.862	4.21
237.245	6.57
237.628	5.59
238.011	5.86
238.394	5.23
238.777	5.33
239.16	5.27
239.543	6.47
239.925	7.68
240.308	5.08
240.691	6.47
241.073	6.31
241.456	5.65
241.838	4.79
242.221	5.02
242.603	6.16
242.986	4.57
243.368	5.3
243.75	5.22
244.133	4.48
244.515	5.38
244.897	5.52
245.279	5.06
245.661	4.79
246.043	4.69
246.425	3.79
246.807	6.46
247.189	5.23
247.571	5.13
247.953	5.78
248.335	5.02
248.717	4.96
249.098	4.81
249.48	4.77
249.862	4.68
250.243	5.18
250.625	4.8
251.006	5.05
251.388	4.75
251.769	5.46
252.151	6.39
252.532	5.52
252.913	5.3
253.295	4.35
253.676	4.49
254.057	5.48
254.438	4.69
254.819	4.48
255.2	4.49
255.581	5.96
255.962	4.6
256.343	5.75
256.724	4.04
257.105	4.67
257.486	5.09
257.867	4.42
258.247	4.76
258.628	5.45
259.009	4.58
259.389	4.78
259.77	4.53
260.15	5.2
260.531	4.17
260.911	5.15
261.292	4.86
261.672	5.03
262.052	4.77
262.432	4.92
262.813	4.71
263.193	4.91
263.573	4.5
263.953	4.85
264.333	5
264.713	5.21
265.093	3.76
265.473	5.07
265.853	4.74
266.233	5.34
266.612	3.15
266.992	4.32
267.372	5.33
267.752	4.56
268.131	4.61
268.511	5.44
268.89	5.26
269.27	4.28
269.649	4.22
270.029	3.94
270.408	5.9
270.787	4.99
271.167	5.65
271.546	5.04
271.925	4.32
272.304	4.79
272.683	4.82
273.062	4.48
273.441	4.72
273.82	4.18
274.199	4.84
274.578	4.84
274.957	4.68
275.336	4.43
275.715	4.34
276.093	4.63
276.472	5.19
276.851	4.58
277.229	4.33
277.608	3.87
277.986	4.69
278.365	4.73
278.743	4.37
279.122	4.79
279.5	5.15
279.878	4.73
280.257	4.51
280.635	4.29
281.013	4.01
281.391	4.97
281.769	4.98
282.147	5.06
282.525	5.15
282.903	4.46
283.281	4.57
283.659	4.93
284.037	4.45
284.415	4.48
284.792	5.04
285.17	4.08
285.548	4.32
285.925	4.95
286.303	4.63
286.68	4.6
287.058	4.1
287.435	4.89
287.813	4.56
288.19	4.36
288.567	4.27
288.945	4.89
289.322	4.51
289.699	4.85
290.076	4.52
290.453	4.98
290.83	4.13
291.207	4.41
291.584	4.76
291.961	4.71
292.338	4.69
292.715	4.53
293.092	4.7
293.469	4.7
293.845	5.18
294.222	4.74
294.599	4.91
294.975	5.02
295.352	5.36
295.728	4.36
296.105	4.81
296.481	5.25
296.858	5.25
297.234	4.88
297.61	4.76
297.986	5.42
298.363	5.38
298.739	5.08
299.115	5.02
299.491	4.76
299.867	5.27
300.243	5.28
300.619	4.98
300.995	5.35
301.371	5.7
301.746	5.19
302.122	5.24
302.498	5.28
302.874	5.79
303.249	5.9
303.625	5.85
304	6.2
304.376	6.31
304.751	5.22
305.127	7.12
305.502	5.6
305.878	4.95
306.253	5.74
306.628	6.5
307.003	6.06
307.378	6.46
307.754	6.26
308.129	5.88
308.504	6.22
308.879	5.71
309.254	7.1
309.629	6.68
310.003	6.38
310.378	7.6
310.753	6.92
311.128	6.2
311.502	6.45
311.877	7.25
312.252	6.27
312.626	6.89
313.001	6.77
313.375	7.23
313.75	6.71
314.124	6.99
314.498	7.17
314.873	7.57
315.247	6.89
315.621	7.37
315.995	6.32
316.369	7.35
316.743	7.29
317.117	7.74
317.491	7.5
317.865	7.64
318.239	7.35
318.613	7.56
318.987	8.57
319.361	7.76
319.734	8.44
320.108	8.35
320.482	7.61
320.855	7.92
321.229	7.6
321.602	7.68
321.976	8.42
322.349	8.05
322.723	8.68
323.096	8.57
323.469	7.28
323.843	8.15
324.216	8.54
324.589	8.43
324.962	8.8
325.335	8.45
325.708	8.48
326.081	8.15
326.454	9.05
326.827	8.48
327.2	8.6
327.573	9.2
327.945	8.8
328.318	8.52
328.691	8.49
329.063	9.02
329.436	9.23
329.809	9.83
330.181	9.29
330.553	8.85
330.926	9.29
331.298	9.17
331.671	8.71
332.043	9.51
332.415	9.66
332.787	9.93
333.159	10.42
333.532	9.65
333.904	8.92
334.276	9.2
334.648	9.42
335.02	9.36
335.391	9.92
335.763	9.53
336.135	10.16
336.507	10.15
336.879	10.03
337.25	9.03
337.622	9.44
337.993	9.93
338.365	9.91
338.736	10.15
339.108	10.13
339.479	10.05
339.851	9.66
340.222	10.17
340.593	9.68
340.964	10.21
341.336	10.97
341.707	9.66
342.078	10.3
342.449	10.1
342.82	10.25
343.191	10.42
343.562	10.4
343.933	10.13
344.303	10.54
344.674	10.72
345.045	10.77
345.416	10.83
345.786	9.96
346.157	11.19
346.527	9.99
346.898	10.28
347.268	10.72
347.639	10.82
348.009	10.73
348.38	10.55
348.75	10.62
349.12	10.51
349.49	11.66
349.861	11.34
350.231	11.16
350.601	11.33
350.971	11.36
351.341	10.96
351.711	10.95
352.081	11.11
352.45	10.8
352.82	11.59
353.19	11.36
353.56	11.36
353.929	10.89
354.299	11.9
354.669	11.09
355.038	11.97
355.408	11.89
355.777	11.67
356.147	11.36
356.516	11.47
356.885	11.94
357.254	12.04
357.624	11.97
357.993	12.16
358.362	11.58
358.731	11.7
359.1	12.19
359.469	11.8
359.838	11.88
360.207	11.83
360.576	11.4
360.945	12.01
361.314	12.19
361.682	11.91
362.051	12.13
362.42	12.19
362.788	12.1
363.157	12.06
363.525	12.5
363.894	12.25
364.262	12.19
364.631	12.3
364.999	12.79
365.367	12.07
365.735	13.42
366.104	13.05
366.472	12.77
366.84	12.45
367.208	12.59
367.576	12.91
367.944	13.2
368.312	12.74
368.68	12.81
369.048	13.21
369.416	13.21
369.783	12.74
370.151	13.48
370.519	13.75
370.886	13.57
371.254	13.1
371.621	13.28
371.989	13.74
372.356	12.93
372.724	13.3
373.091	13.35
373.458	13.24
373.826	13.76
374.193	13.67
374.56	13.9
374.927	13.88
375.294	13.46
375.661	13.49
376.028	13.35
376.395	14.12
376.762	13.96
377.129	14.33
377.496	13.52
377.863	13.92
378.229	13.84
378.596	13.89
378.963	13.68
379.329	13.88
379.696	14.13
380.062	14.24
380.429	14.12
380.795	14.18
381.161	14.68
381.528	14.93
381.894	14.38
382.26	14.42
382.626	14.72
382.993	14.07
383.359	14.88
383.725	14.55
384.091	14.52
384.457	14.54
384.823	14.74
385.188	14.96
385.554	14.91
385.92	15.25
386.286	15.18
386.651	15.12
387.017	15.04
387.383	15.32
387.748	14.98
388.114	15.23
388.479	15.19
388.845	15.45
389.21	15.53
389.575	15.31
389.94	15.26
390.306	15.39
390.671	15.8
391.036	15.25
391.401	15.35
391.766	15.28
392.131	15.62
392.496	15.81
392.861	15.73
393.226	15.72
393.591	15.82
393.956	15.66
394.32	15.77
394.685	15.66
395.05	15.72
395.414	16.07
395.779	15.89
396.143	15.89
396.508	16.05
396.872	16.21
397.236	15.95
397.601	15.85
397.965	16.35
398.329	16.36
398.694	16.36
399.058	16.53
399.422	16.16
399.786	16.38
400.15	16.26
400.514	16.48
400.878	16.63
401.242	16.44
401.605	16.52
401.969	16.57
402.333	16.55
402.697	16.56
403.06	16.75
403.424	16.61
403.787	16.74
404.151	17.22
404.514	16.98
404.878	16.98
405.241	16.96
405.604	17.02
405.968	17.05
406.331	17.17
406.694	17.27
407.057	16.92
407.42	16.99
407.783	17.08
408.146	17.35
408.509	17
408.872	17.25
409.235	17.44
409.598	17.38
409.961	17.54
410.323	17.76
410.686	17.43
411.049	17.44
411.411	17.66
411.774	17.63
412.136	17.74
412.499	17.61
412.861	17.75
413.223	17.77
413.586	17.81
413.948	17.9
414.31	17.66
414.672	18.09
415.035	17.78
415.397	18.26
415.759	18.06
416.121	18.13
416.483	17.94
416.845	18.28
417.206	18.05
417.568	18.27
417.93	17.75
418.292	18.13
418.653	18.14
419.015	18.26
419.377	18.23
419.738	18.53
420.1	18.18
420.461	18.29
420.822	18.3
421.184	18.36
421.545	18.27
421.906	18.41
422.267	18.47
422.629	18.29
422.99	18.46
423.351	18.35
423.712	18.51
424.073	18.59
424.434	18.45
424.795	18.73
425.155	18.8
425.516	18.68
425.877	18.8
426.238	18.75
426.598	18.88
426.959	18.79
427.32	19
427.68	18.91
428.041	19.17
428.401	19.37
428.761	19.24
429.122	19.58
429.482	19.47
429.842	19.63
430.202	19.66
430.563	19.92
430.923	19.9
431.283	19.97
431.643	19.82
432.003	19.88
432.363	20.11
432.722	19.84
433.082	20.13
433.442	20.15
433.802	20.18
434.161	20.4
434.521	20.44
434.881	20.08
435.24	20.17
435.6	20.25
435.959	20.32
436.319	20.3
436.678	20.47
437.037	20.46
437.396	20.41
437.756	20.53
438.115	20.68
438.474	20.93
438.833	20.76
439.192	20.76
439.551	21.06
439.91	20.93
440.269	21.03
440.628	20.83
440.987	21.05
441.345	20.82
441.704	21.14
442.063	21.1
442.421	20.97
442.78	21.1
443.138	21.11
443.497	21.2
443.855	21.37
444.214	21.46
444.572	21.57
444.93	21.41
445.288	21.66
445.647	21.63
446.005	21.49
446.363	21.92
446.721	21.8
447.079	21.74
447.437	21.67
447.795	21.84
448.153	21.55
448.51	21.71
448.868	21.75
449.226	21.95
449.584	21.94
449.941	21.94
450.299	22.16
450.656	22.21
451.014	22.14
451.371	22.33
451.729	22.47
452.086	22.57
452.443	22.59
452.801	22.64
453.158	22.59
453.515	22.74
453.872	22.88
454.229	22.66
454.586	22.69
454.943	22.91
455.3	23
455.657	22.86
456.014	23.06
456.371	23.04
456.727	23.06
457.084	23.36
457.441	23.16
457.797	23.29
458.154	23.43
458.51	23.48
458.867	23.67
459.223	23.62
459.58	23.59
459.936	23.8
460.292	23.81
460.648	23.48
461.005	23.45
461.361	23.78
461.717	23.68
462.073	23.42
462.429	23.43
462.785	23.62
463.141	23.72
463.496	24.06
463.852	24.26
464.208	24.26
464.564	24.47
464.919	24.54
465.275	24.53
465.631	24.67
465.986	24.65
466.342	24.71
466.697	24.44
467.052	24.55
467.408	24.54
467.763	24.72
468.118	24.99
468.473	24.89
468.829	24.82
469.184	24.72
469.539	25.11
469.894	24.73
470.249	25.37
470.603	25.14
470.958	25.25
471.313	25.28
471.668	25.21
472.023	25.44
472.377	25.13
472.732	25.47
473.086	25.62
473.441	25.41
473.795	25.81
474.15	25.72
474.504	25.73
474.859	25.88
475.213	25.63
475.567	25.85
475.921	25.84
476.275	26.06
476.63	25.9
476.984	26.21
477.338	26.39
477.692	26.02
478.045	26.04
478.399	26.09
478.753	26.46
479.107	26.26
479.461	26.06
479.814	26.57
480.168	26.57
480.521	26.59
480.875	26.58
481.228	26.68
481.582	26.64
481.935	26.83
482.289	26.61
482.642	26.75
482.995	26.93
483.348	26.62
483.701	26.61
484.055	26.84
484.408	27.04
484.761	26.6
485.114	26.38
485.466	26.15
485.819	26.08
486.172	26.04
486.525	25.95
486.878	26.03
487.23	26.26
487.583	26.56
487.936	26.85
488.288	26.82
488.641	26.97
488.993	26.67
489.345	26.63
489.698	26.57
490.05	26.74
490.402	26.8
490.754	26.87
491.107	27.13
491.459	27.39
491.811	27.47
492.163	27.73
492.515	27.74
492.866	27.82
493.218	27.64
493.57	27.54
493.922	27.4
494.274	27.47
494.625	27.58
494.977	27.92
495.328	28.12
495.68	28.39
496.031	28.44
496.383	28.59
496.734	28.86
497.086	29.09
497.437	28.99
497.788	28.97
498.139	28.95
498.49	29.06
498.842	28.84
499.193	28.92
499.544	29
499.894	29.2
500.245	29.18
500.596	29.25
500.947	29.32
501.298	29.36
501.648	29.61
501.999	29.69
502.35	29.74
502.7	29.71
503.051	30.07
503.401	29.81
503.752	29.96
504.102	29.91
504.452	30.19
504.803	30
505.153	30.2
505.503	30.32
505.853	30.28
506.203	30.37
506.553	30.36
506.903	30.3
507.253	30.6
507.603	30.54
507.953	30.71
508.303	31.06
508.652	30.55
509.002	30.78
509.352	31.02
509.701	30.55
510.051	30.77
510.4	30.87
510.75	30.91
511.099	30.79
511.449	30.92
511.798	31.04
512.147	31.23
512.496	31.04
512.846	31.13
513.195	31.22
513.544	31.33
513.893	31.34
514.242	31.37
514.591	31.55
514.939	31.6
515.288	31.42
515.637	31.64
515.986	31.72
516.334	31.9
516.683	31.96
517.032	32
517.38	32.25
517.729	32.2
518.077	32.17
518.426	32.14
518.774	32.17
519.122	32.17
519.47	32.31
519.819	32.03
520.167	31.99
520.515	31.97
520.863	32.15
521.211	32.04
521.559	32.07
521.907	32.21
522.255	32.36
522.602	32.64
522.95	32.65
523.298	32.91
523.645	32.81
523.993	33.02
524.341	33.13
524.688	33.33
525.036	33.19
525.383	33.22
525.73	33.49
526.078	33.39
526.425	33.31
526.772	33.51
527.119	33.13
527.466	33.26
527.814	33.07
528.161	32.98
528.508	33.07
528.854	33.19
529.201	33.28
529.548	33.36
529.895	33.13
530.242	32.86
530.588	32.8
530.935	32.85
531.282	32.69
531.628	32.77
531.975	32.91
532.321	33.31
532.667	33.64
533.014	33.77
533.36	33.95
533.706	34.18
534.052	34.14
534.399	33.88
534.745	34.07
535.091	33.97
535.437	33.95
535.783	34.03
536.129	33.99
536.474	34.1
536.82	34.4
537.166	34.67
537.512	34.78
537.857	34.99
538.203	34.92
538.549	34.73
538.894	34.84
539.239	35.04
539.585	35.07
539.93	35.11
540.276	35.55
540.621	35.45
540.966	35.55
541.311	35.6
541.656	35.72
542.001	35.92
542.346	35.82
542.691	35.37
543.036	35.19
543.381	35.15
543.726	34.98
544.071	35.29
544.415	35.24
544.76	35.3
545.105	35.51
545.449	35.69
545.794	35.96
546.138	36.18
546.483	36.22
546.827	36.35
547.171	36.39
547.516	36.72
547.86	36.66
548.204	36.58
548.548	36.8
548.892	36.71
549.236	36.73
549.58	36.83
549.924	36.74
550.268	37.02
550.612	37.22
550.956	37.5
551.3	37.61
551.643	37.83
551.987	37.92
552.33	37.68
552.674	38.03
553.017	38
553.361	38.34
553.704	38.26
554.048	38.36
554.391	37.97
554.734	38.07
555.077	38.3
555.42	38.1
555.764	38.22
556.107	38.13
556.45	38.12
556.793	38.39
557.135	38.74
557.478	38.77
557.821	38.71
558.164	38.99
558.507	39.05
558.849	38.96
559.192	39.22
559.534	39.13
559.877	39.22
560.219	39.42
560.562	39.31
560.904	39.45
561.246	39.69
561.589	39.58
561.931	39.42
562.273	39.71
562.615	39.85
562.957	39.85
563.299	39.38
563.641	39.6
563.983	39.56
564.325	40.02
564.667	39.88
565.008	39.91
565.35	40.22
565.692	40.14
566.033	40.37
566.375	40.57
566.716	40.59
567.058	40.5
567.399	40.5
567.741	40.45
568.082	40.51
568.423	40.36
568.764	40.32
569.105	40.51
569.447	40.52
569.788	40.8
570.129	40.83
570.47	40.81
570.811	40.98
571.151	40.92
571.492	41.19
571.833	41.12
572.174	41.14
572.514	41.1
572.855	41.15
573.195	41.63
573.536	41.35
573.876	41.12
574.217	41
574.557	41.45
574.898	41.33
575.238	41.4
575.578	41.41
575.918	41.81
576.258	41.94
576.598	41.76
576.938	41.94
577.278	41.87
577.618	41.82
577.958	41.9
578.298	42.03
578.638	41.83
578.977	42.18
579.317	42.43
579.657	42.48
579.996	42.52
580.336	42.78
580.675	42.71
581.014	42.82
581.354	42.92
581.693	42.71
582.032	43.02
582.372	43.13
582.711	43.09
583.05	43.18
583.389	43.06
583.728	43.42
584.067	43.85
584.406	43.99
584.745	43.44
585.083	43.58
585.422	43.93
585.761	43.7
586.1	43.95
586.438	43.8
586.777	44.25
587.115	44.29
587.454	43.84
587.792	43.95
588.13	44.35
588.469	44.41
588.807	44.21
589.145	44.19
589.483	44.25
589.821	44.45
590.159	44.81
590.497	44.87
590.835	44.9
591.173	44.82
591.511	44.81
591.849	44.81
592.187	44.83
592.524	44.76
592.862	44.81
593.2	44.91
593.537	44.98
593.875	45.03
594.212	44.96
594.55	44.92
594.887	45.32
595.224	45.22
595.561	45.45
595.899	45.2
596.236	45.26
596.573	45.55
596.91	45.36
597.247	45.76
597.584	45.53
597.921	45.97
598.258	45.62
598.594	45.57
598.931	46.02
599.268	45.52
599.604	45.42
599.941	45.55
600.277	45.96
600.614	45.85
600.95	46.04
601.287	46.12
601.623	46.43
601.959	46.44
602.296	46.49
602.632	46.96
602.968	46.64
603.304	46.88
603.64	46.87
603.976	46.88
604.312	46.69
604.648	47.03
604.984	47.05
605.319	46.87
605.655	46.9
605.991	47.06
606.326	46.68
606.662	46.97
606.998	46.8
607.333	46.77
607.668	46.74
608.004	46.85
608.339	47.3
608.674	47.5
609.01	47.22
609.345	47.37
609.68	48.24
610.015	47.56
610.35	47.83
610.685	47.35
611.02	47.8
611.355	47.91
611.689	47.82
612.024	47.87
612.359	47.78
612.694	48.04
613.028	48.22
613.363	48.21
613.697	48.27
614.032	48.32
614.366	48.32
614.7	48.82
615.035	49.01
615.369	48.85
615.703	48.69
616.037	48.55
616.371	48.99
616.705	48.81
617.039	48.98
617.373	48.78
617.707	49.09
618.041	48.94
618.375	49.25
618.709	49.07
619.042	49.37
619.376	49.05
619.71	49.46
620.043	49.61
620.377	50.08
620.71	49.41
621.043	49.79
621.377	49.56
621.71	49.75
622.043	49.79
622.376	49.83
622.709	49.47
623.043	49.64
623.376	49.6
623.709	49.89
624.041	50.8
624.374	50.32
624.707	50.68
625.04	50.91
625.373	50.24
625.705	50.97
626.038	50.49
626.37	50.46
626.703	50.54
627.035	50.76
627.368	51.04
627.7	50.52
628.032	50.56
628.365	51.36
628.697	50.75
629.029	50.74
629.361	50.89
629.693	51.06
630.025	51.05
630.357	51.28
630.689	51.58
631.021	51.51
631.353	51.73
631.684	51.5
632.016	51.64
632.348	52.19
632.679	51.33
633.011	51.59
633.342	51.98
633.674	52.43
634.005	52.3
634.336	51.99
634.668	53.15
634.999	52.15
635.33	52.94
635.661	52.48
635.992	52.21
636.323	52.83
636.654	52.63
636.985	52.31
637.316	52.4
637.647	52.01
637.977	52.35
638.308	52.22
638.639	52.49
638.969	52.75
639.3	52.99
639.63	52.93
639.961	52.7
640.291	52.93
640.622	53.76
640.952	53.06
641.282	53.77
641.612	53.23
641.943	52.81
642.273	53.04
642.603	53.64
642.933	53.87
643.263	53.25
643.592	53.35
643.922	53.69
644.252	53.24
644.582	54.21
644.911	53.63
645.241	53.65
645.571	53.65
645.9	53.47
646.23	53.7
646.559	54.05
646.888	54.29
647.218	54.45
647.547	54.08
647.876	54.33
648.205	54.71
648.534	53.97
648.863	53.79
649.192	54.76
649.521	54.08
649.85	54.68
650.179	54.59
650.508	54.54
650.837	54.97
651.165	54.71
651.494	54.64
651.822	54.86
652.151	53.81
652.479	54.34
652.808	55.07
653.136	55.32
653.465	55.08
653.793	54.2
654.121	55.23
654.449	54.97
654.777	55.08
655.105	55.21
655.433	55.06
655.761	55.47
656.089	55.44
656.417	55.09
656.745	54.48
657.073	55.54
657.4	56.54
657.728	55.51
658.056	55.81
658.383	55.36
658.711	55.82
659.038	56.23
659.365	56.09
659.693	56.01
660.02	55.95
660.347	56.32
660.674	56.67
661.001	56.39
661.329	55.64
661.656	55.77
661.982	56.55
662.309	55.69
662.636	55.88
662.963	56.85
663.29	56.44
663.616	56.96
663.943	56.19
664.27	56.56
664.596	56.33
664.923	56.91
665.249	56.17
665.576	57.03
665.902	57.75
666.228	56.49
666.554	56.62
666.881	56.33
667.207	56.93
667.533	56.47
667.859	57.35
668.185	57.36
668.511	56.5
668.837	55.9
669.162	57.76
669.488	56.79
669.814	57.27
670.139	57.6
