Data from 0372_crown_Reflection__3__162.txt Node

Date: Fri Dec 15 18:03:53 CST 2023
User: ToomeyLab
Spectrometer: FLMS14357
Trigger mode: 0
Integration Time (sec): 1.000000E-2
Scans to average: 100
Electric dark correction enabled: true
Nonlinearity correction enabled: false
Boxcar width: 0
XAxis mode: Wavelengths
Number of Pixels in Spectrum: 2048
>>>>>Begin Spectral Data<<<<<
189.047	-197.45
189.435	-197.45
189.823	-197.45
190.211	123.04
190.599	-1142.23
190.987	-54.59
191.375	-103.93
191.763	-6.46
192.151	179.2
192.538	179.46
192.926	-604.4
193.314	-10.25
193.702	4752.34
194.089	-39.91
194.477	55.3
194.864	271.51
195.252	55
195.639	125.85
196.027	-106.1
196.414	165.78
196.801	-145.74
197.189	208.53
197.576	5470.91
197.963	88.35
198.351	-72.51
198.738	-75.24
199.125	9.87
199.512	-37.06
199.899	3.73
200.286	10.88
200.673	-6.43
201.06	-51.64
201.447	-16.87
201.833	30.48
202.22	-14.41
202.607	55.69
202.994	46.29
203.38	20.07
203.767	2.05
204.154	1.33
204.54	8.01
204.927	-60.43
205.313	-9.12
205.699	49.68
206.086	16.56
206.472	29.51
206.858	-3.03
207.245	1.54
207.631	23.91
208.017	3.02
208.403	-5.92
208.789	38.32
209.175	4.95
209.561	-28.48
209.947	10.31
210.333	-14.53
210.719	28.97
211.105	23.76
211.491	-19.76
211.876	31.28
212.262	19.07
212.648	-2.9
213.034	6.33
213.419	-11.03
213.805	5.77
214.19	-33.16
214.576	-42
214.961	-29.35
215.346	-124.15
215.732	-6.9
216.117	0.49
216.502	-15.79
216.888	5.34
217.273	22.8
217.658	18.34
218.043	14.49
218.428	-22.04
218.813	-33.78
219.198	-42.58
219.583	-7.45
219.968	22.03
220.353	-15.02
220.738	17.93
221.122	8.33
221.507	-49.5
221.892	-37.42
222.276	-38.62
222.661	4.82
223.046	6.67
223.43	10.18
223.815	10.47
224.199	-8.74
224.583	3.6
224.968	-3.35
225.352	15.22
225.736	-6.5
226.121	-11.23
226.505	0.79
226.889	8.38
227.273	-3.77
227.657	9.29
228.041	4.13
228.425	0.8
228.809	8.38
229.193	2.79
229.577	6.52
229.961	5.82
230.344	5.1
230.728	5.18
231.112	5.17
231.495	5.1
231.879	3.46
232.263	6.83
232.646	5.02
233.03	4.55
233.413	2.85
233.797	4.68
234.18	2.05
234.563	3.49
234.946	5.03
235.33	4.99
235.713	4.66
236.096	6.08
236.479	5.45
236.862	4.5
237.245	6.51
237.628	3.87
238.011	3.92
238.394	6.42
238.777	3.47
239.16	3.21
239.543	3.43
239.925	5.28
240.308	3.47
240.691	5.4
241.073	6.47
241.456	5.07
241.838	4.96
242.221	3.67
242.603	5.44
242.986	5.66
243.368	5.25
243.75	4.95
244.133	4.76
244.515	4.94
244.897	5.59
245.279	5.23
245.661	4.66
246.043	4.08
246.425	3.28
246.807	5.44
247.189	5.27
247.571	4.95
247.953	4.76
248.335	4.93
248.717	4.99
249.098	4.88
249.48	4.83
249.862	4.78
250.243	4.8
250.625	5.07
251.006	4.66
251.388	3.83
251.769	4.43
252.151	5
252.532	4.01
252.913	3.82
253.295	4.35
253.676	4.8
254.057	4.47
254.438	4.64
254.819	3.93
255.2	4.01
255.581	3.6
255.962	4.02
256.343	4.85
256.724	4.39
257.105	3.84
257.486	3.71
257.867	5.23
258.247	5.05
258.628	4.28
259.009	4
259.389	5.13
259.77	3.81
260.15	3.83
260.531	3.24
260.911	4.49
261.292	4.47
261.672	4.49
262.052	4.41
262.432	4.54
262.813	4.44
263.193	4.1
263.573	3.91
263.953	4.39
264.333	4.36
264.713	4.83
265.093	3.69
265.473	4.7
265.853	2.67
266.233	4.41
266.612	1.76
266.992	2.45
267.372	4.92
267.752	4.08
268.131	4.07
268.511	4.65
268.89	4.59
269.27	3.85
269.649	3.6
270.029	3.99
270.408	4.96
270.787	3.59
271.167	4.87
271.546	4.43
271.925	3.7
272.304	4.05
272.683	4.17
273.062	3.91
273.441	4.33
273.82	4.09
274.199	3.91
274.578	4.06
274.957	4.15
275.336	3.95
275.715	4.03
276.093	3.89
276.472	4.16
276.851	3.65
277.229	3.74
277.608	3.61
277.986	3.38
278.365	4.27
278.743	3.71
279.122	3.6
279.5	3.68
279.878	4.36
280.257	3.93
280.635	3.79
281.013	3.27
281.391	4.49
281.769	3.96
282.147	4.12
282.525	4.39
282.903	4.09
283.281	4.43
283.659	4.39
284.037	4.16
284.415	4.61
284.792	4.16
285.17	3.5
285.548	3.44
285.925	4.1
286.303	3.91
286.68	3.76
287.058	4.12
287.435	3.99
287.813	3.88
288.19	3.73
288.567	3.77
288.945	3.9
289.322	3.96
289.699	4
290.076	3.85
290.453	3.39
290.83	3.78
291.207	3.71
291.584	3.74
291.961	3.9
292.338	3.39
292.715	4.16
293.092	3.61
293.469	3.9
293.845	3.75
294.222	3.2
294.599	4.04
294.975	3.68
295.352	4.01
295.728	3.84
296.105	3.45
296.481	3.65
296.858	3.78
297.234	3.69
297.61	3.41
297.986	3.79
298.363	4.15
298.739	4.11
299.115	3.6
299.491	3.6
299.867	3.58
300.243	3.68
300.619	3.37
300.995	3.6
301.371	3.55
301.746	3.48
302.122	3.63
302.498	3.45
302.874	3.24
303.249	3.75
303.625	4
304	3.93
304.376	4
304.751	3.2
305.127	4.18
305.502	3.3
305.878	2.76
306.253	3.63
306.628	3.99
307.003	3.74
307.378	4.14
307.754	3.19
308.129	3
308.504	3.49
308.879	3.52
309.254	4.28
309.629	3.97
310.003	4.12
310.378	4.05
310.753	3.93
311.128	3.89
311.502	3.27
311.877	3.6
312.252	3.61
312.626	3.69
313.001	3.16
313.375	3.86
313.75	3.77
314.124	3.67
314.498	3.59
314.873	4.12
315.247	3.62
315.621	3.48
315.995	3.6
316.369	3.79
316.743	3.39
317.117	3.89
317.491	3.12
317.865	3.85
318.239	3.78
318.613	4.16
318.987	4.22
319.361	3.58
319.734	3.65
320.108	3.87
320.482	3.46
320.855	3.92
321.229	3.41
321.602	3.36
321.976	3.98
322.349	3.16
322.723	4.04
323.096	4.09
323.469	2.53
323.843	3.32
324.216	4
324.589	3.49
324.962	3.49
325.335	3.58
325.708	4.16
326.081	3.16
326.454	3.63
326.827	3.71
327.2	3.23
327.573	3.78
327.945	3.59
328.318	3.6
328.691	2.67
329.063	3.51
329.436	3.29
329.809	3.86
330.181	3.9
330.553	3.87
330.926	4.42
331.298	3.49
331.671	3.58
332.043	3.78
332.415	3.7
332.787	3.9
333.159	3.99
333.532	4.18
333.904	3.67
334.276	3.9
334.648	3.79
335.02	4.16
335.391	3.4
335.763	3.58
336.135	3.38
336.507	3.99
336.879	3.48
337.25	3.38
337.622	3.57
337.993	3.24
338.365	4.08
338.736	3.75
339.108	3.71
339.479	3.87
339.851	4.03
340.222	3.6
340.593	3.35
340.964	3.76
341.336	4.37
341.707	2.76
342.078	4.38
342.449	4.03
342.82	3.98
343.191	3.93
343.562	3.86
343.933	3.87
344.303	3.66
344.674	3.76
345.045	3.76
345.416	4.19
345.786	3.55
346.157	3.9
346.527	3.85
346.898	3.38
347.268	3.71
347.639	3.81
348.009	3.91
348.38	3.32
348.75	4.12
349.12	3.77
349.49	4.34
349.861	3.76
350.231	3.59
350.601	4.12
350.971	3.96
351.341	4.35
351.711	4.18
352.081	4.04
352.45	3.74
352.82	4.04
353.19	4.1
353.56	3.77
353.929	3.75
354.299	3.91
354.669	3.65
355.038	4.34
355.408	4.27
355.777	4.1
356.147	3.83
356.516	3.73
356.885	4.06
357.254	3.58
357.624	3.86
357.993	4.19
358.362	3.82
358.731	3.71
359.1	3.81
359.469	3.98
359.838	4.11
360.207	3.91
360.576	3.55
360.945	4
361.314	4.58
361.682	3.68
362.051	3.87
362.42	3.96
362.788	3.93
363.157	4.24
363.525	4.19
363.894	4.04
364.262	4.13
364.631	4
364.999	4.35
365.367	3.56
365.735	4.6
366.104	4.35
366.472	4.16
366.84	3.92
367.208	4.01
367.576	4.31
367.944	3.94
368.312	4.2
368.68	3.42
369.048	3.9
369.416	3.73
369.783	3.82
370.151	4.23
370.519	4.53
370.886	4.22
371.254	3.97
371.621	4.21
371.989	4.39
372.356	3.7
372.724	4.3
373.091	3.82
373.458	4.27
373.826	3.99
374.193	3.9
374.56	4.19
374.927	3.78
375.294	4.25
375.661	4.39
376.028	3.69
376.395	3.84
376.762	4.19
377.129	4.15
377.496	4.03
377.863	3.88
378.229	3.59
378.596	4.16
378.963	4.07
379.329	4.12
379.696	4.44
380.062	4.37
380.429	4.12
380.795	4.17
381.161	3.98
381.528	4.62
381.894	4.11
382.26	4.02
382.626	4.56
382.993	4.05
383.359	4.62
383.725	4.03
384.091	4.41
384.457	4.03
384.823	4.1
385.188	4.06
385.554	4.12
385.92	4.21
386.286	4.34
386.651	4.38
387.017	4.51
387.383	4.34
387.748	4.13
388.114	4.64
388.479	4.21
388.845	4.57
389.21	4.45
389.575	4.53
389.94	4.14
390.306	4.39
390.671	4.32
391.036	4.07
391.401	3.9
391.766	3.97
392.131	4.1
392.496	4.32
392.861	4.28
393.226	4.59
393.591	4.36
393.956	4.25
394.32	4.4
394.685	4.18
395.05	4.03
395.414	4.29
395.779	3.89
396.143	4.26
396.508	4.19
396.872	4.45
397.236	4.65
397.601	4.22
397.965	4.21
398.329	4.63
398.694	4.57
399.058	4.55
399.422	3.97
399.786	4.55
400.15	4.49
400.514	4.41
400.878	4.43
401.242	4.72
401.605	4.72
401.969	4.34
402.333	4.65
402.697	4.17
403.06	4.69
403.424	4.51
403.787	4.05
404.151	4.44
404.514	4.58
404.878	4.18
405.241	4.56
405.604	4.4
405.968	4.35
406.331	4.46
406.694	4.48
407.057	4.24
407.42	4.6
407.783	4.2
408.146	4.51
408.509	4.37
408.872	4.55
409.235	4.54
409.598	4.63
409.961	4.5
410.323	4.32
410.686	4.44
411.049	4.32
411.411	4.41
411.774	4.43
412.136	4.22
412.499	4.13
412.861	4.37
413.223	4.55
413.586	4.55
413.948	4.41
414.31	4.51
414.672	4.18
415.035	4.37
415.397	4.72
415.759	4.14
416.121	4.72
416.483	4.34
416.845	4.45
417.206	4.38
417.568	4.71
417.93	4.36
418.292	4.35
418.653	4.54
419.015	4.44
419.377	4.41
419.738	4.58
420.1	4.44
420.461	4.64
420.822	4.61
421.184	4.47
421.545	4.53
421.906	4.34
422.267	4.47
422.629	4.42
422.99	4.52
423.351	4.33
423.712	4.4
424.073	4.42
424.434	4.41
424.795	4.47
425.155	4.42
425.516	4.37
425.877	4.37
426.238	4.35
426.598	4.48
426.959	4.37
427.32	4.45
427.68	4.36
428.041	4.6
428.401	4.47
428.761	4.4
429.122	4.44
429.482	4.47
429.842	4.65
430.202	4.64
430.563	4.57
430.923	4.5
431.283	4.61
431.643	4.32
432.003	4.42
432.363	4.37
432.722	4.4
433.082	4.53
433.442	4.54
433.802	4.33
434.161	4.55
434.521	4.66
434.881	4.45
435.24	4.39
435.6	4.47
435.959	4.48
436.319	4.43
436.678	4.54
437.037	4.48
437.396	4.59
437.756	4.73
438.115	4.43
438.474	4.75
438.833	4.38
439.192	4.5
439.551	4.68
439.91	4.65
440.269	4.58
440.628	4.59
440.987	4.62
441.345	4.37
441.704	4.47
442.063	4.49
442.421	4.46
442.78	4.49
443.138	4.44
443.497	4.52
443.855	4.51
444.214	4.55
444.572	4.42
444.93	4.66
445.288	4.7
445.647	4.61
446.005	4.59
446.363	4.61
446.721	4.7
447.079	4.42
447.437	4.33
447.795	4.6
448.153	4.37
448.51	4.49
448.868	4.51
449.226	4.51
449.584	4.48
449.941	4.59
450.299	4.57
450.656	4.41
451.014	4.45
451.371	4.51
451.729	4.45
452.086	4.59
452.443	4.55
452.801	4.65
453.158	4.66
453.515	4.46
453.872	4.65
454.229	4.66
454.586	4.58
454.943	4.66
455.3	4.66
455.657	4.58
456.014	4.47
456.371	4.55
456.727	4.68
457.084	4.75
457.441	4.66
457.797	4.54
458.154	4.77
458.51	4.72
458.867	4.7
459.223	4.8
459.58	4.6
459.936	4.67
460.292	4.63
460.648	4.5
461.005	4.45
461.361	4.76
461.717	4.66
462.073	4.55
462.429	4.64
462.785	4.62
463.141	4.69
463.496	4.7
463.852	4.71
464.208	4.64
464.564	4.72
464.919	4.94
465.275	4.68
465.631	4.72
465.986	4.64
466.342	4.75
466.697	4.46
467.052	4.48
467.408	4.73
467.763	4.59
468.118	4.7
468.473	4.73
468.829	4.63
469.184	4.56
469.539	4.71
469.894	4.58
470.249	4.9
470.603	4.76
470.958	4.85
471.313	4.85
471.668	4.69
472.023	4.62
472.377	4.73
472.732	4.7
473.086	4.56
473.441	4.61
473.795	4.75
474.15	4.81
474.504	4.67
474.859	4.81
475.213	4.46
475.567	4.54
475.921	4.55
476.275	4.81
476.63	4.64
476.984	4.76
477.338	4.7
477.692	4.74
478.045	4.62
478.399	4.62
478.753	4.77
479.107	4.56
479.461	4.69
479.814	4.64
480.168	4.68
480.521	4.51
480.875	4.7
481.228	4.79
481.582	4.58
481.935	4.7
482.289	4.67
482.642	4.64
482.995	4.55
483.348	4.47
483.701	4.6
484.055	4.67
484.408	4.74
484.761	4.51
485.114	4.54
485.466	4.32
485.819	4.33
486.172	4.35
486.525	4.36
486.878	4.5
487.23	4.47
487.583	4.57
487.936	4.59
488.288	4.57
488.641	4.58
488.993	4.45
489.345	4.39
489.698	4.43
490.05	4.4
490.402	4.47
490.754	4.47
491.107	4.52
491.459	4.63
491.811	4.63
492.163	4.52
492.515	4.6
492.866	4.62
493.218	4.56
493.57	4.53
493.922	4.41
494.274	4.59
494.625	4.6
494.977	4.66
495.328	4.73
495.68	4.75
496.031	4.67
496.383	4.59
496.734	4.93
497.086	4.89
497.437	4.58
497.788	4.64
498.139	4.57
498.49	4.79
498.842	4.56
499.193	4.63
499.544	4.56
499.894	4.65
500.245	4.64
500.596	4.54
500.947	4.77
501.298	4.6
501.648	4.73
501.999	4.87
502.35	4.64
502.7	4.62
503.051	4.42
503.401	4.7
503.752	4.71
504.102	4.62
504.452	4.79
504.803	4.57
505.153	4.61
505.503	4.71
505.853	4.68
506.203	4.65
506.553	4.61
506.903	4.57
507.253	4.6
507.603	4.55
507.953	4.7
508.303	4.79
508.652	4.59
509.002	4.82
509.352	4.76
509.701	4.59
510.051	4.52
510.4	4.5
510.75	4.66
511.099	4.66
511.449	4.56
511.798	4.68
512.147	4.69
512.496	4.6
512.846	4.72
513.195	4.65
513.544	4.58
513.893	4.79
514.242	4.5
514.591	4.73
514.939	4.69
515.288	4.48
515.637	4.7
515.986	4.69
516.334	4.71
516.683	4.71
517.032	4.64
517.38	4.63
517.729	4.63
518.077	4.51
518.426	4.61
518.774	4.66
519.122	4.68
519.47	4.59
519.819	4.45
520.167	4.67
520.515	4.58
520.863	4.65
521.211	4.58
521.559	4.67
521.907	4.58
522.255	4.62
522.602	4.65
522.95	4.57
523.298	4.63
523.645	4.69
523.993	4.68
524.341	4.67
524.688	4.71
525.036	4.58
525.383	4.61
525.73	4.79
526.078	4.59
526.425	4.59
526.772	4.71
527.119	4.59
527.466	4.48
527.814	4.55
528.161	4.62
528.508	4.66
528.854	4.45
529.201	4.49
529.548	4.51
529.895	4.44
530.242	4.39
530.588	4.33
530.935	4.35
531.282	4.42
531.628	4.41
531.975	4.51
532.321	4.55
532.667	4.57
533.014	4.68
533.36	4.58
533.706	4.57
534.052	4.63
534.399	4.42
534.745	4.54
535.091	4.48
535.437	4.49
535.783	4.5
536.129	4.51
536.474	4.54
536.82	4.62
537.166	4.63
537.512	4.73
537.857	4.63
538.203	4.6
538.549	4.41
538.894	4.52
539.239	4.65
539.585	4.56
539.93	4.59
540.276	4.73
540.621	4.73
540.966	4.64
541.311	4.55
541.656	4.46
542.001	4.44
542.346	4.67
542.691	4.45
543.036	4.38
543.381	4.31
543.726	4.39
544.071	4.51
544.415	4.56
544.76	4.52
545.105	4.54
545.449	4.51
545.794	4.61
546.138	4.59
546.483	4.66
546.827	4.52
547.171	4.62
547.516	4.69
547.86	4.54
548.204	4.4
548.548	4.55
548.892	4.59
549.236	4.49
549.58	4.58
549.924	4.63
550.268	4.66
550.612	4.66
550.956	4.78
551.3	4.72
551.643	4.61
551.987	4.67
552.33	4.59
552.674	4.75
553.017	4.44
553.361	4.51
553.704	4.82
554.048	4.56
554.391	4.62
554.734	4.53
555.077	4.58
555.42	4.59
555.764	4.55
556.107	4.43
556.45	4.47
556.793	4.54
557.135	4.67
557.478	4.73
557.821	4.66
558.164	4.51
558.507	4.57
558.849	4.5
559.192	4.66
559.534	4.52
559.877	4.62
560.219	4.64
560.562	4.73
560.904	4.57
561.246	4.63
561.589	4.84
561.931	4.5
562.273	4.65
562.615	4.67
562.957	4.5
563.299	4.47
563.641	4.54
563.983	4.61
564.325	4.44
564.667	4.29
565.008	4.37
565.35	4.68
565.692	4.33
566.033	4.69
566.375	4.7
566.716	4.66
567.058	4.57
567.399	4.48
567.741	4.31
568.082	4.58
568.423	4.46
568.764	4.49
569.105	4.55
569.447	4.52
569.788	4.53
570.129	4.64
570.47	4.72
570.811	4.59
571.151	4.52
571.492	4.62
571.833	4.77
572.174	4.51
572.514	4.52
572.855	4.72
573.195	4.52
573.536	4.61
573.876	4.35
574.217	4.43
574.557	4.75
574.898	4.56
575.238	4.73
575.578	4.39
575.918	4.7
576.258	4.46
576.598	4.67
576.938	4.46
577.278	4.64
577.618	4.28
577.958	4.52
578.298	4.66
578.638	4.54
578.977	4.55
579.317	4.43
579.657	4.43
579.996	4.44
580.336	4.42
580.675	4.3
581.014	4.51
581.354	4.6
581.693	4.75
582.032	4.5
582.372	4.51
582.711	4.48
583.05	4.46
583.389	4.66
583.728	4.35
584.067	4.5
584.406	4.41
584.745	4.46
585.083	4.37
585.422	4.66
585.761	4.49
586.1	4.64
586.438	4.56
586.777	4.66
587.115	4.54
587.454	4.56
587.792	4.4
588.13	4.57
588.469	4.28
588.807	4.72
589.145	4.42
589.483	4.44
589.821	4.52
590.159	4.2
590.497	4.71
590.835	4.82
591.173	4.5
591.511	4.78
591.849	4.67
592.187	4.65
592.524	4.6
592.862	4.27
593.2	4.52
593.537	4.46
593.875	4.22
594.212	4.39
594.55	4.42
594.887	4.86
595.224	4.68
595.561	4.46
595.899	4.54
596.236	4.41
596.573	4.66
596.91	4.2
597.247	4.1
597.584	4.87
597.921	4.48
598.258	4.48
598.594	4.34
598.931	4.44
599.268	4.46
599.604	4.4
599.941	4.66
600.277	4.44
600.614	4.52
600.95	4.23
601.287	4.38
601.623	4.5
601.959	4.43
602.296	4.31
602.632	4.57
602.968	4.68
603.304	4.58
603.64	4.4
603.976	4.52
604.312	4.23
604.648	4.43
604.984	4.52
605.319	4.65
605.655	4.38
605.991	4.46
606.326	4.48
606.662	4.48
606.998	4.21
607.333	4.53
607.668	4.63
608.004	4.63
608.339	4.73
608.674	4.51
609.01	4.28
609.345	4.3
609.68	4.76
610.015	4.64
610.35	4.2
610.685	4.23
611.02	4.39
611.355	4.43
611.689	4.55
612.024	4.59
612.359	4.56
612.694	4.49
613.028	4.37
613.363	4.27
613.697	4.41
614.032	4.61
614.366	4.36
614.7	4.87
615.035	4.68
615.369	4.52
615.703	4.18
616.037	4.57
616.371	4.38
616.705	4.3
617.039	4.44
617.373	4.34
617.707	4.62
618.041	4.43
618.375	4.7
618.709	4.9
619.042	3.95
619.376	4.77
619.71	4.96
620.043	4.08
620.377	4.45
620.71	4.64
621.043	4.3
621.377	4.51
621.71	4.33
622.043	4.21
622.376	4.16
622.709	4.49
623.043	4.45
623.376	4.74
623.709	4.24
624.041	4.9
624.374	4.73
624.707	4.8
625.04	4.39
625.373	3.94
625.705	4.43
626.038	4.17
626.37	4.43
626.703	4.18
627.035	4.51
627.368	4.7
627.7	4.5
628.032	4.38
628.365	4.7
628.697	4.48
629.029	4.47
629.361	4.5
629.693	4.57
630.025	4.43
630.357	4.73
630.689	4.61
631.021	4.11
631.353	4.56
631.684	4.37
632.016	4.34
632.348	5.01
632.679	4.85
633.011	4.71
633.342	4.85
633.674	4.5
634.005	4.9
634.336	4.35
634.668	5.05
634.999	4.17
635.33	4.71
635.661	4.53
635.992	5.03
636.323	4.82
636.654	4.87
636.985	4.2
637.316	4.36
637.647	4.46
637.977	4.62
638.308	4.75
638.639	4.45
638.969	4.26
639.3	4.51
639.63	4.2
639.961	4.45
640.291	4.38
640.622	4.75
640.952	4.33
641.282	5.1
641.612	4.51
641.943	4.62
642.273	4.62
642.603	4.82
642.933	4.76
643.263	4.95
643.592	4.56
643.922	4.5
644.252	4.21
644.582	4.62
644.911	4.03
645.241	4.02
645.571	4.17
645.9	4.52
646.23	4.8
646.559	4.32
646.888	4.18
647.218	4.17
647.547	5.11
647.876	3.97
648.205	4.25
648.534	4.25
648.863	4.27
649.192	4.71
649.521	4.49
649.85	3.93
650.179	4.58
650.508	4.32
650.837	4.1
651.165	4.33
651.494	4.69
651.822	4.42
652.151	3.89
652.479	4.79
652.808	4.1
653.136	5.25
653.465	3.81
653.793	4.13
654.121	4.54
654.449	4.49
654.777	4.53
655.105	4.6
655.433	4.61
655.761	4.24
656.089	5
656.417	4.58
656.745	4.03
657.073	3.92
657.4	4.57
657.728	4.09
658.056	4.05
658.383	4.31
658.711	4.6
659.038	4.6
659.365	5.13
659.693	4.19
660.02	4.13
660.347	4.49
660.674	4.38
661.001	4.7
661.329	3.45
661.656	4.68
661.982	4.5
662.309	4.51
662.636	4.43
662.963	4.73
663.29	4.7
663.616	4.99
663.943	4.27
664.27	4.34
664.596	4.6
664.923	4.38
665.249	4.38
665.576	4.24
665.902	5.89
666.228	5.15
666.554	4.61
666.881	4.22
667.207	4.85
667.533	4.58
667.859	4.56
668.185	5.25
668.511	3.94
668.837	3.7
669.162	3.68
669.488	3.82
669.814	4.12
670.139	4.52
670.465	4.84
670.791	4.44
671.116	4.75
671.442	4.19
671.767	4.71
672.092	5.04
672.418	4.38
672.743	4.23
673.068	4.34
673.393	4.86
673.718	3.94
674.043	4.03
674.368	4.23
674.693	5.57
675.018	4.75
675.343	4.43
675.667	4.55
675.992	4.56
676.317	4.67
676.641	4.59
676.966	5.02
677.29	4.2
677.615	4.65
677.939	4.68
678.264	4.74
678.588	4.81
678.912	4.56
679.236	5.03
679.56	4.27
679.885	4.9
680.209	4.42
680.532	4.66
680.856	5.11
681.18	4.67
681.504	5.04
681.828	4.7
682.152	4.58
682.475	4.78
682.799	5.37
683.122	4.47
683.446	4.75
683.769	5.4
684.093	3.84
684.416	4.96
684.739	4.82
685.062	4.39
685.386	4.82
685.709	4.73
686.032	4.28
686.355	4.88
686.678	4.2
687.001	4.6
687.324	5.01
687.646	4.19
687.969	4.11
688.292	4.39
688.614	4.32
688.937	5.43
689.26	4.04
689.582	5.39
689.904	4.72
690.227	4.25
690.549	4.61
690.871	5.64
691.194	4.44
691.516	4.78
691.838	4.65
692.16	4.44
692.482	4.23
692.804	4.94
