Data from 0372_chest_Reflection__4__158.txt Node

Date: Fri Dec 15 18:02:16 CST 2023
User: ToomeyLab
Spectrometer: FLMS14357
Trigger mode: 0
Integration Time (sec): 1.000000E-2
Scans to average: 100
Electric dark correction enabled: true
Nonlinearity correction enabled: false
Boxcar width: 0
XAxis mode: Wavelengths
Number of Pixels in Spectrum: 2048
>>>>>Begin Spectral Data<<<<<
189.047	-208.24
189.435	-208.24
189.823	-208.24
190.211	371.44
190.599	-825.1
190.987	110.39
191.375	354.17
191.763	-64.33
192.151	100.84
192.538	215.5
192.926	-448.39
193.314	101.46
193.702	-2802.8
194.089	142.72
194.477	58.52
194.864	229.34
195.252	177.22
195.639	97.4
196.027	-82.23
196.414	159.45
196.801	3.84
197.189	47.21
197.576	673.33
197.963	-105.43
198.351	45.45
198.738	-0.09
199.125	-18.58
199.512	-15.79
199.899	20.91
200.286	47.51
200.673	-30.15
201.06	23.55
201.447	55.99
201.833	20.44
202.22	54.36
202.607	37.35
202.994	24.61
203.38	72.77
203.767	23.49
204.154	9.97
204.54	9.29
204.927	-8.79
205.313	8.4
205.699	89.04
206.086	46.89
206.472	31.67
206.858	28.85
207.245	-17.03
207.631	45.24
208.017	47.6
208.403	-4.17
208.789	14.1
209.175	24.45
209.561	26.55
209.947	16.27
210.333	-26.77
210.719	2.2
211.105	43.26
211.491	-13.38
211.876	42.66
212.262	15.31
212.648	-19.54
213.034	18.17
213.419	-2
213.805	-1.51
214.19	-13.53
214.576	-23.88
214.961	-8.49
215.346	-39.15
215.732	6.31
216.117	29.6
216.502	-7.37
216.888	47.01
217.273	9.36
217.658	-1.39
218.043	29.06
218.428	-25.82
218.813	-12.54
219.198	-11.04
219.583	10.47
219.968	5.77
220.353	4.55
220.738	32.39
221.122	16.73
221.507	-20.22
221.892	-58.78
222.276	-27.65
222.661	-5.74
223.046	10.26
223.43	11.66
223.815	3.21
224.199	-2.61
224.583	-8.24
224.968	1.07
225.352	15.93
225.736	1.79
226.121	-4.07
226.505	2.25
226.889	8.49
227.273	-0.9
227.657	9.62
228.041	7.21
228.425	1.02
228.809	1.29
229.193	2.67
229.577	2.5
229.961	1.29
230.344	1.24
230.728	1.81
231.112	2
231.495	1.07
231.879	2.06
232.263	1.33
232.646	4.07
233.03	3.34
233.413	1.88
233.797	2.12
234.18	0.08
234.563	0.24
234.946	1.29
235.33	2
235.713	2.91
236.096	1.89
236.479	3.46
236.862	1.1
237.245	4.68
237.628	2.89
238.011	2.58
238.394	3.14
238.777	3.11
239.16	0.69
239.543	4.66
239.925	2.25
240.308	2
240.691	4.9
241.073	3.41
241.456	0.96
241.838	1.52
242.221	1.24
242.603	1.89
242.986	2.83
243.368	1.64
243.75	2.09
244.133	1.79
244.515	2.32
244.897	1.95
245.279	2.59
245.661	1.65
246.043	1.4
246.425	0.27
246.807	2.65
247.189	3.39
247.571	1.9
247.953	2.04
248.335	1.88
248.717	2.04
249.098	1.71
249.48	1.54
249.862	1.62
250.243	1.81
250.625	1.52
251.006	1.78
251.388	0.22
251.769	0.86
252.151	2.06
252.532	1.09
252.913	2.04
253.295	1.33
253.676	1.5
254.057	1.98
254.438	1.78
254.819	1.14
255.2	1.41
255.581	1.94
255.962	1.17
256.343	2.26
256.724	2.56
257.105	1.67
257.486	1.56
257.867	1.79
258.247	0.94
258.628	1.09
259.009	1.58
259.389	2.63
259.77	1.82
260.15	1.21
260.531	0.5
260.911	1.91
261.292	1.47
261.672	1.91
262.052	1.71
262.432	1.8
262.813	1.59
263.193	1.75
263.573	1.1
263.953	0.71
264.333	1.94
264.713	1.43
265.093	1.61
265.473	1.77
265.853	0.59
266.233	1.76
266.612	0.04
266.992	0.17
267.372	1.97
267.752	1.7
268.131	1.44
268.511	1.82
268.89	2.41
269.27	1.15
269.649	1.26
270.029	1.27
270.408	2.48
270.787	1.34
271.167	1.98
271.546	2.09
271.925	0.92
272.304	1.71
272.683	2.39
273.062	1.23
273.441	1.89
273.82	1.02
274.199	1.63
274.578	1.62
274.957	1.36
275.336	1.56
275.715	1.34
276.093	1.74
276.472	1.7
276.851	1.79
277.229	1.51
277.608	0.95
277.986	1.78
278.365	1.77
278.743	1.62
279.122	1.7
279.5	1.4
279.878	1.82
280.257	1.28
280.635	1.17
281.013	1.79
281.391	2.15
281.769	2.12
282.147	2
282.525	2.32
282.903	1.52
283.281	2.22
283.659	1.68
284.037	1.58
284.415	1.91
284.792	2.63
285.17	1.38
285.548	1.6
285.925	1.66
286.303	1.76
286.68	1.32
287.058	1.66
287.435	1.59
287.813	1.45
288.19	1.61
288.567	1.52
288.945	2.03
289.322	1.78
289.699	1.81
290.076	1.69
290.453	1.3
290.83	1.39
291.207	1.88
291.584	1.61
291.961	1.83
292.338	1.5
292.715	2.02
293.092	1.8
293.469	1.56
293.845	1.92
294.222	1.29
294.599	1.77
294.975	1.82
295.352	1.59
295.728	1.34
296.105	2.03
296.481	2.43
296.858	1.79
297.234	1.77
297.61	1.54
297.986	1.67
298.363	2.14
298.739	1.94
299.115	1.61
299.491	1.72
299.867	1.59
300.243	1.97
300.619	1.7
300.995	1.69
301.371	1.86
301.746	1.98
302.122	2.1
302.498	1.37
302.874	1.56
303.249	2.06
303.625	2.04
304	2.41
304.376	1.82
304.751	1.53
305.127	2.07
305.502	1.22
305.878	1.14
306.253	2.04
306.628	2.57
307.003	1.7
307.378	2.63
307.754	1.5
308.129	0.93
308.504	1.45
308.879	2.1
309.254	2.26
309.629	1.99
310.003	1.69
310.378	2.27
310.753	2.37
311.128	1.91
311.502	2.43
311.877	1.99
312.252	1.75
312.626	1.97
313.001	1.7
313.375	1.99
313.75	1.67
314.124	2.37
314.498	1.96
314.873	2.03
315.247	1.42
315.621	2.05
315.995	1.63
316.369	1.34
316.743	1.38
317.117	2.58
317.491	1.43
317.865	2.27
318.239	2.18
318.613	1.93
318.987	2.34
319.361	1.41
319.734	2.4
320.108	1.87
320.482	1.66
320.855	1.96
321.229	1.65
321.602	1.93
321.976	1.82
322.349	1.35
322.723	1.86
323.096	2.54
323.469	1.86
323.843	2.03
324.216	2.08
324.589	2.01
324.962	1.6
325.335	1.74
325.708	2.04
326.081	2.16
326.454	1.99
326.827	2.12
327.2	1.74
327.573	2.65
327.945	2.25
328.318	1.6
328.691	1.24
329.063	2
329.436	1.69
329.809	2.26
330.181	2.05
330.553	2.19
330.926	2.29
331.298	1.96
331.671	1.21
332.043	2.14
332.415	2.02
332.787	2.01
333.159	2.43
333.532	2.53
333.904	1.14
334.276	1.62
334.648	2.09
335.02	2.41
335.391	1.5
335.763	1.69
336.135	2.12
336.507	1.97
336.879	1.88
337.25	1.3
337.622	1.99
337.993	2.07
338.365	1.52
338.736	2.39
339.108	1.99
339.479	2.13
339.851	1.9
340.222	2.4
340.593	1.98
340.964	1.84
341.336	2.51
341.707	1.73
342.078	1.99
342.449	2.42
342.82	1.87
343.191	1.89
343.562	2.02
343.933	2.42
344.303	1.96
344.674	1.77
345.045	2.24
345.416	2.42
345.786	1.96
346.157	2.01
346.527	1.68
346.898	1.44
347.268	2.02
347.639	2.09
348.009	1.82
348.38	1.7
348.75	1.89
349.12	2.04
349.49	2.21
349.861	2.26
350.231	1.9
350.601	2.2
350.971	2.08
351.341	2.17
351.711	2.01
352.081	2.37
352.45	1.85
352.82	2.73
353.19	1.86
353.56	1.94
353.929	2.13
354.299	1.77
354.669	2.32
355.038	2.17
355.408	2.01
355.777	2.17
356.147	2.16
356.516	2.2
356.885	1.84
357.254	2
357.624	2.46
357.993	2.45
358.362	1.92
358.731	1.99
359.1	2.34
359.469	1.92
359.838	2.2
360.207	1.99
360.576	2.15
360.945	2.08
361.314	2.55
361.682	1.95
362.051	2.13
362.42	2.29
362.788	2.1
363.157	2.2
363.525	2.43
363.894	2.21
364.262	2.2
364.631	2.25
364.999	2.02
365.367	1.73
365.735	2.92
366.104	2.4
366.472	2.39
366.84	1.68
367.208	2.07
367.576	2.32
367.944	2.24
368.312	2.05
368.68	1.97
369.048	2.29
369.416	2.26
369.783	1.92
370.151	2.01
370.519	2.56
370.886	2.37
371.254	2.35
371.621	2.71
371.989	2.33
372.356	1.75
372.724	2.38
373.091	1.89
373.458	2.03
373.826	1.92
374.193	2.04
374.56	2.04
374.927	2.45
375.294	2.03
375.661	2.17
376.028	1.82
376.395	2.04
376.762	2.47
377.129	2.31
377.496	1.94
377.863	2.23
378.229	1.47
378.596	2.06
378.963	1.99
379.329	2.12
379.696	2.48
380.062	2.11
380.429	2.41
380.795	2.07
381.161	2.36
381.528	2.49
381.894	2.32
382.26	1.87
382.626	2.02
382.993	2.15
383.359	2.63
383.725	2.21
384.091	1.92
384.457	2.27
384.823	2
385.188	2.19
385.554	2.26
385.92	2.6
386.286	2.3
386.651	2.25
387.017	2.44
387.383	2.29
387.748	2.31
388.114	2.56
388.479	1.8
388.845	2.61
389.21	2.43
389.575	2.6
389.94	2.4
390.306	2.44
390.671	2.33
391.036	1.77
391.401	1.9
391.766	2.08
392.131	1.98
392.496	2.47
392.861	2.25
393.226	2.3
393.591	2.26
393.956	2.28
394.32	2.33
394.685	2.07
395.05	2.41
395.414	2.22
395.779	2.2
396.143	2.37
396.508	2.36
396.872	2.29
397.236	2.32
397.601	2.48
397.965	2.24
398.329	2.25
398.694	2.39
399.058	2.27
399.422	2.07
399.786	2.67
400.15	2.37
400.514	2.31
400.878	2.24
401.242	2.66
401.605	2.63
401.969	2.3
402.333	2.3
402.697	2.35
403.06	2.26
403.424	2.34
403.787	2.21
404.151	2.47
404.514	2.22
404.878	2.28
405.241	2.51
405.604	2.28
405.968	2.42
406.331	2.4
406.694	2.45
407.057	2.28
407.42	2.57
407.783	2.27
408.146	2.5
408.509	2.11
408.872	2.14
409.235	2.45
409.598	2.92
409.961	2.3
410.323	2.5
410.686	2.15
411.049	2.29
411.411	2.37
411.774	2.55
412.136	2.33
412.499	2.17
412.861	2.29
413.223	2.36
413.586	2.36
413.948	2.53
414.31	2.43
414.672	2.37
415.035	2.36
415.397	2.42
415.759	2.46
416.121	2.44
416.483	2.37
416.845	2.37
417.206	2.3
417.568	2.42
417.93	2.2
418.292	2.47
418.653	2.35
419.015	2.26
419.377	2.16
419.738	2.49
420.1	2.34
420.461	2.32
420.822	2.47
421.184	2.29
421.545	2.45
421.906	2.22
422.267	2.33
422.629	2.32
422.99	2.36
423.351	2.23
423.712	2.35
424.073	2.38
424.434	2.29
424.795	2.32
425.155	2.4
425.516	2.29
425.877	2.28
426.238	2.31
426.598	2.38
426.959	2.34
427.32	2.31
427.68	2.35
428.041	2.22
428.401	2.35
428.761	2.46
429.122	2.53
429.482	2.36
429.842	2.55
430.202	2.5
430.563	2.47
430.923	2.41
431.283	2.57
431.643	2.41
432.003	2.32
432.363	2.5
432.722	2.51
433.082	2.45
433.442	2.49
433.802	2.32
434.161	2.48
434.521	2.56
434.881	2.55
435.24	2.3
435.6	2.49
435.959	2.48
436.319	2.19
436.678	2.5
437.037	2.28
437.396	2.46
437.756	2.43
438.115	2.54
438.474	2.74
438.833	2.58
439.192	2.46
439.551	2.54
439.91	2.54
440.269	2.39
440.628	2.37
440.987	2.44
441.345	2.26
441.704	2.5
442.063	2.37
442.421	2.44
442.78	2.4
443.138	2.36
443.497	2.42
443.855	2.42
444.214	2.51
444.572	2.53
444.93	2.4
445.288	2.54
445.647	2.58
446.005	2.58
446.363	2.52
446.721	2.58
447.079	2.39
447.437	2.49
447.795	2.59
448.153	2.27
448.51	2.44
448.868	2.47
449.226	2.42
449.584	2.46
449.941	2.56
450.299	2.55
450.656	2.41
451.014	2.6
451.371	2.62
451.729	2.47
452.086	2.8
452.443	2.49
452.801	2.8
453.158	2.59
453.515	2.41
453.872	2.58
454.229	2.43
454.586	2.4
454.943	2.55
455.3	2.57
455.657	2.55
456.014	2.56
456.371	2.52
456.727	2.56
457.084	2.82
457.441	2.56
457.797	2.6
458.154	2.85
458.51	2.62
458.867	2.54
459.223	2.79
459.58	2.53
459.936	2.91
460.292	2.57
460.648	2.51
461.005	2.53
461.361	2.69
461.717	2.49
462.073	2.46
462.429	2.51
462.785	2.53
463.141	2.52
463.496	2.71
463.852	2.81
464.208	2.48
464.564	2.73
464.919	2.7
465.275	2.58
465.631	2.69
465.986	2.64
466.342	2.78
466.697	2.5
467.052	2.58
467.408	2.74
467.763	2.57
468.118	2.61
468.473	2.59
468.829	2.72
469.184	2.76
469.539	2.63
469.894	2.6
470.249	2.75
470.603	2.89
470.958	2.67
471.313	2.71
471.668	2.88
472.023	2.67
472.377	2.63
472.732	2.67
473.086	2.69
473.441	2.49
473.795	2.81
474.15	2.69
474.504	2.73
474.859	2.78
475.213	2.67
475.567	2.58
475.921	2.57
476.275	2.78
476.63	2.73
476.984	2.95
477.338	2.8
477.692	2.53
478.045	2.62
478.399	2.55
478.753	2.85
479.107	2.66
479.461	2.65
479.814	2.73
480.168	2.67
480.521	2.66
480.875	2.73
481.228	2.85
481.582	2.89
481.935	2.65
482.289	2.76
482.642	2.72
482.995	2.6
483.348	2.63
483.701	2.72
484.055	2.74
484.408	2.85
484.761	2.6
485.114	2.57
485.466	2.51
485.819	2.49
486.172	2.5
486.525	2.57
486.878	2.61
487.23	2.64
487.583	2.72
487.936	2.68
488.288	2.66
488.641	2.7
488.993	2.66
489.345	2.61
489.698	2.62
490.05	2.61
490.402	2.7
490.754	2.68
491.107	2.8
491.459	2.76
491.811	2.75
492.163	2.79
492.515	2.78
492.866	2.81
493.218	2.73
493.57	2.61
493.922	2.69
494.274	2.77
494.625	2.88
494.977	2.81
495.328	2.9
495.68	2.88
496.031	3.04
496.383	2.87
496.734	3.01
497.086	2.81
497.437	2.97
497.788	2.94
498.139	2.69
498.49	2.91
498.842	2.8
499.193	2.84
499.544	2.87
499.894	2.9
500.245	2.9
500.596	2.89
500.947	3.08
501.298	2.9
501.648	3.04
501.999	2.98
502.35	2.96
502.7	3
503.051	2.83
503.401	2.8
503.752	3.01
504.102	2.96
504.452	2.95
504.803	2.79
505.153	2.87
505.503	2.98
505.853	3.02
506.203	2.86
506.553	2.88
506.903	3.03
507.253	2.96
507.603	2.86
507.953	3.1
508.303	3.16
508.652	2.88
509.002	3.06
509.352	3.08
509.701	3
510.051	3
510.4	2.96
510.75	3.04
511.099	3.03
511.449	3.02
511.798	2.96
512.147	3.01
512.496	2.9
512.846	3.07
513.195	3.03
513.544	3.05
513.893	3.04
514.242	3.03
514.591	3.29
514.939	3.11
515.288	3.06
515.637	3.15
515.986	3.01
516.334	3.19
516.683	3.19
517.032	3.01
517.38	3.21
517.729	3.15
518.077	3.04
518.426	3.1
518.774	3.17
519.122	3.06
519.47	3.05
519.819	3.11
520.167	3.09
520.515	3.1
520.863	3.16
521.211	3.13
521.559	3.23
521.907	3.16
522.255	3.17
522.602	3.25
522.95	3.27
523.298	3.2
523.645	3.32
523.993	3.19
524.341	3.22
524.688	3.31
525.036	3.2
525.383	3.24
525.73	3.54
526.078	3.13
526.425	3.19
526.772	3.37
527.119	3.21
527.466	3.16
527.814	3.25
528.161	3.27
528.508	3.28
528.854	3.28
529.201	3.15
529.548	3.24
529.895	3.21
530.242	3.08
530.588	3.13
530.935	3.17
531.282	3.19
531.628	3.23
531.975	3.29
532.321	3.35
532.667	3.37
533.014	3.33
533.36	3.42
533.706	3.32
534.052	3.37
534.399	3.24
534.745	3.33
535.091	3.27
535.437	3.29
535.783	3.35
536.129	3.34
536.474	3.36
536.82	3.48
537.166	3.51
537.512	3.57
537.857	3.53
538.203	3.42
538.549	3.38
538.894	3.37
539.239	3.59
539.585	3.56
539.93	3.46
540.276	3.65
540.621	3.66
540.966	3.58
541.311	3.44
541.656	3.48
542.001	3.6
542.346	3.57
542.691	3.45
543.036	3.49
543.381	3.43
543.726	3.45
544.071	3.55
544.415	3.68
544.76	3.56
545.105	3.62
545.449	3.64
545.794	3.64
546.138	3.71
546.483	3.77
546.827	3.85
547.171	3.81
547.516	3.83
547.86	3.73
548.204	3.71
548.548	3.71
548.892	3.76
549.236	3.78
549.58	3.65
549.924	3.83
550.268	3.93
550.612	3.93
550.956	4.15
551.3	3.94
551.643	4.26
551.987	4.07
552.33	4.06
552.674	4.13
553.017	4.06
553.361	3.89
553.704	4.24
554.048	3.96
554.391	3.96
554.734	4.07
555.077	4.01
555.42	4.03
555.764	4.07
556.107	4.01
556.45	3.92
556.793	3.99
557.135	3.86
557.478	4.35
557.821	4.25
558.164	4.23
558.507	4.15
558.849	4.15
559.192	4.36
559.534	4.16
559.877	4.42
560.219	4.29
560.562	4.56
560.904	4.34
561.246	4.55
561.589	4.19
561.931	4.27
562.273	4.2
562.615	4.39
562.957	4.26
563.299	4.26
563.641	4.39
563.983	4.32
564.325	4.36
564.667	4.32
565.008	4.37
565.35	4.46
565.692	4.28
566.033	4.48
566.375	4.57
566.716	4.75
567.058	4.59
567.399	4.44
567.741	4.35
568.082	4.33
568.423	4.6
568.764	4.43
569.105	4.65
569.447	4.72
569.788	4.57
570.129	4.65
570.47	4.61
570.811	4.72
571.151	4.59
571.492	4.8
571.833	4.61
572.174	4.78
572.514	4.83
572.855	4.88
573.195	4.83
573.536	4.71
573.876	4.7
574.217	4.71
574.557	5
574.898	4.86
575.238	4.93
575.578	4.85
575.918	4.97
576.258	4.97
576.598	4.92
576.938	4.86
577.278	4.95
577.618	4.94
577.958	4.83
578.298	4.82
578.638	5
578.977	4.84
579.317	5.05
579.657	4.97
579.996	5.06
580.336	5.12
580.675	5.39
581.014	5.1
581.354	5.15
581.693	5.31
582.032	5
582.372	5.24
582.711	5.29
583.05	4.96
583.389	5.3
583.728	5.07
584.067	5.49
584.406	5.37
584.745	5.22
585.083	5.63
585.422	5.56
585.761	5.5
586.1	5.43
586.438	5.48
586.777	5.6
587.115	5.35
587.454	5.53
587.792	5.69
588.13	5.79
588.469	5.54
588.807	5.53
589.145	5.56
589.483	5.46
589.821	5.7
590.159	5.67
590.497	5.99
590.835	6.17
591.173	5.9
591.511	6.25
591.849	5.99
592.187	5.9
592.524	5.72
592.862	5.9
593.2	6.02
593.537	5.97
593.875	5.9
594.212	5.91
594.55	6.06
594.887	6.1
595.224	5.66
595.561	5.87
595.899	5.98
596.236	6.04
596.573	6.2
596.91	5.67
597.247	5.89
597.584	6.52
597.921	5.99
598.258	6.06
598.594	6.1
598.931	6.07
599.268	6.38
599.604	6.24
599.941	6.37
600.277	6.4
600.614	6.26
600.95	6.07
601.287	6.36
601.623	6.26
601.959	6.27
602.296	6.51
602.632	6.26
602.968	6.48
603.304	6.87
603.64	6.66
603.976	6.75
604.312	6.61
604.648	6.64
604.984	6.64
605.319	6.69
605.655	6.69
605.991	6.62
606.326	6.84
606.662	6.66
606.998	6.43
607.333	6.92
607.668	6.61
608.004	6.99
608.339	7.18
608.674	7.22
609.01	7.13
609.345	6.82
609.68	7.02
610.015	6.98
610.35	6.96
610.685	6.98
611.02	7.11
611.355	7.15
611.689	7.13
612.024	6.99
612.359	6.93
612.694	7.33
613.028	7.18
613.363	7.38
613.697	7.64
614.032	7.5
614.366	7.32
614.7	7.43
615.035	7.44
615.369	7.23
615.703	7.6
616.037	7.29
616.371	7.47
616.705	7.41
617.039	7.44
617.373	7.67
617.707	7.72
618.041	7.37
618.375	7.56
618.709	8.15
619.042	7.78
619.376	7.82
619.71	8.07
620.043	7.59
620.377	7.61
620.71	7.85
621.043	7.59
621.377	8.14
621.71	8.04
622.043	7.7
622.376	7.76
622.709	8.01
623.043	8.04
623.376	8.02
623.709	7.95
624.041	8.27
624.374	7.98
624.707	8.13
625.04	8.44
625.373	7.44
625.705	8.2
626.038	8.44
626.37	8.27
626.703	8.29
627.035	8.6
627.368	8.79
627.7	8.6
628.032	8.12
628.365	8.43
628.697	8.72
629.029	8.26
629.361	8.34
629.693	8.75
630.025	8.6
630.357	8.94
630.689	8.76
631.021	8.53
631.353	8.77
631.684	8.27
632.016	8.52
632.348	9.01
632.679	9.05
633.011	9.02
633.342	9.01
633.674	8.73
634.005	9.37
634.336	8.89
634.668	9.68
634.999	8.8
635.33	9.3
635.661	9.37
635.992	8.88
636.323	9.39
636.654	9.54
636.985	9.04
637.316	8.95
637.647	9.17
637.977	9.88
638.308	9.21
638.639	8.51
638.969	9.29
639.3	9.14
639.63	9.19
639.961	9.45
640.291	9.73
640.622	10.25
640.952	9.33
641.282	9.72
641.612	9.39
641.943	9.2
642.273	9.94
642.603	9.93
642.933	10.08
643.263	10.26
643.592	9.59
643.922	9.67
644.252	9.85
644.582	10.31
644.911	9.9
645.241	9.45
645.571	10.39
645.9	9.44
646.23	10.24
646.559	10.53
646.888	9.69
647.218	10.07
647.547	10.52
647.876	9.63
648.205	10.18
648.534	10.29
648.863	9.91
649.192	10.48
649.521	10.41
649.85	10.14
650.179	10.24
650.508	10.53
650.837	10.3
651.165	10.17
651.494	10.87
651.822	10.05
652.151	10.51
652.479	10.54
652.808	10.04
653.136	10.69
653.465	10.02
653.793	10.55
654.121	10.35
654.449	10.97
654.777	10.68
655.105	10.98
655.433	10.36
655.761	10.55
656.089	11.06
656.417	11.27
656.745	10.69
657.073	10.65
657.4	11.61
657.728	11.16
658.056	11.4
658.383	10.93
658.711	11.27
659.038	11.24
659.365	11.8
659.693	11.4
660.02	11.32
660.347	11.67
660.674	11.38
661.001	11.54
661.329	10.91
661.656	11.13
661.982	11.88
662.309	11.45
662.636	11.24
662.963	12.28
663.29	11.71
663.616	11.78
663.943	11.18
664.27	11.38
664.596	12.29
664.923	11.96
665.249	11.74
665.576	11.36
665.902	12.84
666.228	12.46
666.554	12.4
666.881	11.62
667.207	12.07
667.533	11.95
667.859	12.34
668.185	12.57
668.511	10.83
668.837	11.7
669.162	12.73
669.488	11.94
669.814	13.03
670.139	12.87
670.465	12.77
670.791	12.68
671.116	13.01
671.442	12.56
671.767	12.71
672.092	13.14
672.418	13.22
672.743	12.97
673.068	12.94
673.393	12.6
673.718	12.4
674.043	12.59
674.368	12.75
674.693	13.6
675.018	12.71
675.343	12.68
675.667	12.69
675.992	13.51
676.317	13.9
676.641	13.58
676.966	13.21
677.29	12.5
677.615	13.42
677.939	13.84
678.264	13.64
678.588	13.86
678.912	13.83
679.236	14.39
679.56	13.1
679.885	13.26
680.209	13.06
680.532	14
680.856	14.33
681.18	12.91
681.504	14.28
681.828	14.28
682.152	13.2
682.475	13.44
682.799	13.55
683.122	13.85
683.446	13.67
683.769	14.29
684.093	13.41
684.416	14.51
684.739	14.15
685.062	13.95
685.386	14.86
685.709	14.32
686.032	14.27
686.355	14.17
686.678	13.87
687.001	14.27
687.324	14.53
687.646	13.8
687.969	13.9
688.292	14.22
688.614	14.12
688.937	15.3
689.26	14.09
689.582	14.56
689.904	15.27
