Data from 0372_chest_Reflection__0__154.txt Node

Date: Fri Dec 15 18:01:37 CST 2023
User: ToomeyLab
Spectrometer: FLMS14357
Trigger mode: 0
Integration Time (sec): 1.000000E-2
Scans to average: 100
Electric dark correction enabled: true
Nonlinearity correction enabled: false
Boxcar width: 0
XAxis mode: Wavelengths
Number of Pixels in Spectrum: 2048
>>>>>Begin Spectral Data<<<<<
189.047	-297.16
189.435	-297.16
189.823	-297.16
190.211	5.86
190.599	110.76
190.987	137.25
191.375	-65.36
191.763	203.8
192.151	72.69
192.538	162.74
192.926	-363.05
193.314	113.74
193.702	1665.42
194.089	-40.37
194.477	6.37
194.864	65.98
195.252	36.63
195.639	114.5
196.027	217.95
196.414	84.98
196.801	-197.38
197.189	184.8
197.576	3720
197.963	41.66
198.351	-106.49
198.738	-33.14
199.125	19.69
199.512	14.16
199.899	16.1
200.286	9.07
200.673	-11.03
201.06	-13.41
201.447	15.12
201.833	32.41
202.22	22.9
202.607	7.24
202.994	-17.5
203.38	62.66
203.767	3.37
204.154	-2.32
204.54	-2.11
204.927	-33.58
205.313	-45.71
205.699	7.56
206.086	31.41
206.472	32.69
206.858	21.95
207.245	-53.9
207.631	16.5
208.017	-25.53
208.403	-27.55
208.789	22.34
209.175	5.46
209.561	-40.29
209.947	-50.46
210.333	-58.98
210.719	-6.09
211.105	21.75
211.491	-22.43
211.876	7.29
212.262	-16.7
212.648	-11.98
213.034	7.13
213.419	-14.96
213.805	-12.87
214.19	-37.55
214.576	-1.5
214.961	-67.35
215.346	-45.34
215.732	-14.33
216.117	-7.63
216.502	10.64
216.888	-17.8
217.273	26.98
217.658	-12.44
218.043	6.32
218.428	-73.46
218.813	-37.65
219.198	-38.66
219.583	-30.68
219.968	5.12
220.353	-10.99
220.738	-2.43
221.122	13.49
221.507	-30.52
221.892	-22.86
222.276	-27.19
222.661	25.08
223.046	9.5
223.43	14.54
223.815	14.74
224.199	-11.19
224.583	-8.62
224.968	-7.62
225.352	14.31
225.736	-2.9
226.121	-8.17
226.505	3.28
226.889	7.46
227.273	2.03
227.657	3.78
228.041	-4.77
228.425	1.05
228.809	2.25
229.193	5.37
229.577	1.12
229.961	3.78
230.344	2.8
230.728	2.61
231.112	3.81
231.495	3.36
231.879	2.13
232.263	4.81
232.646	4.01
233.03	4.98
233.413	2.75
233.797	2.61
234.18	2.44
234.563	4.98
234.946	1.56
235.33	5.41
235.713	2.34
236.096	2.43
236.479	2.79
236.862	2.41
237.245	4.58
237.628	2.94
238.011	3.05
238.394	5.28
238.777	2.45
239.16	0.75
239.543	1.87
239.925	4.52
240.308	3.9
240.691	5.33
241.073	3.94
241.456	2.67
241.838	2.59
242.221	1.75
242.603	3.62
242.986	3.79
243.368	3.51
243.75	4.28
244.133	3.59
244.515	4.07
244.897	4.29
245.279	4.06
245.661	4.32
246.043	2.24
246.425	2.27
246.807	5.08
247.189	3.13
247.571	4.17
247.953	4.29
248.335	3.99
248.717	4.41
249.098	4.03
249.48	4.38
249.862	4.16
250.243	4.4
250.625	4.19
251.006	3.83
251.388	3.1
251.769	3.7
252.151	4.49
252.532	4.79
252.913	3.18
253.295	3.21
253.676	4.24
254.057	3.87
254.438	4.19
254.819	3.39
255.2	3.12
255.581	3.74
255.962	3.27
256.343	4.81
256.724	4
257.105	2.81
257.486	3.9
257.867	4.37
258.247	4.14
258.628	4.02
259.009	3.84
259.389	4.49
259.77	3.56
260.15	2.93
260.531	3.3
260.911	4.63
261.292	3.92
261.672	4.14
262.052	3.9
262.432	4.1
262.813	4.14
263.193	3.54
263.573	3.77
263.953	3.26
264.333	4.1
264.713	4.42
265.093	3.82
265.473	3.68
265.853	2.64
266.233	4
266.612	2.38
266.992	2.48
267.372	3.51
267.752	3.63
268.131	3.46
268.511	5.07
268.89	4.33
269.27	3.51
269.649	3.3
270.029	3.5
270.408	4.52
270.787	3.72
271.167	3.69
271.546	3.94
271.925	2.95
272.304	3.47
272.683	3.58
273.062	3.55
273.441	3.78
273.82	3.86
274.199	3.78
274.578	3.7
274.957	3.63
275.336	3.45
275.715	3.27
276.093	3.97
276.472	3.82
276.851	2.79
277.229	2.45
277.608	2.72
277.986	3.31
278.365	4.27
278.743	3.47
279.122	4.31
279.5	4.17
279.878	3.8
280.257	3.51
280.635	2.99
281.013	3.24
281.391	4.88
281.769	3.94
282.147	3.15
282.525	3.72
282.903	3.32
283.281	3.58
283.659	3.82
284.037	4.14
284.415	4.15
284.792	4.08
285.17	3.03
285.548	3.41
285.925	3.84
286.303	4.03
286.68	3.29
287.058	3.72
287.435	3.3
287.813	3.75
288.19	3.55
288.567	3.32
288.945	4.16
289.322	3.76
289.699	3.43
290.076	3.73
290.453	3.72
290.83	3.59
291.207	3.39
291.584	3.95
291.961	4.07
292.338	3.59
292.715	4.35
293.092	3.67
293.469	3.91
293.845	4.41
294.222	3.93
294.599	4.08
294.975	3.36
295.352	4.43
295.728	3.61
296.105	3.92
296.481	4.11
296.858	3.86
297.234	4.05
297.61	3.77
297.986	4.01
298.363	4.6
298.739	4.2
299.115	4.46
299.491	4.36
299.867	4.54
300.243	4.31
300.619	3.94
300.995	4.24
301.371	4.41
301.746	4.37
302.122	4.79
302.498	4
302.874	4.8
303.249	4.11
303.625	4.39
304	4.62
304.376	4.58
304.751	3.39
305.127	4.89
305.502	4.59
305.878	3.77
306.253	4.67
306.628	5.27
307.003	4.5
307.378	4.97
307.754	4.68
308.129	4.11
308.504	4.06
308.879	4.49
309.254	5.45
309.629	5.02
310.003	4.88
310.378	5.12
310.753	5.1
311.128	4.62
311.502	4.36
311.877	5.03
312.252	4.39
312.626	4.74
313.001	4.66
313.375	5.08
313.75	4.51
314.124	5.04
314.498	4.92
314.873	4.19
315.247	4.38
315.621	4.46
315.995	3.88
316.369	4.74
316.743	4.84
317.117	5.26
317.491	4.59
317.865	4.68
318.239	4.52
318.613	5.1
318.987	4.76
319.361	3.98
319.734	5.35
320.108	4.97
320.482	4.95
320.855	4.94
321.229	3.98
321.602	4.91
321.976	5.63
322.349	4.49
322.723	4.22
323.096	5.29
323.469	4.44
323.843	4.49
324.216	5.37
324.589	4.66
324.962	5.3
325.335	4.49
325.708	4.33
326.081	4.97
326.454	5.28
326.827	4.5
327.2	4.81
327.573	5.07
327.945	4.91
328.318	4.3
328.691	4.22
329.063	5.29
329.436	5.03
329.809	4.51
330.181	4.63
330.553	4.45
330.926	5.02
331.298	4.7
331.671	4.85
332.043	5.61
332.415	5.1
332.787	5.11
333.159	5.58
333.532	4.9
333.904	4.68
334.276	5.06
334.648	5.57
335.02	5.26
335.391	4.94
335.763	4.8
336.135	5.16
336.507	5.07
336.879	5.91
337.25	4.63
337.622	5.1
337.993	4.85
338.365	4.94
338.736	5.18
339.108	5.17
339.479	4.24
339.851	4.82
340.222	5.04
340.593	5.14
340.964	4.91
341.336	6.08
341.707	4.49
342.078	5.24
342.449	5.39
342.82	5.15
343.191	5.25
343.562	5.25
343.933	5.63
344.303	5.02
344.674	4.7
345.045	5.14
345.416	5.65
345.786	4.33
346.157	5.17
346.527	4.6
346.898	4.72
347.268	5.22
347.639	4.73
348.009	4.98
348.38	4.93
348.75	4.87
349.12	4.7
349.49	5.77
349.861	5.27
350.231	4.63
350.601	5.14
350.971	5.66
351.341	5.17
351.711	4.81
352.081	5.45
352.45	5
352.82	5.39
353.19	5.14
353.56	5.09
353.929	5.75
354.299	5.21
354.669	4.95
355.038	5.37
355.408	4.91
355.777	5.19
356.147	5.27
356.516	5.28
356.885	5.29
357.254	5.48
357.624	5.55
357.993	5.39
358.362	5.01
358.731	4.86
359.1	4.91
359.469	5.23
359.838	5.43
360.207	4.99
360.576	4.93
360.945	5.26
361.314	5.66
361.682	5.06
362.051	5.28
362.42	5.41
362.788	5.35
363.157	5.27
363.525	5.71
363.894	5.32
364.262	5.5
364.631	5.34
364.999	5.6
365.367	4.84
365.735	6.14
366.104	5.36
366.472	5.3
366.84	5.2
367.208	4.77
367.576	5.82
367.944	5.78
368.312	5.24
368.68	5.21
369.048	5.42
369.416	5.56
369.783	5.15
370.151	5.44
370.519	5.64
370.886	5.18
371.254	5.3
371.621	5.75
371.989	5.52
372.356	5
372.724	5.59
373.091	5.23
373.458	5.35
373.826	5.38
374.193	5.26
374.56	5.66
374.927	5.42
375.294	5.75
375.661	5.17
376.028	5.13
376.395	5.25
376.762	5.75
377.129	5.33
377.496	5.66
377.863	5.67
378.229	5.32
378.596	5.38
378.963	5.34
379.329	5.11
379.696	5.57
380.062	5.5
380.429	5.33
380.795	5.35
381.161	5.5
381.528	5.76
381.894	5.27
382.26	5.61
382.626	5.66
382.993	5.18
383.359	5.83
383.725	5.52
384.091	5.79
384.457	5.97
384.823	5.41
385.188	5.63
385.554	5.81
385.92	5.81
386.286	5.7
386.651	5.78
387.017	6
387.383	5.41
387.748	5.57
388.114	5.77
388.479	5.6
388.845	5.88
389.21	5.76
389.575	5.75
389.94	5.36
390.306	5.77
390.671	5.76
391.036	5.36
391.401	5.4
391.766	5.58
392.131	5.78
392.496	5.89
392.861	5.22
393.226	5.74
393.591	5.78
393.956	5.57
394.32	5.29
394.685	5.63
395.05	5.82
395.414	5.48
395.779	5.57
396.143	5.71
396.508	5.59
396.872	5.67
397.236	5.63
397.601	5.57
397.965	5.68
398.329	5.81
398.694	5.88
399.058	5.72
399.422	5.55
399.786	5.75
400.15	5.69
400.514	5.81
400.878	5.68
401.242	5.98
401.605	5.78
401.969	5.65
402.333	5.91
402.697	5.73
403.06	5.62
403.424	5.91
403.787	5.8
404.151	5.89
404.514	5.9
404.878	5.53
405.241	5.78
405.604	5.75
405.968	5.9
406.331	5.87
406.694	5.97
407.057	5.82
407.42	5.79
407.783	5.51
408.146	5.74
408.509	5.87
408.872	5.79
409.235	5.96
409.598	5.99
409.961	5.92
410.323	5.99
410.686	5.78
411.049	5.84
411.411	5.71
411.774	5.92
412.136	5.77
412.499	5.8
412.861	5.98
413.223	6.1
413.586	6.09
413.948	5.68
414.31	5.81
414.672	5.65
415.035	5.77
415.397	6.23
415.759	5.45
416.121	6.3
416.483	6.06
416.845	6.04
417.206	5.94
417.568	6.05
417.93	5.84
418.292	5.86
418.653	5.98
419.015	5.91
419.377	5.85
419.738	6.06
420.1	5.76
420.461	5.89
420.822	5.87
421.184	5.9
421.545	6.06
421.906	5.78
422.267	6.04
422.629	5.88
422.99	5.88
423.351	5.86
423.712	5.96
424.073	5.88
424.434	5.84
424.795	5.91
425.155	6.02
425.516	5.78
425.877	6
426.238	5.89
426.598	5.97
426.959	5.94
427.32	5.85
427.68	6.01
428.041	5.82
428.401	6.02
428.761	5.96
429.122	5.91
429.482	5.75
429.842	6.1
430.202	6.15
430.563	6.07
430.923	6.04
431.283	6.1
431.643	5.89
432.003	6.07
432.363	6.15
432.722	6.09
433.082	6.05
433.442	6.2
433.802	6
434.161	6.1
434.521	6.29
434.881	6.21
435.24	6.08
435.6	6.11
435.959	6.08
436.319	5.96
436.678	6.19
437.037	6.12
437.396	6.11
437.756	6.31
438.115	6.06
438.474	6.18
438.833	6.04
439.192	6.04
439.551	6.39
439.91	6.01
440.269	6.2
440.628	6.08
440.987	6.17
441.345	6.11
441.704	6.1
442.063	6.08
442.421	6.14
442.78	6.16
443.138	6.12
443.497	6.13
443.855	6.12
444.214	6.15
444.572	6.23
444.93	6.19
445.288	6.29
445.647	6.36
446.005	6.11
446.363	6.28
446.721	6.39
447.079	5.98
447.437	6.17
447.795	6.27
448.153	6.14
448.51	6.19
448.868	6.22
449.226	6.13
449.584	6.14
449.941	6.2
450.299	6.26
450.656	6.22
451.014	6.2
451.371	6.16
451.729	6.14
452.086	6.37
452.443	6.16
452.801	6.32
453.158	6.21
453.515	6.23
453.872	6.44
454.229	6.23
454.586	6.3
454.943	6.42
455.3	6.46
455.657	6.33
456.014	6.32
456.371	6.39
456.727	6.4
457.084	6.56
457.441	6.4
457.797	6.29
458.154	6.59
458.51	6.48
458.867	6.6
459.223	6.45
459.58	6.43
459.936	6.41
460.292	6.48
460.648	6.52
461.005	6.3
461.361	6.6
461.717	6.51
462.073	6.33
462.429	6.38
462.785	6.39
463.141	6.44
463.496	6.39
463.852	6.69
464.208	6.63
464.564	6.56
464.919	6.59
465.275	6.65
465.631	6.64
465.986	6.71
466.342	6.62
466.697	6.53
467.052	6.68
467.408	6.77
467.763	6.48
468.118	6.55
468.473	6.65
468.829	6.59
469.184	6.41
469.539	6.54
469.894	6.38
470.249	6.53
470.603	6.54
470.958	6.63
471.313	6.74
471.668	6.88
472.023	6.48
472.377	6.59
472.732	6.49
473.086	6.49
473.441	6.54
473.795	6.86
474.15	6.72
474.504	6.74
474.859	6.76
475.213	6.56
475.567	6.66
475.921	6.48
476.275	6.66
476.63	6.75
476.984	6.86
477.338	6.94
477.692	6.46
478.045	6.8
478.399	6.79
478.753	6.84
479.107	6.71
479.461	6.65
479.814	6.89
480.168	6.66
480.521	6.76
480.875	6.68
481.228	6.74
481.582	6.68
481.935	6.74
482.289	6.84
482.642	6.82
482.995	6.85
483.348	6.7
483.701	6.83
484.055	6.76
484.408	6.95
484.761	6.76
485.114	6.71
485.466	6.52
485.819	6.48
486.172	6.5
486.525	6.47
486.878	6.5
487.23	6.57
487.583	6.71
487.936	6.71
488.288	6.78
488.641	6.79
488.993	6.63
489.345	6.66
489.698	6.65
490.05	6.65
490.402	6.69
490.754	6.67
491.107	6.75
491.459	6.84
491.811	6.85
492.163	6.9
492.515	6.84
492.866	6.93
493.218	6.88
493.57	6.82
493.922	6.76
494.274	6.83
494.625	6.89
494.977	6.9
495.328	6.99
495.68	7.04
496.031	7.06
496.383	7.16
496.734	7.39
497.086	7.19
497.437	7.19
497.788	7.17
498.139	7.02
498.49	7.12
498.842	7.03
499.193	7.17
499.544	7.1
499.894	7.13
500.245	7.16
500.596	7.27
500.947	7.13
501.298	7.08
501.648	7.25
501.999	7.35
502.35	7.28
502.7	7.3
503.051	7.02
503.401	7.13
503.752	7.26
504.102	7.23
504.452	7.22
504.803	7.19
505.153	7.29
505.503	7.27
505.853	7.26
506.203	7.33
506.553	7.29
506.903	7.39
507.253	7.33
507.603	7.41
507.953	7.41
508.303	7.56
508.652	7.53
509.002	7.44
509.352	7.55
509.701	7.42
510.051	7.42
510.4	7.45
510.75	7.45
511.099	7.48
511.449	7.38
511.798	7.43
512.147	7.52
512.496	7.54
512.846	7.48
513.195	7.54
513.544	7.55
513.893	7.56
514.242	7.71
514.591	7.76
514.939	7.53
515.288	7.65
515.637	7.74
515.986	7.76
516.334	7.92
516.683	7.81
517.032	7.67
517.38	7.77
517.729	7.81
518.077	7.71
518.426	7.76
518.774	7.89
519.122	7.79
519.47	7.82
519.819	7.64
520.167	7.82
520.515	7.79
520.863	7.81
521.211	7.79
521.559	7.8
521.907	7.81
522.255	7.82
522.602	7.84
522.95	7.87
523.298	8.08
523.645	8.01
523.993	8.02
524.341	7.99
524.688	8.1
525.036	8.02
525.383	8.04
525.73	8.08
526.078	8.14
526.425	8.02
526.772	8.23
527.119	8.15
527.466	8.1
527.814	8.12
528.161	8.01
528.508	8.06
528.854	8.2
529.201	8.1
529.548	8.08
529.895	8.1
530.242	7.94
530.588	7.95
530.935	7.98
531.282	7.99
531.628	7.95
531.975	8.04
532.321	8.18
532.667	8.22
533.014	8.25
533.36	8.39
533.706	8.29
534.052	8.33
534.399	8.36
534.745	8.3
535.091	8.38
535.437	8.44
535.783	8.39
536.129	8.34
536.474	8.45
536.82	8.51
537.166	8.62
537.512	8.62
537.857	8.68
538.203	8.62
538.549	8.62
538.894	8.61
539.239	8.67
539.585	8.73
539.93	8.65
540.276	8.83
540.621	8.82
540.966	8.7
541.311	8.85
541.656	8.9
542.001	8.78
542.346	9.05
542.691	8.89
543.036	8.81
543.381	8.76
543.726	8.82
544.071	8.86
544.415	8.87
544.76	8.93
545.105	8.94
545.449	9.07
545.794	9.12
546.138	9.11
546.483	9.21
546.827	9.16
547.171	9.26
547.516	9.4
547.86	9.28
548.204	9.29
548.548	9.32
548.892	9.35
549.236	9.29
549.58	9.35
549.924	9.34
550.268	9.4
550.612	9.64
550.956	9.8
551.3	9.56
551.643	9.82
551.987	9.74
552.33	9.68
552.674	9.69
553.017	9.65
553.361	9.72
553.704	9.75
554.048	9.92
554.391	9.85
554.734	9.73
555.077	9.95
555.42	9.84
555.764	9.76
556.107	9.83
556.45	9.81
556.793	9.73
557.135	9.92
557.478	10.08
557.821	10.29
558.164	10.12
558.507	10.07
558.849	10.05
559.192	10.5
559.534	10.13
559.877	10.48
560.219	10.24
560.562	10.44
560.904	10.68
561.246	10.49
561.589	10.47
561.931	10.56
562.273	10.37
562.615	10.71
562.957	10.44
563.299	10.38
563.641	10.5
563.983	10.73
564.325	10.55
564.667	10.86
565.008	10.58
565.35	10.78
565.692	10.68
566.033	10.69
566.375	11.1
566.716	11.04
567.058	10.9
567.399	10.99
567.741	10.77
568.082	10.99
568.423	11
568.764	10.87
569.105	11.06
569.447	11.2
569.788	11.17
570.129	11.31
570.47	11.25
570.811	11.45
571.151	11.33
571.492	11.35
571.833	11.36
572.174	11.23
572.514	11.47
572.855	11.48
573.195	11.55
573.536	11.59
573.876	11.38
574.217	11.6
574.557	11.55
574.898	11.75
575.238	11.79
575.578	11.55
575.918	11.88
576.258	11.83
576.598	11.94
576.938	11.78
577.278	11.83
577.618	12
577.958	11.99
578.298	11.98
578.638	11.89
578.977	12.09
579.317	12.03
579.657	12.12
579.996	12.32
580.336	12.24
580.675	12.33
581.014	12.58
581.354	12.45
581.693	12.42
582.032	12.19
582.372	12.23
582.711	12.46
583.05	12.44
583.389	12.66
583.728	12.6
584.067	13.03
584.406	12.78
584.745	12.97
585.083	12.89
585.422	12.82
585.761	12.87
586.1	13.33
586.438	12.69
586.777	13.2
587.115	13
587.454	12.85
587.792	13.18
588.13	13.52
588.469	13.38
588.807	13.13
589.145	13.29
589.483	13.02
589.821	13.08
590.159	13.24
590.497	13.73
590.835	13.84
591.173	13.63
591.511	13.7
591.849	13.6
592.187	13.44
592.524	13.75
592.862	13.69
593.2	13.88
593.537	13.6
593.875	13.44
594.212	13.71
594.55	14.03
594.887	14.18
595.224	13.99
595.561	14.02
595.899	13.82
596.236	14.17
596.573	14.18
596.91	13.93
597.247	14.02
597.584	14.5
597.921	14.48
598.258	14.17
598.594	14.24
598.931	14.44
599.268	14.53
599.604	14.23
599.941	14.43
600.277	14.47
600.614	14.34
600.95	14.29
601.287	14.8
601.623	14.67
601.959	14.7
602.296	14.96
602.632	14.69
602.968	14.9
603.304	15.21
603.64	15.08
603.976	15.09
604.312	14.75
604.648	14.85
604.984	15.29
605.319	15.3
605.655	15.16
605.991	15.46
606.326	15.2
606.662	15.24
606.998	15.3
607.333	15.54
607.668	15.4
608.004	15.46
608.339	15.71
608.674	15.59
609.01	15.36
609.345	15.65
609.68	15.59
610.015	15.69
610.35	15.9
610.685	15.88
611.02	15.71
611.355	16.13
611.689	15.84
612.024	15.92
612.359	15.85
612.694	16.27
613.028	16.05
613.363	16.71
613.697	16.2
614.032	16.19
614.366	16.2
614.7	16.28
615.035	16.68
615.369	16.42
615.703	16.48
616.037	16.82
616.371	16.47
616.705	16.51
617.039	16.63
617.373	16.63
617.707	16.91
618.041	16.92
618.375	17.08
618.709	17.39
619.042	16.99
619.376	17.22
619.71	17.41
620.043	17.08
620.377	17.2
620.71	17.24
621.043	16.98
621.377	17.06
621.71	17.33
622.043	17.61
622.376	16.93
622.709	17.46
623.043	17.65
623.376	17.31
623.709	17.46
624.041	18.04
624.374	17.92
624.707	18.04
625.04	17.99
625.373	17.85
625.705	17.89
626.038	17.68
626.37	18.11
626.703	17.92
627.035	17.8
627.368	18.4
627.7	18.1
628.032	18.31
628.365	18.52
628.697	18.18
629.029	18.09
629.361	17.93
629.693	18.45
630.025	18.44
630.357	18.71
630.689	18.63
631.021	18.45
631.353	18.64
631.684	18.27
632.016	18.42
632.348	18.95
632.679	18.75
633.011	18.81
633.342	19.09
633.674	19.1
634.005	19.42
634.336	19.02
634.668	19.76
634.999	19.09
635.33	19.17
635.661	19.17
635.992	19.16
636.323	19.25
636.654	19.87
636.985	19.28
637.316	19.37
637.647	19.35
637.977	19.5
638.308	19.11
638.639	19.23
638.969	19.35
639.3	19.3
639.63	19.33
639.961	19.86
640.291	19.43
640.622	20.22
640.952	19.91
641.282	19.58
641.612	20.1
641.943	19.84
642.273	20.35
642.603	20.28
642.933	20.2
643.263	19.87
643.592	20.02
643.922	20.08
644.252	20.12
644.582	20.48
644.911	20.24
645.241	20.23
645.571	20.53
645.9	19.72
646.23	20.22
646.559	21.08
646.888	20.51
647.218	20.58
647.547	20.55
647.876	20.82
648.205	20.31
648.534	20.41
648.863	20.46
649.192	21.01
649.521	20.78
649.85	20.66
650.179	21.41
650.508	21.23
650.837	21
651.165	21.22
651.494	21.47
651.822	21.24
652.151	20.83
652.479	20.69
652.808	20.77
653.136	21.49
653.465	20.74
653.793	20.98
654.121	21.36
654.449	21.56
654.777	21.7
655.105	21.91
655.433	21.28
655.761	22.09
656.089	21.79
656.417	22.12
656.745	21.65
657.073	21.41
657.4	22.54
657.728	21.51
658.056	22.02
658.383	21.95
658.711	21.36
659.038	22.2
659.365	22.64
659.693	22.94
660.02	22.52
660.347	22.33
660.674	22.78
661.001	22.66
661.329	22.42
661.656	22.15
661.982	22.58
662.309	22.31
662.636	22.37
662.963	22.95
663.29	22.91
663.616	23.01
663.943	22.33
664.27	22.96
664.596	23.23
664.923	23.2
665.249	22.94
665.576	23.31
665.902	23.62
666.228	23.02
666.554	23.53
666.881	22.88
667.207	23.58
667.533	22.92
667.859	23.37
668.185	23.39
668.511	22.48
668.837	22.72
669.162	23.79
669.488	23.41
669.814	24.16
670.139	24.06
670.465	23.78
670.791	24.59
671.116	24.7
671.442	23.78
671.767	23.66
672.092	24.54
672.418	23.95
672.743	23.99
673.068	23.15
673.393	24.23
673.718	24.01
674.043	24.32
674.368	23.86
674.693	24.89
675.018	24.2
675.343	24.22
675.667	24.38
675.992	24.4
676.317	24.57
676.641	24.67
676.966	24.74
677.29	24.74
677.615	24.52
677.939	25.39
678.264	25.7
678.588	25.04
678.912	24.86
679.236	25
679.56	24.82
679.885	25.29
680.209	25.42
680.532	25.32
680.856	25.24
681.18	25.77
681.504	25.6
681.828	26.22
682.152	24.9
682.475	26.17
682.799	25.5
683.122	25.67
683.446	25.33
683.769	26.28
