Data from 0372_chest_Reflection__2__156.txt Node

Date: Fri Dec 15 18:01:55 CST 2023
User: ToomeyLab
Spectrometer: FLMS14357
Trigger mode: 0
Integration Time (sec): 1.000000E-2
Scans to average: 100
Electric dark correction enabled: true
Nonlinearity correction enabled: false
Boxcar width: 0
XAxis mode: Wavelengths
Number of Pixels in Spectrum: 2048
>>>>>Begin Spectral Data<<<<<
189.047	-125.97
189.435	-125.97
189.823	-125.97
190.211	145.13
190.599	-2249.8
190.987	232.3
191.375	290.58
191.763	109.12
192.151	10.67
192.538	142.3
192.926	576.83
193.314	234.73
193.702	1885.05
194.089	180.86
194.477	47.6
194.864	134.99
195.252	68.93
195.639	171.93
196.027	160.74
196.414	46.89
196.801	-508.25
197.189	-5.81
197.576	-49.09
197.963	54.83
198.351	-0.88
198.738	46.6
199.125	43.74
199.512	0.37
199.899	50.48
200.286	42.53
200.673	-29.08
201.06	30.13
201.447	49.6
201.833	18.52
202.22	23.69
202.607	59.11
202.994	-12.25
203.38	111.52
203.767	22.63
204.154	34.21
204.54	25.95
204.927	31.21
205.313	-68.27
205.699	7.51
206.086	27.9
206.472	30.37
206.858	24.05
207.245	-30.72
207.631	16.47
208.017	29.86
208.403	24.15
208.789	57.22
209.175	14.12
209.561	0.18
209.947	42.7
210.333	-32.87
210.719	5.21
211.105	37.21
211.491	-28.14
211.876	27.5
212.262	5.45
212.648	9.55
213.034	51.56
213.419	-25.71
213.805	-3.68
214.19	17.07
214.576	20.99
214.961	16.43
215.346	-85.04
215.732	5.74
216.117	-3.93
216.502	19.44
216.888	7.56
217.273	16.99
217.658	-19.07
218.043	24.66
218.428	-29.8
218.813	-7.98
219.198	-48.19
219.583	-7.33
219.968	11.15
220.353	5.01
220.738	15.31
221.122	21.4
221.507	-25.94
221.892	-25.91
222.276	3.35
222.661	-7.79
223.046	24.02
223.43	11.28
223.815	11.78
224.199	-3.23
224.583	8.18
224.968	-0.41
225.352	11.33
225.736	9.32
226.121	-10.7
226.505	1.62
226.889	5.7
227.273	4.03
227.657	7.15
228.041	6.29
228.425	2.92
228.809	5.61
229.193	4.45
229.577	0.37
229.961	4.4
230.344	2.84
230.728	3.48
231.112	4.88
231.495	3.55
231.879	2.98
232.263	4.53
232.646	2.84
233.03	4.65
233.413	2.71
233.797	2.69
234.18	4.35
234.563	5.77
234.946	3.17
235.33	5.12
235.713	3.12
236.096	2.16
236.479	4.58
236.862	3.51
237.245	5.44
237.628	4.93
238.011	4.47
238.394	4.03
238.777	4.91
239.16	3.36
239.543	2.86
239.925	6.11
240.308	4.19
240.691	5.41
241.073	5.16
241.456	4.73
241.838	3.37
242.221	4.16
242.603	4.95
242.986	4.05
243.368	4.15
243.75	4.28
244.133	4.19
244.515	4.36
244.897	3.95
245.279	4.24
245.661	4.22
246.043	3.71
246.425	2.71
246.807	4.83
247.189	5.11
247.571	4.16
247.953	3.78
248.335	3.86
248.717	4.31
249.098	3.99
249.48	4.13
249.862	3.98
250.243	4.06
250.625	3.75
251.006	4.35
251.388	3.14
251.769	4.52
252.151	4.39
252.532	3.73
252.913	3.57
253.295	3.67
253.676	3.72
254.057	4.22
254.438	3.99
254.819	3.91
255.2	3.35
255.581	2.89
255.962	4.18
256.343	4.48
256.724	3.24
257.105	3.88
257.486	3.86
257.867	3.54
258.247	3.71
258.628	4.52
259.009	3.93
259.389	4.06
259.77	3.77
260.15	3.34
260.531	3.22
260.911	4.07
261.292	3.76
261.672	4.16
262.052	3.86
262.432	4.06
262.813	3.72
263.193	3.64
263.573	3.73
263.953	3.03
264.333	4.31
264.713	3.73
265.093	3.58
265.473	3.77
265.853	2.46
266.233	3.51
266.612	2.19
266.992	2.55
267.372	3.79
267.752	3.89
268.131	3.37
268.511	4.45
268.89	4.03
269.27	3.36
269.649	3.3
270.029	3.08
270.408	4.89
270.787	3.74
271.167	4.44
271.546	4.17
271.925	3.7
272.304	3.62
272.683	4.22
273.062	3.2
273.441	3.94
273.82	3.5
274.199	3.87
274.578	3.84
274.957	3.42
275.336	3.68
275.715	3.54
276.093	3.35
276.472	3.67
276.851	2.93
277.229	3.19
277.608	2.4
277.986	3.58
278.365	3.7
278.743	3.03
279.122	3.59
279.5	3.93
279.878	3.55
280.257	3.3
280.635	4.02
281.013	3.72
281.391	3.57
281.769	3.77
282.147	3.56
282.525	3.99
282.903	3.56
283.281	3.65
283.659	3.85
284.037	3.76
284.415	3.61
284.792	3.62
285.17	3.01
285.548	3.83
285.925	3.59
286.303	4.2
286.68	4.02
287.058	3.46
287.435	3.68
287.813	3.73
288.19	3.3
288.567	3.41
288.945	3.74
289.322	3.64
289.699	3.51
290.076	3.3
290.453	3.41
290.83	3.65
291.207	3
291.584	3.73
291.961	4.06
292.338	3.96
292.715	3.93
293.092	4.16
293.469	3.59
293.845	3.79
294.222	3.19
294.599	3.21
294.975	3.68
295.352	4.04
295.728	3.65
296.105	3.45
296.481	4.15
296.858	3.66
297.234	3.72
297.61	3.23
297.986	3.82
298.363	3.92
298.739	3.85
299.115	3.71
299.491	3.6
299.867	3.7
300.243	4.34
300.619	3.56
300.995	3.52
301.371	4.73
301.746	3.41
302.122	4.15
302.498	3.63
302.874	4.44
303.249	3.54
303.625	4.03
304	4.16
304.376	3.82
304.751	3.49
305.127	4.8
305.502	3.74
305.878	3.48
306.253	3.86
306.628	4.66
307.003	3.64
307.378	5.02
307.754	3.83
308.129	3.43
308.504	4.34
308.879	3.6
309.254	5.42
309.629	4.86
310.003	3.7
310.378	4.39
310.753	4.58
311.128	4.44
311.502	3.97
311.877	4.35
312.252	4.21
312.626	3.57
313.001	3.5
313.375	4.3
313.75	3.91
314.124	4.14
314.498	3.72
314.873	3.87
315.247	3.24
315.621	4.53
315.995	3.08
316.369	3.87
316.743	4.02
317.117	4.94
317.491	3.81
317.865	3.75
318.239	3.86
318.613	3.89
318.987	4.48
319.361	3.7
319.734	4.77
320.108	4.33
320.482	3.32
320.855	4.23
321.229	3.72
321.602	4.25
321.976	4.66
322.349	3.91
322.723	3.81
323.096	3.86
323.469	3.48
323.843	4.68
324.216	4.46
324.589	4.03
324.962	4.34
325.335	3.6
325.708	3.91
326.081	3.95
326.454	4.06
326.827	4.05
327.2	4.28
327.573	4.43
327.945	4.14
328.318	4.09
328.691	3.76
329.063	4.06
329.436	3.92
329.809	4.89
330.181	4.56
330.553	4.29
330.926	4.39
331.298	4.97
331.671	3.61
332.043	4.45
332.415	4.02
332.787	4.63
333.159	4.99
333.532	4
333.904	4.16
334.276	4.25
334.648	4.48
335.02	4.49
335.391	3.79
335.763	4.41
336.135	3.61
336.507	5.06
336.879	3.75
337.25	3.17
337.622	3.68
337.993	3.7
338.365	4.33
338.736	4.44
339.108	4.08
339.479	3.83
339.851	4.42
340.222	3.75
340.593	4.3
340.964	4.18
341.336	4.41
341.707	3.49
342.078	5.11
342.449	4.37
342.82	4.16
343.191	4.09
343.562	3.53
343.933	4.4
344.303	4.26
344.674	4.22
345.045	3.97
345.416	4.26
345.786	3.59
346.157	4.32
346.527	3.81
346.898	3.69
347.268	4.18
347.639	4.15
348.009	4.48
348.38	3.67
348.75	3.9
349.12	4.19
349.49	4.73
349.861	4.37
350.231	3.59
350.601	4.02
350.971	4.48
351.341	4.33
351.711	4.05
352.081	4.22
352.45	3.69
352.82	4.08
353.19	4.12
353.56	3.62
353.929	4.12
354.299	4.07
354.669	4.17
355.038	4.95
355.408	4.11
355.777	4.08
356.147	3.84
356.516	4.28
356.885	4.06
357.254	4.26
357.624	4.52
357.993	4.31
358.362	4.02
358.731	4.16
359.1	4.16
359.469	4.31
359.838	4.4
360.207	4.16
360.576	4.4
360.945	4.25
361.314	4.6
361.682	4
362.051	3.76
362.42	4.44
362.788	4.1
363.157	4.35
363.525	4.5
363.894	4.29
364.262	4.23
364.631	4.35
364.999	4.27
365.367	3.89
365.735	4.93
366.104	4.34
366.472	4.83
366.84	4.15
367.208	4.07
367.576	4.45
367.944	4.63
368.312	4.58
368.68	3.81
369.048	4.46
369.416	4.44
369.783	4.24
370.151	4.68
370.519	4.57
370.886	4.33
371.254	4.38
371.621	4.58
371.989	4.29
372.356	3.59
372.724	4.48
373.091	4
373.458	4.38
373.826	4.15
374.193	4.41
374.56	4.73
374.927	4.43
375.294	4.62
375.661	3.99
376.028	4.33
376.395	4.34
376.762	4.26
377.129	4.26
377.496	4.1
377.863	4.37
378.229	4.12
378.596	4.66
378.963	4.39
379.329	4.27
379.696	4.59
380.062	4.44
380.429	4.03
380.795	4.16
381.161	4.01
381.528	4.64
381.894	4.4
382.26	4.46
382.626	4.43
382.993	4.07
383.359	4.75
383.725	3.97
384.091	4.45
384.457	4.46
384.823	4.61
385.188	4.48
385.554	4.38
385.92	4.47
386.286	4.64
386.651	4.47
387.017	4.98
387.383	4.53
387.748	4.07
388.114	4.84
388.479	4.21
388.845	4.6
389.21	4.68
389.575	4.3
389.94	4.46
390.306	4.47
390.671	4.53
391.036	4.29
391.401	4.12
391.766	4.4
392.131	4.34
392.496	4.48
392.861	4.18
393.226	4.74
393.591	4.61
393.956	4.18
394.32	4.49
394.685	4.05
395.05	4.51
395.414	4.51
395.779	4.17
396.143	4.55
396.508	4.63
396.872	4.68
397.236	4.69
397.601	4.53
397.965	4.52
398.329	4.57
398.694	4.6
399.058	4.58
399.422	4.2
399.786	4.66
400.15	4.56
400.514	4.47
400.878	4.59
401.242	4.76
401.605	4.82
401.969	4.69
402.333	4.78
402.697	4.67
403.06	4.43
403.424	4.72
403.787	4.79
404.151	4.78
404.514	4.96
404.878	4.61
405.241	4.8
405.604	4.53
405.968	4.72
406.331	4.77
406.694	4.82
407.057	4.38
407.42	4.6
407.783	4.54
408.146	4.84
408.509	4.39
408.872	4.49
409.235	4.78
409.598	4.7
409.961	4.47
410.323	4.6
410.686	4.51
411.049	4.49
411.411	4.72
411.774	4.78
412.136	4.48
412.499	4.64
412.861	4.36
413.223	4.81
413.586	4.88
413.948	4.89
414.31	4.82
414.672	4.43
415.035	4.66
415.397	4.88
415.759	4.45
416.121	4.85
416.483	4.82
416.845	4.59
417.206	4.67
417.568	4.71
417.93	4.42
418.292	4.73
418.653	4.71
419.015	4.95
419.377	4.66
419.738	4.7
420.1	4.79
420.461	4.78
420.822	4.67
421.184	4.55
421.545	4.68
421.906	4.49
422.267	4.71
422.629	4.63
422.99	4.69
423.351	4.47
423.712	4.67
424.073	4.64
424.434	4.75
424.795	4.56
425.155	4.7
425.516	4.55
425.877	4.62
426.238	4.6
426.598	4.74
426.959	4.6
427.32	4.61
427.68	4.64
428.041	4.61
428.401	4.75
428.761	4.67
429.122	4.81
429.482	4.7
429.842	4.95
430.202	4.88
430.563	4.94
430.923	4.88
431.283	4.82
431.643	4.8
432.003	4.94
432.363	5.02
432.722	4.55
433.082	4.71
433.442	4.75
433.802	4.86
434.161	4.84
434.521	5.1
434.881	4.82
435.24	4.74
435.6	4.76
435.959	4.76
436.319	4.89
436.678	4.78
437.037	4.57
437.396	4.93
437.756	4.89
438.115	4.82
438.474	4.9
438.833	4.73
439.192	4.87
439.551	5.03
439.91	5.09
440.269	4.81
440.628	4.84
440.987	4.87
441.345	4.83
441.704	4.88
442.063	4.77
442.421	4.83
442.78	4.85
443.138	4.72
443.497	4.83
443.855	4.75
444.214	4.84
444.572	4.89
444.93	4.87
445.288	4.88
445.647	4.98
446.005	4.82
446.363	5.02
446.721	4.91
447.079	4.67
447.437	4.83
447.795	4.86
448.153	4.8
448.51	4.8
448.868	4.82
449.226	4.84
449.584	4.86
449.941	5.02
450.299	4.92
450.656	4.84
451.014	4.99
451.371	4.9
451.729	4.93
452.086	5.13
452.443	4.98
452.801	5.05
453.158	4.92
453.515	4.83
453.872	5.17
454.229	4.74
454.586	4.78
454.943	4.89
455.3	5.06
455.657	5.03
456.014	4.84
456.371	5
456.727	4.94
457.084	5.13
457.441	4.95
457.797	4.95
458.154	5.26
458.51	5.09
458.867	5.24
459.223	5.15
459.58	5.08
459.936	5.03
460.292	4.95
460.648	5
461.005	5.03
461.361	4.98
461.717	4.88
462.073	4.86
462.429	5
462.785	4.98
463.141	5.06
463.496	5.02
463.852	5.12
464.208	5.05
464.564	5.19
464.919	5.12
465.275	5.03
465.631	5.13
465.986	5.19
466.342	5.01
466.697	4.94
467.052	5.18
467.408	5.17
467.763	5.16
468.118	5.27
468.473	5.08
468.829	5.21
469.184	4.98
469.539	5.25
469.894	4.86
470.249	5.44
470.603	5.28
470.958	5.23
471.313	5.27
471.668	5.45
472.023	5.42
472.377	5.01
472.732	5.19
473.086	5.16
473.441	5.09
473.795	5.47
474.15	5.21
474.504	5.15
474.859	5.28
475.213	5.06
475.567	5.25
475.921	5.05
476.275	5.37
476.63	5.26
476.984	5.38
477.338	5.41
477.692	5.1
478.045	5.17
478.399	5.39
478.753	5.32
479.107	5.33
479.461	5.31
479.814	5.24
480.168	5.28
480.521	5.12
480.875	5.33
481.228	5.11
481.582	5.27
481.935	5.12
482.289	5.48
482.642	5.2
482.995	5.19
483.348	5.07
483.701	5.27
484.055	5.25
484.408	5.32
484.761	5.21
485.114	5.1
485.466	4.96
485.819	4.88
486.172	4.94
486.525	5.03
486.878	5.01
487.23	5.13
487.583	5.14
487.936	5.25
488.288	5.13
488.641	5.16
488.993	5.09
489.345	5.03
489.698	5.04
490.05	5.04
490.402	5.18
490.754	5.13
491.107	5.29
491.459	5.28
491.811	5.23
492.163	5.29
492.515	5.28
492.866	5.27
493.218	5.23
493.57	5.11
493.922	5.19
494.274	5.28
494.625	5.35
494.977	5.4
495.328	5.47
495.68	5.35
496.031	5.45
496.383	5.24
496.734	5.56
497.086	5.51
497.437	5.48
497.788	5.37
498.139	5.36
498.49	5.48
498.842	5.3
499.193	5.33
499.544	5.54
499.894	5.5
500.245	5.46
500.596	5.44
500.947	5.69
501.298	5.5
501.648	5.61
501.999	5.66
502.35	5.65
502.7	5.59
503.051	5.48
503.401	5.58
503.752	5.64
504.102	5.66
504.452	5.55
504.803	5.59
505.153	5.73
505.503	5.75
505.853	5.56
506.203	5.46
506.553	5.69
506.903	5.62
507.253	5.66
507.603	5.6
507.953	5.67
508.303	5.68
508.652	5.43
509.002	5.6
509.352	5.71
509.701	5.57
510.051	5.68
510.4	5.57
510.75	5.68
511.099	5.74
511.449	5.62
511.798	5.64
512.147	5.68
512.496	5.66
512.846	5.65
513.195	5.83
513.544	5.73
513.893	5.66
514.242	5.7
514.591	5.78
514.939	5.71
515.288	5.73
515.637	5.79
515.986	5.74
516.334	5.87
516.683	5.86
517.032	5.83
517.38	5.66
517.729	5.9
518.077	5.78
518.426	5.83
518.774	5.85
519.122	5.77
519.47	5.84
519.819	5.66
520.167	5.68
520.515	5.69
520.863	5.76
521.211	5.87
521.559	5.91
521.907	5.77
522.255	5.83
522.602	5.95
522.95	5.88
523.298	5.88
523.645	6.06
523.993	5.83
524.341	6.02
524.688	6.03
525.036	5.86
525.383	5.91
525.73	6.13
526.078	5.93
526.425	5.95
526.772	6.01
527.119	5.95
527.466	5.97
527.814	5.98
528.161	5.94
528.508	5.95
528.854	5.9
529.201	5.99
529.548	5.93
529.895	5.85
530.242	5.76
530.588	5.69
530.935	5.76
531.282	5.8
531.628	5.83
531.975	5.99
532.321	6
532.667	6.02
533.014	6.15
533.36	6.18
533.706	6.01
534.052	6.13
534.399	5.96
534.745	6.01
535.091	6.04
535.437	5.96
535.783	5.97
536.129	6.16
536.474	6.14
536.82	6.15
537.166	6.26
537.512	6.14
537.857	6.12
538.203	6.25
538.549	6.16
538.894	6.05
539.239	6.26
539.585	6.28
539.93	6.26
540.276	6.44
540.621	6.48
540.966	6.43
541.311	6.28
541.656	6.33
542.001	6.45
542.346	6.48
542.691	6.29
543.036	6.13
543.381	6.07
543.726	6.18
544.071	6.33
544.415	6.39
544.76	6.36
545.105	6.49
545.449	6.37
545.794	6.46
546.138	6.4
546.483	6.53
546.827	6.57
547.171	6.42
547.516	6.56
547.86	6.5
548.204	6.56
548.548	6.42
548.892	6.59
549.236	6.6
549.58	6.65
549.924	6.61
550.268	6.85
550.612	6.81
550.956	6.9
551.3	6.8
551.643	6.98
551.987	6.94
552.33	6.86
552.674	7
553.017	6.89
553.361	6.89
553.704	7.15
554.048	6.98
554.391	6.8
554.734	6.8
555.077	7.01
555.42	6.95
555.764	6.87
556.107	6.93
556.45	6.87
556.793	6.97
557.135	7.25
557.478	7.17
557.821	7.15
558.164	7.07
558.507	7.12
558.849	7.25
559.192	7.15
559.534	7.18
559.877	7.12
560.219	7.11
560.562	7.3
560.904	7.07
561.246	7.21
561.589	7.22
561.931	7.23
562.273	7.01
562.615	7.34
562.957	7.25
563.299	7.17
563.641	7.25
563.983	7.5
564.325	7.19
564.667	7.35
565.008	7.35
565.35	7.37
565.692	7.2
566.033	7.4
566.375	7.76
566.716	7.58
567.058	7.39
567.399	7.47
567.741	7.25
568.082	7.37
568.423	7.39
568.764	7.45
569.105	7.44
569.447	7.6
569.788	7.75
570.129	7.63
570.47	7.65
570.811	7.7
571.151	7.69
571.492	7.67
571.833	7.62
572.174	7.57
572.514	7.82
572.855	7.51
573.195	7.69
573.536	7.74
573.876	7.47
574.217	7.59
574.557	7.79
574.898	7.86
575.238	7.82
575.578	7.7
575.918	8.01
576.258	7.92
576.598	7.94
576.938	7.85
577.278	7.85
577.618	7.97
577.958	8.01
578.298	7.83
578.638	7.83
578.977	7.9
579.317	7.89
579.657	8.15
579.996	8.11
580.336	8.23
580.675	8.11
581.014	8.01
581.354	8.18
581.693	8.14
582.032	7.99
582.372	8.13
582.711	8.12
583.05	8.12
583.389	8.41
583.728	8.12
584.067	8.71
584.406	8.27
584.745	8.35
585.083	8.62
585.422	8.66
585.761	8.53
586.1	8.3
586.438	8.55
586.777	8.4
587.115	8.54
587.454	8.52
587.792	8.3
588.13	8.74
588.469	8.39
588.807	8.44
589.145	8.5
589.483	8.38
589.821	8.69
590.159	8.77
590.497	8.89
590.835	8.89
591.173	8.85
591.511	8.88
591.849	8.69
592.187	9.02
592.524	8.54
592.862	8.99
593.2	9.02
593.537	8.91
593.875	8.76
594.212	8.74
594.55	8.82
594.887	9.18
595.224	8.84
595.561	8.94
595.899	8.96
596.236	8.85
596.573	9.08
596.91	8.83
597.247	8.88
597.584	9.33
597.921	9.07
598.258	8.92
598.594	9.26
598.931	9.11
599.268	9.31
599.604	9.1
599.941	9.18
600.277	9.3
600.614	8.96
600.95	8.93
601.287	9.41
601.623	9.25
601.959	9.39
602.296	9.47
602.632	9.46
602.968	9.66
603.304	9.67
603.64	9.52
603.976	9.79
604.312	9.45
604.648	9.44
604.984	9.47
605.319	9.58
605.655	9.41
605.991	9.42
606.326	9.46
606.662	9.41
606.998	9.46
607.333	9.77
607.668	9.84
608.004	9.78
608.339	10.02
608.674	9.6
609.01	9.35
609.345	9.72
609.68	10.02
610.015	9.84
610.35	9.8
610.685	9.63
611.02	9.96
611.355	10.16
611.689	9.93
612.024	9.79
612.359	9.99
612.694	10.11
613.028	10
613.363	10.17
613.697	10.06
614.032	10.35
614.366	10
614.7	10.13
615.035	10.54
615.369	10.22
615.703	10.36
616.037	10.24
616.371	10.09
616.705	10.25
617.039	10.62
617.373	10.34
617.707	10.06
618.041	10.31
618.375	10.43
618.709	10.54
619.042	10.59
619.376	10.37
619.71	10.85
620.043	10.85
620.377	10.79
620.71	10.81
621.043	10.43
621.377	10.55
621.71	11.04
622.043	10.78
622.376	10.47
622.709	11.04
623.043	10.95
623.376	10.71
623.709	10.51
624.041	11.12
624.374	11.11
624.707	11.07
625.04	11.24
625.373	10.62
625.705	10.87
626.038	11.09
626.37	10.81
626.703	10.85
627.035	11.02
627.368	11.5
627.7	10.76
628.032	10.85
628.365	11.3
628.697	10.85
629.029	10.84
629.361	10.96
629.693	11.49
630.025	11.16
630.357	11.25
630.689	11.31
631.021	11.19
631.353	11.22
631.684	11.17
632.016	10.89
632.348	11.63
632.679	11.57
633.011	11.46
633.342	12.11
633.674	11.64
634.005	11.68
634.336	11.23
634.668	11.84
634.999	11.13
635.33	11.87
635.661	11.92
635.992	11.45
636.323	11.6
636.654	11.96
636.985	11.49
637.316	11.07
637.647	11.57
637.977	12.1
638.308	11.44
638.639	11.36
638.969	11.53
639.3	11.72
639.63	11.38
639.961	12.13
640.291	11.97
640.622	12.35
640.952	11.51
641.282	12.1
641.612	12.15
641.943	12.21
642.273	12.06
642.603	12.17
642.933	12.54
643.263	12.68
643.592	11.45
643.922	11.57
644.252	11.99
644.582	12.39
644.911	11.7
645.241	12.46
645.571	12.02
645.9	12.41
646.23	12.25
646.559	12.69
646.888	12.16
647.218	12.61
647.547	12.22
647.876	12.28
648.205	12.11
648.534	12.27
648.863	12.3
649.192	12.83
649.521	12.46
649.85	12.68
650.179	12.45
650.508	12.32
650.837	12.47
651.165	12.52
651.494	12.97
651.822	12.45
652.151	12.57
652.479	13
652.808	12.27
653.136	12.54
653.465	12.19
653.793	12.32
654.121	12.84
654.449	12.87
654.777	12.82
655.105	13.02
655.433	12.7
655.761	12.91
656.089	13.5
656.417	12.89
656.745	12.57
657.073	13.25
657.4	13.37
657.728	12.82
658.056	13.11
658.383	13.17
658.711	13.23
659.038	13.47
659.365	13.78
659.693	12.92
660.02	12.62
660.347	13.31
660.674	13.42
661.001	13.14
661.329	12.17
661.656	12.9
661.982	13.31
662.309	13.14
662.636	13.15
662.963	13.88
663.29	13.87
663.616	13.61
663.943	12.75
664.27	13
664.596	13.39
664.923	13.53
665.249	13.48
665.576	13.16
665.902	14.19
666.228	14.32
666.554	13.67
666.881	13.23
667.207	13.89
667.533	13.4
667.859	13.73
668.185	13.56
668.511	13
668.837	12.5
669.162	13.17
669.488	13.38
669.814	14.79
670.139	14.28
670.465	14.15
670.791	13.74
671.116	14.65
671.442	13.46
671.767	14.01
672.092	14.45
672.418	14.46
672.743	14.71
673.068	14.36
673.393	14.66
673.718	14.37
674.043	14.28
674.368	14.04
674.693	15.24
675.018	13.58
675.343	14.24
675.667	14.58
675.992	14.68
676.317	14.51
676.641	14.36
676.966	14.39
677.29	13.92
677.615	14.32
677.939	14.66
678.264	14.14
678.588	14.19
678.912	14.77
679.236	15.22
679.56	14.01
679.885	15.44
680.209	14.26
680.532	14.15
680.856	14.96
681.18	14.58
681.504	15.03
681.828	14.33
682.152	14.33
682.475	15.04
682.799	14.92
683.122	14.81
683.446	14.25
683.769	14.63
684.093	14.05
684.416	15.14
684.739	14.78
685.062	14.34
685.386	15.07
685.709	14.55
686.032	14.46
686.355	14.73
686.678	14.91
687.001	15.32
