Data from 0372_crown_Reflection__4__163.txt Node

Date: Fri Dec 15 18:04:02 CST 2023
User: ToomeyLab
Spectrometer: FLMS14357
Trigger mode: 0
Integration Time (sec): 1.000000E-2
Scans to average: 100
Electric dark correction enabled: true
Nonlinearity correction enabled: false
Boxcar width: 0
XAxis mode: Wavelengths
Number of Pixels in Spectrum: 2048
>>>>>Begin Spectral Data<<<<<
189.047	-28.15
189.435	-28.15
189.823	-28.15
190.211	100.2
190.599	713.15
190.987	156.24
191.375	246.32
191.763	0.55
192.151	182.16
192.538	219.38
192.926	-984.75
193.314	212.04
193.702	2435.51
194.089	19.73
194.477	37.99
194.864	2.62
195.252	74.47
195.639	132.59
196.027	254.91
196.414	124.52
196.801	-388.57
197.189	136.12
197.576	3744.24
197.963	288.75
198.351	-38.17
198.738	-39.93
199.125	47.08
199.512	-7.61
199.899	16.03
200.286	-34.48
200.673	-91.82
201.06	-58.9
201.447	-33.68
201.833	-27.54
202.22	-4.2
202.607	14.62
202.994	-25.45
203.38	-32.4
203.767	12.39
204.154	20.69
204.54	-2.34
204.927	-50.97
205.313	-47.98
205.699	36.25
206.086	8.05
206.472	38.67
206.858	14.44
207.245	-23.27
207.631	4.89
208.017	22.37
208.403	12.45
208.789	0.46
209.175	15
209.561	-49.96
209.947	-28.87
210.333	-36.79
210.719	-5.83
211.105	-6.89
211.491	-121.48
211.876	5.75
212.262	-18.68
212.648	-5.9
213.034	14.09
213.419	4
213.805	-16.36
214.19	-35.88
214.576	-8.38
214.961	-1.98
215.346	-86.23
215.732	8.77
216.117	-3.74
216.502	-43.54
216.888	10.82
217.273	8.34
217.658	13.7
218.043	0.07
218.428	-17.19
218.813	-20.04
219.198	-57.19
219.583	-19.31
219.968	4.68
220.353	-15.83
220.738	2.99
221.122	-23.72
221.507	-54.88
221.892	-31.02
222.276	-51.99
222.661	15.71
223.046	18.25
223.43	9.24
223.815	9.41
224.199	7.81
224.583	7.88
224.968	7.09
225.352	13.43
225.736	-7.2
226.121	-17.24
226.505	-4.06
226.889	2.39
227.273	-4.84
227.657	4.63
228.041	2.09
228.425	1.63
228.809	4.74
229.193	4.31
229.577	4.06
229.961	4.58
230.344	3.48
230.728	5.54
231.112	5.09
231.495	5.23
231.879	3.81
232.263	5.5
232.646	5.53
233.03	4
233.413	4.98
233.797	4.72
234.18	2.52
234.563	3.73
234.946	3.21
235.33	6.11
235.713	4.26
236.096	3.98
236.479	8.12
236.862	4.6
237.245	5.47
237.628	1.83
238.011	5.33
238.394	6.11
238.777	4.78
239.16	1.45
239.543	3.47
239.925	3.27
240.308	4.18
240.691	4.88
241.073	5.63
241.456	3.96
241.838	3.24
242.221	2.97
242.603	5.54
242.986	5.33
243.368	4.64
243.75	5.52
244.133	4.41
244.515	5.39
244.897	4.82
245.279	4.36
245.661	4.48
246.043	4.71
246.425	3.77
246.807	5.67
247.189	4.51
247.571	4.51
247.953	5.08
248.335	4.83
248.717	4.85
249.098	4.66
249.48	4.66
249.862	4.74
250.243	4.65
250.625	4.7
251.006	4.33
251.388	3.52
251.769	4.91
252.151	4.75
252.532	5.13
252.913	3.6
253.295	3.33
253.676	4.23
254.057	4.31
254.438	3.86
254.819	4.33
255.2	3.2
255.581	3.5
255.962	1.5
256.343	3.7
256.724	3.9
257.105	4.96
257.486	3.86
257.867	4.22
258.247	4.52
258.628	4
259.009	3.89
259.389	3.76
259.77	3.98
260.15	3.46
260.531	2.83
260.911	4.83
261.292	4.08
261.672	4.38
262.052	4.23
262.432	4.56
262.813	4.95
263.193	3.96
263.573	3.79
263.953	4.01
264.333	4.69
264.713	4.34
265.093	3.58
265.473	4.58
265.853	2.99
266.233	4.36
266.612	2.82
266.992	2.44
267.372	4.8
267.752	3.62
268.131	3.89
268.511	4.23
268.89	4.36
269.27	3.95
269.649	3.26
270.029	3.28
270.408	4.5
270.787	4.23
271.167	4.01
271.546	4.79
271.925	3.63
272.304	3.47
272.683	4.31
273.062	3.16
273.441	4.27
273.82	3.49
274.199	3.89
274.578	4.39
274.957	3.8
275.336	3.75
275.715	3.34
276.093	2.64
276.472	3.93
276.851	3.55
277.229	3.76
277.608	3.12
277.986	3.78
278.365	3.77
278.743	2.98
279.122	3.66
279.5	4.44
279.878	4.06
280.257	3.18
280.635	3.19
281.013	3.25
281.391	3.94
281.769	4.32
282.147	3.8
282.525	4.14
282.903	3.44
283.281	3.85
283.659	4.34
284.037	4.32
284.415	3.61
284.792	3.8
285.17	3.7
285.548	3.39
285.925	4.14
286.303	3.54
286.68	3.29
287.058	3.68
287.435	3.45
287.813	3.99
288.19	3.22
288.567	3.81
288.945	3.93
289.322	3.91
289.699	3.32
290.076	3.52
290.453	3.21
290.83	3.16
291.207	3.43
291.584	3.4
291.961	3.8
292.338	3.81
292.715	3.76
293.092	3.6
293.469	3.75
293.845	3.81
294.222	3.08
294.599	3.33
294.975	3.08
295.352	3.8
295.728	3.56
296.105	3.61
296.481	3.77
296.858	3.47
297.234	3.41
297.61	3.91
297.986	3.04
298.363	3.43
298.739	3.7
299.115	3.57
299.491	3.52
299.867	3.41
300.243	3.56
300.619	3.33
300.995	3.13
301.371	3.43
301.746	2.98
302.122	4.2
302.498	3.72
302.874	3.79
303.249	3.65
303.625	3.61
304	3.44
304.376	3.45
304.751	2.83
305.127	3.73
305.502	2.67
305.878	3.19
306.253	3.61
306.628	4.27
307.003	3.48
307.378	4.3
307.754	3.82
308.129	2.68
308.504	2.84
308.879	2.34
309.254	3.69
309.629	3.5
310.003	3.34
310.378	3.86
310.753	3.21
311.128	3.57
311.502	3.27
311.877	4.07
312.252	3.35
312.626	3.12
313.001	3.34
313.375	3.85
313.75	3.45
314.124	3.52
314.498	3.6
314.873	3.28
315.247	2.76
315.621	3.45
315.995	2.83
316.369	3.34
316.743	3.17
317.117	3.36
317.491	3.49
317.865	3.18
318.239	3.44
318.613	3.46
318.987	3.87
319.361	2.69
319.734	3.52
320.108	3.12
320.482	3.2
320.855	3.46
321.229	3.85
321.602	3.01
321.976	3.99
322.349	3.43
322.723	2.83
323.096	3.56
323.469	2.47
323.843	3.1
324.216	2.79
324.589	3.52
324.962	3.29
325.335	3.1
325.708	3.37
326.081	3.06
326.454	3.82
326.827	3.2
327.2	3.29
327.573	4.15
327.945	3.39
328.318	3.92
328.691	3.32
329.063	3.33
329.436	3.76
329.809	3.83
330.181	3.68
330.553	3.45
330.926	2.9
331.298	3.28
331.671	3.15
332.043	3.65
332.415	3.74
332.787	3.26
333.159	3.83
333.532	3.67
333.904	3.48
334.276	3.3
334.648	3.26
335.02	3.6
335.391	3.21
335.763	3.17
336.135	3.28
336.507	3.62
336.879	3.44
337.25	3.02
337.622	3.34
337.993	3.61
338.365	3.86
338.736	3.37
339.108	3.52
339.479	3
339.851	3.41
340.222	2.98
340.593	3.19
340.964	3.28
341.336	4.13
341.707	2.95
342.078	3.78
342.449	3.97
342.82	3.52
343.191	3.44
343.562	3.46
343.933	3.68
344.303	3.11
344.674	3.42
345.045	3.56
345.416	3.83
345.786	3.54
346.157	3.3
346.527	3.27
346.898	2.79
347.268	3.46
347.639	3.41
348.009	3.49
348.38	3.28
348.75	3.42
349.12	3.14
349.49	4.45
349.861	3.37
350.231	3.3
350.601	3.48
350.971	3.34
351.341	3.64
351.711	3.46
352.081	3.58
352.45	3.12
352.82	3.55
353.19	3.69
353.56	2.98
353.929	3.54
354.299	3.61
354.669	3.43
355.038	3.75
355.408	3.1
355.777	3.86
356.147	3.55
356.516	3.33
356.885	3.47
357.254	4.01
357.624	3.91
357.993	3.66
358.362	3.4
358.731	3.36
359.1	3.91
359.469	3.55
359.838	3.75
360.207	3.39
360.576	3.61
360.945	3.76
361.314	3.85
361.682	3.59
362.051	3.46
362.42	4.07
362.788	3.65
363.157	3.84
363.525	3.92
363.894	3.54
364.262	3.9
364.631	3.62
364.999	3.99
365.367	3.56
365.735	4.2
366.104	4.04
366.472	3.82
366.84	3.51
367.208	3.31
367.576	3.5
367.944	4.15
368.312	3.44
368.68	3.37
369.048	4.15
369.416	3.94
369.783	3.7
370.151	3.79
370.519	4.1
370.886	3.8
371.254	3.63
371.621	4.13
371.989	3.99
372.356	3.3
372.724	4.18
373.091	3.33
373.458	3.7
373.826	3.78
374.193	3.81
374.56	3.98
374.927	3.78
375.294	3.76
375.661	3.81
376.028	3.69
376.395	3.55
376.762	3.98
377.129	3.85
377.496	3.57
377.863	3.83
378.229	3.54
378.596	3.61
378.963	3.61
379.329	3.76
379.696	4.08
380.062	3.79
380.429	3.88
380.795	3.83
381.161	3.71
381.528	4
381.894	3.91
382.26	3.82
382.626	4.07
382.993	3.55
383.359	4.24
383.725	3.79
384.091	3.51
384.457	4.26
384.823	4.03
385.188	4.12
385.554	3.69
385.92	4.15
386.286	4.07
386.651	4.31
387.017	4.28
387.383	3.77
387.748	3.62
388.114	4.05
388.479	3.82
388.845	4.06
389.21	4.05
389.575	3.98
389.94	3.91
390.306	4.09
390.671	4.1
391.036	3.95
391.401	3.94
391.766	3.69
392.131	3.97
392.496	4.12
392.861	3.73
393.226	4.37
393.591	3.99
393.956	3.94
394.32	4.06
394.685	3.74
395.05	3.94
395.414	4
395.779	3.53
396.143	3.95
396.508	4.24
396.872	4.18
397.236	4.38
397.601	3.78
397.965	4
398.329	4.21
398.694	4.19
399.058	4.05
399.422	3.88
399.786	4.35
400.15	4.13
400.514	3.96
400.878	4.26
401.242	4.4
401.605	4.15
401.969	4.23
402.333	4.35
402.697	4.11
403.06	4.18
403.424	4.21
403.787	4.03
404.151	4.16
404.514	3.93
404.878	4.1
405.241	4.27
405.604	3.99
405.968	4.01
406.331	4.23
406.694	4.32
407.057	4.07
407.42	4.22
407.783	4.02
408.146	4.13
408.509	4.24
408.872	3.88
409.235	4.3
409.598	4.47
409.961	4
410.323	4.24
410.686	4.21
411.049	4.09
411.411	4.05
411.774	4.18
412.136	4.22
412.499	4.07
412.861	4.19
413.223	4.23
413.586	4.26
413.948	4.43
414.31	4
414.672	3.82
415.035	4.04
415.397	4.48
415.759	4.14
416.121	4.13
416.483	4.11
416.845	4.28
417.206	3.96
417.568	4.24
417.93	4.1
418.292	4.17
418.653	4.22
419.015	4.18
419.377	4.21
419.738	4.04
420.1	4.16
420.461	4.11
420.822	4.34
421.184	4.19
421.545	4.24
421.906	4.02
422.267	4.06
422.629	4.13
422.99	4.16
423.351	4.05
423.712	4.13
424.073	4.03
424.434	4.08
424.795	4.2
425.155	4.14
425.516	3.99
425.877	4.04
426.238	4.13
426.598	4.18
426.959	4.09
427.32	4.09
427.68	4.03
428.041	4.03
428.401	4.26
428.761	4.15
429.122	4.34
429.482	4.05
429.842	4.34
430.202	4.21
430.563	4.47
430.923	4.01
431.283	4.35
431.643	4.25
432.003	4.36
432.363	4.39
432.722	3.99
433.082	4.39
433.442	3.97
433.802	4.26
434.161	4.2
434.521	4.33
434.881	4.29
435.24	4.12
435.6	4.22
435.959	4.17
436.319	4.08
436.678	4.28
437.037	4.33
437.396	4.25
437.756	4.24
438.115	4.22
438.474	4.3
438.833	3.97
439.192	4.14
439.551	4.38
439.91	4.13
440.269	4.23
440.628	4.13
440.987	4.19
441.345	4.06
441.704	4.32
442.063	4.16
442.421	4.29
442.78	4.23
443.138	4.1
443.497	4.35
443.855	4.23
444.214	4.28
444.572	4.32
444.93	4.22
445.288	4.26
445.647	4.34
446.005	4.26
446.363	4.4
446.721	4.29
447.079	4.14
447.437	4.11
447.795	4.19
448.153	4.1
448.51	4.16
448.868	4.18
449.226	4.21
449.584	4.29
449.941	4.33
450.299	4.13
450.656	4.31
451.014	4.2
451.371	4.13
451.729	4.17
452.086	4.41
452.443	4.24
452.801	4.3
453.158	4.19
453.515	4.12
453.872	4.43
454.229	4.24
454.586	4.15
454.943	4.27
455.3	4.34
455.657	4.21
456.014	4.07
456.371	4.38
456.727	4.48
457.084	4.51
457.441	4.26
457.797	4.19
458.154	4.44
458.51	4.48
458.867	4.24
459.223	4.46
459.58	4.24
459.936	4.34
460.292	4.27
460.648	4.3
461.005	4.37
461.361	4.31
461.717	4.25
462.073	4.11
462.429	4.27
462.785	4.29
463.141	4.18
463.496	4.37
463.852	4.28
464.208	4.05
464.564	4.48
464.919	4.36
465.275	4.19
465.631	4.43
465.986	4.23
466.342	4.32
466.697	4.24
467.052	4.25
467.408	4.38
467.763	4.33
468.118	4.32
468.473	4.09
468.829	4.27
469.184	4.26
469.539	4.42
469.894	4.19
470.249	4.43
470.603	4.41
470.958	4.44
471.313	4.27
471.668	4.39
472.023	4.39
472.377	4.25
472.732	4.14
473.086	4.16
473.441	4.03
473.795	4.49
474.15	4.39
474.504	4.23
474.859	4.35
475.213	4.18
475.567	4.33
475.921	4.31
476.275	4.36
476.63	4.37
476.984	4.24
477.338	4.41
477.692	4.24
478.045	4.18
478.399	4.2
478.753	4.32
479.107	4.31
479.461	4.25
479.814	4.34
480.168	4.25
480.521	4.16
480.875	4.33
481.228	4.4
481.582	4.34
481.935	4.24
482.289	4.33
482.642	4.35
482.995	4.13
483.348	4.15
483.701	4.22
484.055	4.3
484.408	4.32
484.761	4.19
485.114	4.23
485.466	4.04
485.819	4.02
486.172	4.06
486.525	4.1
486.878	4.15
487.23	4.19
487.583	4.25
487.936	4.24
488.288	4.18
488.641	4.22
488.993	4.11
489.345	4.09
489.698	4.12
490.05	4.09
490.402	4.16
490.754	4.1
491.107	4.29
491.459	4.3
491.811	4.29
492.163	4.33
492.515	4.22
492.866	4.31
493.218	4.29
493.57	4.13
493.922	4.06
494.274	4.25
494.625	4.28
494.977	4.29
495.328	4.35
495.68	4.26
496.031	4.27
496.383	4.34
496.734	4.43
497.086	4.42
497.437	4.42
497.788	4.27
498.139	4.35
498.49	4.39
498.842	4.29
499.193	4.29
499.544	4.32
499.894	4.34
500.245	4.3
500.596	4.19
500.947	4.45
501.298	4.21
501.648	4.29
501.999	4.3
502.35	4.39
502.7	4.28
503.051	4.27
503.401	4.37
503.752	4.31
504.102	4.27
504.452	4.34
504.803	4.41
505.153	4.26
505.503	4.39
505.853	4.25
506.203	4.35
506.553	4.28
506.903	4.28
507.253	4.36
507.603	4.41
507.953	4.41
508.303	4.5
508.652	4.26
509.002	4.43
509.352	4.29
509.701	4.24
510.051	4.3
510.4	4.3
510.75	4.38
511.099	4.28
511.449	4.37
511.798	4.26
512.147	4.39
512.496	4.22
512.846	4.27
513.195	4.23
513.544	4.28
513.893	4.31
514.242	4.36
514.591	4.5
514.939	4.4
515.288	4.17
515.637	4.46
515.986	4.43
516.334	4.35
516.683	4.42
517.032	4.27
517.38	4.48
517.729	4.28
518.077	4.16
518.426	4.27
518.774	4.3
519.122	4.33
519.47	4.38
519.819	4.15
520.167	4.24
520.515	4.32
520.863	4.26
521.211	4.35
521.559	4.38
521.907	4.22
522.255	4.33
522.602	4.32
522.95	4.23
523.298	4.27
523.645	4.37
523.993	4.14
524.341	4.48
524.688	4.43
525.036	4.3
525.383	4.29
525.73	4.54
526.078	4.39
526.425	4.34
526.772	4.41
527.119	4.33
527.466	4.25
527.814	4.33
528.161	4.21
528.508	4.32
528.854	4.28
529.201	4.33
529.548	4.17
529.895	4.23
530.242	4.04
530.588	4.04
530.935	4.09
531.282	4.14
531.628	4.13
531.975	4.23
532.321	4.26
532.667	4.29
533.014	4.33
533.36	4.32
533.706	4.31
534.052	4.28
534.399	4.18
534.745	4.16
535.091	4.21
535.437	4.23
535.783	4.26
536.129	4.25
536.474	4.23
536.82	4.31
537.166	4.28
537.512	4.34
537.857	4.33
538.203	4.33
538.549	4.21
538.894	4.18
539.239	4.26
539.585	4.15
539.93	4.2
540.276	4.35
540.621	4.37
540.966	4.36
541.311	4.28
541.656	4.26
542.001	4.14
542.346	4.26
542.691	4.13
543.036	4.11
543.381	4.08
543.726	4.19
544.071	4.22
544.415	4.21
544.76	4.22
545.105	4.17
545.449	4.22
545.794	4.2
546.138	4.35
546.483	4.3
546.827	4.23
547.171	4.28
547.516	4.39
547.86	4.21
548.204	4.21
548.548	4.28
548.892	4.31
549.236	4.24
549.58	4.23
549.924	4.18
550.268	4.33
550.612	4.48
550.956	4.48
551.3	4.25
551.643	4.45
551.987	4.45
552.33	4.3
552.674	4.44
553.017	4.26
553.361	4.1
553.704	4.34
554.048	4.29
554.391	4.38
554.734	4.34
555.077	4.42
555.42	4.23
555.764	4.22
556.107	4.31
556.45	3.98
556.793	4.25
557.135	4.44
557.478	4.58
557.821	4.38
558.164	4.27
558.507	4.3
558.849	4.16
559.192	4.39
559.534	4.26
559.877	4.44
560.219	4.11
560.562	4.43
560.904	4.26
561.246	4.23
561.589	4.12
561.931	4.32
562.273	4.21
562.615	4.17
562.957	4.28
563.299	4.18
563.641	4.21
563.983	4.28
564.325	4.13
564.667	4.2
565.008	4.2
565.35	4.38
565.692	4.11
566.033	4.23
566.375	4.37
566.716	4.43
567.058	4.26
567.399	4.24
567.741	3.95
568.082	4.31
568.423	4.19
568.764	4.21
569.105	4.22
569.447	4.42
569.788	4.23
570.129	4.42
570.47	4.33
570.811	4.36
571.151	4.44
571.492	4.5
571.833	4.14
572.174	3.98
572.514	4.19
572.855	4.26
573.195	4.13
573.536	4.24
573.876	4.02
574.217	4.13
574.557	4.24
574.898	4.41
575.238	4.31
575.578	3.92
575.918	4.45
576.258	4.4
576.598	4.17
576.938	4
577.278	4.18
577.618	4.15
577.958	4.18
578.298	4.25
578.638	4.38
578.977	4.27
579.317	4.13
579.657	4.23
579.996	4.09
580.336	4.42
580.675	4.25
581.014	4.29
581.354	4.16
581.693	4.45
582.032	4.13
582.372	4.37
582.711	4.23
583.05	3.91
583.389	4.02
583.728	4.1
584.067	4.21
584.406	4.48
584.745	4.28
585.083	4.29
585.422	4.26
585.761	4.45
586.1	4.47
586.438	4.16
586.777	4.27
587.115	4.58
587.454	4.14
587.792	4.15
588.13	4.32
588.469	4.16
588.807	4.3
589.145	4.2
589.483	4.46
589.821	4.14
590.159	4.27
590.497	4.5
590.835	4.57
591.173	4.4
591.511	4.3
591.849	4.13
592.187	4.31
592.524	4.24
592.862	3.96
593.2	4.4
593.537	4.07
593.875	4.13
594.212	3.97
594.55	4.09
594.887	4.29
595.224	4.05
595.561	4.11
595.899	4.03
596.236	3.89
596.573	4.32
596.91	3.6
597.247	3.66
597.584	4.39
597.921	4.03
598.258	3.85
598.594	3.89
598.931	4.15
599.268	4.22
599.604	4.05
599.941	4.22
600.277	4.01
600.614	4
600.95	3.94
601.287	4.27
601.623	4.14
601.959	4.24
602.296	4.16
602.632	3.93
602.968	4.36
603.304	4.06
603.64	4.29
603.976	4.16
604.312	4
604.648	4.14
604.984	4.58
605.319	4.35
605.655	4.01
605.991	4.37
606.326	4.44
606.662	4.2
606.998	3.97
607.333	4.15
607.668	4.11
608.004	4.02
608.339	4.42
608.674	4.12
609.01	3.91
609.345	3.71
609.68	4.27
610.015	4.14
610.35	4.36
610.685	3.98
611.02	4.08
611.355	4.29
611.689	4.06
612.024	4.16
612.359	4.09
612.694	4.09
613.028	4.08
613.363	4.38
613.697	4.18
614.032	4.14
614.366	4.06
614.7	4.4
615.035	4.48
615.369	3.91
615.703	3.95
616.037	4.21
616.371	3.7
616.705	3.55
617.039	4.15
617.373	4.01
617.707	4.22
618.041	4.01
618.375	4.07
618.709	4.07
619.042	4.06
619.376	4.22
619.71	4.18
620.043	4.28
620.377	4.01
620.71	4.11
621.043	3.97
621.377	4.19
621.71	4.26
622.043	3.98
622.376	3.36
622.709	3.74
623.043	4.25
623.376	3.85
623.709	3.91
624.041	4.14
624.374	4.26
624.707	3.67
625.04	4.1
625.373	3.75
625.705	3.87
626.038	4.13
626.37	3.98
626.703	4.23
627.035	3.85
627.368	4.3
627.7	4.34
628.032	4.02
628.365	4.24
628.697	4.35
629.029	3.77
629.361	3.9
629.693	4.16
630.025	4.15
630.357	4.69
630.689	4.32
631.021	4.37
631.353	3.83
631.684	3.56
632.016	3.8
632.348	4.29
632.679	4
633.011	4.02
633.342	4.25
633.674	4.01
634.005	4.1
634.336	3.77
634.668	4.79
634.999	3.93
635.33	4.55
635.661	4.14
635.992	4.09
636.323	4.36
636.654	4.07
636.985	4.18
637.316	3.78
637.647	3.78
637.977	4.38
638.308	4.43
638.639	3.89
638.969	3.82
639.3	3.7
639.63	3.18
639.961	4.2
640.291	4.19
640.622	4.32
640.952	4.06
641.282	4.84
641.612	4.45
641.943	3.8
642.273	4.44
642.603	4.2
642.933	3.94
643.263	4.23
643.592	3.76
643.922	3.97
644.252	4.3
644.582	3.71
644.911	3.99
645.241	4.09
645.571	3.93
645.9	3.69
646.23	3.87
646.559	3.99
646.888	3.84
647.218	3.52
647.547	4.2
647.876	3.82
648.205	3.93
648.534	3.75
648.863	3.63
649.192	4.4
649.521	3.55
649.85	3.56
650.179	4.33
650.508	3.96
650.837	4.05
651.165	3.64
651.494	4.17
651.822	3.87
652.151	3.71
652.479	3.91
652.808	3.57
653.136	3.94
653.465	3.75
653.793	3.42
654.121	3.68
654.449	3.98
654.777	4.1
655.105	4.12
655.433	4.04
655.761	3.9
656.089	4.2
656.417	3.97
656.745	3.96
657.073	3.7
657.4	4.4
657.728	4.19
658.056	3.63
658.383	3.89
658.711	4.05
659.038	3.99
659.365	4.75
659.693	4.07
660.02	3.96
660.347	3.87
660.674	4.34
661.001	4.25
661.329	3.31
661.656	4.03
661.982	4.12
662.309	3.91
662.636	3.88
662.963	4.49
663.29	4.2
663.616	4.79
663.943	3.61
664.27	4.32
664.596	4.8
664.923	4.1
665.249	4.6
665.576	4.1
665.902	4.75
666.228	3.98
666.554	4.71
666.881	3.41
667.207	4.21
667.533	4.46
667.859	4.45
668.185	4.31
668.511	3.16
668.837	2.71
669.162	4.76
669.488	3.86
669.814	4.43
670.139	4.34
670.465	4.4
670.791	4.24
671.116	4.29
671.442	3.23
671.767	4.41
672.092	4.78
672.418	4.19
672.743	4.44
673.068	3.66
673.393	4.22
673.718	3.8
674.043	3.96
674.368	4.32
674.693	4.75
675.018	4.24
675.343	3.98
675.667	4.02
675.992	4.75
676.317	4.5
676.641	4.5
676.966	3.92
677.29	3.59
677.615	3.91
677.939	5.09
678.264	4.22
678.588	4.48
678.912	4.13
679.236	4.63
679.56	4.05
679.885	4
680.209	3.65
680.532	4.36
680.856	4.36
681.18	4.27
681.504	3.72
681.828	5
682.152	3.9
682.475	4.39
682.799	4.58
683.122	3.79
683.446	4.29
683.769	4.88
684.093	3.73
684.416	4.23
684.739	4.12
685.062	4.14
685.386	4.1
685.709	3.21
686.032	4.21
686.355	4.33
686.678	3.96
687.001	4.21
687.324	4.92
687.646	4.54
687.969	3.64
688.292	4.1
688.614	4.34
688.937	5.11
689.26	3.58
689.582	4.8
689.904	4.37
690.227	4.12
690.549	4.43
690.871	4.81
691.194	4.08
691.516	3.54
691.838	3.59
692.16	3.97
692.482	4.06
