Data from 0372_forehead_Reflection__4__168.txt Node

Date: Fri Dec 15 18:05:04 CST 2023
User: ToomeyLab
Spectrometer: FLMS14357
Trigger mode: 0
Integration Time (sec): 1.000000E-2
Scans to average: 100
Electric dark correction enabled: true
Nonlinearity correction enabled: false
Boxcar width: 0
XAxis mode: Wavelengths
Number of Pixels in Spectrum: 2048
>>>>>Begin Spectral Data<<<<<
189.047	253.32
189.435	253.32
189.823	253.32
190.211	-20.65
190.599	472.11
190.987	9.39
191.375	111.58
191.763	5.11
192.151	187.16
192.538	103.9
192.926	-887.1
193.314	288.34
193.702	-1569.16
194.089	28.28
194.477	47.6
194.864	151.4
195.252	102.15
195.639	3.55
196.027	139.93
196.414	130.88
196.801	-496.25
197.189	28.57
197.576	765.45
197.963	172.31
198.351	-72.68
198.738	-66.42
199.125	68.98
199.512	-2.34
199.899	27.96
200.286	3.17
200.673	37.16
201.06	43.45
201.447	18.64
201.833	59.87
202.22	-2.34
202.607	-16.8
202.994	-13.31
203.38	-12.77
203.767	27.57
204.154	38.04
204.54	40.41
204.927	-21.03
205.313	-54.46
205.699	51.91
206.086	50.75
206.472	5.21
206.858	2.16
207.245	-41.15
207.631	6.43
208.017	-2.27
208.403	0.01
208.789	19.83
209.175	-28.45
209.561	22.67
209.947	47.54
210.333	-10.6
210.719	12.46
211.105	-1.63
211.491	-24.62
211.876	33.89
212.262	13.02
212.648	0.01
213.034	23.36
213.419	-13.82
213.805	-23.98
214.19	1.37
214.576	-15.44
214.961	13.3
215.346	-60.6
215.732	14.52
216.117	23.3
216.502	-20.68
216.888	39.52
217.273	54.81
217.658	19.91
218.043	15.52
218.428	22.02
218.813	-20.92
219.198	-35.06
219.583	-9.05
219.968	2.47
220.353	14.09
220.738	37.27
221.122	14.8
221.507	5.19
221.892	-31.35
222.276	0.01
222.661	4.37
223.046	11.91
223.43	9.92
223.815	8.21
224.199	-15.09
224.583	-0.79
224.968	-11.31
225.352	13.01
225.736	-4.8
226.121	-8.67
226.505	-6.29
226.889	11.93
227.273	-5.56
227.657	9.19
228.041	-0.54
228.425	0.77
228.809	3.87
229.193	4.62
229.577	2.82
229.961	3.02
230.344	3.52
230.728	2.56
231.112	2.84
231.495	2.69
231.879	2.4
232.263	3.55
232.646	2.59
233.03	2.52
233.413	0.83
233.797	3.96
234.18	0.58
234.563	4.15
234.946	1.44
235.33	4.25
235.713	4.38
236.096	2.44
236.479	4.08
236.862	1.31
237.245	3.1
237.628	4.64
238.011	3.81
238.394	4.95
238.777	4.18
239.16	4.79
239.543	2.26
239.925	3.8
240.308	3.79
240.691	4.19
241.073	3.99
241.456	2.37
241.838	2.68
242.221	2.78
242.603	3.29
242.986	4.12
243.368	4.2
243.75	3.45
244.133	3.13
244.515	3.54
244.897	4
245.279	3.11
245.661	3.06
246.043	3.43
246.425	2.06
246.807	4.82
247.189	3.79
247.571	3.82
247.953	4.29
248.335	3.64
248.717	3.78
249.098	3.23
249.48	3.32
249.862	3.13
250.243	3.56
250.625	3.39
251.006	3.46
251.388	2.56
251.769	3.16
252.151	4.27
252.532	4.02
252.913	2.48
253.295	3.54
253.676	3.62
254.057	3.89
254.438	3.71
254.819	3.57
255.2	4.42
255.581	3.51
255.962	2.56
256.343	3.89
256.724	3.42
257.105	2.97
257.486	2.43
257.867	4.82
258.247	3.28
258.628	3.13
259.009	3.48
259.389	3.79
259.77	2.81
260.15	3.19
260.531	2.66
260.911	3.81
261.292	3.37
261.672	3.66
262.052	3.64
262.432	3.78
262.813	3.38
263.193	3.45
263.573	3.57
263.953	3.37
264.333	3.77
264.713	3.32
265.093	2.6
265.473	3.69
265.853	2.12
266.233	4.32
266.612	1.29
266.992	1.75
267.372	3.67
267.752	3.32
268.131	3.1
268.511	3.8
268.89	4.07
269.27	3.03
269.649	2.63
270.029	2.72
270.408	4.3
270.787	3.99
271.167	3.94
271.546	3.6
271.925	2.3
272.304	3.12
272.683	3.92
273.062	2.79
273.441	3.36
273.82	2.59
274.199	3.02
274.578	3.46
274.957	3.42
275.336	3.52
275.715	3.63
276.093	3.28
276.472	3.3
276.851	2.79
277.229	2.93
277.608	2.87
277.986	3.02
278.365	3.27
278.743	2.26
279.122	3.69
279.5	3.57
279.878	3.11
280.257	3.26
280.635	3.13
281.013	2.79
281.391	3.55
281.769	3.05
282.147	3.45
282.525	3.63
282.903	3.02
283.281	3.1
283.659	3.88
284.037	3.22
284.415	3.02
284.792	2.97
285.17	2.73
285.548	3.16
285.925	3.31
286.303	3.4
286.68	3.05
287.058	2.94
287.435	3.34
287.813	3.74
288.19	3.17
288.567	3.53
288.945	3.81
289.322	3.29
289.699	2.96
290.076	3.26
290.453	3.36
290.83	3.36
291.207	3
291.584	3.92
291.961	3.7
292.338	3.42
292.715	4.36
293.092	4.21
293.469	3.63
293.845	4.06
294.222	3.99
294.599	3.88
294.975	3.35
295.352	4.45
295.728	4.06
296.105	3.53
296.481	4.04
296.858	4.07
297.234	3.98
297.61	3.5
297.986	3.85
298.363	4.29
298.739	4.37
299.115	4.22
299.491	4.26
299.867	3.97
300.243	4.22
300.619	3.97
300.995	4.2
301.371	4.6
301.746	4.36
302.122	4.72
302.498	3.62
302.874	4.36
303.249	4.5
303.625	4.53
304	4.46
304.376	4.24
304.751	4.3
305.127	5.04
305.502	3.63
305.878	3.78
306.253	4.48
306.628	5.2
307.003	4.31
307.378	5.26
307.754	5.06
308.129	4.12
308.504	4.33
308.879	4.44
309.254	5.51
309.629	4.91
310.003	4.82
310.378	5.33
310.753	5.19
311.128	5.06
311.502	4.95
311.877	5.8
312.252	4.36
312.626	5.03
313.001	5.13
313.375	5.45
313.75	4.79
314.124	5.08
314.498	4.7
314.873	5.27
315.247	4.91
315.621	5.04
315.995	4.87
316.369	5.33
316.743	5.47
317.117	5.15
317.491	5.25
317.865	5.67
318.239	5.61
318.613	5.33
318.987	5.35
319.361	5.1
319.734	6.16
320.108	5.8
320.482	5.59
320.855	6.5
321.229	5.73
321.602	5.25
321.976	5.67
322.349	5.44
322.723	5.29
323.096	6.27
323.469	5.4
323.843	5.97
324.216	6.42
324.589	5.65
324.962	5.87
325.335	6.27
325.708	5.54
326.081	5.97
326.454	6.01
326.827	5.82
327.2	6.13
327.573	5.93
327.945	5.83
328.318	5.11
328.691	5.87
329.063	6.18
329.436	5.77
329.809	6.27
330.181	6.22
330.553	6.11
330.926	6.5
331.298	7.06
331.671	5.71
332.043	6.24
332.415	6.62
332.787	6.4
333.159	6.76
333.532	6.15
333.904	6.51
334.276	5.62
334.648	6.85
335.02	6.17
335.391	6.4
335.763	6.17
336.135	6.58
336.507	6.78
336.879	6.34
337.25	5.88
337.622	6.24
337.993	6.46
338.365	6.91
338.736	6.55
339.108	6.95
339.479	6.28
339.851	7.26
340.222	6.66
340.593	6.72
340.964	6.33
341.336	7.06
341.707	6.36
342.078	7.06
342.449	6.76
342.82	6.54
343.191	6.6
343.562	6.74
343.933	6.81
344.303	6.73
344.674	6.41
345.045	6.99
345.416	7.59
345.786	6.52
346.157	6.85
346.527	6.32
346.898	6.66
347.268	7.16
347.639	6.95
348.009	6.85
348.38	6.66
348.75	7.08
349.12	6.81
349.49	7.58
349.861	7.07
350.231	7.09
350.601	6.96
350.971	7.18
351.341	6.87
351.711	6.93
352.081	7.31
352.45	6.78
352.82	7.45
353.19	7.62
353.56	7.08
353.929	7.4
354.299	7.13
354.669	7.16
355.038	7.74
355.408	7.2
355.777	7.36
356.147	7.05
356.516	7.74
356.885	7.25
357.254	7.46
357.624	7.67
357.993	7.57
358.362	7.12
358.731	7.42
359.1	7.21
359.469	7.38
359.838	7.7
360.207	7.43
360.576	7.06
360.945	7.99
361.314	7.85
361.682	7.03
362.051	7.89
362.42	7.68
362.788	7.59
363.157	7.68
363.525	7.83
363.894	7.8
364.262	7.55
364.631	7.86
364.999	7.91
365.367	7.36
365.735	8.23
366.104	7.78
366.472	7.89
366.84	7.46
367.208	7.76
367.576	8.1
367.944	8.05
368.312	7.37
368.68	8
369.048	7.81
369.416	8.04
369.783	7.87
370.151	8.1
370.519	7.66
370.886	8.35
371.254	8.03
371.621	8.08
371.989	8.33
372.356	7.98
372.724	8.47
373.091	8.25
373.458	8.47
373.826	8.01
374.193	8.12
374.56	8.08
374.927	8.61
375.294	8.11
375.661	8.17
376.028	8.19
376.395	8.21
376.762	8.48
377.129	8.69
377.496	8.65
377.863	8.36
378.229	8.02
378.596	8.41
378.963	8.61
379.329	8.26
379.696	8.46
380.062	8.71
380.429	8.63
380.795	8.5
381.161	8.88
381.528	8.84
381.894	8.99
382.26	8.37
382.626	8.99
382.993	8.53
383.359	9.08
383.725	8.57
384.091	8.75
384.457	9.2
384.823	8.6
385.188	9.13
385.554	9.02
385.92	8.93
386.286	9.14
386.651	8.87
387.017	9.35
387.383	8.97
387.748	8.56
388.114	9
388.479	9.08
388.845	9.22
389.21	9.42
389.575	9.15
389.94	9.06
390.306	9.25
390.671	9.26
391.036	8.93
391.401	9.06
391.766	9.32
392.131	9.13
392.496	9.35
392.861	9.18
393.226	9.27
393.591	9.25
393.956	9.53
394.32	9.21
394.685	9.16
395.05	9.35
395.414	9.5
395.779	9.16
396.143	9.32
396.508	9.44
396.872	9.47
397.236	9.66
397.601	9.35
397.965	9.46
398.329	9.86
398.694	9.49
399.058	9.46
399.422	9.64
399.786	9.8
400.15	9.68
400.514	9.44
400.878	9.82
401.242	9.85
401.605	9.99
401.969	9.62
402.333	9.99
402.697	9.7
403.06	9.77
403.424	9.81
403.787	9.56
404.151	10.01
404.514	9.89
404.878	9.71
405.241	9.86
405.604	9.86
405.968	10.01
406.331	9.79
406.694	10
407.057	9.98
407.42	10.05
407.783	9.53
408.146	10.02
408.509	9.88
408.872	9.72
409.235	10.19
409.598	10.34
409.961	10.14
410.323	10.45
410.686	9.98
411.049	10.11
411.411	10.09
411.774	10.33
412.136	10.43
412.499	10.25
412.861	10.08
413.223	10.09
413.586	10.48
413.948	10.11
414.31	10.11
414.672	10.07
415.035	10.03
415.397	10.84
415.759	9.85
416.121	10.73
416.483	10.38
416.845	10.31
417.206	10.27
417.568	10.61
417.93	10.15
418.292	10.38
418.653	10.41
419.015	10.42
419.377	10.43
419.738	10.58
420.1	10.48
420.461	10.66
420.822	10.61
421.184	10.5
421.545	10.53
421.906	10.55
422.267	10.42
422.629	10.44
422.99	10.43
423.351	10.38
423.712	10.49
424.073	10.57
424.434	10.66
424.795	10.48
425.155	10.63
425.516	10.51
425.877	10.51
426.238	10.6
426.598	10.65
426.959	10.84
427.32	10.65
427.68	10.7
428.041	10.88
428.401	10.88
428.761	10.91
429.122	10.97
429.482	11.03
429.842	11.23
430.202	11.22
430.563	11.43
430.923	11.18
431.283	11.39
431.643	11.17
432.003	11.24
432.363	11.1
432.722	11.25
433.082	11.13
433.442	11.27
433.802	11.48
434.161	11.38
434.521	11.51
434.881	11.54
435.24	11.25
435.6	11.21
435.959	11.26
436.319	11.46
436.678	11.38
437.037	11.39
437.396	11.42
437.756	11.76
438.115	11.44
438.474	11.65
438.833	11.46
439.192	11.49
439.551	11.73
439.91	11.61
440.269	11.62
440.628	11.59
440.987	11.63
441.345	11.42
441.704	11.67
442.063	11.52
442.421	11.56
442.78	11.53
443.138	11.73
443.497	11.61
443.855	11.69
444.214	11.71
444.572	12.1
444.93	11.99
445.288	11.94
445.647	11.88
446.005	11.79
446.363	12
446.721	12.22
447.079	11.78
447.437	11.99
447.795	12
448.153	11.74
448.51	11.82
448.868	11.95
449.226	12.02
449.584	11.93
449.941	12.19
450.299	12.19
450.656	12.13
451.014	12.22
451.371	12.19
451.729	12.25
452.086	12.68
452.443	12.3
452.801	12.41
453.158	12.36
453.515	12.39
453.872	12.41
454.229	12.37
454.586	12.38
454.943	12.51
455.3	12.48
455.657	12.49
456.014	12.45
456.371	12.44
456.727	12.51
457.084	12.75
457.441	12.7
457.797	12.66
458.154	12.8
458.51	12.9
458.867	12.94
459.223	12.85
459.58	12.85
459.936	12.6
460.292	12.78
460.648	12.84
461.005	12.94
461.361	12.82
461.717	12.73
462.073	12.67
462.429	12.68
462.785	12.85
463.141	12.79
463.496	12.95
463.852	13.22
464.208	13.18
464.564	13.28
464.919	13.2
465.275	13.14
465.631	13.36
465.986	13.36
466.342	13.21
466.697	13.16
467.052	13.41
467.408	13.36
467.763	13.25
468.118	13.33
468.473	13.29
468.829	13.54
469.184	13.28
469.539	13.27
469.894	13.58
470.249	13.65
470.603	13.65
470.958	13.89
471.313	13.79
471.668	13.65
472.023	13.52
472.377	13.78
472.732	13.83
473.086	13.49
473.441	13.84
473.795	13.82
474.15	13.81
474.504	13.68
474.859	13.87
475.213	13.71
475.567	13.79
475.921	13.98
476.275	14.2
476.63	13.95
476.984	14.04
477.338	14.06
477.692	13.88
478.045	13.96
478.399	13.94
478.753	13.97
479.107	14.02
479.461	14.05
479.814	14.15
480.168	14.21
480.521	14.22
480.875	14.19
481.228	14.17
481.582	14.25
481.935	14.24
482.289	14.14
482.642	14.22
482.995	14.16
483.348	14.06
483.701	14.25
484.055	14.13
484.408	14.23
484.761	13.94
485.114	13.83
485.466	13.59
485.819	13.53
486.172	13.56
486.525	13.72
486.878	13.82
487.23	13.95
487.583	14.07
487.936	14.21
488.288	14.13
488.641	14.29
488.993	14.08
489.345	14.04
489.698	13.99
490.05	13.96
490.402	14.17
490.754	14.21
491.107	14.4
491.459	14.49
491.811	14.55
492.163	14.73
492.515	14.6
492.866	14.67
493.218	14.48
493.57	14.35
493.922	14.31
494.274	14.51
494.625	14.7
494.977	14.83
495.328	14.92
495.68	15.03
496.031	15.14
496.383	15.21
496.734	15.38
497.086	15.27
497.437	15.36
497.788	15.28
498.139	15.11
498.49	15.32
498.842	15.02
499.193	15.22
499.544	15.25
499.894	15.41
500.245	15.53
500.596	15.39
500.947	15.46
501.298	15.55
501.648	15.54
501.999	15.79
502.35	15.69
502.7	15.59
503.051	15.58
503.401	15.58
503.752	15.89
504.102	15.69
504.452	15.97
504.803	15.95
505.153	16
505.503	15.77
505.853	16
506.203	15.87
506.553	15.81
506.903	15.93
507.253	16
507.603	15.84
507.953	16.12
508.303	16.22
508.652	16.01
509.002	15.95
509.352	16.35
509.701	15.94
510.051	16.27
510.4	16.11
510.75	16.14
511.099	16.14
511.449	16.06
511.798	16.04
512.147	16.26
512.496	16.24
512.846	16.44
513.195	16.5
513.544	16.36
513.893	16.44
514.242	16.34
514.591	16.64
514.939	16.47
515.288	16.54
515.637	16.73
515.986	16.62
516.334	16.76
516.683	16.78
517.032	16.76
517.38	16.77
517.729	16.71
518.077	16.83
518.426	16.93
518.774	16.91
519.122	16.77
519.47	16.84
519.819	16.59
520.167	16.7
520.515	16.71
520.863	16.77
521.211	16.79
521.559	16.92
521.907	16.9
522.255	17.04
522.602	17.07
522.95	16.96
523.298	17.08
523.645	17.07
523.993	17.13
524.341	17.33
524.688	17.24
525.036	17.15
525.383	17.3
525.73	17.56
526.078	17.35
526.425	17.24
526.772	17.4
527.119	17.27
527.466	17.17
527.814	17.21
528.161	17.19
528.508	17.29
528.854	17.32
529.201	17.26
529.548	17.13
529.895	17.09
530.242	16.78
530.588	16.72
530.935	16.84
531.282	16.85
531.628	17.02
531.975	17.2
532.321	17.41
532.667	17.5
533.014	17.56
533.36	17.76
533.706	17.66
534.052	17.63
534.399	17.53
534.745	17.53
535.091	17.44
535.437	17.53
535.783	17.51
536.129	17.61
536.474	17.75
536.82	17.97
537.166	18.08
537.512	17.98
537.857	18.06
538.203	18.15
538.549	17.86
538.894	17.97
539.239	18.03
539.585	18.22
539.93	18.14
540.276	18.53
540.621	18.58
540.966	18.25
541.311	18.44
541.656	18.54
542.001	18.6
542.346	18.51
542.691	18.32
543.036	18
543.381	17.83
543.726	17.9
544.071	18.18
544.415	18.31
544.76	18.34
545.105	18.37
545.449	18.39
545.794	18.59
546.138	18.68
546.483	18.85
546.827	19
547.171	18.84
547.516	19.09
547.86	18.89
548.204	19.09
548.548	18.83
548.892	18.95
549.236	19.04
549.58	19.03
549.924	19.15
550.268	19.45
550.612	19.28
550.956	19.55
551.3	19.56
551.643	19.74
551.987	19.72
552.33	19.7
552.674	19.78
553.017	19.58
553.361	19.54
553.704	19.88
554.048	19.84
554.391	19.37
554.734	19.57
555.077	19.62
555.42	19.53
555.764	19.83
556.107	19.78
556.45	19.56
556.793	20.03
557.135	20.07
557.478	20.03
557.821	20.09
558.164	20.13
558.507	20.27
558.849	20.31
559.192	20.09
559.534	20
559.877	20.21
560.219	20.2
560.562	20.51
560.904	20.3
561.246	20.39
561.589	20.29
561.931	20.39
562.273	20.07
562.615	20.58
562.957	20.42
563.299	20.42
563.641	20.36
563.983	20.62
564.325	20.38
564.667	20.73
565.008	20.67
565.35	20.66
565.692	20.52
566.033	20.58
566.375	20.88
566.716	20.83
567.058	20.84
567.399	20.77
567.741	20.56
568.082	20.76
568.423	20.52
568.764	20.84
569.105	20.91
569.447	20.93
569.788	21
570.129	21.19
570.47	21.15
570.811	21.25
571.151	21.04
571.492	21
571.833	21.36
572.174	21.02
572.514	21.15
572.855	21.29
573.195	21.16
573.536	21.15
573.876	21.1
574.217	21.1
574.557	21.27
574.898	21.35
575.238	21.5
575.578	21.25
575.918	21.73
576.258	21.73
576.598	21.52
576.938	21.43
577.278	21.55
577.618	21.58
577.958	21.64
578.298	21.82
578.638	21.63
578.977	21.88
579.317	21.87
579.657	22.1
579.996	21.84
580.336	21.87
580.675	22.05
581.014	22.13
581.354	22.11
581.693	21.91
582.032	21.92
582.372	22.14
582.711	21.98
583.05	22
583.389	22.36
583.728	21.99
584.067	22.59
584.406	22.43
584.745	22.31
585.083	22.42
585.422	22.49
585.761	22.35
586.1	22.53
586.438	22.45
586.777	22.52
587.115	22.99
587.454	22.42
587.792	22.71
588.13	22.56
588.469	22.73
588.807	22.71
589.145	22.07
589.483	22.81
589.821	22.65
590.159	22.8
590.497	23.05
590.835	22.9
591.173	23.08
591.511	23.04
591.849	22.67
592.187	23.1
592.524	22.81
592.862	22.97
593.2	23.13
593.537	22.98
593.875	22.88
594.212	23.08
594.55	22.93
594.887	23.28
595.224	22.79
595.561	23.13
595.899	23.1
596.236	23.23
596.573	23
596.91	22.99
597.247	23.09
597.584	23.32
597.921	23.04
598.258	23.23
598.594	23.08
598.931	23.25
599.268	23.24
599.604	23.11
599.941	23.35
600.277	23.46
600.614	23.27
600.95	23.47
601.287	23.72
601.623	23.5
601.959	23.57
602.296	23.88
602.632	23.75
602.968	23.7
603.304	23.68
603.64	23.9
603.976	23.97
604.312	23.66
604.648	23.51
604.984	23.66
605.319	23.69
605.655	23.64
605.991	23.94
606.326	23.88
606.662	24.01
606.998	23.26
607.333	23.64
607.668	23.71
608.004	23.98
608.339	24.47
608.674	24.05
609.01	24.1
609.345	23.95
609.68	24.51
610.015	24.11
610.35	24.04
610.685	23.89
611.02	24.11
611.355	24.14
611.689	23.85
612.024	24.12
612.359	24.03
612.694	24.26
613.028	24.72
613.363	24.52
613.697	24.72
614.032	24.67
614.366	24.53
614.7	24.53
615.035	24.65
615.369	24.58
615.703	24.92
616.037	24.56
616.371	24.65
616.705	24.63
617.039	24.85
617.373	24.83
617.707	24.85
618.041	24.71
618.375	25.12
618.709	24.76
619.042	24.99
619.376	25.15
619.71	25.12
620.043	25.14
620.377	25.2
620.71	24.8
621.043	24.89
621.377	25.09
621.71	25.15
622.043	24.82
622.376	25.04
622.709	25.17
623.043	25.1
623.376	25.07
623.709	24.97
624.041	25.51
624.374	25.02
624.707	25.53
625.04	25.68
625.373	25.43
625.705	25.64
626.038	25.81
626.37	25.52
626.703	25.74
627.035	25.77
627.368	25.52
627.7	25.3
628.032	25.3
628.365	25.64
628.697	25.72
629.029	25.29
629.361	25.47
629.693	25.68
630.025	25.69
630.357	25.85
630.689	26.11
631.021	25.87
631.353	25.75
631.684	25.81
632.016	25.64
632.348	25.94
632.679	26.17
633.011	25.86
633.342	26.35
633.674	26.29
634.005	26.61
634.336	25.85
634.668	26.72
634.999	26.31
635.33	26.46
635.661	26.15
635.992	25.86
636.323	26.07
636.654	26.18
636.985	25.99
637.316	26.12
637.647	25.8
637.977	26.43
638.308	26.43
638.639	26.17
638.969	26.31
639.3	26.53
639.63	26.24
639.961	26.54
640.291	26.44
640.622	26.77
640.952	26.41
641.282	26.76
641.612	26.42
641.943	26.25
642.273	26.7
642.603	26.42
642.933	26.72
643.263	26.8
643.592	26.24
643.922	26.61
644.252	26.17
644.582	26.69
644.911	26.85
645.241	26.35
645.571	26.54
645.9	26.51
646.23	26.79
646.559	26.36
646.888	26.55
647.218	26.99
647.547	27.04
647.876	26.54
648.205	26.79
648.534	26.79
648.863	27.03
649.192	27.14
649.521	26.82
649.85	26.63
650.179	27.2
650.508	26.91
650.837	27.3
651.165	26.83
651.494	26.84
651.822	26.79
652.151	27.02
652.479	27.41
652.808	26.87
653.136	27.38
653.465	26.42
653.793	27.39
654.121	26.76
654.449	27.01
654.777	26.94
655.105	27.41
655.433	27.3
655.761	27.92
656.089	27.23
656.417	27.29
656.745	27.38
657.073	27.27
657.4	28.24
657.728	27.42
658.056	27.65
658.383	27.36
658.711	27.49
659.038	27.57
659.365	28.36
659.693	27.52
660.02	27.64
660.347	27.5
660.674	28.09
661.001	27.16
661.329	27.45
661.656	27.48
661.982	27.77
662.309	28.24
662.636	27.96
662.963	28.64
663.29	27.43
663.616	28.8
663.943	27.59
664.27	27.67
664.596	27.98
664.923	27.96
665.249	27.66
665.576	27.75
665.902	28.86
666.228	28.03
666.554	28.26
666.881	27.97
667.207	28.13
667.533	28.22
667.859	27.98
668.185	28.7
668.511	27.88
668.837	27.75
669.162	28.25
669.488	27.92
669.814	28.43
670.139	28.27
670.465	28.08
670.791	28.78
671.116	28.8
671.442	27.57
671.767	28.74
672.092	29.11
672.418	28.7
672.743	28.91
673.068	28.21
673.393	28.73
673.718	28.73
674.043	28.99
674.368	28.87
