Data from 0372_forehead_Reflection__2__166.txt Node

Date: Fri Dec 15 18:04:46 CST 2023
User: ToomeyLab
Spectrometer: FLMS14357
Trigger mode: 0
Integration Time (sec): 1.000000E-2
Scans to average: 100
Electric dark correction enabled: true
Nonlinearity correction enabled: false
Boxcar width: 0
XAxis mode: Wavelengths
Number of Pixels in Spectrum: 2048
>>>>>Begin Spectral Data<<<<<
189.047	80.53
189.435	80.53
189.823	80.53
190.211	230.13
190.599	1255.78
190.987	110.08
191.375	81.65
191.763	-98.93
192.151	166.85
192.538	249.16
192.926	-145.45
193.314	376.1
193.702	1091.59
194.089	-131.68
194.477	13.43
194.864	-166.84
195.252	59.95
195.639	84.75
196.027	141.41
196.414	66.21
196.801	-254.92
197.189	69.12
197.576	4567.27
197.963	20.43
198.351	-53.63
198.738	-55.78
199.125	37.86
199.512	35.4
199.899	35.2
200.286	32.88
200.673	30.28
201.06	11.65
201.447	9.42
201.833	28.01
202.22	14.49
202.607	18.71
202.994	-5.6
203.38	91.65
203.767	55.7
204.154	28.24
204.54	7.18
204.927	-27.77
205.313	-10.85
205.699	63
206.086	57.02
206.472	62.49
206.858	32.49
207.245	-61.26
207.631	34.2
208.017	36.85
208.403	-26.93
208.789	44.95
209.175	25.63
209.561	38.37
209.947	36.85
210.333	-50.03
210.719	26.54
211.105	7.53
211.491	-34.57
211.876	44.68
212.262	4.05
212.648	39.62
213.034	21.39
213.419	-29.43
213.805	-1.45
214.19	-23.12
214.576	19.83
214.961	6.84
215.346	-59.07
215.732	-10.05
216.117	22.69
216.502	-2.78
216.888	-8.76
217.273	40.73
217.658	-7.22
218.043	16.18
218.428	-4.53
218.813	0.56
219.198	23.43
219.583	-7.16
219.968	39.95
220.353	-2.76
220.738	14.03
221.122	15.71
221.507	-10.57
221.892	-40.51
222.276	-16.34
222.661	3.29
223.046	21.71
223.43	21.24
223.815	18.29
224.199	7.11
224.583	4.03
224.968	14.69
225.352	12.04
225.736	6.25
226.121	-6.57
226.505	5.25
226.889	3.42
227.273	0.75
227.657	10.88
228.041	3.37
228.425	1.83
228.809	5.58
229.193	2.44
229.577	4.05
229.961	3.21
230.344	2.89
230.728	1.55
231.112	3.79
231.495	2.03
231.879	1.97
232.263	3.28
232.646	3.18
233.03	3.08
233.413	2.73
233.797	2.75
234.18	1.75
234.563	2.11
234.946	3.25
235.33	2.81
235.713	3.22
236.096	2.63
236.479	4.14
236.862	2.07
237.245	5.35
237.628	1.16
238.011	4.83
238.394	6.06
238.777	4.06
239.16	2.49
239.543	3.34
239.925	2.97
240.308	2.23
240.691	2.59
241.073	3.56
241.456	1.06
241.838	3.33
242.221	1.47
242.603	2.59
242.986	3.63
243.368	3.35
243.75	2.25
244.133	2.44
244.515	3.23
244.897	2.88
245.279	3.21
245.661	3.07
246.043	2.55
246.425	1.91
246.807	4.18
247.189	3.08
247.571	3.6
247.953	3.32
248.335	2.66
248.717	3.23
249.098	2.89
249.48	2.91
249.862	2.82
250.243	3.12
250.625	2.67
251.006	2.93
251.388	1.57
251.769	2.99
252.151	3.38
252.532	3.65
252.913	3
253.295	2.94
253.676	3.14
254.057	2.99
254.438	2.6
254.819	2.68
255.2	2.12
255.581	3.05
255.962	3.91
256.343	3.74
256.724	2.81
257.105	2.7
257.486	2.52
257.867	3.23
258.247	2.91
258.628	2.77
259.009	2.53
259.389	2.92
259.77	2.87
260.15	2.79
260.531	2.39
260.911	3.29
261.292	3.21
261.672	3
262.052	2.84
262.432	3.18
262.813	3.51
263.193	2.74
263.573	3.27
263.953	2.63
264.333	2.91
264.713	3.21
265.093	3.28
265.473	3.28
265.853	1.44
266.233	2.78
266.612	1.3
266.992	1.56
267.372	3.79
267.752	3.23
268.131	2.62
268.511	3.72
268.89	3.42
269.27	2.25
269.649	2.16
270.029	2.73
270.408	3.53
270.787	3.31
271.167	3.81
271.546	3.03
271.925	2.23
272.304	3.1
272.683	3.11
273.062	2.78
273.441	2.67
273.82	1.94
274.199	2.73
274.578	3.08
274.957	2.57
275.336	2.93
275.715	2.2
276.093	2.13
276.472	3.14
276.851	2.13
277.229	2.66
277.608	2.29
277.986	3.06
278.365	2.91
278.743	2.45
279.122	2.48
279.5	2.88
279.878	2.87
280.257	2.64
280.635	2.34
281.013	1.92
281.391	3.04
281.769	2.94
282.147	3.74
282.525	3.58
282.903	2.36
283.281	2.91
283.659	2.63
284.037	2.99
284.415	3.24
284.792	2.71
285.17	1.95
285.548	2.93
285.925	2.56
286.303	3.48
286.68	2.79
287.058	2.69
287.435	2.89
287.813	2.74
288.19	2.62
288.567	2.89
288.945	3.36
289.322	3.07
289.699	2.53
290.076	3.05
290.453	2.56
290.83	2.96
291.207	2.84
291.584	3.05
291.961	3.18
292.338	2.78
292.715	3.31
293.092	2.77
293.469	3.42
293.845	3.38
294.222	2.47
294.599	3.27
294.975	2.68
295.352	3.5
295.728	2.98
296.105	3.37
296.481	3.81
296.858	3.22
297.234	3.17
297.61	3.07
297.986	3.35
298.363	3.67
298.739	3.31
299.115	3.39
299.491	3.1
299.867	3.35
300.243	3.28
300.619	3.33
300.995	3.03
301.371	4.02
301.746	3.74
302.122	4.2
302.498	3.71
302.874	3.78
303.249	3.14
303.625	3.4
304	4.11
304.376	3.92
304.751	3.12
305.127	4.43
305.502	3
305.878	3.41
306.253	3.89
306.628	3.88
307.003	3.62
307.378	4.72
307.754	4.39
308.129	3.29
308.504	4
308.879	3.59
309.254	4.76
309.629	4.89
310.003	4.18
310.378	4.46
310.753	4.09
311.128	4.68
311.502	4.55
311.877	4.5
312.252	4.09
312.626	3.96
313.001	4.15
313.375	4.64
313.75	3.78
314.124	4.6
314.498	4.21
314.873	4.8
315.247	4.46
315.621	4.71
315.995	3.69
316.369	4.59
316.743	4.99
317.117	4.9
317.491	4.31
317.865	5.49
318.239	4.4
318.613	5.11
318.987	5.23
319.361	4.03
319.734	5.19
320.108	5.16
320.482	4.68
320.855	5.17
321.229	4.76
321.602	4.63
321.976	5.25
322.349	4.97
322.723	4.77
323.096	5.41
323.469	4.32
323.843	5.28
324.216	5.19
324.589	5.48
324.962	4.93
325.335	4.55
325.708	4.87
326.081	5.04
326.454	5.41
326.827	4.86
327.2	5.57
327.573	5.65
327.945	4.74
328.318	4.71
328.691	5.37
329.063	5.03
329.436	5.25
329.809	6.01
330.181	5.44
330.553	5.52
330.926	6.22
331.298	5.46
331.671	5.03
332.043	6.25
332.415	5.74
332.787	5.31
333.159	6.19
333.532	6.07
333.904	5.83
334.276	5.68
334.648	5.53
335.02	5.76
335.391	5.74
335.763	5.59
336.135	6.12
336.507	6.47
336.879	6.06
337.25	5.9
337.622	5.88
337.993	5.91
338.365	5.98
338.736	6.19
339.108	6.03
339.479	5.76
339.851	6.08
340.222	5.49
340.593	5.85
340.964	5.85
341.336	6.45
341.707	5.61
342.078	6.42
342.449	5.95
342.82	5.9
343.191	6.4
343.562	6.68
343.933	6.56
344.303	6.06
344.674	6.41
345.045	6.74
345.416	6.7
345.786	6.1
346.157	5.95
346.527	5.97
346.898	6.3
347.268	6.81
347.639	6.31
348.009	6.59
348.38	6.43
348.75	6.35
349.12	6.42
349.49	7
349.861	6.72
350.231	6.44
350.601	7.23
350.971	7.03
351.341	6.94
351.711	6.98
352.081	6.25
352.45	6.51
352.82	6.95
353.19	6.87
353.56	6.21
353.929	6.66
354.299	6.4
354.669	6.63
355.038	6.84
355.408	7.15
355.777	7.3
356.147	7.13
356.516	6.87
356.885	6.94
357.254	6.92
357.624	7.12
357.993	6.9
358.362	6.83
358.731	6.53
359.1	6.95
359.469	7.08
359.838	7.22
360.207	6.92
360.576	6.8
360.945	7.31
361.314	7.57
361.682	7
362.051	6.79
362.42	7.09
362.788	7.02
363.157	7.01
363.525	7.47
363.894	7.34
364.262	7.14
364.631	7.67
364.999	7.27
365.367	7.05
365.735	7.63
366.104	7.53
366.472	7.65
366.84	7.45
367.208	7.54
367.576	7.62
367.944	7.56
368.312	7.11
368.68	7.39
369.048	7.75
369.416	7.82
369.783	7.52
370.151	7.89
370.519	7.87
370.886	8.02
371.254	7.63
371.621	7.88
371.989	8.01
372.356	7.39
372.724	8.07
373.091	7.89
373.458	7.83
373.826	8.09
374.193	7.82
374.56	7.98
374.927	8.34
375.294	8.43
375.661	7.84
376.028	8.08
376.395	7.93
376.762	8.15
377.129	8.48
377.496	8.3
377.863	8.17
378.229	8.21
378.596	8.43
378.963	8.22
379.329	7.94
379.696	8.36
380.062	8.36
380.429	8.43
380.795	8.45
381.161	8.48
381.528	8.77
381.894	8.48
382.26	8.35
382.626	8.89
382.993	8.1
383.359	8.72
383.725	8.41
384.091	8.63
384.457	9.05
384.823	8.46
385.188	8.8
385.554	8.68
385.92	8.86
386.286	9.03
386.651	9.23
387.017	9.13
387.383	9.08
387.748	8.92
388.114	9.01
388.479	8.72
388.845	9.14
389.21	9.04
389.575	9.32
389.94	8.95
390.306	9.23
390.671	9.33
391.036	8.95
391.401	8.76
391.766	9.33
392.131	9.14
392.496	9.25
392.861	9.05
393.226	9.38
393.591	9.24
393.956	9.06
394.32	9.33
394.685	9.23
395.05	9.19
395.414	9.33
395.779	8.86
396.143	9.01
396.508	9.53
396.872	9.55
397.236	9.48
397.601	9.25
397.965	9.16
398.329	9.45
398.694	9.3
399.058	9.73
399.422	9.41
399.786	9.79
400.15	9.69
400.514	9.48
400.878	9.58
401.242	10.03
401.605	9.89
401.969	9.66
402.333	9.73
402.697	9.69
403.06	9.77
403.424	9.65
403.787	9.82
404.151	9.97
404.514	9.59
404.878	9.78
405.241	9.87
405.604	9.61
405.968	9.85
406.331	9.73
406.694	10.14
407.057	9.89
407.42	10.1
407.783	9.87
408.146	10.1
408.509	9.98
408.872	10.08
409.235	10.41
409.598	10.59
409.961	10.12
410.323	10.27
410.686	9.77
411.049	9.92
411.411	10.23
411.774	10.24
412.136	9.96
412.499	10.16
412.861	10.15
413.223	10.14
413.586	10.32
413.948	10.28
414.31	10.41
414.672	10.21
415.035	10.19
415.397	10.72
415.759	10.02
416.121	10.48
416.483	10.47
416.845	10.4
417.206	10.43
417.568	10.52
417.93	10.15
418.292	10.27
418.653	10.35
419.015	10.54
419.377	10.65
419.738	10.56
420.1	10.52
420.461	10.65
420.822	10.71
421.184	10.43
421.545	10.56
421.906	10.45
422.267	10.61
422.629	10.48
422.99	10.62
423.351	10.57
423.712	10.66
424.073	10.74
424.434	10.73
424.795	10.83
425.155	10.73
425.516	10.62
425.877	10.72
426.238	10.73
426.598	11
426.959	11.05
427.32	11.03
427.68	11.03
428.041	11.14
428.401	11.23
428.761	11.34
429.122	11.45
429.482	11.39
429.842	11.65
430.202	11.49
430.563	11.47
430.923	11.42
431.283	11.81
431.643	11.56
432.003	11.6
432.363	11.78
432.722	11.57
433.082	11.85
433.442	11.79
433.802	11.81
434.161	11.95
434.521	12.21
434.881	11.99
435.24	11.64
435.6	11.92
435.959	11.76
436.319	11.9
436.678	12.02
437.037	12.14
437.396	11.9
437.756	12.2
438.115	11.98
438.474	12.19
438.833	12.14
439.192	12.15
439.551	12.2
439.91	12.36
440.269	12.26
440.628	12.37
440.987	12.35
441.345	12.12
441.704	12.34
442.063	12.22
442.421	12.38
442.78	12.29
443.138	12.41
443.497	12.57
443.855	12.49
444.214	12.66
444.572	12.74
444.93	12.75
445.288	12.86
445.647	12.84
446.005	12.5
446.363	12.77
446.721	12.94
447.079	12.7
447.437	12.75
447.795	12.8
448.153	12.58
448.51	12.75
448.868	12.81
449.226	12.92
449.584	12.96
449.941	13.15
450.299	13.07
450.656	13.18
451.014	13.28
451.371	13.18
451.729	13.29
452.086	13.49
452.443	13.42
452.801	13.64
453.158	13.53
453.515	13.2
453.872	13.49
454.229	13.33
454.586	13.25
454.943	13.62
455.3	13.82
455.657	13.69
456.014	13.78
456.371	13.91
456.727	13.84
457.084	14.11
457.441	13.88
457.797	13.97
458.154	14.05
458.51	14.06
458.867	14.19
459.223	14.14
459.58	14.27
459.936	13.99
460.292	13.97
460.648	14.02
461.005	13.93
461.361	13.94
461.717	13.84
462.073	13.81
462.429	14.11
462.785	14.25
463.141	14.17
463.496	14.53
463.852	14.64
464.208	14.5
464.564	14.74
464.919	14.69
465.275	14.73
465.631	14.89
465.986	14.52
466.342	14.67
466.697	14.64
467.052	14.86
467.408	15
467.763	14.72
468.118	14.9
468.473	14.73
468.829	14.92
469.184	15.02
469.539	15.08
469.894	15.1
470.249	15.15
470.603	15.14
470.958	15.29
471.313	15.38
471.668	15.33
472.023	15.27
472.377	15.3
472.732	15.23
473.086	15.4
473.441	15.14
473.795	15.65
474.15	15.47
474.504	15.62
474.859	15.8
475.213	15.43
475.567	15.6
475.921	15.58
476.275	15.82
476.63	15.67
476.984	15.92
477.338	16.04
477.692	15.86
478.045	15.71
478.399	15.53
478.753	15.98
479.107	15.74
479.461	15.78
479.814	16.04
480.168	16.12
480.521	16.08
480.875	16.07
481.228	16.17
481.582	16.32
481.935	16.17
482.289	16.2
482.642	16.1
482.995	16.03
483.348	15.93
483.701	15.94
484.055	16.08
484.408	16.02
484.761	15.69
485.114	15.64
485.466	15.08
485.819	15.04
486.172	15.32
486.525	15.65
486.878	15.99
487.23	16.21
487.583	16.27
487.936	16.36
488.288	16.26
488.641	16.13
488.993	15.82
489.345	15.79
489.698	15.86
490.05	15.98
490.402	16.27
490.754	16.5
491.107	16.7
491.459	16.82
491.811	16.95
492.163	17.1
492.515	16.81
492.866	16.51
493.218	16.37
493.57	16.22
493.922	16.32
494.274	16.79
494.625	16.95
494.977	17.15
495.328	17.47
495.68	17.47
496.031	17.65
496.383	17.65
496.734	17.94
497.086	17.81
497.437	17.56
497.788	17.7
498.139	17.48
498.49	17.49
498.842	17.46
499.193	17.52
499.544	18
499.894	17.75
500.245	17.84
500.596	17.84
500.947	17.96
501.298	17.98
501.648	18.13
501.999	18.24
502.35	18.12
502.7	18.29
503.051	18.35
503.401	18.37
503.752	18.34
504.102	18.5
504.452	18.43
504.803	18.4
505.153	18.55
505.503	18.58
505.853	18.61
506.203	18.38
506.553	18.76
506.903	18.7
507.253	18.66
507.603	18.59
507.953	18.9
508.303	18.95
508.652	18.86
509.002	18.89
509.352	18.94
509.701	18.71
510.051	18.91
510.4	18.86
510.75	18.82
511.099	19.01
511.449	18.87
511.798	19.1
512.147	18.98
512.496	19.02
512.846	19.05
513.195	19.33
513.544	19.3
513.893	19.26
514.242	19.22
514.591	19.45
514.939	19.14
515.288	19.48
515.637	19.66
515.986	19.64
516.334	19.68
516.683	19.62
517.032	19.72
517.38	19.91
517.729	19.84
518.077	19.64
518.426	19.89
518.774	19.84
519.122	19.46
519.47	19.72
519.819	19.47
520.167	19.59
520.515	19.52
520.863	19.78
521.211	19.76
521.559	20.01
521.907	19.93
522.255	20.06
522.602	20.13
522.95	20.3
523.298	20.27
523.645	20.44
523.993	20.48
524.341	20.44
524.688	20.6
525.036	20.29
525.383	20.51
525.73	20.73
526.078	20.75
526.425	20.49
526.772	20.58
527.119	20.18
527.466	20.17
527.814	20.16
528.161	20.29
528.508	20.48
528.854	20.55
529.201	20.48
529.548	20.21
529.895	19.95
530.242	19.57
530.588	19.36
530.935	19.71
531.282	20.18
531.628	20.39
531.975	20.65
532.321	20.79
532.667	20.91
533.014	21.03
533.36	21.06
533.706	21.02
534.052	20.99
534.399	20.91
534.745	20.74
535.091	20.53
535.437	20.53
535.783	20.78
536.129	21.2
536.474	21.37
536.82	21.51
537.166	21.71
537.512	21.71
537.857	21.54
538.203	21.44
538.549	21.16
538.894	21.33
539.239	21.71
539.585	21.77
539.93	21.94
540.276	22.06
540.621	22.28
540.966	22.12
541.311	22.11
541.656	22.04
542.001	22.16
542.346	21.76
542.691	21.55
543.036	21.13
543.381	21.04
543.726	21.39
544.071	21.83
544.415	22.06
544.76	22.19
545.105	22.05
545.449	22.16
545.794	22.43
546.138	22.66
546.483	22.59
546.827	22.89
547.171	22.64
547.516	22.83
547.86	22.68
548.204	22.65
548.548	22.62
548.892	22.76
549.236	22.68
549.58	23.17
549.924	23.24
550.268	23.4
550.612	23.37
550.956	23.76
551.3	23.6
551.643	23.9
551.987	23.81
552.33	23.73
552.674	23.94
553.017	23.7
553.361	23.82
553.704	23.78
554.048	23.63
554.391	23.82
554.734	23.54
555.077	23.82
555.42	23.93
555.764	24.2
556.107	24.02
556.45	24.07
556.793	24.3
557.135	24.32
557.478	24.35
557.821	24.46
558.164	24.62
558.507	24.6
558.849	24.37
559.192	24.66
559.534	24.7
559.877	24.65
560.219	24.79
560.562	25.07
560.904	24.94
561.246	24.8
561.589	25.02
561.931	24.96
562.273	24.73
562.615	24.92
562.957	24.85
563.299	24.91
563.641	24.93
563.983	25.04
564.325	25.03
564.667	25.32
565.008	25.2
565.35	25.26
565.692	25.24
566.033	25.6
566.375	25.55
566.716	25.79
567.058	25.47
567.399	25.55
567.741	25.15
568.082	25.38
568.423	25.2
568.764	25.27
569.105	25.6
569.447	25.93
569.788	25.94
570.129	26.17
570.47	26.07
570.811	26.06
571.151	26.14
571.492	26.12
571.833	26.07
572.174	25.86
572.514	26.26
572.855	26.09
573.195	26.01
573.536	25.99
573.876	26
574.217	26.04
574.557	26.2
574.898	26.22
575.238	26.37
575.578	26.24
575.918	26.53
576.258	26.66
576.598	26.43
576.938	26.39
577.278	26.63
577.618	26.65
577.958	26.64
578.298	26.96
578.638	26.91
578.977	26.89
579.317	26.88
579.657	27.26
579.996	27.09
580.336	27.31
580.675	27.25
581.014	27.18
581.354	27.41
581.693	27.28
582.032	27.59
582.372	27.67
582.711	27.67
583.05	27.5
583.389	27.75
583.728	27.55
584.067	27.84
584.406	27.82
584.745	27.93
585.083	27.78
585.422	28.2
585.761	28.05
586.1	28.09
586.438	28.34
586.777	28.31
587.115	28.32
587.454	28.3
587.792	28.28
588.13	28.47
588.469	28.43
588.807	28.43
589.145	28.24
589.483	28.19
589.821	28.19
590.159	28.47
590.497	28.98
590.835	28.88
591.173	28.74
591.511	28.77
591.849	28.63
592.187	28.83
592.524	28.61
592.862	28.88
593.2	29.09
593.537	28.88
593.875	28.8
594.212	29.12
594.55	28.98
594.887	29.43
595.224	28.97
595.561	28.86
595.899	29.17
596.236	29.29
596.573	29.2
596.91	28.91
597.247	29.08
597.584	29.23
597.921	29.26
598.258	29.23
598.594	29.28
598.931	29.19
599.268	29.39
599.604	29.32
599.941	29.68
600.277	29.59
600.614	29.79
600.95	29.72
601.287	30.1
601.623	30.11
601.959	29.78
602.296	30.09
602.632	30.2
602.968	30.01
603.304	30.16
603.64	30.34
603.976	29.97
604.312	30.59
604.648	29.89
604.984	30.37
605.319	29.98
605.655	30.3
605.991	30.26
606.326	30.19
606.662	29.93
606.998	30.09
607.333	30.45
607.668	30.56
608.004	30.82
608.339	30.62
608.674	30.83
609.01	30.79
609.345	30.52
609.68	31.36
610.015	31.15
610.35	30.95
610.685	30.81
611.02	30.73
611.355	31.08
611.689	30.63
612.024	31.26
612.359	31.07
612.694	31.23
613.028	31.31
613.363	31.72
613.697	31.88
614.032	31.63
614.366	31.39
614.7	31.94
615.035	31.46
615.369	31.83
615.703	31.79
616.037	31.41
616.371	31.92
616.705	32.18
617.039	31.66
617.373	32.01
617.707	32
618.041	32.13
618.375	32.33
618.709	32.09
619.042	32.13
619.376	32.33
619.71	32.5
620.043	32.75
620.377	32.3
620.71	32.32
621.043	32.47
621.377	32.6
621.71	32.53
622.043	32.81
622.376	32.7
622.709	32.61
623.043	32.58
623.376	32.5
623.709	32.55
624.041	33.05
624.374	33.07
624.707	32.48
625.04	32.88
625.373	32.84
625.705	33.34
626.038	33
626.37	32.75
626.703	32.97
627.035	33.26
627.368	33.35
627.7	33.04
628.032	33.07
628.365	33.16
628.697	32.81
629.029	32.8
629.361	32.88
629.693	32.97
630.025	33.23
630.357	33.79
630.689	33.88
631.021	33.39
631.353	33.9
631.684	33.7
632.016	33.71
632.348	34.4
632.679	34.1
633.011	33.74
633.342	34.09
633.674	33.84
634.005	33.85
634.336	33.78
634.668	34.83
634.999	34.22
635.33	34.36
635.661	33.94
635.992	33.77
636.323	34.25
636.654	34.27
636.985	34.71
637.316	34.15
637.647	33.84
637.977	34.52
638.308	34.8
638.639	34.21
638.969	34.49
639.3	34.2
639.63	34.83
639.961	34.94
640.291	35.02
640.622	35.52
640.952	34.8
641.282	35.05
641.612	35.38
641.943	35.1
642.273	35.96
642.603	35.68
642.933	35.74
643.263	35.57
643.592	35.48
643.922	35.29
644.252	35.18
644.582	36.13
644.911	34.79
645.241	34.6
645.571	35.75
645.9	35.3
646.23	35.61
646.559	35.46
646.888	35.79
647.218	35.84
647.547	35.98
647.876	35.6
648.205	35.9
648.534	35.6
648.863	35.95
649.192	36.15
649.521	35.48
649.85	36.03
650.179	35.94
650.508	35.89
650.837	36.1
651.165	35.85
651.494	36.43
651.822	36.49
652.151	35.68
652.479	36.7
652.808	36.25
653.136	36.29
653.465	35.71
653.793	35.79
654.121	36.15
654.449	36.09
654.777	36.61
655.105	36.71
655.433	36.89
655.761	36.82
656.089	36.92
656.417	36.54
656.745	36.9
657.073	36.69
657.4	37.75
657.728	36.59
658.056	36.91
658.383	36.8
658.711	36.75
659.038	36.9
659.365	37.56
659.693	36.89
660.02	37.08
660.347	36.73
660.674	36.91
661.001	36.99
661.329	36.49
661.656	36.75
661.982	37.63
662.309	37.44
662.636	37.2
662.963	38.83
663.29	38.02
663.616	37.6
663.943	37.61
664.27	37.41
664.596	37.74
664.923	37.63
665.249	38.13
665.576	38.06
665.902	38.12
666.228	37.51
666.554	38.54
666.881	37.82
667.207	38.68
667.533	37.91
667.859	38.03
668.185	38.24
668.511	37.48
668.837	37.6
669.162	38.34
669.488	37.42
669.814	38.58
670.139	38.05
670.465	38.49
670.791	38.13
671.116	38.49
671.442	38.22
671.767	38.34
672.092	39.35
672.418	38.95
672.743	38.74
673.068	38.45
673.393	38.78
673.718	38.38
674.043	38.53
674.368	39.23
