Data from 0157_forehead_Reflection__4__65.txt Node

Date: Fri Sep 22 20:49:21 CDT 2023
User: ToomeyLab
Spectrometer: FLMS14357
Trigger mode: 0
Integration Time (sec): 1.000000E-2
Scans to average: 100
Electric dark correction enabled: true
Nonlinearity correction enabled: false
Boxcar width: 0
XAxis mode: Wavelengths
Number of Pixels in Spectrum: 2048
>>>>>Begin Spectral Data<<<<<
189.047	-32.83
189.435	-32.83
189.823	-32.83
190.211	155.72
190.599	243.35
190.987	-26.33
191.375	323.4
191.763	152.71
192.151	365.63
192.538	-158.53
192.926	161.66
193.314	3406.25
193.702	97.45
194.089	63.3
194.477	10.57
194.864	136.4
195.252	47.08
195.639	57.41
196.027	331.01
196.414	-54.17
196.801	-138.73
197.189	-228.13
197.576	307.25
197.963	-31.44
198.351	52.89
198.738	73.25
199.125	17.46
199.512	219.97
199.899	72.44
200.286	95.05
200.673	53.73
201.06	44.79
201.447	53.79
201.833	-62.3
202.22	43.2
202.607	18.72
202.994	66.24
203.38	56.54
203.767	27.49
204.154	73.84
204.54	21.26
204.927	37.38
205.313	34.42
205.699	66.35
206.086	54.16
206.472	66.39
206.858	43.24
207.245	65.7
207.631	51.7
208.017	66.37
208.403	14
208.789	41.83
209.175	54.63
209.561	66.86
209.947	49.78
210.333	50.69
210.719	52.84
211.105	41.86
211.491	15.58
211.876	58.61
212.262	56.19
212.648	41.49
213.034	33.93
213.419	5.59
213.805	52.55
214.19	30.88
214.576	57.01
214.961	47.54
215.346	18.28
215.732	56.84
216.117	43.56
216.502	57.35
216.888	38.49
217.273	60.46
217.658	36.6
218.043	20.37
218.428	44.94
218.813	39.78
219.198	30.3
219.583	30.07
219.968	27.37
220.353	43.5
220.738	21.73
221.122	23.11
221.507	22.76
221.892	8.2
222.276	20.49
222.661	3.04
223.046	39.5
223.43	31.33
223.815	19.08
224.199	13.08
224.583	18.31
224.968	11.48
225.352	16.49
225.736	17.36
226.121	14.74
226.505	17.02
226.889	22.04
227.273	13.55
227.657	18.42
228.041	10.53
228.425	13.84
228.809	9.53
229.193	12.7
229.577	11.86
229.961	8.56
230.344	8.82
230.728	5.35
231.112	5.54
231.495	6.59
231.879	5.78
232.263	5.83
232.646	6.36
233.03	5.32
233.413	5.99
233.797	8.29
234.18	6.91
234.563	10.95
234.946	9.77
235.33	5.04
235.713	5.37
236.096	6.82
236.479	5.2
236.862	8.43
237.245	6.82
237.628	7.99
238.011	7.94
238.394	8.07
238.777	9.62
239.16	7.86
239.543	7.68
239.925	6.63
240.308	8.31
240.691	7.38
241.073	9.15
241.456	7.09
241.838	7.24
242.221	6.94
242.603	5.97
242.986	6.12
243.368	5.77
243.75	6.83
244.133	6.55
244.515	5.95
244.897	5.49
245.279	5.8
245.661	5.99
246.043	5.98
246.425	6.87
246.807	6.31
247.189	5.46
247.571	6.81
247.953	6.12
248.335	5.87
248.717	6.02
249.098	5.6
249.48	5.53
249.862	5.58
250.243	5.76
250.625	5.73
251.006	5.61
251.388	5.61
251.769	5.94
252.151	6.42
252.532	5.96
252.913	6.91
253.295	6.53
253.676	6.33
254.057	6.66
254.438	6.58
254.819	5.93
255.2	6.09
255.581	6.09
255.962	7.35
256.343	6.33
256.724	4.96
257.105	6.62
257.486	6.5
257.867	6.57
258.247	7.07
258.628	7.19
259.009	7.1
259.389	5.52
259.77	6.61
260.15	6.91
260.531	6.22
260.911	5.48
261.292	5.27
261.672	5.22
262.052	5.31
262.432	5.23
262.813	5.43
263.193	5.42
263.573	6.15
263.953	5.6
264.333	6.12
264.713	6.04
265.093	5.49
265.473	6.09
265.853	5.43
266.233	6.58
266.612	6.58
266.992	6.74
267.372	6.19
267.752	6.2
268.131	6.21
268.511	5.59
268.89	5.94
269.27	5.25
269.649	5.82
270.029	5.58
270.408	5.7
270.787	6.21
271.167	5.37
271.546	5.86
271.925	6.13
272.304	4.77
272.683	5.6
273.062	5.93
273.441	5.42
273.82	5.54
274.199	5.32
274.578	5.33
274.957	5.53
275.336	5.32
275.715	5.46
276.093	5.47
276.472	4.91
276.851	5.6
277.229	5.08
277.608	5.95
277.986	5.18
278.365	5.28
278.743	5.34
279.122	5.99
279.5	5.8
279.878	4.76
280.257	6.23
280.635	5.42
281.013	6.15
281.391	5.27
281.769	5.56
282.147	5.36
282.525	6.39
282.903	6.03
283.281	5.5
283.659	5.51
284.037	5.46
284.415	5.21
284.792	5.61
285.17	5.5
285.548	6.02
285.925	5.56
286.303	5.37
286.68	4.78
287.058	5.31
287.435	5.21
287.813	5.47
288.19	4.73
288.567	5.57
288.945	5.29
289.322	5.74
289.699	5.67
290.076	5.76
290.453	5.02
290.83	5.02
291.207	5.56
291.584	5.71
291.961	5.26
292.338	5.88
292.715	5.8
293.092	5.41
293.469	5.24
293.845	5.64
294.222	6.06
294.599	6.18
294.975	6.48
295.352	6.08
295.728	5.82
296.105	5.88
296.481	6.19
296.858	6.19
297.234	5.64
297.61	5.98
297.986	6.39
298.363	5.84
298.739	6.02
299.115	6.3
299.491	6.02
299.867	5.94
300.243	5.93
300.619	6.3
300.995	6.03
301.371	6.64
301.746	6.52
302.122	6.21
302.498	5.73
302.874	5.98
303.249	6.32
303.625	6.03
304	6.33
304.376	6.5
304.751	6.59
305.127	6.57
305.502	7.08
305.878	6.61
306.253	6.94
306.628	6.41
307.003	6.52
307.378	6.52
307.754	6.59
308.129	6.94
308.504	7.36
308.879	6.75
309.254	7.06
309.629	7.11
310.003	7.69
310.378	7.01
310.753	6.83
311.128	6.97
311.502	7.23
311.877	6.26
312.252	7.08
312.626	7.08
313.001	7.55
313.375	7.35
313.75	7.33
314.124	7.54
314.498	7.12
314.873	7.53
315.247	7.96
315.621	7.34
315.995	7.2
316.369	7.59
316.743	7.82
317.117	8.15
317.491	8.03
317.865	7.55
318.239	8.31
318.613	7.75
318.987	7.77
319.361	7.88
319.734	7.67
320.108	8.14
320.482	7.49
320.855	8.06
321.229	8.65
321.602	8.05
321.976	7.58
322.349	7.74
322.723	8.27
323.096	8.32
323.469	8.44
323.843	8.62
324.216	8.46
324.589	8.59
324.962	7.98
325.335	8.19
325.708	7.89
326.081	8.63
326.454	7.85
326.827	8.33
327.2	8.5
327.573	8.63
327.945	8.4
328.318	8.48
328.691	8.93
329.063	8.57
329.436	8.87
329.809	8.75
330.181	8.54
330.553	8.99
330.926	8.9
331.298	9.15
331.671	8.82
332.043	8.51
332.415	8.75
332.787	8.7
333.159	8.97
333.532	9.19
333.904	9.03
334.276	8.66
334.648	8.6
335.02	8.99
335.391	8.92
335.763	8.91
336.135	9.36
336.507	9.3
336.879	8.97
337.25	9.64
337.622	9.75
337.993	9.51
338.365	9.27
338.736	9.18
339.108	9.35
339.479	8.84
339.851	8.92
340.222	9.29
340.593	8.95
340.964	9.52
341.336	9.32
341.707	9.05
342.078	9.22
342.449	9.62
342.82	9.14
343.191	8.99
343.562	9.51
343.933	9.81
344.303	9.69
344.674	9.65
345.045	9.32
345.416	9.74
345.786	9.51
346.157	9.5
346.527	9.77
346.898	9.89
347.268	9.56
347.639	9.72
348.009	9.59
348.38	9.73
348.75	10.44
349.12	10.16
349.49	10.44
349.861	9.86
350.231	10.15
350.601	9.8
350.971	10.21
351.341	9.57
351.711	9.9
352.081	10.01
352.45	9.92
352.82	10.57
353.19	10.07
353.56	9.84
353.929	9.91
354.299	10.47
354.669	10.53
355.038	10.37
355.408	10.41
355.777	10.86
356.147	10.37
356.516	10.44
356.885	10.18
357.254	10.67
357.624	9.96
357.993	10.35
358.362	10.33
358.731	10.2
359.1	10.35
359.469	10.67
359.838	10.29
360.207	10.39
360.576	10.44
360.945	10.66
361.314	10.72
361.682	10.82
362.051	10.84
362.42	10.72
362.788	10.73
363.157	10.91
363.525	10.82
363.894	10.37
364.262	10.9
364.631	10.71
364.999	10.7
365.367	11.08
365.735	11.12
366.104	11
366.472	11.22
366.84	10.8
367.208	11.39
367.576	11.34
367.944	11.19
368.312	11.23
368.68	11.5
369.048	11.48
369.416	11.46
369.783	11.15
370.151	11.53
370.519	11.2
370.886	11.78
371.254	11.93
371.621	11.37
371.989	11.99
372.356	11.64
372.724	11.69
373.091	11.83
373.458	11.83
373.826	11.82
374.193	11.76
374.56	11.79
374.927	11.69
375.294	11.82
375.661	11.67
376.028	12.22
376.395	11.81
376.762	11.82
377.129	12.14
377.496	12.26
377.863	12.55
378.229	12.1
378.596	12.08
378.963	12.34
379.329	12.22
379.696	12.43
380.062	12.12
380.429	12.31
380.795	12.39
381.161	12.05
381.528	11.95
381.894	12.09
382.26	12.4
382.626	12.42
382.993	12.78
383.359	12.17
383.725	12.48
384.091	12.89
384.457	12.42
384.823	12.6
385.188	12.63
385.554	12.63
385.92	13.3
386.286	12.71
386.651	13
387.017	13.1
387.383	12.73
387.748	12.84
388.114	12.76
388.479	13.01
388.845	12.7
389.21	13.07
389.575	13.31
389.94	12.79
390.306	13.03
390.671	13.46
391.036	12.79
391.401	13.39
391.766	13.27
392.131	13.16
392.496	13.28
392.861	13.25
393.226	13.26
393.591	13.58
393.956	13.21
394.32	13.35
394.685	13.31
395.05	13.68
395.414	13.7
395.779	13.65
396.143	13.47
396.508	13.53
396.872	13.71
397.236	13.75
397.601	13.68
397.965	14.19
398.329	13.87
398.694	14.03
399.058	13.93
399.422	13.81
399.786	14.11
400.15	14.36
400.514	14.04
400.878	14.27
401.242	14.23
401.605	14.07
401.969	13.9
402.333	13.9
402.697	13.79
403.06	14.27
403.424	14.27
403.787	14.48
404.151	14.47
404.514	14.55
404.878	14.58
405.241	14.66
405.604	14.66
405.968	14.43
406.331	14.6
406.694	14.47
407.057	14.34
407.42	14.7
407.783	14.71
408.146	14.65
408.509	14.71
408.872	14.86
409.235	14.8
409.598	14.83
409.961	14.85
410.323	14.93
410.686	15.04
411.049	15.13
411.411	15.21
411.774	14.96
412.136	15.21
412.499	15.15
412.861	15.05
413.223	15.16
413.586	15.18
413.948	15.26
414.31	15.26
414.672	15.39
415.035	15.4
415.397	15.39
415.759	15.56
416.121	15.3
416.483	15.61
416.845	15.68
417.206	15.64
417.568	15.56
417.93	15.65
418.292	15.65
418.653	15.54
419.015	15.47
419.377	15.59
419.738	15.6
420.1	15.55
420.461	15.69
420.822	15.44
421.184	15.76
421.545	15.55
421.906	15.69
422.267	15.64
422.629	15.76
422.99	15.68
423.351	15.63
423.712	15.5
424.073	15.73
424.434	15.85
424.795	15.82
425.155	15.88
425.516	15.95
425.877	15.9
426.238	15.88
426.598	15.95
426.959	15.98
427.32	16.09
427.68	16.05
428.041	16.09
428.401	16.26
428.761	16.43
429.122	16.61
429.482	16.62
429.842	16.53
430.202	16.81
430.563	16.84
430.923	16.88
431.283	16.84
431.643	17.05
432.003	16.98
432.363	16.99
432.722	16.97
433.082	17.03
433.442	16.96
433.802	17.23
434.161	16.85
434.521	17.21
434.881	17.21
435.24	17.01
435.6	17.01
435.959	17.02
436.319	16.98
436.678	17.2
437.037	17.27
437.396	17.3
437.756	17.44
438.115	17.23
438.474	17.49
438.833	17.48
439.192	17.37
439.551	17.56
439.91	17.64
440.269	17.75
440.628	17.56
440.987	17.81
441.345	17.56
441.704	17.86
442.063	17.63
442.421	17.55
442.78	17.62
443.138	17.76
443.497	17.77
443.855	17.97
444.214	17.68
444.572	17.97
444.93	18.14
445.288	17.96
445.647	18.14
446.005	18.01
446.363	18.03
446.721	18.05
447.079	17.96
447.437	18.1
447.795	18.14
448.153	17.95
448.51	18.04
448.868	18.05
449.226	18.18
449.584	18.13
449.941	18.06
450.299	18.43
450.656	18.44
451.014	18.65
451.371	18.71
451.729	18.78
452.086	18.85
452.443	18.9
452.801	18.85
453.158	18.94
453.515	18.97
453.872	18.97
454.229	19.1
454.586	19.08
454.943	18.94
455.3	18.99
455.657	18.9
456.014	19.14
456.371	19.27
456.727	19.31
457.084	19.52
457.441	19.26
457.797	19.43
458.154	19.56
458.51	19.36
458.867	19.73
459.223	19.54
459.58	19.63
459.936	19.7
460.292	19.79
460.648	19.61
461.005	19.59
461.361	19.71
461.717	19.31
462.073	19.36
462.429	19.28
462.785	19.35
463.141	19.46
463.496	19.9
463.852	19.88
464.208	19.94
464.564	20.07
464.919	20.11
465.275	20.28
465.631	20.34
465.986	20.32
466.342	20.43
466.697	20.5
467.052	20.3
467.408	20.43
467.763	20.57
468.118	20.48
468.473	20.48
468.829	20.38
469.184	20.45
469.539	20.68
469.894	20.61
470.249	20.57
470.603	20.65
470.958	20.7
471.313	20.68
471.668	20.96
472.023	20.97
472.377	20.94
472.732	20.82
473.086	21.23
473.441	20.93
473.795	21.29
474.15	21.07
474.504	21.26
474.859	21.11
475.213	21.21
475.567	21.15
475.921	21.3
476.275	21.46
476.63	21.33
476.984	21.62
477.338	21.66
477.692	21.57
478.045	21.67
478.399	21.61
478.753	21.66
479.107	21.66
479.461	21.58
479.814	21.69
480.168	21.75
480.521	21.82
480.875	21.83
481.228	21.73
481.582	21.62
481.935	21.82
482.289	21.7
482.642	21.95
482.995	21.89
483.348	21.89
483.701	21.84
484.055	21.81
484.408	21.75
484.761	21.69
485.114	21.64
485.466	21.4
485.819	21.17
486.172	21.17
486.525	21.22
486.878	21.2
487.23	21.38
487.583	21.56
487.936	21.7
488.288	21.87
488.641	22.03
488.993	21.92
489.345	21.76
489.698	21.64
490.05	21.7
490.402	21.75
490.754	21.84
491.107	21.84
491.459	22.1
491.811	22.35
492.163	22.44
492.515	22.61
492.866	22.69
493.218	22.58
493.57	22.44
493.922	22.29
494.274	22.25
494.625	22.3
494.977	22.5
495.328	22.76
495.68	22.9
496.031	23.1
496.383	23.32
496.734	23.42
497.086	23.36
497.437	23.61
497.788	23.52
498.139	23.51
498.49	23.62
498.842	23.42
499.193	23.46
499.544	23.5
499.894	23.62
500.245	23.66
500.596	23.65
500.947	23.84
501.298	23.69
501.648	23.9
501.999	23.98
502.35	24.16
502.7	24.06
503.051	24.14
503.401	24.28
503.752	24.3
504.102	24.25
504.452	24.25
504.803	24.28
505.153	24.38
505.503	24.53
505.853	24.62
506.203	24.45
506.553	24.59
506.903	24.52
507.253	24.56
507.603	24.68
507.953	24.79
508.303	24.9
508.652	24.69
509.002	24.97
509.352	24.87
509.701	24.92
510.051	24.89
510.4	24.86
510.75	24.89
511.099	24.73
511.449	24.97
511.798	25.01
512.147	24.85
512.496	24.94
512.846	25.09
513.195	25.16
513.544	25.32
513.893	25.18
514.242	25.29
514.591	25.4
514.939	25.37
515.288	25.34
515.637	25.52
515.986	25.63
516.334	25.78
516.683	25.8
517.032	25.96
517.38	25.9
517.729	25.8
518.077	25.99
518.426	26.1
518.774	26.18
519.122	26
519.47	26.06
519.819	26.13
520.167	25.97
520.515	25.98
520.863	25.8
521.211	25.85
521.559	25.89
521.907	25.95
522.255	26.27
522.602	26.24
522.95	26.42
523.298	26.47
523.645	26.54
523.993	26.6
524.341	26.87
524.688	26.86
525.036	26.77
525.383	26.85
525.73	26.88
526.078	26.95
526.425	27.01
526.772	26.89
527.119	26.94
527.466	26.74
527.814	26.66
528.161	26.67
528.508	26.69
528.854	26.74
529.201	26.96
529.548	26.99
529.895	26.84
530.242	26.67
530.588	26.39
530.935	26.5
531.282	26.56
531.628	26.53
531.975	26.44
532.321	26.7
532.667	26.84
533.014	27.11
533.36	27.28
533.706	27.36
534.052	27.58
534.399	27.45
534.745	27.46
535.091	27.48
535.437	27.17
535.783	27.21
536.129	27.47
536.474	27.52
536.82	27.51
537.166	27.76
537.512	28.03
537.857	28.11
538.203	28.13
538.549	28.14
538.894	28.02
539.239	28.06
539.585	28.03
539.93	28.28
540.276	28.33
540.621	28.44
540.966	28.62
541.311	28.93
541.656	28.56
542.001	28.78
542.346	28.9
542.691	28.7
543.036	28.59
543.381	28.3
543.726	28.14
544.071	28.32
544.415	28.3
544.76	28.36
545.105	28.48
545.449	28.62
545.794	28.82
546.138	29.06
546.483	29.13
546.827	29.1
547.171	29.26
547.516	29.35
547.86	29.43
548.204	29.51
548.548	29.57
548.892	29.59
549.236	29.33
549.58	29.46
549.924	29.57
550.268	29.79
550.612	29.66
550.956	30
551.3	30.18
551.643	30.29
551.987	30.33
552.33	30.4
552.674	30.55
553.017	30.38
553.361	30.38
553.704	30.54
554.048	30.66
554.391	30.77
554.734	30.64
555.077	30.38
555.42	30.6
555.764	30.67
556.107	31.01
556.45	30.85
556.793	30.89
557.135	30.89
557.478	30.89
557.821	31.14
558.164	31.29
558.507	31.6
558.849	31.39
559.192	31.64
559.534	31.44
559.877	31.65
560.219	31.67
560.562	31.68
560.904	31.75
561.246	32.04
561.589	31.9
561.931	31.71
562.273	31.83
562.615	31.96
562.957	32
563.299	31.94
563.641	32.05
563.983	32.08
564.325	32.01
564.667	32.26
565.008	32.49
565.35	32.35
565.692	32.58
566.033	32.37
566.375	32.29
566.716	32.36
567.058	32.4
567.399	32.56
567.741	32.71
568.082	32.49
568.423	32.3
568.764	32.69
569.105	32.37
569.447	32.75
569.788	32.61
570.129	32.81
570.47	32.83
570.811	33.04
571.151	33.16
571.492	33.02
571.833	33.03
572.174	33.16
572.514	33.17
572.855	33.3
573.195	33.43
573.536	33.23
573.876	33.44
574.217	33.26
574.557	33.3
574.898	33.21
575.238	33.46
575.578	33.36
575.918	33.52
576.258	33.57
576.598	33.69
576.938	33.74
577.278	33.82
577.618	33.7
577.958	33.98
578.298	33.78
578.638	34.1
578.977	34.06
579.317	33.91
579.657	34.29
579.996	34.25
580.336	34.3
580.675	34.37
581.014	34.45
581.354	34.46
581.693	34.7
582.032	34.94
582.372	34.9
582.711	34.95
583.05	34.82
583.389	34.69
583.728	34.76
584.067	35.02
584.406	35.17
584.745	35.11
585.083	35.07
585.422	35.13
585.761	35.18
586.1	35.41
586.438	35.15
586.777	35.21
587.115	35.02
587.454	35.28
587.792	35.58
588.13	35.48
588.469	35.59
588.807	35.57
589.145	35.8
589.483	35.48
589.821	35.91
590.159	35.99
590.497	35.98
590.835	36.15
591.173	35.89
591.511	35.45
591.849	36.14
592.187	36.04
592.524	35.87
592.862	36.21
593.2	36.19
593.537	36.14
593.875	36.38
594.212	36.6
594.55	36.44
594.887	36.43
595.224	36.45
595.561	36.7
595.899	36.57
596.236	36.62
596.573	36.67
596.91	36.62
597.247	36.35
597.584	36.7
597.921	36.94
598.258	36.77
598.594	36.86
598.931	36.92
599.268	36.46
599.604	36.64
599.941	36.99
600.277	36.94
600.614	36.76
600.95	36.68
601.287	37.02
601.623	37.07
601.959	37.26
602.296	37.31
602.632	37.15
602.968	37.21
603.304	37.3
603.64	37.46
603.976	37.79
604.312	37.48
604.648	37.64
604.984	37.61
605.319	37.6
605.655	37.64
605.991	37.53
606.326	37.73
606.662	37.59
606.998	37.47
607.333	37.52
607.668	37.63
608.004	37.79
608.339	37.92
608.674	38.13
609.01	38.2
609.345	38.16
609.68	38.48
610.015	38.41
610.35	38.66
610.685	38.17
611.02	38.41
611.355	38.63
611.689	38.17
612.024	38.23
612.359	38.5
612.694	38.43
613.028	38.38
613.363	38.7
613.697	38.75
614.032	39.19
614.366	38.96
614.7	39.41
615.035	39.1
615.369	38.97
615.703	39.53
616.037	39.25
616.371	39.36
616.705	39.45
617.039	39.7
617.373	39.18
617.707	39.8
618.041	39.66
618.375	39.46
618.709	39.67
619.042	40.21
619.376	39.99
619.71	39.61
620.043	39.67
620.377	39.68
620.71	39.68
621.043	40.1
621.377	39.85
621.71	39.8
622.043	40.21
622.376	40.43
622.709	40.11
623.043	40.15
623.376	39.94
623.709	40.51
624.041	40.53
624.374	40.23
624.707	40.17
625.04	40.39
625.373	40.55
625.705	40.32
626.038	40.75
626.37	40.74
626.703	40.83
627.035	40.91
627.368	40.43
627.7	41.14
628.032	41.01
628.365	40.86
628.697	40.74
629.029	40.49
629.361	40.77
629.693	40.6
630.025	40.97
630.357	40.95
630.689	41.14
631.021	41.04
631.353	40.7
631.684	41.14
632.016	41.43
632.348	41.54
632.679	41.23
633.011	41.34
633.342	41.7
633.674	41.56
634.005	41.46
634.336	41.31
634.668	41.85
634.999	41.23
635.33	41.77
635.661	41.73
635.992	41.96
636.323	41.43
636.654	41.63
636.985	41.55
637.316	41.94
637.647	42.2
637.977	41.71
638.308	42.4
638.639	41.97
638.969	42.11
639.3	42.2
639.63	42.4
639.961	42
640.291	42.55
640.622	41.98
640.952	42.43
641.282	41.91
641.612	42.66
641.943	42.79
642.273	42.53
642.603	42.61
642.933	42.67
643.263	42.46
643.592	42.49
643.922	42.55
644.252	42.38
644.582	42.36
644.911	42.69
645.241	42.49
645.571	42.64
645.9	43.16
646.23	43.46
646.559	43.49
646.888	43.35
647.218	43.41
647.547	43.2
647.876	43.55
648.205	43.47
648.534	43.12
648.863	43.35
649.192	43.37
649.521	43.29
649.85	43.32
650.179	43.27
650.508	42.95
650.837	43.36
651.165	43.78
651.494	43.2
651.822	43.39
652.151	43.41
652.479	43.52
652.808	43.35
653.136	43.99
653.465	43.48
653.793	43.44
654.121	44.29
654.449	43.85
654.777	43.95
655.105	44.45
655.433	44.03
655.761	43.92
656.089	44.45
656.417	44.13
656.745	44.03
657.073	44.21
657.4	44.88
657.728	44.5
658.056	44.51
658.383	45.02
658.711	44
659.038	44.95
659.365	44.42
659.693	44.02
660.02	44.18
660.347	44.78
660.674	44.58
661.001	44.48
661.329	44.26
661.656	44.5
661.982	44.56
662.309	44.79
662.636	44.95
662.963	44.54
663.29	44.86
663.616	45.4
663.943	45.08
664.27	45.28
664.596	45.27
664.923	44.83
665.249	45.23
665.576	44.91
665.902	45
666.228	44.8
666.554	45.03
666.881	45.19
667.207	45.4
667.533	45.63
667.859	45.75
668.185	46.28
668.511	46.01
668.837	45.18
669.162	45.72
669.488	46.22
669.814	44.75
670.139	46.06
670.465	45.76
670.791	45.44
671.116	46.7
