Data from 0157_forehead_Reflection__3__64.txt Node

Date: Fri Sep 22 20:49:01 CDT 2023
User: ToomeyLab
Spectrometer: FLMS14357
Trigger mode: 0
Integration Time (sec): 1.000000E-2
Scans to average: 100
Electric dark correction enabled: true
Nonlinearity correction enabled: false
Boxcar width: 0
XAxis mode: Wavelengths
Number of Pixels in Spectrum: 2048
>>>>>Begin Spectral Data<<<<<
189.047	35.3
189.435	35.3
189.823	35.3
190.211	30.33
190.599	121.98
190.987	81.63
191.375	49.68
191.763	-32.6
192.151	338.98
192.538	-102.5
192.926	39.92
193.314	-2681.25
193.702	61.16
194.089	56.42
194.477	109.05
194.864	152.33
195.252	133.15
195.639	84.53
196.027	174.84
196.414	-26.2
196.801	-149.53
197.189	-16.04
197.576	250.33
197.963	218.41
198.351	68.59
198.738	20.8
199.125	-1.86
199.512	172.19
199.899	74.68
200.286	0.39
200.673	11.64
201.06	39.06
201.447	54.98
201.833	164.72
202.22	13.44
202.607	55.93
202.994	24.17
203.38	22.34
203.767	-11.63
204.154	52.57
204.54	24.88
204.927	19.72
205.313	33.23
205.699	52.92
206.086	62.48
206.472	67.2
206.858	51.23
207.245	32.7
207.631	48.42
208.017	33.34
208.403	29.21
208.789	52.4
209.175	49.09
209.561	41.04
209.947	37.74
210.333	52.93
210.719	1.46
211.105	41.72
211.491	25.91
211.876	63.28
212.262	27.23
212.648	58.05
213.034	51.79
213.419	15.82
213.805	43.67
214.19	9.68
214.576	54.1
214.961	25.16
215.346	-8.18
215.732	56.53
216.117	33.37
216.502	44.21
216.888	46.66
217.273	48.97
217.658	17.3
218.043	31.75
218.428	35.05
218.813	-13.04
219.198	0.11
219.583	25.97
219.968	11.21
220.353	48.65
220.738	9.27
221.122	14.03
221.507	20.31
221.892	10.89
222.276	14.37
222.661	24.5
223.046	27.98
223.43	32.43
223.815	19.97
224.199	6.89
224.583	17.49
224.968	15.57
225.352	18.26
225.736	19.38
226.121	18.68
226.505	16.13
226.889	13.33
227.273	10.75
227.657	8.73
228.041	10.05
228.425	9.87
228.809	8.52
229.193	4.04
229.577	9.63
229.961	8.92
230.344	7.82
230.728	4.31
231.112	5.7
231.495	4.86
231.879	4.94
232.263	5.02
232.646	5.58
233.03	4.79
233.413	7.45
233.797	5.65
234.18	6.66
234.563	8.87
234.946	7.37
235.33	4.21
235.713	5.32
236.096	5.81
236.479	5.19
236.862	7.94
237.245	6.46
237.628	6.01
238.011	5.85
238.394	8.01
238.777	6
239.16	6.86
239.543	7.23
239.925	8.75
240.308	7.08
240.691	6.34
241.073	8.15
241.456	5.33
241.838	7.05
242.221	6.25
242.603	5.02
242.986	5.29
243.368	5.32
243.75	5.35
244.133	5.84
244.515	5.09
244.897	5.03
245.279	5.14
245.661	5.29
246.043	5.56
246.425	5.31
246.807	5.55
247.189	4.78
247.571	5.5
247.953	4.96
248.335	5.67
248.717	5.37
249.098	5.15
249.48	4.85
249.862	4.92
250.243	5.66
250.625	5.65
251.006	4.94
251.388	4.91
251.769	5.54
252.151	4.92
252.532	5.81
252.913	5.15
253.295	7.11
253.676	5.32
254.057	5.71
254.438	5.62
254.819	4.98
255.2	5.22
255.581	4.76
255.962	6.38
256.343	7.03
256.724	5.49
257.105	6.39
257.486	6.39
257.867	5.84
258.247	6.5
258.628	5.42
259.009	5.34
259.389	5.38
259.77	5.7
260.15	6.15
260.531	5.54
260.911	4.94
261.292	5.3
261.672	4.72
262.052	4.99
262.432	5.04
262.813	4.99
263.193	4.88
263.573	5.53
263.953	5.65
264.333	5.86
264.713	5.07
265.093	5.74
265.473	5.08
265.853	4.96
266.233	5
266.612	4.97
266.992	5.94
267.372	6.16
267.752	5.78
268.131	5.25
268.511	4.5
268.89	5.22
269.27	4.94
269.649	5.03
270.029	5.18
270.408	5.33
270.787	5.35
271.167	5.26
271.546	4.54
271.925	5.34
272.304	5
272.683	4.62
273.062	5.05
273.441	4.98
273.82	5
274.199	4.73
274.578	5
274.957	4.76
275.336	4.91
275.715	4.74
276.093	4.72
276.472	4.66
276.851	4.61
277.229	4.5
277.608	4.78
277.986	4.75
278.365	5.48
278.743	4.98
279.122	4.79
279.5	5.86
279.878	5.05
280.257	5.96
280.635	4.79
281.013	4.65
281.391	4.8
281.769	4.65
282.147	4.95
282.525	4.93
282.903	4.91
283.281	5.35
283.659	5.08
284.037	4.58
284.415	5.39
284.792	5.08
285.17	5.04
285.548	5.93
285.925	5.08
286.303	4.43
286.68	5.02
287.058	4.57
287.435	4.91
287.813	5.06
288.19	4.74
288.567	4.87
288.945	4.84
289.322	5.42
289.699	5.14
290.076	5.29
290.453	4.72
290.83	4.67
291.207	4.88
291.584	4.63
291.961	4.85
292.338	4.99
292.715	5.05
293.092	4.74
293.469	5.33
293.845	5.34
294.222	5.9
294.599	5.87
294.975	5.53
295.352	5.91
295.728	5.56
296.105	5.54
296.481	5.43
296.858	5.61
297.234	5.33
297.61	5.69
297.986	5.86
298.363	5.58
298.739	5.49
299.115	5.56
299.491	5.48
299.867	5.33
300.243	5.38
300.619	5.53
300.995	5.71
301.371	5.7
301.746	6.11
302.122	5.58
302.498	5.75
302.874	5.9
303.249	5.37
303.625	5.22
304	6.28
304.376	6.18
304.751	6.26
305.127	6.45
305.502	6.41
305.878	5.91
306.253	6.35
306.628	5.85
307.003	6.34
307.378	6.41
307.754	5.63
308.129	6.18
308.504	6.55
308.879	6.1
309.254	6.52
309.629	6.37
310.003	6.69
310.378	6.87
310.753	6.85
311.128	6.83
311.502	6.87
311.877	6.14
312.252	6.28
312.626	6.76
313.001	6.82
313.375	6.81
313.75	6.98
314.124	7.51
314.498	6.49
314.873	6.52
315.247	7.21
315.621	7.15
315.995	7.09
316.369	7.53
316.743	6.83
317.117	7.23
317.491	7.55
317.865	7.06
318.239	6.86
318.613	7.32
318.987	7.32
319.361	6.66
319.734	7.12
320.108	7.28
320.482	7.79
320.855	7.86
321.229	7.68
321.602	7.21
321.976	7.67
322.349	7.9
322.723	8.09
323.096	7.65
323.469	7.92
323.843	7.64
324.216	7.83
324.589	8.05
324.962	7.06
325.335	7.8
325.708	7.86
326.081	8.11
326.454	7.52
326.827	7.85
327.2	8.12
327.573	8.31
327.945	8.09
328.318	8.02
328.691	7.85
329.063	8.14
329.436	8.01
329.809	8.34
330.181	7.68
330.553	7.98
330.926	8.58
331.298	8.1
331.671	7.95
332.043	7.4
332.415	8.24
332.787	8.47
333.159	8
333.532	8.07
333.904	8.23
334.276	8.24
334.648	8.2
335.02	8.43
335.391	9.03
335.763	8.42
336.135	8.32
336.507	8.1
336.879	8.23
337.25	9.08
337.622	9.35
337.993	8.79
338.365	8.93
338.736	8.81
339.108	8.67
339.479	8.2
339.851	8.35
340.222	8.42
340.593	8.72
340.964	8.49
341.336	8.62
341.707	8.69
342.078	9.1
342.449	8.88
342.82	9.28
343.191	8.73
343.562	8.98
343.933	9.26
344.303	8.75
344.674	9.18
345.045	8.72
345.416	9.42
345.786	9.03
346.157	8.9
346.527	8.53
346.898	8.79
347.268	9.13
347.639	9.2
348.009	9.15
348.38	9.4
348.75	9.64
349.12	9.4
349.49	10
349.861	9.67
350.231	9.7
350.601	10.1
350.971	9.33
351.341	9.3
351.711	9.8
352.081	9.45
352.45	9.51
352.82	10.05
353.19	9.8
353.56	9.71
353.929	9.85
354.299	9.93
354.669	9.64
355.038	9.4
355.408	9.89
355.777	10.03
356.147	9.96
356.516	10.25
356.885	9.78
357.254	10.45
357.624	10.23
357.993	9.78
358.362	9.91
358.731	9.92
359.1	10.01
359.469	10.07
359.838	9.86
360.207	10.26
360.576	9.9
360.945	9.99
361.314	10.41
361.682	10.31
362.051	10.31
362.42	10.16
362.788	10
363.157	10.27
363.525	10.21
363.894	10.11
364.262	10.41
364.631	10.22
364.999	9.97
365.367	10.58
365.735	10.44
366.104	10.49
366.472	10.89
366.84	10.52
367.208	10.77
367.576	10.42
367.944	10.83
368.312	10.93
368.68	10.79
369.048	10.86
369.416	10.94
369.783	10.78
370.151	10.8
370.519	11.04
370.886	10.86
371.254	11.33
371.621	10.61
371.989	10.99
372.356	11.11
372.724	11.4
373.091	10.94
373.458	11.13
373.826	11.17
374.193	11.51
374.56	11.39
374.927	11.28
375.294	11.48
375.661	11.35
376.028	11.45
376.395	11.32
376.762	11.24
377.129	11.49
377.496	11.7
377.863	11.83
378.229	11.57
378.596	11.51
378.963	11.61
379.329	11.55
379.696	11.71
380.062	11.47
380.429	11.84
380.795	11.44
381.161	11.82
381.528	11.85
381.894	11.51
382.26	11.96
382.626	11.92
382.993	12.25
383.359	11.69
383.725	12.07
384.091	12.17
384.457	12.01
384.823	11.89
385.188	12.17
385.554	12.23
385.92	12.55
386.286	12.2
386.651	12.15
387.017	12.42
387.383	12.25
387.748	12.37
388.114	12.24
388.479	12.43
388.845	12.47
389.21	12.08
389.575	12.55
389.94	12.22
390.306	12.5
390.671	13.15
391.036	12.37
391.401	12.68
391.766	12.62
392.131	12.66
392.496	12.74
392.861	12.97
393.226	12.92
393.591	12.59
393.956	12.87
394.32	12.77
394.685	12.88
395.05	12.97
395.414	13.13
395.779	13.34
396.143	13.12
396.508	12.91
396.872	13.12
397.236	13.1
397.601	12.9
397.965	13.59
398.329	13.05
398.694	13.28
399.058	13.37
399.422	13.06
399.786	13.43
400.15	13.45
400.514	13.58
400.878	13.6
401.242	13.37
401.605	13.58
401.969	13.47
402.333	13.55
402.697	13.23
403.06	13.64
403.424	13.7
403.787	13.7
404.151	13.91
404.514	13.58
404.878	13.93
405.241	14.09
405.604	13.9
405.968	13.87
406.331	14.12
406.694	13.69
407.057	13.73
407.42	13.92
407.783	13.83
408.146	14.02
408.509	14.01
408.872	13.99
409.235	14.26
409.598	14.07
409.961	14.2
410.323	14.4
410.686	14.35
411.049	14.5
411.411	14.41
411.774	14.16
412.136	14.61
412.499	14.63
412.861	14.62
413.223	14.4
413.586	14.56
413.948	14.53
414.31	14.62
414.672	14.69
415.035	14.66
415.397	14.83
415.759	15.06
416.121	14.79
416.483	14.56
416.845	14.69
417.206	14.73
417.568	14.91
417.93	15.06
418.292	15.19
418.653	14.89
419.015	14.97
419.377	14.9
419.738	15.16
420.1	14.91
420.461	14.96
420.822	15
421.184	14.92
421.545	14.83
421.906	15.02
422.267	15.02
422.629	15.26
422.99	15
423.351	14.86
423.712	14.85
424.073	14.97
424.434	15.14
424.795	15.16
425.155	15.33
425.516	15.35
425.877	15.25
426.238	15.34
426.598	15.18
426.959	15.16
427.32	15.4
427.68	15.4
428.041	15.44
428.401	15.83
428.761	15.86
429.122	15.75
429.482	15.91
429.842	15.83
430.202	16.06
430.563	16.19
430.923	16.03
431.283	16.3
431.643	16.27
432.003	16.22
432.363	16.3
432.722	16.31
433.082	16.33
433.442	16.12
433.802	16.54
434.161	16.12
434.521	16.23
434.881	16.17
435.24	16.27
435.6	16.28
435.959	16.34
436.319	16.43
436.678	16.46
437.037	16.62
437.396	16.47
437.756	16.64
438.115	16.8
438.474	16.76
438.833	16.74
439.192	16.75
439.551	16.76
439.91	17.02
440.269	16.9
440.628	16.77
440.987	16.76
441.345	16.9
441.704	16.9
442.063	16.83
442.421	16.98
442.78	16.88
443.138	16.87
443.497	16.77
443.855	17.09
444.214	17.03
444.572	17.28
444.93	17.24
445.288	17.23
445.647	17.42
446.005	17.43
446.363	17.35
446.721	17.42
447.079	17.38
447.437	17.37
447.795	17.3
448.153	17.23
448.51	17.29
448.868	17.22
449.226	17.3
449.584	17.38
449.941	17.3
450.299	17.62
450.656	17.67
451.014	17.79
451.371	17.7
451.729	17.85
452.086	17.97
452.443	18.11
452.801	18.02
453.158	18.09
453.515	18.26
453.872	18.18
454.229	18.23
454.586	18.23
454.943	18.05
455.3	18.19
455.657	18.24
456.014	18.39
456.371	18.5
456.727	18.45
457.084	18.59
457.441	18.26
457.797	18.49
458.154	18.84
458.51	18.66
458.867	18.79
459.223	18.52
459.58	18.91
459.936	18.6
460.292	19.07
460.648	18.83
461.005	18.65
461.361	18.43
461.717	18.36
462.073	18.42
462.429	18.41
462.785	18.53
463.141	18.73
463.496	18.97
463.852	18.94
464.208	18.97
464.564	19.17
464.919	19.07
465.275	19.29
465.631	19.51
465.986	19.49
466.342	19.42
466.697	19.57
467.052	19.41
467.408	19.45
467.763	19.58
468.118	19.61
468.473	19.41
468.829	19.56
469.184	19.56
469.539	19.74
469.894	19.61
470.249	19.73
470.603	19.64
470.958	19.82
471.313	19.89
471.668	19.88
472.023	20.13
472.377	20
472.732	19.9
473.086	20.15
473.441	19.97
473.795	20.27
474.15	19.89
474.504	19.97
474.859	20.28
475.213	20.1
475.567	20.16
475.921	20.11
476.275	20.27
476.63	20.47
476.984	20.49
477.338	20.66
477.692	20.6
478.045	20.39
478.399	20.69
478.753	20.4
479.107	20.47
479.461	20.48
479.814	20.5
480.168	20.58
480.521	20.72
480.875	20.63
481.228	20.71
481.582	20.61
481.935	20.72
482.289	20.73
482.642	20.79
482.995	20.78
483.348	20.82
483.701	20.81
484.055	20.76
484.408	20.63
484.761	20.67
485.114	20.57
485.466	20.33
485.819	20.13
486.172	20.01
486.525	20.09
486.878	20.2
487.23	20.42
487.583	20.56
487.936	20.72
488.288	20.83
488.641	20.92
488.993	20.77
489.345	20.76
489.698	20.53
490.05	20.53
490.402	20.7
490.754	20.73
491.107	20.84
491.459	21.08
491.811	21.23
492.163	21.43
492.515	21.54
492.866	21.37
493.218	21.57
493.57	21.26
493.922	21.01
494.274	21.1
494.625	21.22
494.977	21.45
495.328	21.63
495.68	21.79
496.031	22.03
496.383	22.24
496.734	22.46
497.086	22.27
497.437	22.29
497.788	22.3
498.139	22.35
498.49	22.42
498.842	22.26
499.193	22.25
499.544	22.17
499.894	22.51
500.245	22.52
500.596	22.48
500.947	22.69
501.298	22.54
501.648	22.67
501.999	22.72
502.35	22.84
502.7	22.84
503.051	22.92
503.401	22.96
503.752	23.1
504.102	23.27
504.452	23.16
504.803	23.15
505.153	23.06
505.503	23.16
505.853	23.31
506.203	23.14
506.553	23.32
506.903	23.35
507.253	23.37
507.603	23.33
507.953	23.59
508.303	23.62
508.652	23.66
509.002	23.75
509.352	23.64
509.701	23.69
510.051	23.58
510.4	23.6
510.75	23.64
511.099	23.46
511.449	23.6
511.798	23.74
512.147	23.78
512.496	23.79
512.846	23.89
513.195	23.83
513.544	23.99
513.893	24.04
514.242	23.99
514.591	24.12
514.939	24.07
515.288	24.03
515.637	24.28
515.986	24.17
516.334	24.47
516.683	24.4
517.032	24.67
517.38	24.5
517.729	24.58
518.077	24.71
518.426	24.71
518.774	24.76
519.122	24.77
519.47	24.61
519.819	24.58
520.167	24.65
520.515	24.52
520.863	24.43
521.211	24.41
521.559	24.56
521.907	24.57
522.255	24.76
522.602	24.86
522.95	25.08
523.298	24.97
523.645	25.19
523.993	25.06
524.341	25.17
524.688	25.3
525.036	25.3
525.383	25.36
525.73	25.52
526.078	25.35
526.425	25.65
526.772	25.55
527.119	25.33
527.466	25.25
527.814	25.2
528.161	25.18
528.508	25.4
528.854	25.23
529.201	25.43
529.548	25.47
529.895	25.38
530.242	25.26
530.588	24.91
530.935	24.83
531.282	24.99
531.628	25.03
531.975	25.15
532.321	25.34
532.667	25.41
533.014	25.67
533.36	25.83
533.706	25.9
534.052	26.08
534.399	26.07
534.745	25.99
535.091	25.8
535.437	25.71
535.783	25.59
536.129	25.81
536.474	25.93
536.82	26.08
537.166	26.3
537.512	26.46
537.857	26.65
538.203	26.53
538.549	26.44
538.894	26.33
539.239	26.37
539.585	26.54
539.93	26.78
540.276	26.75
540.621	27.06
540.966	27.15
541.311	27.19
541.656	27.14
542.001	27.26
542.346	27.2
542.691	27.17
543.036	26.91
543.381	26.59
543.726	26.4
544.071	26.62
544.415	26.7
544.76	26.8
545.105	26.92
545.449	27.04
545.794	27.12
546.138	27.34
546.483	27.51
546.827	27.6
547.171	27.75
547.516	27.81
547.86	27.95
548.204	27.9
548.548	27.94
548.892	27.83
549.236	27.67
549.58	27.87
549.924	28.18
550.268	28.19
550.612	28.31
550.956	28.5
551.3	28.31
551.643	28.54
551.987	28.53
552.33	28.86
552.674	28.71
553.017	28.86
553.361	28.86
553.704	29
554.048	28.84
554.391	28.71
554.734	28.93
555.077	28.83
555.42	28.96
555.764	28.99
556.107	29.2
556.45	28.97
556.793	29.07
557.135	29.25
557.478	29.23
557.821	29.11
558.164	29.41
558.507	29.45
558.849	29.71
559.192	29.69
559.534	29.83
559.877	29.68
560.219	29.81
560.562	29.86
560.904	29.75
561.246	29.88
561.589	29.9
561.931	29.69
562.273	29.9
562.615	29.97
562.957	29.95
563.299	29.99
563.641	29.84
563.983	30.17
564.325	30.12
564.667	30.07
565.008	30.31
565.35	30.15
565.692	30.68
566.033	30.42
566.375	30.27
566.716	30.55
567.058	30.71
567.399	30.5
567.741	30.6
568.082	30.24
568.423	30.3
568.764	30.46
569.105	30.35
569.447	30.54
569.788	30.25
570.129	31.07
570.47	30.92
570.811	30.93
571.151	31
571.492	30.95
571.833	30.85
572.174	31.04
572.514	31.09
572.855	31.12
573.195	31.11
573.536	31.26
573.876	31.08
574.217	31.03
574.557	31.08
574.898	31.27
575.238	31.21
575.578	31.34
575.918	31.34
576.258	31.29
576.598	31.47
576.938	31.38
577.278	31.57
577.618	31.4
577.958	31.63
578.298	31.67
578.638	31.88
578.977	31.88
579.317	31.79
579.657	31.86
579.996	32.09
580.336	31.78
580.675	32.14
581.014	32.16
581.354	32.32
581.693	32.39
582.032	32.44
582.372	32.59
582.711	32.65
583.05	32.5
583.389	32.53
583.728	32.68
584.067	32.95
584.406	32.93
584.745	32.66
585.083	32.91
585.422	32.86
585.761	32.9
586.1	33.1
586.438	33.01
586.777	33.05
587.115	33.35
587.454	32.69
587.792	33.49
588.13	33.26
588.469	33.25
588.807	33.13
589.145	33.43
589.483	33.59
589.821	33.4
590.159	33.46
590.497	33.61
590.835	33.5
591.173	33.36
591.511	33.67
591.849	33.78
592.187	33.67
592.524	33.82
592.862	33.69
593.2	33.71
593.537	33.75
593.875	34.08
594.212	34.04
594.55	33.99
594.887	34.07
595.224	33.83
595.561	34.28
595.899	34.44
596.236	34.52
596.573	34.14
596.91	34.18
597.247	34.28
597.584	34.49
597.921	34.21
598.258	34.6
598.594	34.36
598.931	34.3
599.268	34.06
599.604	34.22
599.941	34.32
600.277	34.17
600.614	34.4
600.95	34.51
601.287	34.54
601.623	34.86
601.959	34.75
602.296	34.85
602.632	34.93
602.968	34.78
603.304	34.87
603.64	35.26
603.976	34.94
604.312	35.18
604.648	35.36
604.984	35.14
605.319	35.13
605.655	34.99
605.991	35.18
606.326	35.18
606.662	35.28
606.998	35
607.333	35.19
607.668	35.32
608.004	35.33
608.339	35.3
608.674	35.59
609.01	35.8
609.345	35.63
609.68	35.8
610.015	35.79
610.35	36.12
610.685	35.84
611.02	35.93
611.355	35.87
611.689	35.55
612.024	35.59
612.359	35.88
612.694	35.94
613.028	35.85
613.363	35.98
613.697	36.17
614.032	36.07
614.366	36.54
614.7	36.35
615.035	36.44
615.369	36.21
615.703	36.72
616.037	37.06
616.371	36.35
616.705	36.93
617.039	36.83
617.373	36.87
617.707	36.63
618.041	36.83
618.375	36.67
618.709	36.79
619.042	37.34
619.376	37.14
619.71	37.1
620.043	36.7
620.377	37.06
620.71	37.45
621.043	37.35
621.377	37.2
621.71	37.2
622.043	37.28
622.376	37.68
622.709	37.76
623.043	37.31
623.376	37.4
623.709	37.28
624.041	37.42
624.374	37.52
624.707	37.54
625.04	37.54
625.373	37.45
625.705	37.82
626.038	37.82
626.37	37.88
626.703	37.94
627.035	38
627.368	38.09
627.7	37.85
628.032	38.51
628.365	37.72
628.697	37.94
629.029	38.2
629.361	38.01
629.693	37.91
630.025	38.11
630.357	37.85
630.689	38.17
631.021	38.07
631.353	38.55
631.684	38.61
632.016	38.5
632.348	38.4
632.679	38.28
633.011	38.5
633.342	38.75
633.674	38.63
634.005	38.27
634.336	38.85
634.668	38.86
634.999	38.78
635.33	38.92
635.661	38.69
635.992	38.81
636.323	38.67
636.654	38.81
636.985	38.67
637.316	38.93
637.647	39.12
637.977	38.68
638.308	39.18
638.639	39.45
638.969	38.96
639.3	39.19
639.63	39.93
639.961	39.11
640.291	39.19
640.622	38.84
640.952	38.99
641.282	38.97
641.612	39.58
641.943	39.83
642.273	39.65
642.603	39.76
642.933	39.24
643.263	39.69
643.592	39.33
643.922	39.99
644.252	39.63
644.582	39.87
644.911	39.66
645.241	39.84
645.571	40.02
645.9	40.35
646.23	40.36
646.559	40.56
646.888	40.28
647.218	39.99
647.547	39.66
647.876	39.97
648.205	40.25
648.534	40.12
648.863	40.03
649.192	39.93
649.521	40.16
649.85	40.1
650.179	40.02
650.508	40.57
650.837	40.56
651.165	40.63
651.494	40.45
651.822	40.66
652.151	40.37
652.479	40.43
652.808	40.14
653.136	40.54
653.465	40.62
653.793	40.82
654.121	40.37
654.449	40.19
654.777	40.55
655.105	40.76
655.433	41.15
655.761	41.09
656.089	41.01
656.417	40.76
656.745	40.87
657.073	40.33
657.4	41.65
657.728	40.76
658.056	41.09
658.383	41.99
658.711	40.85
659.038	40.9
659.365	41.09
659.693	40.85
660.02	40.78
660.347	41.89
660.674	41.18
661.001	41.36
661.329	40.9
661.656	41.51
661.982	41.26
662.309	41.37
662.636	41.99
662.963	41.42
663.29	41.6
663.616	41.82
663.943	41.86
664.27	41.23
664.596	42.14
664.923	41.44
665.249	42.21
665.576	41.87
665.902	41.27
666.228	41.36
666.554	41.39
666.881	41.59
667.207	41.79
667.533	41.86
667.859	42.37
668.185	42.56
668.511	42.5
668.837	41.92
669.162	42.06
669.488	41.99
669.814	42.73
670.139	42.35
670.465	42.32
670.791	41.96
671.116	42.29
671.442	42.66
671.767	42.01
672.092	42.52
