Data from 0157_chest_Reflection__4__55.txt Node

Date: Fri Sep 22 20:45:42 CDT 2023
User: ToomeyLab
Spectrometer: FLMS14357
Trigger mode: 0
Integration Time (sec): 1.000000E-2
Scans to average: 100
Electric dark correction enabled: true
Nonlinearity correction enabled: false
Boxcar width: 0
XAxis mode: Wavelengths
Number of Pixels in Spectrum: 2048
>>>>>Begin Spectral Data<<<<<
189.047	25.39
189.435	25.39
189.823	25.39
190.211	-18.62
190.599	39.72
190.987	-25.95
191.375	1113.78
191.763	184.92
192.151	260.03
192.538	3.71
192.926	89.57
193.314	8218.75
193.702	109.9
194.089	82.44
194.477	-43.99
194.864	-155.51
195.252	67.44
195.639	52.56
196.027	-119.97
196.414	-28.84
196.801	40.63
197.189	-321.04
197.576	227.12
197.963	17.8
198.351	26.16
198.738	3.23
199.125	42.14
199.512	-12.55
199.899	52.77
200.286	14.32
200.673	-1.08
201.06	12.73
201.447	32.53
201.833	-162.16
202.22	18.34
202.607	42.62
202.994	18.07
203.38	11.41
203.767	-20.79
204.154	44.35
204.54	13.31
204.927	21.35
205.313	2.71
205.699	30.27
206.086	39.1
206.472	46.36
206.858	32.36
207.245	-28.62
207.631	17.13
208.017	7.75
208.403	14.74
208.789	26.85
209.175	28.78
209.561	41.11
209.947	14.7
210.333	39.55
210.719	-38.28
211.105	41.97
211.491	24.68
211.876	43.91
212.262	32.71
212.648	16.26
213.034	36.13
213.419	12.64
213.805	21.94
214.19	7.08
214.576	18.18
214.961	9.25
215.346	20.48
215.732	28.98
216.117	12.55
216.502	27.42
216.888	14.68
217.273	18.12
217.658	-5.59
218.043	9.57
218.428	24.99
218.813	-12.83
219.198	15.97
219.583	15.1
219.968	-7.81
220.353	32.73
220.738	15.75
221.122	3.26
221.507	-11.42
221.892	15.78
222.276	-2.57
222.661	-30.66
223.046	13.9
223.43	14.89
223.815	-2.64
224.199	1.72
224.583	6.85
224.968	1.2
225.352	7.99
225.736	8.83
226.121	0.15
226.505	5.14
226.889	7.08
227.273	5.52
227.657	5.71
228.041	0.93
228.425	7.18
228.809	-0.87
229.193	1.28
229.577	2.73
229.961	2.78
230.344	4.46
230.728	-0.03
231.112	1.68
231.495	0.82
231.879	1.1
232.263	0.49
232.646	-0.4
233.03	-0.67
233.413	2.21
233.797	2.06
234.18	1.17
234.563	3.95
234.946	2.23
235.33	-0.15
235.713	-0.8
236.096	-1.01
236.479	1.26
236.862	4.37
237.245	1.24
237.628	2.88
238.011	-0.52
238.394	0.6
238.777	2.14
239.16	3.23
239.543	1.48
239.925	2.04
240.308	3.89
240.691	0.94
241.073	1.46
241.456	0.37
241.838	1.14
242.221	0.41
242.603	0.92
242.986	0.73
243.368	0.5
243.75	1.2
244.133	1.73
244.515	0.99
244.897	0.7
245.279	1.52
245.661	1.12
246.043	1.88
246.425	0.5
246.807	1.51
247.189	1.03
247.571	0.06
247.953	1.06
248.335	1.5
248.717	1.52
249.098	1.51
249.48	1.08
249.862	1.01
250.243	0.98
250.625	1.12
251.006	1.02
251.388	1.6
251.769	1.93
252.151	1.68
252.532	0.99
252.913	1.94
253.295	1.66
253.676	2.02
254.057	1.16
254.438	1.73
254.819	0.9
255.2	1.75
255.581	1.91
255.962	2.3
256.343	0.24
256.724	0.12
257.105	2.7
257.486	1.56
257.867	1.4
258.247	2.39
258.628	1.79
259.009	1.76
259.389	1.78
259.77	2
260.15	2.04
260.531	1.64
260.911	1.39
261.292	1.3
261.672	0.76
262.052	1.18
262.432	1.13
262.813	1.13
263.193	1.09
263.573	1.87
263.953	1.08
264.333	1.94
264.713	1.48
265.093	0.97
265.473	1.12
265.853	0.98
266.233	0.99
266.612	1.54
266.992	2.27
267.372	0.76
267.752	1.25
268.131	1.47
268.511	1.31
268.89	1.86
269.27	0.94
269.649	1.23
270.029	1.49
270.408	0.7
270.787	1.15
271.167	1.59
271.546	0.63
271.925	1.14
272.304	0.78
272.683	1.25
273.062	1.59
273.441	1.07
273.82	1.92
274.199	1.33
274.578	1.5
274.957	0.96
275.336	1.11
275.715	1.03
276.093	0.5
276.472	1.41
276.851	1.11
277.229	0.79
277.608	1.89
277.986	0.94
278.365	2
278.743	1.12
279.122	2.03
279.5	1.9
279.878	1.41
280.257	1.67
280.635	1.13
281.013	1.57
281.391	0.56
281.769	1.12
282.147	1.35
282.525	1.18
282.903	0.94
283.281	1.48
283.659	1.7
284.037	0.94
284.415	1.09
284.792	1.11
285.17	1.14
285.548	1.43
285.925	1.28
286.303	1.07
286.68	0.97
287.058	0.99
287.435	1.24
287.813	1.08
288.19	0.6
288.567	1.11
288.945	1.1
289.322	1.47
289.699	1.18
290.076	1.25
290.453	1.24
290.83	0.9
291.207	1.31
291.584	0.88
291.961	1.27
292.338	1.38
292.715	1.24
293.092	1.2
293.469	1.62
293.845	1.06
294.222	1.4
294.599	1.47
294.975	1.8
295.352	1.15
295.728	1.04
296.105	1.25
296.481	1.44
296.858	0.98
297.234	1.68
297.61	1.23
297.986	1.39
298.363	0.94
298.739	1.28
299.115	1.57
299.491	1.43
299.867	1.64
300.243	1.52
300.619	1.28
300.995	1.35
301.371	1.51
301.746	1.65
302.122	1.11
302.498	1.36
302.874	0.59
303.249	1.11
303.625	1.31
304	1.63
304.376	1.59
304.751	1.68
305.127	1.69
305.502	1.76
305.878	2.04
306.253	1.72
306.628	1.07
307.003	1.49
307.378	1.66
307.754	1.18
308.129	1.45
308.504	1.89
308.879	1.53
309.254	1.71
309.629	1.33
310.003	1.92
310.378	1.93
310.753	1.76
311.128	1.64
311.502	1.74
311.877	1.35
312.252	1.66
312.626	2.01
313.001	1.76
313.375	1.87
313.75	1.69
314.124	2.37
314.498	1.49
314.873	1.4
315.247	2.12
315.621	1.57
315.995	2.15
316.369	1.68
316.743	1.67
317.117	2.27
317.491	2.22
317.865	1.49
318.239	1.69
318.613	2.19
318.987	1.63
319.361	1.7
319.734	1.5
320.108	2.58
320.482	1.89
320.855	1.77
321.229	2.37
321.602	2.08
321.976	1.57
322.349	1.73
322.723	2.28
323.096	2.11
323.469	2.4
323.843	1.92
324.216	2.38
324.589	2.19
324.962	1.32
325.335	1.54
325.708	1.38
326.081	2.06
326.454	1.23
326.827	2.32
327.2	1.98
327.573	2.27
327.945	1.9
328.318	1.88
328.691	2.12
329.063	2.2
329.436	1.92
329.809	2.23
330.181	1.82
330.553	1.43
330.926	2.15
331.298	2.19
331.671	2.3
332.043	1.77
332.415	1.61
332.787	2.59
333.159	1.39
333.532	1.53
333.904	1.54
334.276	1.53
334.648	1.49
335.02	1.78
335.391	1.76
335.763	2.21
336.135	1.62
336.507	2.21
336.879	1.82
337.25	1.68
337.622	1.98
337.993	2.24
338.365	2.26
338.736	2.24
339.108	1.64
339.479	1.94
339.851	1.51
340.222	1.92
340.593	1.79
340.964	1.75
341.336	1.48
341.707	1.99
342.078	2.02
342.449	1.92
342.82	1.72
343.191	1.32
343.562	1.89
343.933	2.24
344.303	1.7
344.674	2.1
345.045	2.03
345.416	2.06
345.786	1.66
346.157	1.51
346.527	1.53
346.898	1.49
347.268	1.82
347.639	1.88
348.009	1.86
348.38	1.75
348.75	1.88
349.12	1.38
349.49	2.15
349.861	1.69
350.231	1.97
350.601	2.16
350.971	1.84
351.341	1.98
351.711	1.99
352.081	1.75
352.45	1.63
352.82	2.02
353.19	2.09
353.56	1.92
353.929	1.83
354.299	2.07
354.669	1.58
355.038	2.1
355.408	1.69
355.777	2.23
356.147	2.17
356.516	2.03
356.885	1.82
357.254	2.49
357.624	1.7
357.993	1.78
358.362	1.89
358.731	1.88
359.1	1.9
359.469	1.99
359.838	1.72
360.207	1.6
360.576	1.98
360.945	1.99
361.314	1.87
361.682	2.39
362.051	1.92
362.42	1.93
362.788	1.58
363.157	1.77
363.525	1.82
363.894	1.96
364.262	1.76
364.631	1.84
364.999	1.78
365.367	1.9
365.735	1.94
366.104	1.53
366.472	2.17
366.84	1.65
367.208	2.17
367.576	1.95
367.944	1.86
368.312	1.83
368.68	1.87
369.048	2.1
369.416	2.15
369.783	1.67
370.151	1.68
370.519	2.01
370.886	2.3
371.254	2.26
371.621	1.88
371.989	2.09
372.356	1.9
372.724	2.04
373.091	2.13
373.458	2
373.826	2.2
374.193	2.33
374.56	2.09
374.927	1.92
375.294	2.22
375.661	1.88
376.028	2.02
376.395	2
376.762	1.91
377.129	2.15
377.496	2.45
377.863	1.94
378.229	2.18
378.596	1.72
378.963	2.19
379.329	1.88
379.696	2.28
380.062	1.8
380.429	2
380.795	1.92
381.161	1.99
381.528	1.73
381.894	1.59
382.26	1.98
382.626	2.25
382.993	2.24
383.359	1.99
383.725	2.12
384.091	2.04
384.457	2.33
384.823	2.16
385.188	2.04
385.554	2.23
385.92	2.38
386.286	2.01
386.651	2.12
387.017	2
387.383	1.93
387.748	2.11
388.114	2.09
388.479	2.08
388.845	1.81
389.21	2.12
389.575	2.16
389.94	1.87
390.306	1.92
390.671	2.43
391.036	1.66
391.401	2.08
391.766	1.93
392.131	1.74
392.496	2.13
392.861	2.06
393.226	2.39
393.591	1.77
393.956	2.05
394.32	1.86
394.685	1.94
395.05	2.3
395.414	2.38
395.779	1.97
396.143	2.02
396.508	2.14
396.872	2.04
397.236	2.11
397.601	1.88
397.965	2.37
398.329	2.23
398.694	2.21
399.058	2.13
399.422	1.99
399.786	2.15
400.15	2.14
400.514	2.03
400.878	1.99
401.242	2.36
401.605	1.9
401.969	1.94
402.333	2.17
402.697	1.91
403.06	1.99
403.424	2.12
403.787	2.38
404.151	2.1
404.514	2.3
404.878	2.12
405.241	2.43
405.604	2.25
405.968	2.28
406.331	2.1
406.694	2.14
407.057	1.94
407.42	2.14
407.783	2.24
408.146	2.07
408.509	2.24
408.872	2.07
409.235	2.17
409.598	1.92
409.961	2.41
410.323	2.23
410.686	2.12
411.049	2.52
411.411	2.23
411.774	2.14
412.136	2.28
412.499	2.04
412.861	2.17
413.223	2.25
413.586	2.27
413.948	2.19
414.31	2.32
414.672	2.24
415.035	2.06
415.397	2.52
415.759	2.35
416.121	2.16
416.483	2.23
416.845	2.15
417.206	2.22
417.568	2.16
417.93	2.33
418.292	2.1
418.653	2.16
419.015	2.15
419.377	2.04
419.738	2.33
420.1	2.13
420.461	2.17
420.822	2.15
421.184	2.2
421.545	2.15
421.906	2.11
422.267	2.06
422.629	2.17
422.99	2.07
423.351	1.97
423.712	2.1
424.073	2.11
424.434	2.25
424.795	2.03
425.155	2.17
425.516	2.08
425.877	2.18
426.238	2.05
426.598	2.07
426.959	2.14
427.32	2.14
427.68	2.07
428.041	2.03
428.401	2.24
428.761	2.3
429.122	2.36
429.482	2.26
429.842	2.19
430.202	2.14
430.563	2.25
430.923	2.45
431.283	2.23
431.643	2.19
432.003	2.18
432.363	2.3
432.722	2.33
433.082	2.39
433.442	2.17
433.802	2.29
434.161	2.27
434.521	2.16
434.881	2.15
435.24	2.19
435.6	2.09
435.959	2.1
436.319	2.2
436.678	2.25
437.037	2.22
437.396	2.12
437.756	2.29
438.115	2.37
438.474	2.23
438.833	2.3
439.192	2.16
439.551	2.27
439.91	2.39
440.269	2.13
440.628	2.19
440.987	2.22
441.345	2.36
441.704	2.27
442.063	2.34
442.421	2.3
442.78	2.27
443.138	2.21
443.497	2.18
443.855	2.29
444.214	2.2
444.572	2.51
444.93	2.35
445.288	2.27
445.647	2.42
446.005	2.28
446.363	2.19
446.721	2.33
447.079	2.08
447.437	2.3
447.795	2.31
448.153	2.12
448.51	2.29
448.868	2.23
449.226	2.25
449.584	2.21
449.941	2.17
450.299	2.32
450.656	2.32
451.014	2.44
451.371	2.26
451.729	2.39
452.086	2.31
452.443	2.37
452.801	2.28
453.158	2.25
453.515	2.44
453.872	2.41
454.229	2.27
454.586	2.39
454.943	2.37
455.3	2.39
455.657	2.45
456.014	2.3
456.371	2.48
456.727	2.49
457.084	2.47
457.441	2.26
457.797	2.31
458.154	2.43
458.51	2.32
458.867	2.25
459.223	2.46
459.58	2.39
459.936	2.42
460.292	2.38
460.648	2.54
461.005	2.35
461.361	2.42
461.717	2.17
462.073	2.29
462.429	2.13
462.785	2.19
463.141	2.2
463.496	2.53
463.852	2.4
464.208	2.3
464.564	2.4
464.919	2.41
465.275	2.58
465.631	2.56
465.986	2.41
466.342	2.56
466.697	2.43
467.052	2.49
467.408	2.59
467.763	2.51
468.118	2.53
468.473	2.49
468.829	2.31
469.184	2.36
469.539	2.43
469.894	2.43
470.249	2.48
470.603	2.48
470.958	2.49
471.313	2.53
471.668	2.6
472.023	2.42
472.377	2.39
472.732	2.42
473.086	2.64
473.441	2.28
473.795	2.69
474.15	2.35
474.504	2.28
474.859	2.59
475.213	2.39
475.567	2.29
475.921	2.53
476.275	2.35
476.63	2.36
476.984	2.45
477.338	2.48
477.692	2.53
478.045	2.78
478.399	2.69
478.753	2.5
479.107	2.43
479.461	2.37
479.814	2.48
480.168	2.54
480.521	2.56
480.875	2.62
481.228	2.52
481.582	2.39
481.935	2.49
482.289	2.44
482.642	2.41
482.995	2.48
483.348	2.54
483.701	2.52
484.055	2.48
484.408	2.47
484.761	2.5
485.114	2.34
485.466	2.27
485.819	2.29
486.172	2.28
486.525	2.31
486.878	2.31
487.23	2.39
487.583	2.4
487.936	2.44
488.288	2.49
488.641	2.43
488.993	2.39
489.345	2.38
489.698	2.38
490.05	2.39
490.402	2.4
490.754	2.4
491.107	2.38
491.459	2.45
491.811	2.44
492.163	2.44
492.515	2.48
492.866	2.45
493.218	2.42
493.57	2.56
493.922	2.38
494.274	2.39
494.625	2.48
494.977	2.52
495.328	2.61
495.68	2.64
496.031	2.52
496.383	2.66
496.734	2.54
497.086	2.6
497.437	2.6
497.788	2.6
498.139	2.74
498.49	2.77
498.842	2.56
499.193	2.54
499.544	2.65
499.894	2.64
500.245	2.61
500.596	2.59
500.947	2.76
501.298	2.72
501.648	2.75
501.999	2.68
502.35	2.67
502.7	2.78
503.051	2.68
503.401	2.75
503.752	2.76
504.102	2.68
504.452	2.6
504.803	2.68
505.153	2.63
505.503	2.69
505.853	2.79
506.203	2.67
506.553	2.73
506.903	2.83
507.253	2.68
507.603	2.78
507.953	2.75
508.303	2.73
508.652	2.77
509.002	2.95
509.352	2.82
509.701	2.77
510.051	2.77
510.4	2.8
510.75	2.69
511.099	2.6
511.449	2.75
511.798	2.83
512.147	2.78
512.496	2.68
512.846	2.78
513.195	2.73
513.544	2.78
513.893	2.81
514.242	2.73
514.591	2.78
514.939	2.85
515.288	2.63
515.637	2.75
515.986	2.77
516.334	2.83
516.683	2.8
517.032	2.85
517.38	2.84
517.729	2.89
518.077	2.99
518.426	2.85
518.774	2.83
519.122	2.82
519.47	2.72
519.819	2.86
520.167	2.97
520.515	2.86
520.863	2.77
521.211	2.76
521.559	2.89
521.907	2.91
522.255	2.84
522.602	2.91
522.95	2.88
523.298	2.89
523.645	2.93
523.993	2.85
524.341	2.96
524.688	2.9
525.036	3
525.383	2.81
525.73	3.04
526.078	2.98
526.425	2.92
526.772	3.03
527.119	2.9
527.466	2.87
527.814	2.85
528.161	2.82
528.508	2.87
528.854	2.86
529.201	2.94
529.548	2.87
529.895	2.92
530.242	2.82
530.588	2.81
530.935	2.81
531.282	2.79
531.628	2.84
531.975	2.83
532.321	2.9
532.667	2.96
533.014	2.99
533.36	2.98
533.706	3.06
534.052	3.09
534.399	3.03
534.745	3.03
535.091	2.9
535.437	2.88
535.783	2.88
536.129	2.95
536.474	3.02
536.82	2.99
537.166	3.15
537.512	3.1
537.857	3.11
538.203	3.15
538.549	3.05
538.894	3.09
539.239	3.09
539.585	3.04
539.93	3.24
540.276	3.15
540.621	3.21
540.966	3.23
541.311	3.29
541.656	3.17
542.001	3.22
542.346	3.16
542.691	3.2
543.036	3.14
543.381	3.13
543.726	3.05
544.071	3.1
544.415	3.16
544.76	3.1
545.105	3.13
545.449	3.12
545.794	3.26
546.138	3.22
546.483	3.22
546.827	3.23
547.171	3.29
547.516	3.23
547.86	3.37
548.204	3.29
548.548	3.37
548.892	3.47
549.236	3.21
549.58	3.31
549.924	3.42
550.268	3.34
550.612	3.4
550.956	3.4
551.3	3.52
551.643	3.51
551.987	3.64
552.33	3.62
552.674	3.52
553.017	3.53
553.361	3.5
553.704	3.71
554.048	3.65
554.391	3.65
554.734	3.53
555.077	3.51
555.42	3.49
555.764	3.57
556.107	3.67
556.45	3.59
556.793	3.45
557.135	3.62
557.478	3.47
557.821	3.61
558.164	3.71
558.507	3.75
558.849	3.64
559.192	3.65
559.534	3.71
559.877	3.74
560.219	3.8
560.562	3.7
560.904	3.8
561.246	3.92
561.589	3.8
561.931	3.76
562.273	3.65
562.615	3.72
562.957	3.81
563.299	3.88
563.641	3.86
563.983	4.01
564.325	3.89
564.667	3.86
565.008	4.01
565.35	3.97
565.692	3.94
566.033	3.93
566.375	4.05
566.716	3.87
567.058	3.91
567.399	4.09
567.741	4.07
568.082	3.96
568.423	3.81
568.764	4.06
569.105	3.83
569.447	3.88
569.788	3.98
570.129	4.04
570.47	3.97
570.811	4.06
571.151	4.14
571.492	3.94
571.833	3.87
572.174	3.98
572.514	4.11
572.855	3.96
573.195	3.86
573.536	4.06
573.876	4.08
574.217	3.92
574.557	4.12
574.898	4.27
575.238	4.05
575.578	4.21
575.918	4.35
576.258	4.09
576.598	4.24
576.938	4.16
577.278	4.29
577.618	4.04
577.958	4.15
578.298	4.34
578.638	4.22
578.977	4.18
579.317	4.18
579.657	4.36
579.996	4.39
580.336	4.52
580.675	4.47
581.014	4.08
581.354	4.25
581.693	4.61
582.032	4.51
582.372	4.44
582.711	4.43
583.05	4.49
583.389	4.53
583.728	4.62
584.067	4.57
584.406	4.51
584.745	4.57
585.083	4.8
585.422	4.65
585.761	4.63
586.1	4.43
586.438	4.54
586.777	4.48
587.115	4.77
587.454	4.39
587.792	4.73
588.13	4.71
588.469	4.61
588.807	4.53
589.145	4.79
589.483	4.59
589.821	4.68
590.159	4.76
590.497	4.92
590.835	4.69
591.173	4.68
591.511	4.55
591.849	4.89
592.187	4.57
592.524	4.7
592.862	4.87
593.2	4.8
593.537	4.89
593.875	4.7
594.212	4.96
594.55	5.18
594.887	4.85
595.224	5.07
595.561	5.21
595.899	5.15
596.236	5.09
596.573	5.05
596.91	5.05
597.247	4.95
597.584	5.24
597.921	5.21
598.258	5.22
598.594	5.03
598.931	5.01
599.268	5.13
599.604	5.14
599.941	4.98
600.277	5.02
600.614	5.16
600.95	5.17
601.287	5.17
601.623	5.26
601.959	5.4
602.296	5.46
602.632	5.06
602.968	5.24
603.304	5.64
603.64	5.32
603.976	5.33
604.312	5.05
604.648	5.38
604.984	5.37
605.319	5.33
605.655	5.27
605.991	5.45
606.326	5.36
606.662	5.11
606.998	5.24
607.333	5.34
607.668	5.29
608.004	5.53
608.339	5.32
608.674	5.6
609.01	5.56
609.345	5.6
609.68	5.83
610.015	5.66
610.35	5.7
610.685	5.82
611.02	5.56
611.355	5.72
611.689	5.55
612.024	5.74
612.359	5.53
612.694	5.63
613.028	5.62
613.363	5.62
613.697	5.71
614.032	5.6
614.366	5.55
614.7	5.81
615.035	5.58
615.369	5.87
615.703	5.77
616.037	5.85
616.371	6.07
616.705	6.26
617.039	6.12
617.373	6.01
617.707	6.15
618.041	5.94
618.375	6
618.709	5.75
619.042	6.09
619.376	6.15
619.71	6.19
620.043	5.96
620.377	5.81
620.71	6.21
621.043	6.19
621.377	6.05
621.71	6.01
622.043	6.02
622.376	6.34
622.709	6.07
623.043	6.01
623.376	6.2
623.709	6.54
624.041	6.04
624.374	6.47
624.707	6.26
625.04	6.29
625.373	6.04
625.705	6.35
626.038	6.67
626.37	6.53
626.703	6.17
627.035	6.2
627.368	6.36
627.7	6.67
628.032	6.37
628.365	6.51
628.697	6.11
629.029	6.69
629.361	6.69
629.693	6.46
630.025	6.36
630.357	6.3
630.689	6.45
631.021	6.35
631.353	6.53
631.684	6.69
632.016	6.69
632.348	6.34
632.679	6.31
633.011	6.62
633.342	6.75
633.674	6.93
634.005	6.75
634.336	6.31
634.668	6.68
634.999	6.56
635.33	7.12
635.661	6.67
635.992	6.68
636.323	6.94
636.654	6.8
636.985	6.86
637.316	7.03
637.647	6.98
637.977	6.6
638.308	7.19
638.639	6.6
638.969	6.77
639.3	7.07
639.63	7.33
639.961	6.9
640.291	7.22
640.622	7.22
640.952	7.15
641.282	7.12
641.612	6.8
641.943	7.38
642.273	7.06
642.603	7.3
642.933	7.32
643.263	6.59
643.592	6.99
643.922	7.39
644.252	7.05
644.582	7.13
644.911	7.14
645.241	7.53
645.571	7.28
645.9	7.65
646.23	7.32
646.559	7.49
646.888	7.78
647.218	7.52
647.547	7.71
647.876	7.19
648.205	7.52
648.534	7.79
648.863	7.77
649.192	7.21
649.521	7.56
649.85	7.58
650.179	7.57
650.508	7.45
650.837	8.16
651.165	7.64
651.494	7.75
651.822	7.66
652.151	7.77
652.479	7.33
652.808	7.47
653.136	8.2
653.465	8.08
653.793	7.43
654.121	7.99
654.449	7.23
654.777	7.95
655.105	7.89
655.433	7.89
655.761	8.45
656.089	8.01
656.417	7.6
656.745	7.94
657.073	7.51
657.4	8.34
657.728	7.79
658.056	7.69
658.383	8.23
658.711	8.26
659.038	7.73
659.365	7.62
659.693	7.81
660.02	7.99
660.347	8.52
660.674	7.9
661.001	7.74
661.329	8.2
661.656	7.93
661.982	8.03
662.309	8.6
662.636	8.04
662.963	8.29
663.29	8.37
663.616	8.02
663.943	8.58
664.27	8.16
664.596	8.24
664.923	7.62
665.249	8.52
665.576	8.16
665.902	8.34
666.228	8.59
666.554	7.68
666.881	8.77
667.207	8.14
667.533	8.3
667.859	8.59
668.185	8.63
668.511	8.83
668.837	8.56
669.162	8.86
669.488	8
669.814	8.25
670.139	8.75
670.465	9.06
670.791	8.85
671.116	8.39
671.442	8.87
671.767	7.75
672.092	9
672.418	9.2
672.743	9.09
673.068	9.2
673.393	7.98
673.718	9.08
674.043	9.1
674.368	9.02
674.693	9.07
675.018	8.97
675.343	8.84
675.667	8.91
675.992	8.91
676.317	8.67
676.641	9.05
676.966	9.05
677.29	8.66
677.615	9.38
677.939	8.74
678.264	9.22
678.588	9.77
678.912	9.7
679.236	8.86
679.56	8.92
679.885	8.88
680.209	10.1
680.532	9.32
680.856	8.7
681.18	9.27
681.504	9.22
681.828	9.76
682.152	8.8
682.475	9.64
682.799	9.36
683.122	9.16
683.446	9.25
683.769	9.4
684.093	9.34
684.416	9.41
684.739	9.22
685.062	10.21
685.386	9.03
685.709	9.52
686.032	9.24
686.355	9.43
686.678	9.22
687.001	9.47
687.324	9.2
687.646	9.74
687.969	10.01
688.292	10
688.614	10.48
688.937	9.65
689.26	9.6
689.582	9.7
689.904	9.55
690.227	10.17
690.549	10.06
690.871	9.53
691.194	10.34
691.516	9.81
691.838	9.6
692.16	9.49
692.482	9.92
692.804	9.69
