Data from 0157_forehead_Reflection__1__62.txt Node

Date: Fri Sep 22 20:48:37 CDT 2023
User: ToomeyLab
Spectrometer: FLMS14357
Trigger mode: 0
Integration Time (sec): 1.000000E-2
Scans to average: 100
Electric dark correction enabled: true
Nonlinearity correction enabled: false
Boxcar width: 0
XAxis mode: Wavelengths
Number of Pixels in Spectrum: 2048
>>>>>Begin Spectral Data<<<<<
189.047	6.62
189.435	6.62
189.823	6.62
190.211	76.48
190.599	381.15
190.987	31.42
191.375	968.43
191.763	148.13
192.151	125.41
192.538	-14.7
192.926	140.74
193.314	5684.37
193.702	27.35
194.089	114.35
194.477	7.56
194.864	225.18
195.252	29.67
195.639	17.13
196.027	417.29
196.414	103.73
196.801	13.12
197.189	11.15
197.576	489.01
197.963	5.87
198.351	16.67
198.738	1.5
199.125	13.23
199.512	143.09
199.899	54.15
200.286	38.92
200.673	16.63
201.06	65.21
201.447	54.25
201.833	157.9
202.22	74.86
202.607	48.26
202.994	61.25
203.38	37.53
203.767	55.69
204.154	40.47
204.54	35.45
204.927	45.02
205.313	32.37
205.699	68.84
206.086	61.61
206.472	79.69
206.858	35.99
207.245	48.03
207.631	54.81
208.017	50.55
208.403	9.51
208.789	42.61
209.175	53.66
209.561	35.98
209.947	49.82
210.333	44.69
210.719	38.52
211.105	44.09
211.491	25.94
211.876	81.07
212.262	49.47
212.648	27.69
213.034	26.27
213.419	10.63
213.805	26.69
214.19	35.88
214.576	37.31
214.961	16.46
215.346	24.62
215.732	29.41
216.117	21.46
216.502	54.51
216.888	42.18
217.273	63.61
217.658	40.03
218.043	27.13
218.428	37.2
218.813	36.15
219.198	0.37
219.583	20.29
219.968	9.82
220.353	40
220.738	22.25
221.122	21.33
221.507	25.13
221.892	9.19
222.276	32.45
222.661	0.06
223.046	21.54
223.43	29.96
223.815	25.5
224.199	25.02
224.583	24.18
224.968	22.48
225.352	15.47
225.736	10.76
226.121	17.75
226.505	17.04
226.889	11.39
227.273	18.09
227.657	10.77
228.041	8.98
228.425	14.41
228.809	10.17
229.193	7.52
229.577	11.89
229.961	8.41
230.344	9.17
230.728	5.75
231.112	6.79
231.495	6.71
231.879	5.69
232.263	6.04
232.646	6.52
233.03	6.52
233.413	7.86
233.797	7.46
234.18	7.69
234.563	9.22
234.946	9.05
235.33	6.3
235.713	8.29
236.096	7.72
236.479	6.3
236.862	9.4
237.245	6.47
237.628	8.93
238.011	7.77
238.394	8.77
238.777	7.69
239.16	7.29
239.543	9.43
239.925	9.72
240.308	7.61
240.691	7.65
241.073	7.97
241.456	6.1
241.838	6.49
242.221	6.34
242.603	7.75
242.986	7.34
243.368	6.26
243.75	6.51
244.133	6.4
244.515	6.3
244.897	5.64
245.279	6.21
245.661	6.35
246.043	6.37
246.425	5.34
246.807	5.9
247.189	6.19
247.571	7.13
247.953	6.67
248.335	6.48
248.717	6.15
249.098	5.8
249.48	5.61
249.862	5.58
250.243	5.57
250.625	5.83
251.006	5.56
251.388	5.96
251.769	6.39
252.151	6.39
252.532	7.11
252.913	7.1
253.295	6.81
253.676	6
254.057	6.57
254.438	6.83
254.819	5.73
255.2	6.11
255.581	5.81
255.962	7.2
256.343	7.16
256.724	5.17
257.105	6.14
257.486	6.97
257.867	6.15
258.247	5.42
258.628	6.57
259.009	6.98
259.389	6.85
259.77	6.52
260.15	6.98
260.531	5.63
260.911	5.15
261.292	5.69
261.672	5.22
262.052	5.66
262.432	5.47
262.813	5.68
263.193	5.31
263.573	6.56
263.953	6.06
264.333	5.84
264.713	6
265.093	6.31
265.473	6.14
265.853	5.46
266.233	5.55
266.612	5.74
266.992	6.75
267.372	7.09
267.752	6.38
268.131	6.48
268.511	5.09
268.89	6.37
269.27	5.48
269.649	5.97
270.029	5.4
270.408	5.57
270.787	6.25
271.167	5.93
271.546	5.98
271.925	5.98
272.304	5.49
272.683	5.86
273.062	6.22
273.441	5.47
273.82	5.61
274.199	5.48
274.578	5.61
274.957	5.57
275.336	5.45
275.715	5.63
276.093	5.29
276.472	5.2
276.851	5.55
277.229	4.64
277.608	5.9
277.986	5.74
278.365	5.52
278.743	5.43
279.122	5.59
279.5	6.74
279.878	5.63
280.257	6.13
280.635	5.39
281.013	6.35
281.391	5.24
281.769	5.27
282.147	6.4
282.525	5.43
282.903	6.12
283.281	6.17
283.659	5.55
284.037	5.7
284.415	5.67
284.792	5.5
285.17	5.91
285.548	6.28
285.925	5.81
286.303	5.73
286.68	5.3
287.058	5.19
287.435	5.66
287.813	5.57
288.19	5.47
288.567	5.74
288.945	5.84
289.322	5.95
289.699	5.74
290.076	5.78
290.453	5.71
290.83	5.22
291.207	5.78
291.584	5.41
291.961	5.5
292.338	5.56
292.715	6.16
293.092	5.71
293.469	5.81
293.845	5.9
294.222	5.98
294.599	5.96
294.975	6.65
295.352	6.32
295.728	6.42
296.105	6.76
296.481	6.36
296.858	6.04
297.234	5.69
297.61	5.76
297.986	6.42
298.363	6.38
298.739	6.02
299.115	6.19
299.491	6.21
299.867	6.17
300.243	6.06
300.619	6.02
300.995	6.26
301.371	6.48
301.746	6.5
302.122	6.36
302.498	6.67
302.874	6.25
303.249	6.07
303.625	5.93
304	7.2
304.376	6.81
304.751	7.08
305.127	7.24
305.502	6.94
305.878	7.07
306.253	7.14
306.628	6.5
307.003	7.14
307.378	6.89
307.754	6.71
308.129	7.28
308.504	7.17
308.879	7.12
309.254	7.12
309.629	7.53
310.003	7.79
310.378	7.62
310.753	7.53
311.128	7.5
311.502	7.18
311.877	6.62
312.252	7.46
312.626	7.18
313.001	7.85
313.375	7.79
313.75	7.84
314.124	8.01
314.498	7.46
314.873	7.47
315.247	8.14
315.621	8.28
315.995	7.89
316.369	8.03
316.743	8.04
317.117	8.49
317.491	8.2
317.865	7.8
318.239	8.73
318.613	8.97
318.987	8.44
319.361	8.38
319.734	7.93
320.108	8.83
320.482	8.25
320.855	8.68
321.229	8.96
321.602	8.82
321.976	8.72
322.349	8.7
322.723	8.53
323.096	8.37
323.469	8.88
323.843	8.57
324.216	9.13
324.589	9.21
324.962	8.65
325.335	8.8
325.708	8.25
326.081	9.36
326.454	8.38
326.827	8.87
327.2	8.82
327.573	9.47
327.945	8.9
328.318	8.75
328.691	9.49
329.063	8.89
329.436	9.53
329.809	8.98
330.181	8.91
330.553	9.19
330.926	9.43
331.298	9.87
331.671	9.61
332.043	9.3
332.415	9.5
332.787	9.78
333.159	9.62
333.532	9.79
333.904	9.88
334.276	9.53
334.648	9.65
335.02	9.83
335.391	9.92
335.763	10.05
336.135	10.31
336.507	10.11
336.879	9.49
337.25	10.39
337.622	10.36
337.993	10.21
338.365	10.22
338.736	9.92
339.108	10.07
339.479	10.64
339.851	10.04
340.222	9.62
340.593	10.28
340.964	9.96
341.336	10.12
341.707	9.98
342.078	10.59
342.449	10.45
342.82	10.27
343.191	10.3
343.562	10.72
343.933	10.93
344.303	10.26
344.674	10.7
345.045	10.46
345.416	11.05
345.786	10.48
346.157	10.61
346.527	10.67
346.898	10.19
347.268	10.76
347.639	10.62
348.009	10.86
348.38	11.32
348.75	11.14
349.12	10.87
349.49	11.21
349.861	11.3
350.231	11.16
350.601	11.09
350.971	11.46
351.341	11.06
351.711	10.9
352.081	11.09
352.45	11.44
352.82	11.67
353.19	11.31
353.56	11.28
353.929	11.69
354.299	11.64
354.669	11.39
355.038	11.47
355.408	11.27
355.777	12.04
356.147	12.05
356.516	12.28
356.885	11.67
357.254	11.99
357.624	11.58
357.993	11.91
358.362	11.96
358.731	12.02
359.1	11.83
359.469	12.1
359.838	11.63
360.207	11.94
360.576	11.77
360.945	12.1
361.314	12.26
361.682	12.75
362.051	12.08
362.42	12.35
362.788	12.34
363.157	12.66
363.525	12.46
363.894	12.5
364.262	12.36
364.631	12.4
364.999	12.37
365.367	12.8
365.735	12.89
366.104	12.72
366.472	12.69
366.84	12.61
367.208	13.09
367.576	12.99
367.944	12.99
368.312	13.3
368.68	13.26
369.048	13.35
369.416	13.27
369.783	12.99
370.151	13.34
370.519	13.58
370.886	13.38
371.254	13.6
371.621	13.38
371.989	13.68
372.356	13.41
372.724	13.77
373.091	13.66
373.458	13.76
373.826	13.71
374.193	13.76
374.56	13.72
374.927	13.85
375.294	13.71
375.661	13.89
376.028	14.39
376.395	14.07
376.762	13.98
377.129	14.58
377.496	14.75
377.863	14.57
378.229	14.37
378.596	14.49
378.963	14.69
379.329	14.62
379.696	14.68
380.062	14.23
380.429	14.49
380.795	14.63
381.161	14.77
381.528	14.85
381.894	14.72
382.26	15.08
382.626	14.94
382.993	15.02
383.359	14.81
383.725	14.83
384.091	15.11
384.457	15.3
384.823	15.39
385.188	15.42
385.554	15.22
385.92	15.35
386.286	15.43
386.651	15.38
387.017	15.63
387.383	15.45
387.748	15.7
388.114	15.56
388.479	15.63
388.845	15.6
389.21	15.75
389.575	16.04
389.94	15.76
390.306	15.53
390.671	16.39
391.036	15.95
391.401	15.88
391.766	16.14
392.131	16.13
392.496	16.24
392.861	15.98
393.226	16.28
393.591	16.4
393.956	16.3
394.32	16.42
394.685	16.25
395.05	16.54
395.414	16.72
395.779	16.64
396.143	16.89
396.508	16.74
396.872	16.77
397.236	16.82
397.601	16.79
397.965	16.89
398.329	17.17
398.694	17.02
399.058	17.19
399.422	17.32
399.786	17.32
400.15	17.49
400.514	17.26
400.878	17.25
401.242	17.4
401.605	17.24
401.969	17.44
402.333	17.42
402.697	17.34
403.06	17.54
403.424	17.6
403.787	17.85
404.151	17.87
404.514	18.01
404.878	18.21
405.241	18.05
405.604	18.22
405.968	18.12
406.331	18.12
406.694	18.07
407.057	18.05
407.42	18.26
407.783	18.17
408.146	18.43
408.509	18.24
408.872	18.55
409.235	18.44
409.598	18.44
409.961	18.76
410.323	18.74
410.686	18.63
411.049	18.92
411.411	18.99
411.774	18.92
412.136	18.83
412.499	18.8
412.861	18.89
413.223	18.92
413.586	19.08
413.948	19.24
414.31	19.11
414.672	19.35
415.035	19.29
415.397	19.33
415.759	19.44
416.121	19.38
416.483	19.26
416.845	19.18
417.206	19.41
417.568	19.57
417.93	19.5
418.292	19.64
418.653	19.63
419.015	19.62
419.377	19.38
419.738	19.7
420.1	19.57
420.461	19.79
420.822	19.71
421.184	19.81
421.545	19.68
421.906	19.82
422.267	19.83
422.629	20.04
422.99	19.94
423.351	19.8
423.712	19.71
424.073	19.78
424.434	20.08
424.795	20.26
425.155	20.28
425.516	20.28
425.877	20.22
426.238	20.13
426.598	20.18
426.959	20.2
427.32	20.34
427.68	20.53
428.041	20.48
428.401	20.77
428.761	20.91
429.122	20.97
429.482	20.95
429.842	21.22
430.202	21.16
430.563	21.49
430.923	21.44
431.283	21.77
431.643	21.5
432.003	21.54
432.363	21.7
432.722	21.72
433.082	21.75
433.442	21.74
433.802	22.05
434.161	21.79
434.521	21.85
434.881	21.83
435.24	21.88
435.6	21.83
435.959	21.74
436.319	21.95
436.678	21.97
437.037	22.27
437.396	22.09
437.756	22.49
438.115	22.36
438.474	22.48
438.833	22.88
439.192	22.29
439.551	22.61
439.91	22.85
440.269	22.49
440.628	22.4
440.987	22.63
441.345	22.65
441.704	22.91
442.063	22.71
442.421	22.71
442.78	22.78
443.138	22.76
443.497	22.73
443.855	23
444.214	22.84
444.572	23.18
444.93	23.2
445.288	23.35
445.647	23.3
446.005	23.4
446.363	23.25
446.721	23.27
447.079	23.39
447.437	23.43
447.795	23.46
448.153	23.2
448.51	23.24
448.868	23.24
449.226	23.49
449.584	23.54
449.941	23.45
450.299	23.81
450.656	23.87
451.014	24.1
451.371	24.21
451.729	24.23
452.086	24.28
452.443	24.28
452.801	24.43
453.158	24.57
453.515	24.49
453.872	24.66
454.229	24.63
454.586	24.76
454.943	24.7
455.3	24.76
455.657	24.85
456.014	24.92
456.371	25.04
456.727	24.94
457.084	24.93
457.441	25.02
457.797	25.24
458.154	25.26
458.51	25.34
458.867	25.44
459.223	25.31
459.58	25.59
459.936	25.67
460.292	25.56
460.648	25.44
461.005	25.4
461.361	25.53
461.717	25.26
462.073	25.22
462.429	25.08
462.785	25.3
463.141	25.67
463.496	25.75
463.852	25.84
464.208	25.98
464.564	26.22
464.919	26.15
465.275	26.44
465.631	26.52
465.986	26.54
466.342	26.63
466.697	26.49
467.052	26.5
467.408	26.68
467.763	26.66
468.118	26.7
468.473	26.57
468.829	26.69
469.184	26.62
469.539	26.82
469.894	26.9
470.249	26.79
470.603	26.88
470.958	26.81
471.313	27.11
471.668	27.27
472.023	27.37
472.377	27.44
472.732	27.34
473.086	27.45
473.441	27.34
473.795	27.6
474.15	27.47
474.504	27.59
474.859	27.73
475.213	27.39
475.567	27.52
475.921	27.64
476.275	27.89
476.63	27.65
476.984	28.25
477.338	28.08
477.692	28.11
478.045	28.17
478.399	28.34
478.753	28.08
479.107	28.14
479.461	28.06
479.814	28.18
480.168	28.39
480.521	28.45
480.875	28.6
481.228	28.43
481.582	28.3
481.935	28.34
482.289	28.59
482.642	28.56
482.995	28.42
483.348	28.68
483.701	28.58
484.055	28.35
484.408	28.35
484.761	28.5
485.114	28.22
485.466	27.99
485.819	27.67
486.172	27.58
486.525	27.68
486.878	27.8
487.23	28
487.583	28.17
487.936	28.44
488.288	28.61
488.641	28.66
488.993	28.62
489.345	28.54
489.698	28.39
490.05	28.36
490.402	28.38
490.754	28.55
491.107	28.59
491.459	29.01
491.811	29.23
492.163	29.43
492.515	29.46
492.866	29.61
493.218	29.41
493.57	29.09
493.922	29.04
494.274	29
494.625	29.27
494.977	29.5
495.328	29.71
495.68	30.01
496.031	30.12
496.383	30.57
496.734	30.5
497.086	30.52
497.437	30.72
497.788	30.75
498.139	30.73
498.49	30.71
498.842	30.65
499.193	30.49
499.544	30.62
499.894	30.62
500.245	30.82
500.596	30.83
500.947	30.82
501.298	31
501.648	31.15
501.999	31.37
502.35	31.4
502.7	31.45
503.051	31.55
503.401	31.57
503.752	31.6
504.102	31.69
504.452	31.64
504.803	31.71
505.153	31.93
505.503	31.9
505.853	32.09
506.203	31.83
506.553	31.98
506.903	32.03
507.253	31.9
507.603	32.09
507.953	32.22
508.303	32.18
508.652	32.23
509.002	32.33
509.352	32.28
509.701	32.4
510.051	32.33
510.4	32.26
510.75	32.4
511.099	32.1
511.449	32.35
511.798	32.36
512.147	32.25
512.496	32.32
512.846	32.44
513.195	32.63
513.544	32.7
513.893	32.7
514.242	32.74
514.591	32.67
514.939	32.74
515.288	32.83
515.637	33
515.986	33.05
516.334	33.11
516.683	33.16
517.032	33.34
517.38	33.54
517.729	33.4
518.077	33.65
518.426	33.4
518.774	33.59
519.122	33.49
519.47	33.57
519.819	33.63
520.167	33.36
520.515	33.38
520.863	33.16
521.211	33.19
521.559	33.33
521.907	33.29
522.255	33.74
522.602	33.65
522.95	33.84
523.298	33.98
523.645	34.17
523.993	34.11
524.341	34.27
524.688	34.15
525.036	34.52
525.383	34.4
525.73	34.63
526.078	34.52
526.425	34.44
526.772	34.53
527.119	34.41
527.466	34.32
527.814	34.03
528.161	34.04
528.508	34.21
528.854	34.2
529.201	34.31
529.548	34.36
529.895	34.21
530.242	34.08
530.588	33.76
530.935	33.74
531.282	33.82
531.628	33.9
531.975	33.94
532.321	34.19
532.667	34.45
533.014	34.7
533.36	34.89
533.706	34.87
534.052	35.1
534.399	35.08
534.745	34.98
535.091	34.79
535.437	34.71
535.783	34.49
536.129	34.73
536.474	34.83
536.82	35.13
537.166	35.27
537.512	35.4
537.857	35.89
538.203	35.6
538.549	35.58
538.894	35.48
539.239	35.47
539.585	35.55
539.93	35.76
540.276	35.99
540.621	36.43
540.966	36.4
541.311	36.52
541.656	36.49
542.001	36.48
542.346	36.29
542.691	36.28
543.036	36.17
543.381	35.75
543.726	35.54
544.071	35.58
544.415	35.76
544.76	35.91
545.105	36.09
545.449	36.13
545.794	36.34
546.138	36.59
546.483	36.69
546.827	36.69
547.171	36.89
547.516	36.91
547.86	37.07
548.204	37.1
548.548	37
548.892	36.95
549.236	36.92
549.58	37.12
549.924	37.23
550.268	37.47
550.612	37.43
550.956	37.65
551.3	37.67
551.643	38.06
551.987	38.07
552.33	38.09
552.674	38.12
553.017	38.31
553.361	38.24
553.704	38.45
554.048	38.52
554.391	38.26
554.734	38.31
555.077	38.27
555.42	38.21
555.764	38.49
556.107	38.51
556.45	38.56
556.793	38.56
557.135	38.72
557.478	38.67
557.821	38.65
558.164	38.92
558.507	39
558.849	39.04
559.192	39.22
559.534	39.12
559.877	39.02
560.219	39.22
560.562	39.23
560.904	39.31
561.246	39.6
561.589	39.34
561.931	39.4
562.273	39.01
562.615	39.35
562.957	39.71
563.299	39.59
563.641	39.61
563.983	39.68
564.325	39.79
564.667	39.77
565.008	39.83
565.35	39.73
565.692	40
566.033	39.7
566.375	39.9
566.716	39.96
567.058	39.96
567.399	39.97
567.741	40.19
568.082	39.88
568.423	39.76
568.764	40.17
569.105	39.71
569.447	39.9
569.788	40.19
570.129	40.25
570.47	40.45
570.811	40.53
571.151	40.62
571.492	40.41
571.833	40.33
572.174	40.51
572.514	40.62
572.855	40.55
573.195	40.59
573.536	40.8
573.876	40.74
574.217	40.82
574.557	40.56
574.898	40.66
575.238	40.67
575.578	40.83
575.918	41.04
576.258	40.78
576.598	40.88
576.938	41.16
577.278	41.18
577.618	41.15
577.958	41.19
578.298	41.25
578.638	41.05
578.977	41.25
579.317	41.26
579.657	41.43
579.996	41.18
580.336	41.58
580.675	41.44
581.014	41.64
581.354	41.75
581.693	42.26
582.032	42.15
582.372	42.03
582.711	42.14
583.05	42.12
583.389	42.35
583.728	42.2
584.067	42.36
584.406	42.26
584.745	42.45
585.083	42.58
585.422	42.47
585.761	42.34
586.1	42.46
586.438	42.65
586.777	42.58
587.115	42.75
587.454	42.34
587.792	42.7
588.13	42.85
588.469	42.77
588.807	42.78
589.145	42.86
589.483	42.78
589.821	43.19
590.159	42.96
590.497	43.3
590.835	42.9
591.173	43.01
591.511	42.61
591.849	43.12
592.187	42.97
592.524	42.97
592.862	43.39
593.2	43.21
593.537	43.2
593.875	43.16
594.212	43.42
594.55	43.23
594.887	43.6
595.224	43.64
595.561	43.47
595.899	44.04
596.236	43.88
596.573	43.68
596.91	43.59
597.247	43.43
597.584	43.7
597.921	44.06
598.258	43.76
598.594	43.82
598.931	43.55
599.268	43.55
599.604	43.4
599.941	43.87
600.277	43.57
600.614	43.55
600.95	43.79
601.287	44.42
601.623	44.21
601.959	44.53
602.296	44.39
602.632	44.31
602.968	44.37
603.304	44.3
603.64	44.23
603.976	44.39
604.312	44.7
604.648	44.59
604.984	44.54
605.319	44.46
605.655	44.31
605.991	44.36
606.326	44.42
606.662	44.52
606.998	44.29
607.333	44.18
607.668	44.47
608.004	44.86
608.339	44.59
608.674	44.72
609.01	44.96
609.345	45.15
609.68	45.06
610.015	45.12
610.35	45.45
610.685	45.46
611.02	45.24
611.355	44.92
611.689	44.84
612.024	44.91
612.359	45.18
612.694	45.05
613.028	44.99
613.363	45.22
613.697	45.73
614.032	45.43
614.366	45.6
614.7	45.84
615.035	46
615.369	45.33
615.703	45.26
616.037	45.99
616.371	46.01
616.705	46.23
617.039	45.75
617.373	45.83
617.707	46.08
618.041	45.86
618.375	46.17
618.709	46.25
619.042	46.44
619.376	46.29
619.71	46.28
620.043	46.24
620.377	46.58
620.71	46.81
621.043	46.41
621.377	46.1
621.71	46.46
622.043	46.61
622.376	46.74
622.709	46.5
623.043	46.52
623.376	46.58
623.709	46.75
624.041	46.33
624.374	46.76
624.707	46.74
625.04	46.66
625.373	47.02
625.705	46.97
626.038	47.1
626.37	47.14
626.703	47.19
627.035	47.07
627.368	47.22
627.7	47.31
628.032	47.32
628.365	47.16
628.697	46.87
629.029	46.75
629.361	47.29
629.693	47.13
630.025	47.42
630.357	47.08
630.689	47.16
631.021	47.36
631.353	47.55
631.684	47.14
632.016	47.44
632.348	47.69
632.679	47.67
633.011	47.57
633.342	47.61
633.674	48.12
634.005	47.65
634.336	47.59
634.668	48.12
634.999	47.85
635.33	47.44
635.661	47.79
635.992	48.15
636.323	47.56
636.654	47.94
636.985	48.05
637.316	48.3
637.647	48.78
637.977	47.57
638.308	48.04
638.639	48.3
638.969	48.35
639.3	48.57
639.63	48.63
639.961	48.12
640.291	48.34
640.622	48.22
640.952	48.42
641.282	48.32
641.612	48.43
641.943	48.9
642.273	48.57
642.603	48.49
642.933	48.62
643.263	48.53
643.592	48.54
643.922	48.74
644.252	48.33
644.582	48.67
644.911	48.6
645.241	48.85
645.571	48.59
645.9	49
646.23	49.29
646.559	49.43
646.888	48.78
647.218	49
647.547	48.99
647.876	49.25
648.205	49.36
648.534	49.43
648.863	49.52
649.192	48.65
649.521	49.3
649.85	49.42
650.179	49.19
650.508	49.63
650.837	49.15
651.165	49.54
651.494	48.89
651.822	49.32
652.151	49.36
652.479	49.36
652.808	49.31
653.136	49.63
653.465	49.49
653.793	49.83
654.121	49.43
654.449	49.66
654.777	49.81
655.105	50.07
655.433	48.95
655.761	50.03
656.089	49.82
656.417	49.69
656.745	49.55
657.073	49.78
657.4	49.94
657.728	50.06
658.056	50.18
658.383	50.52
658.711	49.59
659.038	50.35
659.365	49.4
659.693	49.69
660.02	49.83
660.347	50.55
660.674	49.64
661.001	50.14
661.329	49.75
661.656	49.53
661.982	50.43
662.309	50.23
662.636	50.05
662.963	50.64
663.29	50.53
663.616	50.47
663.943	50.38
664.27	50.95
664.596	51.25
664.923	50.41
665.249	50.79
665.576	50.31
665.902	50.66
666.228	51.03
666.554	50.69
666.881	50.97
667.207	50.79
667.533	50.57
667.859	50.8
668.185	51.19
668.511	51.36
668.837	50.86
669.162	51.49
669.488	50.89
669.814	50.8
670.139	51.26
670.465	50.88
670.791	50.63
