Data from 0157_crown_Reflection__0__56.txt Node

Date: Fri Sep 22 20:46:47 CDT 2023
User: ToomeyLab
Spectrometer: FLMS14357
Trigger mode: 0
Integration Time (sec): 1.000000E-2
Scans to average: 100
Electric dark correction enabled: true
Nonlinearity correction enabled: false
Boxcar width: 0
XAxis mode: Wavelengths
Number of Pixels in Spectrum: 2048
>>>>>Begin Spectral Data<<<<<
189.047	53.35
189.435	53.35
189.823	53.35
190.211	52.4
190.599	167.04
190.987	51.04
191.375	829.33
191.763	398.39
192.151	136.27
192.538	-210.04
192.926	134.31
193.314	2421.87
193.702	88.37
194.089	107.37
194.477	-50.03
194.864	55.33
195.252	-43.54
195.639	116.79
196.027	704.63
196.414	-11.04
196.801	95.12
197.189	-165.94
197.576	229.85
197.963	-95.49
198.351	-7.38
198.738	14.79
199.125	-20.41
199.512	6.54
199.899	19.83
200.286	20.14
200.673	31.24
201.06	13.37
201.447	32.95
201.833	-144.39
202.22	30.15
202.607	22.49
202.994	45.31
203.38	17.22
203.767	10.3
204.154	51.71
204.54	19.57
204.927	-14.27
205.313	12.3
205.699	38.83
206.086	53.09
206.472	50.47
206.858	1.75
207.245	-14.98
207.631	30.92
208.017	35.92
208.403	2.78
208.789	23.31
209.175	38.69
209.561	25.11
209.947	13.86
210.333	36.92
210.719	-15.87
211.105	31.73
211.491	7.66
211.876	23.21
212.262	34.61
212.648	28.79
213.034	35.63
213.419	8.58
213.805	22.84
214.19	6.66
214.576	12.99
214.961	22.16
215.346	9.17
215.732	30.37
216.117	18.48
216.502	21.74
216.888	23.79
217.273	16.48
217.658	-3.05
218.043	3.05
218.428	21.84
218.813	-11.45
219.198	-5.68
219.583	22.22
219.968	-12.31
220.353	29.68
220.738	14.17
221.122	19.76
221.507	12.92
221.892	19.72
222.276	3.12
222.661	-30.82
223.046	24.07
223.43	27.9
223.815	10.76
224.199	-0.79
224.583	15.28
224.968	16.06
225.352	5.68
225.736	11.37
226.121	5.7
226.505	9.99
226.889	11.02
227.273	7.56
227.657	8.48
228.041	10.37
228.425	12.18
228.809	7.35
229.193	6.4
229.577	7.86
229.961	7.51
230.344	8.69
230.728	6.02
231.112	8.02
231.495	7.02
231.879	7.47
232.263	6.83
232.646	5.42
233.03	6.17
233.413	7.02
233.797	6.9
234.18	8.1
234.563	7.72
234.946	8.08
235.33	4.61
235.713	6.2
236.096	6.4
236.479	7.05
236.862	8.94
237.245	7.36
237.628	6.51
238.011	7.27
238.394	8.02
238.777	8.23
239.16	7.12
239.543	8.04
239.925	7.23
240.308	8.3
240.691	9.17
241.073	8.47
241.456	7.84
241.838	6.78
242.221	6.55
242.603	7.13
242.986	5.55
243.368	5.65
243.75	7.13
244.133	7.46
244.515	6.08
244.897	5.86
245.279	6.42
245.661	5.59
246.043	6.99
246.425	5.99
246.807	6.07
247.189	4.88
247.571	6.11
247.953	6.24
248.335	6.18
248.717	6.3
249.098	5.98
249.48	5.7
249.862	5.7
250.243	6.31
250.625	5.85
251.006	5.49
251.388	5.88
251.769	5.9
252.151	5.22
252.532	5.26
252.913	6.13
253.295	6.5
253.676	5.82
254.057	5.3
254.438	6.24
254.819	4.9
255.2	5.88
255.581	6.09
255.962	6.72
256.343	5.67
256.724	4.48
257.105	6.08
257.486	6.12
257.867	5.68
258.247	5.86
258.628	5.96
259.009	5.15
259.389	6.2
259.77	6.05
260.15	5.65
260.531	5.07
260.911	4.91
261.292	5.31
261.672	5.22
262.052	5.29
262.432	5.12
262.813	5.2
263.193	5.03
263.573	5.3
263.953	5.08
264.333	5.16
264.713	5.09
265.093	4.74
265.473	4.73
265.853	5.19
266.233	4.67
266.612	4.79
266.992	5.66
267.372	6.07
267.752	5.95
268.131	5.34
268.511	5.33
268.89	5.05
269.27	4.8
269.649	4.48
270.029	5.11
270.408	5.07
270.787	5.1
271.167	4.65
271.546	4.51
271.925	4.96
272.304	4.67
272.683	5.05
273.062	4.82
273.441	4.3
273.82	5.02
274.199	4.87
274.578	5.16
274.957	4.66
275.336	4.76
275.715	4.72
276.093	4.62
276.472	4.56
276.851	5.28
277.229	3.47
277.608	4.75
277.986	4.67
278.365	4.84
278.743	5.23
279.122	5.32
279.5	5.35
279.878	4.43
280.257	5.08
280.635	4.8
281.013	4.51
281.391	4.95
281.769	4.28
282.147	4.82
282.525	5.06
282.903	5.18
283.281	4.35
283.659	4.45
284.037	3.92
284.415	4.67
284.792	4.59
285.17	4.28
285.548	4.67
285.925	4.31
286.303	4.4
286.68	4.08
287.058	4.54
287.435	4.82
287.813	4.57
288.19	4.35
288.567	4.44
288.945	4.42
289.322	4.59
289.699	4.26
290.076	4.59
290.453	4.2
290.83	3.79
291.207	4.42
291.584	4.38
291.961	3.95
292.338	4.59
292.715	4.95
293.092	4.52
293.469	4.53
293.845	4.41
294.222	4.44
294.599	4.32
294.975	4.54
295.352	4.29
295.728	3.86
296.105	4.67
296.481	4.6
296.858	4.25
297.234	4.59
297.61	4.25
297.986	4.56
298.363	4.27
298.739	4.67
299.115	4.45
299.491	4.49
299.867	4.54
300.243	4.39
300.619	4.49
300.995	4.23
301.371	4.92
301.746	4.52
302.122	4.54
302.498	4.04
302.874	4.21
303.249	3.96
303.625	4.28
304	4.4
304.376	4.54
304.751	4.76
305.127	4.53
305.502	4.85
305.878	3.83
306.253	4.42
306.628	4.11
307.003	4.39
307.378	4.47
307.754	4.03
308.129	4.36
308.504	4.31
308.879	4.78
309.254	4.31
309.629	4.47
310.003	4.7
310.378	4.52
310.753	4.97
311.128	4.3
311.502	4.48
311.877	3.71
312.252	4.29
312.626	4.46
313.001	4.47
313.375	4.83
313.75	4.54
314.124	4.61
314.498	4.01
314.873	4.07
315.247	4.14
315.621	4.28
315.995	3.91
316.369	4.35
316.743	4.38
317.117	4.45
317.491	4.65
317.865	3.65
318.239	3.96
318.613	4.54
318.987	4.39
319.361	4.19
319.734	4.36
320.108	4.76
320.482	3.79
320.855	3.86
321.229	4.82
321.602	4.69
321.976	4.02
322.349	4.65
322.723	4.46
323.096	3.91
323.469	4.23
323.843	4.17
324.216	4.29
324.589	4.55
324.962	4.04
325.335	4.15
325.708	3.99
326.081	4.3
326.454	4.06
326.827	4.15
327.2	4.08
327.573	4.74
327.945	4.37
328.318	3.97
328.691	4.41
329.063	4.32
329.436	4.38
329.809	4.27
330.181	4.61
330.553	4.18
330.926	4.63
331.298	4.53
331.671	4.5
332.043	4
332.415	4.58
332.787	4.6
333.159	4.36
333.532	4.03
333.904	4.19
334.276	4.11
334.648	3.98
335.02	4.18
335.391	4.31
335.763	4.35
336.135	4.27
336.507	4.91
336.879	4.55
337.25	4.08
337.622	4.79
337.993	4.54
338.365	4.7
338.736	4.32
339.108	4.91
339.479	4.68
339.851	3.97
340.222	4.05
340.593	4.18
340.964	3.83
341.336	3.97
341.707	3.97
342.078	4.51
342.449	4.44
342.82	4.13
343.191	3.93
343.562	4.01
343.933	4.29
344.303	4.37
344.674	4.48
345.045	4.56
345.416	4.59
345.786	4.01
346.157	4.84
346.527	3.93
346.898	4.3
347.268	4.24
347.639	4.43
348.009	4.39
348.38	4.42
348.75	4.55
349.12	4.67
349.49	4.67
349.861	4.47
350.231	4.08
350.601	4.55
350.971	4.71
351.341	4.1
351.711	4.37
352.081	4.75
352.45	4.32
352.82	4.22
353.19	4.77
353.56	4.3
353.929	4.78
354.299	4.46
354.669	4.29
355.038	4.53
355.408	4.1
355.777	4.91
356.147	4.47
356.516	4.53
356.885	4.45
357.254	4.8
357.624	4.61
357.993	4.56
358.362	4.6
358.731	4.31
359.1	4.69
359.469	4.5
359.838	4.25
360.207	4.4
360.576	4.51
360.945	4.35
361.314	4.77
361.682	4.76
362.051	4.7
362.42	4.74
362.788	4.28
363.157	4.65
363.525	4.68
363.894	4.41
364.262	4.35
364.631	4.48
364.999	4.32
365.367	4.75
365.735	4.48
366.104	4.72
366.472	4.46
366.84	4.49
367.208	4.82
367.576	4.77
367.944	4.51
368.312	4.8
368.68	4.76
369.048	4.55
369.416	4.63
369.783	4.55
370.151	4.72
370.519	4.89
370.886	4.81
371.254	5.11
371.621	4.34
371.989	4.57
372.356	4.64
372.724	4.71
373.091	5.07
373.458	4.62
373.826	4.71
374.193	4.87
374.56	4.93
374.927	4.99
375.294	4.57
375.661	4.44
376.028	4.76
376.395	4.41
376.762	4.61
377.129	4.72
377.496	5.07
377.863	4.95
378.229	4.78
378.596	4.71
378.963	5.39
379.329	4.74
379.696	4.83
380.062	4.42
380.429	4.88
380.795	4.72
381.161	4.61
381.528	4.6
381.894	4.36
382.26	4.52
382.626	4.69
382.993	4.92
383.359	4.61
383.725	4.78
384.091	4.94
384.457	5
384.823	4.74
385.188	4.94
385.554	4.94
385.92	5.23
386.286	4.84
386.651	4.9
387.017	4.88
387.383	4.98
387.748	4.96
388.114	4.66
388.479	4.68
388.845	4.63
389.21	4.64
389.575	5
389.94	4.5
390.306	5.03
390.671	4.98
391.036	4.58
391.401	4.78
391.766	4.66
392.131	4.89
392.496	4.86
392.861	5.14
393.226	4.93
393.591	4.92
393.956	4.82
394.32	4.69
394.685	4.66
395.05	5.05
395.414	4.78
395.779	4.99
396.143	4.72
396.508	4.95
396.872	4.66
397.236	4.72
397.601	4.58
397.965	4.96
398.329	4.94
398.694	4.77
399.058	4.82
399.422	4.7
399.786	4.92
400.15	5.05
400.514	4.94
400.878	4.97
401.242	5.01
401.605	4.83
401.969	4.53
402.333	5.05
402.697	5.02
403.06	4.85
403.424	4.81
403.787	4.95
404.151	4.89
404.514	4.91
404.878	5.07
405.241	5.14
405.604	5
405.968	4.94
406.331	5
406.694	4.91
407.057	4.8
407.42	4.98
407.783	4.67
408.146	4.97
408.509	4.83
408.872	4.7
409.235	4.91
409.598	5.04
409.961	4.96
410.323	5.15
410.686	5.02
411.049	5.16
411.411	5.18
411.774	4.89
412.136	4.9
412.499	4.83
412.861	5
413.223	5.01
413.586	5
413.948	5.03
414.31	5.03
414.672	5.11
415.035	4.99
415.397	5.29
415.759	5.47
416.121	4.97
416.483	5.01
416.845	4.93
417.206	4.81
417.568	4.88
417.93	4.76
418.292	4.96
418.653	4.79
419.015	4.96
419.377	4.81
419.738	4.94
420.1	4.87
420.461	4.95
420.822	4.9
421.184	4.9
421.545	4.92
421.906	4.85
422.267	4.88
422.629	4.95
422.99	4.8
423.351	4.8
423.712	4.74
424.073	4.86
424.434	4.99
424.795	4.89
425.155	4.89
425.516	4.88
425.877	4.92
426.238	4.76
426.598	4.73
426.959	4.83
427.32	4.9
427.68	4.86
428.041	4.78
428.401	4.99
428.761	4.98
429.122	5.05
429.482	5
429.842	4.95
430.202	4.82
430.563	4.95
430.923	5.16
431.283	5.08
431.643	5.02
432.003	4.98
432.363	5.21
432.722	5.09
433.082	4.98
433.442	5.01
433.802	5
434.161	4.96
434.521	5.1
434.881	5.08
435.24	4.87
435.6	4.85
435.959	4.76
436.319	4.97
436.678	5.14
437.037	5
437.396	4.92
437.756	4.93
438.115	5
438.474	5.04
438.833	5.19
439.192	5.05
439.551	5.04
439.91	5.04
440.269	5.13
440.628	4.78
440.987	4.94
441.345	4.96
441.704	4.97
442.063	4.89
442.421	4.97
442.78	5.02
443.138	4.89
443.497	4.84
443.855	5.04
444.214	4.85
444.572	5.17
444.93	4.99
445.288	4.96
445.647	5.12
446.005	5.03
446.363	5.02
446.721	5.1
447.079	4.78
447.437	5
447.795	4.9
448.153	4.87
448.51	4.93
448.868	4.86
449.226	4.86
449.584	4.86
449.941	4.84
450.299	5.01
450.656	4.99
451.014	4.96
451.371	4.98
451.729	5.09
452.086	5
452.443	5.17
452.801	5.19
453.158	4.97
453.515	5.04
453.872	4.91
454.229	5.15
454.586	4.97
454.943	4.96
455.3	5.01
455.657	4.91
456.014	5.02
456.371	5.18
456.727	5.02
457.084	5.03
457.441	4.89
457.797	5.07
458.154	5.21
458.51	5
458.867	5.17
459.223	5.14
459.58	5.18
459.936	5.05
460.292	5.06
460.648	5.12
461.005	5.04
461.361	5.05
461.717	4.83
462.073	4.85
462.429	4.87
462.785	4.87
463.141	4.99
463.496	5.01
463.852	5.01
464.208	5
464.564	5.04
464.919	5.16
465.275	5.05
465.631	5.14
465.986	5.07
466.342	5.09
466.697	5.12
467.052	5.04
467.408	5.13
467.763	5.14
468.118	5.12
468.473	5.01
468.829	4.85
469.184	5.07
469.539	5.18
469.894	5
470.249	5.17
470.603	4.95
470.958	5.06
471.313	5.15
471.668	4.98
472.023	5.07
472.377	5.19
472.732	4.92
473.086	5.16
473.441	4.82
473.795	5.41
474.15	5.11
474.504	4.99
474.859	5.12
475.213	4.93
475.567	4.91
475.921	5.01
476.275	5.02
476.63	4.91
476.984	5.11
477.338	5.07
477.692	5.14
478.045	5.13
478.399	5.12
478.753	5.1
479.107	5.29
479.461	5.05
479.814	5.15
480.168	5.11
480.521	5.12
480.875	5.19
481.228	5.08
481.582	4.91
481.935	5.1
482.289	4.97
482.642	4.95
482.995	4.96
483.348	5.05
483.701	5
484.055	4.96
484.408	4.99
484.761	4.9
485.114	4.8
485.466	4.8
485.819	4.66
486.172	4.62
486.525	4.63
486.878	4.65
487.23	4.76
487.583	4.78
487.936	4.85
488.288	4.9
488.641	4.88
488.993	4.78
489.345	4.76
489.698	4.72
490.05	4.72
490.402	4.74
490.754	4.71
491.107	4.72
491.459	4.9
491.811	4.83
492.163	4.93
492.515	4.9
492.866	4.91
493.218	4.97
493.57	4.83
493.922	4.77
494.274	4.74
494.625	4.79
494.977	4.87
495.328	4.99
495.68	5.03
496.031	4.93
496.383	5.02
496.734	5.06
497.086	4.91
497.437	4.93
497.788	5
498.139	5.01
498.49	5.01
498.842	4.75
499.193	4.88
499.544	4.99
499.894	5.02
500.245	4.9
500.596	5.03
500.947	4.98
501.298	4.96
501.648	5.06
501.999	4.92
502.35	5
502.7	5.08
503.051	5.02
503.401	5.07
503.752	5.04
504.102	4.99
504.452	4.95
504.803	4.86
505.153	5
505.503	5.03
505.853	5.01
506.203	4.98
506.553	5.01
506.903	4.93
507.253	4.94
507.603	4.97
507.953	4.97
508.303	5
508.652	4.98
509.002	5.15
509.352	4.84
509.701	5.14
510.051	4.92
510.4	4.93
510.75	4.96
511.099	4.78
511.449	4.92
511.798	4.97
512.147	5.01
512.496	4.81
512.846	4.96
513.195	4.95
513.544	4.91
513.893	5.01
514.242	4.79
514.591	4.8
514.939	4.91
515.288	4.82
515.637	4.97
515.986	4.8
516.334	4.91
516.683	5.08
517.032	5.03
517.38	4.83
517.729	4.89
518.077	4.98
518.426	4.93
518.774	4.92
519.122	4.85
519.47	4.96
519.819	4.95
520.167	4.85
520.515	4.87
520.863	4.75
521.211	4.77
521.559	4.85
521.907	4.83
522.255	4.82
522.602	4.88
522.95	4.76
523.298	4.95
523.645	4.91
523.993	4.96
524.341	4.79
524.688	4.94
525.036	4.91
525.383	4.91
525.73	5.01
526.078	4.88
526.425	4.83
526.772	4.91
527.119	4.79
527.466	4.72
527.814	4.77
528.161	4.68
528.508	4.77
528.854	4.76
529.201	4.83
529.548	4.78
529.895	4.71
530.242	4.7
530.588	4.51
530.935	4.47
531.282	4.53
531.628	4.61
531.975	4.61
532.321	4.6
532.667	4.68
533.014	4.68
533.36	4.75
533.706	4.75
534.052	4.81
534.399	4.8
534.745	4.77
535.091	4.6
535.437	4.6
535.783	4.59
536.129	4.59
536.474	4.7
536.82	4.6
537.166	4.82
537.512	4.68
537.857	4.7
538.203	4.85
538.549	4.66
538.894	4.69
539.239	4.68
539.585	4.66
539.93	4.77
540.276	4.8
540.621	4.75
540.966	4.86
541.311	4.84
541.656	4.72
542.001	4.76
542.346	4.8
542.691	4.77
543.036	4.79
543.381	4.57
543.726	4.47
544.071	4.54
544.415	4.59
544.76	4.58
545.105	4.5
545.449	4.55
545.794	4.58
546.138	4.69
546.483	4.68
546.827	4.58
547.171	4.65
547.516	4.72
547.86	4.71
548.204	4.71
548.548	4.52
548.892	4.67
549.236	4.61
549.58	4.67
549.924	4.79
550.268	4.89
550.612	4.66
550.956	4.68
551.3	4.75
551.643	4.9
551.987	4.76
552.33	4.88
552.674	4.71
553.017	4.52
553.361	4.73
553.704	4.78
554.048	4.86
554.391	4.86
554.734	4.84
555.077	4.71
555.42	4.58
555.764	4.69
556.107	4.77
556.45	4.66
556.793	4.72
557.135	4.75
557.478	4.57
557.821	4.77
558.164	4.95
558.507	5.05
558.849	4.61
559.192	4.88
559.534	4.82
559.877	4.68
560.219	4.81
560.562	4.73
560.904	4.8
561.246	4.82
561.589	4.62
561.931	4.78
562.273	4.72
562.615	4.56
562.957	4.73
563.299	4.65
563.641	4.63
563.983	4.78
564.325	4.79
564.667	4.68
565.008	4.59
565.35	4.65
565.692	4.64
566.033	4.97
566.375	4.74
566.716	4.66
567.058	4.75
567.399	4.76
567.741	4.65
568.082	4.61
568.423	4.66
568.764	4.7
569.105	4.42
569.447	4.53
569.788	4.64
570.129	4.73
570.47	4.66
570.811	4.61
571.151	4.73
571.492	4.62
571.833	4.59
572.174	4.55
572.514	4.7
572.855	4.7
573.195	4.53
573.536	4.61
573.876	4.64
574.217	4.59
574.557	4.61
574.898	4.64
575.238	4.61
575.578	4.65
575.918	4.52
576.258	4.49
576.598	4.59
576.938	4.69
577.278	4.66
577.618	4.35
577.958	4.63
578.298	4.64
578.638	4.63
578.977	4.62
579.317	4.68
579.657	4.62
579.996	4.65
580.336	4.61
580.675	4.71
581.014	4.55
581.354	4.32
581.693	4.49
582.032	4.67
582.372	4.67
582.711	4.67
583.05	4.67
583.389	4.69
583.728	4.67
584.067	4.8
584.406	4.59
584.745	4.55
585.083	4.96
585.422	4.82
585.761	4.46
586.1	4.58
586.438	4.76
586.777	4.64
587.115	4.53
587.454	4.35
587.792	4.66
588.13	4.61
588.469	4.58
588.807	4.65
589.145	4.57
589.483	4.59
589.821	4.55
590.159	4.6
590.497	4.59
590.835	4.58
591.173	4.59
591.511	4.69
591.849	4.68
592.187	4.39
592.524	4.63
592.862	4.4
593.2	4.56
593.537	4.6
593.875	4.43
594.212	4.65
594.55	4.97
594.887	4.48
595.224	4.53
595.561	4.82
595.899	4.9
596.236	4.78
596.573	4.59
596.91	4.59
597.247	4.6
597.584	4.79
597.921	4.79
598.258	4.67
598.594	4.49
598.931	4.61
599.268	4.64
599.604	4.7
599.941	4.55
600.277	4.58
600.614	4.55
600.95	4.53
601.287	4.67
601.623	4.56
601.959	4.49
602.296	4.53
602.632	4.53
602.968	4.38
603.304	4.5
603.64	4.43
603.976	4.64
604.312	4.72
604.648	4.45
604.984	4.54
605.319	4.41
605.655	4.43
605.991	4.44
606.326	4.57
606.662	4.37
606.998	4.35
607.333	4.58
607.668	4.42
608.004	4.76
608.339	4.39
608.674	4.57
609.01	4.67
609.345	4.66
609.68	4.83
610.015	4.68
610.35	4.41
610.685	4.71
611.02	4.47
611.355	4.55
611.689	4.37
612.024	4.61
612.359	4.63
612.694	4.43
613.028	4.29
613.363	4.56
613.697	4.4
614.032	4.26
614.366	4.43
614.7	4.79
615.035	4.61
615.369	4.3
615.703	4.35
616.037	4.54
616.371	4.85
616.705	4.61
617.039	4.53
617.373	4.51
617.707	4.35
618.041	4.89
618.375	4.49
618.709	4.33
619.042	4.58
619.376	4.99
619.71	4.7
620.043	4.45
620.377	4.15
620.71	4.58
621.043	4.86
621.377	4.6
621.71	4.53
622.043	4.76
622.376	5
622.709	4.53
623.043	4.5
623.376	4.17
623.709	4.5
624.041	4.39
624.374	4.5
624.707	5.14
625.04	4.67
625.373	4.58
625.705	4.37
626.038	4.21
626.37	4.89
626.703	4.55
627.035	4.59
627.368	4.51
627.7	4.86
628.032	4.6
628.365	4.85
628.697	4.56
629.029	4.43
629.361	4.43
629.693	4.74
630.025	4.77
630.357	4.39
630.689	4.52
631.021	4.52
631.353	4.62
631.684	4.31
632.016	5
632.348	4.64
632.679	4.43
633.011	4.4
633.342	4.78
633.674	5.06
634.005	4.38
634.336	4.71
634.668	4.87
634.999	4.57
635.33	4.38
635.661	4.47
635.992	4.7
636.323	4.31
636.654	4.45
636.985	4.33
637.316	4.43
637.647	4.62
637.977	4.13
638.308	5.06
638.639	4.31
638.969	4.64
639.3	4.48
639.63	4.65
639.961	4.43
640.291	4.26
640.622	4.68
640.952	4.71
641.282	4.59
641.612	4.34
641.943	4.8
642.273	4.71
642.603	4.68
642.933	4.71
643.263	4.15
643.592	4.29
643.922	4.91
644.252	3.97
644.582	4.85
644.911	5.12
645.241	4.82
645.571	4.5
645.9	4.29
646.23	4.6
646.559	4.9
646.888	4.96
647.218	4.42
647.547	4.38
647.876	4.62
648.205	4.33
648.534	4.98
648.863	4.07
649.192	4.11
649.521	4.47
649.85	4.57
650.179	4.61
650.508	4.23
650.837	4.78
651.165	4.92
651.494	4.71
651.822	4.39
652.151	4.51
652.479	4.48
652.808	4.45
653.136	5.03
653.465	4.56
653.793	4.57
654.121	4.9
654.449	4.34
654.777	4.76
655.105	4.69
655.433	4.54
655.761	4.96
656.089	4.5
656.417	4.77
656.745	4.89
657.073	4.76
657.4	5.11
657.728	4.73
658.056	4.9
658.383	4.97
658.711	4.18
659.038	4.91
659.365	4.73
659.693	4.7
660.02	5.1
660.347	5.18
660.674	4.43
661.001	4.3
661.329	4.31
661.656	4.64
661.982	4.38
662.309	4.9
662.636	4.82
662.963	4.83
663.29	4.47
663.616	4.6
663.943	4.92
664.27	4.63
664.596	4.9
664.923	4.28
665.249	4.62
665.576	3.99
665.902	4.56
666.228	5.01
666.554	4.61
666.881	5.04
667.207	4.74
667.533	4.8
667.859	4.8
668.185	5.17
668.511	5.58
668.837	4.31
669.162	5.37
669.488	4.84
669.814	4.43
670.139	4.9
670.465	5.16
670.791	5.01
671.116	4.64
671.442	5.19
671.767	3.7
672.092	4.93
672.418	5.27
672.743	5.04
673.068	5.14
673.393	4.55
673.718	4.92
674.043	4.63
674.368	4.86
674.693	4.36
675.018	4.63
675.343	5.32
675.667	5.38
675.992	5.14
676.317	4.86
676.641	4.73
676.966	5.17
677.29	4.44
677.615	4.99
677.939	5.5
678.264	4.52
678.588	6.15
678.912	4.78
679.236	5.13
679.56	4.95
679.885	4.69
680.209	5.5
680.532	3.93
680.856	4.6
681.18	5
681.504	4.91
681.828	5.18
682.152	4.84
682.475	5.29
682.799	4.9
683.122	4.82
683.446	4.83
683.769	5.49
684.093	5.03
684.416	4.83
684.739	4.55
685.062	5.45
685.386	4.98
685.709	5.09
686.032	4.16
686.355	4.6
686.678	4.87
687.001	5.46
687.324	4.93
687.646	5.27
687.969	5.81
688.292	4.33
688.614	4.99
688.937	4.4
689.26	4.56
689.582	5.04
689.904	4.74
690.227	5.66
690.549	5.49
690.871	4.72
691.194	5.56
691.516	5.13
691.838	4.59
692.16	4.64
692.482	4.95
692.804	4.26
693.126	4.55
693.448	5.44
