Data from 0157_chest_Reflection__3__54.txt Node

Date: Fri Sep 22 20:45:27 CDT 2023
User: ToomeyLab
Spectrometer: FLMS14357
Trigger mode: 0
Integration Time (sec): 1.000000E-2
Scans to average: 100
Electric dark correction enabled: true
Nonlinearity correction enabled: false
Boxcar width: 0
XAxis mode: Wavelengths
Number of Pixels in Spectrum: 2048
>>>>>Begin Spectral Data<<<<<
189.047	29.17
189.435	29.17
189.823	29.17
190.211	-8.82
190.599	-70.56
190.987	-9.77
191.375	-105.77
191.763	54.38
192.151	70.07
192.538	-22.24
192.926	30.9
193.314	5137.5
193.702	76.08
194.089	40.57
194.477	53.45
194.864	334.07
195.252	114.88
195.639	40.37
196.027	-69.81
196.414	10.31
196.801	36.55
197.189	452.92
197.576	419.42
197.963	78.64
198.351	-11.52
198.738	41.13
199.125	17.56
199.512	140.57
199.899	57.9
200.286	6.92
200.673	-2.28
201.06	8.93
201.447	21.26
201.833	-52.28
202.22	56.04
202.607	37.93
202.994	42.51
203.38	22.49
203.767	18.73
204.154	39.14
204.54	12.66
204.927	6.61
205.313	33.27
205.699	37.06
206.086	19.16
206.472	69.67
206.858	22.36
207.245	3.57
207.631	26.83
208.017	23.22
208.403	22.53
208.789	28.07
209.175	33.58
209.561	28.73
209.947	24.02
210.333	41.03
210.719	32.05
211.105	45.3
211.491	20.91
211.876	21.44
212.262	46.99
212.648	20.92
213.034	34.23
213.419	5.2
213.805	26.51
214.19	-1.87
214.576	18.5
214.961	7.06
215.346	-3.79
215.732	26.06
216.117	23.19
216.502	37.34
216.888	43.37
217.273	29.67
217.658	17.14
218.043	3.34
218.428	35.74
218.813	28.45
219.198	8.62
219.583	31.02
219.968	-12.2
220.353	35.08
220.738	16.74
221.122	9.55
221.507	13.14
221.892	13.64
222.276	0.49
222.661	2.11
223.046	22.13
223.43	29.4
223.815	13.35
224.199	1.44
224.583	6.36
224.968	9.79
225.352	-7.61
225.736	2.23
226.121	10.38
226.505	10.62
226.889	6.39
227.273	2.3
227.657	11.35
228.041	4.69
228.425	9.59
228.809	2.5
229.193	5.02
229.577	3.2
229.961	3.62
230.344	3.83
230.728	0.07
231.112	1.56
231.495	1
231.879	2.74
232.263	1.36
232.646	1.85
233.03	1.2
233.413	3.24
233.797	2.04
234.18	1.8
234.563	4.31
234.946	4.58
235.33	-1.07
235.713	0.24
236.096	2.83
236.479	2.2
236.862	3.38
237.245	1.35
237.628	2.62
238.011	2.08
238.394	1.93
238.777	3.45
239.16	1.22
239.543	4.77
239.925	3.9
240.308	3.15
240.691	3.18
241.073	1.56
241.456	3.32
241.838	2.13
242.221	1.98
242.603	2.07
242.986	2.31
243.368	1.42
243.75	1.36
244.133	2.03
244.515	1.72
244.897	1.32
245.279	1.46
245.661	1.66
246.043	1.87
246.425	1.35
246.807	2.67
247.189	-0
247.571	2.85
247.953	2.3
248.335	1.51
248.717	1.8
249.098	1.36
249.48	1.51
249.862	1.49
250.243	1.24
250.625	1.59
251.006	1.89
251.388	2.08
251.769	2.46
252.151	1.77
252.532	2.04
252.913	1.63
253.295	3.47
253.676	1.49
254.057	2.07
254.438	2.9
254.819	1.02
255.2	2.08
255.581	0.97
255.962	2
256.343	1.68
256.724	1.52
257.105	2.2
257.486	1.78
257.867	1.86
258.247	1.76
258.628	2.37
259.009	1.27
259.389	1.79
259.77	1.89
260.15	2.64
260.531	1.62
260.911	1.37
261.292	1.84
261.672	1.46
262.052	1.52
262.432	1.56
262.813	1.79
263.193	1.49
263.573	2.39
263.953	1.64
264.333	1.81
264.713	2.26
265.093	1.69
265.473	1.69
265.853	1.08
266.233	1.66
266.612	1.69
266.992	2.24
267.372	2.61
267.752	1.78
268.131	1.93
268.511	1.65
268.89	2.37
269.27	1.58
269.649	1.4
270.029	1.76
270.408	2.14
270.787	1.77
271.167	1.68
271.546	1.35
271.925	1.61
272.304	1.14
272.683	1.98
273.062	2.07
273.441	1.68
273.82	1.52
274.199	1.61
274.578	1.7
274.957	1.66
275.336	1.71
275.715	1.6
276.093	1.03
276.472	1.35
276.851	1.48
277.229	0.51
277.608	1.38
277.986	1.32
278.365	1.24
278.743	1.51
279.122	1.67
279.5	1.99
279.878	1.59
280.257	2.04
280.635	1.25
281.013	2.12
281.391	0.81
281.769	1.33
282.147	1.82
282.525	1.93
282.903	1.81
283.281	1.54
283.659	1.54
284.037	1.28
284.415	1.6
284.792	1.44
285.17	1.27
285.548	1.71
285.925	2.19
286.303	1.43
286.68	0.98
287.058	1.18
287.435	1.66
287.813	1.37
288.19	1.16
288.567	1.75
288.945	1.36
289.322	1.47
289.699	1.44
290.076	1.73
290.453	1.33
290.83	1.15
291.207	1.27
291.584	1.22
291.961	1.29
292.338	1.52
292.715	1.89
293.092	1.5
293.469	1.34
293.845	1.32
294.222	1.8
294.599	1.69
294.975	1.74
295.352	1.5
295.728	1.86
296.105	2.13
296.481	1.88
296.858	2.2
297.234	1.96
297.61	1.53
297.986	1.97
298.363	1.55
298.739	1.8
299.115	2.21
299.491	1.92
299.867	1.45
300.243	1.83
300.619	2.06
300.995	1.8
301.371	2.24
301.746	1.97
302.122	2.03
302.498	1.02
302.874	1.76
303.249	1.66
303.625	1.55
304	2.3
304.376	1.93
304.751	2.24
305.127	1.84
305.502	2.39
305.878	2.2
306.253	2.24
306.628	1.68
307.003	1.87
307.378	1.9
307.754	2.02
308.129	1.57
308.504	1.63
308.879	2.44
309.254	2.2
309.629	1.89
310.003	2.56
310.378	2.52
310.753	2.5
311.128	2
311.502	2.1
311.877	1.68
312.252	2.19
312.626	2.14
313.001	2.22
313.375	2.42
313.75	2.41
314.124	2.59
314.498	2.02
314.873	2.35
315.247	2.27
315.621	1.94
315.995	1.87
316.369	2.27
316.743	1.96
317.117	1.9
317.491	2.61
317.865	2.07
318.239	2.18
318.613	2.34
318.987	2.15
319.361	2.81
319.734	1.89
320.108	2.46
320.482	2.03
320.855	2.1
321.229	2.88
321.602	1.95
321.976	2.35
322.349	2.56
322.723	2.24
323.096	2.17
323.469	2.02
323.843	2.36
324.216	2.86
324.589	2.56
324.962	2.35
325.335	2.56
325.708	1.86
326.081	2.97
326.454	1.76
326.827	2.31
327.2	2.55
327.573	3.2
327.945	2.26
328.318	2.68
328.691	2.78
329.063	2.19
329.436	2.18
329.809	2.81
330.181	2.4
330.553	2.36
330.926	2.24
331.298	2.71
331.671	2.27
332.043	1.87
332.415	2.4
332.787	3.07
333.159	2.67
333.532	1.91
333.904	2.17
334.276	1.89
334.648	2.08
335.02	2.13
335.391	2.37
335.763	2.22
336.135	2.59
336.507	2.45
336.879	2.24
337.25	2.24
337.622	2.8
337.993	2.68
338.365	2.79
338.736	2.65
339.108	2.6
339.479	2.77
339.851	2.45
340.222	2.49
340.593	2.09
340.964	2.36
341.336	2.18
341.707	2.38
342.078	2.68
342.449	2.44
342.82	2.35
343.191	1.98
343.562	2.02
343.933	2.22
344.303	2.59
344.674	2.35
345.045	2.34
345.416	2.41
345.786	2.28
346.157	2.29
346.527	2.39
346.898	2.58
347.268	2.18
347.639	2.36
348.009	2.27
348.38	2.64
348.75	2.49
349.12	2.62
349.49	2.93
349.861	2.36
350.231	2.67
350.601	2.42
350.971	3.04
351.341	2.69
351.711	2.39
352.081	2.12
352.45	2.31
352.82	2.49
353.19	2.3
353.56	2.91
353.929	2.75
354.299	2.53
354.669	2.2
355.038	2.43
355.408	2.64
355.777	3.13
356.147	2.4
356.516	2.74
356.885	2.92
357.254	2.98
357.624	2.37
357.993	2.58
358.362	2.33
358.731	2.48
359.1	2.6
359.469	2.78
359.838	2.01
360.207	2.2
360.576	2.37
360.945	2.46
361.314	2.47
361.682	2.67
362.051	2.97
362.42	2.76
362.788	2.24
363.157	2.69
363.525	2.67
363.894	2.51
364.262	2.41
364.631	2.47
364.999	2.44
365.367	2.75
365.735	2.61
366.104	2.39
366.472	2.69
366.84	2.43
367.208	3.07
367.576	2.69
367.944	2.48
368.312	2.79
368.68	2.6
369.048	2.67
369.416	2.45
369.783	2.46
370.151	2.57
370.519	2.69
370.886	2.74
371.254	2.82
371.621	2.29
371.989	2.48
372.356	2.47
372.724	2.84
373.091	2.72
373.458	2.6
373.826	2.8
374.193	2.72
374.56	2.93
374.927	2.67
375.294	2.67
375.661	2.73
376.028	2.91
376.395	2.99
376.762	2.63
377.129	2.74
377.496	3.17
377.863	2.79
378.229	2.82
378.596	2.63
378.963	2.86
379.329	2.79
379.696	3.01
380.062	2.55
380.429	2.76
380.795	2.68
381.161	2.51
381.528	2.71
381.894	2.39
382.26	2.66
382.626	2.83
382.993	3.17
383.359	2.68
383.725	2.8
384.091	2.69
384.457	2.78
384.823	2.88
385.188	2.91
385.554	2.95
385.92	3.13
386.286	3.04
386.651	2.98
387.017	2.9
387.383	2.85
387.748	2.74
388.114	2.92
388.479	2.91
388.845	2.69
389.21	2.7
389.575	3.15
389.94	2.85
390.306	2.83
390.671	3.12
391.036	2.68
391.401	2.99
391.766	2.82
392.131	2.83
392.496	2.85
392.861	2.92
393.226	3.22
393.591	2.95
393.956	2.93
394.32	2.76
394.685	2.88
395.05	3.27
395.414	2.84
395.779	3.1
396.143	2.95
396.508	2.81
396.872	2.9
397.236	3.07
397.601	2.63
397.965	2.89
398.329	3.11
398.694	3
399.058	3.13
399.422	3.17
399.786	3.09
400.15	3.12
400.514	3
400.878	2.91
401.242	3.31
401.605	3.04
401.969	2.71
402.333	3
402.697	2.95
403.06	3.21
403.424	3.13
403.787	2.85
404.151	3.05
404.514	3.13
404.878	3.05
405.241	3.36
405.604	3.16
405.968	3
406.331	3.04
406.694	3.14
407.057	2.84
407.42	3.12
407.783	3.23
408.146	3.04
408.509	2.89
408.872	3.05
409.235	3.16
409.598	3.1
409.961	3.24
410.323	3.07
410.686	3.12
411.049	3.15
411.411	3.28
411.774	3.15
412.136	3.26
412.499	2.95
412.861	3.43
413.223	3.08
413.586	3.07
413.948	3.08
414.31	3.33
414.672	3.21
415.035	3.23
415.397	3.13
415.759	3.31
416.121	3.12
416.483	3.18
416.845	2.99
417.206	3.1
417.568	3.07
417.93	3.25
418.292	3.13
418.653	3.21
419.015	3.13
419.377	3.08
419.738	2.99
420.1	2.96
420.461	3.12
420.822	3.03
421.184	3.03
421.545	2.92
421.906	3.01
422.267	2.96
422.629	3.16
422.99	3.12
423.351	2.99
423.712	2.94
424.073	3.01
424.434	3.12
424.795	3.06
425.155	3.36
425.516	3.05
425.877	3.06
426.238	3.03
426.598	2.99
426.959	3.03
427.32	3.15
427.68	3.1
428.041	3.05
428.401	3.24
428.761	3.3
429.122	3.14
429.482	3.36
429.842	3.13
430.202	3.15
430.563	3.34
430.923	3.36
431.283	3.31
431.643	3.44
432.003	3.39
432.363	3.5
432.722	3.41
433.082	3.32
433.442	3.08
433.802	3.58
434.161	3.12
434.521	3.31
434.881	3.26
435.24	3.28
435.6	3.09
435.959	3.2
436.319	3.29
436.678	3.33
437.037	3.29
437.396	3.13
437.756	3.35
438.115	3.39
438.474	3.33
438.833	3.45
439.192	3.3
439.551	3.34
439.91	3.47
440.269	3.48
440.628	3.21
440.987	3.37
441.345	3.36
441.704	3.53
442.063	3.34
442.421	3.3
442.78	3.43
443.138	3.25
443.497	3.29
443.855	3.45
444.214	3.21
444.572	3.45
444.93	3.43
445.288	3.35
445.647	3.42
446.005	3.32
446.363	3.21
446.721	3.56
447.079	3.35
447.437	3.48
447.795	3.41
448.153	3.39
448.51	3.51
448.868	3.33
449.226	3.36
449.584	3.33
449.941	3.35
450.299	3.46
450.656	3.58
451.014	3.47
451.371	3.48
451.729	3.46
452.086	3.44
452.443	3.58
452.801	3.61
453.158	3.49
453.515	3.62
453.872	3.47
454.229	3.58
454.586	3.54
454.943	3.55
455.3	3.58
455.657	3.5
456.014	3.66
456.371	3.6
456.727	3.72
457.084	3.57
457.441	3.6
457.797	3.63
458.154	3.43
458.51	3.67
458.867	3.58
459.223	3.68
459.58	3.66
459.936	3.66
460.292	3.69
460.648	3.83
461.005	3.58
461.361	3.76
461.717	3.42
462.073	3.46
462.429	3.46
462.785	3.49
463.141	3.57
463.496	3.74
463.852	3.67
464.208	3.6
464.564	3.79
464.919	3.71
465.275	3.91
465.631	3.81
465.986	3.95
466.342	3.78
466.697	3.7
467.052	3.72
467.408	3.85
467.763	3.69
468.118	3.84
468.473	3.89
468.829	3.72
469.184	3.88
469.539	3.85
469.894	3.81
470.249	3.74
470.603	3.71
470.958	3.88
471.313	3.78
471.668	3.98
472.023	3.81
472.377	3.77
472.732	3.7
473.086	4.14
473.441	3.68
473.795	4.1
474.15	3.7
474.504	3.76
474.859	4.12
475.213	3.63
475.567	3.77
475.921	3.87
476.275	3.89
476.63	3.8
476.984	3.85
477.338	4.05
477.692	3.99
478.045	3.89
478.399	4.02
478.753	3.94
479.107	3.99
479.461	3.91
479.814	4.05
480.168	3.97
480.521	3.96
480.875	4.08
481.228	3.89
481.582	3.76
481.935	3.96
482.289	3.98
482.642	3.78
482.995	3.95
483.348	3.95
483.701	3.8
484.055	3.95
484.408	3.85
484.761	3.88
485.114	3.79
485.466	3.77
485.819	3.65
486.172	3.64
486.525	3.64
486.878	3.65
487.23	3.75
487.583	3.76
487.936	3.81
488.288	3.82
488.641	3.83
488.993	3.87
489.345	3.82
489.698	3.71
490.05	3.74
490.402	3.77
490.754	3.78
491.107	3.82
491.459	3.94
491.811	3.91
492.163	3.94
492.515	3.96
492.866	3.95
493.218	3.94
493.57	4
493.922	3.85
494.274	3.88
494.625	3.89
494.977	4.01
495.328	4.09
495.68	4.07
496.031	4.1
496.383	4.19
496.734	4.2
497.086	4.19
497.437	4.25
497.788	4.29
498.139	4.31
498.49	4.32
498.842	4.09
499.193	4.13
499.544	4.23
499.894	4.1
500.245	4.31
500.596	4.18
500.947	4.28
501.298	4.3
501.648	4.4
501.999	4.38
502.35	4.27
502.7	4.34
503.051	4.33
503.401	4.32
503.752	4.32
504.102	4.3
504.452	4.28
504.803	4.39
505.153	4.34
505.503	4.39
505.853	4.49
506.203	4.41
506.553	4.41
506.903	4.31
507.253	4.35
507.603	4.44
507.953	4.46
508.303	4.42
508.652	4.38
509.002	4.57
509.352	4.45
509.701	4.44
510.051	4.53
510.4	4.48
510.75	4.47
511.099	4.34
511.449	4.43
511.798	4.51
512.147	4.42
512.496	4.46
512.846	4.45
513.195	4.44
513.544	4.53
513.893	4.57
514.242	4.44
514.591	4.47
514.939	4.51
515.288	4.47
515.637	4.49
515.986	4.48
516.334	4.54
516.683	4.66
517.032	4.65
517.38	4.61
517.729	4.66
518.077	4.67
518.426	4.65
518.774	4.65
519.122	4.63
519.47	4.68
519.819	4.65
520.167	4.65
520.515	4.62
520.863	4.57
521.211	4.54
521.559	4.61
521.907	4.63
522.255	4.68
522.602	4.67
522.95	4.57
523.298	4.77
523.645	4.78
523.993	4.68
524.341	4.74
524.688	4.74
525.036	4.72
525.383	4.81
525.73	4.87
526.078	4.72
526.425	4.75
526.772	4.8
527.119	4.8
527.466	4.57
527.814	4.68
528.161	4.6
528.508	4.67
528.854	4.71
529.201	4.74
529.548	4.73
529.895	4.75
530.242	4.71
530.588	4.59
530.935	4.5
531.282	4.54
531.628	4.64
531.975	4.62
532.321	4.7
532.667	4.7
533.014	4.82
533.36	4.81
533.706	4.86
534.052	4.9
534.399	4.98
534.745	4.93
535.091	4.78
535.437	4.78
535.783	4.78
536.129	4.81
536.474	4.89
536.82	4.82
537.166	5.01
537.512	5.05
537.857	5.01
538.203	5.12
538.549	4.94
538.894	4.98
539.239	4.92
539.585	4.98
539.93	5.17
540.276	5.13
540.621	5.14
540.966	5.17
541.311	5.23
541.656	5.09
542.001	5.2
542.346	5.12
542.691	5.2
543.036	5.13
543.381	5.03
543.726	4.98
544.071	4.96
544.415	5.07
544.76	5.08
545.105	5.03
545.449	5.09
545.794	5.16
546.138	5.22
546.483	5.24
546.827	5.25
547.171	5.26
547.516	5.47
547.86	5.4
548.204	5.36
548.548	5.45
548.892	5.47
549.236	5.34
549.58	5.36
549.924	5.43
550.268	5.52
550.612	5.39
550.956	5.47
551.3	5.54
551.643	5.59
551.987	5.62
552.33	5.8
552.674	5.68
553.017	5.61
553.361	5.64
553.704	5.7
554.048	5.79
554.391	5.59
554.734	5.6
555.077	5.59
555.42	5.62
555.764	5.68
556.107	5.78
556.45	5.79
556.793	5.75
557.135	5.78
557.478	5.63
557.821	5.93
558.164	5.92
558.507	6.11
558.849	6
559.192	6.11
559.534	6.19
559.877	6.08
560.219	5.87
560.562	6.05
560.904	6.01
561.246	6.1
561.589	6.05
561.931	5.91
562.273	5.96
562.615	6.07
562.957	6
563.299	6.19
563.641	6.14
563.983	6.09
564.325	6.18
564.667	6.14
565.008	6.1
565.35	6.4
565.692	6.23
566.033	6.06
566.375	6.15
566.716	6.14
567.058	6.33
567.399	6.32
567.741	6.29
568.082	5.97
568.423	6.3
568.764	6.33
569.105	6.13
569.447	6.17
569.788	6.16
570.129	6.45
570.47	6.34
570.811	6.53
571.151	6.32
571.492	6.23
571.833	6.22
572.174	6.34
572.514	6.47
572.855	6.42
573.195	6.17
573.536	6.44
573.876	6.46
574.217	6.6
574.557	6.23
574.898	6.56
575.238	6.32
575.578	6.49
575.918	6.48
576.258	6.47
576.598	6.64
576.938	6.6
577.278	6.73
577.618	6.47
577.958	6.63
578.298	6.65
578.638	6.54
578.977	6.67
579.317	6.75
579.657	6.63
579.996	6.9
580.336	6.57
580.675	6.56
581.014	6.88
581.354	6.58
581.693	6.85
582.032	6.92
582.372	6.88
582.711	6.97
583.05	6.9
583.389	7.1
583.728	6.92
584.067	7.02
584.406	7.05
584.745	6.88
585.083	7.08
585.422	7.31
585.761	7.16
586.1	6.96
586.438	7.11
586.777	7.29
587.115	7.28
587.454	7.27
587.792	7.5
588.13	7.43
588.469	7.31
588.807	7.29
589.145	7.26
589.483	7.22
589.821	7.16
590.159	7.23
590.497	7.28
590.835	7.56
591.173	7.29
591.511	7.25
591.849	7.67
592.187	7.28
592.524	7.33
592.862	7.4
593.2	7.19
593.537	7.37
593.875	7.45
594.212	7.53
594.55	7.56
594.887	7.45
595.224	7.51
595.561	7.62
595.899	7.67
596.236	7.81
596.573	7.83
596.91	7.67
597.247	7.41
597.584	7.82
597.921	7.82
598.258	7.56
598.594	7.68
598.931	7.59
599.268	7.62
599.604	7.65
599.941	7.62
600.277	7.62
600.614	7.72
600.95	7.72
601.287	7.72
601.623	7.87
601.959	7.92
602.296	7.95
602.632	7.88
602.968	7.97
603.304	7.86
603.64	8.05
603.976	8.08
604.312	7.97
604.648	8.04
604.984	7.85
605.319	7.92
605.655	7.82
605.991	7.93
606.326	8.1
606.662	7.95
606.998	7.88
607.333	8.02
607.668	7.95
608.004	8.15
608.339	8.01
608.674	8.01
609.01	8.22
609.345	8.15
609.68	8.33
610.015	7.99
610.35	8.31
610.685	8.38
611.02	8.27
611.355	8.67
611.689	8.05
612.024	8.27
612.359	8.08
612.694	8.18
613.028	8.3
613.363	8.21
613.697	8.38
614.032	8.38
614.366	8.55
614.7	8.51
615.035	8.4
615.369	8.24
615.703	8.29
616.037	8.59
616.371	9.05
616.705	8.73
617.039	8.51
617.373	8.58
617.707	8.67
618.041	8.71
618.375	8.69
618.709	8.72
619.042	8.64
619.376	8.98
619.71	8.9
620.043	8.56
620.377	8.6
620.71	8.72
621.043	9.01
621.377	8.85
621.71	8.74
622.043	8.96
622.376	9.11
622.709	8.98
623.043	9.03
623.376	9.24
623.709	9.28
624.041	8.61
624.374	9.03
624.707	9.43
625.04	8.85
625.373	9.05
625.705	8.84
626.038	9.11
626.37	9.42
626.703	9.12
627.035	9.18
627.368	9.32
627.7	9.07
628.032	9.52
628.365	9.34
628.697	8.87
629.029	9.08
629.361	9
629.693	9.23
630.025	9.24
630.357	9.21
630.689	9.34
631.021	8.87
631.353	9.23
631.684	9.45
632.016	9.56
632.348	9.49
632.679	8.93
633.011	9.61
633.342	9.93
633.674	9.82
634.005	9.28
634.336	9.75
634.668	9.87
634.999	9.83
635.33	9.77
635.661	9.64
635.992	9.82
636.323	9.38
636.654	9.53
636.985	9.51
637.316	9.72
637.647	9.78
637.977	9.36
638.308	10.16
638.639	9.59
638.969	10.2
639.3	9.89
639.63	10.02
639.961	9.6
640.291	9.86
640.622	9.59
640.952	10.13
641.282	10.16
641.612	9.77
641.943	10.4
642.273	10.08
642.603	10.29
642.933	9.89
643.263	9.67
643.592	10.06
643.922	10.1
644.252	9.68
644.582	10.58
644.911	10.11
645.241	10.27
645.571	9.89
645.9	10.08
646.23	10.21
646.559	10.53
646.888	10.44
647.218	10.09
647.547	10.05
647.876	10.49
648.205	10.32
648.534	11.03
648.863	10.81
649.192	10.02
649.521	10.48
649.85	10.58
650.179	10.73
650.508	10.45
650.837	10.83
651.165	10.83
651.494	10.27
651.822	10.47
652.151	10.48
652.479	10.66
652.808	10.66
653.136	11.34
653.465	10.89
653.793	10.67
654.121	10.76
654.449	10.35
654.777	10.52
655.105	10.54
655.433	10.8
655.761	11.11
656.089	10.91
656.417	10.71
656.745	10.78
657.073	10.72
657.4	11.38
657.728	10.97
658.056	10.61
658.383	11.48
658.711	11
659.038	10.74
659.365	10.97
659.693	10.74
660.02	11.56
660.347	11.38
660.674	11.1
661.001	10.48
661.329	10.85
661.656	10.93
661.982	10.84
662.309	11.02
662.636	10.86
662.963	10.99
663.29	11.29
663.616	11.11
663.943	11.41
664.27	11.25
664.596	11.47
664.923	10.9
665.249	11.71
665.576	10.9
665.902	11.11
666.228	11.18
666.554	11.35
666.881	11.61
667.207	11.28
667.533	11.04
667.859	11.28
668.185	11.62
668.511	11.65
668.837	11.62
669.162	11.99
669.488	11.63
669.814	12.14
670.139	11.55
670.465	12
670.791	11.49
671.116	11.81
671.442	11.82
671.767	10.85
672.092	12.26
672.418	12.63
672.743	11.64
673.068	11.62
673.393	11.38
673.718	12.04
674.043	11.8
674.368	11.8
674.693	12.24
675.018	11.65
675.343	11.99
675.667	11.78
675.992	11.92
676.317	12.22
676.641	12.39
676.966	12.48
677.29	11.55
677.615	12.22
677.939	12.41
678.264	12.14
678.588	12.55
678.912	11.78
679.236	11.96
679.56	12.23
679.885	12.1
680.209	12.37
680.532	12.12
680.856	12.18
681.18	12.92
681.504	12.42
681.828	12.84
682.152	11.92
682.475	12.46
682.799	12.4
683.122	11.9
683.446	12.23
683.769	12.32
684.093	12.21
684.416	11.92
684.739	12.64
685.062	12.88
685.386	12.59
685.709	12.68
686.032	12.66
686.355	12.44
686.678	13.14
687.001	12.83
687.324	13.5
687.646	12.55
687.969	13.07
688.292	12.53
688.614	13.25
688.937	12.73
689.26	11.52
689.582	13.01
