Data from 0157_crown_Reflection__3__59.txt Node

Date: Fri Sep 22 20:47:26 CDT 2023
User: ToomeyLab
Spectrometer: FLMS14357
Trigger mode: 0
Integration Time (sec): 1.000000E-2
Scans to average: 100
Electric dark correction enabled: true
Nonlinearity correction enabled: false
Boxcar width: 0
XAxis mode: Wavelengths
Number of Pixels in Spectrum: 2048
>>>>>Begin Spectral Data<<<<<
189.047	113.63
189.435	113.63
189.823	113.63
190.211	181.97
190.599	-126.21
190.987	118.86
191.375	392.95
191.763	282.73
192.151	427.3
192.538	-90.17
192.926	20.16
193.314	-5537.5
193.702	143.28
194.089	38.54
194.477	-61.74
194.864	35.54
195.252	-64.4
195.639	55.81
196.027	223.05
196.414	13.78
196.801	-166.1
197.189	433.75
197.576	388.62
197.963	8.64
198.351	40.5
198.738	3.1
199.125	27.88
199.512	112.82
199.899	64.1
200.286	5.68
200.673	32.8
201.06	29.45
201.447	44.83
201.833	3.36
202.22	25.45
202.607	79.02
202.994	40.43
203.38	6.05
203.767	-7.82
204.154	10.53
204.54	19.73
204.927	18.31
205.313	32.21
205.699	38.65
206.086	70.45
206.472	59.14
206.858	18.2
207.245	23.81
207.631	32.76
208.017	25.5
208.403	25.32
208.789	67.3
209.175	54.71
209.561	33.85
209.947	19.3
210.333	5.22
210.719	16.42
211.105	29.94
211.491	40.23
211.876	43.61
212.262	35.88
212.648	36.06
213.034	56.13
213.419	3.13
213.805	25.58
214.19	9.42
214.576	19.68
214.961	38.82
215.346	-0.65
215.732	41.88
216.117	24.19
216.502	35.65
216.888	28.37
217.273	44.9
217.658	10.44
218.043	7.14
218.428	14.34
218.813	4.46
219.198	27.62
219.583	36.15
219.968	9.7
220.353	27.38
220.738	5.33
221.122	25.61
221.507	9.27
221.892	3.38
222.276	11.83
222.661	-14.05
223.046	12.77
223.43	19.34
223.815	6.56
224.199	6.33
224.583	12.39
224.968	16.36
225.352	-6.42
225.736	18.72
226.121	7.55
226.505	7.41
226.889	10.03
227.273	5.83
227.657	2.48
228.041	4.19
228.425	6.37
228.809	1.84
229.193	5.66
229.577	6.55
229.961	3.97
230.344	5.04
230.728	2.42
231.112	3.28
231.495	2.41
231.879	3.38
232.263	1.99
232.646	1.82
233.03	3.8
233.413	4.21
233.797	2.23
234.18	1.7
234.563	7.61
234.946	5.27
235.33	0.95
235.713	2.17
236.096	3.61
236.479	3.71
236.862	6.26
237.245	3.01
237.628	3.43
238.011	4.64
238.394	2.74
238.777	6.31
239.16	4.58
239.543	5.75
239.925	4.89
240.308	3.26
240.691	4.25
241.073	4.78
241.456	3.96
241.838	2.11
242.221	2.19
242.603	4.38
242.986	3.62
243.368	2.58
243.75	3.98
244.133	3.43
244.515	3.24
244.897	2.94
245.279	3.19
245.661	3.14
246.043	4.19
246.425	3.81
246.807	4.25
247.189	2.5
247.571	4.04
247.953	4.03
248.335	3.36
248.717	3.61
249.098	3.26
249.48	3.09
249.862	3.08
250.243	3.31
250.625	3.48
251.006	3.07
251.388	2.88
251.769	3.38
252.151	2.73
252.532	2.95
252.913	3.5
253.295	5
253.676	3.09
254.057	3.61
254.438	3.63
254.819	2.62
255.2	3.26
255.581	2.91
255.962	3.52
256.343	3.88
256.724	3.25
257.105	5.18
257.486	2.73
257.867	3.4
258.247	3.67
258.628	4.01
259.009	3.13
259.389	3.43
259.77	3.91
260.15	3.3
260.531	3.4
260.911	3.34
261.292	2.73
261.672	2.51
262.052	2.78
262.432	3.01
262.813	3.13
263.193	2.83
263.573	3.53
263.953	3.15
264.333	3.32
264.713	2.96
265.093	2.8
265.473	3.14
265.853	2.67
266.233	4
266.612	3.24
266.992	3.29
267.372	3.64
267.752	3.36
268.131	2.77
268.511	3.21
268.89	2.9
269.27	2.73
269.649	3.02
270.029	3.1
270.408	3.16
270.787	2.8
271.167	3.03
271.546	2.39
271.925	2.96
272.304	2.23
272.683	2.65
273.062	3.14
273.441	2.9
273.82	3.36
274.199	2.85
274.578	3.3
274.957	2.96
275.336	2.29
275.715	3.08
276.093	2.6
276.472	2.69
276.851	2.64
277.229	2.26
277.608	3.11
277.986	2.34
278.365	2.87
278.743	3.2
279.122	2.88
279.5	2.51
279.878	2.75
280.257	3.24
280.635	2.54
281.013	3.2
281.391	2.55
281.769	3.25
282.147	3.07
282.525	2.81
282.903	2.66
283.281	2.82
283.659	3
284.037	2.4
284.415	3.22
284.792	2.64
285.17	2.9
285.548	3.07
285.925	2.71
286.303	2.53
286.68	2.81
287.058	2.51
287.435	2.34
287.813	2.68
288.19	2.16
288.567	2.89
288.945	2.56
289.322	2.89
289.699	2.89
290.076	2.99
290.453	2.84
290.83	2.79
291.207	3.2
291.584	2.04
291.961	2.65
292.338	2.74
292.715	2.82
293.092	2.73
293.469	2.9
293.845	2.77
294.222	2.89
294.599	3.51
294.975	2.74
295.352	3.49
295.728	2.91
296.105	3.12
296.481	2.9
296.858	3.24
297.234	3.18
297.61	2.9
297.986	2.95
298.363	3.28
298.739	2.88
299.115	3.04
299.491	3.11
299.867	3.24
300.243	3
300.619	2.99
300.995	2.98
301.371	3.53
301.746	3.04
302.122	3.19
302.498	2.97
302.874	2.73
303.249	3.76
303.625	2.55
304	3.63
304.376	3.16
304.751	2.99
305.127	3.05
305.502	3.89
305.878	3.05
306.253	3.38
306.628	3.26
307.003	3.11
307.378	2.69
307.754	2.96
308.129	2.87
308.504	3.29
308.879	3.24
309.254	3.41
309.629	3.5
310.003	4.08
310.378	3.66
310.753	3.44
311.128	3.91
311.502	3.58
311.877	3.05
312.252	3.42
312.626	3.38
313.001	3.4
313.375	3.45
313.75	3.53
314.124	3.51
314.498	2.92
314.873	3.45
315.247	3.93
315.621	3.61
315.995	3.86
316.369	3.12
316.743	3.2
317.117	3.4
317.491	3.29
317.865	3.11
318.239	3.37
318.613	2.89
318.987	3.55
319.361	2.9
319.734	3.37
320.108	3.77
320.482	2.91
320.855	3.87
321.229	3.87
321.602	3.76
321.976	3.63
322.349	3.8
322.723	3.46
323.096	3.39
323.469	3.52
323.843	3.61
324.216	3.49
324.589	3.45
324.962	3.13
325.335	3.46
325.708	3.49
326.081	3.74
326.454	3.18
326.827	3.4
327.2	3.28
327.573	3.67
327.945	3.61
328.318	3.68
328.691	3.62
329.063	3.16
329.436	3.54
329.809	3.27
330.181	3.9
330.553	3.59
330.926	3.38
331.298	3.6
331.671	3.65
332.043	2.84
332.415	2.7
332.787	3.35
333.159	3.27
333.532	2.73
333.904	3.26
334.276	2.98
334.648	2.78
335.02	3.52
335.391	3.32
335.763	3.28
336.135	3
336.507	3.77
336.879	3.39
337.25	3.43
337.622	3.67
337.993	3.34
338.365	3.61
338.736	3.37
339.108	3.52
339.479	3.1
339.851	3.24
340.222	3.02
340.593	3.05
340.964	2.92
341.336	3.29
341.707	3.15
342.078	3.56
342.449	3.34
342.82	3.38
343.191	2.84
343.562	3.41
343.933	3.33
344.303	3.56
344.674	3.6
345.045	3.72
345.416	3.39
345.786	2.83
346.157	3.7
346.527	3.31
346.898	3.13
347.268	3.35
347.639	2.83
348.009	3.19
348.38	3.6
348.75	3.42
349.12	3.38
349.49	3.37
349.861	3.28
350.231	3.24
350.601	3.8
350.971	3.66
351.341	2.96
351.711	3.21
352.081	3.47
352.45	3.2
352.82	3.74
353.19	3.33
353.56	3.19
353.929	3.47
354.299	3.31
354.669	3.19
355.038	2.91
355.408	3.28
355.777	3.72
356.147	3.23
356.516	3.68
356.885	3.4
357.254	3.56
357.624	2.95
357.993	3.04
358.362	3.39
358.731	3.26
359.1	3.14
359.469	3.22
359.838	2.74
360.207	3.14
360.576	3.47
360.945	3.27
361.314	3.36
361.682	3.38
362.051	3.53
362.42	3.29
362.788	3.36
363.157	3.24
363.525	3.05
363.894	3.19
364.262	2.88
364.631	3.17
364.999	3.09
365.367	3.14
365.735	3.05
366.104	2.95
366.472	3.47
366.84	3.17
367.208	3.41
367.576	3.24
367.944	3.22
368.312	3.49
368.68	3.02
369.048	3.07
369.416	3.29
369.783	2.98
370.151	3.16
370.519	3.07
370.886	3.44
371.254	3.6
371.621	3.07
371.989	3.18
372.356	3.11
372.724	3.39
373.091	3.38
373.458	3.28
373.826	3.45
374.193	3.46
374.56	3.43
374.927	3.66
375.294	2.98
375.661	2.9
376.028	3.24
376.395	3.37
376.762	3.14
377.129	3.41
377.496	3.34
377.863	3.34
378.229	3.27
378.596	3.26
378.963	3.6
379.329	3.22
379.696	3.29
380.062	3.16
380.429	3.37
380.795	3.24
381.161	3.05
381.528	3.35
381.894	2.9
382.26	3.46
382.626	3.25
382.993	3.34
383.359	3.05
383.725	3.22
384.091	3.24
384.457	3.18
384.823	3.23
385.188	3.42
385.554	3.28
385.92	3.59
386.286	3.4
386.651	3.29
387.017	3.5
387.383	3.13
387.748	2.99
388.114	3.25
388.479	3.54
388.845	3.11
389.21	3.32
389.575	3.29
389.94	2.85
390.306	3.31
390.671	3.51
391.036	2.92
391.401	3.26
391.766	3.06
392.131	3.37
392.496	3.24
392.861	2.92
393.226	3.36
393.591	3.38
393.956	3.08
394.32	3.24
394.685	3.08
395.05	3.64
395.414	3.42
395.779	3.31
396.143	3.34
396.508	3.26
396.872	3.27
397.236	3.49
397.601	3.18
397.965	3.09
398.329	3.42
398.694	3.37
399.058	3.32
399.422	3.04
399.786	3.23
400.15	3.36
400.514	3.45
400.878	3.28
401.242	3.4
401.605	3.37
401.969	2.96
402.333	3.09
402.697	3.04
403.06	3.21
403.424	3.33
403.787	3.35
404.151	3.5
404.514	3.33
404.878	3.35
405.241	3.47
405.604	3.74
405.968	3.5
406.331	3.36
406.694	3.47
407.057	3.23
407.42	3.33
407.783	3.31
408.146	3.41
408.509	3.23
408.872	3.2
409.235	3.21
409.598	3.26
409.961	3.39
410.323	3.47
410.686	3.42
411.049	3.54
411.411	3.47
411.774	3.27
412.136	3.23
412.499	3.34
412.861	3.5
413.223	3.41
413.586	3.39
413.948	3.5
414.31	3.42
414.672	3.56
415.035	3.23
415.397	3.45
415.759	3.55
416.121	3.39
416.483	3.18
416.845	3.07
417.206	3.23
417.568	3.33
417.93	3.15
418.292	3.39
418.653	3.15
419.015	3.38
419.377	3.28
419.738	3.43
420.1	3.04
420.461	3.19
420.822	3.29
421.184	3.25
421.545	3.25
421.906	3.1
422.267	3.23
422.629	3.28
422.99	3.23
423.351	3.14
423.712	3.23
424.073	3.2
424.434	3.32
424.795	3.22
425.155	3.24
425.516	3.19
425.877	3.25
426.238	3.16
426.598	3.21
426.959	3.23
427.32	3.26
427.68	3.09
428.041	3.2
428.401	3.41
428.761	3.36
429.122	3.42
429.482	3.29
429.842	3.22
430.202	3.34
430.563	3.42
430.923	3.39
431.283	3.35
431.643	3.39
432.003	3.4
432.363	3.52
432.722	3.51
433.082	3.54
433.442	3.51
433.802	3.49
434.161	3.24
434.521	3.46
434.881	3.28
435.24	3.27
435.6	3.26
435.959	3.18
436.319	3.37
436.678	3.54
437.037	3.34
437.396	3.21
437.756	3.41
438.115	3.39
438.474	3.41
438.833	3.54
439.192	3.27
439.551	3.31
439.91	3.61
440.269	3.56
440.628	3.19
440.987	3.36
441.345	3.48
441.704	3.39
442.063	3.3
442.421	3.28
442.78	3.31
443.138	3.32
443.497	3.34
443.855	3.44
444.214	3.2
444.572	3.46
444.93	3.47
445.288	3.35
445.647	3.44
446.005	3.26
446.363	3.26
446.721	3.29
447.079	3.2
447.437	3.35
447.795	3.47
448.153	3.24
448.51	3.35
448.868	3.31
449.226	3.41
449.584	3.41
449.941	3.26
450.299	3.42
450.656	3.39
451.014	3.43
451.371	3.44
451.729	3.28
452.086	3.34
452.443	3.47
452.801	3.41
453.158	3.37
453.515	3.55
453.872	3.38
454.229	3.51
454.586	3.51
454.943	3.37
455.3	3.35
455.657	3.45
456.014	3.46
456.371	3.51
456.727	3.56
457.084	3.36
457.441	3.34
457.797	3.58
458.154	3.49
458.51	3.34
458.867	3.54
459.223	3.33
459.58	3.56
459.936	3.56
460.292	3.48
460.648	3.56
461.005	3.32
461.361	3.51
461.717	3.26
462.073	3.35
462.429	3.33
462.785	3.3
463.141	3.39
463.496	3.52
463.852	3.43
464.208	3.42
464.564	3.59
464.919	3.43
465.275	3.5
465.631	3.54
465.986	3.61
466.342	3.6
466.697	3.65
467.052	3.53
467.408	3.61
467.763	3.49
468.118	3.66
468.473	3.5
468.829	3.57
469.184	3.5
469.539	3.45
469.894	3.42
470.249	3.51
470.603	3.49
470.958	3.59
471.313	3.52
471.668	3.43
472.023	3.58
472.377	3.67
472.732	3.61
473.086	3.66
473.441	3.4
473.795	3.72
474.15	3.4
474.504	3.48
474.859	3.71
475.213	3.36
475.567	3.39
475.921	3.56
476.275	3.43
476.63	3.42
476.984	3.4
477.338	3.61
477.692	3.52
478.045	3.72
478.399	3.73
478.753	3.46
479.107	3.6
479.461	3.4
479.814	3.62
480.168	3.49
480.521	3.68
480.875	3.67
481.228	3.54
481.582	3.42
481.935	3.56
482.289	3.55
482.642	3.47
482.995	3.55
483.348	3.45
483.701	3.55
484.055	3.53
484.408	3.5
484.761	3.54
485.114	3.43
485.466	3.4
485.819	3.31
486.172	3.28
486.525	3.3
486.878	3.31
487.23	3.34
487.583	3.4
487.936	3.45
488.288	3.5
488.641	3.46
488.993	3.4
489.345	3.43
489.698	3.34
490.05	3.4
490.402	3.39
490.754	3.38
491.107	3.42
491.459	3.48
491.811	3.5
492.163	3.49
492.515	3.53
492.866	3.53
493.218	3.58
493.57	3.55
493.922	3.4
494.274	3.44
494.625	3.45
494.977	3.53
495.328	3.63
495.68	3.5
496.031	3.62
496.383	3.62
496.734	3.53
497.086	3.55
497.437	3.64
497.788	3.54
498.139	3.76
498.49	3.77
498.842	3.56
499.193	3.64
499.544	3.68
499.894	3.53
500.245	3.67
500.596	3.72
500.947	3.65
501.298	3.69
501.648	3.64
501.999	3.74
502.35	3.68
502.7	3.82
503.051	3.76
503.401	3.65
503.752	3.76
504.102	3.66
504.452	3.61
504.803	3.74
505.153	3.77
505.503	3.73
505.853	3.89
506.203	3.73
506.553	3.75
506.903	3.79
507.253	3.68
507.603	3.68
507.953	3.63
508.303	3.81
508.652	3.65
509.002	3.74
509.352	3.69
509.701	3.68
510.051	3.79
510.4	3.8
510.75	3.7
511.099	3.57
511.449	3.77
511.798	3.73
512.147	3.79
512.496	3.72
512.846	3.68
513.195	3.67
513.544	3.77
513.893	3.84
514.242	3.65
514.591	3.66
514.939	3.87
515.288	3.67
515.637	3.76
515.986	3.7
516.334	3.9
516.683	3.75
517.032	3.96
517.38	3.79
517.729	3.74
518.077	3.85
518.426	3.79
518.774	3.87
519.122	3.76
519.47	3.63
519.819	3.82
520.167	3.79
520.515	3.8
520.863	3.69
521.211	3.74
521.559	3.76
521.907	3.76
522.255	3.73
522.602	3.76
522.95	3.82
523.298	3.92
523.645	3.88
523.993	3.85
524.341	3.86
524.688	3.83
525.036	3.83
525.383	3.73
525.73	4
526.078	3.86
526.425	3.77
526.772	3.86
527.119	3.85
527.466	3.77
527.814	3.75
528.161	3.73
528.508	3.78
528.854	3.77
529.201	3.87
529.548	3.78
529.895	3.76
530.242	3.79
530.588	3.68
530.935	3.61
531.282	3.67
531.628	3.71
531.975	3.67
532.321	3.68
532.667	3.79
533.014	3.91
533.36	3.82
533.706	3.82
534.052	3.93
534.399	3.91
534.745	3.77
535.091	3.71
535.437	3.78
535.783	3.67
536.129	3.73
536.474	3.84
536.82	3.79
537.166	3.9
537.512	3.95
537.857	4
538.203	3.99
538.549	3.91
538.894	3.81
539.239	3.85
539.585	3.83
539.93	4.02
540.276	3.91
540.621	3.9
540.966	3.91
541.311	4.02
541.656	3.86
542.001	3.94
542.346	3.95
542.691	4.05
543.036	3.95
543.381	3.88
543.726	3.81
544.071	3.81
544.415	3.8
544.76	3.73
545.105	3.78
545.449	3.82
545.794	3.92
546.138	3.94
546.483	3.91
546.827	3.93
547.171	3.96
547.516	3.96
547.86	4.05
548.204	3.97
548.548	4.04
548.892	4.02
549.236	3.88
549.58	3.93
549.924	4.01
550.268	4.09
550.612	4.04
550.956	4.06
551.3	4.04
551.643	4.01
551.987	4.03
552.33	4.24
552.674	4.09
553.017	4.03
553.361	4.06
553.704	4.22
554.048	4.15
554.391	4.2
554.734	4.18
555.077	4.17
555.42	4.22
555.764	4.18
556.107	4.04
556.45	4.01
556.793	4.07
557.135	4.16
557.478	4.13
557.821	4.08
558.164	4.06
558.507	4.18
558.849	4.15
559.192	4.37
559.534	4.43
559.877	4.26
560.219	4.14
560.562	4.43
560.904	4.29
561.246	4.43
561.589	4.28
561.931	4.3
562.273	4.11
562.615	4.21
562.957	4.18
563.299	4.24
563.641	4.19
563.983	4.25
564.325	4.23
564.667	4.18
565.008	4.42
565.35	4.37
565.692	4.42
566.033	4.36
566.375	4.22
566.716	4.32
567.058	4.25
567.399	4.36
567.741	4.35
568.082	4.11
568.423	4.32
568.764	4.38
569.105	4.17
569.447	4.36
569.788	4.21
570.129	4.32
570.47	4.28
570.811	4.29
571.151	4.33
571.492	4.29
571.833	4.12
572.174	4.31
572.514	4.32
572.855	4.28
573.195	4.3
573.536	4.39
573.876	4.36
574.217	4.3
574.557	4.2
574.898	4.34
575.238	4.24
575.578	4.47
575.918	4.38
576.258	4.27
576.598	4.4
576.938	4.37
577.278	4.25
577.618	4.18
577.958	4.45
578.298	4.39
578.638	4.37
578.977	4.45
579.317	4.47
579.657	4.43
579.996	4.55
580.336	4.46
580.675	4.39
581.014	4.28
581.354	4.38
581.693	4.61
582.032	4.4
582.372	4.57
582.711	4.35
583.05	4.25
583.389	4.2
583.728	4.46
584.067	4.31
584.406	4.58
584.745	4.33
585.083	4.59
585.422	4.71
585.761	4.41
586.1	4.75
586.438	4.33
586.777	4.46
587.115	4.43
587.454	4.2
587.792	4.6
588.13	4.38
588.469	4.69
588.807	4.63
589.145	4.47
589.483	4.5
589.821	4.55
590.159	4.59
590.497	4.79
590.835	4.6
591.173	4.48
591.511	4.65
591.849	4.52
592.187	4.58
592.524	4.77
592.862	4.68
593.2	4.59
593.537	4.37
593.875	4.44
594.212	4.54
594.55	4.79
594.887	4.54
595.224	4.51
595.561	4.69
595.899	4.69
596.236	4.78
596.573	4.82
596.91	4.68
597.247	4.43
597.584	4.66
597.921	4.85
598.258	4.84
598.594	4.6
598.931	4.52
599.268	4.62
599.604	4.6
599.941	4.65
600.277	4.35
600.614	4.62
600.95	4.68
601.287	4.49
601.623	4.91
601.959	4.76
602.296	4.65
602.632	4.55
602.968	4.78
603.304	4.7
603.64	4.87
603.976	4.62
604.312	4.79
604.648	4.58
604.984	4.77
605.319	4.89
605.655	4.7
605.991	4.76
606.326	4.81
606.662	4.65
606.998	4.64
607.333	4.84
607.668	4.58
608.004	4.77
608.339	4.71
608.674	4.72
609.01	4.79
609.345	4.74
609.68	4.96
610.015	4.68
610.35	4.98
610.685	4.98
611.02	4.61
611.355	4.99
611.689	4.9
612.024	4.83
612.359	4.63
612.694	4.82
613.028	4.89
613.363	4.71
613.697	4.9
614.032	4.67
614.366	4.86
614.7	4.86
615.035	4.79
615.369	4.75
615.703	4.76
616.037	4.74
616.371	5.29
616.705	5.22
617.039	4.9
617.373	4.86
617.707	4.52
618.041	4.94
618.375	4.91
618.709	4.82
619.042	4.94
619.376	5.1
619.71	4.81
620.043	4.71
620.377	4.66
620.71	4.97
621.043	4.88
621.377	4.65
621.71	5.08
622.043	4.9
622.376	5.28
622.709	4.88
623.043	4.88
623.376	4.94
623.709	5.3
624.041	5.24
624.374	5.11
624.707	5.23
625.04	5.14
625.373	4.74
625.705	4.84
626.038	4.82
626.37	5.34
626.703	5.09
627.035	4.94
627.368	5.17
627.7	5.23
628.032	5.43
628.365	5.33
628.697	5.1
629.029	5.04
629.361	5.21
629.693	5.23
630.025	5.15
630.357	5.19
630.689	5.09
631.021	4.96
631.353	4.97
631.684	5.1
632.016	5.24
632.348	4.96
632.679	4.84
633.011	5.01
633.342	5.08
633.674	5.35
634.005	5
634.336	5.03
634.668	5.34
634.999	5.27
635.33	5.27
635.661	4.92
635.992	5.42
636.323	5.15
636.654	5.05
636.985	4.93
637.316	4.9
637.647	5.2
637.977	4.78
638.308	5.27
638.639	5.17
638.969	5.44
639.3	5.1
639.63	5.53
639.961	5.25
640.291	5.37
640.622	5.54
640.952	5.08
641.282	5.3
641.612	5.27
641.943	5.36
642.273	5.43
642.603	5.13
642.933	4.57
643.263	4.37
643.592	5.39
643.922	5.5
644.252	5.11
644.582	5.74
644.911	4.91
645.241	5.96
645.571	5.08
645.9	5.51
646.23	5.47
646.559	5.45
646.888	5.4
647.218	5.71
647.547	5.31
647.876	5.45
648.205	5.19
648.534	5.71
648.863	5.6
649.192	4.71
649.521	5.49
649.85	5.5
650.179	5.07
650.508	4.91
650.837	5.77
651.165	5.44
651.494	5.21
651.822	4.88
652.151	5.01
652.479	5.46
652.808	5.2
653.136	5.78
653.465	5.46
653.793	5.61
654.121	5.63
654.449	5.01
654.777	5.76
655.105	5.54
655.433	5.68
655.761	5.97
656.089	5.32
656.417	5.25
656.745	5.82
657.073	5.61
657.4	6.29
657.728	6.16
658.056	5.76
658.383	5.89
658.711	5.47
659.038	5.29
659.365	5.67
659.693	5.3
660.02	5.5
660.347	5.9
660.674	5.3
661.001	5.33
661.329	5.29
661.656	5.66
661.982	5.4
662.309	5.91
662.636	5.65
662.963	5.57
663.29	5.79
663.616	5.68
663.943	5.96
664.27	6.17
664.596	6
664.923	5.38
665.249	6.22
665.576	5.27
665.902	5.5
666.228	6.25
666.554	5.55
666.881	6.34
667.207	5.45
667.533	5.07
667.859	5.9
668.185	6.35
668.511	6.49
668.837	5.33
669.162	6.13
669.488	5.49
669.814	5.83
670.139	5.37
670.465	6.2
670.791	5.64
671.116	5.65
671.442	6.48
671.767	5.28
672.092	6.41
672.418	7.01
672.743	5.82
673.068	5.97
673.393	5.45
673.718	6.13
674.043	6.63
674.368	5.88
674.693	5.73
675.018	5.74
675.343	5.89
675.667	6.24
675.992	5.56
676.317	6.6
676.641	5.89
676.966	6.19
677.29	5.82
677.615	5.97
677.939	6.42
678.264	6.08
678.588	6.39
678.912	6.17
679.236	6.01
679.56	6.21
679.885	5.81
680.209	6.37
680.532	5.54
680.856	5.71
681.18	5.84
681.504	5.85
681.828	6.03
682.152	5.7
682.475	6.84
682.799	6.21
683.122	5.95
683.446	5.87
683.769	6.04
684.093	6.49
684.416	6.07
684.739	6.19
685.062	6.95
685.386	6.04
685.709	5.89
686.032	5.74
686.355	5.89
686.678	6.67
687.001	6.3
687.324	6.53
687.646	6.33
687.969	6.6
688.292	5.98
688.614	6.73
688.937	6.22
689.26	6.29
689.582	6.28
689.904	6.34
690.227	6.43
690.549	6.61
690.871	6.63
691.194	6.5
691.516	6.76
691.838	6.04
692.16	6.25
692.482	6.33
692.804	6.14
693.126	5.43
