Data from 0157_crown_Reflection__1__57.txt Node

Date: Fri Sep 22 20:46:58 CDT 2023
User: ToomeyLab
Spectrometer: FLMS14357
Trigger mode: 0
Integration Time (sec): 1.000000E-2
Scans to average: 100
Electric dark correction enabled: true
Nonlinearity correction enabled: false
Boxcar width: 0
XAxis mode: Wavelengths
Number of Pixels in Spectrum: 2048
>>>>>Begin Spectral Data<<<<<
189.047	93.72
189.435	93.72
189.823	93.72
190.211	7.86
190.599	19.25
190.987	14.87
191.375	510.42
191.763	35.12
192.151	163.08
192.538	-77.89
192.926	-22.16
193.314	5653.12
193.702	27.22
194.089	105.1
194.477	51.97
194.864	194.18
195.252	158.54
195.639	87.72
196.027	199.92
196.414	-15.53
196.801	-227.32
197.189	421.77
197.576	623.27
197.963	-136.93
198.351	25.86
198.738	55.67
199.125	9.13
199.512	60.2
199.899	45.44
200.286	56.89
200.673	13.3
201.06	15.04
201.447	25.28
201.833	-35.45
202.22	21.5
202.607	63.26
202.994	40.32
203.38	21.75
203.767	14.95
204.154	59.41
204.54	19.11
204.927	10.83
205.313	55.46
205.699	52
206.086	26.98
206.472	32.13
206.858	13.38
207.245	56.43
207.631	34.36
208.017	12.97
208.403	1.3
208.789	16.64
209.175	66.98
209.561	26.65
209.947	54.69
210.333	29.9
210.719	28.07
211.105	35.01
211.491	28.34
211.876	41.22
212.262	22.02
212.648	13.25
213.034	21.86
213.419	22.54
213.805	28.23
214.19	26.35
214.576	50.86
214.961	30.46
215.346	19.03
215.732	33.69
216.117	28.85
216.502	28.61
216.888	20.91
217.273	39.46
217.658	-0.84
218.043	26.08
218.428	38.77
218.813	-2
219.198	18.88
219.583	9.38
219.968	5.76
220.353	46.19
220.738	22.49
221.122	2.36
221.507	32.22
221.892	18.11
222.276	13.9
222.661	1.15
223.046	12.61
223.43	27.23
223.815	16.26
224.199	13.46
224.583	13.08
224.968	13.31
225.352	16.28
225.736	6.33
226.121	6.26
226.505	10.68
226.889	14.16
227.273	9.9
227.657	5.21
228.041	11.86
228.425	13.15
228.809	8.31
229.193	7.67
229.577	9.17
229.961	7.28
230.344	9.43
230.728	7.4
231.112	9.53
231.495	8.07
231.879	8.34
232.263	7.24
232.646	7.3
233.03	7.72
233.413	7.38
233.797	7.97
234.18	8.03
234.563	9.44
234.946	11.73
235.33	9.28
235.713	7.52
236.096	8.68
236.479	7.45
236.862	7.97
237.245	9.19
237.628	9.87
238.011	8.8
238.394	7.74
238.777	8.33
239.16	8.13
239.543	8.93
239.925	8.63
240.308	10.07
240.691	7.41
241.073	8.79
241.456	8.9
241.838	6.98
242.221	7.64
242.603	7.95
242.986	5.95
243.368	7.71
243.75	8.29
244.133	8.29
244.515	7.53
244.897	6.91
245.279	7.06
245.661	6.9
246.043	6.49
246.425	6.56
246.807	7.25
247.189	6.6
247.571	7.98
247.953	8.27
248.335	7.06
248.717	7.14
249.098	6.79
249.48	6.85
249.862	6.76
250.243	6.72
250.625	7.07
251.006	6.58
251.388	6.64
251.769	7.18
252.151	7.03
252.532	6.62
252.913	7.03
253.295	7.47
253.676	7.41
254.057	6.71
254.438	7.46
254.819	6.39
255.2	6.58
255.581	6.29
255.962	7.21
256.343	7.76
256.724	6.21
257.105	6.88
257.486	6.34
257.867	6.17
258.247	7.43
258.628	6.8
259.009	6.75
259.389	5.78
259.77	6.59
260.15	7.58
260.531	5.98
260.911	6.14
261.292	5.93
261.672	5.63
262.052	5.92
262.432	6.1
262.813	6.15
263.193	5.87
263.573	6.97
263.953	6.17
264.333	6.54
264.713	6.28
265.093	6.2
265.473	6.35
265.853	6.1
266.233	5.67
266.612	6.17
266.992	6.88
267.372	6.21
267.752	5.82
268.131	5.96
268.511	5.79
268.89	6.5
269.27	5.64
269.649	5.64
270.029	5.92
270.408	5.73
270.787	5.77
271.167	6.15
271.546	5.87
271.925	5.99
272.304	5.2
272.683	5.69
273.062	6.23
273.441	5.75
273.82	6.05
274.199	5.79
274.578	5.66
274.957	5.71
275.336	5.7
275.715	5.58
276.093	5.7
276.472	5.28
276.851	5.34
277.229	4.92
277.608	5.87
277.986	5.44
278.365	5.83
278.743	5.52
279.122	5.82
279.5	6.38
279.878	5.43
280.257	6.05
280.635	5.47
281.013	5.7
281.391	5.01
281.769	5.14
282.147	5.61
282.525	5.58
282.903	5.76
283.281	5.24
283.659	5.44
284.037	5.19
284.415	5.99
284.792	4.72
285.17	5.86
285.548	5.42
285.925	5.39
286.303	5.06
286.68	5.53
287.058	5.34
287.435	4.87
287.813	4.79
288.19	5
288.567	5.22
288.945	5.06
289.322	5.18
289.699	5.47
290.076	5.32
290.453	5.33
290.83	5.24
291.207	5.39
291.584	5.01
291.961	4.76
292.338	5.64
292.715	5.55
293.092	5.14
293.469	5.12
293.845	4.85
294.222	5.47
294.599	5.82
294.975	6.02
295.352	5.51
295.728	5.18
296.105	5.81
296.481	5.14
296.858	5.46
297.234	5.48
297.61	5.32
297.986	5.24
298.363	5.31
298.739	4.93
299.115	5.15
299.491	5
299.867	5.01
300.243	5.09
300.619	4.79
300.995	4.66
301.371	5.85
301.746	5.26
302.122	4.74
302.498	4.63
302.874	4.85
303.249	4.87
303.625	4.96
304	5.09
304.376	5.61
304.751	4.97
305.127	5.16
305.502	5.21
305.878	5.08
306.253	5.4
306.628	4.86
307.003	5.43
307.378	5.36
307.754	5
308.129	4.89
308.504	5.22
308.879	5.19
309.254	5.27
309.629	5.03
310.003	5.31
310.378	5.66
310.753	5.02
311.128	4.91
311.502	4.86
311.877	4.79
312.252	5.07
312.626	5.11
313.001	5.14
313.375	5.67
313.75	5.15
314.124	5.31
314.498	4.77
314.873	4.94
315.247	5.11
315.621	5.29
315.995	4.75
316.369	5.01
316.743	5.17
317.117	4.79
317.491	5.04
317.865	5.12
318.239	5.21
318.613	5.18
318.987	4.75
319.361	5.07
319.734	4.95
320.108	4.95
320.482	5.1
320.855	5.38
321.229	5.32
321.602	5.12
321.976	5.01
322.349	5.34
322.723	5.57
323.096	5.48
323.469	4.79
323.843	4.88
324.216	5.58
324.589	4.57
324.962	4.48
325.335	5.17
325.708	4.72
326.081	5.43
326.454	4.44
326.827	5.01
327.2	5.4
327.573	5.87
327.945	5.15
328.318	5.45
328.691	4.77
329.063	4.69
329.436	5.2
329.809	5.31
330.181	4.83
330.553	5.34
330.926	4.98
331.298	4.88
331.671	5.2
332.043	4.48
332.415	4.74
332.787	5.98
333.159	4.69
333.532	4.73
333.904	5.18
334.276	4.25
334.648	4.68
335.02	5.04
335.391	4.92
335.763	5.31
336.135	4.94
336.507	4.95
336.879	5.17
337.25	5.08
337.622	5.3
337.993	4.88
338.365	5.33
338.736	5.16
339.108	5.28
339.479	4.95
339.851	4.91
340.222	5.15
340.593	4.65
340.964	4.35
341.336	4.73
341.707	4.57
342.078	5.85
342.449	4.99
342.82	4.65
343.191	4.49
343.562	5.15
343.933	5.39
344.303	5.21
344.674	5.36
345.045	5.19
345.416	5.56
345.786	5.09
346.157	4.95
346.527	4.73
346.898	5.04
347.268	5
347.639	5.1
348.009	5.13
348.38	5.26
348.75	5.45
349.12	5.13
349.49	5.27
349.861	4.67
350.231	5.32
350.601	5.32
350.971	5.36
351.341	5.09
351.711	5.06
352.081	4.8
352.45	4.65
352.82	5.45
353.19	5.23
353.56	5.28
353.929	4.99
354.299	5.36
354.669	5.07
355.038	4.99
355.408	5.16
355.777	5.44
356.147	5.05
356.516	5.36
356.885	5.07
357.254	5.5
357.624	4.83
357.993	5.11
358.362	5.16
358.731	4.91
359.1	4.76
359.469	5.41
359.838	4.92
360.207	5.18
360.576	5.4
360.945	5.23
361.314	4.94
361.682	5.23
362.051	5.13
362.42	5.08
362.788	4.8
363.157	5.08
363.525	5.15
363.894	5.03
364.262	4.99
364.631	5.18
364.999	4.78
365.367	5.42
365.735	5.3
366.104	5.19
366.472	5.52
366.84	4.91
367.208	5.42
367.576	5.46
367.944	5.01
368.312	5.31
368.68	5.33
369.048	5.35
369.416	5.26
369.783	4.85
370.151	4.89
370.519	5.34
370.886	5.3
371.254	5.13
371.621	5.14
371.989	5.33
372.356	5.04
372.724	5.44
373.091	5.08
373.458	5.42
373.826	5.5
374.193	5.21
374.56	5.2
374.927	5.43
375.294	5.21
375.661	5.24
376.028	5.31
376.395	5.24
376.762	5.19
377.129	5.41
377.496	5.62
377.863	5.67
378.229	5.34
378.596	5.28
378.963	5.54
379.329	5.35
379.696	5.36
380.062	5.21
380.429	5.15
380.795	5.36
381.161	5.46
381.528	5.38
381.894	4.8
382.26	5.27
382.626	5.52
382.993	5.5
383.359	5.34
383.725	5.29
384.091	5.32
384.457	5.44
384.823	5.32
385.188	5.45
385.554	5.48
385.92	5.6
386.286	5.3
386.651	5.2
387.017	5.56
387.383	5.28
387.748	5.2
388.114	5.49
388.479	5.54
388.845	5.1
389.21	5.17
389.575	5.81
389.94	5.5
390.306	5.43
390.671	5.7
391.036	5.32
391.401	5.58
391.766	5.57
392.131	5.3
392.496	5.33
392.861	5.33
393.226	5.52
393.591	5.47
393.956	5.52
394.32	5.49
394.685	5.29
395.05	5.52
395.414	5.68
395.779	5.57
396.143	5.52
396.508	5.44
396.872	5.49
397.236	5.66
397.601	5.45
397.965	5.83
398.329	5.61
398.694	5.51
399.058	5.29
399.422	5.31
399.786	5.6
400.15	5.67
400.514	5.63
400.878	5.39
401.242	5.44
401.605	5.49
401.969	5.3
402.333	5.57
402.697	5.49
403.06	5.46
403.424	5.52
403.787	5.91
404.151	5.77
404.514	5.71
404.878	5.69
405.241	5.72
405.604	5.57
405.968	5.47
406.331	5.47
406.694	5.49
407.057	5.36
407.42	5.47
407.783	5.63
408.146	5.66
408.509	5.4
408.872	5.51
409.235	5.41
409.598	5.63
409.961	5.69
410.323	5.59
410.686	5.57
411.049	5.63
411.411	5.62
411.774	5.62
412.136	5.7
412.499	5.58
412.861	5.5
413.223	5.51
413.586	5.62
413.948	5.48
414.31	5.53
414.672	5.59
415.035	5.54
415.397	5.68
415.759	5.94
416.121	5.55
416.483	5.41
416.845	5.56
417.206	5.52
417.568	5.42
417.93	5.62
418.292	5.36
418.653	5.43
419.015	5.53
419.377	5.39
419.738	5.66
420.1	5.43
420.461	5.4
420.822	5.53
421.184	5.56
421.545	5.48
421.906	5.39
422.267	5.45
422.629	5.48
422.99	5.33
423.351	5.35
423.712	5.26
424.073	5.35
424.434	5.38
424.795	5.39
425.155	5.52
425.516	5.33
425.877	5.44
426.238	5.33
426.598	5.34
426.959	5.46
427.32	5.5
427.68	5.33
428.041	5.37
428.401	5.55
428.761	5.51
429.122	5.59
429.482	5.59
429.842	5.56
430.202	5.58
430.563	5.56
430.923	5.77
431.283	5.66
431.643	5.66
432.003	5.61
432.363	5.86
432.722	5.55
433.082	5.66
433.442	5.63
433.802	5.62
434.161	5.5
434.521	5.52
434.881	5.54
435.24	5.5
435.6	5.56
435.959	5.42
436.319	5.53
436.678	5.7
437.037	5.57
437.396	5.49
437.756	5.53
438.115	5.5
438.474	5.63
438.833	5.57
439.192	5.52
439.551	5.57
439.91	5.59
440.269	5.64
440.628	5.37
440.987	5.62
441.345	5.54
441.704	5.79
442.063	5.44
442.421	5.46
442.78	5.55
443.138	5.5
443.497	5.57
443.855	5.59
444.214	5.37
444.572	5.8
444.93	5.69
445.288	5.56
445.647	5.53
446.005	5.68
446.363	5.53
446.721	5.51
447.079	5.39
447.437	5.48
447.795	5.59
448.153	5.34
448.51	5.48
448.868	5.43
449.226	5.51
449.584	5.43
449.941	5.42
450.299	5.56
450.656	5.5
451.014	5.61
451.371	5.68
451.729	5.63
452.086	5.7
452.443	5.59
452.801	5.66
453.158	5.59
453.515	5.74
453.872	5.61
454.229	5.65
454.586	5.65
454.943	5.52
455.3	5.58
455.657	5.66
456.014	5.64
456.371	5.68
456.727	5.85
457.084	5.65
457.441	5.67
457.797	5.68
458.154	5.63
458.51	5.55
458.867	5.52
459.223	5.81
459.58	5.78
459.936	5.91
460.292	5.68
460.648	5.69
461.005	5.59
461.361	5.64
461.717	5.47
462.073	5.46
462.429	5.44
462.785	5.51
463.141	5.59
463.496	5.72
463.852	5.54
464.208	5.62
464.564	5.96
464.919	5.69
465.275	5.76
465.631	5.85
465.986	5.74
466.342	5.79
466.697	6.06
467.052	5.62
467.408	5.74
467.763	5.71
468.118	5.82
468.473	5.79
468.829	5.68
469.184	5.67
469.539	5.68
469.894	5.83
470.249	5.74
470.603	5.69
470.958	5.71
471.313	5.87
471.668	5.56
472.023	5.82
472.377	5.74
472.732	5.6
473.086	5.83
473.441	5.55
473.795	5.8
474.15	5.65
474.504	5.69
474.859	5.83
475.213	5.54
475.567	5.61
475.921	5.59
476.275	5.72
476.63	5.68
476.984	5.72
477.338	5.74
477.692	5.78
478.045	5.79
478.399	5.88
478.753	5.69
479.107	5.79
479.461	5.56
479.814	5.82
480.168	5.72
480.521	5.79
480.875	5.81
481.228	5.62
481.582	5.51
481.935	5.72
482.289	5.62
482.642	5.72
482.995	5.64
483.348	5.64
483.701	5.62
484.055	5.56
484.408	5.48
484.761	5.61
485.114	5.41
485.466	5.31
485.819	5.31
486.172	5.22
486.525	5.23
486.878	5.3
487.23	5.37
487.583	5.47
487.936	5.46
488.288	5.48
488.641	5.47
488.993	5.41
489.345	5.41
489.698	5.3
490.05	5.35
490.402	5.39
490.754	5.33
491.107	5.37
491.459	5.52
491.811	5.45
492.163	5.53
492.515	5.52
492.866	5.57
493.218	5.57
493.57	5.52
493.922	5.36
494.274	5.42
494.625	5.51
494.977	5.52
495.328	5.61
495.68	5.61
496.031	5.56
496.383	5.73
496.734	5.73
497.086	5.75
497.437	5.82
497.788	5.67
498.139	5.85
498.49	5.79
498.842	5.48
499.193	5.6
499.544	5.67
499.894	5.63
500.245	5.7
500.596	5.69
500.947	5.62
501.298	5.75
501.648	5.67
501.999	5.74
502.35	5.76
502.7	5.8
503.051	5.74
503.401	5.78
503.752	5.85
504.102	5.74
504.452	5.68
504.803	5.84
505.153	5.71
505.503	5.59
505.853	5.78
506.203	5.78
506.553	5.91
506.903	5.78
507.253	5.7
507.603	5.77
507.953	5.8
508.303	5.76
508.652	5.84
509.002	5.67
509.352	5.65
509.701	5.75
510.051	5.65
510.4	5.7
510.75	5.59
511.099	5.51
511.449	5.55
511.798	5.78
512.147	5.65
512.496	5.68
512.846	5.64
513.195	5.67
513.544	5.63
513.893	5.73
514.242	5.57
514.591	5.7
514.939	5.56
515.288	5.52
515.637	5.65
515.986	5.63
516.334	5.66
516.683	5.7
517.032	5.87
517.38	5.72
517.729	5.72
518.077	5.74
518.426	5.63
518.774	5.73
519.122	5.69
519.47	5.62
519.819	5.65
520.167	5.58
520.515	5.59
520.863	5.5
521.211	5.54
521.559	5.49
521.907	5.61
522.255	5.61
522.602	5.69
522.95	5.56
523.298	5.64
523.645	5.74
523.993	5.59
524.341	5.55
524.688	5.65
525.036	5.57
525.383	5.67
525.73	5.74
526.078	5.54
526.425	5.66
526.772	5.67
527.119	5.63
527.466	5.5
527.814	5.45
528.161	5.47
528.508	5.43
528.854	5.53
529.201	5.52
529.548	5.62
529.895	5.45
530.242	5.39
530.588	5.28
530.935	5.2
531.282	5.29
531.628	5.35
531.975	5.33
532.321	5.35
532.667	5.43
533.014	5.47
533.36	5.58
533.706	5.5
534.052	5.61
534.399	5.61
534.745	5.51
535.091	5.44
535.437	5.27
535.783	5.26
536.129	5.37
536.474	5.48
536.82	5.41
537.166	5.58
537.512	5.64
537.857	5.64
538.203	5.64
538.549	5.44
538.894	5.44
539.239	5.43
539.585	5.4
539.93	5.64
540.276	5.52
540.621	5.48
540.966	5.5
541.311	5.67
541.656	5.46
542.001	5.62
542.346	5.53
542.691	5.44
543.036	5.48
543.381	5.31
543.726	5.29
544.071	5.33
544.415	5.36
544.76	5.33
545.105	5.3
545.449	5.4
545.794	5.5
546.138	5.38
546.483	5.39
546.827	5.41
547.171	5.47
547.516	5.54
547.86	5.58
548.204	5.52
548.548	5.42
548.892	5.62
549.236	5.47
549.58	5.46
549.924	5.56
550.268	5.67
550.612	5.46
550.956	5.55
551.3	5.58
551.643	5.58
551.987	5.6
552.33	5.83
552.674	5.46
553.017	5.62
553.361	5.48
553.704	5.59
554.048	5.6
554.391	5.56
554.734	5.65
555.077	5.48
555.42	5.54
555.764	5.53
556.107	5.56
556.45	5.52
556.793	5.5
557.135	5.55
557.478	5.42
557.821	5.64
558.164	5.73
558.507	5.82
558.849	5.6
559.192	5.7
559.534	5.76
559.877	5.61
560.219	5.68
560.562	5.6
560.904	5.55
561.246	5.78
561.589	5.7
561.931	5.48
562.273	5.52
562.615	5.47
562.957	5.56
563.299	5.64
563.641	5.59
563.983	5.55
564.325	5.64
564.667	5.55
565.008	5.54
565.35	5.71
565.692	5.7
566.033	5.56
566.375	5.58
566.716	5.51
567.058	5.58
567.399	5.63
567.741	5.61
568.082	5.41
568.423	5.59
568.764	5.7
569.105	5.43
569.447	5.54
569.788	5.38
570.129	5.6
570.47	5.71
570.811	5.56
571.151	5.68
571.492	5.38
571.833	5.38
572.174	5.43
572.514	5.43
572.855	5.51
573.195	5.35
573.536	5.53
573.876	5.52
574.217	5.34
574.557	5.42
574.898	5.55
575.238	5.57
575.578	5.54
575.918	5.58
576.258	5.4
576.598	5.5
576.938	5.5
577.278	5.59
577.618	5.4
577.958	5.53
578.298	5.52
578.638	5.38
578.977	5.53
579.317	5.52
579.657	5.44
579.996	5.36
580.336	5.49
580.675	5.67
581.014	5.49
581.354	5.38
581.693	5.57
582.032	5.56
582.372	5.46
582.711	5.52
583.05	5.58
583.389	5.48
583.728	5.6
584.067	5.43
584.406	5.49
584.745	5.62
585.083	5.6
585.422	5.64
585.761	5.33
586.1	5.38
586.438	5.51
586.777	5.69
587.115	5.43
587.454	5.43
587.792	5.77
588.13	5.5
588.469	5.55
588.807	5.67
589.145	5.41
589.483	5.52
589.821	5.23
590.159	5.49
590.497	5.67
590.835	5.72
591.173	5.54
591.511	5.51
591.849	5.52
592.187	5.35
592.524	5.42
592.862	5.48
593.2	5.44
593.537	5.3
593.875	5.54
594.212	5.49
594.55	5.66
594.887	5.18
595.224	5.67
595.561	5.66
595.899	5.72
596.236	5.77
596.573	5.6
596.91	5.42
597.247	5.34
597.584	5.65
597.921	5.64
598.258	5.58
598.594	5.41
598.931	5.34
599.268	5.42
599.604	5.54
599.941	5.54
600.277	5.32
600.614	5.5
600.95	5.45
601.287	5.41
601.623	5.6
601.959	5.56
602.296	5.68
602.632	5.14
602.968	5.69
603.304	5.48
603.64	5.51
603.976	5.4
604.312	5.4
604.648	5.37
604.984	5.48
605.319	5.38
605.655	5.28
605.991	5.39
606.326	5.43
606.662	5.51
606.998	5.33
607.333	5.35
607.668	5.35
608.004	5.65
608.339	5.21
608.674	5.6
609.01	5.41
609.345	5.35
609.68	5.4
610.015	5.39
610.35	5.28
610.685	5.57
611.02	5.34
611.355	5.65
611.689	5.5
612.024	5.41
612.359	5.31
612.694	5.3
613.028	5.03
613.363	5.36
613.697	5.41
614.032	5.47
614.366	5.39
614.7	5.35
615.035	5.66
615.369	5.54
615.703	5.6
616.037	5.63
616.371	5.49
616.705	5.72
617.039	5.57
617.373	5.33
617.707	5.13
618.041	5.6
618.375	5.63
618.709	5.31
619.042	5.63
619.376	5.79
619.71	5.54
620.043	5.12
620.377	5.47
620.71	5.75
621.043	5.73
621.377	5.41
621.71	5.55
622.043	5.29
622.376	5.73
622.709	5.65
623.043	5.55
623.376	5.7
623.709	5.63
624.041	5.54
624.374	5.48
624.707	5.84
625.04	5.36
625.373	5.37
625.705	5.47
626.038	5.5
626.37	5.86
626.703	5.71
627.035	5.55
627.368	5.65
627.7	5.67
628.032	5.47
628.365	5.43
628.697	5.56
629.029	5.42
629.361	5.48
629.693	5.57
630.025	5.54
630.357	5.23
630.689	5.58
631.021	5.35
631.353	5.15
631.684	5.46
632.016	5.48
632.348	5.25
632.679	5.37
633.011	5.26
633.342	5.54
633.674	5.64
634.005	5.35
634.336	5.59
634.668	5.87
634.999	5.61
635.33	5.51
635.661	5.42
635.992	5.31
636.323	5.2
636.654	5.4
636.985	5.23
637.316	5.45
637.647	5.66
637.977	5.15
638.308	5.84
638.639	5.37
638.969	5.58
639.3	5.62
639.63	5.72
639.961	5.42
640.291	5.39
640.622	5.82
640.952	5.55
641.282	5.75
641.612	5.67
641.943	5.48
642.273	5.65
642.603	5.29
642.933	5.66
643.263	4.72
643.592	5.34
643.922	5.8
644.252	5.41
644.582	5.89
644.911	5.3
645.241	5.87
645.571	5.67
645.9	5.85
646.23	5.82
646.559	6.02
646.888	5.86
647.218	5.48
647.547	5.65
647.876	5.46
648.205	5.2
648.534	5.74
648.863	6.04
649.192	5.38
649.521	5.67
649.85	5.72
650.179	5.38
650.508	5.7
650.837	5.74
651.165	5.43
651.494	5.7
651.822	5.88
652.151	5.72
652.479	5.97
652.808	5.68
653.136	5.78
653.465	5.66
653.793	5.54
654.121	6.03
654.449	5.31
654.777	5.96
655.105	5.9
655.433	5.67
655.761	5.81
656.089	5.4
656.417	5.5
656.745	5.71
657.073	5.5
657.4	6.09
657.728	5.92
658.056	5.72
658.383	6.31
658.711	5.51
659.038	5.4
659.365	5.59
659.693	5.16
660.02	5.77
660.347	5.5
660.674	5.35
661.001	5.23
661.329	5.51
661.656	5.67
661.982	5.15
662.309	5.89
662.636	5.78
662.963	5.49
663.29	5.8
663.616	5.7
663.943	6.06
664.27	6.16
664.596	5.79
664.923	5.68
665.249	5.56
665.576	5.21
665.902	5.07
666.228	5.74
666.554	5.4
666.881	6.11
667.207	6.27
667.533	5.56
667.859	6.15
668.185	6.24
668.511	6.3
668.837	5.28
669.162	5.37
669.488	5.69
669.814	5.58
670.139	6.3
670.465	6.01
670.791	5.82
671.116	6.19
671.442	6.6
671.767	5.05
672.092	6.53
672.418	6.36
672.743	5.63
673.068	6.05
673.393	5
673.718	6.02
674.043	6.39
674.368	5.84
674.693	5.45
675.018	5.44
675.343	6.22
675.667	5.94
675.992	5.68
676.317	6.26
676.641	5.59
676.966	6.23
677.29	5.9
677.615	6.52
677.939	6.2
678.264	5.79
678.588	6.08
678.912	5.98
679.236	6.4
679.56	6.16
679.885	5.98
680.209	6.47
680.532	5.84
680.856	5.52
681.18	6.46
681.504	5.7
681.828	5.47
682.152	5.65
682.475	6.75
682.799	5.79
683.122	6.08
683.446	6.06
683.769	5.7
684.093	6.24
684.416	6.23
684.739	5.92
685.062	6.8
685.386	5.78
685.709	6.24
686.032	5.23
686.355	6.16
686.678	6.32
687.001	6.21
687.324	6.85
687.646	6.22
687.969	6.21
688.292	5.41
688.614	6.38
688.937	6.06
689.26	5.5
689.582	6.25
689.904	6.34
690.227	6.64
690.549	6.67
690.871	6.47
691.194	6.24
691.516	6
691.838	6.11
692.16	6.27
692.482	6.11
692.804	6.13
