Data from 0157_forehead_Reflection__0__61.txt Node

Date: Fri Sep 22 20:48:25 CDT 2023
User: ToomeyLab
Spectrometer: FLMS14357
Trigger mode: 0
Integration Time (sec): 1.000000E-2
Scans to average: 100
Electric dark correction enabled: true
Nonlinearity correction enabled: false
Boxcar width: 0
XAxis mode: Wavelengths
Number of Pixels in Spectrum: 2048
>>>>>Begin Spectral Data<<<<<
189.047	34.57
189.435	34.57
189.823	34.57
190.211	119.61
190.599	161.69
190.987	-23.71
191.375	514.74
191.763	256.44
192.151	377.96
192.538	106.03
192.926	143.22
193.314	2387.5
193.702	35.93
194.089	94.51
194.477	-42.68
194.864	78.19
195.252	101.55
195.639	54.58
196.027	209.42
196.414	-19.39
196.801	26.7
197.189	-125.42
197.576	395.31
197.963	10.15
198.351	22.03
198.738	40.54
199.125	67.8
199.512	124.47
199.899	63.18
200.286	32.63
200.673	15.17
201.06	43.15
201.447	75.12
201.833	45.56
202.22	62.95
202.607	61.8
202.994	47.1
203.38	54.15
203.767	46.43
204.154	81.64
204.54	36.57
204.927	13.47
205.313	35.27
205.699	74.14
206.086	50.12
206.472	76.38
206.858	14.39
207.245	35.31
207.631	38.77
208.017	27.42
208.403	8.23
208.789	32.8
209.175	71.59
209.561	48.32
209.947	51.06
210.333	68.8
210.719	8.34
211.105	56.43
211.491	53.95
211.876	65.88
212.262	41.01
212.648	53.77
213.034	47.97
213.419	14.33
213.805	36.13
214.19	24.56
214.576	47.42
214.961	28.98
215.346	26.8
215.732	69.4
216.117	11.53
216.502	53.3
216.888	33.63
217.273	26.28
217.658	23.24
218.043	23.57
218.428	51.96
218.813	5.35
219.198	24.88
219.583	28.24
219.968	7.65
220.353	47.63
220.738	24.53
221.122	28
221.507	-1.32
221.892	-1.16
222.276	14.5
222.661	9.96
223.046	29.9
223.43	44.1
223.815	18.53
224.199	6.18
224.583	18.99
224.968	20.71
225.352	10.84
225.736	24.16
226.121	18.01
226.505	12.05
226.889	18.99
227.273	9.85
227.657	14.26
228.041	7.82
228.425	18.61
228.809	9.14
229.193	9.21
229.577	9.45
229.961	9.87
230.344	10.02
230.728	8.44
231.112	9
231.495	8.21
231.879	8.35
232.263	7.54
232.646	8.04
233.03	8.92
233.413	10.52
233.797	10.25
234.18	9.61
234.563	10.03
234.946	12.93
235.33	10.03
235.713	8.67
236.096	8.93
236.479	8.84
236.862	10.44
237.245	8.7
237.628	10.57
238.011	8.38
238.394	9.67
238.777	11
239.16	9.77
239.543	11.71
239.925	10.11
240.308	9.06
240.691	10.07
241.073	9.33
241.456	9.27
241.838	8.37
242.221	8.44
242.603	8.19
242.986	8.84
243.368	8.25
243.75	8.64
244.133	8.86
244.515	7.98
244.897	7.32
245.279	8.21
245.661	7.29
246.043	8.46
246.425	8.05
246.807	9.4
247.189	7.56
247.571	9.76
247.953	8.68
248.335	8.46
248.717	7.78
249.098	7.78
249.48	7.38
249.862	7.29
250.243	7.32
250.625	7.44
251.006	7.53
251.388	7.58
251.769	7.68
252.151	7.63
252.532	8.64
252.913	8.24
253.295	9.25
253.676	7.87
254.057	7.51
254.438	8.36
254.819	7.3
255.2	7.82
255.581	8.37
255.962	8.41
256.343	7.45
256.724	8.07
257.105	8.36
257.486	8.37
257.867	9.25
258.247	8.47
258.628	8.23
259.009	7.8
259.389	7.12
259.77	7.88
260.15	8.54
260.531	7.5
260.911	7.54
261.292	7.23
261.672	6.86
262.052	7.12
262.432	7.09
262.813	6.99
263.193	7.2
263.573	8.14
263.953	7.03
264.333	7.75
264.713	7.83
265.093	7.71
265.473	7.33
265.853	7.73
266.233	7.39
266.612	8.27
266.992	9
267.372	8.39
267.752	8.59
268.131	7.86
268.511	7.11
268.89	7.89
269.27	6.77
269.649	7.04
270.029	7.55
270.408	7.46
270.787	7.62
271.167	7.77
271.546	6.98
271.925	7.51
272.304	7.22
272.683	7.47
273.062	7.56
273.441	7.43
273.82	7.53
274.199	7.65
274.578	7.93
274.957	7.16
275.336	7.33
275.715	7.25
276.093	6.87
276.472	7.26
276.851	7.09
277.229	6.89
277.608	7.71
277.986	6.98
278.365	7.75
278.743	7.36
279.122	7.82
279.5	7.71
279.878	7.05
280.257	7.75
280.635	7.72
281.013	7.63
281.391	7.28
281.769	7.58
282.147	7.63
282.525	6.68
282.903	7.51
283.281	7.6
283.659	7.91
284.037	7.37
284.415	7.44
284.792	7.21
285.17	7.73
285.548	8.15
285.925	7.06
286.303	7.48
286.68	7.14
287.058	7.38
287.435	7.39
287.813	6.96
288.19	6.49
288.567	7.19
288.945	7.29
289.322	7.49
289.699	7.56
290.076	7.52
290.453	6.96
290.83	7.14
291.207	7.15
291.584	7.29
291.961	7.07
292.338	7.58
292.715	7.58
293.092	7.66
293.469	7.55
293.845	7.35
294.222	7.76
294.599	7.69
294.975	7.73
295.352	8.27
295.728	7.94
296.105	7.77
296.481	8.26
296.858	7.6
297.234	7.91
297.61	7.89
297.986	8.23
298.363	7.88
298.739	8.18
299.115	7.99
299.491	7.79
299.867	7.69
300.243	7.82
300.619	8.35
300.995	8.09
301.371	8.43
301.746	8.38
302.122	8.38
302.498	8.79
302.874	8.6
303.249	8.1
303.625	8.23
304	9.2
304.376	9.06
304.751	9.2
305.127	8.64
305.502	9.09
305.878	9.13
306.253	9.19
306.628	8.97
307.003	9.13
307.378	9.41
307.754	9.32
308.129	9.08
308.504	9.14
308.879	9.42
309.254	9.79
309.629	9.76
310.003	9.54
310.378	9.64
310.753	9.69
311.128	9.28
311.502	9.6
311.877	9.27
312.252	9.86
312.626	9.39
313.001	10.11
313.375	9.67
313.75	10.28
314.124	10.17
314.498	9.65
314.873	9.41
315.247	10.14
315.621	9.8
315.995	10.19
316.369	9.98
316.743	10.29
317.117	10.36
317.491	10.21
317.865	9.85
318.239	10.11
318.613	10.65
318.987	10.53
319.361	10.93
319.734	10.4
320.108	10.61
320.482	10.08
320.855	10.7
321.229	11.3
321.602	11.31
321.976	10.72
322.349	10.82
322.723	10.76
323.096	11.4
323.469	11.17
323.843	10.89
324.216	11.67
324.589	11.62
324.962	10.77
325.335	11.18
325.708	11.03
326.081	11.74
326.454	10.81
326.827	11.6
327.2	11.58
327.573	11.91
327.945	11.29
328.318	11.82
328.691	11.57
329.063	11.67
329.436	11.61
329.809	11.56
330.181	11.82
330.553	11.77
330.926	12.29
331.298	11.63
331.671	11.98
332.043	11.54
332.415	12.23
332.787	12.56
333.159	11.98
333.532	11.77
333.904	11.91
334.276	12.44
334.648	12.15
335.02	11.93
335.391	12.37
335.763	12.33
336.135	12.77
336.507	13.04
336.879	12.04
337.25	13.03
337.622	12.46
337.993	12.37
338.365	12.79
338.736	13.02
339.108	12.49
339.479	12.33
339.851	12.42
340.222	12.92
340.593	12.53
340.964	12.71
341.336	12.8
341.707	12.75
342.078	12.56
342.449	13.11
342.82	12.97
343.191	12.97
343.562	12.71
343.933	13.13
344.303	12.97
344.674	13.53
345.045	13.52
345.416	13.89
345.786	13.52
346.157	13.33
346.527	13.23
346.898	13.42
347.268	13.7
347.639	13.63
348.009	13.57
348.38	13.74
348.75	13.92
349.12	14.19
349.49	14.24
349.861	13.88
350.231	14.04
350.601	14.15
350.971	14.33
351.341	13.54
351.711	13.86
352.081	14.1
352.45	14.02
352.82	14.86
353.19	14.81
353.56	14.02
353.929	14.67
354.299	14.62
354.669	14.66
355.038	14.29
355.408	14.6
355.777	14.99
356.147	14.65
356.516	14.91
356.885	14.65
357.254	14.81
357.624	14.59
357.993	14.59
358.362	14.62
358.731	14.59
359.1	14.99
359.469	15.29
359.838	14.59
360.207	14.75
360.576	14.98
360.945	15.24
361.314	15.1
361.682	15.45
362.051	15.28
362.42	15.38
362.788	15.28
363.157	15.57
363.525	15.24
363.894	15.1
364.262	15.45
364.631	15.23
364.999	15.37
365.367	15.68
365.735	15.32
366.104	15.7
366.472	15.81
366.84	15.5
367.208	16.35
367.576	16.04
367.944	15.81
368.312	16.21
368.68	15.91
369.048	16.2
369.416	16.12
369.783	15.87
370.151	16.24
370.519	16.26
370.886	16.53
371.254	17.05
371.621	16.55
371.989	16.8
372.356	16.36
372.724	16.74
373.091	16.89
373.458	16.62
373.826	16.61
374.193	16.89
374.56	16.9
374.927	17.16
375.294	17.05
375.661	16.83
376.028	16.84
376.395	17.36
376.762	17.11
377.129	17.41
377.496	17.44
377.863	17.71
378.229	17.34
378.596	17.46
378.963	17.57
379.329	17.48
379.696	17.56
380.062	17.24
380.429	17.37
380.795	17.8
381.161	17.77
381.528	17.98
381.894	17.56
382.26	17.72
382.626	18.13
382.993	18.21
383.359	18.12
383.725	17.96
384.091	18.19
384.457	18.48
384.823	18.27
385.188	18.65
385.554	18.24
385.92	18.71
386.286	18.43
386.651	18.61
387.017	18.96
387.383	18.25
387.748	18.59
388.114	18.33
388.479	18.69
388.845	18.44
389.21	18.83
389.575	19.34
389.94	18.96
390.306	19.03
390.671	19.26
391.036	18.81
391.401	19.36
391.766	19.36
392.131	19.41
392.496	19.33
392.861	19.21
393.226	19.56
393.591	19.69
393.956	19.47
394.32	19.36
394.685	19.54
395.05	19.76
395.414	19.97
395.779	19.6
396.143	19.69
396.508	19.71
396.872	19.68
397.236	19.98
397.601	19.62
397.965	20.05
398.329	20.07
398.694	20.24
399.058	20.13
399.422	20.41
399.786	20.48
400.15	20.54
400.514	20.47
400.878	20.68
401.242	20.51
401.605	20.43
401.969	20.69
402.333	20.64
402.697	20.68
403.06	20.56
403.424	20.71
403.787	21.08
404.151	21.05
404.514	21.11
404.878	21.13
405.241	21.31
405.604	20.99
405.968	21
406.331	21.21
406.694	21.17
407.057	20.91
407.42	21.28
407.783	21.38
408.146	21.37
408.509	21.65
408.872	21.54
409.235	21.48
409.598	21.92
409.961	22
410.323	22.06
410.686	21.92
411.049	22.02
411.411	22.56
411.774	22.14
412.136	22.32
412.499	22.03
412.861	22.1
413.223	22.21
413.586	22.3
413.948	22.14
414.31	22.52
414.672	22.58
415.035	22.33
415.397	22.83
415.759	23.03
416.121	22.68
416.483	22.7
416.845	22.56
417.206	22.96
417.568	22.64
417.93	22.94
418.292	22.92
418.653	22.82
419.015	23.08
419.377	22.69
419.738	23.06
420.1	22.77
420.461	22.83
420.822	22.83
421.184	23.04
421.545	23.09
421.906	23.03
422.267	22.92
422.629	23.09
422.99	23.05
423.351	23
423.712	22.8
424.073	23.02
424.434	23.32
424.795	23.38
425.155	23.55
425.516	23.48
425.877	23.47
426.238	23.36
426.598	23.25
426.959	23.46
427.32	23.54
427.68	23.77
428.041	23.73
428.401	24.22
428.761	24.3
429.122	24.41
429.482	24.4
429.842	24.43
430.202	24.39
430.563	24.71
430.923	24.76
431.283	24.89
431.643	24.72
432.003	24.8
432.363	24.76
432.722	24.8
433.082	24.96
433.442	25.08
433.802	25.31
434.161	24.96
434.521	25.12
434.881	25.23
435.24	24.89
435.6	25
435.959	24.94
436.319	25.06
436.678	25.27
437.037	25.45
437.396	25.38
437.756	25.59
438.115	25.63
438.474	25.62
438.833	25.79
439.192	25.7
439.551	25.75
439.91	25.91
440.269	25.81
440.628	25.71
440.987	25.82
441.345	26.02
441.704	26.05
442.063	25.92
442.421	26
442.78	25.99
443.138	26.04
443.497	26.1
443.855	26.29
444.214	26.04
444.572	26.6
444.93	26.45
445.288	26.52
445.647	26.61
446.005	26.67
446.363	26.75
446.721	26.68
447.079	26.64
447.437	26.6
447.795	26.59
448.153	26.35
448.51	26.54
448.868	26.35
449.226	26.54
449.584	26.63
449.941	26.73
450.299	27.08
450.656	27.16
451.014	27.26
451.371	27.5
451.729	27.45
452.086	27.48
452.443	27.44
452.801	27.54
453.158	27.7
453.515	28.02
453.872	27.75
454.229	28.07
454.586	27.84
454.943	28.01
455.3	28.05
455.657	27.76
456.014	28.08
456.371	28.2
456.727	28.23
457.084	28.35
457.441	28.36
457.797	28.54
458.154	28.54
458.51	28.48
458.867	28.64
459.223	28.69
459.58	28.85
459.936	28.8
460.292	28.6
460.648	28.84
461.005	28.45
461.361	28.61
461.717	28.38
462.073	28.3
462.429	28.26
462.785	28.42
463.141	28.77
463.496	29.14
463.852	29.07
464.208	29.16
464.564	29.53
464.919	29.63
465.275	29.55
465.631	29.71
465.986	29.67
466.342	29.66
466.697	29.86
467.052	29.58
467.408	29.7
467.763	29.97
468.118	29.98
468.473	29.9
468.829	29.93
469.184	30.02
469.539	30.08
469.894	30.16
470.249	29.98
470.603	30.05
470.958	30.21
471.313	30.18
471.668	30.4
472.023	30.4
472.377	30.62
472.732	30.37
473.086	30.68
473.441	30.61
473.795	30.76
474.15	30.92
474.504	30.74
474.859	31.01
475.213	30.85
475.567	30.76
475.921	31.1
476.275	31.14
476.63	31.06
476.984	31.15
477.338	31.42
477.692	31.4
478.045	31.48
478.399	31.5
478.753	31.32
479.107	31.58
479.461	31.35
479.814	31.62
480.168	31.59
480.521	31.81
480.875	31.76
481.228	31.61
481.582	31.75
481.935	31.75
482.289	31.77
482.642	31.86
482.995	31.75
483.348	31.98
483.701	31.95
484.055	31.82
484.408	31.69
484.761	31.63
485.114	31.57
485.466	31.19
485.819	31.04
486.172	30.87
486.525	31
486.878	31.15
487.23	31.39
487.583	31.4
487.936	31.77
488.288	31.91
488.641	32.09
488.993	31.94
489.345	31.76
489.698	31.59
490.05	31.62
490.402	31.7
490.754	31.83
491.107	31.95
491.459	32.2
491.811	32.54
492.163	32.65
492.515	32.91
492.866	32.82
493.218	32.81
493.57	32.58
493.922	32.08
494.274	32.36
494.625	32.52
494.977	32.74
495.328	32.97
495.68	33.3
496.031	33.37
496.383	33.94
496.734	33.85
497.086	33.8
497.437	33.82
497.788	34.05
498.139	34.08
498.49	34.25
498.842	33.9
499.193	33.67
499.544	33.72
499.894	34.01
500.245	33.99
500.596	34.05
500.947	34.32
501.298	34.31
501.648	34.35
501.999	34.58
502.35	34.8
502.7	34.93
503.051	34.69
503.401	34.94
503.752	34.82
504.102	34.96
504.452	34.98
504.803	35.25
505.153	35.12
505.503	35.29
505.853	35.59
506.203	35.39
506.553	35.24
506.903	35.48
507.253	35.33
507.603	35.41
507.953	35.72
508.303	35.69
508.652	35.44
509.002	35.9
509.352	35.67
509.701	35.75
510.051	35.76
510.4	35.65
510.75	35.75
511.099	35.56
511.449	35.87
511.798	35.94
512.147	35.88
512.496	35.92
512.846	36.02
513.195	36.15
513.544	36.24
513.893	36.35
514.242	36.19
514.591	36.35
514.939	36.35
515.288	36.44
515.637	36.65
515.986	36.55
516.334	36.75
516.683	36.75
517.032	37.07
517.38	37.06
517.729	37.12
518.077	37.23
518.426	37.12
518.774	37.49
519.122	37.16
519.47	37.23
519.819	37.27
520.167	36.87
520.515	36.86
520.863	36.81
521.211	36.8
521.559	36.87
521.907	37.18
522.255	37.24
522.602	37.38
522.95	37.55
523.298	37.73
523.645	37.89
523.993	37.82
524.341	38.04
524.688	38.2
525.036	38.14
525.383	38.16
525.73	38.37
526.078	38.33
526.425	38.24
526.772	38.05
527.119	38.26
527.466	37.99
527.814	37.81
528.161	37.84
528.508	38.05
528.854	38.11
529.201	38.23
529.548	38.14
529.895	38.19
530.242	38.04
530.588	37.5
530.935	37.55
531.282	37.82
531.628	37.87
531.975	37.84
532.321	37.93
532.667	38.27
533.014	38.58
533.36	38.86
533.706	38.98
534.052	38.81
534.399	38.97
534.745	38.9
535.091	38.78
535.437	38.49
535.783	38.52
536.129	38.68
536.474	38.79
536.82	39.1
537.166	39.27
537.512	39.64
537.857	39.77
538.203	39.89
538.549	39.74
538.894	39.53
539.239	39.52
539.585	39.54
539.93	39.87
540.276	40.03
540.621	40.25
540.966	40.42
541.311	40.55
541.656	40.43
542.001	40.56
542.346	40.6
542.691	40.41
543.036	40.36
543.381	39.81
543.726	39.62
544.071	39.72
544.415	39.9
544.76	40.1
545.105	40.17
545.449	40.41
545.794	40.54
546.138	40.79
546.483	41.04
546.827	40.84
547.171	41.03
547.516	41.3
547.86	41.25
548.204	41.22
548.548	41.22
548.892	41.35
549.236	40.99
549.58	41.35
549.924	41.57
550.268	41.74
550.612	41.76
550.956	41.98
551.3	41.96
551.643	42.22
551.987	42.46
552.33	42.39
552.674	42.56
553.017	42.48
553.361	42.51
553.704	42.54
554.048	42.76
554.391	42.68
554.734	42.5
555.077	42.42
555.42	42.49
555.764	42.74
556.107	42.73
556.45	42.96
556.793	42.92
557.135	43.02
557.478	43.12
557.821	43.17
558.164	43.2
558.507	43.54
558.849	43.65
559.192	43.57
559.534	43.58
559.877	43.65
560.219	43.67
560.562	43.56
560.904	43.72
561.246	43.81
561.589	43.89
561.931	43.7
562.273	43.8
562.615	43.88
562.957	44.25
563.299	44.15
563.641	44.31
563.983	44.46
564.325	44.35
564.667	44.45
565.008	44.41
565.35	44.32
565.692	44.71
566.033	44.39
566.375	44.16
566.716	44.62
567.058	44.8
567.399	44.64
567.741	44.83
568.082	44.63
568.423	44.55
568.764	44.68
569.105	44.4
569.447	44.58
569.788	44.81
570.129	45.08
570.47	45.11
570.811	45.33
571.151	45.19
571.492	45.15
571.833	45.15
572.174	45.26
572.514	45.33
572.855	45.3
573.195	45.46
573.536	45.41
573.876	45.39
574.217	45.56
574.557	45.61
574.898	45.65
575.238	45.72
575.578	45.75
575.918	45.81
576.258	45.78
576.598	45.95
576.938	45.91
577.278	46.06
577.618	46
577.958	46.19
578.298	46.11
578.638	46.25
578.977	46.54
579.317	46.38
579.657	46.54
579.996	46.67
580.336	46.64
580.675	46.33
581.014	46.65
581.354	46.89
581.693	47.12
582.032	46.8
582.372	47.3
582.711	46.93
583.05	47.04
583.389	47.22
583.728	47.31
584.067	47.52
584.406	47.35
584.745	47.28
585.083	47.71
585.422	47.77
585.761	47.68
586.1	47.53
586.438	47.65
586.777	48.17
587.115	47.66
587.454	47.86
587.792	47.9
588.13	47.84
588.469	48.29
588.807	48.26
589.145	48.09
589.483	48.18
589.821	48.43
590.159	48.27
590.497	48.12
590.835	48.46
591.173	48.22
591.511	48.3
591.849	48.82
592.187	48.5
592.524	48.54
592.862	48.37
593.2	48.69
593.537	48.58
593.875	48.67
594.212	48.77
594.55	49.27
594.887	49.06
595.224	48.88
595.561	49.54
595.899	49.25
596.236	49.41
596.573	49.08
596.91	49.12
597.247	49.24
597.584	49.3
597.921	49.44
598.258	49.01
598.594	49.37
598.931	48.98
599.268	49.26
599.604	49.17
599.941	49.62
600.277	49.2
600.614	49.31
600.95	49.56
601.287	49.92
601.623	50.02
601.959	49.96
602.296	50.4
602.632	49.76
602.968	50.21
603.304	50.33
603.64	50.33
603.976	50.04
604.312	50.1
604.648	50.29
604.984	50.24
605.319	50.52
605.655	50.07
605.991	50.11
606.326	50.41
606.662	50.55
606.998	49.9
607.333	50.24
607.668	50.25
608.004	50.8
608.339	50.69
608.674	50.77
609.01	51.04
609.345	51.05
609.68	51.08
610.015	51.11
610.35	51.44
610.685	51.41
611.02	51.2
611.355	51.15
611.689	50.71
612.024	50.82
612.359	50.99
612.694	51.07
613.028	51.17
613.363	51.63
613.697	51.71
614.032	51.92
614.366	51.84
614.7	51.92
615.035	52.24
615.369	51.56
615.703	52.44
616.037	52.25
616.371	52.18
616.705	52.16
617.039	51.93
617.373	51.91
617.707	52.05
618.041	51.95
618.375	52.47
618.709	52.7
619.042	52.87
619.376	52.71
619.71	52.27
620.043	52.17
620.377	52.5
620.71	52.74
621.043	52.69
621.377	52.55
621.71	52.72
622.043	52.98
622.376	53.12
622.709	52.66
623.043	52.9
623.376	53.06
623.709	52.98
624.041	52.69
624.374	53.17
624.707	53.25
625.04	53.03
625.373	53.27
625.705	53.43
626.038	53.44
626.37	53.76
626.703	54
627.035	54.22
627.368	53.74
627.7	53.82
628.032	53.76
628.365	53.8
628.697	53.81
629.029	53.65
629.361	53.46
629.693	53.35
630.025	53.9
630.357	53.53
630.689	54.12
631.021	54.09
631.353	54.23
631.684	53.86
632.016	54.27
632.348	54.34
632.679	54.52
633.011	54.91
633.342	54.72
633.674	55.06
634.005	54.01
634.336	54.37
634.668	54.73
634.999	54.11
635.33	54.92
635.661	54.58
635.992	54.7
636.323	54.21
636.654	54.48
636.985	54.51
637.316	54.62
637.647	54.66
637.977	54.76
638.308	54.9
638.639	55.21
638.969	55.29
639.3	55.07
639.63	55.3
639.961	55.32
640.291	55.08
640.622	55.13
640.952	55.23
641.282	55.91
641.612	55.44
641.943	55.9
642.273	55.74
642.603	55.54
642.933	55.39
643.263	55.67
643.592	55.31
643.922	55.47
644.252	55.81
644.582	55.2
644.911	55.48
645.241	55.72
645.571	55.82
645.9	56.37
646.23	56.23
646.559	56.22
646.888	55.93
647.218	56.18
647.547	55.95
647.876	56.45
648.205	55.99
648.534	56.35
648.863	55.98
649.192	56.07
649.521	56.84
649.85	56.1
650.179	56.59
650.508	56.85
650.837	56.69
651.165	56.82
651.494	56.19
651.822	56.79
652.151	56.76
652.479	56.71
652.808	56.32
653.136	56.98
653.465	56.85
653.793	56.58
654.121	56.95
654.449	56.97
654.777	56.74
655.105	57.22
655.433	57.13
655.761	57.22
656.089	57.5
656.417	57.55
656.745	56.92
657.073	57.36
657.4	57.23
657.728	57.44
658.056	57.16
658.383	58.25
658.711	57.02
659.038	57.42
659.365	57.19
659.693	56.94
660.02	57.64
660.347	57.85
660.674	57.76
661.001	57.25
661.329	56.87
661.656	57.75
661.982	57.81
662.309	57.75
662.636	57.48
662.963	57.63
663.29	57.43
663.616	58.35
663.943	57.96
664.27	58.41
664.596	59.01
664.923	57.97
665.249	58.21
665.576	57.49
665.902	58.21
666.228	58.01
666.554	58.43
666.881	58.55
667.207	57.98
667.533	57.75
667.859	58.92
668.185	59.54
668.511	58.94
668.837	58.56
