Data from 0157_forehead_Reflection__2__63.txt Node

Date: Fri Sep 22 20:48:50 CDT 2023
User: ToomeyLab
Spectrometer: FLMS14357
Trigger mode: 0
Integration Time (sec): 1.000000E-2
Scans to average: 100
Electric dark correction enabled: true
Nonlinearity correction enabled: false
Boxcar width: 0
XAxis mode: Wavelengths
Number of Pixels in Spectrum: 2048
>>>>>Begin Spectral Data<<<<<
189.047	64.81
189.435	64.81
189.823	64.81
190.211	1.12
190.599	606.65
190.987	29.36
191.375	684.29
191.763	0.9
192.151	497.53
192.538	-55.95
192.926	4.53
193.314	5393.75
193.702	33.02
194.089	54.82
194.477	39.71
194.864	230.27
195.252	93.39
195.639	18.82
196.027	137.82
196.414	-45.83
196.801	-84
197.189	174.79
197.576	144.53
197.963	119.32
198.351	31.58
198.738	61.19
199.125	71.34
199.512	106.3
199.899	66.85
200.286	76.6
200.673	33.77
201.06	58.09
201.447	45.79
201.833	-71.57
202.22	44.03
202.607	74.9
202.994	69.22
203.38	49.71
203.767	59.53
204.154	72.77
204.54	55.52
204.927	37.7
205.313	48.2
205.699	68.61
206.086	60.13
206.472	73.63
206.858	32.58
207.245	31.09
207.631	69.34
208.017	53.02
208.403	33.78
208.789	43.53
209.175	51.73
209.561	38.09
209.947	46.53
210.333	45.65
210.719	55.88
211.105	52.97
211.491	55.64
211.876	67.51
212.262	58.75
212.648	82.94
213.034	61.38
213.419	20.5
213.805	31.33
214.19	18.36
214.576	46.02
214.961	51.3
215.346	51.37
215.732	53.55
216.117	42.59
216.502	60.21
216.888	61.19
217.273	57.82
217.658	19.59
218.043	37.16
218.428	64.01
218.813	31.53
219.198	35.12
219.583	20.38
219.968	15.67
220.353	48.83
220.738	16.41
221.122	45.38
221.507	8.83
221.892	21.72
222.276	32.8
222.661	3.67
223.046	44.42
223.43	34.03
223.815	18.29
224.199	18.23
224.583	30.21
224.968	22.61
225.352	17.17
225.736	19.1
226.121	14.65
226.505	13.54
226.889	15.67
227.273	12.1
227.657	14.76
228.041	6.44
228.425	17.88
228.809	10.06
229.193	8.67
229.577	14.45
229.961	10.14
230.344	10.3
230.728	6.48
231.112	8.86
231.495	7.89
231.879	8.39
232.263	7.39
232.646	8.78
233.03	9.12
233.413	9.01
233.797	9.21
234.18	10.03
234.563	10.52
234.946	12.13
235.33	7.48
235.713	7.58
236.096	9.65
236.479	9.45
236.862	10.61
237.245	8.4
237.628	11.26
238.011	8.69
238.394	9.25
238.777	10.84
239.16	10.29
239.543	9.06
239.925	9.9
240.308	10.11
240.691	8.28
241.073	10.66
241.456	8.94
241.838	8.19
242.221	9.57
242.603	8.35
242.986	8.5
243.368	7.87
243.75	9.31
244.133	8.29
244.515	7.84
244.897	7.56
245.279	7.88
245.661	7.56
246.043	8.49
246.425	7.57
246.807	9.37
247.189	7.68
247.571	8.07
247.953	8.43
248.335	8.13
248.717	7.71
249.098	7.64
249.48	7.37
249.862	7.48
250.243	7.77
250.625	7.95
251.006	7.24
251.388	7.92
251.769	8.14
252.151	8.46
252.532	7.9
252.913	8.1
253.295	9.81
253.676	7.86
254.057	7.84
254.438	8.05
254.819	8.03
255.2	8.7
255.581	8.56
255.962	9.27
256.343	8.32
256.724	7.88
257.105	9.77
257.486	7.99
257.867	8.8
258.247	8.85
258.628	9.29
259.009	8.96
259.389	7.47
259.77	8.31
260.15	8.95
260.531	7.45
260.911	7.34
261.292	7.76
261.672	6.94
262.052	7.2
262.432	7.16
262.813	7.48
263.193	7.14
263.573	8.42
263.953	7.94
264.333	7.68
264.713	7.73
265.093	8.04
265.473	7.04
265.853	7.86
266.233	7.93
266.612	7.85
266.992	8.11
267.372	7.9
267.752	7.82
268.131	7.39
268.511	7.54
268.89	7.86
269.27	7.35
269.649	7.37
270.029	7.65
270.408	7.52
270.787	6.82
271.167	7.03
271.546	7.62
271.925	7.51
272.304	7.25
272.683	7.98
273.062	7.3
273.441	7.51
273.82	7.59
274.199	7.11
274.578	7.39
274.957	7.47
275.336	7.06
275.715	7
276.093	7.42
276.472	7.25
276.851	7.29
277.229	7.08
277.608	8.25
277.986	7.26
278.365	7.48
278.743	7.57
279.122	7.52
279.5	7.66
279.878	7.04
280.257	7.86
280.635	7.25
281.013	7.78
281.391	6.45
281.769	7.57
282.147	7.84
282.525	7.07
282.903	8.29
283.281	7.22
283.659	7.67
284.037	6.98
284.415	7.68
284.792	7.21
285.17	7.38
285.548	7.31
285.925	7.05
286.303	7.09
286.68	7.37
287.058	7.31
287.435	7.09
287.813	7.3
288.19	7.04
288.567	7.47
288.945	7.18
289.322	7.39
289.699	7.61
290.076	7.52
290.453	7.76
290.83	7.22
291.207	7.68
291.584	7.3
291.961	7.04
292.338	7.6
292.715	7.37
293.092	7.48
293.469	8.12
293.845	7.67
294.222	8.22
294.599	7.98
294.975	8.54
295.352	8.05
295.728	8.21
296.105	8.14
296.481	8.15
296.858	7.97
297.234	8.23
297.61	7.95
297.986	8.63
298.363	8.34
298.739	8.09
299.115	8.34
299.491	7.9
299.867	8.15
300.243	8.02
300.619	8.48
300.995	8.3
301.371	8.27
301.746	8.69
302.122	8.9
302.498	8.36
302.874	8.71
303.249	8.72
303.625	8.48
304	9.09
304.376	8.92
304.751	9.07
305.127	9.11
305.502	9.04
305.878	9.45
306.253	8.82
306.628	8.87
307.003	9.19
307.378	8.92
307.754	9.31
308.129	9.11
308.504	9.32
308.879	9.58
309.254	9.68
309.629	9.69
310.003	10.22
310.378	9.65
310.753	9.47
311.128	9.63
311.502	9.78
311.877	9.41
312.252	9.82
312.626	9.82
313.001	9.96
313.375	9.87
313.75	10.1
314.124	9.99
314.498	9.86
314.873	10.03
315.247	10.38
315.621	10.42
315.995	9.9
316.369	10.25
316.743	10.41
317.117	10.34
317.491	10.96
317.865	10.19
318.239	10.94
318.613	11.17
318.987	10.81
319.361	11.08
319.734	10.67
320.108	11.19
320.482	10.51
320.855	10.55
321.229	10.88
321.602	11.12
321.976	10.72
322.349	11.28
322.723	11.84
323.096	11.18
323.469	11.44
323.843	11.25
324.216	11.33
324.589	11.43
324.962	11.4
325.335	11.16
325.708	11.18
326.081	12.03
326.454	10.84
326.827	11.46
327.2	11.19
327.573	12.37
327.945	11.76
328.318	11.59
328.691	11.68
329.063	11.73
329.436	12.16
329.809	12.05
330.181	12.24
330.553	12.48
330.926	12.11
331.298	12.37
331.671	12.35
332.043	11.8
332.415	12
332.787	12.74
333.159	12.1
333.532	12.22
333.904	12.3
334.276	12.21
334.648	11.92
335.02	12.47
335.391	12.36
335.763	12.68
336.135	12.9
336.507	13.24
336.879	12.49
337.25	13.04
337.622	12.81
337.993	12.71
338.365	13.16
338.736	12.88
339.108	13.02
339.479	13.09
339.851	12.95
340.222	13.07
340.593	13.05
340.964	13.06
341.336	13.33
341.707	12.83
342.078	13.23
342.449	13.45
342.82	13.79
343.191	12.69
343.562	13.42
343.933	13.32
344.303	13.42
344.674	13.68
345.045	13.46
345.416	14.08
345.786	13.66
346.157	13.65
346.527	13.8
346.898	13.98
347.268	13.79
347.639	13.62
348.009	14.42
348.38	13.97
348.75	13.94
349.12	14.12
349.49	14.13
349.861	14.08
350.231	14.44
350.601	14.18
350.971	14.13
351.341	14.01
351.711	14.4
352.081	13.99
352.45	14.37
352.82	14.76
353.19	14.81
353.56	14.77
353.929	15.15
354.299	14.72
354.669	14.45
355.038	14.76
355.408	14.4
355.777	15.23
356.147	15.05
356.516	15.15
356.885	14.7
357.254	15.19
357.624	14.82
357.993	15.58
358.362	14.87
358.731	14.91
359.1	14.97
359.469	15.7
359.838	14.94
360.207	14.84
360.576	15.54
360.945	15.68
361.314	15.31
361.682	15.54
362.051	15.53
362.42	15.91
362.788	15.48
363.157	15.72
363.525	15.78
363.894	15.54
364.262	15.6
364.631	15.9
364.999	15.61
365.367	15.76
365.735	15.71
366.104	16.16
366.472	16.15
366.84	16.03
367.208	16.61
367.576	16.26
367.944	16.36
368.312	16.58
368.68	16.29
369.048	16.71
369.416	16.87
369.783	16.44
370.151	16.57
370.519	16.55
370.886	17.28
371.254	16.88
371.621	16.86
371.989	17.11
372.356	16.94
372.724	17.09
373.091	17.24
373.458	17.42
373.826	17.24
374.193	17.4
374.56	17.14
374.927	17.35
375.294	17.16
375.661	17.2
376.028	17.45
376.395	17.83
376.762	17.48
377.129	17.7
377.496	18.16
377.863	17.77
378.229	17.95
378.596	17.65
378.963	17.89
379.329	17.96
379.696	18.36
380.062	17.83
380.429	17.83
380.795	18.18
381.161	18.25
381.528	18.32
381.894	17.91
382.26	18.44
382.626	18.51
382.993	18.52
383.359	18.22
383.725	18.54
384.091	18.94
384.457	18.46
384.823	18.64
385.188	18.5
385.554	19.06
385.92	19.44
386.286	18.98
386.651	19.25
387.017	19.09
387.383	19.27
387.748	19.27
388.114	18.96
388.479	19.6
388.845	19.15
389.21	19.23
389.575	19.69
389.94	19.23
390.306	19.41
390.671	19.98
391.036	19.44
391.401	19.73
391.766	19.82
392.131	20.1
392.496	19.9
392.861	20.1
393.226	20.04
393.591	20.14
393.956	20.02
394.32	19.91
394.685	20.04
395.05	20.34
395.414	20.32
395.779	20.47
396.143	20.45
396.508	20.29
396.872	20.61
397.236	20.57
397.601	20.29
397.965	20.87
398.329	20.69
398.694	20.54
399.058	21.15
399.422	20.72
399.786	21.07
400.15	21.14
400.514	21.17
400.878	21.04
401.242	21.08
401.605	21.08
401.969	21
402.333	21.37
402.697	21.57
403.06	21.38
403.424	21.5
403.787	21.6
404.151	21.57
404.514	21.88
404.878	21.95
405.241	21.73
405.604	21.76
405.968	21.95
406.331	21.75
406.694	21.75
407.057	21.88
407.42	22.14
407.783	21.93
408.146	21.93
408.509	22.24
408.872	22.18
409.235	22.1
409.598	22.38
409.961	22.57
410.323	22.48
410.686	22.73
411.049	22.83
411.411	22.89
411.774	22.5
412.136	22.57
412.499	22.65
412.861	22.74
413.223	23.03
413.586	22.79
413.948	22.99
414.31	22.98
414.672	23.19
415.035	23.11
415.397	23.21
415.759	23.68
416.121	23.27
416.483	23.07
416.845	23.18
417.206	23.42
417.568	23.35
417.93	23.73
418.292	23.68
418.653	23.38
419.015	23.56
419.377	23.72
419.738	23.86
420.1	23.49
420.461	23.46
420.822	23.71
421.184	23.54
421.545	23.6
421.906	23.77
422.267	23.84
422.629	23.87
422.99	23.89
423.351	23.69
423.712	23.65
424.073	23.83
424.434	24.01
424.795	24.04
425.155	24.28
425.516	24.08
425.877	24.12
426.238	24.04
426.598	24.23
426.959	24.23
427.32	24.33
427.68	24.54
428.041	24.41
428.401	24.94
428.761	24.88
429.122	24.9
429.482	25.23
429.842	25.11
430.202	25.35
430.563	25.44
430.923	25.43
431.283	25.51
431.643	25.63
432.003	25.65
432.363	25.49
432.722	25.66
433.082	25.94
433.442	25.55
433.802	25.88
434.161	25.74
434.521	25.97
434.881	25.71
435.24	25.78
435.6	25.85
435.959	25.66
436.319	25.95
436.678	26.04
437.037	26.18
437.396	26.22
437.756	26.5
438.115	26.15
438.474	26.67
438.833	26.62
439.192	26.65
439.551	26.6
439.91	26.84
440.269	26.79
440.628	26.65
440.987	26.58
441.345	26.69
441.704	26.81
442.063	26.75
442.421	26.75
442.78	26.76
443.138	26.91
443.497	26.91
443.855	27.02
444.214	26.84
444.572	27.37
444.93	27.42
445.288	27.52
445.647	27.59
446.005	27.51
446.363	27.57
446.721	27.55
447.079	27.42
447.437	27.45
447.795	27.48
448.153	27.41
448.51	27.27
448.868	27.31
449.226	27.54
449.584	27.59
449.941	27.65
450.299	27.95
450.656	27.89
451.014	28.16
451.371	28.22
451.729	28.26
452.086	28.3
452.443	28.51
452.801	28.63
453.158	28.72
453.515	28.64
453.872	28.48
454.229	28.7
454.586	28.75
454.943	28.75
455.3	28.81
455.657	28.87
456.014	29.01
456.371	29.19
456.727	29.11
457.084	29.06
457.441	29.18
457.797	29.22
458.154	29.43
458.51	29.6
458.867	29.22
459.223	29.38
459.58	29.52
459.936	29.75
460.292	29.67
460.648	29.75
461.005	29.57
461.361	29.53
461.717	29.48
462.073	29.29
462.429	29.11
462.785	29.45
463.141	29.6
463.496	29.91
463.852	29.98
464.208	30.18
464.564	30.47
464.919	30.37
465.275	30.43
465.631	30.67
465.986	30.68
466.342	30.69
466.697	30.58
467.052	30.66
467.408	30.72
467.763	30.94
468.118	30.86
468.473	30.82
468.829	30.86
469.184	31.04
469.539	30.95
469.894	31.05
470.249	31.11
470.603	31
470.958	30.98
471.313	31.18
471.668	31.26
472.023	31.43
472.377	31.48
472.732	31.43
473.086	31.57
473.441	31.55
473.795	31.75
474.15	31.84
474.504	31.74
474.859	31.77
475.213	31.67
475.567	31.65
475.921	32.16
476.275	31.88
476.63	32.1
476.984	32.19
477.338	32.34
477.692	32.25
478.045	32.36
478.399	32.47
478.753	32.36
479.107	32.25
479.461	32.26
479.814	32.43
480.168	32.65
480.521	32.63
480.875	32.59
481.228	32.71
481.582	32.5
481.935	32.53
482.289	32.62
482.642	32.48
482.995	32.6
483.348	32.82
483.701	32.93
484.055	32.61
484.408	32.65
484.761	32.58
485.114	32.56
485.466	32.17
485.819	31.93
486.172	31.95
486.525	32.14
486.878	32.08
487.23	32.22
487.583	32.46
487.936	32.68
488.288	32.74
488.641	33.06
488.993	32.92
489.345	32.74
489.698	32.59
490.05	32.63
490.402	32.67
490.754	32.84
491.107	32.9
491.459	33.14
491.811	33.46
492.163	33.64
492.515	33.79
492.866	33.76
493.218	33.61
493.57	33.47
493.922	33.19
494.274	33.32
494.625	33.51
494.977	33.7
495.328	33.91
495.68	34.14
496.031	34.36
496.383	34.73
496.734	34.61
497.086	34.67
497.437	34.74
497.788	34.99
498.139	34.85
498.49	34.89
498.842	34.95
499.193	34.72
499.544	34.8
499.894	34.96
500.245	34.94
500.596	35.31
500.947	35.1
501.298	35.13
501.648	35.41
501.999	35.58
502.35	35.68
502.7	35.69
503.051	35.83
503.401	35.57
503.752	35.86
504.102	36.03
504.452	35.91
504.803	36.03
505.153	36.02
505.503	36.25
505.853	36.47
506.203	36.34
506.553	36.2
506.903	36.06
507.253	36.34
507.603	36.18
507.953	36.37
508.303	36.54
508.652	36.55
509.002	36.68
509.352	36.58
509.701	36.53
510.051	36.79
510.4	36.66
510.75	36.56
511.099	36.41
511.449	36.56
511.798	36.66
512.147	36.58
512.496	36.8
512.846	36.79
513.195	36.9
513.544	37.22
513.893	37.11
514.242	37.02
514.591	37.16
514.939	37
515.288	37.1
515.637	37.31
515.986	37.38
516.334	37.46
516.683	37.56
517.032	37.8
517.38	37.77
517.729	37.93
518.077	37.96
518.426	37.71
518.774	37.96
519.122	38.02
519.47	37.85
519.819	38.01
520.167	37.73
520.515	37.7
520.863	37.58
521.211	37.68
521.559	37.86
521.907	37.81
522.255	38.2
522.602	38.08
522.95	38.32
523.298	38.5
523.645	38.56
523.993	38.46
524.341	38.57
524.688	38.78
525.036	38.74
525.383	38.67
525.73	38.92
526.078	38.83
526.425	38.84
526.772	38.95
527.119	39.07
527.466	38.7
527.814	38.6
528.161	38.67
528.508	38.84
528.854	38.67
529.201	39.1
529.548	39.06
529.895	38.8
530.242	38.69
530.588	38.33
530.935	38.41
531.282	38.58
531.628	38.67
531.975	38.58
532.321	38.83
532.667	39.02
533.014	39.34
533.36	39.42
533.706	39.64
534.052	39.58
534.399	39.73
534.745	39.81
535.091	39.54
535.437	39.14
535.783	39.37
536.129	39.37
536.474	39.69
536.82	39.86
537.166	40.11
537.512	40.21
537.857	40.62
538.203	40.41
538.549	40.28
538.894	40.26
539.239	40.18
539.585	40.18
539.93	40.58
540.276	40.55
540.621	40.9
540.966	41.14
541.311	41.24
541.656	40.93
542.001	41.11
542.346	41.2
542.691	40.9
543.036	40.87
543.381	40.45
543.726	40.27
544.071	40.35
544.415	40.5
544.76	40.7
545.105	40.78
545.449	41.11
545.794	41.16
546.138	41.38
546.483	41.48
546.827	41.38
547.171	41.57
547.516	41.79
547.86	41.93
548.204	41.79
548.548	41.88
548.892	41.83
549.236	41.62
549.58	41.79
549.924	42.05
550.268	42.21
550.612	42.41
550.956	42.56
551.3	42.49
551.643	42.68
551.987	42.71
552.33	42.86
552.674	43
553.017	43.06
553.361	43.14
553.704	43.11
554.048	43.29
554.391	43.04
554.734	42.9
555.077	42.92
555.42	42.91
555.764	43.16
556.107	43.33
556.45	43.01
556.793	43.57
557.135	43.42
557.478	43.32
557.821	43.69
558.164	43.74
558.507	43.89
558.849	44.04
559.192	44.05
559.534	43.93
559.877	43.86
560.219	44.19
560.562	44.12
560.904	44.2
561.246	44.34
561.589	44.58
561.931	44.25
562.273	44.47
562.615	44.32
562.957	44.33
563.299	44.32
563.641	44.58
563.983	44.51
564.325	44.7
564.667	44.71
565.008	44.72
565.35	44.56
565.692	44.95
566.033	44.77
566.375	44.86
566.716	45.03
567.058	45.17
567.399	45.2
567.741	45.1
568.082	44.92
568.423	44.97
568.764	45.01
569.105	44.91
569.447	45.16
569.788	45.02
570.129	45.35
570.47	45.61
570.811	45.46
571.151	45.69
571.492	45.66
571.833	45.56
572.174	45.72
572.514	45.7
572.855	45.56
573.195	45.73
573.536	45.68
573.876	45.76
574.217	45.88
574.557	45.86
574.898	45.81
575.238	45.94
575.578	46.03
575.918	46.14
576.258	46.02
576.598	46.16
576.938	46.25
577.278	46.19
577.618	46.18
577.958	46.37
578.298	46.25
578.638	46.39
578.977	46.4
579.317	46.71
579.657	46.68
579.996	46.69
580.336	46.48
580.675	46.79
581.014	46.93
581.354	46.95
581.693	47.21
582.032	47.38
582.372	47.26
582.711	47.29
583.05	47.33
583.389	47.23
583.728	47.14
584.067	47.56
584.406	47.26
584.745	47.67
585.083	47.74
585.422	47.92
585.761	47.86
586.1	47.5
586.438	47.67
586.777	47.77
587.115	48.06
587.454	47.97
587.792	48.31
588.13	47.61
588.469	47.96
588.807	48.25
589.145	48.35
589.483	47.97
589.821	48.33
590.159	48.03
590.497	48.22
590.835	48.32
591.173	48.31
591.511	48.3
591.849	48.65
592.187	48.41
592.524	48.37
592.862	48.28
593.2	48.86
593.537	48.39
593.875	48.9
594.212	48.72
594.55	49.27
594.887	48.73
595.224	48.77
595.561	49.22
595.899	49.22
596.236	49.15
596.573	49.18
596.91	49.09
597.247	49.21
597.584	49.34
597.921	49.58
598.258	49.18
598.594	49.36
598.931	49.07
599.268	49.17
599.604	49.08
599.941	49.63
600.277	49.24
600.614	49.46
600.95	49.49
601.287	49.83
601.623	49.77
601.959	50.07
602.296	50.13
602.632	49.84
602.968	50.19
603.304	50.01
603.64	50.06
603.976	50.08
604.312	50.23
604.648	50.06
604.984	49.92
605.319	50.19
605.655	49.95
605.991	49.89
606.326	50.31
606.662	50.31
606.998	50.32
607.333	50.14
607.668	50.3
608.004	50.24
608.339	50.4
608.674	50.4
609.01	50.81
609.345	50.78
609.68	50.97
610.015	50.97
610.35	51.05
610.685	50.84
611.02	51.14
611.355	50.86
611.689	50.95
612.024	50.9
612.359	50.94
612.694	50.75
613.028	51.02
613.363	51.28
613.697	51.23
614.032	51.25
614.366	51.41
614.7	51.6
615.035	52.08
615.369	51.49
615.703	51.62
616.037	51.74
616.371	51.81
616.705	52
617.039	52.12
617.373	51.77
617.707	52.22
618.041	51.69
618.375	52.32
618.709	51.95
619.042	52.28
619.376	52.24
619.71	52.09
620.043	51.93
620.377	52.59
620.71	52.37
621.043	52.11
621.377	52.53
621.71	52.41
622.043	52.27
622.376	52.45
622.709	52.77
623.043	52.81
623.376	52.53
623.709	52.55
624.041	53.34
624.374	52.81
624.707	52.72
625.04	53.09
625.373	52.93
625.705	53.21
626.038	53.15
626.37	53.37
626.703	53.31
627.035	53.2
627.368	53.31
627.7	53.23
628.032	53.39
628.365	52.87
628.697	53.34
629.029	52.75
629.361	53.1
629.693	53.16
630.025	53.46
630.357	53.16
630.689	53.27
631.021	53.1
631.353	53.52
631.684	53.46
632.016	53.44
632.348	53.47
632.679	53.66
633.011	53.74
633.342	53.83
633.674	53.59
634.005	53.38
634.336	54.21
634.668	53.85
634.999	53.63
635.33	53.97
635.661	53.86
635.992	54.35
636.323	53.48
636.654	53.92
636.985	53.73
637.316	54.2
637.647	53.94
637.977	53.95
638.308	54.19
638.639	54.6
638.969	54.5
639.3	54
639.63	54.43
639.961	54.6
640.291	54.64
640.622	54.13
640.952	54.52
641.282	54.56
641.612	54.63
641.943	55.09
642.273	54.43
642.603	54.78
642.933	54.72
643.263	55.21
643.592	54.84
643.922	55.28
644.252	54.98
644.582	55.65
644.911	54.48
645.241	55.46
645.571	54.97
645.9	54.86
646.23	55.41
646.559	55.35
646.888	55.57
647.218	55.4
647.547	55.43
647.876	55.41
648.205	55.12
648.534	55.71
648.863	55.82
649.192	55.4
649.521	55.65
649.85	55.54
650.179	55.13
650.508	56.08
650.837	55.46
651.165	56.3
651.494	55.71
651.822	55.73
652.151	55.96
652.479	55.82
652.808	56.05
653.136	55.89
653.465	55.52
653.793	56.2
654.121	56.4
654.449	55.57
654.777	56.19
655.105	56.26
655.433	55.88
655.761	56.2
656.089	56.54
656.417	56.37
656.745	55.9
657.073	56.23
657.4	56.67
657.728	56.14
658.056	56.87
658.383	56.78
658.711	56.25
659.038	56.86
659.365	56.92
659.693	55.71
660.02	56.9
660.347	57.31
660.674	56.15
661.001	56.75
661.329	56.3
661.656	56.74
661.982	56.68
662.309	56.8
662.636	56.7
662.963	56.65
663.29	56.69
663.616	56.9
663.943	57.28
664.27	56.54
664.596	57.6
664.923	56.31
665.249	57.01
665.576	56.69
665.902	57.19
666.228	56.88
666.554	57.24
666.881	58.26
667.207	57.16
667.533	57.07
667.859	57.82
668.185	57.98
668.511	58.28
