Data from 0157_crown_Reflection__2__58.txt Node

Date: Fri Sep 22 20:47:16 CDT 2023
User: ToomeyLab
Spectrometer: FLMS14357
Trigger mode: 0
Integration Time (sec): 1.000000E-2
Scans to average: 100
Electric dark correction enabled: true
Nonlinearity correction enabled: false
Boxcar width: 0
XAxis mode: Wavelengths
Number of Pixels in Spectrum: 2048
>>>>>Begin Spectral Data<<<<<
189.047	-42.91
189.435	-42.91
189.823	-42.91
190.211	82.24
190.599	106.85
190.987	2.35
191.375	140.38
191.763	-30.15
192.151	356.91
192.538	156.38
192.926	27.02
193.314	10437.5
193.702	45.25
194.089	67.64
194.477	145.17
194.864	160.54
195.252	68.69
195.639	23.43
196.027	67.86
196.414	70.38
196.801	-50.57
197.189	106.25
197.576	387.28
197.963	-83.18
198.351	38.35
198.738	-6.87
199.125	14.52
199.512	27.01
199.899	38.98
200.286	52.69
200.673	-13.77
201.06	15.22
201.447	9.21
201.833	-89.92
202.22	33.16
202.607	43.43
202.994	20.23
203.38	-14.63
203.767	23.53
204.154	41.81
204.54	20.97
204.927	3.93
205.313	46.74
205.699	43.09
206.086	60.31
206.472	51.36
206.858	-0.79
207.245	-14.3
207.631	13.93
208.017	-14.4
208.403	16.07
208.789	7.8
209.175	29.24
209.561	50.97
209.947	27.02
210.333	34.56
210.719	3.98
211.105	24.74
211.491	9.27
211.876	27.14
212.262	38.02
212.648	57.06
213.034	44.95
213.419	12.95
213.805	-8.66
214.19	24.73
214.576	7.63
214.961	16.66
215.346	8.61
215.732	19.93
216.117	3.32
216.502	40.02
216.888	23.5
217.273	4.62
217.658	-21.32
218.043	0.52
218.428	25.31
218.813	-28.51
219.198	21.47
219.583	23.22
219.968	4.82
220.353	28.86
220.738	8.4
221.122	2.41
221.507	2.59
221.892	-2.05
222.276	21.03
222.661	-34.31
223.046	32.29
223.43	22.59
223.815	3.27
224.199	4.86
224.583	15.7
224.968	17.42
225.352	-5.12
225.736	10.05
226.121	11.86
226.505	12.78
226.889	4.29
227.273	10.83
227.657	4.77
228.041	3.64
228.425	12.24
228.809	4.82
229.193	5.97
229.577	6.8
229.961	4.13
230.344	6.43
230.728	5.16
231.112	5.15
231.495	4
231.879	4.91
232.263	4.51
232.646	4.02
233.03	4.73
233.413	5.38
233.797	5.36
234.18	6.43
234.563	8.55
234.946	4.5
235.33	3.27
235.713	3.87
236.096	4.6
236.479	3.78
236.862	5.82
237.245	4.53
237.628	6.96
238.011	6.84
238.394	4.72
238.777	5.82
239.16	5.97
239.543	7.41
239.925	4.72
240.308	5.46
240.691	6.22
241.073	4.87
241.456	6.2
241.838	4
242.221	6.5
242.603	5.11
242.986	4.64
243.368	3.92
243.75	4.48
244.133	5.03
244.515	4.54
244.897	4.23
245.279	4.27
245.661	4.28
246.043	4.44
246.425	4.01
246.807	5.5
247.189	3.84
247.571	4.6
247.953	4.71
248.335	4.24
248.717	4.65
249.098	4.21
249.48	4.05
249.862	4.22
250.243	3.93
250.625	4.3
251.006	4.07
251.388	4.51
251.769	4.61
252.151	3.74
252.532	4.93
252.913	4.23
253.295	4.82
253.676	4.45
254.057	3.96
254.438	5.06
254.819	3.18
255.2	4.01
255.581	3.89
255.962	4.24
256.343	4.36
256.724	2.9
257.105	4.32
257.486	3.66
257.867	3.84
258.247	4.01
258.628	4.65
259.009	3.38
259.389	4.15
259.77	4.42
260.15	4.45
260.531	3.65
260.911	3.49
261.292	3.68
261.672	3.41
262.052	3.62
262.432	3.77
262.813	3.78
263.193	3.71
263.573	4.51
263.953	3.78
264.333	3.58
264.713	3.67
265.093	3.57
265.473	3.77
265.853	4.19
266.233	3.66
266.612	3.61
266.992	3.9
267.372	4.19
267.752	3.59
268.131	4.15
268.511	3.63
268.89	3.93
269.27	3.29
269.649	4.31
270.029	3.47
270.408	3.7
270.787	3.53
271.167	3.38
271.546	3.66
271.925	3.09
272.304	3.72
272.683	4.23
273.062	3.69
273.441	3.58
273.82	3.79
274.199	3.8
274.578	3.89
274.957	3.44
275.336	3.74
275.715	4
276.093	3.07
276.472	3.26
276.851	3.45
277.229	3.05
277.608	4.09
277.986	2.97
278.365	3.58
278.743	3.52
279.122	4.29
279.5	4.57
279.878	3.7
280.257	3.97
280.635	3.97
281.013	3.61
281.391	2.24
281.769	3.42
282.147	3.92
282.525	3.18
282.903	3.33
283.281	3.44
283.659	3.34
284.037	3.08
284.415	3.35
284.792	3.21
285.17	3.36
285.548	4.04
285.925	3.35
286.303	3.79
286.68	3.19
287.058	3.2
287.435	3.13
287.813	3.15
288.19	2.87
288.567	3.74
288.945	2.91
289.322	3.43
289.699	3.23
290.076	3.33
290.453	3.08
290.83	2.79
291.207	3.03
291.584	2.72
291.961	3.36
292.338	3.51
292.715	3.46
293.092	3.19
293.469	3.5
293.845	2.92
294.222	2.83
294.599	3.44
294.975	3.67
295.352	3.2
295.728	3.07
296.105	3.54
296.481	3.42
296.858	3.1
297.234	3.16
297.61	3.28
297.986	3.45
298.363	3.03
298.739	3.24
299.115	3.06
299.491	3.19
299.867	3.52
300.243	3.02
300.619	3.14
300.995	3.38
301.371	3.49
301.746	3.13
302.122	3.39
302.498	2.97
302.874	2.27
303.249	3.11
303.625	2.87
304	3.27
304.376	3.03
304.751	3.13
305.127	3.16
305.502	3.16
305.878	2.96
306.253	3.05
306.628	2.88
307.003	2.78
307.378	2.99
307.754	2.83
308.129	3.51
308.504	2.54
308.879	2.67
309.254	3.17
309.629	3.65
310.003	3.38
310.378	3.54
310.753	2.87
311.128	3.1
311.502	3.37
311.877	2.47
312.252	2.98
312.626	2.89
313.001	3.07
313.375	3.15
313.75	3.34
314.124	3.44
314.498	2.72
314.873	3.08
315.247	3.14
315.621	2.82
315.995	3.23
316.369	2.77
316.743	2.62
317.117	3.38
317.491	3.64
317.865	2.53
318.239	3.06
318.613	3.48
318.987	2.99
319.361	2.84
319.734	2.86
320.108	3.2
320.482	3.28
320.855	2.77
321.229	3.27
321.602	3.15
321.976	3.31
322.349	2.72
322.723	2.97
323.096	3.29
323.469	3
323.843	3.23
324.216	3.11
324.589	3.19
324.962	2.56
325.335	3.02
325.708	3.09
326.081	3.29
326.454	2.52
326.827	3.53
327.2	2.81
327.573	3.4
327.945	2.79
328.318	2.91
328.691	3.06
329.063	2.97
329.436	3.13
329.809	2.94
330.181	3.23
330.553	2.88
330.926	3.06
331.298	3.16
331.671	3.24
332.043	2.04
332.415	2.97
332.787	3.39
333.159	3.11
333.532	2.83
333.904	2.48
334.276	2.9
334.648	3.02
335.02	2.49
335.391	3.32
335.763	3.48
336.135	3.47
336.507	3.8
336.879	2.6
337.25	2.89
337.622	3.65
337.993	3.16
338.365	3
338.736	3.06
339.108	2.92
339.479	3.2
339.851	2.74
340.222	2.84
340.593	2.73
340.964	2.57
341.336	3.16
341.707	2.86
342.078	2.85
342.449	2.96
342.82	3.13
343.191	2.48
343.562	2.85
343.933	3.14
344.303	3.09
344.674	3.14
345.045	3.23
345.416	3.29
345.786	2.79
346.157	3.18
346.527	3
346.898	2.75
347.268	2.81
347.639	2.92
348.009	2.88
348.38	3.13
348.75	3.24
349.12	2.75
349.49	3.16
349.861	2.77
350.231	2.92
350.601	3.24
350.971	3.02
351.341	2.72
351.711	3.09
352.081	3
352.45	2.94
352.82	3.12
353.19	3
353.56	2.79
353.929	3
354.299	2.76
354.669	3.02
355.038	3.18
355.408	2.87
355.777	2.6
356.147	2.94
356.516	3.36
356.885	2.95
357.254	3.44
357.624	2.7
357.993	3.13
358.362	2.89
358.731	2.89
359.1	2.94
359.469	2.66
359.838	2.94
360.207	2.81
360.576	2.97
360.945	2.6
361.314	3.4
361.682	3.07
362.051	3.46
362.42	2.97
362.788	2.81
363.157	3.12
363.525	2.78
363.894	3.14
364.262	3.06
364.631	2.96
364.999	2.85
365.367	2.99
365.735	3.12
366.104	2.86
366.472	3.2
366.84	2.8
367.208	3.29
367.576	3.23
367.944	3.06
368.312	3.25
368.68	3.09
369.048	2.88
369.416	2.92
369.783	2.94
370.151	3.07
370.519	3.32
370.886	3.1
371.254	3.33
371.621	2.84
371.989	3.1
372.356	2.94
372.724	3.41
373.091	3.1
373.458	3.19
373.826	3.09
374.193	3.3
374.56	3.29
374.927	3.31
375.294	3.07
375.661	3.03
376.028	3.38
376.395	3.35
376.762	2.96
377.129	3.08
377.496	3.14
377.863	3.39
378.229	3.16
378.596	3.12
378.963	3.12
379.329	2.96
379.696	3.47
380.062	3.17
380.429	3.23
380.795	3.17
381.161	3.1
381.528	3.1
381.894	3
382.26	3.11
382.626	2.92
382.993	3.22
383.359	2.84
383.725	3.31
384.091	3.32
384.457	3.16
384.823	3.11
385.188	3.09
385.554	3.24
385.92	3.6
386.286	3
386.651	3.44
387.017	3.33
387.383	3.07
387.748	3.05
388.114	3.01
388.479	3.1
388.845	3.16
389.21	2.92
389.575	3.65
389.94	3.35
390.306	3.38
390.671	3.61
391.036	2.88
391.401	3.16
391.766	3.04
392.131	2.98
392.496	3.2
392.861	3.19
393.226	3.37
393.591	3.4
393.956	3.28
394.32	3.3
394.685	3.38
395.05	3.61
395.414	3.39
395.779	3.26
396.143	3.17
396.508	3.15
396.872	3.21
397.236	3.3
397.601	3.01
397.965	3.41
398.329	3.24
398.694	3.22
399.058	3.42
399.422	3
399.786	3.3
400.15	3.29
400.514	3.18
400.878	3.2
401.242	3.27
401.605	3.08
401.969	3.07
402.333	3.22
402.697	3.15
403.06	3.32
403.424	3.25
403.787	3.31
404.151	3.21
404.514	3.3
404.878	3.17
405.241	3.43
405.604	3.38
405.968	3.4
406.331	3.2
406.694	3.51
407.057	2.94
407.42	3.34
407.783	3.3
408.146	3.37
408.509	3.37
408.872	3.22
409.235	3.2
409.598	3.41
409.961	3.46
410.323	3.31
410.686	3.39
411.049	3.57
411.411	3.48
411.774	3.04
412.136	3.19
412.499	3.2
412.861	3.44
413.223	3.24
413.586	3.25
413.948	3.39
414.31	3.1
414.672	3.22
415.035	3.22
415.397	3.52
415.759	3.62
416.121	3.35
416.483	3.45
416.845	3.16
417.206	3.21
417.568	3.43
417.93	3.12
418.292	3.33
418.653	3.24
419.015	3.28
419.377	3.27
419.738	3.39
420.1	3.26
420.461	3.24
420.822	3.17
421.184	3.26
421.545	3.24
421.906	3.16
422.267	3.15
422.629	3.18
422.99	3.23
423.351	3.24
423.712	3.15
424.073	3.16
424.434	3.28
424.795	3.2
425.155	3.34
425.516	3.22
425.877	3.25
426.238	3.24
426.598	3.15
426.959	3.15
427.32	3.27
427.68	3.21
428.041	3.17
428.401	3.39
428.761	3.47
429.122	3.3
429.482	3.42
429.842	3.31
430.202	3.38
430.563	3.29
430.923	3.22
431.283	3.35
431.643	3.38
432.003	3.54
432.363	3.46
432.722	3.43
433.082	3.52
433.442	3.29
433.802	3.42
434.161	3.33
434.521	3.28
434.881	3.37
435.24	3.26
435.6	3.26
435.959	3.15
436.319	3.32
436.678	3.45
437.037	3.36
437.396	3.15
437.756	3.38
438.115	3.38
438.474	3.37
438.833	3.37
439.192	3.16
439.551	3.32
439.91	3.33
440.269	3.42
440.628	3.17
440.987	3.21
441.345	3.39
441.704	3.33
442.063	3.24
442.421	3.33
442.78	3.34
443.138	3.36
443.497	3.32
443.855	3.39
444.214	3.24
444.572	3.4
444.93	3.26
445.288	3.49
445.647	3.41
446.005	3.42
446.363	3.26
446.721	3.35
447.079	3.24
447.437	3.32
447.795	3.36
448.153	3.14
448.51	3.21
448.868	3.17
449.226	3.29
449.584	3.18
449.941	3.23
450.299	3.29
450.656	3.25
451.014	3.34
451.371	3.33
451.729	3.34
452.086	3.34
452.443	3.41
452.801	3.42
453.158	3.46
453.515	3.44
453.872	3.3
454.229	3.43
454.586	3.42
454.943	3.3
455.3	3.38
455.657	3.35
456.014	3.37
456.371	3.43
456.727	3.54
457.084	3.47
457.441	3.25
457.797	3.5
458.154	3.41
458.51	3.28
458.867	3.37
459.223	3.32
459.58	3.33
459.936	3.48
460.292	3.34
460.648	3.44
461.005	3.43
461.361	3.43
461.717	3.18
462.073	3.24
462.429	3.21
462.785	3.24
463.141	3.4
463.496	3.52
463.852	3.36
464.208	3.37
464.564	3.54
464.919	3.53
465.275	3.47
465.631	3.56
465.986	3.51
466.342	3.61
466.697	3.63
467.052	3.29
467.408	3.51
467.763	3.52
468.118	3.47
468.473	3.39
468.829	3.42
469.184	3.41
469.539	3.33
469.894	3.43
470.249	3.45
470.603	3.41
470.958	3.55
471.313	3.52
471.668	3.33
472.023	3.55
472.377	3.21
472.732	3.25
473.086	3.61
473.441	3.22
473.795	3.64
474.15	3.34
474.504	3.43
474.859	3.5
475.213	3.18
475.567	3.4
475.921	3.34
476.275	3.47
476.63	3.29
476.984	3.25
477.338	3.45
477.692	3.38
478.045	3.59
478.399	3.45
478.753	3.31
479.107	3.28
479.461	3.34
479.814	3.41
480.168	3.33
480.521	3.52
480.875	3.53
481.228	3.4
481.582	3.33
481.935	3.39
482.289	3.38
482.642	3.23
482.995	3.27
483.348	3.31
483.701	3.37
484.055	3.3
484.408	3.27
484.761	3.29
485.114	3.2
485.466	3.18
485.819	3.08
486.172	3.03
486.525	3.1
486.878	3.15
487.23	3.26
487.583	3.27
487.936	3.37
488.288	3.3
488.641	3.26
488.993	3.19
489.345	3.15
489.698	3.12
490.05	3.2
490.402	3.23
490.754	3.2
491.107	3.22
491.459	3.34
491.811	3.31
492.163	3.37
492.515	3.34
492.866	3.37
493.218	3.3
493.57	3.3
493.922	3.15
494.274	3.2
494.625	3.27
494.977	3.38
495.328	3.42
495.68	3.46
496.031	3.33
496.383	3.43
496.734	3.42
497.086	3.27
497.437	3.37
497.788	3.44
498.139	3.37
498.49	3.54
498.842	3.33
499.193	3.33
499.544	3.46
499.894	3.31
500.245	3.36
500.596	3.42
500.947	3.46
501.298	3.37
501.648	3.52
501.999	3.46
502.35	3.47
502.7	3.59
503.051	3.53
503.401	3.55
503.752	3.42
504.102	3.55
504.452	3.39
504.803	3.45
505.153	3.38
505.503	3.43
505.853	3.51
506.203	3.4
506.553	3.47
506.903	3.39
507.253	3.42
507.603	3.54
507.953	3.4
508.303	3.54
508.652	3.48
509.002	3.47
509.352	3.37
509.701	3.4
510.051	3.43
510.4	3.43
510.75	3.34
511.099	3.23
511.449	3.39
511.798	3.39
512.147	3.5
512.496	3.35
512.846	3.34
513.195	3.31
513.544	3.46
513.893	3.47
514.242	3.31
514.591	3.45
514.939	3.43
515.288	3.34
515.637	3.46
515.986	3.33
516.334	3.47
516.683	3.32
517.032	3.51
517.38	3.45
517.729	3.37
518.077	3.46
518.426	3.3
518.774	3.51
519.122	3.48
519.47	3.42
519.819	3.42
520.167	3.41
520.515	3.41
520.863	3.34
521.211	3.3
521.559	3.29
521.907	3.47
522.255	3.45
522.602	3.48
522.95	3.4
523.298	3.45
523.645	3.49
523.993	3.42
524.341	3.32
524.688	3.49
525.036	3.35
525.383	3.46
525.73	3.57
526.078	3.43
526.425	3.44
526.772	3.5
527.119	3.47
527.466	3.28
527.814	3.28
528.161	3.27
528.508	3.27
528.854	3.35
529.201	3.35
529.548	3.37
529.895	3.33
530.242	3.26
530.588	3.17
530.935	3.14
531.282	3.16
531.628	3.21
531.975	3.24
532.321	3.26
532.667	3.34
533.014	3.38
533.36	3.39
533.706	3.39
534.052	3.38
534.399	3.43
534.745	3.42
535.091	3.24
535.437	3.26
535.783	3.16
536.129	3.27
536.474	3.37
536.82	3.29
537.166	3.44
537.512	3.38
537.857	3.37
538.203	3.43
538.549	3.33
538.894	3.27
539.239	3.29
539.585	3.32
539.93	3.41
540.276	3.34
540.621	3.43
540.966	3.43
541.311	3.41
541.656	3.29
542.001	3.3
542.346	3.38
542.691	3.34
543.036	3.33
543.381	3.24
543.726	3.2
544.071	3.19
544.415	3.22
544.76	3.29
545.105	3.24
545.449	3.27
545.794	3.35
546.138	3.32
546.483	3.36
546.827	3.41
547.171	3.36
547.516	3.31
547.86	3.42
548.204	3.35
548.548	3.33
548.892	3.35
549.236	3.3
549.58	3.26
549.924	3.46
550.268	3.48
550.612	3.41
550.956	3.34
551.3	3.55
551.643	3.56
551.987	3.43
552.33	3.55
552.674	3.52
553.017	3.24
553.361	3.38
553.704	3.45
554.048	3.43
554.391	3.52
554.734	3.54
555.077	3.33
555.42	3.26
555.764	3.43
556.107	3.46
556.45	3.25
556.793	3.42
557.135	3.25
557.478	3.33
557.821	3.44
558.164	3.44
558.507	3.63
558.849	3.4
559.192	3.47
559.534	3.52
559.877	3.47
560.219	3.44
560.562	3.49
560.904	3.5
561.246	3.63
561.589	3.55
561.931	3.37
562.273	3.26
562.615	3.2
562.957	3.48
563.299	3.41
563.641	3.59
563.983	3.54
564.325	3.61
564.667	3.43
565.008	3.47
565.35	3.54
565.692	3.58
566.033	3.39
566.375	3.41
566.716	3.27
567.058	3.45
567.399	3.47
567.741	3.49
568.082	3.41
568.423	3.4
568.764	3.62
569.105	3.37
569.447	3.29
569.788	3.29
570.129	3.38
570.47	3.54
570.811	3.43
571.151	3.47
571.492	3.28
571.833	3.34
572.174	3.46
572.514	3.34
572.855	3.37
573.195	3.32
573.536	3.34
573.876	3.21
574.217	3.39
574.557	3.28
574.898	3.52
575.238	3.41
575.578	3.55
575.918	3.43
576.258	3.29
576.598	3.39
576.938	3.4
577.278	3.38
577.618	3.13
577.958	3.34
578.298	3.38
578.638	3.3
578.977	3.55
579.317	3.41
579.657	3.46
579.996	3.5
580.336	3.46
580.675	3.43
581.014	3.16
581.354	3.16
581.693	3.66
582.032	3.28
582.372	3.38
582.711	3.38
583.05	3.35
583.389	3.33
583.728	3.23
584.067	3.41
584.406	3.31
584.745	3.24
585.083	3.74
585.422	3.42
585.761	3.41
586.1	3.55
586.438	3.46
586.777	3.36
587.115	3.4
587.454	3.4
587.792	3.56
588.13	3.58
588.469	3.39
588.807	3.33
589.145	3.42
589.483	3.46
589.821	3.02
590.159	3.44
590.497	3.46
590.835	3.42
591.173	3.36
591.511	3.35
591.849	3.39
592.187	3.31
592.524	3.47
592.862	3.45
593.2	3.44
593.537	3.27
593.875	3.49
594.212	3.42
594.55	3.6
594.887	3.33
595.224	3.5
595.561	3.47
595.899	3.46
596.236	3.69
596.573	3.61
596.91	3.55
597.247	3.36
597.584	3.63
597.921	3.67
598.258	3.51
598.594	3.51
598.931	3.27
599.268	3.27
599.604	3.45
599.941	3.54
600.277	3.45
600.614	3.48
600.95	3.61
601.287	3.36
601.623	3.41
601.959	3.47
602.296	3.23
602.632	3.37
602.968	3.41
603.304	3.44
603.64	3.21
603.976	3.42
604.312	3.28
604.648	3.54
604.984	3.49
605.319	3.3
605.655	3.4
605.991	3.28
606.326	3.52
606.662	3.32
606.998	3.28
607.333	3.44
607.668	3.25
608.004	3.55
608.339	3.24
608.674	3.37
609.01	3.33
609.345	3.42
609.68	3.57
610.015	3.53
610.35	3.63
610.685	3.71
611.02	3.46
611.355	3.52
611.689	3.22
612.024	3.64
612.359	3.36
612.694	3.28
613.028	3.25
613.363	3.34
613.697	3.4
614.032	3.32
614.366	3.32
614.7	3.51
615.035	3.44
615.369	3.38
615.703	3.53
616.037	3.39
616.371	3.42
616.705	3.92
617.039	3.64
617.373	3.4
617.707	3.28
618.041	3.83
618.375	3.56
618.709	3.45
619.042	3.77
619.376	3.54
619.71	3.42
620.043	3.27
620.377	3.3
620.71	3.4
621.043	3.19
621.377	3.37
621.71	3.4
622.043	3.34
622.376	3.81
622.709	3.28
623.043	3.27
623.376	3.33
623.709	3.57
624.041	3.37
624.374	3.54
624.707	3.76
625.04	3.41
625.373	3.11
625.705	3.48
626.038	3.38
626.37	3.56
626.703	3.34
627.035	3.42
627.368	3.38
627.7	3.44
628.032	3.55
628.365	3.54
628.697	3.31
629.029	3.45
629.361	3.44
629.693	3.38
630.025	3.39
630.357	3.03
630.689	3.77
631.021	3.1
631.353	3.24
631.684	3.39
632.016	3.54
632.348	3.67
632.679	3.13
633.011	3.14
633.342	3.3
633.674	3.93
634.005	3.12
634.336	3.64
634.668	3.63
634.999	3.36
635.33	3.56
635.661	3.4
635.992	2.99
636.323	3.35
636.654	3.25
636.985	3.37
637.316	3.42
637.647	3.27
637.977	3.29
638.308	3.64
638.639	3.45
638.969	3.61
639.3	3.23
639.63	3.81
639.961	3.46
640.291	3.26
640.622	3.73
640.952	3.32
641.282	3.26
641.612	3.24
641.943	3.53
642.273	3.49
642.603	3.24
642.933	3.53
643.263	2.95
643.592	3.32
643.922	3.69
644.252	3.09
644.582	3.66
644.911	3.38
645.241	3.54
645.571	3.4
645.9	3.88
646.23	3.67
646.559	3.16
646.888	3.85
647.218	3.74
647.547	3.24
647.876	3.46
648.205	3.33
648.534	3.87
648.863	3.56
649.192	2.77
649.521	3.2
649.85	3.81
650.179	3.59
650.508	3.3
650.837	3.97
651.165	3.6
651.494	3.42
651.822	3.29
652.151	3.62
652.479	3.5
652.808	3.18
653.136	3.65
653.465	3.78
653.793	3.19
654.121	3.62
654.449	3.03
654.777	3.38
655.105	3.7
655.433	3.55
655.761	3.96
656.089	3.36
656.417	3.53
656.745	3.53
657.073	3.36
657.4	4.19
657.728	3.45
658.056	3.68
658.383	3.76
658.711	3.43
659.038	3.42
659.365	3.74
659.693	3.14
660.02	3.44
660.347	3.45
660.674	3.25
661.001	3.54
661.329	3.17
661.656	3.66
661.982	3.19
662.309	3.71
662.636	3.65
662.963	3.63
663.29	3.73
663.616	3.82
663.943	3.48
664.27	3.81
664.596	3.42
664.923	3.12
665.249	3.96
665.576	3.23
665.902	3.29
666.228	3.11
666.554	3.34
666.881	4.1
667.207	3.12
667.533	2.93
667.859	3.65
668.185	3.95
668.511	4.42
668.837	3.51
669.162	3.52
669.488	3.32
669.814	3.29
670.139	3.61
670.465	4.03
670.791	3.58
671.116	3.46
671.442	3.65
671.767	2.65
672.092	4.18
672.418	4.39
672.743	3.82
673.068	3.73
673.393	3.1
673.718	3.93
674.043	3.31
674.368	3.66
674.693	3.02
675.018	3.53
675.343	3.42
675.667	3.59
675.992	3.44
676.317	3.83
676.641	3.92
676.966	3.9
677.29	3.35
677.615	3.34
677.939	4.13
678.264	3.39
678.588	4.07
678.912	3.33
679.236	3.78
679.56	4.03
679.885	3.31
680.209	4.01
680.532	3.42
680.856	3.1
681.18	3.98
681.504	3.1
681.828	3.56
682.152	3.45
682.475	3.73
682.799	3.68
683.122	3.11
683.446	3.39
683.769	3.89
684.093	4.01
684.416	4.03
684.739	3.12
685.062	4.09
685.386	3.38
685.709	3.47
686.032	3.37
686.355	3.57
686.678	4
687.001	4.06
687.324	4.02
687.646	4.11
687.969	4.72
688.292	3.38
688.614	4.18
688.937	3.27
689.26	3.15
689.582	3.79
689.904	3.87
690.227	4.19
690.549	4.07
690.871	3.42
691.194	4.38
691.516	3.13
691.838	4.08
692.16	3.39
692.482	3.74
692.804	3.3
