Data from 1710-4_crown_Reflection__2__173.txt Node

Date: Fri Sep 30 19:27:19 CDT 2022
User: ToomeyLab
Spectrometer: FLMS14357
Trigger mode: 0
Integration Time (sec): 1.000000E-2
Scans to average: 100
Electric dark correction enabled: true
Nonlinearity correction enabled: false
Boxcar width: 0
XAxis mode: Wavelengths
Number of Pixels in Spectrum: 2048
>>>>>Begin Spectral Data<<<<<
189.047	54.51
189.435	54.51
189.823	54.51
190.211	-44.32
190.599	58.23
190.987	105.2
191.375	-12.65
191.763	122.12
192.151	-60.39
192.538	-3355.1
192.926	-23.91
193.314	75.06
193.702	18.74
194.089	969.04
194.477	75.71
194.864	5.38
195.252	-450.89
195.639	67.54
196.027	153.28
196.414	49.82
196.801	169.71
197.189	241.76
197.576	212.67
197.963	16.53
198.351	1.41
198.738	-33.24
199.125	-41.22
199.512	20.45
199.899	-35.96
200.286	11.7
200.673	-83.65
201.06	-117.01
201.447	-31.04
201.833	63.3
202.22	-106.36
202.607	58.25
202.994	23.37
203.38	23.52
203.767	24.66
204.154	36.49
204.54	42.02
204.927	-47.94
205.313	10.35
205.699	11.68
206.086	42.88
206.472	31.59
206.858	12.68
207.245	-86.89
207.631	12.32
208.017	14.13
208.403	39.11
208.789	35.89
209.175	21.27
209.561	-21.29
209.947	9.69
210.333	28.15
210.719	1.5
211.105	-56.77
211.491	-0.99
211.876	16.84
212.262	10.58
212.648	25.57
213.034	1.66
213.419	-49.22
213.805	18.2
214.19	19.01
214.576	-0.95
214.961	51.93
215.346	20.91
215.732	-6.38
216.117	-64.39
216.502	-6.33
216.888	-12.57
217.273	18.27
217.658	4.19
218.043	41.9
218.428	12.57
218.813	-29.75
219.198	-21.2
219.583	-2.85
219.968	12.52
220.353	15.82
220.738	33.2
221.122	-7.52
221.507	5.99
221.892	-3.14
222.276	-28.27
222.661	-9.05
223.046	-9.62
223.43	9.04
223.815	8.76
224.199	-4.94
224.583	12.17
224.968	6.6
225.352	-4.44
225.736	6.5
226.121	11.97
226.505	9.41
226.889	7.45
227.273	6.43
227.657	1.71
228.041	2.75
228.425	4.61
228.809	5.67
229.193	4.26
229.577	4.89
229.961	4.75
230.344	5.32
230.728	5.88
231.112	5.94
231.495	4.72
231.879	5.98
232.263	5.31
232.646	5.26
233.03	4.51
233.413	3.72
233.797	0.63
234.18	2.19
234.563	5.16
234.946	3.53
235.33	2.69
235.713	1.12
236.096	5.67
236.479	4
236.862	6.59
237.245	4.51
237.628	5.02
238.011	2.9
238.394	2.87
238.777	4.58
239.16	4.76
239.543	6.18
239.925	-0.19
240.308	3.65
240.691	2.47
241.073	3.47
241.456	4.72
241.838	4.23
242.221	4.53
242.603	4.85
242.986	5.09
243.368	4.83
243.75	3.53
244.133	3.99
244.515	4.03
244.897	3.88
245.279	4.2
245.661	5.52
246.043	3.99
246.425	4.69
246.807	4.53
247.189	4.21
247.571	4.87
247.953	3.8
248.335	4.52
248.717	4.16
249.098	4.37
249.48	4.59
249.862	3.6
250.243	4.28
250.625	4.57
251.006	4.94
251.388	4.37
251.769	4.67
252.151	4.5
252.532	3.44
252.913	3.53
253.295	3.44
253.676	3.86
254.057	4.09
254.438	3.92
254.819	5.04
255.2	4.62
255.581	3.52
255.962	4.16
256.343	2.98
256.724	4.21
257.105	3.22
257.486	4.24
257.867	3.91
258.247	2.97
258.628	3.73
259.009	3.54
259.389	4.78
259.77	3.58
260.15	3.33
260.531	4.19
260.911	3.79
261.292	4.23
261.672	3.79
262.052	4.05
262.432	4.08
262.813	4.04
263.193	3.53
263.573	3.79
263.953	4.05
264.333	4.01
264.713	3.86
265.093	3.92
265.473	3.97
265.853	3.98
266.233	4.28
266.612	4.33
266.992	3.93
267.372	4.33
267.752	3.27
268.131	4.27
268.511	3.53
268.89	3.64
269.27	4.38
269.649	4.43
270.029	3.67
270.408	4.19
270.787	3.93
271.167	3.71
271.546	3.78
271.925	3.56
272.304	4.16
272.683	3.74
273.062	3.9
273.441	3.43
273.82	3.78
274.199	4.14
274.578	3.6
274.957	3.59
275.336	3.41
275.715	3.32
276.093	3.43
276.472	3.57
276.851	4.23
277.229	3.94
277.608	4
277.986	4
278.365	4.4
278.743	3.97
279.122	3
279.5	4.01
279.878	3.11
280.257	3.25
280.635	3.66
281.013	4.23
281.391	3.45
281.769	3.57
282.147	3.86
282.525	4.02
282.903	3.9
283.281	3.9
283.659	3.56
284.037	3.71
284.415	3.11
284.792	3.55
285.17	3.77
285.548	4.15
285.925	3.55
286.303	3.3
286.68	3.93
287.058	3.87
287.435	3.58
287.813	3.29
288.19	3.26
288.567	3.44
288.945	3.56
289.322	4.26
289.699	3.28
290.076	3.65
290.453	3.37
290.83	3.11
291.207	4.01
291.584	3.75
291.961	3.86
292.338	3.39
292.715	3.86
293.092	3.67
293.469	3.38
293.845	3.86
294.222	3.61
294.599	3.87
294.975	3.33
295.352	3.72
295.728	3.28
296.105	4
296.481	3.44
296.858	2.86
297.234	2.96
297.61	3.35
297.986	3.54
298.363	3.41
298.739	3.54
299.115	3.45
299.491	3.37
299.867	3.36
300.243	3.39
300.619	3.67
300.995	3.63
301.371	3.94
301.746	3.85
302.122	3.21
302.498	3
302.874	3
303.249	3.42
303.625	3.12
304	3.39
304.376	3.23
304.751	3.5
305.127	3.7
305.502	3.09
305.878	3.61
306.253	3.77
306.628	3.29
307.003	3.42
307.378	3.56
307.754	3.15
308.129	3.48
308.504	3.28
308.879	3.47
309.254	3.06
309.629	3.47
310.003	3.01
310.378	3.57
310.753	3.27
311.128	3.11
311.502	3.27
311.877	3.35
312.252	2.88
312.626	3.21
313.001	2.95
313.375	3.19
313.75	3.64
314.124	3.03
314.498	3.13
314.873	3.51
315.247	3.1
315.621	2.66
315.995	2.74
316.369	3.66
316.743	2.89
317.117	3.12
317.491	2.66
317.865	2.95
318.239	3.09
318.613	2.85
318.987	3.05
319.361	2.79
319.734	3.19
320.108	2.75
320.482	2.8
320.855	2.97
321.229	2.88
321.602	3.11
321.976	3.44
322.349	2.77
322.723	2.57
323.096	2.68
323.469	2.82
323.843	2.68
324.216	3.31
324.589	2.71
324.962	2.87
325.335	2.87
325.708	3.02
326.081	3.28
326.454	3.19
326.827	3.42
327.2	3.19
327.573	3.14
327.945	3.45
328.318	3.15
328.691	2.75
329.063	3.09
329.436	3.42
329.809	3.5
330.181	2.86
330.553	3.07
330.926	2.9
331.298	2.64
331.671	3.05
332.043	2.9
332.415	3.38
332.787	2.69
333.159	2.94
333.532	3.5
333.904	3.24
334.276	3.12
334.648	2.76
335.02	2.95
335.391	3.4
335.763	2.8
336.135	2.77
336.507	3.13
336.879	2.62
337.25	3.15
337.622	3.14
337.993	2.89
338.365	3.26
338.736	2.55
339.108	3.06
339.479	3.06
339.851	3.04
340.222	2.92
340.593	2.98
340.964	3.01
341.336	3.06
341.707	3.04
342.078	2.96
342.449	2.99
342.82	2.84
343.191	2.93
343.562	3.19
343.933	3.13
344.303	2.68
344.674	2.99
345.045	2.34
345.416	2.84
345.786	2.9
346.157	2.44
346.527	2.93
346.898	3.16
347.268	3.09
347.639	2.63
348.009	2.4
348.38	2.74
348.75	2.79
349.12	2.67
349.49	2.49
349.861	3.08
350.231	3.31
350.601	2.74
350.971	2.51
351.341	2.55
351.711	3.05
352.081	2.62
352.45	2.76
352.82	3.1
353.19	2.73
353.56	3.03
353.929	2.87
354.299	2.68
354.669	3.09
355.038	3.19
355.408	2.76
355.777	2.68
356.147	2.75
356.516	2.95
356.885	2.72
357.254	2.94
357.624	3.02
357.993	2.7
358.362	3.01
358.731	2.75
359.1	2.7
359.469	2.6
359.838	2.65
360.207	3
360.576	3.02
360.945	2.84
361.314	2.87
361.682	2.74
362.051	2.93
362.42	2.58
362.788	2.79
363.157	2.89
363.525	3.09
363.894	2.96
364.262	2.62
364.631	2.83
364.999	2.77
365.367	2.96
365.735	2.9
366.104	2.57
366.472	3.03
366.84	2.76
367.208	2.89
367.576	2.89
367.944	2.79
368.312	2.69
368.68	2.68
369.048	2.97
369.416	2.72
369.783	3.08
370.151	2.58
370.519	3.09
370.886	2.83
371.254	2.98
371.621	3.32
371.989	2.94
372.356	2.55
372.724	2.92
373.091	2.94
373.458	2.63
373.826	2.85
374.193	3.24
374.56	2.9
374.927	3.03
375.294	2.55
375.661	2.8
376.028	3.27
376.395	2.94
376.762	2.83
377.129	2.74
377.496	2.81
377.863	2.75
378.229	2.93
378.596	2.82
378.963	2.7
379.329	2.79
379.696	2.69
380.062	2.93
380.429	2.86
380.795	2.66
381.161	2.85
381.528	2.72
381.894	2.85
382.26	2.84
382.626	2.76
382.993	2.76
383.359	2.6
383.725	3.06
384.091	2.34
384.457	3.08
384.823	3.1
385.188	2.96
385.554	3.09
385.92	2.91
386.286	3.16
386.651	3.01
387.017	2.85
387.383	3.23
387.748	3.18
388.114	3.04
388.479	3.09
388.845	2.69
389.21	2.55
389.575	3.22
389.94	2.82
390.306	2.83
390.671	2.91
391.036	3.03
391.401	2.9
391.766	2.89
392.131	2.93
392.496	2.63
392.861	3.08
393.226	2.79
393.591	2.79
393.956	3.22
394.32	2.95
394.685	2.75
395.05	2.96
395.414	2.81
395.779	2.92
396.143	2.93
396.508	2.93
396.872	2.93
397.236	2.84
397.601	3.08
397.965	2.95
398.329	2.87
398.694	2.94
399.058	3.14
399.422	3.11
399.786	2.96
400.15	3.12
400.514	3.14
400.878	3.07
401.242	2.87
401.605	3.18
401.969	3.07
402.333	3.1
402.697	3.18
403.06	3.04
403.424	2.86
403.787	3.12
404.151	2.98
404.514	2.95
404.878	2.74
405.241	3.22
405.604	3.08
405.968	2.98
406.331	2.95
406.694	2.96
407.057	3
407.42	3.04
407.783	3.32
408.146	2.89
408.509	3.04
408.872	3.07
409.235	3.12
409.598	3.01
409.961	2.99
410.323	2.94
410.686	2.98
411.049	2.99
411.411	2.95
411.774	2.9
412.136	3.31
412.499	3.12
412.861	3.02
413.223	3.12
413.586	3.12
413.948	2.89
414.31	3.09
414.672	3.15
415.035	3
415.397	2.9
415.759	3.2
416.121	3.14
416.483	3
416.845	3.02
417.206	3.31
417.568	3.42
417.93	2.86
418.292	3.26
418.653	3.25
419.015	3.13
419.377	2.99
419.738	3.08
420.1	3
420.461	2.97
420.822	2.94
421.184	2.9
421.545	3.03
421.906	3.16
422.267	3.09
422.629	2.91
422.99	3.03
423.351	3.2
423.712	3.1
424.073	3.07
424.434	3.04
424.795	3.09
425.155	2.93
425.516	2.96
425.877	2.94
426.238	3.1
426.598	3.01
426.959	3.15
427.32	3.11
427.68	3.11
428.041	3.05
428.401	3.19
428.761	3.1
429.122	3.19
429.482	3.23
429.842	2.98
430.202	3.14
430.563	3.07
430.923	3.21
431.283	3.22
431.643	3.29
432.003	3.19
432.363	3.28
432.722	3.03
433.082	3.2
433.442	3.18
433.802	3.02
434.161	3.09
434.521	3.01
434.881	2.99
435.24	3.07
435.6	3.07
435.959	3.24
436.319	3.1
436.678	3.18
437.037	3.39
437.396	3.18
437.756	3.21
438.115	3.21
438.474	3.22
438.833	3.22
439.192	3.11
439.551	3.32
439.91	3.06
440.269	3.15
440.628	2.97
440.987	3.19
441.345	3.19
441.704	3.17
442.063	3.16
442.421	3.2
442.78	3.1
443.138	3.15
443.497	3.19
443.855	3.28
444.214	3.23
444.572	3.32
444.93	3.18
445.288	3.23
445.647	3.15
446.005	3.26
446.363	3.32
446.721	3.12
447.079	3.13
447.437	3.2
447.795	3.13
448.153	3.28
448.51	3.1
448.868	3.18
449.226	3.18
449.584	3.28
449.941	3.16
450.299	3.25
450.656	3.16
451.014	3.18
451.371	3.22
451.729	3.21
452.086	3.31
452.443	3.38
452.801	3.26
453.158	3.25
453.515	3.15
453.872	3.19
454.229	3.23
454.586	3.21
454.943	3.23
455.3	3.16
455.657	3.28
456.014	3.49
456.371	3.32
456.727	3.27
457.084	3.32
457.441	3.31
457.797	3.1
458.154	3.41
458.51	3.4
458.867	3.34
459.223	3.3
459.58	3.26
459.936	3.42
460.292	3.37
460.648	3.11
461.005	3.17
461.361	3.19
461.717	3.18
462.073	3.22
462.429	3.39
462.785	3.34
463.141	3.37
463.496	3.51
463.852	3.46
464.208	3.36
464.564	3.37
464.919	3.22
465.275	3.45
465.631	3.35
465.986	3.29
466.342	3.29
466.697	3.3
467.052	3.36
467.408	3.25
467.763	3.42
468.118	3.33
468.473	3.47
468.829	3.13
469.184	3.31
469.539	3.47
469.894	3.37
470.249	3.43
470.603	3.59
470.958	3.48
471.313	3.33
471.668	3.36
472.023	3.34
472.377	3.48
472.732	3.27
473.086	3.3
473.441	3.34
473.795	3.57
474.15	3.51
474.504	3.22
474.859	3.48
475.213	3.5
475.567	3.31
475.921	3.42
476.275	3.4
476.63	3.35
476.984	3.27
477.338	3.49
477.692	3.47
478.045	3.37
478.399	3.52
478.753	3.55
479.107	3.55
479.461	3.3
479.814	3.53
480.168	3.44
480.521	3.43
480.875	3.58
481.228	3.47
481.582	3.62
481.935	3.23
482.289	3.34
482.642	3.49
482.995	3.39
483.348	3.44
483.701	3.33
484.055	3.45
484.408	3.31
484.761	3.18
485.114	3.11
485.466	3.05
485.819	3.14
486.172	3.29
486.525	3.4
486.878	3.49
487.23	3.52
487.583	3.48
487.936	3.4
488.288	3.38
488.641	3.24
488.993	3.26
489.345	3.25
489.698	3.2
490.05	3.34
490.402	3.37
490.754	3.4
491.107	3.52
491.459	3.5
491.811	3.52
492.163	3.54
492.515	3.37
492.866	3.34
493.218	3.26
493.57	3.3
493.922	3.33
494.274	3.46
494.625	3.6
494.977	3.55
495.328	3.54
495.68	3.57
496.031	3.45
496.383	3.48
496.734	3.53
497.086	3.47
497.437	3.47
497.788	3.35
498.139	3.4
498.49	3.36
498.842	3.49
499.193	3.45
499.544	3.52
499.894	3.49
500.245	3.59
500.596	3.42
500.947	3.57
501.298	3.65
501.648	3.57
501.999	3.43
502.35	3.59
502.7	3.58
503.051	3.59
503.401	3.58
503.752	3.53
504.102	3.63
504.452	3.49
504.803	3.52
505.153	3.51
505.503	3.46
505.853	3.5
506.203	3.54
506.553	3.55
506.903	3.7
507.253	3.69
507.603	3.64
507.953	3.51
508.303	3.63
508.652	3.54
509.002	3.68
509.352	3.55
509.701	3.47
510.051	3.55
510.4	3.58
510.75	3.62
511.099	3.54
511.449	3.45
511.798	3.54
512.147	3.58
512.496	3.65
512.846	3.57
513.195	3.62
513.544	3.62
513.893	3.63
514.242	3.53
514.591	3.7
514.939	3.62
515.288	3.6
515.637	3.58
515.986	3.56
516.334	3.59
516.683	3.62
517.032	3.58
517.38	3.63
517.729	3.63
518.077	3.73
518.426	3.56
518.774	3.67
519.122	3.59
519.47	3.61
519.819	3.51
520.167	3.41
520.515	3.52
520.863	3.57
521.211	3.64
521.559	3.56
521.907	3.65
522.255	3.64
522.602	3.64
522.95	3.7
523.298	3.57
523.645	3.59
523.993	3.66
524.341	3.53
524.688	3.55
525.036	3.46
525.383	3.76
525.73	3.52
526.078	3.64
526.425	3.58
526.772	3.51
527.119	3.52
527.466	3.47
527.814	3.56
528.161	3.66
528.508	3.69
528.854	3.64
529.201	3.53
529.548	3.38
529.895	3.4
530.242	3.32
530.588	3.36
530.935	3.51
531.282	3.61
531.628	3.72
531.975	3.67
532.321	3.63
532.667	3.7
533.014	3.63
533.36	3.67
533.706	3.7
534.052	3.59
534.399	3.49
534.745	3.45
535.091	3.45
535.437	3.58
535.783	3.68
536.129	3.7
536.474	3.74
536.82	3.73
537.166	3.66
537.512	3.61
537.857	3.6
538.203	3.58
538.549	3.62
538.894	3.74
539.239	3.69
539.585	3.73
539.93	3.72
540.276	3.9
540.621	3.72
540.966	3.73
541.311	3.64
541.656	3.59
542.001	3.56
542.346	3.51
542.691	3.46
543.036	3.44
543.381	3.57
543.726	3.64
544.071	3.68
544.415	3.77
544.76	3.69
545.105	3.68
545.449	3.76
545.794	3.72
546.138	3.72
546.483	3.74
546.827	3.7
547.171	3.76
547.516	3.7
547.86	3.72
548.204	3.48
548.548	3.67
548.892	3.71
549.236	3.69
549.58	3.84
549.924	3.8
550.268	3.83
550.612	3.76
550.956	3.84
551.3	3.84
551.643	3.73
551.987	3.73
552.33	3.99
552.674	3.75
553.017	3.85
553.361	3.86
553.704	3.77
554.048	3.74
554.391	3.79
554.734	3.71
555.077	3.71
555.42	3.82
555.764	3.79
556.107	3.83
556.45	3.86
556.793	3.76
557.135	3.88
557.478	3.82
557.821	3.71
558.164	3.87
558.507	3.96
558.849	3.77
559.192	3.77
559.534	3.79
559.877	4.02
560.219	3.77
560.562	3.88
560.904	3.78
561.246	3.91
561.589	3.91
561.931	3.84
562.273	3.67
562.615	3.7
562.957	3.78
563.299	3.75
563.641	3.84
563.983	3.96
564.325	3.66
564.667	3.74
565.008	3.82
565.35	3.88
565.692	3.75
566.033	3.91
566.375	3.87
566.716	3.77
567.058	3.9
567.399	3.75
567.741	3.63
568.082	3.7
568.423	3.78
568.764	3.73
569.105	3.76
569.447	3.87
569.788	3.95
570.129	3.71
570.47	3.79
570.811	3.69
571.151	3.74
571.492	3.81
571.833	3.79
572.174	3.77
572.514	3.7
572.855	3.85
573.195	3.68
573.536	3.79
573.876	3.68
574.217	3.76
574.557	3.79
574.898	3.83
575.238	3.61
575.578	3.72
575.918	3.95
576.258	3.73
576.598	3.72
576.938	3.76
577.278	3.67
577.618	3.88
577.958	3.88
578.298	3.79
578.638	3.88
578.977	3.99
579.317	3.7
579.657	3.76
579.996	3.92
580.336	3.62
580.675	3.89
581.014	3.95
581.354	3.81
581.693	3.96
582.032	3.84
582.372	3.73
582.711	3.73
583.05	4.21
583.389	3.47
583.728	4.03
584.067	3.93
584.406	3.98
584.745	3.93
585.083	3.82
585.422	3.97
585.761	3.92
586.1	3.71
586.438	3.9
586.777	3.78
587.115	3.74
587.454	3.78
587.792	3.83
588.13	3.98
588.469	3.89
588.807	4.05
589.145	4.27
589.483	3.77
589.821	3.9
590.159	3.87
590.497	4.02
590.835	3.92
591.173	4.06
591.511	3.94
591.849	3.92
592.187	3.95
592.524	3.98
592.862	3.73
593.2	3.72
593.537	3.76
593.875	3.78
594.212	3.93
594.55	3.84
594.887	3.81
595.224	3.68
595.561	3.78
595.899	3.9
596.236	3.82
596.573	4.04
596.91	3.98
597.247	3.94
597.584	3.9
597.921	3.89
598.258	3.72
598.594	3.64
598.931	3.82
599.268	3.85
599.604	3.84
599.941	3.82
600.277	4.02
600.614	4.11
600.95	3.94
601.287	3.75
601.623	3.93
601.959	3.74
602.296	4.01
602.632	3.83
602.968	3.67
603.304	4.09
603.64	3.98
603.976	3.87
604.312	3.85
604.648	4.08
604.984	3.66
605.319	3.89
605.655	3.82
605.991	3.75
606.326	3.97
606.662	4.01
606.998	3.99
607.333	3.97
607.668	3.95
608.004	3.89
608.339	3.95
608.674	3.97
609.01	4.11
609.345	3.95
609.68	3.94
610.015	3.72
610.35	3.74
610.685	3.59
611.02	3.87
611.355	3.85
611.689	4.03
612.024	3.82
612.359	3.81
612.694	3.98
613.028	4.07
613.363	3.95
613.697	4.04
614.032	3.86
614.366	4.19
614.7	4.04
615.035	3.98
615.369	3.81
615.703	3.71
616.037	3.68
616.371	4.02
616.705	3.76
617.039	4.04
617.373	3.94
617.707	3.94
618.041	3.74
618.375	3.93
618.709	3.89
619.042	4.14
619.376	3.82
619.71	3.89
620.043	3.97
620.377	4.11
620.71	4.07
621.043	4.02
621.377	3.95
621.71	3.68
622.043	3.7
622.376	4.34
622.709	4.25
623.043	3.63
623.376	4.04
623.709	3.9
624.041	3.68
624.374	3.81
624.707	3.82
625.04	4.15
625.373	3.57
625.705	3.75
626.038	4.14
626.37	3.92
626.703	4.05
627.035	4
627.368	3.62
627.7	3.66
628.032	3.5
628.365	3.9
628.697	3.82
629.029	3.69
629.361	3.84
629.693	3.88
630.025	4.11
630.357	4.11
630.689	3.7
631.021	4.41
631.353	4.27
631.684	3.62
632.016	3.93
632.348	4.03
632.679	4.19
633.011	4
633.342	3.74
633.674	3.88
634.005	4.35
634.336	4.03
634.668	3.98
634.999	3.92
635.33	3.91
635.661	3.92
635.992	4.28
636.323	4.08
636.654	4.07
636.985	4.14
637.316	3.94
637.647	4.26
637.977	3.99
638.308	3.89
638.639	4.42
638.969	4.13
639.3	3.76
639.63	3.71
639.961	4.07
640.291	4
640.622	4.25
640.952	4.09
641.282	3.67
641.612	3.72
641.943	4.09
642.273	3.68
642.603	3.99
642.933	3.82
643.263	3.79
643.592	4.07
643.922	4.07
644.252	3.86
644.582	3.85
644.911	3.76
645.241	3.92
645.571	3.8
645.9	4.11
646.23	4.08
646.559	3.75
646.888	3.86
647.218	3.88
647.547	3.87
647.876	4.22
648.205	3.75
648.534	3.73
648.863	3.84
649.192	4.25
649.521	3.69
649.85	4.48
650.179	3.87
650.508	4.33
650.837	3.67
651.165	3.99
651.494	3.94
651.822	3.85
652.151	3.85
652.479	4.13
652.808	3.93
653.136	4.01
653.465	3.77
653.793	3.64
654.121	3.75
654.449	4.3
654.777	4.27
655.105	4.1
655.433	4.38
655.761	4.21
656.089	3.98
656.417	4.06
656.745	3.75
657.073	3.53
657.4	4.35
657.728	4.17
658.056	3.77
658.383	4.37
658.711	3.55
659.038	4.18
659.365	3.36
659.693	4.41
660.02	4.31
660.347	4.19
660.674	4.38
661.001	3.94
661.329	4.49
661.656	4.09
661.982	3.96
662.309	3.78
662.636	4.17
662.963	4.22
663.29	4.46
663.616	3.53
663.943	4.31
664.27	3.86
664.596	4.12
664.923	4.6
665.249	3.89
665.576	3.72
665.902	4.02
666.228	4.01
666.554	3.88
666.881	4.26
667.207	4.2
667.533	4.06
667.859	3.67
668.185	4.18
668.511	4.08
668.837	4.27
669.162	4.19
669.488	4.22
669.814	4.37
670.139	4.09
670.465	3.63
670.791	3.84
671.116	4.06
671.442	4.16
671.767	4
672.092	4.09
672.418	4.39
672.743	4.27
673.068	4.08
673.393	3.76
673.718	4.14
674.043	3.92
674.368	4.33
674.693	3.6
675.018	4.05
675.343	4.02
675.667	3.89
675.992	3.98
676.317	4.05
676.641	4.11
676.966	4.55
677.29	4.37
677.615	3.95
677.939	4.53
678.264	4.56
678.588	4.29
678.912	4.42
679.236	3.7
679.56	3.72
679.885	4.21
680.209	4.66
680.532	4.1
680.856	3.93
681.18	3.44
681.504	4.32
681.828	4.51
682.152	4.47
682.475	3.96
682.799	4.53
683.122	4.1
683.446	3.69
683.769	4.33
684.093	4.6
684.416	4.19
684.739	4.06
685.062	4.6
685.386	4.53
685.709	4.08
686.032	4.38
686.355	3.58
686.678	4.3
687.001	3.57
687.324	3.72
687.646	4.36
687.969	4.37
688.292	5.05
688.614	4.07
688.937	4.13
689.26	4.25
689.582	3.1
689.904	4.31
690.227	4.02
690.549	4.33
690.871	3.88
691.194	4.63
691.516	3.46
691.838	3.5
692.16	4.16
692.482	3.97
