Data from 1710-4_forehead_Reflection__4__180.txt Node

Date: Fri Sep 30 19:29:11 CDT 2022
User: ToomeyLab
Spectrometer: FLMS14357
Trigger mode: 0
Integration Time (sec): 1.000000E-2
Scans to average: 100
Electric dark correction enabled: true
Nonlinearity correction enabled: false
Boxcar width: 0
XAxis mode: Wavelengths
Number of Pixels in Spectrum: 2048
>>>>>Begin Spectral Data<<<<<
189.047	-131.2
189.435	-131.2
189.823	-131.2
190.211	-1.15
190.599	-7.03
190.987	96.89
191.375	61.21
191.763	235.48
192.151	-48.87
192.538	-7524.49
192.926	121.63
193.314	191.17
193.702	-64.27
194.089	1241.42
194.477	113.63
194.864	53.82
195.252	-416.37
195.639	62.93
196.027	-91.76
196.414	-54.69
196.801	271.82
197.189	6.07
197.576	-72.22
197.963	26.5
198.351	37.31
198.738	8.48
199.125	45.01
199.512	41.38
199.899	12.99
200.286	16.31
200.673	41.49
201.06	36.49
201.447	19.64
201.833	87.73
202.22	-6.25
202.607	126.14
202.994	21.54
203.38	70.74
203.767	45.38
204.154	47.66
204.54	31.46
204.927	-24.17
205.313	62.4
205.699	9.23
206.086	48.15
206.472	60.9
206.858	38.18
207.245	-33.04
207.631	22.7
208.017	39.91
208.403	32.2
208.789	67.27
209.175	12
209.561	26.71
209.947	44.93
210.333	36.44
210.719	35.55
211.105	19.69
211.491	16.62
211.876	43.23
212.262	23.87
212.648	16.52
213.034	65.88
213.419	6.54
213.805	21.44
214.19	28.88
214.576	17.91
214.961	69.38
215.346	74.78
215.732	28.47
216.117	41.82
216.502	34.16
216.888	23.21
217.273	36.95
217.658	36.13
218.043	42.73
218.428	29.64
218.813	25.25
219.198	29.13
219.583	49.28
219.968	5.93
220.353	28.98
220.738	55.08
221.122	12.45
221.507	19.84
221.892	17.25
222.276	12.21
222.661	15.19
223.046	10.74
223.43	25.95
223.815	21.12
224.199	18.65
224.583	22.6
224.968	16.84
225.352	7.18
225.736	13.05
226.121	21.83
226.505	16.19
226.889	8.6
227.273	2.62
227.657	4.25
228.041	3.58
228.425	7.06
228.809	14.28
229.193	2.87
229.577	5.91
229.961	4.4
230.344	3.02
230.728	4.01
231.112	4.27
231.495	3.78
231.879	4.9
232.263	6.44
232.646	5.28
233.03	4.73
233.413	3.99
233.797	2.79
234.18	3.92
234.563	8.22
234.946	4.44
235.33	4.78
235.713	4.41
236.096	4.56
236.479	3.81
236.862	4.59
237.245	4.85
237.628	5.07
238.011	4.3
238.394	2.46
238.777	5.17
239.16	4.81
239.543	6.38
239.925	2.55
240.308	2.9
240.691	3.12
241.073	5.31
241.456	4.79
241.838	4.98
242.221	4.56
242.603	5.19
242.986	4.55
243.368	4.31
243.75	3.42
244.133	4
244.515	3.65
244.897	4.31
245.279	4.06
245.661	5.4
246.043	4.56
246.425	5.58
246.807	4.89
247.189	3.81
247.571	5.32
247.953	4.11
248.335	4.57
248.717	4.08
249.098	4.27
249.48	4.45
249.862	3.86
250.243	4.09
250.625	4.34
251.006	5.15
251.388	4.15
251.769	3.79
252.151	4.19
252.532	3.94
252.913	3.36
253.295	4.65
253.676	4.59
254.057	4.82
254.438	4.86
254.819	4.2
255.2	4.21
255.581	4.63
255.962	4.71
256.343	3.74
256.724	6.32
257.105	4.03
257.486	5.08
257.867	5.29
258.247	3.48
258.628	4.37
259.009	4.88
259.389	4.92
259.77	3.86
260.15	4.26
260.531	4.96
260.911	3.75
261.292	4.56
261.672	4.07
262.052	4.14
262.432	4.35
262.813	4.8
263.193	4.82
263.573	4.91
263.953	4.7
264.333	4.46
264.713	4.24
265.093	4.59
265.473	4.8
265.853	3.72
266.233	4.55
266.612	5.55
266.992	4.46
267.372	4.56
267.752	4.05
268.131	4.61
268.511	4.16
268.89	3.57
269.27	4.83
269.649	4.85
270.029	3.68
270.408	3.85
270.787	4.99
271.167	4.59
271.546	3.89
271.925	4.47
272.304	4.68
272.683	3.97
273.062	4.15
273.441	3.53
273.82	4
274.199	4.5
274.578	4.03
274.957	4.33
275.336	4.12
275.715	3.91
276.093	3.91
276.472	3.95
276.851	4.54
277.229	4.85
277.608	4.4
277.986	3.78
278.365	4.39
278.743	4.58
279.122	3.45
279.5	4.66
279.878	3.48
280.257	3.64
280.635	4.87
281.013	4.95
281.391	4.49
281.769	4.49
282.147	3.63
282.525	4.22
282.903	3.7
283.281	4.41
283.659	4.16
284.037	4.13
284.415	3.78
284.792	4.26
285.17	4.83
285.548	4.59
285.925	4.36
286.303	3.72
286.68	4.17
287.058	4.19
287.435	4.02
287.813	4.07
288.19	3.89
288.567	3.98
288.945	3.81
289.322	4.68
289.699	4.58
290.076	4.47
290.453	4.67
290.83	4.18
291.207	4.95
291.584	4.06
291.961	4.84
292.338	4.51
292.715	4.78
293.092	4.8
293.469	4.03
293.845	4.99
294.222	5.26
294.599	5.44
294.975	4.62
295.352	5.62
295.728	4.77
296.105	5.44
296.481	5.44
296.858	4.94
297.234	4.68
297.61	5.42
297.986	5.6
298.363	4.82
298.739	5.52
299.115	5.27
299.491	5.67
299.867	5.57
300.243	5.81
300.619	5.02
300.995	5.62
301.371	5.84
301.746	6.09
302.122	6.3
302.498	5.59
302.874	5.57
303.249	6.04
303.625	5.96
304	6.02
304.376	6.03
304.751	6.59
305.127	6.74
305.502	6.37
305.878	6.34
306.253	6.7
306.628	6.57
307.003	6.87
307.378	7.27
307.754	6.75
308.129	7.02
308.504	6.98
308.879	7.05
309.254	6.77
309.629	7.16
310.003	7.4
310.378	7.59
310.753	6.85
311.128	7.23
311.502	7.61
311.877	7.28
312.252	7.56
312.626	7.43
313.001	7.63
313.375	7.57
313.75	7.84
314.124	7.85
314.498	8.01
314.873	8.58
315.247	8.06
315.621	9.04
315.995	8.14
316.369	8.99
316.743	8.44
317.117	8.92
317.491	8.31
317.865	8.81
318.239	9.18
318.613	8.63
318.987	9.18
319.361	9.2
319.734	9.36
320.108	9.34
320.482	9.34
320.855	9.59
321.229	9.34
321.602	10.01
321.976	9.46
322.349	9.59
322.723	9.72
323.096	10.18
323.469	10.6
323.843	10.53
324.216	10.81
324.589	10.79
324.962	10.24
325.335	10.8
325.708	10.49
326.081	10.68
326.454	11.26
326.827	10.73
327.2	11.05
327.573	11.04
327.945	11.07
328.318	11.19
328.691	11.32
329.063	11.02
329.436	10.86
329.809	11.51
330.181	11.05
330.553	11.81
330.926	11.66
331.298	11.42
331.671	11.37
332.043	11.77
332.415	12
332.787	12.28
333.159	12.09
333.532	12.64
333.904	12.57
334.276	12.53
334.648	12.1
335.02	12.08
335.391	12.67
335.763	12.38
336.135	12.38
336.507	13.02
336.879	12.24
337.25	12.97
337.622	12.55
337.993	12.56
338.365	13.49
338.736	12.75
339.108	13.4
339.479	13.29
339.851	13.04
340.222	13.29
340.593	13.16
340.964	13.65
341.336	13.14
341.707	13.18
342.078	13.34
342.449	13.46
342.82	13.46
343.191	13.65
343.562	13.73
343.933	13.96
344.303	13.62
344.674	14.12
345.045	13.59
345.416	14.23
345.786	13.77
346.157	13.58
346.527	13.89
346.898	14.45
347.268	14.09
347.639	14.13
348.009	14.11
348.38	14.12
348.75	14.36
349.12	14.54
349.49	14.67
349.861	14.88
350.231	14.89
350.601	14.37
350.971	14.6
351.341	14.95
351.711	15.01
352.081	14.76
352.45	14.53
352.82	14.93
353.19	14.49
353.56	15.07
353.929	15.37
354.299	15.47
354.669	14.95
355.038	15.55
355.408	15.25
355.777	15.52
356.147	15.63
356.516	15.62
356.885	15.61
357.254	15.82
357.624	15.63
357.993	15.89
358.362	15.47
358.731	15.43
359.1	15.39
359.469	15.77
359.838	15.83
360.207	15.88
360.576	16
360.945	16.06
361.314	15.8
361.682	16.17
362.051	16.24
362.42	15.91
362.788	16.14
363.157	16.38
363.525	16.42
363.894	16.23
364.262	16.21
364.631	16.58
364.999	16.61
365.367	16.35
365.735	16.81
366.104	16.48
366.472	16.67
366.84	16.76
367.208	16.92
367.576	16.86
367.944	17.12
368.312	17.09
368.68	17.15
369.048	17.08
369.416	16.89
369.783	17.4
370.151	17.43
370.519	17.07
370.886	17.13
371.254	17.17
371.621	17.89
371.989	17.74
372.356	17.28
372.724	17.53
373.091	17.53
373.458	17.2
373.826	17.64
374.193	17.91
374.56	17.85
374.927	17.87
375.294	18
375.661	18.25
376.028	18.49
376.395	18.13
376.762	18.46
377.129	17.9
377.496	18.07
377.863	18.19
378.229	17.94
378.596	18.49
378.963	18.08
379.329	17.96
379.696	18.53
380.062	18.33
380.429	18.08
380.795	18.28
381.161	18.61
381.528	18.47
381.894	18.68
382.26	18.75
382.626	18.77
382.993	18.82
383.359	18.73
383.725	18.75
384.091	18.57
384.457	19.39
384.823	19.09
385.188	19.41
385.554	19.16
385.92	19.27
386.286	19.34
386.651	19.48
387.017	19.18
387.383	19.3
387.748	19.61
388.114	19.48
388.479	19.39
388.845	19.38
389.21	19.78
389.575	19.64
389.94	19.51
390.306	19.77
390.671	19.48
391.036	19.58
391.401	19.76
391.766	19.67
392.131	19.92
392.496	19.68
392.861	20.04
393.226	19.85
393.591	19.69
393.956	19.91
394.32	20.16
394.685	19.98
395.05	19.96
395.414	20.17
395.779	20.09
396.143	20.07
396.508	20.23
396.872	20.32
397.236	20.45
397.601	20.75
397.965	20.53
398.329	20.38
398.694	20.44
399.058	20.53
399.422	20.78
399.786	20.68
400.15	20.61
400.514	20.62
400.878	20.74
401.242	20.75
401.605	21.04
401.969	20.76
402.333	20.98
402.697	21.32
403.06	20.83
403.424	21
403.787	20.96
404.151	20.89
404.514	21.12
404.878	21.22
405.241	21.38
405.604	21
405.968	21.18
406.331	21.11
406.694	21.17
407.057	21.16
407.42	21.36
407.783	21.11
408.146	21.39
408.509	21.58
408.872	21.17
409.235	21.8
409.598	21.64
409.961	21.91
410.323	21.36
410.686	21.72
411.049	21.68
411.411	21.64
411.774	21.7
412.136	21.86
412.499	22.04
412.861	21.86
413.223	21.88
413.586	21.94
413.948	22.05
414.31	22.15
414.672	22.22
415.035	22.09
415.397	21.96
415.759	22.1
416.121	22.33
416.483	21.94
416.845	22.13
417.206	22.46
417.568	22.24
417.93	22.12
418.292	22.34
418.653	22.28
419.015	22.37
419.377	22.16
419.738	22.1
420.1	22.2
420.461	22.34
420.822	22.14
421.184	22.3
421.545	22.3
421.906	22.39
422.267	22.3
422.629	22.32
422.99	22.29
423.351	22.49
423.712	22.47
424.073	22.58
424.434	22.67
424.795	22.74
425.155	22.7
425.516	22.67
425.877	22.46
426.238	22.62
426.598	22.61
426.959	22.95
427.32	23.03
427.68	23.27
428.041	23.11
428.401	23.44
428.761	23.37
429.122	23.51
429.482	23.68
429.842	23.64
430.202	23.74
430.563	23.6
430.923	23.77
431.283	23.69
431.643	24.01
432.003	24.07
432.363	23.76
432.722	23.99
433.082	23.89
433.442	24.15
433.802	23.86
434.161	23.84
434.521	23.81
434.881	23.93
435.24	23.97
435.6	23.91
435.959	24.04
436.319	24.05
436.678	24.19
437.037	24.6
437.396	24.48
437.756	24.4
438.115	24.52
438.474	24.62
438.833	24.59
439.192	24.67
439.551	24.54
439.91	24.46
440.269	24.62
440.628	24.49
440.987	24.71
441.345	24.67
441.704	24.55
442.063	24.53
442.421	24.73
442.78	24.51
443.138	24.55
443.497	24.85
443.855	24.92
444.214	25.08
444.572	25.21
444.93	25.1
445.288	25.25
445.647	25.09
446.005	25.09
446.363	25.24
446.721	25.11
447.079	25.04
447.437	24.89
447.795	24.9
448.153	24.98
448.51	24.85
448.868	25.08
449.226	25.11
449.584	25.23
449.941	25.45
450.299	25.59
450.656	25.4
451.014	25.77
451.371	25.64
451.729	25.7
452.086	25.7
452.443	25.97
452.801	25.89
453.158	25.92
453.515	25.63
453.872	26.02
454.229	25.95
454.586	25.81
454.943	25.75
455.3	25.93
455.657	26.28
456.014	26.16
456.371	26.23
456.727	26.06
457.084	26.55
457.441	26.43
457.797	26.19
458.154	26.52
458.51	26.57
458.867	26.48
459.223	26.25
459.58	26.53
459.936	26.5
460.292	26.42
460.648	26.38
461.005	26.24
461.361	26.1
461.717	26.05
462.073	26.28
462.429	26.45
462.785	26.66
463.141	26.87
463.496	26.84
463.852	26.77
464.208	26.98
464.564	27.06
464.919	26.87
465.275	27.16
465.631	27.44
465.986	27.14
466.342	27.33
466.697	27.1
467.052	27.11
467.408	27.28
467.763	27.45
468.118	27.38
468.473	27.31
468.829	27.22
469.184	27.35
469.539	27.37
469.894	27.39
470.249	27.46
470.603	27.66
470.958	27.55
471.313	27.53
471.668	27.62
472.023	27.69
472.377	27.7
472.732	27.75
473.086	27.61
473.441	27.77
473.795	27.83
474.15	27.77
474.504	27.64
474.859	27.95
475.213	27.79
475.567	27.92
475.921	27.97
476.275	28.12
476.63	28.08
476.984	28.07
477.338	28.14
477.692	28.16
478.045	28.13
478.399	28.28
478.753	28.08
479.107	28.09
479.461	28.19
479.814	28.26
480.168	28.35
480.521	28.22
480.875	28.3
481.228	28.43
481.582	28.25
481.935	28.22
482.289	28.3
482.642	28.48
482.995	28.26
483.348	28.15
483.701	28.22
484.055	28.26
484.408	27.92
484.761	27.8
485.114	27.57
485.466	27.42
485.819	27.55
486.172	27.53
486.525	27.66
486.878	27.76
487.23	28.05
487.583	28.07
487.936	28.27
488.288	28.12
488.641	27.99
488.993	27.97
489.345	27.84
489.698	27.95
490.05	28
490.402	28.11
490.754	28.25
491.107	28.43
491.459	28.54
491.811	28.71
492.163	28.81
492.515	28.67
492.866	28.48
493.218	28.32
493.57	28.28
493.922	28.31
494.274	28.49
494.625	28.83
494.977	28.86
495.328	29.03
495.68	29.22
496.031	29.42
496.383	29.38
496.734	29.66
497.086	29.55
497.437	29.57
497.788	29.39
498.139	29.42
498.49	29.45
498.842	29.42
499.193	29.44
499.544	29.47
499.894	29.66
500.245	29.65
500.596	29.64
500.947	29.9
501.298	29.78
501.648	29.77
501.999	30.02
502.35	29.9
502.7	30.09
503.051	30.1
503.401	30.24
503.752	30.06
504.102	30.16
504.452	30.11
504.803	30.21
505.153	30.06
505.503	30.08
505.853	30.07
506.203	30.01
506.553	30.21
506.903	30.13
507.253	30.33
507.603	30.41
507.953	30.35
508.303	30.46
508.652	30.25
509.002	30.44
509.352	30.42
509.701	30.44
510.051	30.37
510.4	30.42
510.75	30.26
511.099	30.3
511.449	30.45
511.798	30.39
512.147	30.44
512.496	30.58
512.846	30.7
513.195	30.66
513.544	30.6
513.893	30.5
514.242	30.74
514.591	30.65
514.939	30.79
515.288	30.95
515.637	30.94
515.986	30.86
516.334	31.02
516.683	31.03
517.032	31.1
517.38	30.97
517.729	31.14
518.077	31.1
518.426	31.2
518.774	31.17
519.122	30.88
519.47	30.77
519.819	30.8
520.167	30.68
520.515	30.66
520.863	30.75
521.211	31.08
521.559	30.91
521.907	30.97
522.255	31.01
522.602	31.34
522.95	31.28
523.298	31.46
523.645	31.28
523.993	31.52
524.341	31.46
524.688	31.51
525.036	31.4
525.383	31.55
525.73	31.47
526.078	31.67
526.425	31.48
526.772	31.36
527.119	31.17
527.466	31.2
527.814	31.22
528.161	31.24
528.508	31.27
528.854	31.29
529.201	31.37
529.548	31.14
529.895	30.93
530.242	30.89
530.588	30.85
530.935	30.94
531.282	30.89
531.628	31
531.975	31.25
532.321	31.31
532.667	31.49
533.014	31.57
533.36	31.76
533.706	31.67
534.052	31.62
534.399	31.56
534.745	31.38
535.091	31.29
535.437	31.34
535.783	31.5
536.129	31.6
536.474	31.86
536.82	31.84
537.166	31.98
537.512	32.02
537.857	31.97
538.203	31.73
538.549	31.82
538.894	31.97
539.239	31.92
539.585	32.16
539.93	32.24
540.276	32.46
540.621	32.46
540.966	32.51
541.311	32.55
541.656	32.4
542.001	32.57
542.346	32.16
542.691	31.92
543.036	31.81
543.381	31.8
543.726	32.05
544.071	31.9
544.415	32.18
544.76	32.07
545.105	32.22
545.449	32.46
545.794	32.41
546.138	32.58
546.483	32.66
546.827	32.61
547.171	32.89
547.516	32.61
547.86	32.84
548.204	32.9
548.548	32.62
548.892	32.82
549.236	32.66
549.58	32.94
549.924	32.86
550.268	33.17
550.612	33.24
550.956	33.33
551.3	33.4
551.643	33.41
551.987	33.59
552.33	33.71
552.674	33.45
553.017	33.5
553.361	33.72
553.704	33.62
554.048	33.84
554.391	33.63
554.734	33.57
555.077	33.75
555.42	33.62
555.764	33.68
556.107	33.56
556.45	33.86
556.793	33.95
557.135	34.2
557.478	33.62
557.821	33.97
558.164	34.12
558.507	33.92
558.849	34.12
559.192	34.17
559.534	34.13
559.877	34.36
560.219	34.29
560.562	34.36
560.904	34.35
561.246	34.12
561.589	34.11
561.931	34.4
562.273	34.2
562.615	34.32
562.957	34.13
563.299	34.27
563.641	34.36
563.983	34.33
564.325	34.26
564.667	34.5
565.008	34.47
565.35	34.3
565.692	34.45
566.033	34.39
566.375	34.31
566.716	34.67
567.058	34.39
567.399	34.22
567.741	34.13
568.082	34.3
568.423	34.35
568.764	34.32
569.105	34.33
569.447	34.55
569.788	34.69
570.129	34.47
570.47	34.49
570.811	34.56
571.151	34.92
571.492	34.76
571.833	34.67
572.174	34.82
572.514	34.78
572.855	34.72
573.195	34.67
573.536	34.8
573.876	34.54
574.217	34.59
574.557	34.57
574.898	34.77
575.238	34.83
575.578	34.75
575.918	35.07
576.258	34.88
576.598	34.94
576.938	34.87
577.278	35.16
577.618	35.02
577.958	35.16
578.298	35.03
578.638	35
578.977	35.09
579.317	35.08
579.657	35.23
579.996	35.06
580.336	35.41
580.675	35.22
581.014	35.35
581.354	35.54
581.693	35.33
582.032	35.53
582.372	35.47
582.711	35.44
583.05	35.42
583.389	35.4
583.728	35.49
584.067	35.6
584.406	35.49
584.745	35.91
585.083	35.84
585.422	35.81
585.761	35.84
586.1	35.97
586.438	35.62
586.777	35.45
587.115	35.64
587.454	35.58
587.792	35.97
588.13	36.03
588.469	36.06
588.807	35.94
589.145	36.33
589.483	36.14
589.821	36.1
590.159	36.02
590.497	36.18
590.835	36.07
591.173	36.16
591.511	35.92
591.849	35.88
592.187	36.08
592.524	36.37
592.862	36.18
593.2	36.24
593.537	36.18
593.875	36.29
594.212	36.68
594.55	36.33
594.887	36.28
595.224	36.25
595.561	36.57
595.899	36.5
596.236	36.3
596.573	36.05
596.91	36.54
597.247	36.22
597.584	36.31
597.921	36.58
598.258	36.39
598.594	36.24
598.931	36.28
599.268	36.12
599.604	36.28
599.941	36.3
600.277	36.42
600.614	36.65
600.95	36.64
601.287	36.49
601.623	36.33
601.959	36.33
602.296	36.63
602.632	36.68
602.968	36.67
603.304	36.84
603.64	36.79
603.976	36.86
604.312	36.77
604.648	36.73
604.984	36.7
605.319	36.53
605.655	36.8
605.991	36.7
606.326	36.85
606.662	36.49
606.998	36.6
607.333	36.63
607.668	36.54
608.004	36.91
608.339	36.86
608.674	37.16
609.01	37.05
609.345	36.74
609.68	36.8
610.015	37.73
610.35	37.33
610.685	37
611.02	37.11
611.355	37.04
611.689	37.03
612.024	36.72
612.359	37.44
612.694	37.32
613.028	37.26
613.363	37.41
613.697	37.37
614.032	37.32
614.366	37.35
614.7	37.46
615.035	37.48
615.369	37.6
615.703	37.29
616.037	37.47
616.371	37.87
616.705	37.49
617.039	37.4
617.373	37.36
617.707	37.06
618.041	37.59
618.375	37.48
618.709	37.93
619.042	37.93
619.376	38.17
619.71	37.41
620.043	37.55
620.377	38.03
620.71	37.66
621.043	37.36
621.377	37.79
621.71	37.93
622.043	37.78
622.376	38.24
622.709	37.85
623.043	37.72
623.376	38.09
623.709	37.92
624.041	38.23
624.374	38.24
624.707	37.98
625.04	38.31
625.373	37.9
625.705	38
626.038	38.02
626.37	37.87
626.703	38.51
627.035	38.51
627.368	37.68
627.7	37.94
628.032	37.93
628.365	38.29
628.697	38.68
629.029	37.97
629.361	38.18
629.693	37.85
630.025	38.16
630.357	38.07
630.689	38.31
631.021	38.19
631.353	38.57
631.684	38.53
632.016	38.1
632.348	38.56
632.679	38.52
633.011	38.48
633.342	38.4
633.674	38.53
634.005	38.59
634.336	38.59
634.668	38.54
634.999	38.29
635.33	38.77
635.661	38.52
635.992	38.78
636.323	38.8
636.654	38.5
636.985	38.61
637.316	38.56
637.647	38.66
637.977	38.62
638.308	39.07
638.639	38.73
638.969	38.53
639.3	38.9
639.63	38.92
639.961	39.08
640.291	38.51
640.622	38.97
640.952	39.19
641.282	38.63
641.612	38.53
641.943	38.93
642.273	39.13
642.603	38.94
642.933	38.76
643.263	38.99
643.592	39.17
643.922	38.83
644.252	39.5
644.582	39.32
644.911	38.91
645.241	38.66
645.571	39.43
645.9	39.21
646.23	39.82
646.559	39.25
646.888	39.25
647.218	39.78
647.547	39.44
647.876	39.26
648.205	39.43
648.534	39.23
648.863	39.17
649.192	39.11
649.521	39.09
649.85	39.13
650.179	39.28
650.508	40.02
650.837	38.93
651.165	39.23
651.494	39.54
651.822	38.99
652.151	39.2
652.479	39.39
652.808	39.61
653.136	39.23
653.465	39.28
653.793	39.15
654.121	39.35
654.449	39.51
654.777	39.31
655.105	39.2
655.433	39.28
655.761	39.6
656.089	39.45
656.417	39.17
656.745	39.76
657.073	39.18
657.4	39.66
657.728	39.5
658.056	39.42
658.383	40.03
658.711	39.7
659.038	40.28
659.365	39.64
659.693	40.02
660.02	39.95
660.347	39.64
660.674	40.02
661.001	39.93
661.329	40.23
661.656	39.64
661.982	39.78
662.309	39.82
662.636	39.72
662.963	40.04
663.29	39.72
663.616	39.72
663.943	40.3
664.27	39.78
664.596	39.71
664.923	40.28
665.249	40.26
665.576	39.98
665.902	40.39
666.228	39.98
666.554	40.01
666.881	40.41
667.207	40.69
667.533	40.51
667.859	40.15
668.185	40.1
668.511	40.57
668.837	40.08
669.162	40.18
669.488	39.75
