Data from 1710-4_chest_Reflection__4__170.txt Node

Date: Fri Sep 30 19:26:11 CDT 2022
User: ToomeyLab
Spectrometer: FLMS14357
Trigger mode: 0
Integration Time (sec): 1.000000E-2
Scans to average: 100
Electric dark correction enabled: true
Nonlinearity correction enabled: false
Boxcar width: 0
XAxis mode: Wavelengths
Number of Pixels in Spectrum: 2048
>>>>>Begin Spectral Data<<<<<
189.047	-48.32
189.435	-48.32
189.823	-48.32
190.211	89.1
190.599	151.72
190.987	89.68
191.375	156.43
191.763	-0.08
192.151	83.15
192.538	-7024.49
192.926	138.97
193.314	82.43
193.702	-83.67
194.089	543.1
194.477	121.38
194.864	125.1
195.252	-562.04
195.639	45.77
196.027	251.91
196.414	49.42
196.801	-83.04
197.189	197.92
197.576	-101.3
197.963	29.89
198.351	47.14
198.738	16.47
199.125	16.52
199.512	39.85
199.899	-17.13
200.286	11.3
200.673	-17.62
201.06	-12.71
201.447	-15.09
201.833	96.92
202.22	-32.95
202.607	62.69
202.994	-12.42
203.38	63.71
203.767	-2.6
204.154	9.25
204.54	13.23
204.927	-72.1
205.313	91.11
205.699	37.09
206.086	26.94
206.472	14.56
206.858	33.52
207.245	3.76
207.631	48.9
208.017	-13.21
208.403	12.89
208.789	31.52
209.175	-1.09
209.561	10.12
209.947	46.01
210.333	31.46
210.719	20.71
211.105	-49.33
211.491	1.51
211.876	30.45
212.262	20.07
212.648	-21.99
213.034	23.05
213.419	-4.62
213.805	37.75
214.19	-13.73
214.576	6.8
214.961	45.63
215.346	29.89
215.732	19.35
216.117	20.52
216.502	37.25
216.888	-1.66
217.273	37.59
217.658	-12.96
218.043	31.22
218.428	22.35
218.813	-14.78
219.198	31.62
219.583	-21.18
219.968	26.11
220.353	12.11
220.738	32.99
221.122	-20.55
221.507	18.6
221.892	5.9
222.276	-7.21
222.661	18.92
223.046	-8.15
223.43	11.83
223.815	-0.67
224.199	10.15
224.583	10.38
224.968	1.18
225.352	-0.59
225.736	10.24
226.121	0.14
226.505	14.56
226.889	7.65
227.273	13.86
227.657	2.34
228.041	5.63
228.425	3.83
228.809	7.55
229.193	5.46
229.577	6.01
229.961	5.4
230.344	4.44
230.728	5.57
231.112	5.09
231.495	4.21
231.879	5.09
232.263	6.86
232.646	4.76
233.03	5.01
233.413	4.62
233.797	4.14
234.18	2.79
234.563	4.78
234.946	6.28
235.33	4.09
235.713	2.45
236.096	5.02
236.479	3.2
236.862	5.6
237.245	5.67
237.628	3.39
238.011	2.71
238.394	0.29
238.777	4.55
239.16	5.08
239.543	5.61
239.925	3.11
240.308	3.14
240.691	3.11
241.073	4.34
241.456	4.81
241.838	4.81
242.221	5.47
242.603	4.59
242.986	4.76
243.368	4.62
243.75	3.9
244.133	4.2
244.515	3.88
244.897	4.74
245.279	4.03
245.661	5.41
246.043	4.59
246.425	5.68
246.807	3.16
247.189	3.87
247.571	5
247.953	4.36
248.335	4.68
248.717	4.36
249.098	4.61
249.48	4.27
249.862	4.28
250.243	4.37
250.625	4.18
251.006	4.6
251.388	4.46
251.769	4.57
252.151	3.84
252.532	3.43
252.913	3.86
253.295	4.28
253.676	4.74
254.057	4.56
254.438	4.65
254.819	4.12
255.2	3.56
255.581	4.92
255.962	4.45
256.343	2.39
256.724	4.62
257.105	4.01
257.486	4.24
257.867	6.3
258.247	4.03
258.628	4.47
259.009	4.49
259.389	4.42
259.77	3.81
260.15	3.79
260.531	4.46
260.911	3.98
261.292	4.57
261.672	3.97
262.052	3.94
262.432	4.16
262.813	4.71
263.193	4.4
263.573	4.52
263.953	4.5
264.333	4.1
264.713	4.3
265.093	4.12
265.473	3.56
265.853	3.96
266.233	4.31
266.612	4.14
266.992	3.31
267.372	4.6
267.752	3.51
268.131	4.35
268.511	4.13
268.89	3.64
269.27	4.86
269.649	3.89
270.029	4.19
270.408	3.75
270.787	4.26
271.167	4.33
271.546	4
271.925	3.99
272.304	3.91
272.683	4.35
273.062	3.81
273.441	3.71
273.82	3.69
274.199	4.27
274.578	4.03
274.957	3.91
275.336	3.58
275.715	4.1
276.093	3.73
276.472	4.14
276.851	5.21
277.229	4.39
277.608	4.09
277.986	3.49
278.365	4.68
278.743	4.56
279.122	2.94
279.5	3.86
279.878	3.89
280.257	3.3
280.635	3.6
281.013	4.51
281.391	3.9
281.769	4.41
282.147	3.52
282.525	4.08
282.903	4.01
283.281	4.42
283.659	4.04
284.037	3.94
284.415	3.6
284.792	4.03
285.17	4.04
285.548	4
285.925	3.79
286.303	4.09
286.68	4.39
287.058	3.93
287.435	3.9
287.813	3.93
288.19	3.88
288.567	4.15
288.945	3.29
289.322	3.89
289.699	3.83
290.076	4.45
290.453	4.62
290.83	3.83
291.207	4.27
291.584	3.87
291.961	4.21
292.338	3.7
292.715	4.2
293.092	4.12
293.469	4.22
293.845	4.61
294.222	4.23
294.599	4.31
294.975	4.43
295.352	3.96
295.728	4.27
296.105	4.55
296.481	4.24
296.858	3.56
297.234	3.64
297.61	4.1
297.986	4.18
298.363	4.05
298.739	4.4
299.115	4.26
299.491	4.13
299.867	4.07
300.243	4.44
300.619	3.8
300.995	4.07
301.371	4.66
301.746	5.12
302.122	3.94
302.498	4.1
302.874	3.74
303.249	4.35
303.625	4.23
304	4.03
304.376	3.76
304.751	4.25
305.127	4.26
305.502	4.25
305.878	4.38
306.253	4.36
306.628	4.05
307.003	4.27
307.378	4.48
307.754	3.86
308.129	4.31
308.504	4.57
308.879	4.45
309.254	4.03
309.629	4.08
310.003	4.34
310.378	4.17
310.753	3.95
311.128	4.07
311.502	4.4
311.877	4.13
312.252	4
312.626	4.32
313.001	4.26
313.375	4.04
313.75	4.6
314.124	3.78
314.498	3.97
314.873	4.45
315.247	4.22
315.621	4.22
315.995	4.32
316.369	4.05
316.743	4.02
317.117	4.23
317.491	4.15
317.865	4.41
318.239	4.53
318.613	4.28
318.987	4.22
319.361	3.97
319.734	4.27
320.108	4.06
320.482	3.95
320.855	4.55
321.229	4.13
321.602	4.26
321.976	4.99
322.349	4.07
322.723	4.36
323.096	3.98
323.469	4.62
323.843	4.32
324.216	4.68
324.589	4.23
324.962	4.69
325.335	4.47
325.708	4.79
326.081	4.87
326.454	4.93
326.827	4.74
327.2	4.27
327.573	4.16
327.945	4.79
328.318	4.47
328.691	3.99
329.063	4.05
329.436	4.29
329.809	4.2
330.181	4.67
330.553	4.45
330.926	4.14
331.298	4.19
331.671	4.47
332.043	4.33
332.415	4.55
332.787	4.67
333.159	4.26
333.532	4.33
333.904	4.6
334.276	4.63
334.648	4.57
335.02	4.7
335.391	4.36
335.763	4.33
336.135	4.63
336.507	4.62
336.879	4.27
337.25	4.69
337.622	4.96
337.993	4.13
338.365	5.25
338.736	4.26
339.108	4.73
339.479	4.75
339.851	4.36
340.222	4.52
340.593	4.63
340.964	4.56
341.336	4.08
341.707	4.38
342.078	4.5
342.449	4.51
342.82	4.7
343.191	4.46
343.562	4.48
343.933	4.39
344.303	4.32
344.674	4.5
345.045	4.17
345.416	4.65
345.786	4.55
346.157	4.25
346.527	4.47
346.898	4.75
347.268	4.55
347.639	3.94
348.009	4.02
348.38	4.39
348.75	4.61
349.12	4.54
349.49	4.1
349.861	4.45
350.231	4.56
350.601	4.19
350.971	4.11
351.341	4.69
351.711	4.62
352.081	3.71
352.45	4.23
352.82	4.2
353.19	3.88
353.56	4.23
353.929	4.36
354.299	4.2
354.669	4.71
355.038	4.78
355.408	4.22
355.777	4.72
356.147	4.19
356.516	4.53
356.885	4.3
357.254	4.64
357.624	4.98
357.993	4.49
358.362	4.53
358.731	4.23
359.1	4.35
359.469	4.33
359.838	4.28
360.207	4.49
360.576	4.46
360.945	4.45
361.314	4.5
361.682	4.36
362.051	4.38
362.42	4.1
362.788	4.49
363.157	4.27
363.525	4.59
363.894	4.54
364.262	4.24
364.631	4.72
364.999	4.52
365.367	4.41
365.735	4.68
366.104	4.05
366.472	4.46
366.84	4.33
367.208	4.35
367.576	4.7
367.944	4.53
368.312	4.15
368.68	4.46
369.048	4.3
369.416	4.37
369.783	4.51
370.151	4.45
370.519	4.23
370.886	4.52
371.254	4.54
371.621	5.15
371.989	4.53
372.356	4.31
372.724	4.61
373.091	4.51
373.458	4.12
373.826	4.25
374.193	4.92
374.56	4.8
374.927	4.74
375.294	4.37
375.661	4.58
376.028	4.88
376.395	4.62
376.762	4.49
377.129	4.47
377.496	4.54
377.863	4.76
378.229	4.47
378.596	4.47
378.963	4.44
379.329	4.58
379.696	4.55
380.062	4.43
380.429	4.4
380.795	4.32
381.161	4.66
381.528	4.52
381.894	4.93
382.26	4.89
382.626	4.58
382.993	4.36
383.359	4.5
383.725	4.47
384.091	4.2
384.457	4.92
384.823	4.93
385.188	4.83
385.554	4.55
385.92	4.68
386.286	4.69
386.651	4.96
387.017	4.47
387.383	4.81
387.748	4.66
388.114	4.74
388.479	4.74
388.845	4.55
389.21	4.49
389.575	4.66
389.94	4.47
390.306	4.6
390.671	4.67
391.036	4.53
391.401	4.66
391.766	4.67
392.131	4.42
392.496	4.77
392.861	4.8
393.226	4.54
393.591	4.55
393.956	4.74
394.32	4.77
394.685	4.61
395.05	4.63
395.414	4.69
395.779	4.81
396.143	4.68
396.508	4.46
396.872	4.71
397.236	4.69
397.601	4.9
397.965	4.79
398.329	4.36
398.694	4.62
399.058	5.05
399.422	4.81
399.786	4.96
400.15	4.8
400.514	5.05
400.878	4.56
401.242	4.46
401.605	4.84
401.969	4.42
402.333	4.9
402.697	4.93
403.06	4.96
403.424	5.1
403.787	4.94
404.151	4.66
404.514	4.71
404.878	4.68
405.241	4.94
405.604	4.97
405.968	4.71
406.331	4.82
406.694	4.78
407.057	4.69
407.42	4.97
407.783	4.84
408.146	4.59
408.509	4.66
408.872	4.51
409.235	4.68
409.598	4.77
409.961	4.96
410.323	4.65
410.686	4.91
411.049	4.61
411.411	4.84
411.774	4.83
412.136	5.08
412.499	5.01
412.861	4.84
413.223	4.74
413.586	4.75
413.948	4.83
414.31	5.06
414.672	5.21
415.035	4.75
415.397	4.89
415.759	4.96
416.121	4.92
416.483	4.94
416.845	4.83
417.206	5.12
417.568	5.06
417.93	4.64
418.292	4.97
418.653	4.86
419.015	4.95
419.377	4.77
419.738	4.88
420.1	4.83
420.461	4.79
420.822	4.78
421.184	4.79
421.545	4.83
421.906	4.95
422.267	4.89
422.629	4.82
422.99	4.82
423.351	4.79
423.712	4.78
424.073	4.87
424.434	4.84
424.795	4.88
425.155	4.85
425.516	4.84
425.877	4.79
426.238	4.87
426.598	4.77
426.959	4.96
427.32	4.98
427.68	4.96
428.041	4.9
428.401	4.95
428.761	4.8
429.122	5.01
429.482	5.03
429.842	5
430.202	5.04
430.563	5.01
430.923	5
431.283	5.06
431.643	5.53
432.003	5.1
432.363	5.11
432.722	4.92
433.082	5.11
433.442	5.12
433.802	5.05
434.161	5.28
434.521	5
434.881	5.01
435.24	5.01
435.6	4.99
435.959	5.19
436.319	5.13
436.678	5.09
437.037	5.23
437.396	5.11
437.756	5.04
438.115	5.11
438.474	5.3
438.833	5.25
439.192	5.13
439.551	5.1
439.91	5.09
440.269	5.23
440.628	5.13
440.987	5.14
441.345	5.07
441.704	5.11
442.063	5.23
442.421	5.11
442.78	5.04
443.138	5.06
443.497	5.17
443.855	5.27
444.214	5.27
444.572	5.27
444.93	5.21
445.288	5.2
445.647	5.16
446.005	5.28
446.363	5.3
446.721	5.32
447.079	5.16
447.437	5.2
447.795	5.17
448.153	5.29
448.51	5.09
448.868	5.26
449.226	5.12
449.584	5.27
449.941	5.26
450.299	5.32
450.656	5.25
451.014	5.31
451.371	5.33
451.729	5.25
452.086	5.39
452.443	5.4
452.801	5.37
453.158	5.29
453.515	5.23
453.872	5.37
454.229	5.36
454.586	5.24
454.943	5.35
455.3	5.33
455.657	5.27
456.014	5.48
456.371	5.48
456.727	5.41
457.084	5.48
457.441	5.32
457.797	5.26
458.154	5.49
458.51	5.45
458.867	5.61
459.223	5.37
459.58	5.44
459.936	5.42
460.292	5.55
460.648	5.41
461.005	5.4
461.361	5.42
461.717	5.37
462.073	5.4
462.429	5.35
462.785	5.5
463.141	5.5
463.496	5.58
463.852	5.52
464.208	5.61
464.564	5.77
464.919	5.43
465.275	5.65
465.631	5.58
465.986	5.61
466.342	5.58
466.697	5.54
467.052	5.53
467.408	5.56
467.763	5.53
468.118	5.49
468.473	5.74
468.829	5.44
469.184	5.6
469.539	5.62
469.894	5.55
470.249	5.82
470.603	5.93
470.958	5.73
471.313	5.59
471.668	5.59
472.023	5.62
472.377	5.74
472.732	5.66
473.086	5.58
473.441	5.6
473.795	5.83
474.15	5.83
474.504	5.74
474.859	5.78
475.213	5.68
475.567	5.68
475.921	5.71
476.275	5.64
476.63	5.82
476.984	5.7
477.338	5.87
477.692	5.9
478.045	5.78
478.399	5.72
478.753	5.72
479.107	5.83
479.461	5.76
479.814	5.94
480.168	5.81
480.521	5.8
480.875	5.94
481.228	5.96
481.582	5.86
481.935	5.64
482.289	5.83
482.642	5.93
482.995	5.92
483.348	5.8
483.701	5.83
484.055	5.9
484.408	5.76
484.761	5.63
485.114	5.58
485.466	5.55
485.819	5.56
486.172	5.58
486.525	5.6
486.878	5.6
487.23	5.7
487.583	5.79
487.936	5.78
488.288	5.81
488.641	5.74
488.993	5.73
489.345	5.74
489.698	5.69
490.05	5.74
490.402	5.7
490.754	5.77
491.107	5.83
491.459	5.82
491.811	5.98
492.163	6.04
492.515	5.91
492.866	5.9
493.218	5.86
493.57	5.87
493.922	5.83
494.274	5.84
494.625	5.99
494.977	5.99
495.328	6
495.68	6.16
496.031	6.02
496.383	6.12
496.734	6.15
497.086	6.1
497.437	6.1
497.788	6.05
498.139	6.19
498.49	6.21
498.842	6.31
499.193	6.13
499.544	6.1
499.894	6.2
500.245	6.29
500.596	6.23
500.947	6.35
501.298	6.32
501.648	6.29
501.999	6.3
502.35	6.32
502.7	6.45
503.051	6.55
503.401	6.4
503.752	6.21
504.102	6.37
504.452	6.38
504.803	6.44
505.153	6.4
505.503	6.42
505.853	6.41
506.203	6.39
506.553	6.5
506.903	6.47
507.253	6.55
507.603	6.62
507.953	6.47
508.303	6.58
508.652	6.48
509.002	6.63
509.352	6.65
509.701	6.5
510.051	6.58
510.4	6.7
510.75	6.55
511.099	6.44
511.449	6.5
511.798	6.5
512.147	6.48
512.496	6.62
512.846	6.62
513.195	6.56
513.544	6.66
513.893	6.64
514.242	6.67
514.591	6.77
514.939	6.66
515.288	6.67
515.637	6.69
515.986	6.78
516.334	6.9
516.683	6.8
517.032	6.92
517.38	6.79
517.729	6.88
518.077	6.93
518.426	6.95
518.774	6.96
519.122	6.93
519.47	6.87
519.819	6.88
520.167	6.83
520.515	6.8
520.863	6.86
521.211	6.87
521.559	6.82
521.907	6.98
522.255	6.91
522.602	7.07
522.95	6.98
523.298	7.07
523.645	7.08
523.993	7.26
524.341	7.09
524.688	7.18
525.036	7.02
525.383	7.24
525.73	7.17
526.078	7.18
526.425	7.16
526.772	7.09
527.119	7.13
527.466	7.14
527.814	7.13
528.161	7.22
528.508	7.27
528.854	7.2
529.201	7.22
529.548	7.14
529.895	7.11
530.242	7.06
530.588	7.04
530.935	7.12
531.282	7.09
531.628	7.13
531.975	7.16
532.321	7.31
532.667	7.36
533.014	7.43
533.36	7.52
533.706	7.51
534.052	7.49
534.399	7.37
534.745	7.39
535.091	7.36
535.437	7.38
535.783	7.45
536.129	7.45
536.474	7.48
536.82	7.5
537.166	7.56
537.512	7.71
537.857	7.75
538.203	7.68
538.549	7.74
538.894	7.77
539.239	7.69
539.585	7.76
539.93	7.8
540.276	7.81
540.621	7.88
540.966	8.03
541.311	7.87
541.656	8
542.001	7.94
542.346	7.9
542.691	7.87
543.036	7.81
543.381	7.88
543.726	7.9
544.071	7.84
544.415	7.95
544.76	7.92
545.105	8.01
545.449	8.19
545.794	8.04
546.138	8.03
546.483	8.22
546.827	8.26
547.171	8.23
547.516	8.26
547.86	8.31
548.204	8.3
548.548	8.34
548.892	8.38
549.236	8.34
549.58	8.4
549.924	8.5
550.268	8.48
550.612	8.73
550.956	8.58
551.3	8.66
551.643	8.73
551.987	8.68
552.33	8.9
552.674	8.76
553.017	8.75
553.361	8.91
553.704	8.85
554.048	8.93
554.391	8.94
554.734	8.91
555.077	8.83
555.42	8.87
555.764	9.03
556.107	8.87
556.45	9.27
556.793	9.27
557.135	9.2
557.478	9.25
557.821	9.17
558.164	9.28
558.507	9.4
558.849	9.22
559.192	9.53
559.534	9.22
559.877	9.54
560.219	9.46
560.562	9.5
560.904	9.43
561.246	9.65
561.589	9.41
561.931	9.59
562.273	9.31
562.615	9.57
562.957	9.64
563.299	9.69
563.641	9.65
563.983	9.66
564.325	9.83
564.667	9.76
565.008	9.9
565.35	9.82
565.692	9.85
566.033	9.79
566.375	9.76
566.716	9.97
567.058	9.96
567.399	9.74
567.741	9.86
568.082	9.95
568.423	10.06
568.764	10.06
569.105	10.05
569.447	9.88
569.788	10.11
570.129	10.17
570.47	10.22
570.811	10.2
571.151	10.24
571.492	10.64
571.833	10.24
572.174	10.35
572.514	10.23
572.855	10.49
573.195	10.46
573.536	10.38
573.876	10.36
574.217	10.47
574.557	10.42
574.898	10.48
575.238	10.55
575.578	10.65
575.918	10.66
576.258	10.71
576.598	10.57
576.938	10.68
577.278	10.8
577.618	10.84
577.958	10.97
578.298	11.01
578.638	11.02
578.977	11.16
579.317	11.08
579.657	10.98
579.996	11.17
580.336	10.99
580.675	11.12
581.014	11.23
581.354	11.12
581.693	11.39
582.032	11.23
582.372	11.32
582.711	11.2
583.05	11.69
583.389	11.38
583.728	11.65
584.067	11.62
584.406	11.63
584.745	11.8
585.083	11.82
585.422	11.64
585.761	11.53
586.1	11.66
586.438	11.7
586.777	11.52
587.115	11.82
587.454	11.85
587.792	11.89
588.13	12.04
588.469	12.02
588.807	11.95
589.145	12.02
589.483	12.2
589.821	11.98
590.159	12.04
590.497	12.19
590.835	12.08
591.173	12.13
591.511	12.33
591.849	12.11
592.187	12.27
592.524	12.36
592.862	12.45
593.2	12.48
593.537	12.42
593.875	12.57
594.212	12.59
594.55	12.54
594.887	12.46
595.224	12.74
595.561	12.79
595.899	13.02
596.236	12.8
596.573	12.76
596.91	12.82
597.247	12.74
597.584	13.04
597.921	12.85
598.258	13.04
598.594	12.75
598.931	13.16
599.268	13.08
599.604	13.09
599.941	13.02
600.277	13.07
600.614	13.34
600.95	13.2
601.287	13.24
601.623	13.26
601.959	13.43
602.296	13.33
602.632	13.48
602.968	13.15
603.304	13.55
603.64	13.64
603.976	13.39
604.312	13.64
604.648	13.66
604.984	13.53
605.319	13.87
605.655	13.69
605.991	13.57
606.326	13.86
606.662	13.66
606.998	13.67
607.333	13.88
607.668	13.78
608.004	13.9
608.339	13.82
608.674	14.02
609.01	14.07
609.345	14.04
609.68	14.04
610.015	14.24
610.35	14.14
610.685	14.24
611.02	14.36
611.355	14.45
611.689	14.34
612.024	14.08
612.359	14.24
612.694	14.28
613.028	14.5
613.363	14.59
613.697	14.76
614.032	14.88
614.366	14.88
614.7	14.68
615.035	14.79
615.369	14.72
615.703	14.83
616.037	14.86
616.371	14.94
616.705	14.86
617.039	15
617.373	14.92
617.707	14.84
618.041	14.93
618.375	15.07
618.709	15.29
619.042	15.26
619.376	15.76
619.71	15.18
620.043	15.44
620.377	15.43
620.71	15.28
621.043	15.31
621.377	15.73
621.71	15.63
622.043	15.53
622.376	15.79
622.709	15.86
623.043	15.71
623.376	15.8
623.709	15.68
624.041	15.68
624.374	16.24
624.707	15.83
625.04	16.21
625.373	16.19
625.705	15.81
626.038	16.2
626.37	16.29
626.703	16.09
627.035	16.31
627.368	16.02
627.7	16.11
628.032	16.15
628.365	16.12
628.697	16.19
629.029	16.21
629.361	16.23
629.693	16.37
630.025	16.43
630.357	16.29
630.689	15.99
631.021	16.42
631.353	16.82
631.684	16.44
632.016	16.61
632.348	16.74
632.679	16.93
633.011	17.08
633.342	16.84
633.674	16.71
634.005	17.01
634.336	17.3
634.668	16.77
634.999	17.13
635.33	17.12
635.661	17.2
635.992	17.32
636.323	17.28
636.654	17.09
636.985	17.2
637.316	17.05
637.647	17.07
637.977	17.27
638.308	17.4
638.639	17.49
638.969	17.47
639.3	17.42
639.63	17.59
639.961	17.6
640.291	17.74
640.622	18.1
640.952	18.02
641.282	17.4
641.612	17.43
641.943	17.6
642.273	18.29
642.603	17.8
642.933	17.74
643.263	17.84
643.592	18.04
643.922	18.39
644.252	18.13
644.582	18.12
644.911	17.89
645.241	18.27
645.571	18.11
645.9	18.27
646.23	18.8
646.559	18.36
646.888	18.42
647.218	18.38
647.547	18.54
647.876	18.72
648.205	18.49
648.534	18.09
648.863	18.8
649.192	18.92
649.521	18.57
649.85	19.19
650.179	19.37
650.508	18.79
650.837	18.66
651.165	18.61
651.494	18.85
651.822	18.57
652.151	18.87
652.479	19.02
652.808	19.17
653.136	19.13
653.465	18.56
653.793	18.85
654.121	19.38
654.449	19.64
654.777	19.09
655.105	19.24
655.433	19.51
655.761	19.67
656.089	19.57
656.417	18.75
656.745	19.75
657.073	19.45
657.4	19.72
657.728	19.85
658.056	19.88
658.383	20.14
658.711	19.57
659.038	19.86
659.365	19.27
659.693	19.76
660.02	19.8
660.347	19.96
660.674	20.45
661.001	20.37
661.329	20.13
661.656	20.03
661.982	19.89
662.309	20
662.636	19.92
662.963	19.95
663.29	19.81
663.616	20.03
663.943	20.33
664.27	20.32
664.596	20.13
664.923	20.15
665.249	20.67
665.576	20.35
665.902	20.54
666.228	20.32
666.554	20.65
666.881	20.96
667.207	20.84
667.533	21.08
667.859	20.32
668.185	20.68
668.511	21.27
668.837	21.15
669.162	21.11
669.488	21.47
669.814	21.17
670.139	20.81
670.465	20.91
670.791	20.71
671.116	20.73
671.442	21.4
671.767	21.17
672.092	21.36
672.418	21.17
672.743	21.31
673.068	21.62
673.393	21.24
673.718	21.32
674.043	21.62
674.368	21.65
674.693	21.55
675.018	21.54
675.343	21.98
675.667	21.19
675.992	21.55
676.317	21.23
676.641	21.04
676.966	21.73
677.29	21.73
677.615	21.18
677.939	22.4
678.264	22.3
678.588	21.9
678.912	22.06
679.236	22.06
679.56	21.86
679.885	22.04
680.209	22.56
680.532	22.32
680.856	22.29
681.18	21.9
681.504	22
681.828	22.49
682.152	22.55
682.475	22.33
682.799	22.64
683.122	22.16
683.446	22.21
683.769	22.78
684.093	22.95
684.416	22.3
684.739	22.09
