Data from 1710-4_crown_Reflection__0__171.txt Node

Date: Fri Sep 30 19:27:01 CDT 2022
User: ToomeyLab
Spectrometer: FLMS14357
Trigger mode: 0
Integration Time (sec): 1.000000E-2
Scans to average: 100
Electric dark correction enabled: true
Nonlinearity correction enabled: false
Boxcar width: 0
XAxis mode: Wavelengths
Number of Pixels in Spectrum: 2048
>>>>>Begin Spectral Data<<<<<
189.047	123.37
189.435	123.37
189.823	123.37
190.211	-239.72
190.599	105.66
190.987	-33.74
191.375	-104.43
191.763	47.7
192.151	-22.76
192.538	-6371.43
192.926	-42.82
193.314	388.17
193.702	82.65
194.089	984.94
194.477	70.12
194.864	81.07
195.252	-263.4
195.639	54.56
196.027	-209.77
196.414	16.99
196.801	113.49
197.189	190.51
197.576	124.3
197.963	29.89
198.351	56.23
198.738	33.57
199.125	39.79
199.512	14.22
199.899	20.9
200.286	-43.09
200.673	-26.42
201.06	-12.71
201.447	-72.86
201.833	57.32
202.22	53.61
202.607	-120.52
202.994	-23.34
203.38	48.78
203.767	-26.95
204.154	55.48
204.54	-0.02
204.927	-45.53
205.313	43.13
205.699	20.59
206.086	36.65
206.472	21.78
206.858	11.3
207.245	-62.58
207.631	8.34
208.017	18.74
208.403	21.45
208.789	28.87
209.175	40.79
209.561	24.79
209.947	23.05
210.333	52.66
210.719	12.83
211.105	12.24
211.491	26
211.876	32.75
212.262	31.14
212.648	-4.73
213.034	62.26
213.419	4.09
213.805	13.05
214.19	-18.58
214.576	2.64
214.961	63.36
215.346	16.35
215.732	-8.13
216.117	-5.65
216.502	18.95
216.888	7.55
217.273	38.59
217.658	7.39
218.043	32.64
218.428	34.65
218.813	-25.32
219.198	28.77
219.583	-9.47
219.968	15.19
220.353	-0.18
220.738	11.32
221.122	12.23
221.507	-2.61
221.892	7.15
222.276	-5.62
222.661	-10.46
223.046	-23.03
223.43	10.31
223.815	8.67
224.199	8.55
224.583	20.09
224.968	-2.75
225.352	-4.71
225.736	2.36
226.121	1.94
226.505	11.55
226.889	-3.63
227.273	10.04
227.657	-4.1
228.041	1.4
228.425	-1.66
228.809	4.6
229.193	3.14
229.577	2.96
229.961	3.75
230.344	2.88
230.728	2.81
231.112	3.9
231.495	3.2
231.879	3.14
232.263	3.99
232.646	3.37
233.03	3.39
233.413	1.87
233.797	0.1
234.18	1.7
234.563	6.42
234.946	3.57
235.33	2.5
235.713	1.52
236.096	2.07
236.479	1.11
236.862	2.47
237.245	2.42
237.628	2.94
238.011	2.19
238.394	1
238.777	0.26
239.16	1.68
239.543	5.64
239.925	-0.34
240.308	1.63
240.691	2.32
241.073	2.16
241.456	2.72
241.838	2.4
242.221	3.64
242.603	3.24
242.986	2.25
243.368	2.71
243.75	2.4
244.133	2.09
244.515	2.37
244.897	1.99
245.279	2.14
245.661	2.38
246.043	1.82
246.425	3.45
246.807	3.05
247.189	2.44
247.571	3.43
247.953	1.97
248.335	2.56
248.717	2.02
249.098	2.42
249.48	2.15
249.862	1.8
250.243	2.38
250.625	2.4
251.006	3.08
251.388	1.86
251.769	2.75
252.151	2.63
252.532	2.15
252.913	1.1
253.295	2.33
253.676	2.42
254.057	2.49
254.438	2.57
254.819	2.25
255.2	2.61
255.581	2.13
255.962	3.51
256.343	1.69
256.724	2.37
257.105	2.31
257.486	0.65
257.867	3.1
258.247	2.18
258.628	2.46
259.009	2.17
259.389	2.24
259.77	2.35
260.15	1.99
260.531	2.29
260.911	2.11
261.292	2.36
261.672	1.73
262.052	2.04
262.432	2.09
262.813	2.4
263.193	1.97
263.573	2.35
263.953	2.3
264.333	1.9
264.713	2.01
265.093	1.79
265.473	2.67
265.853	1.92
266.233	1.3
266.612	2.25
266.992	2.28
267.372	2.75
267.752	0.84
268.131	2.29
268.511	1.86
268.89	1.65
269.27	2.44
269.649	3.1
270.029	2.41
270.408	1.94
270.787	1.87
271.167	1.77
271.546	1.51
271.925	1.66
272.304	1.9
272.683	1.7
273.062	1.6
273.441	1.32
273.82	1.9
274.199	2.34
274.578	1.95
274.957	1.64
275.336	1.55
275.715	2.18
276.093	1.74
276.472	1.86
276.851	2.54
277.229	2.93
277.608	2.17
277.986	1.67
278.365	2.43
278.743	1.94
279.122	1.31
279.5	2.29
279.878	2.49
280.257	2.06
280.635	2.42
281.013	2.54
281.391	1.34
281.769	2.06
282.147	1.76
282.525	2.15
282.903	2.04
283.281	2.2
283.659	1.97
284.037	1.98
284.415	1.84
284.792	1.83
285.17	2.1
285.548	2.11
285.925	1.74
286.303	1.82
286.68	1.86
287.058	2.04
287.435	1.79
287.813	1.69
288.19	1.93
288.567	1.89
288.945	1.6
289.322	1.63
289.699	1.92
290.076	1.8
290.453	1.94
290.83	1.3
291.207	1.92
291.584	1.54
291.961	2.03
292.338	1.91
292.715	1.99
293.092	1.88
293.469	1.57
293.845	1.8
294.222	1.76
294.599	1.73
294.975	1.88
295.352	2.33
295.728	1.96
296.105	2.08
296.481	1.87
296.858	1.18
297.234	1.36
297.61	1.86
297.986	2.13
298.363	1.51
298.739	1.89
299.115	1.66
299.491	1.81
299.867	1.78
300.243	2.06
300.619	1.56
300.995	1.77
301.371	2.43
301.746	2.15
302.122	1.74
302.498	1.34
302.874	1.51
303.249	1.5
303.625	1.45
304	1.37
304.376	1.89
304.751	1.97
305.127	2.19
305.502	1.87
305.878	2.13
306.253	2.35
306.628	1.29
307.003	2.01
307.378	1.68
307.754	1.31
308.129	2.05
308.504	1.89
308.879	1.74
309.254	1.14
309.629	1.59
310.003	1.73
310.378	1.95
310.753	1.18
311.128	1.56
311.502	2.08
311.877	1.72
312.252	1.88
312.626	1.71
313.001	1.64
313.375	1.64
313.75	2.02
314.124	1.65
314.498	1.43
314.873	2.31
315.247	1.19
315.621	1.32
315.995	1.8
316.369	1.97
316.743	1.57
317.117	2.08
317.491	2.08
317.865	1.87
318.239	2.04
318.613	2.09
318.987	1.58
319.361	1.81
319.734	2.14
320.108	1.65
320.482	1.55
320.855	1.86
321.229	1.25
321.602	1.86
321.976	2.08
322.349	1.05
322.723	0.89
323.096	1.39
323.469	1.86
323.843	1.62
324.216	1.76
324.589	2.15
324.962	1.85
325.335	1.87
325.708	1.64
326.081	1.87
326.454	2.05
326.827	1.79
327.2	1.74
327.573	1.78
327.945	1.84
328.318	1.99
328.691	1.81
329.063	1.68
329.436	1.9
329.809	1.43
330.181	1.69
330.553	2.22
330.926	1.58
331.298	1.43
331.671	2.01
332.043	1.76
332.415	1.76
332.787	1.98
333.159	1.77
333.532	1.76
333.904	1.86
334.276	1.91
334.648	1.59
335.02	1.55
335.391	1.93
335.763	1.61
336.135	1.3
336.507	2.02
336.879	1.49
337.25	1.72
337.622	1.89
337.993	1.47
338.365	2.45
338.736	1.21
339.108	1.88
339.479	2.24
339.851	1.74
340.222	1.77
340.593	1.86
340.964	1.94
341.336	1.78
341.707	1.32
342.078	1.78
342.449	1.61
342.82	1.46
343.191	1.84
343.562	1.89
343.933	1.57
344.303	1.48
344.674	2.03
345.045	1.61
345.416	1.94
345.786	1.5
346.157	1.18
346.527	1.57
346.898	1.53
347.268	1.62
347.639	1.18
348.009	1.27
348.38	1.38
348.75	1.53
349.12	1.54
349.49	1.47
349.861	1.66
350.231	2.11
350.601	1.67
350.971	1.39
351.341	1.62
351.711	1.94
352.081	1.35
352.45	1.59
352.82	1.67
353.19	1.5
353.56	1.56
353.929	1.8
354.299	1.56
354.669	1.77
355.038	1.55
355.408	1.48
355.777	1.82
356.147	1.74
356.516	1.93
356.885	1.87
357.254	1.9
357.624	2.05
357.993	1.91
358.362	1.58
358.731	1.13
359.1	1.41
359.469	1.82
359.838	1.86
360.207	1.63
360.576	1.6
360.945	1.29
361.314	1.55
361.682	1.7
362.051	1.67
362.42	1.5
362.788	1.77
363.157	1.38
363.525	1.75
363.894	1.55
364.262	1.41
364.631	1.65
364.999	1.79
365.367	1.79
365.735	1.88
366.104	1.41
366.472	1.58
366.84	1.67
367.208	1.56
367.576	1.57
367.944	1.67
368.312	1.62
368.68	1.75
369.048	1.64
369.416	1.5
369.783	1.63
370.151	1.53
370.519	1.47
370.886	1.76
371.254	1.64
371.621	2.18
371.989	1.5
372.356	1.51
372.724	1.62
373.091	1.56
373.458	1.42
373.826	1.4
374.193	1.94
374.56	1.81
374.927	1.93
375.294	1.49
375.661	1.44
376.028	1.8
376.395	1.74
376.762	1.48
377.129	1.59
377.496	1.46
377.863	1.71
378.229	1.8
378.596	1.59
378.963	1.45
379.329	1.37
379.696	1.57
380.062	1.79
380.429	1.44
380.795	1.3
381.161	1.81
381.528	1.85
381.894	1.73
382.26	1.88
382.626	1.65
382.993	1.66
383.359	1.49
383.725	1.71
384.091	1.67
384.457	2.05
384.823	1.65
385.188	1.85
385.554	1.66
385.92	1.57
386.286	1.75
386.651	1.72
387.017	1.6
387.383	1.87
387.748	1.82
388.114	1.59
388.479	2.03
388.845	1.52
389.21	1.68
389.575	1.8
389.94	1.49
390.306	1.71
390.671	1.47
391.036	1.67
391.401	1.58
391.766	1.59
392.131	1.69
392.496	1.52
392.861	1.83
393.226	1.47
393.591	1.79
393.956	1.74
394.32	1.78
394.685	1.31
395.05	1.72
395.414	1.61
395.779	1.68
396.143	1.4
396.508	1.51
396.872	1.73
397.236	1.52
397.601	1.92
397.965	1.68
398.329	1.53
398.694	1.69
399.058	1.92
399.422	1.81
399.786	1.9
400.15	1.81
400.514	1.92
400.878	1.61
401.242	1.59
401.605	1.93
401.969	1.55
402.333	1.58
402.697	1.58
403.06	1.88
403.424	1.74
403.787	1.77
404.151	1.49
404.514	1.62
404.878	1.55
405.241	1.9
405.604	1.67
405.968	1.52
406.331	1.61
406.694	1.65
407.057	1.66
407.42	1.74
407.783	1.8
408.146	1.56
408.509	1.65
408.872	1.47
409.235	1.61
409.598	1.65
409.961	1.82
410.323	1.49
410.686	1.76
411.049	1.26
411.411	1.7
411.774	1.46
412.136	1.69
412.499	1.75
412.861	1.67
413.223	1.64
413.586	1.58
413.948	1.65
414.31	1.78
414.672	1.77
415.035	1.6
415.397	1.31
415.759	1.8
416.121	1.5
416.483	1.57
416.845	1.64
417.206	1.93
417.568	1.81
417.93	1.58
418.292	1.77
418.653	1.71
419.015	1.71
419.377	1.53
419.738	1.56
420.1	1.62
420.461	1.62
420.822	1.61
421.184	1.62
421.545	1.58
421.906	1.67
422.267	1.7
422.629	1.55
422.99	1.63
423.351	1.69
423.712	1.63
424.073	1.62
424.434	1.63
424.795	1.52
425.155	1.72
425.516	1.53
425.877	1.54
426.238	1.57
426.598	1.5
426.959	1.68
427.32	1.74
427.68	1.7
428.041	1.65
428.401	1.71
428.761	1.69
429.122	1.76
429.482	1.73
429.842	1.63
430.202	1.73
430.563	1.33
430.923	1.74
431.283	1.57
431.643	1.77
432.003	1.62
432.363	1.59
432.722	1.49
433.082	1.64
433.442	1.52
433.802	1.64
434.161	1.86
434.521	1.52
434.881	1.54
435.24	1.61
435.6	1.63
435.959	1.73
436.319	1.69
436.678	1.67
437.037	1.77
437.396	1.66
437.756	1.67
438.115	1.71
438.474	1.83
438.833	1.75
439.192	1.7
439.551	1.77
439.91	1.55
440.269	1.69
440.628	1.58
440.987	1.72
441.345	1.6
441.704	1.64
442.063	1.68
442.421	1.69
442.78	1.64
443.138	1.6
443.497	1.68
443.855	1.75
444.214	1.78
444.572	1.73
444.93	1.51
445.288	1.76
445.647	1.5
446.005	1.75
446.363	1.71
446.721	1.66
447.079	1.6
447.437	1.69
447.795	1.66
448.153	1.68
448.51	1.59
448.868	1.69
449.226	1.67
449.584	1.68
449.941	1.67
450.299	1.62
450.656	1.65
451.014	1.7
451.371	1.67
451.729	1.72
452.086	1.8
452.443	1.81
452.801	1.58
453.158	1.65
453.515	1.52
453.872	1.67
454.229	1.58
454.586	1.69
454.943	1.62
455.3	1.54
455.657	1.79
456.014	1.71
456.371	1.88
456.727	1.73
457.084	1.91
457.441	1.65
457.797	1.58
458.154	1.77
458.51	1.61
458.867	1.89
459.223	1.86
459.58	1.73
459.936	1.64
460.292	1.84
460.648	1.65
461.005	1.63
461.361	1.65
461.717	1.64
462.073	1.71
462.429	1.8
462.785	1.65
463.141	1.76
463.496	1.68
463.852	1.69
464.208	1.8
464.564	1.85
464.919	1.59
465.275	1.8
465.631	1.75
465.986	1.71
466.342	1.78
466.697	1.71
467.052	1.65
467.408	1.68
467.763	1.85
468.118	1.8
468.473	1.85
468.829	1.62
469.184	1.67
469.539	1.77
469.894	1.79
470.249	1.76
470.603	1.77
470.958	1.71
471.313	1.66
471.668	1.8
472.023	1.63
472.377	1.79
472.732	1.77
473.086	1.67
473.441	1.56
473.795	1.82
474.15	1.89
474.504	1.67
474.859	1.83
475.213	1.81
475.567	1.75
475.921	1.81
476.275	1.68
476.63	1.73
476.984	1.68
477.338	1.84
477.692	1.66
478.045	1.62
478.399	1.89
478.753	1.82
479.107	1.72
479.461	1.67
479.814	1.8
480.168	1.69
480.521	1.72
480.875	1.8
481.228	1.67
481.582	1.84
481.935	1.63
482.289	1.51
482.642	1.8
482.995	1.76
483.348	1.72
483.701	1.72
484.055	1.66
484.408	1.6
484.761	1.68
485.114	1.56
485.466	1.52
485.819	1.54
486.172	1.62
486.525	1.68
486.878	1.73
487.23	1.74
487.583	1.71
487.936	1.65
488.288	1.73
488.641	1.59
488.993	1.58
489.345	1.62
489.698	1.63
490.05	1.62
490.402	1.64
490.754	1.73
491.107	1.73
491.459	1.66
491.811	1.74
492.163	1.71
492.515	1.61
492.866	1.68
493.218	1.63
493.57	1.61
493.922	1.59
494.274	1.7
494.625	1.82
494.977	1.75
495.328	1.69
495.68	1.64
496.031	1.63
496.383	1.77
496.734	1.77
497.086	1.75
497.437	1.69
497.788	1.66
498.139	1.74
498.49	1.7
498.842	1.85
499.193	1.63
499.544	1.64
499.894	1.8
500.245	1.85
500.596	1.76
500.947	1.87
501.298	1.86
501.648	1.91
501.999	1.82
502.35	1.67
502.7	1.88
503.051	1.9
503.401	1.93
503.752	1.75
504.102	1.76
504.452	1.71
504.803	1.77
505.153	1.74
505.503	1.66
505.853	1.7
506.203	1.65
506.553	1.84
506.903	1.89
507.253	1.85
507.603	1.92
507.953	1.72
508.303	1.7
508.652	1.62
509.002	1.79
509.352	1.74
509.701	1.72
510.051	1.75
510.4	1.8
510.75	1.66
511.099	1.65
511.449	1.68
511.798	1.71
512.147	1.71
512.496	1.78
512.846	1.73
513.195	1.8
513.544	1.78
513.893	1.67
514.242	1.73
514.591	1.88
514.939	1.73
515.288	1.75
515.637	1.68
515.986	1.68
516.334	1.77
516.683	1.71
517.032	1.8
517.38	1.83
517.729	1.79
518.077	1.89
518.426	1.86
518.774	1.73
519.122	1.78
519.47	1.78
519.819	1.78
520.167	1.63
520.515	1.67
520.863	1.69
521.211	1.81
521.559	1.67
521.907	1.78
522.255	1.76
522.602	1.91
522.95	1.8
523.298	1.86
523.645	1.79
523.993	1.81
524.341	1.74
524.688	1.75
525.036	1.78
525.383	1.83
525.73	1.68
526.078	1.82
526.425	1.76
526.772	1.74
527.119	1.78
527.466	1.61
527.814	1.72
528.161	1.83
528.508	1.84
528.854	1.81
529.201	1.67
529.548	1.69
529.895	1.66
530.242	1.6
530.588	1.62
530.935	1.67
531.282	1.72
531.628	1.78
531.975	1.74
532.321	1.78
532.667	1.83
533.014	1.74
533.36	1.79
533.706	1.76
534.052	1.79
534.399	1.71
534.745	1.66
535.091	1.67
535.437	1.7
535.783	1.78
536.129	1.76
536.474	1.83
536.82	1.89
537.166	1.73
537.512	1.77
537.857	1.84
538.203	1.72
538.549	1.74
538.894	1.76
539.239	1.79
539.585	1.94
539.93	1.92
540.276	1.92
540.621	1.77
540.966	1.81
541.311	1.89
541.656	1.73
542.001	1.7
542.346	1.74
542.691	1.69
543.036	1.7
543.381	1.69
543.726	1.78
544.071	1.73
544.415	1.89
544.76	1.77
545.105	1.76
545.449	1.85
545.794	1.68
546.138	1.85
546.483	1.86
546.827	1.77
547.171	1.85
547.516	1.77
547.86	1.8
548.204	1.72
548.548	1.75
548.892	1.83
549.236	1.8
549.58	1.76
549.924	1.76
550.268	1.89
550.612	1.88
550.956	1.97
551.3	1.95
551.643	1.87
551.987	1.75
552.33	2.09
552.674	1.89
553.017	1.78
553.361	1.87
553.704	1.91
554.048	1.88
554.391	1.84
554.734	1.8
555.077	1.75
555.42	1.97
555.764	1.93
556.107	1.81
556.45	1.97
556.793	2.01
557.135	1.72
557.478	1.87
557.821	1.83
558.164	1.98
558.507	2.1
558.849	1.86
559.192	2.08
559.534	1.94
559.877	2.03
560.219	1.82
560.562	1.97
560.904	1.93
561.246	1.9
561.589	1.84
561.931	1.85
562.273	1.81
562.615	1.84
562.957	1.8
563.299	2.01
563.641	2.02
563.983	1.94
564.325	1.82
564.667	1.87
565.008	1.91
565.35	1.86
565.692	1.92
566.033	1.89
566.375	1.74
566.716	2.02
567.058	2.05
567.399	1.81
567.741	1.95
568.082	1.86
568.423	1.96
568.764	1.96
569.105	1.88
569.447	1.89
569.788	1.94
570.129	1.95
570.47	1.89
570.811	1.78
571.151	1.75
571.492	1.91
571.833	1.73
572.174	1.78
572.514	1.87
572.855	2.02
573.195	1.94
573.536	1.79
573.876	1.73
574.217	1.95
574.557	1.91
574.898	1.9
575.238	1.86
575.578	1.77
575.918	1.92
576.258	1.87
576.598	1.72
576.938	1.89
577.278	1.71
577.618	1.94
577.958	1.91
578.298	1.9
578.638	2.07
578.977	1.97
579.317	1.98
579.657	1.82
579.996	1.96
580.336	1.82
580.675	2.02
581.014	2.05
581.354	1.82
581.693	2.05
582.032	2.05
582.372	1.98
582.711	1.89
583.05	2.15
583.389	1.88
583.728	1.89
584.067	2.19
584.406	1.85
584.745	2.07
585.083	2.13
585.422	1.86
585.761	1.95
586.1	1.87
586.438	1.98
586.777	1.8
587.115	1.94
587.454	1.86
587.792	2.09
588.13	2.14
588.469	1.76
588.807	1.95
589.145	2.13
589.483	1.84
589.821	1.9
590.159	1.92
590.497	2.02
590.835	2.01
591.173	2.08
591.511	1.87
591.849	1.88
592.187	1.97
592.524	2.09
592.862	2.03
593.2	1.86
593.537	2.02
593.875	1.8
594.212	2.03
594.55	1.82
594.887	1.94
595.224	2.04
595.561	2.03
595.899	1.96
596.236	1.98
596.573	2.03
596.91	2.17
597.247	1.86
597.584	2.13
597.921	1.9
598.258	1.87
598.594	1.68
598.931	2.08
599.268	1.89
599.604	2.05
599.941	1.88
600.277	2.09
600.614	2.12
600.95	1.91
601.287	1.77
601.623	1.99
601.959	1.91
602.296	2.1
602.632	1.8
602.968	1.76
603.304	1.78
603.64	1.95
603.976	1.86
604.312	1.72
604.648	2.12
604.984	1.97
605.319	1.98
605.655	1.88
605.991	2.02
606.326	1.99
606.662	2.07
606.998	2
607.333	1.96
607.668	1.92
608.004	1.99
608.339	1.98
608.674	1.83
609.01	1.87
609.345	2.03
609.68	1.74
610.015	1.86
610.35	1.72
610.685	1.8
611.02	1.9
611.355	1.95
611.689	2.17
612.024	1.99
612.359	2.02
612.694	2.05
613.028	2.13
613.363	1.98
613.697	2.15
614.032	1.87
614.366	2
614.7	2.07
615.035	2.21
615.369	2.21
615.703	1.98
616.037	2.1
616.371	2.4
616.705	1.9
617.039	1.96
617.373	2
617.707	2.01
618.041	1.95
618.375	1.85
618.709	2
619.042	2.08
619.376	2.2
619.71	1.92
620.043	2.18
620.377	1.85
620.71	2.08
621.043	2.1
621.377	2.24
621.71	1.92
622.043	1.71
622.376	2.28
622.709	2.08
623.043	1.72
623.376	2.22
623.709	2.28
624.041	1.91
624.374	2.27
624.707	2.18
625.04	2.26
625.373	2.06
625.705	2.63
626.038	2.1
626.37	2.12
626.703	1.94
627.035	1.85
627.368	1.96
627.7	2.04
628.032	1.64
628.365	2.08
628.697	2.14
629.029	2.09
629.361	1.93
629.693	1.97
630.025	1.88
630.357	2.08
630.689	1.59
631.021	1.96
631.353	2.29
631.684	1.9
632.016	1.93
632.348	1.64
632.679	2.15
633.011	2.14
633.342	2.21
633.674	2.1
634.005	1.97
634.336	1.8
634.668	1.88
634.999	1.99
635.33	2.2
635.661	2.03
635.992	2.16
636.323	2.02
636.654	2.14
636.985	2.1
637.316	2.09
637.647	2.18
637.977	2.2
638.308	2.21
638.639	2.19
638.969	2.05
639.3	2.19
639.63	2.08
639.961	2.24
640.291	1.88
640.622	2.21
640.952	2.24
641.282	1.92
641.612	1.89
641.943	2.35
642.273	1.88
642.603	1.89
642.933	2.1
643.263	1.89
643.592	2.07
643.922	2.11
644.252	2.21
644.582	2.38
644.911	1.89
645.241	2.49
645.571	2.15
645.9	2.16
646.23	2.48
646.559	1.88
646.888	1.98
647.218	2.14
647.547	2.09
647.876	2.4
648.205	2.32
648.534	1.64
648.863	1.8
649.192	2.38
649.521	1.82
649.85	2.36
650.179	2.16
650.508	2.52
650.837	1.68
651.165	2.27
651.494	2.6
651.822	2.12
652.151	2.22
652.479	2.46
652.808	2.57
653.136	2.45
653.465	1.97
653.793	2.11
654.121	2.47
654.449	2.29
654.777	1.93
655.105	1.95
655.433	2.23
655.761	2.29
656.089	2.35
656.417	2.23
656.745	2.08
657.073	1.86
657.4	2.47
657.728	2.52
658.056	2.25
658.383	2.12
658.711	1.73
659.038	2.08
659.365	2.29
659.693	2.5
660.02	2.23
660.347	2.23
660.674	2.33
661.001	2.38
661.329	2.25
661.656	2.23
661.982	1.99
662.309	1.85
662.636	1.98
662.963	1.93
663.29	2.27
663.616	1.89
663.943	2.47
664.27	1.94
664.596	2.46
664.923	2.25
665.249	2.49
665.576	2.16
665.902	2.51
666.228	1.94
666.554	2.19
666.881	2.7
667.207	1.98
667.533	2.23
667.859	2.16
668.185	2.49
668.511	2.34
668.837	1.79
669.162	2.23
669.488	2.58
669.814	2.66
670.139	2.02
670.465	1.84
670.791	1.79
671.116	1.79
671.442	2.23
671.767	2.09
672.092	2.58
672.418	2.61
672.743	1.94
673.068	2.26
673.393	2.22
673.718	2.76
674.043	2.04
674.368	2.71
674.693	1.86
675.018	2.05
675.343	2.3
675.667	2.34
675.992	2.61
676.317	2.09
676.641	2.47
676.966	2.27
677.29	2.55
677.615	2.1
677.939	2.3
678.264	2.66
678.588	2.44
678.912	2.23
679.236	2.01
679.56	2.76
679.885	2.79
680.209	2.8
680.532	2.5
680.856	2.05
681.18	2.27
681.504	2.18
681.828	2.6
682.152	2.49
682.475	2.39
682.799	2.3
683.122	2.29
683.446	1.63
683.769	1.93
684.093	2.64
684.416	2.93
684.739	2
685.062	2.54
685.386	2.42
685.709	2.14
686.032	2.58
686.355	1.98
686.678	1.98
687.001	2.73
687.324	2.47
687.646	2.54
687.969	2.58
688.292	3.07
688.614	2.1
688.937	2.22
689.26	2.98
689.582	1.61
689.904	2.73
690.227	2.43
690.549	2.79
690.871	1.8
691.194	2.67
691.516	1.77
691.838	2.16
692.16	3.28
