Data from 1710-4_chest_Reflection__2__168.txt Node

Date: Fri Sep 30 19:25:48 CDT 2022
User: ToomeyLab
Spectrometer: FLMS14357
Trigger mode: 0
Integration Time (sec): 1.000000E-2
Scans to average: 100
Electric dark correction enabled: true
Nonlinearity correction enabled: false
Boxcar width: 0
XAxis mode: Wavelengths
Number of Pixels in Spectrum: 2048
>>>>>Begin Spectral Data<<<<<
189.047	-40.29
189.435	-40.29
189.823	-40.29
190.211	85.15
190.599	85.97
190.987	12.91
191.375	238.09
191.763	186.25
192.151	53.63
192.538	-7208.16
192.926	-54.48
193.314	-78.49
193.702	-35.79
194.089	-1052.72
194.477	86.98
194.864	69.6
195.252	378.31
195.639	43.16
196.027	-193.59
196.414	32.62
196.801	324.04
197.189	184.38
197.576	-41.12
197.963	72.11
198.351	28.68
198.738	24.62
199.125	10.41
199.512	21.71
199.899	-1.36
200.286	0.89
200.673	-0.89
201.06	-20.46
201.447	-36.97
201.833	71.18
202.22	-30.62
202.607	-40.47
202.994	32.19
203.38	62.14
203.767	-1.73
204.154	64.55
204.54	46.12
204.927	-43.35
205.313	70.56
205.699	-21.65
206.086	26.59
206.472	34.63
206.858	27.6
207.245	-30.03
207.631	41.5
208.017	25.77
208.403	57.72
208.789	20.96
209.175	24.49
209.561	20.31
209.947	55.14
210.333	40.32
210.719	25.44
211.105	-7.32
211.491	16.59
211.876	38.48
212.262	31.8
212.648	13.15
213.034	63.66
213.419	7.12
213.805	25.8
214.19	1.42
214.576	-0.77
214.961	19.35
215.346	53.86
215.732	38.38
216.117	21.11
216.502	22.18
216.888	13.3
217.273	51.33
217.658	17.51
218.043	37.46
218.428	31.77
218.813	-39.07
219.198	16.61
219.583	26.44
219.968	-2.5
220.353	4.62
220.738	20.17
221.122	17.62
221.507	24.45
221.892	4.02
222.276	-5.02
222.661	13.12
223.046	-9.5
223.43	13.55
223.815	19.77
224.199	3.79
224.583	23.42
224.968	-0.69
225.352	11.88
225.736	6.26
226.121	7.02
226.505	15.26
226.889	7.57
227.273	6.9
227.657	0.6
228.041	6.6
228.425	5.25
228.809	9.56
229.193	4.55
229.577	5.31
229.961	5.12
230.344	6.85
230.728	5.5
231.112	6.14
231.495	6.19
231.879	6.49
232.263	6.2
232.646	6.94
233.03	6.93
233.413	6.64
233.797	1.79
234.18	3.62
234.563	6.96
234.946	5.17
235.33	5.96
235.713	2.11
236.096	5.61
236.479	4.12
236.862	6.34
237.245	5.21
237.628	8.5
238.011	4.91
238.394	5.68
238.777	4.33
239.16	6.14
239.543	6.14
239.925	3.61
240.308	5.69
240.691	4.47
241.073	5.94
241.456	4.97
241.838	4.11
242.221	7.28
242.603	5.55
242.986	6.09
243.368	5.82
243.75	5.35
244.133	5.04
244.515	4.86
244.897	5.02
245.279	4.68
245.661	6.06
246.043	5.35
246.425	5.77
246.807	5.3
247.189	5.27
247.571	5.5
247.953	4.95
248.335	5.61
248.717	5.17
249.098	5.18
249.48	5.55
249.862	4.72
250.243	5.33
250.625	4.96
251.006	6.4
251.388	4.91
251.769	5.19
252.151	4.8
252.532	5.38
252.913	4.9
253.295	5.27
253.676	5.31
254.057	5.59
254.438	5.23
254.819	5.48
255.2	5.04
255.581	6
255.962	5.56
256.343	4.39
256.724	6.04
257.105	5.14
257.486	5.04
257.867	6.17
258.247	5.66
258.628	5.61
259.009	5.89
259.389	5.71
259.77	5.28
260.15	4.57
260.531	5.65
260.911	4.83
261.292	5.28
261.672	4.87
262.052	4.77
262.432	5.26
262.813	5.6
263.193	5.43
263.573	4.92
263.953	4.75
264.333	4.6
264.713	4.86
265.093	5.24
265.473	5.99
265.853	5.22
266.233	5.85
266.612	5.61
266.992	5.11
267.372	5.25
267.752	4.67
268.131	5.13
268.511	5.1
268.89	4.82
269.27	5.95
269.649	5.36
270.029	4.97
270.408	4.77
270.787	5.37
271.167	5.01
271.546	5.02
271.925	4.8
272.304	4.91
272.683	4.99
273.062	5.09
273.441	4.72
273.82	4.75
274.199	5.33
274.578	4.88
274.957	5.25
275.336	4.69
275.715	4.98
276.093	4.45
276.472	4.92
276.851	5.17
277.229	5.37
277.608	4.91
277.986	4.45
278.365	5.33
278.743	5.16
279.122	4.02
279.5	4.98
279.878	4.19
280.257	4.76
280.635	4.68
281.013	5.28
281.391	4.73
281.769	4.5
282.147	4.93
282.525	4.75
282.903	4.73
283.281	5.23
283.659	5.28
284.037	5.11
284.415	4.36
284.792	5.18
285.17	5.31
285.548	4.85
285.925	4.8
286.303	4.79
286.68	4.86
287.058	4.86
287.435	4.55
287.813	4.98
288.19	4.61
288.567	4.44
288.945	4.42
289.322	5.2
289.699	4.8
290.076	4.55
290.453	5.2
290.83	4.77
291.207	5.21
291.584	4.91
291.961	4.89
292.338	4.78
292.715	5.13
293.092	5.05
293.469	4.7
293.845	5.54
294.222	4.84
294.599	4.57
294.975	5.52
295.352	5.53
295.728	5.54
296.105	5.37
296.481	5.02
296.858	4.69
297.234	4.51
297.61	4.84
297.986	5.27
298.363	4.94
298.739	5.06
299.115	4.75
299.491	5.04
299.867	5.03
300.243	5.23
300.619	5.07
300.995	5.69
301.371	5.02
301.746	5.5
302.122	4.83
302.498	5.17
302.874	4.68
303.249	5.06
303.625	4.86
304	5.08
304.376	5.19
304.751	4.86
305.127	4.83
305.502	4.45
305.878	5.27
306.253	5.54
306.628	4.82
307.003	5.55
307.378	4.79
307.754	4.93
308.129	5.02
308.504	5.28
308.879	5.41
309.254	4.71
309.629	5.24
310.003	4.81
310.378	5.47
310.753	4.6
311.128	4.84
311.502	5.2
311.877	5.03
312.252	5.02
312.626	4.98
313.001	4.78
313.375	4.91
313.75	4.92
314.124	4.74
314.498	4.89
314.873	5.14
315.247	5.01
315.621	5
315.995	4.73
316.369	5.14
316.743	4.96
317.117	5.39
317.491	4.72
317.865	4.89
318.239	5.46
318.613	4.89
318.987	5.32
319.361	5.08
319.734	5.1
320.108	4.93
320.482	4.91
320.855	5.09
321.229	4.8
321.602	5.39
321.976	5.27
322.349	4.58
322.723	4.47
323.096	4.67
323.469	5.33
323.843	5.22
324.216	4.7
324.589	5.2
324.962	4.65
325.335	4.84
325.708	4.94
326.081	5.2
326.454	5.33
326.827	5.41
327.2	5.06
327.573	4.93
327.945	5.18
328.318	4.88
328.691	4.69
329.063	4.79
329.436	5
329.809	5.09
330.181	5.16
330.553	5.72
330.926	5.07
331.298	4.9
331.671	5.58
332.043	4.66
332.415	5.27
332.787	5.23
333.159	5.26
333.532	5.19
333.904	5.22
334.276	5.55
334.648	4.59
335.02	4.88
335.391	5.14
335.763	4.98
336.135	5.14
336.507	5.72
336.879	5.21
337.25	5.16
337.622	5.7
337.993	4.6
338.365	5.51
338.736	4.86
339.108	5.05
339.479	5.09
339.851	4.88
340.222	4.7
340.593	4.95
340.964	5.42
341.336	4.88
341.707	4.91
342.078	4.64
342.449	4.52
342.82	5.16
343.191	4.98
343.562	4.7
343.933	5.37
344.303	4.8
344.674	5.31
345.045	4.76
345.416	5.26
345.786	4.99
346.157	4.3
346.527	4.77
346.898	4.97
347.268	4.9
347.639	4.98
348.009	4.61
348.38	4.74
348.75	4.95
349.12	4.64
349.49	4.82
349.861	4.91
350.231	5.23
350.601	4.81
350.971	4.54
351.341	4.91
351.711	5.08
352.081	4.58
352.45	4.73
352.82	4.4
353.19	4.85
353.56	4.68
353.929	4.9
354.299	4.77
354.669	4.93
355.038	5.29
355.408	5.02
355.777	5.03
356.147	4.9
356.516	5.08
356.885	4.75
357.254	4.96
357.624	5.05
357.993	5.08
358.362	4.58
358.731	4.47
359.1	4.85
359.469	4.9
359.838	5
360.207	5.11
360.576	5.08
360.945	4.75
361.314	4.73
361.682	5.12
362.051	5.14
362.42	4.88
362.788	4.9
363.157	4.96
363.525	5.03
363.894	4.96
364.262	4.66
364.631	5.05
364.999	5.46
365.367	4.77
365.735	5.18
366.104	4.91
366.472	5.28
366.84	4.93
367.208	4.83
367.576	4.92
367.944	4.88
368.312	5.16
368.68	4.83
369.048	5.12
369.416	4.95
369.783	4.79
370.151	4.56
370.519	4.77
370.886	4.95
371.254	4.92
371.621	5.32
371.989	4.85
372.356	4.89
372.724	5.1
373.091	5.03
373.458	4.81
373.826	4.98
374.193	5.38
374.56	5
374.927	5.27
375.294	4.84
375.661	5.02
376.028	5.24
376.395	5.24
376.762	5.33
377.129	5.2
377.496	4.94
377.863	5.1
378.229	5.12
378.596	4.87
378.963	4.85
379.329	4.91
379.696	4.77
380.062	4.96
380.429	4.96
380.795	4.91
381.161	5.08
381.528	5.12
381.894	5.39
382.26	5.18
382.626	5.02
382.993	4.97
383.359	4.96
383.725	5.13
384.091	4.94
384.457	5.42
384.823	5.36
385.188	5.22
385.554	4.99
385.92	5.25
386.286	5.3
386.651	5.07
387.017	5.11
387.383	5.29
387.748	5.46
388.114	4.86
388.479	5.29
388.845	5.07
389.21	4.96
389.575	5.03
389.94	4.78
390.306	5.07
390.671	5.13
391.036	5.24
391.401	5.11
391.766	5.15
392.131	5.31
392.496	5.14
392.861	5.23
393.226	5.23
393.591	5.03
393.956	5.33
394.32	5.14
394.685	4.81
395.05	5.02
395.414	5.11
395.779	5.05
396.143	4.73
396.508	5.05
396.872	5.38
397.236	5.2
397.601	5.32
397.965	5.29
398.329	5.09
398.694	4.85
399.058	5.43
399.422	5.25
399.786	5.21
400.15	5.15
400.514	5.37
400.878	5.11
401.242	5.17
401.605	5.5
401.969	5.29
402.333	5.31
402.697	5.36
403.06	5.26
403.424	5.28
403.787	5.6
404.151	5.08
404.514	5.2
404.878	5.18
405.241	5.35
405.604	5.27
405.968	5.13
406.331	5.19
406.694	5.16
407.057	5.13
407.42	5.22
407.783	5.57
408.146	5.37
408.509	5.26
408.872	5.06
409.235	5.28
409.598	5.11
409.961	5.33
410.323	5.22
410.686	5.28
411.049	4.95
411.411	5.24
411.774	5.34
412.136	5.39
412.499	5.36
412.861	5.46
413.223	5.31
413.586	5.24
413.948	5.26
414.31	5.47
414.672	5.45
415.035	5.04
415.397	5.1
415.759	5.49
416.121	5.38
416.483	5.12
416.845	5.18
417.206	5.48
417.568	5.56
417.93	5.3
418.292	5.43
418.653	5.38
419.015	5.35
419.377	5.17
419.738	5.21
420.1	5.2
420.461	5.39
420.822	5.27
421.184	5.24
421.545	5.22
421.906	5.3
422.267	5.27
422.629	5.21
422.99	5.26
423.351	5.35
423.712	5.2
424.073	5.26
424.434	5.23
424.795	5.31
425.155	5.22
425.516	5.19
425.877	5.14
426.238	5.39
426.598	5.22
426.959	5.23
427.32	5.32
427.68	5.38
428.041	5.35
428.401	5.49
428.761	5.33
429.122	5.54
429.482	5.44
429.842	5.45
430.202	5.53
430.563	5.46
430.923	5.55
431.283	5.61
431.643	5.58
432.003	5.57
432.363	5.37
432.722	5.34
433.082	5.47
433.442	5.45
433.802	5.42
434.161	5.46
434.521	5.35
434.881	5.42
435.24	5.24
435.6	5.47
435.959	5.58
436.319	5.49
436.678	5.48
437.037	5.73
437.396	5.44
437.756	5.58
438.115	5.66
438.474	5.68
438.833	5.63
439.192	5.58
439.551	5.57
439.91	5.49
440.269	5.5
440.628	5.6
440.987	5.61
441.345	5.58
441.704	5.45
442.063	5.56
442.421	5.5
442.78	5.48
443.138	5.48
443.497	5.61
443.855	5.63
444.214	5.69
444.572	5.68
444.93	5.51
445.288	5.6
445.647	5.56
446.005	5.72
446.363	5.66
446.721	5.59
447.079	5.54
447.437	5.57
447.795	5.47
448.153	5.62
448.51	5.55
448.868	5.61
449.226	5.55
449.584	5.63
449.941	5.63
450.299	5.72
450.656	5.56
451.014	5.65
451.371	5.72
451.729	5.8
452.086	5.79
452.443	5.63
452.801	5.66
453.158	5.78
453.515	5.6
453.872	5.73
454.229	5.7
454.586	5.57
454.943	5.71
455.3	5.73
455.657	5.72
456.014	5.76
456.371	5.83
456.727	5.84
457.084	5.94
457.441	5.83
457.797	5.82
458.154	5.94
458.51	5.9
458.867	5.98
459.223	5.89
459.58	5.92
459.936	5.96
460.292	5.9
460.648	5.8
461.005	5.71
461.361	5.71
461.717	5.7
462.073	5.82
462.429	5.83
462.785	5.89
463.141	5.94
463.496	5.89
463.852	5.82
464.208	5.85
464.564	5.91
464.919	5.8
465.275	5.96
465.631	5.84
465.986	5.95
466.342	5.98
466.697	5.99
467.052	5.99
467.408	5.98
467.763	5.98
468.118	5.92
468.473	6.02
468.829	5.91
469.184	6.01
469.539	5.86
469.894	5.99
470.249	6.1
470.603	6.08
470.958	5.99
471.313	6
471.668	6.17
472.023	6.03
472.377	6.15
472.732	6.09
473.086	6.04
473.441	6
473.795	6.16
474.15	6.12
474.504	6.13
474.859	6.08
475.213	6.14
475.567	6.09
475.921	6.25
476.275	6.05
476.63	5.99
476.984	6.08
477.338	6.24
477.692	6.06
478.045	6.11
478.399	6.22
478.753	6.13
479.107	6.22
479.461	6.09
479.814	6.2
480.168	6.14
480.521	6.23
480.875	6.3
481.228	6.16
481.582	6.23
481.935	6.08
482.289	6
482.642	6.26
482.995	6.17
483.348	6.17
483.701	6.11
484.055	6.11
484.408	6.09
484.761	6
485.114	5.81
485.466	5.8
485.819	5.84
486.172	5.9
486.525	5.97
486.878	6.01
487.23	6.03
487.583	6.09
487.936	6.13
488.288	6.11
488.641	5.99
488.993	6.01
489.345	5.99
489.698	6.06
490.05	6.06
490.402	6.11
490.754	6.1
491.107	6.27
491.459	6.29
491.811	6.33
492.163	6.22
492.515	6.21
492.866	6.22
493.218	6.12
493.57	6.13
493.922	6.14
494.274	6.23
494.625	6.37
494.977	6.34
495.328	6.4
495.68	6.4
496.031	6.43
496.383	6.4
496.734	6.6
497.086	6.46
497.437	6.44
497.788	6.4
498.139	6.5
498.49	6.45
498.842	6.58
499.193	6.48
499.544	6.42
499.894	6.55
500.245	6.56
500.596	6.49
500.947	6.59
501.298	6.57
501.648	6.61
501.999	6.71
502.35	6.79
502.7	6.74
503.051	6.7
503.401	6.82
503.752	6.63
504.102	6.68
504.452	6.73
504.803	6.68
505.153	6.7
505.503	6.64
505.853	6.67
506.203	6.78
506.553	6.91
506.903	6.91
507.253	6.91
507.603	6.95
507.953	6.67
508.303	6.91
508.652	6.78
509.002	6.74
509.352	6.87
509.701	6.88
510.051	6.9
510.4	6.9
510.75	6.8
511.099	6.91
511.449	6.8
511.798	6.94
512.147	6.84
512.496	6.9
512.846	6.92
513.195	6.97
513.544	6.95
513.893	6.95
514.242	6.91
514.591	7.13
514.939	7.03
515.288	7.11
515.637	7.08
515.986	7.07
516.334	7.17
516.683	7.12
517.032	7.17
517.38	7.14
517.729	7.18
518.077	7.23
518.426	7.22
518.774	7.1
519.122	7.18
519.47	7.23
519.819	7.16
520.167	7.03
520.515	7.11
520.863	7.12
521.211	7.19
521.559	7.22
521.907	7.28
522.255	7.29
522.602	7.45
522.95	7.45
523.298	7.28
523.645	7.46
523.993	7.38
524.341	7.48
524.688	7.51
525.036	7.41
525.383	7.52
525.73	7.41
526.078	7.51
526.425	7.47
526.772	7.42
527.119	7.37
527.466	7.43
527.814	7.43
528.161	7.48
528.508	7.59
528.854	7.56
529.201	7.5
529.548	7.41
529.895	7.4
530.242	7.32
530.588	7.33
530.935	7.42
531.282	7.5
531.628	7.54
531.975	7.57
532.321	7.66
532.667	7.71
533.014	7.84
533.36	7.8
533.706	7.84
534.052	7.82
534.399	7.77
534.745	7.72
535.091	7.74
535.437	7.74
535.783	7.8
536.129	7.84
536.474	7.9
536.82	7.99
537.166	7.97
537.512	8
537.857	7.97
538.203	7.97
538.549	8.02
538.894	8.11
539.239	8.12
539.585	8.16
539.93	8.31
540.276	8.41
540.621	8.34
540.966	8.31
541.311	8.25
541.656	8.29
542.001	8.28
542.346	8.29
542.691	8.1
543.036	8.14
543.381	8.21
543.726	8.3
544.071	8.24
544.415	8.35
544.76	8.42
545.105	8.38
545.449	8.57
545.794	8.54
546.138	8.54
546.483	8.61
546.827	8.6
547.171	8.59
547.516	8.77
547.86	8.81
548.204	8.61
548.548	8.72
548.892	8.87
549.236	8.74
549.58	8.91
549.924	8.82
550.268	8.9
550.612	9.1
550.956	9.08
551.3	9.03
551.643	9.09
551.987	9
552.33	9.43
552.674	9.22
553.017	9.24
553.361	9.44
553.704	9.32
554.048	9.3
554.391	9.39
554.734	9.42
555.077	9.29
555.42	9.53
555.764	9.46
556.107	9.6
556.45	9.7
556.793	9.76
557.135	9.52
557.478	9.69
557.821	9.68
558.164	9.73
558.507	9.72
558.849	9.78
559.192	9.78
559.534	9.77
559.877	10.2
560.219	9.82
560.562	9.92
560.904	9.97
561.246	9.96
561.589	10.07
561.931	10.05
562.273	9.94
562.615	10.06
562.957	10
563.299	10.29
563.641	10.29
563.983	10.32
564.325	10.18
564.667	10.33
565.008	10.47
565.35	10.4
565.692	10.3
566.033	10.38
566.375	10.46
566.716	10.58
567.058	10.62
567.399	10.28
567.741	10.56
568.082	10.5
568.423	10.56
568.764	10.6
569.105	10.69
569.447	10.53
569.788	10.73
570.129	10.84
570.47	10.69
570.811	10.92
571.151	10.79
571.492	10.83
571.833	10.95
572.174	11.08
572.514	10.99
572.855	11.03
573.195	10.87
573.536	11.02
573.876	10.92
574.217	11.1
574.557	11.04
574.898	11.13
575.238	11.17
575.578	11.19
575.918	11.33
576.258	11.14
576.598	11.18
576.938	11.38
577.278	11.42
577.618	11.45
577.958	11.56
578.298	11.55
578.638	11.92
578.977	11.63
579.317	11.78
579.657	11.71
579.996	11.72
580.336	11.68
580.675	11.9
581.014	12
581.354	11.93
581.693	12.07
582.032	12.14
582.372	12.01
582.711	12.24
583.05	12.48
583.389	12.28
583.728	12.24
584.067	12.46
584.406	12.2
584.745	12.4
585.083	12.49
585.422	12.54
585.761	12.43
586.1	12.36
586.438	12.2
586.777	12.41
587.115	12.66
587.454	12.7
587.792	12.73
588.13	12.8
588.469	12.68
588.807	12.72
589.145	13.12
589.483	12.94
589.821	13.16
590.159	13.2
590.497	13.18
590.835	13.08
591.173	13.18
591.511	12.95
591.849	13.21
592.187	13.15
592.524	13.37
592.862	13.13
593.2	13.27
593.537	13.19
593.875	13.38
594.212	13.53
594.55	13.43
594.887	13.76
595.224	13.7
595.561	13.64
595.899	13.57
596.236	13.74
596.573	13.76
596.91	13.98
597.247	13.74
597.584	13.9
597.921	13.95
598.258	13.99
598.594	13.68
598.931	13.97
599.268	13.87
599.604	13.9
599.941	13.87
600.277	14.22
600.614	14.36
600.95	14.12
601.287	14.13
601.623	14.4
601.959	14.27
602.296	14.45
602.632	14.42
602.968	14.28
603.304	14.61
603.64	14.45
603.976	14.32
604.312	14.38
604.648	14.84
604.984	14.68
605.319	14.78
605.655	14.67
605.991	14.61
606.326	14.79
606.662	14.7
606.998	14.73
607.333	14.91
607.668	14.88
608.004	14.93
608.339	15.21
608.674	15.03
609.01	15.3
609.345	15.08
609.68	15.1
610.015	15.26
610.35	15.43
610.685	15.36
611.02	15.45
611.355	15.26
611.689	15.59
612.024	15.42
612.359	15.64
612.694	15.6
613.028	15.76
613.363	15.63
613.697	15.67
614.032	15.61
614.366	15.91
614.7	15.97
615.035	15.97
615.369	15.97
615.703	15.99
616.037	15.9
616.371	16.41
616.705	15.86
617.039	15.96
617.373	16.07
617.707	16.04
618.041	16.36
618.375	16.34
618.709	16.39
619.042	17.02
619.376	16.83
619.71	16.69
620.043	16.82
620.377	16.55
620.71	16.46
621.043	16.6
621.377	16.82
621.71	16.55
622.043	16.78
622.376	16.92
622.709	17.06
623.043	16.9
623.376	17.06
623.709	17.13
624.041	17.19
624.374	17.33
624.707	16.94
625.04	17.17
625.373	17.15
625.705	17.12
626.038	17.6
626.37	17.23
626.703	17.52
627.035	17.34
627.368	17.35
627.7	17.15
628.032	17.22
628.365	17.37
628.697	17.71
629.029	17.31
629.361	17.61
629.693	17.84
630.025	18.03
630.357	17.93
630.689	17.61
631.021	17.98
631.353	18
631.684	17.81
632.016	17.89
632.348	17.74
632.679	18.3
633.011	18.08
633.342	18.1
633.674	18.21
634.005	18.07
634.336	18.29
634.668	18.46
634.999	18.72
635.33	18.89
635.661	18.77
635.992	18.86
636.323	18.78
636.654	18.76
636.985	19.02
637.316	18.81
637.647	18.93
637.977	19.19
638.308	18.99
638.639	19.23
638.969	19.12
639.3	18.8
639.63	19.26
639.961	19.35
640.291	18.95
640.622	19.09
640.952	19.52
641.282	19.24
641.612	19.08
641.943	19.37
642.273	19.19
642.603	19.55
642.933	19.76
643.263	19.61
643.592	19.46
643.922	19.67
644.252	19.48
644.582	20.26
644.911	19.77
645.241	19.86
645.571	20.1
645.9	20.08
646.23	20.43
646.559	19.81
646.888	19.92
647.218	20.45
647.547	19.88
647.876	20.5
648.205	20.01
648.534	19.89
648.863	20.6
649.192	20.28
649.521	20.2
649.85	20.34
650.179	20.24
650.508	20.49
650.837	20.31
651.165	20.64
651.494	20.98
651.822	20.03
652.151	20.14
652.479	20.94
652.808	20.84
653.136	20.7
653.465	20.6
653.793	20.7
654.121	20.48
654.449	20.96
654.777	20.82
655.105	20.92
655.433	20.99
655.761	21.36
656.089	21.42
656.417	21.09
656.745	21.11
657.073	21.06
657.4	21.5
657.728	21.12
658.056	21.84
658.383	21.88
658.711	20.92
659.038	22.26
659.365	21.33
659.693	21.93
660.02	21.8
660.347	21.87
660.674	21.67
661.001	21.86
661.329	22.08
661.656	21.93
661.982	21.83
662.309	21.77
662.636	21.74
662.963	22.07
663.29	22.25
663.616	21.76
663.943	22.19
664.27	22.19
664.596	22.42
664.923	22.48
665.249	22.63
665.576	22.37
665.902	23.11
666.228	22.31
666.554	22.71
666.881	23.48
667.207	22.58
667.533	22.57
667.859	22.79
668.185	22.6
668.511	22.81
668.837	23.27
669.162	22.62
669.488	23.15
669.814	23.11
670.139	22.49
670.465	23.29
670.791	22.92
671.116	22.6
671.442	23.49
671.767	23.24
672.092	23.12
672.418	22.98
672.743	23.46
673.068	23.32
673.393	22.88
673.718	23.31
674.043	23.61
674.368	23.75
674.693	22.99
675.018	23.72
675.343	23.61
675.667	24.16
675.992	23.47
676.317	23.95
676.641	23.64
676.966	24.04
677.29	23.72
677.615	23.61
677.939	24.21
678.264	24.53
678.588	23.85
678.912	23.91
679.236	24.17
679.56	24.12
679.885	23.9
680.209	24.56
680.532	24.2
680.856	24.04
681.18	24.41
681.504	23.64
681.828	24.72
682.152	24.49
682.475	24.96
682.799	25.12
683.122	24.59
683.446	24.47
683.769	24.95
684.093	25.27
684.416	24.9
684.739	24.8
