Data from 1710-4_forehead_Reflection__2__178.txt Node

Date: Fri Sep 30 19:28:50 CDT 2022
User: ToomeyLab
Spectrometer: FLMS14357
Trigger mode: 0
Integration Time (sec): 1.000000E-2
Scans to average: 100
Electric dark correction enabled: true
Nonlinearity correction enabled: false
Boxcar width: 0
XAxis mode: Wavelengths
Number of Pixels in Spectrum: 2048
>>>>>Begin Spectral Data<<<<<
189.047	-94.21
189.435	-94.21
189.823	-94.21
190.211	-159.95
190.599	191.27
190.987	-6.8
191.375	185.03
191.763	241.06
192.151	2.94
192.538	2528.57
192.926	80.4
193.314	-80.12
193.702	38.37
194.089	110.88
194.477	120.5
194.864	-4.49
195.252	-139.21
195.639	35.07
196.027	-189.16
196.414	84.92
196.801	241.82
197.189	402.02
197.576	-2.31
197.963	104.73
198.351	72.97
198.738	2.05
199.125	40.8
199.512	53.23
199.899	-1.32
200.286	18.82
200.673	7.01
201.06	197.03
201.447	-83.58
201.833	94.33
202.22	-21.45
202.607	136.97
202.994	22.36
203.38	91.32
203.767	55.97
204.154	47.02
204.54	48
204.927	-13.68
205.313	87.34
205.699	41.25
206.086	61.37
206.472	63.93
206.858	45.3
207.245	-27.62
207.631	87.08
208.017	48.18
208.403	25.73
208.789	30.96
209.175	25.11
209.561	42.57
209.947	50.09
210.333	34.2
210.719	46.19
211.105	6.19
211.491	39.37
211.876	48.42
212.262	12.78
212.648	29.16
213.034	77.94
213.419	4.03
213.805	61.21
214.19	-27.78
214.576	11.27
214.961	85.07
215.346	48.24
215.732	30.16
216.117	62.34
216.502	39.18
216.888	14.29
217.273	32.7
217.658	17.34
218.043	66.32
218.428	18.16
218.813	39.64
219.198	24.42
219.583	30.77
219.968	-0.15
220.353	19.52
220.738	52.1
221.122	16.38
221.507	-1.58
221.892	5.55
222.276	8.45
222.661	16.31
223.046	20.42
223.43	30.36
223.815	19.04
224.199	12.35
224.583	13.49
224.968	16.83
225.352	6.6
225.736	18.11
226.121	8.32
226.505	12.95
226.889	7.12
227.273	6.38
227.657	11.07
228.041	9.5
228.425	1.95
228.809	5.2
229.193	4.69
229.577	6
229.961	4.82
230.344	4.98
230.728	4.66
231.112	4.59
231.495	4.51
231.879	6.11
232.263	7.38
232.646	5.19
233.03	5.1
233.413	5.06
233.797	3.4
234.18	3.89
234.563	6.7
234.946	7.17
235.33	6.75
235.713	3.26
236.096	5.66
236.479	6.23
236.862	6.57
237.245	5.85
237.628	4.91
238.011	5.26
238.394	3.62
238.777	5.4
239.16	4.61
239.543	7.55
239.925	3.39
240.308	5.92
240.691	2.78
241.073	5.81
241.456	5.19
241.838	4.99
242.221	5.54
242.603	4.68
242.986	4.89
243.368	4.24
243.75	4.26
244.133	3.59
244.515	3.28
244.897	4
245.279	4.12
245.661	4.93
246.043	3.95
246.425	5.33
246.807	4.2
247.189	4.73
247.571	4.69
247.953	4.69
248.335	4.36
248.717	4.09
249.098	4.26
249.48	4.44
249.862	3.68
250.243	4.38
250.625	3.85
251.006	5.09
251.388	4.5
251.769	5.03
252.151	4.59
252.532	4.64
252.913	3.12
253.295	4.57
253.676	4.62
254.057	4.53
254.438	4.09
254.819	4.13
255.2	5.18
255.581	5.54
255.962	4.97
256.343	3.98
256.724	4.51
257.105	3.35
257.486	5.47
257.867	6.07
258.247	4.98
258.628	4.83
259.009	4.35
259.389	4.67
259.77	4.52
260.15	4.72
260.531	4.34
260.911	4.2
261.292	4.37
261.672	3.89
262.052	4.11
262.432	4.5
262.813	4.44
263.193	4.05
263.573	4.45
263.953	5.05
264.333	4.41
264.713	4.51
265.093	4.73
265.473	4.63
265.853	4.34
266.233	4.05
266.612	4.17
266.992	4.26
267.372	4.02
267.752	3.75
268.131	4.59
268.511	4.27
268.89	3.5
269.27	4.51
269.649	4.69
270.029	3.95
270.408	4.72
270.787	4.52
271.167	4.11
271.546	4.36
271.925	3.89
272.304	4
272.683	3.83
273.062	3.84
273.441	3.57
273.82	3.97
274.199	4.23
274.578	4.29
274.957	4.35
275.336	3.81
275.715	4.04
276.093	4.04
276.472	4.25
276.851	5.2
277.229	4.5
277.608	3.85
277.986	3.6
278.365	4.72
278.743	4.81
279.122	2.71
279.5	4.33
279.878	4.19
280.257	4.26
280.635	3.8
281.013	4.22
281.391	4.66
281.769	4.07
282.147	3.91
282.525	3.84
282.903	4.16
283.281	4.02
283.659	4.13
284.037	4.49
284.415	3.82
284.792	4.39
285.17	3.96
285.548	4.39
285.925	3.87
286.303	4.53
286.68	3.69
287.058	4.01
287.435	3.87
287.813	4.04
288.19	3.94
288.567	3.74
288.945	3.96
289.322	4.45
289.699	4.11
290.076	4.03
290.453	4.27
290.83	4.16
291.207	4.43
291.584	4.24
291.961	4.32
292.338	4.52
292.715	4.7
293.092	4.69
293.469	4.28
293.845	4.64
294.222	5.24
294.599	4.54
294.975	4.73
295.352	4.8
295.728	4.73
296.105	5.27
296.481	4.6
296.858	4.43
297.234	4.76
297.61	5.22
297.986	4.9
298.363	4.76
298.739	5.07
299.115	4.74
299.491	4.97
299.867	5.09
300.243	5.28
300.619	5.39
300.995	5.74
301.371	5.83
301.746	5.92
302.122	5.45
302.498	5.49
302.874	5.72
303.249	5.88
303.625	5.49
304	6.07
304.376	6.32
304.751	6.04
305.127	6.48
305.502	6.22
305.878	6.32
306.253	6.51
306.628	5.86
307.003	6.09
307.378	6.33
307.754	5.98
308.129	6.42
308.504	6.79
308.879	7.04
309.254	6.33
309.629	6.27
310.003	6.68
310.378	7.06
310.753	6.92
311.128	6.53
311.502	7.36
311.877	7.05
312.252	7.16
312.626	6.83
313.001	7.32
313.375	7.19
313.75	7.42
314.124	7.55
314.498	7.56
314.873	7.45
315.247	7.67
315.621	8.45
315.995	7.9
316.369	8.42
316.743	8.05
317.117	8
317.491	8.34
317.865	8.44
318.239	8.78
318.613	8.98
318.987	8.76
319.361	9.25
319.734	8.87
320.108	8.72
320.482	9.42
320.855	9.2
321.229	9.08
321.602	9.53
321.976	9.79
322.349	9.15
322.723	9.16
323.096	9.23
323.469	9.71
323.843	10.19
324.216	10.09
324.589	9.81
324.962	9.96
325.335	10.05
325.708	10.17
326.081	10.67
326.454	10.74
326.827	10.32
327.2	10.54
327.573	10.55
327.945	10.72
328.318	10.43
328.691	10.67
329.063	10.75
329.436	10.86
329.809	11.09
330.181	10.41
330.553	11.85
330.926	10.73
331.298	10.48
331.671	11.71
332.043	11.48
332.415	11.45
332.787	11.54
333.159	11.15
333.532	11.63
333.904	12.23
334.276	11.48
334.648	11.43
335.02	11.49
335.391	11.66
335.763	11.68
336.135	11.58
336.507	12.38
336.879	12.05
337.25	12.34
337.622	12.46
337.993	11.89
338.365	12.41
338.736	12.07
339.108	12.24
339.479	12.55
339.851	12.53
340.222	12.36
340.593	12.82
340.964	12.74
341.336	12.44
341.707	12.94
342.078	12.67
342.449	12.85
342.82	12.8
343.191	12.8
343.562	13.05
343.933	13.58
344.303	13.17
344.674	13.3
345.045	12.94
345.416	13.59
345.786	13.49
346.157	13.18
346.527	13.57
346.898	13.38
347.268	13.71
347.639	13.43
348.009	13.24
348.38	13.43
348.75	13.81
349.12	13.92
349.49	13.69
349.861	13.76
350.231	14.24
350.601	13.75
350.971	13.98
351.341	14.26
351.711	14.6
352.081	14.14
352.45	14.48
352.82	14.07
353.19	13.88
353.56	14.2
353.929	14.28
354.299	14.46
354.669	14.43
355.038	15.04
355.408	14.62
355.777	14.89
356.147	14.51
356.516	15.37
356.885	14.75
357.254	14.96
357.624	15.07
357.993	14.89
358.362	15.1
358.731	14.83
359.1	15.07
359.469	15.24
359.838	15.04
360.207	15.34
360.576	15.41
360.945	15.51
361.314	15.42
361.682	15.35
362.051	15.45
362.42	15.34
362.788	15.6
363.157	15.6
363.525	15.75
363.894	15.79
364.262	15.48
364.631	15.92
364.999	16.12
365.367	15.96
365.735	15.99
366.104	15.93
366.472	16.14
366.84	16.14
367.208	15.98
367.576	16.53
367.944	16.49
368.312	16.62
368.68	16.28
369.048	16.74
369.416	16.29
369.783	16.37
370.151	16.73
370.519	16.66
370.886	17.11
371.254	16.89
371.621	16.97
371.989	16.8
372.356	16.96
372.724	16.86
373.091	16.9
373.458	16.68
373.826	16.72
374.193	17.48
374.56	17.23
374.927	17.35
375.294	17.35
375.661	17.19
376.028	17.65
376.395	17.37
376.762	17.5
377.129	17.5
377.496	17.53
377.863	17.75
378.229	17.4
378.596	17.68
378.963	17.56
379.329	17.86
379.696	17.71
380.062	17.76
380.429	17.49
380.795	17.75
381.161	18.04
381.528	17.99
381.894	18.21
382.26	18.17
382.626	18.01
382.993	18.22
383.359	18.18
383.725	18.35
384.091	18.24
384.457	18.32
384.823	18.45
385.188	18.53
385.554	18.47
385.92	18.63
386.286	18.28
386.651	18.58
387.017	18.45
387.383	18.7
387.748	19.09
388.114	18.78
388.479	19.03
388.845	18.68
389.21	18.85
389.575	18.97
389.94	19.05
390.306	19.16
390.671	19.1
391.036	19.07
391.401	19.21
391.766	19.08
392.131	19.24
392.496	18.85
392.861	19.24
393.226	19.1
393.591	19.06
393.956	19.44
394.32	19.21
394.685	19.4
395.05	19.32
395.414	19.59
395.779	19.5
396.143	19.56
396.508	19.83
396.872	19.65
397.236	19.85
397.601	19.8
397.965	20
398.329	19.63
398.694	19.78
399.058	20
399.422	20.06
399.786	20.06
400.15	20.23
400.514	20.22
400.878	20.22
401.242	20.22
401.605	20.39
401.969	20.1
402.333	20.13
402.697	20.17
403.06	20.24
403.424	20.51
403.787	20.35
404.151	20.26
404.514	20.5
404.878	20.51
405.241	20.35
405.604	20.45
405.968	20.28
406.331	20.26
406.694	20.39
407.057	20.46
407.42	20.71
407.783	20.59
408.146	20.61
408.509	20.62
408.872	20.57
409.235	20.92
409.598	20.86
409.961	20.82
410.323	20.7
410.686	20.89
411.049	20.64
411.411	20.69
411.774	20.9
412.136	21.03
412.499	20.84
412.861	21.24
413.223	21.4
413.586	21.22
413.948	21.03
414.31	21.23
414.672	21.29
415.035	21.44
415.397	21.32
415.759	21.46
416.121	21.32
416.483	21.33
416.845	21.47
417.206	21.84
417.568	21.76
417.93	21.51
418.292	21.66
418.653	21.62
419.015	21.74
419.377	21.3
419.738	21.43
420.1	21.36
420.461	21.66
420.822	21.43
421.184	21.62
421.545	21.68
421.906	21.61
422.267	21.72
422.629	21.46
422.99	21.68
423.351	21.65
423.712	21.72
424.073	21.81
424.434	21.94
424.795	22.03
425.155	22.1
425.516	21.93
425.877	22
426.238	22.08
426.598	21.92
426.959	22.41
427.32	22.42
427.68	22.47
428.041	22.57
428.401	22.69
428.761	22.82
429.122	23.09
429.482	23.1
429.842	23.16
430.202	23.23
430.563	23.06
430.923	23.44
431.283	23.2
431.643	23.45
432.003	23.51
432.363	23.28
432.722	23.38
433.082	23.73
433.442	23.71
433.802	23.7
434.161	23.6
434.521	23.43
434.881	23.46
435.24	23.54
435.6	23.61
435.959	23.88
436.319	23.78
436.678	23.79
437.037	24.12
437.396	24.05
437.756	24.15
438.115	24.13
438.474	24.4
438.833	24.16
439.192	24.28
439.551	24.29
439.91	24.32
440.269	24.23
440.628	24.22
440.987	24.03
441.345	24.14
441.704	24.32
442.063	24.26
442.421	24.33
442.78	24.37
443.138	24.4
443.497	24.52
443.855	24.88
444.214	24.83
444.572	24.86
444.93	24.87
445.288	24.93
445.647	24.88
446.005	24.96
446.363	24.95
446.721	24.9
447.079	24.82
447.437	24.8
447.795	24.7
448.153	24.88
448.51	24.83
448.868	24.95
449.226	24.84
449.584	25.09
449.941	25.15
450.299	25.3
450.656	25.37
451.014	25.48
451.371	25.39
451.729	25.45
452.086	25.57
452.443	25.8
452.801	25.85
453.158	25.62
453.515	25.54
453.872	25.89
454.229	25.92
454.586	25.73
454.943	26
455.3	26.1
455.657	26.19
456.014	26.28
456.371	26.18
456.727	26.17
457.084	26.28
457.441	26.31
457.797	26.26
458.154	26.29
458.51	26.45
458.867	26.64
459.223	26.34
459.58	26.63
459.936	26.52
460.292	26.47
460.648	26.52
461.005	26.3
461.361	26.15
461.717	26.15
462.073	26.32
462.429	26.4
462.785	26.59
463.141	26.91
463.496	26.65
463.852	26.85
464.208	27.03
464.564	27.13
464.919	26.84
465.275	27.23
465.631	27.25
465.986	27.35
466.342	27.4
466.697	27.35
467.052	27.43
467.408	27.28
467.763	27.49
468.118	27.18
468.473	27.23
468.829	27.19
469.184	27.54
469.539	27.43
469.894	27.41
470.249	27.45
470.603	27.7
470.958	27.66
471.313	27.69
471.668	28
472.023	27.78
472.377	27.87
472.732	27.68
473.086	27.94
473.441	27.9
473.795	28.27
474.15	28.15
474.504	27.95
474.859	28.18
475.213	28.17
475.567	28.18
475.921	28.42
476.275	28.43
476.63	28.38
476.984	28.09
477.338	28.47
477.692	28.38
478.045	28.47
478.399	28.4
478.753	28.34
479.107	28.28
479.461	28.39
479.814	28.53
480.168	28.48
480.521	28.47
480.875	28.49
481.228	28.72
481.582	28.61
481.935	28.42
482.289	28.46
482.642	28.55
482.995	28.49
483.348	28.39
483.701	28.54
484.055	28.45
484.408	28.2
484.761	27.91
485.114	27.78
485.466	27.63
485.819	27.8
486.172	27.77
486.525	27.95
486.878	27.99
487.23	28.26
487.583	28.33
487.936	28.46
488.288	28.38
488.641	28.24
488.993	28.12
489.345	28.13
489.698	28.17
490.05	28.31
490.402	28.41
490.754	28.53
491.107	28.7
491.459	28.87
491.811	29.05
492.163	29.13
492.515	28.92
492.866	28.8
493.218	28.68
493.57	28.58
493.922	28.58
494.274	28.96
494.625	29.14
494.977	29.3
495.328	29.63
495.68	29.56
496.031	29.78
496.383	29.81
496.734	30.03
497.086	29.81
497.437	29.93
497.788	29.78
498.139	29.77
498.49	29.65
498.842	29.84
499.193	29.91
499.544	29.72
499.894	29.94
500.245	30.01
500.596	29.94
500.947	30.15
501.298	30.24
501.648	30.33
501.999	30.37
502.35	30.42
502.7	30.33
503.051	30.55
503.401	30.52
503.752	30.48
504.102	30.66
504.452	30.39
504.803	30.67
505.153	30.55
505.503	30.4
505.853	30.49
506.203	30.61
506.553	30.56
506.903	30.7
507.253	30.66
507.603	30.79
507.953	30.97
508.303	30.87
508.652	30.94
509.002	31
509.352	30.82
509.701	30.82
510.051	30.84
510.4	30.86
510.75	30.66
511.099	30.88
511.449	30.89
511.798	30.82
512.147	30.75
512.496	31.06
512.846	31.12
513.195	31.04
513.544	31.06
513.893	31.08
514.242	31.02
514.591	31.23
514.939	31.36
515.288	31.25
515.637	31.3
515.986	31.18
516.334	31.55
516.683	31.52
517.032	31.41
517.38	31.45
517.729	31.52
518.077	31.57
518.426	31.73
518.774	31.58
519.122	31.45
519.47	31.23
519.819	31.26
520.167	31.23
520.515	31.22
520.863	31.17
521.211	31.38
521.559	31.32
521.907	31.48
522.255	31.62
522.602	31.69
522.95	31.78
523.298	31.82
523.645	31.85
523.993	31.89
524.341	31.92
524.688	31.97
525.036	31.99
525.383	32.14
525.73	32.01
526.078	31.97
526.425	31.87
526.772	31.9
527.119	31.66
527.466	31.54
527.814	31.63
528.161	31.65
528.508	31.92
528.854	31.91
529.201	31.88
529.548	31.56
529.895	31.34
530.242	31.29
530.588	31.4
530.935	31.42
531.282	31.5
531.628	31.64
531.975	31.74
532.321	31.92
532.667	32.02
533.014	32.16
533.36	32.13
533.706	32.24
534.052	32.21
534.399	31.99
534.745	31.88
535.091	31.85
535.437	31.82
535.783	32.04
536.129	32.2
536.474	32.31
536.82	32.36
537.166	32.4
537.512	32.47
537.857	32.58
538.203	32.42
538.549	32.31
538.894	32.48
539.239	32.59
539.585	32.66
539.93	32.93
540.276	33.09
540.621	33.06
540.966	33.14
541.311	33.08
541.656	33.19
542.001	32.85
542.346	32.7
542.691	32.39
543.036	32.21
543.381	32.27
543.726	32.54
544.071	32.67
544.415	32.75
544.76	32.8
545.105	32.92
545.449	33.06
545.794	32.91
546.138	33.22
546.483	33.5
546.827	33.52
547.171	33.44
547.516	33.55
547.86	33.4
548.204	33.27
548.548	33.28
548.892	33.57
549.236	33.44
549.58	33.66
549.924	33.68
550.268	33.73
550.612	33.98
550.956	33.9
551.3	34.21
551.643	34.24
551.987	34.27
552.33	34.32
552.674	34.18
553.017	34.25
553.361	34.44
553.704	34.32
554.048	34.2
554.391	34.24
554.734	34.39
555.077	34.13
555.42	34.35
555.764	34.44
556.107	34.48
556.45	34.61
556.793	34.68
557.135	34.7
557.478	34.38
557.821	34.69
558.164	34.68
558.507	34.53
558.849	34.73
559.192	34.91
559.534	34.96
559.877	34.91
560.219	34.9
560.562	34.97
560.904	34.89
561.246	34.81
561.589	34.89
561.931	35.11
562.273	34.87
562.615	34.95
562.957	34.9
563.299	35.16
563.641	35.07
563.983	34.9
564.325	35.32
564.667	35.21
565.008	35.2
565.35	35.33
565.692	35.29
566.033	35.39
566.375	35.2
566.716	35.38
567.058	35.28
567.399	35.23
567.741	35.24
568.082	35.12
568.423	35.22
568.764	35.22
569.105	35.15
569.447	35.2
569.788	35.42
570.129	35.48
570.47	35.66
570.811	35.34
571.151	35.48
571.492	35.44
571.833	35.28
572.174	35.62
572.514	35.47
572.855	35.85
573.195	35.67
573.536	35.52
573.876	35.52
574.217	35.54
574.557	35.77
574.898	35.67
575.238	35.77
575.578	35.7
575.918	35.83
576.258	35.68
576.598	35.64
576.938	35.86
577.278	35.76
577.618	35.77
577.958	35.99
578.298	35.87
578.638	36.1
578.977	36.14
579.317	36.23
579.657	36
579.996	36.18
580.336	36.06
580.675	36.1
581.014	36.31
581.354	36.39
581.693	36.42
582.032	36.48
582.372	36.34
582.711	36.28
583.05	36.86
583.389	36.46
583.728	36.49
584.067	36.48
584.406	36.41
584.745	36.64
585.083	36.79
585.422	36.82
585.761	36.68
586.1	37.02
586.438	36.82
586.777	36.68
587.115	36.61
587.454	36.74
587.792	37.18
588.13	37.01
588.469	37.01
588.807	36.97
589.145	37.12
589.483	37.28
589.821	36.95
590.159	37.12
590.497	36.91
590.835	37.16
591.173	37.24
591.511	36.89
591.849	36.92
592.187	37.2
592.524	37.27
592.862	37.2
593.2	37.19
593.537	37.23
593.875	37.02
594.212	37.31
594.55	37.42
594.887	37.44
595.224	37.25
595.561	37.41
595.899	37.44
596.236	37.42
596.573	37.45
596.91	37.59
597.247	37.31
597.584	37.42
597.921	37.36
598.258	37.46
598.594	37.15
598.931	37.25
599.268	37.23
599.604	37.31
599.941	37.26
600.277	37.34
600.614	38.01
600.95	37.85
601.287	37.65
601.623	37.72
601.959	37.36
602.296	37.84
602.632	38.06
602.968	37.8
603.304	37.92
603.64	37.96
603.976	38.27
604.312	37.74
604.648	37.63
604.984	37.46
605.319	37.73
605.655	38.03
605.991	37.89
606.326	37.65
606.662	37.59
606.998	37.84
607.333	37.68
607.668	37.87
608.004	37.9
608.339	38.08
608.674	38
609.01	37.85
609.345	38.05
609.68	38.17
610.015	38.24
610.35	38.37
610.685	38.17
611.02	38.33
611.355	38.02
611.689	38.18
612.024	37.99
612.359	38.05
612.694	38.32
613.028	38.23
613.363	38.45
613.697	38.75
614.032	38.49
614.366	38.56
614.7	38.88
615.035	38.55
615.369	38.97
615.703	38.95
616.037	38.67
616.371	38.72
616.705	38.78
617.039	38.89
617.373	38.9
617.707	38.54
618.041	38.75
618.375	38.77
618.709	38.93
619.042	39.35
619.376	39.24
619.71	38.64
620.043	39.06
620.377	38.74
620.71	39.05
621.043	39.07
621.377	39.15
621.71	39.19
622.043	39.09
622.376	39.63
622.709	39.19
623.043	39.07
623.376	39.36
623.709	39.24
624.041	38.93
624.374	39.07
624.707	39.07
625.04	39.48
625.373	39.16
625.705	39.28
626.038	39.68
626.37	39.41
626.703	39.87
627.035	39.57
627.368	39.28
627.7	39.28
628.032	39.26
628.365	39.16
628.697	39.55
629.029	39.14
629.361	39.13
629.693	39.32
630.025	39.68
630.357	39.47
630.689	40
631.021	40.09
631.353	39.92
631.684	39.45
632.016	39.71
632.348	39.82
632.679	39.94
633.011	39.9
633.342	39.4
633.674	39.71
634.005	39.84
634.336	40.28
634.668	40.14
634.999	39.96
635.33	40.36
635.661	40.26
635.992	39.78
636.323	40.13
636.654	40.21
636.985	40.21
637.316	39.69
637.647	39.91
637.977	40.07
638.308	40.45
638.639	40.12
638.969	40.09
639.3	39.9
639.63	40.1
639.961	40.14
640.291	40.06
640.622	40.5
640.952	40.47
641.282	40.29
641.612	40.03
641.943	40.4
642.273	40.28
642.603	40.79
642.933	40.59
643.263	40.63
643.592	40.7
643.922	40.35
644.252	40.92
644.582	40.79
644.911	40.09
645.241	40.74
645.571	40.84
645.9	40.98
646.23	40.89
646.559	40.66
646.888	40.52
647.218	40.68
647.547	40.61
647.876	40.75
648.205	40.45
648.534	40.66
648.863	40.49
649.192	40.69
649.521	40.01
649.85	41.19
650.179	40.76
650.508	40.98
650.837	40.76
651.165	40.78
651.494	40.94
651.822	40.85
652.151	41.07
652.479	41.08
652.808	41.07
653.136	41.33
653.465	40.95
653.793	40.51
654.121	40.58
654.449	41.03
654.777	40.56
655.105	41.02
655.433	41.18
655.761	40.93
656.089	41.03
656.417	40.61
656.745	41.05
657.073	40.95
657.4	41.6
657.728	41.35
658.056	41.59
658.383	41.43
658.711	41.07
659.038	41.47
659.365	41.21
659.693	41.87
660.02	41.39
660.347	41.11
660.674	41.79
661.001	41.34
661.329	41.44
661.656	41.2
661.982	41.01
662.309	41.05
662.636	41.02
662.963	41.78
663.29	41.58
663.616	40.8
663.943	41.64
664.27	41.83
664.596	41.87
664.923	41.65
665.249	41.52
665.576	41.17
665.902	41.48
666.228	41.23
666.554	41.88
666.881	42.26
667.207	42.37
667.533	42.16
667.859	41.7
668.185	42.03
668.511	41.82
668.837	41.52
669.162	42.09
669.488	41.5
