Data from 1710-4_forehead_Reflection__0__176.txt Node

Date: Fri Sep 30 19:28:23 CDT 2022
User: ToomeyLab
Spectrometer: FLMS14357
Trigger mode: 0
Integration Time (sec): 1.000000E-2
Scans to average: 100
Electric dark correction enabled: true
Nonlinearity correction enabled: false
Boxcar width: 0
XAxis mode: Wavelengths
Number of Pixels in Spectrum: 2048
>>>>>Begin Spectral Data<<<<<
189.047	-70.44
189.435	-70.44
189.823	-70.44
190.211	-52.14
190.599	116.13
190.987	92.61
191.375	150.81
191.763	98.62
192.151	-26.55
192.538	-5522.45
192.926	42.92
193.314	-297.34
193.702	55.38
194.089	-1512.13
194.477	91.21
194.864	68.49
195.252	-193.33
195.639	108.84
196.027	479.08
196.414	95.13
196.801	85.76
197.189	308.96
197.576	39.7
197.963	70.67
198.351	39.25
198.738	29.9
199.125	2.34
199.512	100.44
199.899	-43.68
200.286	16.02
200.673	11.96
201.06	77
201.447	-50.64
201.833	57.68
202.22	58.37
202.607	70.22
202.994	23.08
203.38	42.86
203.767	30.18
204.154	68.46
204.54	50.44
204.927	-53.36
205.313	108.18
205.699	30.19
206.086	40.94
206.472	72.22
206.858	23.71
207.245	21.53
207.631	42.68
208.017	48.88
208.403	18.22
208.789	49.1
209.175	24.68
209.561	58.07
209.947	26.21
210.333	26.77
210.719	41.15
211.105	-19.5
211.491	23.77
211.876	58.51
212.262	23.17
212.648	51.54
213.034	72.16
213.419	16.77
213.805	29.91
214.19	8.43
214.576	22.36
214.961	62.19
215.346	14.54
215.732	25.24
216.117	24.68
216.502	40.17
216.888	34.09
217.273	41.32
217.658	-6.02
218.043	32.37
218.428	54.35
218.813	-19.02
219.198	0.3
219.583	47.16
219.968	32.82
220.353	27.08
220.738	15.55
221.122	6.53
221.507	-0.15
221.892	-1.39
222.276	5.75
222.661	9.98
223.046	0.11
223.43	8.65
223.815	8.9
224.199	21.01
224.583	19.11
224.968	10.39
225.352	3.78
225.736	11.51
226.121	15.95
226.505	15.86
226.889	0.9
227.273	4.94
227.657	7.49
228.041	9.65
228.425	6.26
228.809	6.82
229.193	5.38
229.577	4.23
229.961	2.18
230.344	3.59
230.728	3.99
231.112	4.32
231.495	3.3
231.879	5.15
232.263	5.52
232.646	5.85
233.03	3.89
233.413	5.35
233.797	0.8
234.18	3
234.563	5.83
234.946	5.88
235.33	6.22
235.713	2
236.096	2.76
236.479	4.13
236.862	3.53
237.245	5.05
237.628	4.55
238.011	3.62
238.394	2.55
238.777	2.56
239.16	3.15
239.543	4.67
239.925	3.42
240.308	2.86
240.691	4.55
241.073	2.83
241.456	2.84
241.838	3.05
242.221	5.72
242.603	4.1
242.986	3.87
243.368	3.67
243.75	3.37
244.133	2.9
244.515	3.23
244.897	3.55
245.279	2.53
245.661	4.58
246.043	3.4
246.425	3.89
246.807	3.6
247.189	3.76
247.571	3.89
247.953	3.42
248.335	3.76
248.717	3.37
249.098	3.47
249.48	3.44
249.862	3.07
250.243	3.98
250.625	3.44
251.006	3.97
251.388	3.5
251.769	4.32
252.151	2.67
252.532	4.06
252.913	3.34
253.295	3.54
253.676	3.68
254.057	3.83
254.438	4.08
254.819	3.8
255.2	3.99
255.581	4.27
255.962	4.44
256.343	3.46
256.724	4.63
257.105	2.95
257.486	3.51
257.867	4.98
258.247	3.39
258.628	4.36
259.009	3.81
259.389	4.32
259.77	3.52
260.15	3.57
260.531	4.05
260.911	3.66
261.292	3.79
261.672	3.2
262.052	3.33
262.432	3.39
262.813	4.18
263.193	4.08
263.573	4.19
263.953	4.22
264.333	3.93
264.713	3.89
265.093	4.48
265.473	3.69
265.853	3.31
266.233	4.11
266.612	3.91
266.992	3.93
267.372	3.54
267.752	3.15
268.131	3.73
268.511	3.47
268.89	3.62
269.27	4.33
269.649	3.65
270.029	3.24
270.408	4
270.787	3.78
271.167	3.08
271.546	3.4
271.925	3.13
272.304	3.73
272.683	3.39
273.062	3.36
273.441	3.17
273.82	3.14
274.199	3.83
274.578	3.18
274.957	3.27
275.336	3.5
275.715	3.12
276.093	3.8
276.472	3.2
276.851	3.94
277.229	4.05
277.608	3.9
277.986	3.22
278.365	3.7
278.743	4.09
279.122	3.27
279.5	3.63
279.878	3.3
280.257	3.27
280.635	3.66
281.013	3.72
281.391	3.21
281.769	3.24
282.147	2.99
282.525	3.34
282.903	3.33
283.281	3.79
283.659	3.6
284.037	3.49
284.415	2.73
284.792	3.23
285.17	4.01
285.548	3.53
285.925	3.17
286.303	2.87
286.68	3.01
287.058	3.18
287.435	3.38
287.813	3.24
288.19	3.07
288.567	3.46
288.945	3.04
289.322	4.02
289.699	3.66
290.076	3.58
290.453	3.55
290.83	3.35
291.207	3.85
291.584	3.47
291.961	3.82
292.338	3.41
292.715	3.49
293.092	3.8
293.469	4.04
293.845	4.05
294.222	4.48
294.599	4.42
294.975	4.5
295.352	4.43
295.728	4.28
296.105	4.08
296.481	4.24
296.858	4.07
297.234	3.66
297.61	4.27
297.986	4.62
298.363	4.47
298.739	4.52
299.115	4.06
299.491	4.28
299.867	4.47
300.243	4.75
300.619	4.35
300.995	4.51
301.371	5.14
301.746	5.82
302.122	4.78
302.498	4.85
302.874	4.53
303.249	4.48
303.625	4.88
304	5.02
304.376	5.48
304.751	5.34
305.127	5.29
305.502	5.03
305.878	5.33
306.253	6
306.628	5.66
307.003	5.74
307.378	5.2
307.754	5.36
308.129	5.97
308.504	6.1
308.879	6.37
309.254	5.63
309.629	6.03
310.003	6.3
310.378	6.26
310.753	6.04
311.128	6.2
311.502	6.54
311.877	5.96
312.252	6.51
312.626	6
313.001	6.11
313.375	6.33
313.75	6.53
314.124	6.15
314.498	6.73
314.873	6.71
315.247	6.66
315.621	7.06
315.995	6.97
316.369	7.13
316.743	7.12
317.117	7.58
317.491	7.2
317.865	7.83
318.239	7.69
318.613	7.4
318.987	7.79
319.361	8.26
319.734	7.99
320.108	8.01
320.482	8.21
320.855	8.14
321.229	8.41
321.602	7.92
321.976	8.52
322.349	7.85
322.723	8.12
323.096	8.2
323.469	8.59
323.843	8.51
324.216	8.72
324.589	8.74
324.962	8.99
325.335	8.96
325.708	9.11
326.081	9.53
326.454	9.38
326.827	9.12
327.2	9.15
327.573	9.13
327.945	9.5
328.318	9.31
328.691	8.79
329.063	8.82
329.436	8.98
329.809	9.5
330.181	9.28
330.553	9.71
330.926	9.37
331.298	9.84
331.671	9.82
332.043	9.72
332.415	10.08
332.787	9.87
333.159	9.85
333.532	10.25
333.904	10.05
334.276	10.32
334.648	9.87
335.02	10.3
335.391	9.63
335.763	10.51
336.135	10.14
336.507	10.67
336.879	10.2
337.25	10.75
337.622	10.65
337.993	10.43
338.365	10.73
338.736	10.38
339.108	10.76
339.479	10.7
339.851	10.92
340.222	10.78
340.593	11.07
340.964	11.32
341.336	11.1
341.707	11.15
342.078	11.24
342.449	10.86
342.82	10.85
343.191	11.1
343.562	11.26
343.933	11.43
344.303	11.23
344.674	11.8
345.045	11.6
345.416	11.51
345.786	11.56
346.157	11.11
346.527	11.42
346.898	11.7
347.268	11.89
347.639	11.56
348.009	11.32
348.38	11.65
348.75	12.01
349.12	11.88
349.49	11.64
349.861	12.04
350.231	12.58
350.601	12.05
350.971	11.81
351.341	12.63
351.711	12.03
352.081	12.35
352.45	12.18
352.82	11.92
353.19	11.93
353.56	12.44
353.929	12.51
354.299	12.51
354.669	12.74
355.038	12.82
355.408	12.74
355.777	12.67
356.147	12.45
356.516	13
356.885	12.47
357.254	12.99
357.624	12.94
357.993	12.97
358.362	13.19
358.731	12.67
359.1	13.21
359.469	12.82
359.838	13
360.207	13.06
360.576	13.21
360.945	12.97
361.314	13.18
361.682	13.15
362.051	13.61
362.42	13.48
362.788	13.28
363.157	13.5
363.525	13.48
363.894	13.42
364.262	13
364.631	13.64
364.999	13.73
365.367	13.66
365.735	13.98
366.104	13.85
366.472	13.85
366.84	14.02
367.208	13.94
367.576	13.87
367.944	13.86
368.312	14.15
368.68	14.08
369.048	14.05
369.416	14.17
369.783	14.4
370.151	14.23
370.519	14.1
370.886	14.79
371.254	14.6
371.621	15.13
371.989	14.36
372.356	14.29
372.724	14.33
373.091	14.67
373.458	14.3
373.826	14.43
374.193	14.54
374.56	15.15
374.927	14.76
375.294	14.66
375.661	14.82
376.028	14.89
376.395	14.63
376.762	15.16
377.129	15.21
377.496	14.92
377.863	15.19
378.229	15.35
378.596	15.14
378.963	15.12
379.329	15.05
379.696	15.1
380.062	14.91
380.429	15.37
380.795	14.98
381.161	15.48
381.528	15.19
381.894	15.43
382.26	15.57
382.626	15.3
382.993	15.63
383.359	15.3
383.725	15.93
384.091	15.36
384.457	16.01
384.823	15.89
385.188	16.01
385.554	16.01
385.92	15.86
386.286	15.8
386.651	16.2
387.017	15.95
387.383	15.96
387.748	16.12
388.114	16.23
388.479	16.13
388.845	16.08
389.21	16.14
389.575	16.07
389.94	15.96
390.306	16.3
390.671	16.3
391.036	16.28
391.401	16.19
391.766	16.4
392.131	16.5
392.496	16.42
392.861	16.68
393.226	16.5
393.591	16.24
393.956	16.47
394.32	16.52
394.685	16.72
395.05	16.58
395.414	16.56
395.779	16.59
396.143	16.79
396.508	16.94
396.872	16.71
397.236	17
397.601	16.84
397.965	16.92
398.329	16.5
398.694	17.06
399.058	17.21
399.422	17.17
399.786	17.17
400.15	17.18
400.514	17.62
400.878	17.29
401.242	17.15
401.605	17.25
401.969	17.45
402.333	17.21
402.697	17.59
403.06	17.55
403.424	17.71
403.787	17.55
404.151	17.6
404.514	17.68
404.878	17.54
405.241	17.92
405.604	17.52
405.968	17.74
406.331	17.49
406.694	17.37
407.057	17.77
407.42	17.71
407.783	17.61
408.146	17.74
408.509	17.78
408.872	17.64
409.235	17.83
409.598	17.85
409.961	17.96
410.323	17.9
410.686	18.13
411.049	17.86
411.411	18.18
411.774	18.07
412.136	18.33
412.499	18.26
412.861	18.25
413.223	18.4
413.586	18.29
413.948	18.09
414.31	18.19
414.672	18.45
415.035	18.23
415.397	18.24
415.759	18.28
416.121	18.29
416.483	18.37
416.845	18.27
417.206	18.82
417.568	18.71
417.93	18.36
418.292	18.7
418.653	18.63
419.015	18.81
419.377	18.57
419.738	18.63
420.1	18.68
420.461	18.63
420.822	18.61
421.184	18.66
421.545	18.66
421.906	18.85
422.267	18.87
422.629	18.58
422.99	18.67
423.351	18.5
423.712	18.58
424.073	18.64
424.434	18.86
424.795	19.05
425.155	19.05
425.516	19.04
425.877	18.91
426.238	18.91
426.598	18.86
426.959	19.07
427.32	19.26
427.68	19.15
428.041	19.13
428.401	19.43
428.761	19.36
429.122	19.68
429.482	19.83
429.842	19.79
430.202	20.03
430.563	19.49
430.923	19.91
431.283	19.88
431.643	20
432.003	19.81
432.363	19.97
432.722	19.85
433.082	20.16
433.442	20.37
433.802	20
434.161	20.07
434.521	20.26
434.881	20.16
435.24	19.85
435.6	20.09
435.959	20.29
436.319	20.23
436.678	20.47
437.037	20.4
437.396	20.28
437.756	20.5
438.115	20.61
438.474	20.68
438.833	20.65
439.192	20.73
439.551	20.71
439.91	20.63
440.269	20.7
440.628	20.62
440.987	20.75
441.345	20.68
441.704	20.7
442.063	20.68
442.421	20.77
442.78	20.72
443.138	20.62
443.497	20.7
443.855	20.89
444.214	20.85
444.572	21.1
444.93	20.95
445.288	21.18
445.647	21.13
446.005	21.26
446.363	21.3
446.721	21.3
447.079	21.07
447.437	21.2
447.795	21.11
448.153	21.07
448.51	20.99
448.868	21.03
449.226	20.94
449.584	21.1
449.941	21.39
450.299	21.33
450.656	21.28
451.014	21.64
451.371	21.42
451.729	21.63
452.086	21.59
452.443	21.91
452.801	21.77
453.158	21.59
453.515	21.78
453.872	22.1
454.229	22.01
454.586	21.7
454.943	21.85
455.3	21.85
455.657	22.11
456.014	21.99
456.371	22.01
456.727	22.06
457.084	22.18
457.441	22.08
457.797	21.97
458.154	22.31
458.51	22.39
458.867	22.58
459.223	22.53
459.58	22.64
459.936	22.58
460.292	22.42
460.648	22.51
461.005	22.48
461.361	22.27
461.717	22.2
462.073	21.96
462.429	21.98
462.785	22.18
463.141	22.45
463.496	22.4
463.852	22.57
464.208	22.74
464.564	22.78
464.919	22.85
465.275	22.9
465.631	23.07
465.986	23.12
466.342	23.14
466.697	23.11
467.052	22.94
467.408	23
467.763	23.25
468.118	23.15
468.473	23.07
468.829	23.1
469.184	23.28
469.539	23.17
469.894	23.11
470.249	23.33
470.603	23.36
470.958	23.23
471.313	23.48
471.668	23.53
472.023	23.61
472.377	23.58
472.732	23.43
473.086	23.48
473.441	23.47
473.795	23.81
474.15	23.66
474.504	23.64
474.859	23.83
475.213	23.65
475.567	23.46
475.921	23.76
476.275	23.75
476.63	23.89
476.984	23.8
477.338	23.85
477.692	24.26
478.045	23.97
478.399	24.05
478.753	23.93
479.107	24.04
479.461	23.98
479.814	24.2
480.168	24
480.521	23.92
480.875	24.1
481.228	24.1
481.582	24.19
481.935	24.15
482.289	24.1
482.642	24.42
482.995	24.22
483.348	24.09
483.701	24.09
484.055	24.23
484.408	24.06
484.761	24.05
485.114	24.04
485.466	23.98
485.819	23.66
486.172	23.16
486.525	22.95
486.878	22.93
487.23	23.22
487.583	23.6
487.936	23.95
488.288	24.12
488.641	24.02
488.993	24.14
489.345	23.91
489.698	23.83
490.05	23.75
490.402	23.65
490.754	23.58
491.107	23.81
491.459	24
491.811	24.39
492.163	24.61
492.515	24.58
492.866	24.77
493.218	24.68
493.57	24.31
493.922	23.95
494.274	23.84
494.625	24.03
494.977	24.24
495.328	24.58
495.68	24.74
496.031	24.85
496.383	24.97
496.734	25.25
497.086	25.18
497.437	25.2
497.788	25.17
498.139	25.3
498.49	25.23
498.842	25.24
499.193	24.91
499.544	25.02
499.894	25.19
500.245	25.29
500.596	25.21
500.947	25.28
501.298	25.35
501.648	25.5
501.999	25.51
502.35	25.42
502.7	25.66
503.051	25.65
503.401	25.85
503.752	25.72
504.102	25.82
504.452	25.79
504.803	25.96
505.153	25.88
505.503	25.89
505.853	25.88
506.203	25.93
506.553	25.84
506.903	25.87
507.253	25.92
507.603	25.99
507.953	25.87
508.303	26.13
508.652	26.22
509.002	26.12
509.352	26.01
509.701	26.19
510.051	26.12
510.4	26.2
510.75	26.07
511.099	26.04
511.449	25.9
511.798	26.01
512.147	25.96
512.496	26.28
512.846	26.08
513.195	26.29
513.544	26.33
513.893	26.31
514.242	26.3
514.591	26.55
514.939	26.4
515.288	26.29
515.637	26.29
515.986	26.42
516.334	26.44
516.683	26.52
517.032	26.46
517.38	26.68
517.729	26.73
518.077	26.86
518.426	26.89
518.774	26.83
519.122	26.76
519.47	26.82
519.819	26.64
520.167	26.78
520.515	26.59
520.863	26.32
521.211	26.42
521.559	26.3
521.907	26.51
522.255	26.53
522.602	26.69
522.95	26.76
523.298	26.97
523.645	26.8
523.993	26.9
524.341	27.12
524.688	27.03
525.036	27.17
525.383	27.28
525.73	27.31
526.078	27.38
526.425	27.34
526.772	27.15
527.119	27.14
527.466	27.15
527.814	26.95
528.161	26.86
528.508	26.85
528.854	26.88
529.201	27.07
529.548	27.03
529.895	27.2
530.242	27.29
530.588	26.95
530.935	26.49
531.282	26.22
531.628	26.17
531.975	26.35
532.321	26.57
532.667	26.89
533.014	27.14
533.36	27.14
533.706	27.32
534.052	27.53
534.399	27.46
534.745	27.52
535.091	27.49
535.437	27.15
535.783	26.81
536.129	26.79
536.474	26.92
536.82	27.3
537.166	27.35
537.512	27.66
537.857	27.98
538.203	27.9
538.549	27.72
538.894	27.48
539.239	27.3
539.585	27.48
539.93	27.77
540.276	27.99
540.621	28.02
540.966	28.15
541.311	28.28
541.656	28.37
542.001	28.32
542.346	28.36
542.691	28.16
543.036	28.06
543.381	27.77
543.726	27.63
544.071	27.16
544.415	27.4
544.76	27.59
545.105	27.88
545.449	28.02
545.794	27.81
546.138	27.99
546.483	28.13
546.827	28.34
547.171	28.32
547.516	28.59
547.86	28.47
548.204	28.41
548.548	28.48
548.892	28.48
549.236	28.23
549.58	28.37
549.924	28.45
550.268	28.53
550.612	28.79
550.956	28.88
551.3	28.85
551.643	28.99
551.987	28.94
552.33	29.19
552.674	29.04
553.017	29.12
553.361	29.31
553.704	29.32
554.048	29.26
554.391	29.29
554.734	29.31
555.077	29.19
555.42	29.19
555.764	28.99
556.107	29.1
556.45	29.47
556.793	29.49
557.135	29.3
557.478	29.22
557.821	29.48
558.164	29.61
558.507	29.53
558.849	29.53
559.192	29.73
559.534	29.57
559.877	29.87
560.219	29.5
560.562	29.78
560.904	29.86
561.246	29.64
561.589	29.73
561.931	29.77
562.273	29.64
562.615	29.75
562.957	29.74
563.299	29.96
563.641	29.83
563.983	29.89
564.325	29.74
564.667	30.05
565.008	29.97
565.35	30.01
565.692	29.84
566.033	29.82
566.375	30.15
566.716	30.3
567.058	30.07
567.399	30
567.741	30.06
568.082	30.28
568.423	29.84
568.764	29.91
569.105	29.85
569.447	29.83
569.788	30.13
570.129	29.99
570.47	30.31
570.811	30.08
571.151	30.47
571.492	30.34
571.833	30.44
572.174	30.5
572.514	30.28
572.855	30.56
573.195	30.59
573.536	30.56
573.876	30.27
574.217	30.33
574.557	30.2
574.898	30.2
575.238	30.41
575.578	30.3
575.918	30.47
576.258	30.31
576.598	30.56
576.938	30.61
577.278	30.94
577.618	30.58
577.958	30.74
578.298	30.68
578.638	30.63
578.977	30.77
579.317	30.63
579.657	30.69
579.996	30.48
580.336	30.92
580.675	30.86
581.014	31.03
581.354	30.94
581.693	31.1
582.032	31.14
582.372	31.18
582.711	31.08
583.05	31.42
583.389	31.2
583.728	31.22
584.067	31.44
584.406	31.47
584.745	31.37
585.083	31.32
585.422	31.57
585.761	31.4
586.1	31.62
586.438	31.31
586.777	31.39
587.115	31.1
587.454	31.49
587.792	31.41
588.13	31.59
588.469	31.52
588.807	31.56
589.145	32
589.483	31.72
589.821	31.83
590.159	31.8
590.497	31.8
590.835	31.75
591.173	31.86
591.511	31.41
591.849	31.7
592.187	31.73
592.524	31.91
592.862	31.47
593.2	31.79
593.537	31.62
593.875	31.59
594.212	31.93
594.55	31.76
594.887	31.87
595.224	31.73
595.561	32.21
595.899	32.24
596.236	31.76
596.573	31.93
596.91	31.98
597.247	31.93
597.584	31.88
597.921	31.98
598.258	32.16
598.594	31.95
598.931	32.34
599.268	31.93
599.604	31.85
599.941	31.45
600.277	31.42
600.614	31.91
600.95	31.88
601.287	32.17
601.623	32.29
601.959	32.27
602.296	32.34
602.632	32.28
602.968	32.37
603.304	32.3
603.64	32.28
603.976	32.28
604.312	32.58
604.648	32.39
604.984	32.52
605.319	32.46
605.655	32.58
605.991	32.29
606.326	32.44
606.662	32.38
606.998	32.14
607.333	31.99
607.668	31.95
608.004	32.26
608.339	32.32
608.674	32.31
609.01	32.49
609.345	32.53
609.68	32.69
610.015	32.97
610.35	32.99
610.685	33
611.02	32.82
611.355	32.86
611.689	32.66
612.024	32.49
612.359	32.36
612.694	32.4
613.028	32.81
613.363	32.77
613.697	33.1
614.032	32.93
614.366	32.62
614.7	33.08
615.035	33.06
615.369	33.06
615.703	33.08
616.037	32.93
616.371	33.47
616.705	33.16
617.039	33.35
617.373	33
617.707	33.07
618.041	33.14
618.375	33.05
618.709	33.09
619.042	33.4
619.376	33.43
619.71	32.96
620.043	33.3
620.377	33.27
620.71	32.98
621.043	33.34
621.377	33.6
621.71	33.27
622.043	33.23
622.376	33.32
622.709	33.91
623.043	33.44
623.376	33.68
623.709	33.62
624.041	33.42
624.374	33.82
624.707	33.47
625.04	33.7
625.373	33.45
625.705	33.63
626.038	33.52
626.37	33.75
626.703	33.64
627.035	33.62
627.368	33.75
627.7	33.78
628.032	33.57
628.365	33.83
628.697	34.17
629.029	33.54
629.361	33.62
629.693	33.69
630.025	33.89
630.357	33.99
630.689	33.64
631.021	33.82
631.353	34.09
631.684	34
632.016	34.08
632.348	34.03
632.679	34.17
633.011	33.99
633.342	33.94
633.674	33.73
634.005	33.7
634.336	34.31
634.668	34.32
634.999	34.23
635.33	34.28
635.661	34.69
635.992	34.73
636.323	34.19
636.654	34.07
636.985	34.13
637.316	34.2
637.647	34.36
637.977	34.28
638.308	34.38
638.639	34.1
638.969	34.11
639.3	33.91
639.63	34.31
639.961	34.7
640.291	34.53
640.622	34.42
640.952	34.45
641.282	34.34
641.612	34.05
641.943	34.42
642.273	34.26
642.603	34.53
642.933	34.88
643.263	34.84
643.592	34.82
643.922	34.68
644.252	35.12
644.582	34.68
644.911	34.27
645.241	34.43
645.571	35.15
645.9	34.5
646.23	34.69
646.559	34.92
646.888	34.64
647.218	35.09
647.547	34.31
647.876	35.16
648.205	34.85
648.534	34.6
648.863	34.96
649.192	34.86
649.521	34.68
649.85	35.31
650.179	34.94
650.508	35.34
650.837	34.43
651.165	34.96
651.494	35.03
651.822	34.62
652.151	34.43
652.479	35.22
652.808	34.95
653.136	35.26
653.465	35.38
653.793	34.68
654.121	34.56
654.449	35.13
654.777	35.08
655.105	35.1
655.433	35.46
655.761	35.28
656.089	35.01
656.417	35.23
656.745	35.66
657.073	35
657.4	35.46
657.728	35.79
658.056	35.36
658.383	35.49
658.711	35.38
659.038	35.7
659.365	34.97
659.693	35.46
660.02	35.77
660.347	35.72
660.674	35.85
661.001	35.76
661.329	35.85
661.656	35.43
661.982	34.86
662.309	35.07
662.636	35.43
662.963	35.48
663.29	35.82
663.616	35.37
663.943	35.61
664.27	35.93
664.596	36.09
664.923	35.75
665.249	35.69
665.576	35.5
665.902	35.61
666.228	36.51
666.554	36.22
666.881	36.25
667.207	36.39
667.533	35.41
667.859	35.31
668.185	36.61
668.511	36.16
668.837	35.94
669.162	35.98
669.488	36.1
669.814	36.53
670.139	35.9
670.465	36.45
670.791	36.37
671.116	36.11
