Data from 1710-4_crown_Reflection__1__172.txt Node

Date: Fri Sep 30 19:27:10 CDT 2022
User: ToomeyLab
Spectrometer: FLMS14357
Trigger mode: 0
Integration Time (sec): 1.000000E-2
Scans to average: 100
Electric dark correction enabled: true
Nonlinearity correction enabled: false
Boxcar width: 0
XAxis mode: Wavelengths
Number of Pixels in Spectrum: 2048
>>>>>Begin Spectral Data<<<<<
189.047	-169.52
189.435	-169.52
189.823	-169.52
190.211	-23.49
190.599	127.15
190.987	13.16
191.375	160.86
191.763	51.51
192.151	-50.29
192.538	-2451.02
192.926	84.17
193.314	89.2
193.702	-12.3
194.089	-535.15
194.477	165.03
194.864	170.47
195.252	-427.01
195.639	73.9
196.027	237.1
196.414	40.32
196.801	303.92
197.189	241.47
197.576	66.51
197.963	22.67
198.351	16.11
198.738	-4.28
199.125	-5.47
199.512	32.74
199.899	-36.63
200.286	15.87
200.673	-26.6
201.06	-1.05
201.447	21.46
201.833	15.22
202.22	-35.95
202.607	104.13
202.994	-3.37
203.38	59.93
203.767	-23.54
204.154	-10.76
204.54	23.43
204.927	-23.14
205.313	30.42
205.699	1.61
206.086	25.14
206.472	42.32
206.858	22.46
207.245	-28.45
207.631	7.11
208.017	7.24
208.403	53.21
208.789	33.65
209.175	22.66
209.561	20.56
209.947	49.56
210.333	42.18
210.719	28.16
211.105	12.39
211.491	22.76
211.876	26.96
212.262	34.26
212.648	23.24
213.034	38.66
213.419	30.46
213.805	12.7
214.19	-0.15
214.576	4.59
214.961	39.69
215.346	37.24
215.732	5.62
216.117	9.52
216.502	31.16
216.888	9.49
217.273	28.42
217.658	-1.39
218.043	26.26
218.428	34.41
218.813	-38.87
219.198	21.6
219.583	-11.11
219.968	-15.02
220.353	2.92
220.738	27.42
221.122	4.27
221.507	28.44
221.892	-9.53
222.276	-5.48
222.661	0.86
223.046	6.38
223.43	7.36
223.815	11.25
224.199	18.67
224.583	16.71
224.968	10.55
225.352	-2.25
225.736	11.68
226.121	10.89
226.505	13.68
226.889	12.81
227.273	15.58
227.657	3.75
228.041	7.97
228.425	7.51
228.809	11.79
229.193	7.31
229.577	11.34
229.961	9.65
230.344	10.35
230.728	10.08
231.112	10.49
231.495	8.83
231.879	8.78
232.263	10.18
232.646	10.65
233.03	8.07
233.413	9.13
233.797	6.09
234.18	8.7
234.563	9.67
234.946	9.22
235.33	7.84
235.713	7.09
236.096	8.81
236.479	8.65
236.862	7.77
237.245	9.4
237.628	9.44
238.011	8.57
238.394	7.64
238.777	6.62
239.16	8.08
239.543	9.62
239.925	7.88
240.308	8.56
240.691	6.6
241.073	6.65
241.456	9.72
241.838	8.84
242.221	9.32
242.603	9.63
242.986	8.64
243.368	9.11
243.75	8.12
244.133	8.16
244.515	7.81
244.897	8.25
245.279	7.96
245.661	8.23
246.043	7.62
246.425	8.26
246.807	8.57
247.189	8.28
247.571	8.37
247.953	8.18
248.335	8.52
248.717	8.1
249.098	7.96
249.48	7.82
249.862	7.5
250.243	8.28
250.625	7.38
251.006	8.24
251.388	8.11
251.769	7.44
252.151	7.36
252.532	7.66
252.913	6.96
253.295	7.98
253.676	8.05
254.057	8.1
254.438	8.43
254.819	7.03
255.2	7.48
255.581	8.23
255.962	8.35
256.343	6.31
256.724	8.88
257.105	7.53
257.486	6.95
257.867	9.03
258.247	7.89
258.628	7.21
259.009	8.5
259.389	8.28
259.77	7.3
260.15	7.8
260.531	8.19
260.911	7.48
261.292	7.84
261.672	7.4
262.052	7.36
262.432	7.58
262.813	8.21
263.193	7.31
263.573	7.83
263.953	7.58
264.333	7.69
264.713	7.58
265.093	7.57
265.473	8.15
265.853	7.43
266.233	6.97
266.612	8.05
266.992	7.33
267.372	7.43
267.752	6.64
268.131	7.48
268.511	7.2
268.89	6.79
269.27	8.2
269.649	7.26
270.029	7.4
270.408	7.18
270.787	7.08
271.167	7.3
271.546	7.35
271.925	7.25
272.304	7.19
272.683	7.35
273.062	7.38
273.441	6.64
273.82	7.39
274.199	7.3
274.578	7
274.957	6.88
275.336	7.11
275.715	6.42
276.093	7.26
276.472	7.14
276.851	7.81
277.229	7.52
277.608	7.51
277.986	6.78
278.365	7.13
278.743	7.67
279.122	6.12
279.5	7.16
279.878	6.47
280.257	6.67
280.635	7.23
281.013	6.84
281.391	7.07
281.769	6.82
282.147	6.29
282.525	7.65
282.903	6.49
283.281	7.19
283.659	7.09
284.037	7.35
284.415	5.93
284.792	6.84
285.17	7.12
285.548	6.89
285.925	6.7
286.303	6.62
286.68	6.64
287.058	6.89
287.435	6.78
287.813	6.42
288.19	6.76
288.567	6.85
288.945	6.43
289.322	6.91
289.699	6.38
290.076	6.45
290.453	7.04
290.83	6.26
291.207	7.12
291.584	6.62
291.961	6.88
292.338	6.37
292.715	6.93
293.092	6.44
293.469	6.05
293.845	6.52
294.222	6.19
294.599	6.44
294.975	6.61
295.352	6.42
295.728	6.61
296.105	6.54
296.481	6.18
296.858	6.07
297.234	5.69
297.61	6.26
297.986	6.76
298.363	6.03
298.739	6.71
299.115	5.91
299.491	6.02
299.867	5.84
300.243	6.34
300.619	6.15
300.995	6.53
301.371	6.62
301.746	6.26
302.122	6.04
302.498	5.68
302.874	5.92
303.249	6.07
303.625	5.76
304	5.82
304.376	5.7
304.751	6.08
305.127	6.12
305.502	5.99
305.878	5.99
306.253	6.41
306.628	5.65
307.003	6.24
307.378	5.88
307.754	5.49
308.129	6.02
308.504	5.51
308.879	5.99
309.254	5.78
309.629	5.42
310.003	5.69
310.378	6.12
310.753	5.38
311.128	5.51
311.502	6.08
311.877	5.82
312.252	5.48
312.626	5.91
313.001	5.6
313.375	5.42
313.75	5.89
314.124	5.08
314.498	5.38
314.873	5.33
315.247	5.6
315.621	5.87
315.995	5.41
316.369	5.79
316.743	6
317.117	5.56
317.491	4.77
317.865	5.52
318.239	5.71
318.613	5.71
318.987	5.43
319.361	5.51
319.734	5.15
320.108	5.48
320.482	5.11
320.855	5.33
321.229	6.03
321.602	5.52
321.976	5.79
322.349	5.27
322.723	5.1
323.096	5.03
323.469	5.38
323.843	4.72
324.216	5.09
324.589	5.58
324.962	5.1
325.335	5.2
325.708	5.54
326.081	5.49
326.454	5.54
326.827	5.27
327.2	5.57
327.573	5.61
327.945	5.17
328.318	5.21
328.691	5.12
329.063	4.95
329.436	5.31
329.809	5.62
330.181	4.82
330.553	5.43
330.926	4.88
331.298	4.8
331.671	5.12
332.043	5.37
332.415	5.08
332.787	5.32
333.159	5.09
333.532	5.26
333.904	5.08
334.276	5.46
334.648	5.47
335.02	5.42
335.391	5.43
335.763	5.05
336.135	5.03
336.507	5.68
336.879	5.21
337.25	5.23
337.622	5.01
337.993	4.74
338.365	5.4
338.736	5.13
339.108	5.12
339.479	5.2
339.851	4.93
340.222	4.78
340.593	5.14
340.964	5.61
341.336	4.89
341.707	5.12
342.078	5.04
342.449	5.07
342.82	4.78
343.191	4.93
343.562	5.02
343.933	5.12
344.303	4.82
344.674	5.1
345.045	4.98
345.416	5.09
345.786	5.01
346.157	4.51
346.527	4.95
346.898	5
347.268	5.05
347.639	4.64
348.009	4.56
348.38	4.92
348.75	5.07
349.12	5.04
349.49	4.88
349.861	5.1
350.231	5.16
350.601	4.89
350.971	4.52
351.341	5.14
351.711	4.98
352.081	4.99
352.45	4.85
352.82	4.93
353.19	4.93
353.56	4.99
353.929	4.94
354.299	4.75
354.669	4.74
355.038	5.07
355.408	4.82
355.777	4.76
356.147	4.86
356.516	5.08
356.885	4.97
357.254	5.08
357.624	4.71
357.993	4.9
358.362	4.56
358.731	4.87
359.1	5.01
359.469	4.98
359.838	4.94
360.207	5.22
360.576	5.14
360.945	4.81
361.314	4.7
361.682	5
362.051	5.23
362.42	4.82
362.788	5
363.157	4.82
363.525	5.05
363.894	4.87
364.262	4.69
364.631	5.02
364.999	5.02
365.367	5.23
365.735	4.93
366.104	4.6
366.472	4.9
366.84	4.86
367.208	4.86
367.576	5.27
367.944	4.91
368.312	4.78
368.68	4.83
369.048	4.89
369.416	5.01
369.783	5.02
370.151	4.67
370.519	4.63
370.886	5.33
371.254	4.95
371.621	5.47
371.989	4.93
372.356	4.83
372.724	5.14
373.091	4.97
373.458	4.73
373.826	4.9
374.193	5.04
374.56	5.02
374.927	4.8
375.294	5.15
375.661	5.16
376.028	5.33
376.395	5.17
376.762	5.26
377.129	5.1
377.496	4.79
377.863	5.13
378.229	5.04
378.596	5.08
378.963	4.9
379.329	5.05
379.696	5.19
380.062	5
380.429	5.13
380.795	4.62
381.161	5.09
381.528	4.87
381.894	5.28
382.26	5.04
382.626	5.14
382.993	5.09
383.359	5.05
383.725	5.08
384.091	5
384.457	5.18
384.823	5.35
385.188	5.21
385.554	5.34
385.92	5.13
386.286	5.11
386.651	5.44
387.017	5.06
387.383	5.56
387.748	5.22
388.114	5.37
388.479	5.19
388.845	5.23
389.21	5.21
389.575	5.2
389.94	5.07
390.306	5.07
390.671	5.25
391.036	4.76
391.401	5.17
391.766	4.96
392.131	5.23
392.496	5.23
392.861	5.41
393.226	5.35
393.591	5.32
393.956	5.37
394.32	5.32
394.685	5.04
395.05	5.16
395.414	5.18
395.779	5.22
396.143	5.16
396.508	5.18
396.872	5.18
397.236	5.36
397.601	5.39
397.965	5.36
398.329	5.23
398.694	5.08
399.058	5.57
399.422	5.38
399.786	5.42
400.15	5.31
400.514	5.71
400.878	5.31
401.242	5.41
401.605	5.61
401.969	5.27
402.333	5.46
402.697	5.53
403.06	5.39
403.424	5.45
403.787	5.38
404.151	5.19
404.514	5.3
404.878	5.24
405.241	5.57
405.604	5.52
405.968	5.35
406.331	5.46
406.694	5.33
407.057	5.48
407.42	5.51
407.783	5.6
408.146	5.5
408.509	5.44
408.872	5.22
409.235	5.69
409.598	5.5
409.961	5.6
410.323	5.4
410.686	5.76
411.049	5.22
411.411	5.46
411.774	5.43
412.136	5.59
412.499	5.56
412.861	5.47
413.223	5.64
413.586	5.44
413.948	5.4
414.31	5.5
414.672	5.37
415.035	5.43
415.397	5.27
415.759	5.56
416.121	5.51
416.483	5.56
416.845	5.49
417.206	5.74
417.568	5.84
417.93	5.25
418.292	5.6
418.653	5.52
419.015	5.62
419.377	5.53
419.738	5.51
420.1	5.54
420.461	5.42
420.822	5.47
421.184	5.42
421.545	5.43
421.906	5.49
422.267	5.54
422.629	5.49
422.99	5.44
423.351	5.48
423.712	5.36
424.073	5.54
424.434	5.51
424.795	5.47
425.155	5.54
425.516	5.42
425.877	5.43
426.238	5.45
426.598	5.48
426.959	5.49
427.32	5.58
427.68	5.6
428.041	5.53
428.401	5.55
428.761	5.63
429.122	5.72
429.482	5.7
429.842	5.64
430.202	5.82
430.563	5.52
430.923	5.54
431.283	5.6
431.643	5.77
432.003	5.66
432.363	5.66
432.722	5.77
433.082	5.76
433.442	5.79
433.802	5.53
434.161	5.87
434.521	5.5
434.881	5.58
435.24	5.6
435.6	5.69
435.959	5.72
436.319	5.56
436.678	5.81
437.037	5.79
437.396	5.69
437.756	5.72
438.115	5.65
438.474	5.95
438.833	5.79
439.192	5.73
439.551	5.82
439.91	5.7
440.269	5.79
440.628	5.71
440.987	5.84
441.345	5.65
441.704	5.67
442.063	5.87
442.421	5.76
442.78	5.7
443.138	5.62
443.497	5.78
443.855	5.89
444.214	5.71
444.572	5.86
444.93	5.89
445.288	5.84
445.647	5.81
446.005	5.83
446.363	5.88
446.721	5.82
447.079	5.63
447.437	5.74
447.795	5.8
448.153	5.86
448.51	5.62
448.868	5.74
449.226	5.69
449.584	5.71
449.941	5.76
450.299	5.8
450.656	5.78
451.014	5.77
451.371	5.94
451.729	5.81
452.086	6
452.443	6.02
452.801	5.84
453.158	5.84
453.515	5.86
453.872	5.97
454.229	5.79
454.586	5.74
454.943	5.77
455.3	5.88
455.657	5.99
456.014	5.99
456.371	6.06
456.727	5.82
457.084	5.98
457.441	5.94
457.797	5.92
458.154	5.99
458.51	5.92
458.867	5.91
459.223	6.01
459.58	6.07
459.936	6.14
460.292	5.96
460.648	6.05
461.005	5.78
461.361	5.93
461.717	5.9
462.073	5.85
462.429	5.86
462.785	5.91
463.141	5.89
463.496	6.01
463.852	6.02
464.208	6.08
464.564	6.12
464.919	5.84
465.275	6.15
465.631	6.14
465.986	6.05
466.342	5.94
466.697	6.01
467.052	5.96
467.408	6.22
467.763	6.15
468.118	6.1
468.473	6.02
468.829	5.98
469.184	6.13
469.539	6.09
469.894	6.15
470.249	6.14
470.603	6.17
470.958	6.17
471.313	6.03
471.668	6.02
472.023	6.16
472.377	6.08
472.732	6.16
473.086	6.17
473.441	6.02
473.795	6.23
474.15	6.25
474.504	6
474.859	6.25
475.213	6.23
475.567	6.13
475.921	6.12
476.275	6.02
476.63	6.34
476.984	6.13
477.338	6.16
477.692	6.15
478.045	6.17
478.399	6.19
478.753	6.19
479.107	6.12
479.461	6.1
479.814	6.14
480.168	6.19
480.521	6.15
480.875	6.24
481.228	6.15
481.582	6.27
481.935	6.08
482.289	6.04
482.642	6.28
482.995	6.15
483.348	6.12
483.701	6.12
484.055	6.24
484.408	6.08
484.761	6.01
485.114	5.94
485.466	5.89
485.819	5.9
486.172	5.82
486.525	5.84
486.878	5.84
487.23	5.94
487.583	5.95
487.936	6.03
488.288	6.1
488.641	5.99
488.993	5.94
489.345	5.95
489.698	5.95
490.05	5.94
490.402	5.89
490.754	6.02
491.107	6.06
491.459	6.02
491.811	6.16
492.163	6.18
492.515	6.11
492.866	6.12
493.218	6.05
493.57	6.04
493.922	5.92
494.274	5.98
494.625	6.12
494.977	6.15
495.328	6.08
495.68	6.17
496.031	6.18
496.383	6.27
496.734	6.3
497.086	6.27
497.437	6.14
497.788	6.13
498.139	6.22
498.49	6.17
498.842	6.4
499.193	6.17
499.544	6.12
499.894	6.34
500.245	6.43
500.596	6.23
500.947	6.3
501.298	6.43
501.648	6.43
501.999	6.28
502.35	6.37
502.7	6.38
503.051	6.49
503.401	6.42
503.752	6.19
504.102	6.37
504.452	6.22
504.803	6.34
505.153	6.31
505.503	6.34
505.853	6.39
506.203	6.42
506.553	6.43
506.903	6.44
507.253	6.42
507.603	6.48
507.953	6.26
508.303	6.47
508.652	6.38
509.002	6.45
509.352	6.46
509.701	6.35
510.051	6.39
510.4	6.44
510.75	6.43
511.099	6.41
511.449	6.25
511.798	6.35
512.147	6.27
512.496	6.42
512.846	6.42
513.195	6.33
513.544	6.44
513.893	6.34
514.242	6.38
514.591	6.45
514.939	6.38
515.288	6.52
515.637	6.41
515.986	6.42
516.334	6.45
516.683	6.53
517.032	6.48
517.38	6.49
517.729	6.5
518.077	6.45
518.426	6.5
518.774	6.53
519.122	6.45
519.47	6.44
519.819	6.55
520.167	6.29
520.515	6.4
520.863	6.42
521.211	6.38
521.559	6.27
521.907	6.41
522.255	6.35
522.602	6.56
522.95	6.44
523.298	6.41
523.645	6.51
523.993	6.43
524.341	6.28
524.688	6.55
525.036	6.48
525.383	6.61
525.73	6.46
526.078	6.54
526.425	6.46
526.772	6.43
527.119	6.41
527.466	6.39
527.814	6.48
528.161	6.38
528.508	6.45
528.854	6.4
529.201	6.39
529.548	6.31
529.895	6.31
530.242	6.29
530.588	6.22
530.935	6.21
531.282	6.2
531.628	6.2
531.975	6.2
532.321	6.25
532.667	6.32
533.014	6.4
533.36	6.51
533.706	6.53
534.052	6.53
534.399	6.37
534.745	6.4
535.091	6.39
535.437	6.39
535.783	6.35
536.129	6.31
536.474	6.3
536.82	6.45
537.166	6.34
537.512	6.41
537.857	6.45
538.203	6.43
538.549	6.49
538.894	6.52
539.239	6.44
539.585	6.46
539.93	6.52
540.276	6.62
540.621	6.57
540.966	6.57
541.311	6.51
541.656	6.44
542.001	6.5
542.346	6.44
542.691	6.4
543.036	6.38
543.381	6.37
543.726	6.42
544.071	6.29
544.415	6.41
544.76	6.37
545.105	6.46
545.449	6.45
545.794	6.46
546.138	6.47
546.483	6.54
546.827	6.58
547.171	6.61
547.516	6.47
547.86	6.59
548.204	6.42
548.548	6.51
548.892	6.56
549.236	6.5
549.58	6.57
549.924	6.53
550.268	6.49
550.612	6.53
550.956	6.75
551.3	6.6
551.643	6.66
551.987	6.47
552.33	6.76
552.674	6.8
553.017	6.62
553.361	6.73
553.704	6.54
554.048	6.76
554.391	6.71
554.734	6.69
555.077	6.46
555.42	6.62
555.764	6.65
556.107	6.65
556.45	6.8
556.793	6.76
557.135	6.63
557.478	6.64
557.821	6.67
558.164	6.7
558.507	6.68
558.849	6.73
559.192	6.84
559.534	6.78
559.877	6.91
560.219	6.85
560.562	6.91
560.904	6.71
561.246	6.66
561.589	6.74
561.931	6.66
562.273	6.55
562.615	6.62
562.957	6.62
563.299	6.69
563.641	6.81
563.983	6.81
564.325	6.64
564.667	6.56
565.008	6.81
565.35	6.53
565.692	6.65
566.033	6.55
566.375	6.72
566.716	6.72
567.058	6.79
567.399	6.52
567.741	6.62
568.082	6.65
568.423	6.76
568.764	6.58
569.105	6.62
569.447	6.59
569.788	6.7
570.129	6.64
570.47	6.44
570.811	6.53
571.151	6.68
571.492	6.64
571.833	6.41
572.174	6.57
572.514	6.7
572.855	6.68
573.195	6.63
573.536	6.57
573.876	6.55
574.217	6.67
574.557	6.68
574.898	6.58
575.238	6.52
575.578	6.42
575.918	6.59
576.258	6.58
576.598	6.42
576.938	6.64
577.278	6.53
577.618	6.54
577.958	6.45
578.298	6.43
578.638	6.76
578.977	6.67
579.317	6.68
579.657	6.63
579.996	6.66
580.336	6.49
580.675	6.51
581.014	6.61
581.354	6.49
581.693	6.77
582.032	6.73
582.372	6.63
582.711	6.64
583.05	6.97
583.389	6.6
583.728	6.69
584.067	6.83
584.406	6.63
584.745	6.65
585.083	6.67
585.422	6.81
585.761	6.67
586.1	6.75
586.438	6.39
586.777	6.38
587.115	6.52
587.454	6.56
587.792	6.66
588.13	6.65
588.469	6.54
588.807	6.71
589.145	7.04
589.483	6.73
589.821	6.79
590.159	6.67
590.497	6.68
590.835	6.65
591.173	6.69
591.511	6.55
591.849	6.45
592.187	6.59
592.524	6.66
592.862	6.47
593.2	6.61
593.537	6.52
593.875	6.66
594.212	6.9
594.55	6.47
594.887	6.77
595.224	6.49
595.561	6.61
595.899	6.63
596.236	6.67
596.573	6.59
596.91	6.76
597.247	6.64
597.584	6.58
597.921	6.63
598.258	6.72
598.594	6.37
598.931	6.68
599.268	6.4
599.604	6.49
599.941	6.26
600.277	6.62
600.614	6.62
600.95	6.51
601.287	6.37
601.623	6.37
601.959	6.41
602.296	6.76
602.632	6.74
602.968	6.57
603.304	6.67
603.64	6.6
603.976	6.6
604.312	6.43
604.648	6.8
604.984	6.45
605.319	6.51
605.655	6.43
605.991	6.43
606.326	6.41
606.662	6.56
606.998	6.45
607.333	6.6
607.668	6.42
608.004	6.4
608.339	6.51
608.674	6.5
609.01	6.51
609.345	6.46
609.68	6.32
610.015	6.52
610.35	6.58
610.685	6.47
611.02	6.47
611.355	6.52
611.689	6.48
612.024	6.53
612.359	6.44
612.694	6.44
613.028	6.53
613.363	6.34
613.697	6.61
614.032	6.53
614.366	6.27
614.7	6.63
615.035	6.89
615.369	6.72
615.703	6.51
616.037	6.27
616.371	6.73
616.705	6.12
617.039	6.4
617.373	6.23
617.707	6.37
618.041	6.5
618.375	6.61
618.709	6.6
619.042	6.65
619.376	6.83
619.71	6.54
620.043	6.39
620.377	6.19
620.71	5.97
621.043	6.19
621.377	6.58
621.71	6.44
622.043	6.07
622.376	6.51
622.709	6.77
623.043	6.42
623.376	6.44
623.709	6.44
624.041	6.36
624.374	6.65
624.707	6.46
625.04	6.61
625.373	6.46
625.705	6.55
626.038	6.49
626.37	6.41
626.703	6.48
627.035	6.39
627.368	6.14
627.7	6.42
628.032	6.13
628.365	6.41
628.697	6.25
629.029	6.16
629.361	6.03
629.693	6.46
630.025	6.38
630.357	6.52
630.689	6.09
631.021	6.69
631.353	6.47
631.684	6.2
632.016	6.31
632.348	6.05
632.679	6.51
633.011	6.17
633.342	6.44
633.674	5.99
634.005	6.7
634.336	6.53
634.668	6.39
634.999	6.35
635.33	6.64
635.661	6.7
635.992	6.17
636.323	6.6
636.654	6.23
636.985	6.21
637.316	6.25
637.647	6.56
637.977	6.5
638.308	6.48
638.639	6.46
638.969	6.35
639.3	6.16
639.63	6.45
639.961	6.73
640.291	6.48
640.622	6.53
640.952	6.67
641.282	6.07
641.612	6.57
641.943	6.47
642.273	6.05
642.603	6.57
642.933	6.15
643.263	6.27
643.592	6.24
643.922	6.29
644.252	6.45
644.582	6.57
644.911	6.24
645.241	6.15
645.571	6.52
645.9	6.27
646.23	6.99
646.559	6.38
646.888	6.2
647.218	6.66
647.547	6.29
647.876	6.83
648.205	6.15
648.534	5.9
648.863	6.46
649.192	6.5
649.521	5.93
649.85	6.94
650.179	6.45
650.508	6.46
650.837	6.17
651.165	6.54
651.494	6.47
651.822	6.52
652.151	6.21
652.479	6.77
652.808	6.53
653.136	6.39
653.465	6.01
653.793	6.22
654.121	6.34
654.449	6.44
654.777	6.19
655.105	6.2
655.433	6.66
655.761	6.44
656.089	6.27
656.417	6.27
656.745	6.46
657.073	6.27
657.4	6.43
657.728	6.71
658.056	6.72
658.383	6.61
658.711	5.74
659.038	6.4
659.365	6.05
659.693	6.72
660.02	6.79
660.347	5.95
660.674	6.5
661.001	6.24
661.329	6.39
661.656	6.14
661.982	5.87
662.309	6.43
662.636	6.1
662.963	6.53
663.29	6.24
663.616	5.75
663.943	6.58
664.27	6.59
664.596	6.71
664.923	6.42
665.249	6.68
665.576	5.83
665.902	6.83
666.228	6.03
666.554	6.49
666.881	6.46
667.207	6.57
667.533	6.17
667.859	5.77
668.185	6.33
668.511	6.67
668.837	6.69
669.162	6.28
669.488	6.05
669.814	6.15
670.139	6.19
670.465	5.91
670.791	5.77
671.116	5.98
671.442	6.35
671.767	6.04
672.092	6.15
672.418	6.2
672.743	6.59
673.068	6.41
673.393	6.09
673.718	6.25
674.043	6.03
674.368	6.54
674.693	6
675.018	6.38
675.343	5.93
675.667	5.5
675.992	6.09
676.317	6.41
676.641	6.13
676.966	6.17
677.29	6.8
677.615	5.83
677.939	6.43
678.264	6.24
678.588	6.48
678.912	6.36
679.236	6.54
679.56	5.68
679.885	7.2
680.209	6.65
680.532	5.89
680.856	6.28
681.18	6.23
681.504	6.52
681.828	6.53
682.152	6.8
682.475	6.21
682.799	6.51
683.122	5.66
683.446	6.03
683.769	6.1
684.093	6.4
684.416	6.29
684.739	6.2
685.062	6.06
685.386	6.02
685.709	5.99
686.032	7.18
686.355	5.71
686.678	5.95
687.001	5.99
687.324	6.44
687.646	6.62
687.969	6.27
688.292	6.23
688.614	6.13
688.937	6.52
689.26	6.87
689.582	5.96
689.904	6.69
690.227	6
690.549	6.96
690.871	5.68
691.194	7.11
691.516	6.14
691.838	5.76
692.16	6.48
