Data from 1710-4_crown_Reflection__4__175.txt Node

Date: Fri Sep 30 19:27:42 CDT 2022
User: ToomeyLab
Spectrometer: FLMS14357
Trigger mode: 0
Integration Time (sec): 1.000000E-2
Scans to average: 100
Electric dark correction enabled: true
Nonlinearity correction enabled: false
Boxcar width: 0
XAxis mode: Wavelengths
Number of Pixels in Spectrum: 2048
>>>>>Begin Spectral Data<<<<<
189.047	-39.76
189.435	-39.76
189.823	-39.76
190.211	-36.6
190.599	53.25
190.987	65.09
191.375	-208.85
191.763	139.41
192.151	77.14
192.538	-5330.61
192.926	67.97
193.314	27.76
193.702	-108.26
194.089	-132.22
194.477	135.51
194.864	33.69
195.252	-59.65
195.639	73.44
196.027	-26.26
196.414	42.57
196.801	253.5
197.189	319.95
197.576	-77.05
197.963	36.42
198.351	31.86
198.738	-14.24
199.125	-15.5
199.512	27.65
199.899	32.74
200.286	1.14
200.673	-37.12
201.06	-100.75
201.447	-80.05
201.833	64.11
202.22	-19.15
202.607	-15.16
202.994	-40.38
203.38	2.07
203.767	-7.52
204.154	36.8
204.54	-13.01
204.927	-84.55
205.313	55.19
205.699	-17.93
206.086	8.26
206.472	29.12
206.858	33.09
207.245	-85.12
207.631	-19.79
208.017	31.79
208.403	27.39
208.789	60.13
209.175	41.97
209.561	15.09
209.947	36.91
210.333	37.13
210.719	9.16
211.105	14.81
211.491	29.95
211.876	43.26
212.262	51.52
212.648	9.98
213.034	7.84
213.419	-4.01
213.805	24.2
214.19	15.34
214.576	25.26
214.961	46.68
215.346	38.8
215.732	-25.29
216.117	14.73
216.502	31.26
216.888	5.11
217.273	21.04
217.658	-21.58
218.043	28.55
218.428	34.89
218.813	3.84
219.198	4.46
219.583	-6.81
219.968	2.5
220.353	-14.07
220.738	24.8
221.122	-4.13
221.507	3.56
221.892	6.49
222.276	-18.88
222.661	8.19
223.046	8.02
223.43	25.36
223.815	12.96
224.199	10.32
224.583	4.09
224.968	1.5
225.352	24.93
225.736	9.63
226.121	11.92
226.505	9.11
226.889	6.11
227.273	3.27
227.657	3.7
228.041	7.59
228.425	2.46
228.809	8.52
229.193	3.24
229.577	7.04
229.961	6.86
230.344	5.8
230.728	6.75
231.112	6.49
231.495	6.65
231.879	5.39
232.263	6.9
232.646	5.19
233.03	6.64
233.413	5.46
233.797	3.34
234.18	0.34
234.563	8.14
234.946	8.42
235.33	5.43
235.713	3.17
236.096	6.48
236.479	7.51
236.862	7.85
237.245	7.68
237.628	4.16
238.011	3.94
238.394	1.98
238.777	4.07
239.16	5.79
239.543	4.53
239.925	3.37
240.308	3.9
240.691	5.21
241.073	6.87
241.456	6.23
241.838	5.25
242.221	6.42
242.603	5.9
242.986	5
243.368	5.02
243.75	5.02
244.133	5.28
244.515	5.21
244.897	5.15
245.279	4.38
245.661	5.53
246.043	4.98
246.425	5.95
246.807	6.2
247.189	4.37
247.571	6
247.953	4.92
248.335	5.04
248.717	5.28
249.098	5.37
249.48	5.52
249.862	4.99
250.243	5.18
250.625	5.33
251.006	5.74
251.388	4.96
251.769	4.65
252.151	5.1
252.532	3.67
252.913	3.73
253.295	4.71
253.676	5.04
254.057	5.21
254.438	5.07
254.819	5.15
255.2	4.63
255.581	5.26
255.962	6.52
256.343	3.54
256.724	5.97
257.105	4.23
257.486	4.63
257.867	5.5
258.247	4.95
258.628	5.01
259.009	4.1
259.389	5.56
259.77	4.81
260.15	4.62
260.531	5.12
260.911	4.71
261.292	5.04
261.672	4.67
262.052	4.87
262.432	5.18
262.813	5.15
263.193	4.83
263.573	4.85
263.953	5.4
264.333	4.5
264.713	4.82
265.093	4.83
265.473	4.88
265.853	5.32
266.233	4.01
266.612	4.43
266.992	5.04
267.372	5.04
267.752	4.2
268.131	4.94
268.511	4.27
268.89	4.68
269.27	5.07
269.649	4.98
270.029	4.77
270.408	4.85
270.787	4.83
271.167	4.44
271.546	4.85
271.925	4.51
272.304	5.04
272.683	4.76
273.062	4.96
273.441	4.21
273.82	4.28
274.199	4.37
274.578	4.02
274.957	4.6
275.336	4.12
275.715	4.44
276.093	4.73
276.472	4.43
276.851	4.62
277.229	5.5
277.608	4.38
277.986	3.87
278.365	4.85
278.743	4.88
279.122	3.94
279.5	5.15
279.878	3.79
280.257	3.94
280.635	3.82
281.013	5.22
281.391	4.53
281.769	4.05
282.147	4.33
282.525	4.61
282.903	4.34
283.281	4.74
283.659	4.46
284.037	4.36
284.415	4.05
284.792	4.61
285.17	4.78
285.548	4.2
285.925	4.23
286.303	4.44
286.68	4.2
287.058	4.03
287.435	3.98
287.813	4.06
288.19	4.21
288.567	4.25
288.945	3.68
289.322	4.6
289.699	3.73
290.076	4.62
290.453	4.38
290.83	3.75
291.207	4.45
291.584	4.05
291.961	4.41
292.338	3.77
292.715	4.17
293.092	4.45
293.469	3.99
293.845	4.31
294.222	3.81
294.599	4.09
294.975	4.07
295.352	4.57
295.728	4.13
296.105	4.82
296.481	3.64
296.858	3.68
297.234	3.58
297.61	3.83
297.986	4.12
298.363	3.83
298.739	4.21
299.115	3.76
299.491	3.87
299.867	3.93
300.243	3.98
300.619	3.85
300.995	3.97
301.371	4.22
301.746	5.16
302.122	3.83
302.498	3.58
302.874	3.6
303.249	3.71
303.625	3.87
304	4.11
304.376	3.75
304.751	4.09
305.127	4.32
305.502	4
305.878	3.73
306.253	4.8
306.628	3.54
307.003	4.05
307.378	3.96
307.754	3.96
308.129	3.99
308.504	4.3
308.879	3.81
309.254	3.49
309.629	3.46
310.003	4.15
310.378	4.4
310.753	3.5
311.128	3.37
311.502	3.96
311.877	3.72
312.252	3.77
312.626	3.81
313.001	3.65
313.375	3.59
313.75	4.13
314.124	3.64
314.498	3.88
314.873	3.5
315.247	3.71
315.621	3.57
315.995	3.76
316.369	3.45
316.743	3.84
317.117	3.59
317.491	3.5
317.865	4.33
318.239	3.86
318.613	3.67
318.987	3.87
319.361	3.69
319.734	3.88
320.108	3.11
320.482	3.89
320.855	3.85
321.229	3.6
321.602	3.94
321.976	3.42
322.349	3.65
322.723	3
323.096	3.18
323.469	3.41
323.843	3.59
324.216	3.18
324.589	3.7
324.962	3.31
325.335	3.36
325.708	3.59
326.081	3.98
326.454	3.86
326.827	3.8
327.2	3.67
327.573	3.65
327.945	3.65
328.318	3.82
328.691	3.56
329.063	3.52
329.436	3.52
329.809	3.04
330.181	3.27
330.553	3.64
330.926	3.65
331.298	3.75
331.671	3.65
332.043	3.2
332.415	3.53
332.787	3.81
333.159	3.47
333.532	3.4
333.904	3.48
334.276	3.39
334.648	3.57
335.02	3.51
335.391	3.53
335.763	3.95
336.135	3.01
336.507	3.91
336.879	3.46
337.25	3.56
337.622	3.53
337.993	3.35
338.365	3.71
338.736	3.41
339.108	3.8
339.479	3.81
339.851	3.95
340.222	3.74
340.593	3.83
340.964	3.74
341.336	3.01
341.707	3.33
342.078	3.32
342.449	3.49
342.82	3.39
343.191	3.72
343.562	3.41
343.933	3.35
344.303	3.67
344.674	3.79
345.045	3.32
345.416	3.38
345.786	3.68
346.157	2.76
346.527	3.48
346.898	3.36
347.268	3.95
347.639	3.48
348.009	3.3
348.38	3.16
348.75	3.36
349.12	3.35
349.49	3.05
349.861	3.52
350.231	3.59
350.601	3.03
350.971	3.03
351.341	3.34
351.711	3.43
352.081	3
352.45	3.6
352.82	3.41
353.19	2.94
353.56	3.58
353.929	3.68
354.299	3.35
354.669	3.59
355.038	3.55
355.408	3.19
355.777	3.32
356.147	3.37
356.516	3.55
356.885	3.29
357.254	3.53
357.624	3.53
357.993	3.37
358.362	3.58
358.731	3.12
359.1	3.28
359.469	3.67
359.838	3.85
360.207	3.84
360.576	3.62
360.945	3.36
361.314	2.92
361.682	3.53
362.051	3.32
362.42	3.22
362.788	3.35
363.157	3.25
363.525	3.61
363.894	3.54
364.262	3.31
364.631	3.73
364.999	3.62
365.367	3.66
365.735	3.42
366.104	3.54
366.472	3.39
366.84	3.32
367.208	3.66
367.576	3.41
367.944	3.34
368.312	3.51
368.68	3.42
369.048	3.36
369.416	3.2
369.783	3.38
370.151	3.4
370.519	3.66
370.886	3.56
371.254	3.42
371.621	3.75
371.989	3.45
372.356	3.27
372.724	3.63
373.091	3.44
373.458	3.31
373.826	3.3
374.193	4.04
374.56	3.68
374.927	3.4
375.294	3.17
375.661	3.49
376.028	3.84
376.395	3.58
376.762	3.82
377.129	3.64
377.496	3.54
377.863	3.53
378.229	3.62
378.596	3.46
378.963	3.24
379.329	3.49
379.696	3.22
380.062	3.63
380.429	3.41
380.795	3.23
381.161	3.39
381.528	3.56
381.894	3.79
382.26	3.62
382.626	3.38
382.993	3.66
383.359	3.5
383.725	3.56
384.091	3.5
384.457	3.81
384.823	3.74
385.188	3.58
385.554	3.56
385.92	3.81
386.286	3.39
386.651	3.74
387.017	3.44
387.383	3.61
387.748	3.7
388.114	3.72
388.479	3.74
388.845	3.68
389.21	3.39
389.575	3.6
389.94	3.57
390.306	3.63
390.671	3.58
391.036	3.53
391.401	3.59
391.766	3.54
392.131	3.67
392.496	3.49
392.861	3.71
393.226	3.5
393.591	3.51
393.956	3.86
394.32	3.4
394.685	3.58
395.05	3.55
395.414	3.6
395.779	3.44
396.143	3.63
396.508	3.65
396.872	3.89
397.236	3.62
397.601	3.65
397.965	3.81
398.329	3.31
398.694	3.63
399.058	4.05
399.422	3.93
399.786	3.81
400.15	3.65
400.514	3.93
400.878	3.72
401.242	3.66
401.605	3.87
401.969	3.72
402.333	3.71
402.697	3.73
403.06	3.53
403.424	3.68
403.787	3.68
404.151	3.27
404.514	3.59
404.878	3.47
405.241	3.82
405.604	3.72
405.968	3.6
406.331	3.67
406.694	3.58
407.057	3.57
407.42	3.72
407.783	3.66
408.146	3.53
408.509	3.87
408.872	3.72
409.235	3.75
409.598	3.58
409.961	3.59
410.323	3.53
410.686	3.8
411.049	3.32
411.411	3.77
411.774	3.64
412.136	3.75
412.499	3.71
412.861	3.71
413.223	3.89
413.586	3.72
413.948	3.8
414.31	3.84
414.672	3.91
415.035	3.65
415.397	3.7
415.759	3.99
416.121	3.88
416.483	3.75
416.845	3.6
417.206	3.68
417.568	3.85
417.93	3.57
418.292	3.75
418.653	3.71
419.015	3.62
419.377	3.46
419.738	3.6
420.1	3.62
420.461	3.55
420.822	3.59
421.184	3.63
421.545	3.64
421.906	3.65
422.267	3.62
422.629	3.52
422.99	3.63
423.351	3.73
423.712	3.69
424.073	3.77
424.434	3.67
424.795	3.71
425.155	3.63
425.516	3.61
425.877	3.64
426.238	3.65
426.598	3.57
426.959	3.82
427.32	3.81
427.68	3.73
428.041	3.7
428.401	3.91
428.761	3.75
429.122	3.76
429.482	4.02
429.842	3.91
430.202	3.75
430.563	3.82
430.923	3.94
431.283	3.8
431.643	3.95
432.003	3.71
432.363	3.78
432.722	3.6
433.082	3.79
433.442	3.72
433.802	3.65
434.161	3.71
434.521	3.72
434.881	3.69
435.24	3.64
435.6	3.77
435.959	3.84
436.319	3.78
436.678	3.79
437.037	3.88
437.396	3.93
437.756	3.69
438.115	3.71
438.474	3.91
438.833	3.85
439.192	3.79
439.551	3.74
439.91	3.66
440.269	3.78
440.628	3.71
440.987	3.81
441.345	3.7
441.704	3.83
442.063	3.77
442.421	3.81
442.78	3.8
443.138	3.76
443.497	3.78
443.855	3.89
444.214	3.81
444.572	3.74
444.93	3.78
445.288	3.91
445.647	3.79
446.005	4
446.363	3.82
446.721	3.78
447.079	3.69
447.437	3.74
447.795	3.77
448.153	3.75
448.51	3.73
448.868	3.79
449.226	3.81
449.584	3.95
449.941	3.82
450.299	3.89
450.656	3.91
451.014	3.8
451.371	4
451.729	3.82
452.086	3.83
452.443	4.04
452.801	3.82
453.158	3.89
453.515	3.74
453.872	3.9
454.229	3.82
454.586	3.77
454.943	3.84
455.3	3.94
455.657	4.04
456.014	3.95
456.371	3.91
456.727	3.91
457.084	3.99
457.441	3.94
457.797	3.71
458.154	3.98
458.51	3.92
458.867	4.03
459.223	3.8
459.58	3.85
459.936	3.9
460.292	3.96
460.648	3.91
461.005	3.71
461.361	3.75
461.717	3.78
462.073	3.8
462.429	3.97
462.785	3.94
463.141	4.1
463.496	4.06
463.852	4.01
464.208	3.99
464.564	4.1
464.919	3.75
465.275	3.96
465.631	4
465.986	4.01
466.342	3.94
466.697	3.88
467.052	3.9
467.408	3.76
467.763	4
468.118	3.9
468.473	3.84
468.829	3.83
469.184	4
469.539	3.98
469.894	3.86
470.249	3.97
470.603	4.04
470.958	3.83
471.313	3.92
471.668	3.95
472.023	3.79
472.377	3.99
472.732	3.84
473.086	3.93
473.441	3.74
473.795	3.9
474.15	4
474.504	3.87
474.859	4
475.213	3.97
475.567	3.85
475.921	4.05
476.275	4.01
476.63	3.91
476.984	3.95
477.338	4.09
477.692	4.11
478.045	3.93
478.399	3.97
478.753	4
479.107	3.88
479.461	3.95
479.814	4
480.168	4.05
480.521	3.96
480.875	4.03
481.228	4
481.582	4.11
481.935	3.74
482.289	3.84
482.642	4.12
482.995	3.87
483.348	3.92
483.701	3.91
484.055	3.91
484.408	3.84
484.761	3.7
485.114	3.57
485.466	3.51
485.819	3.63
486.172	3.76
486.525	3.94
486.878	4
487.23	4.05
487.583	3.97
487.936	3.89
488.288	3.84
488.641	3.71
488.993	3.7
489.345	3.72
489.698	3.79
490.05	3.86
490.402	3.91
490.754	3.97
491.107	4.08
491.459	3.91
491.811	4.07
492.163	4
492.515	3.69
492.866	3.72
493.218	3.68
493.57	3.76
493.922	3.78
494.274	3.95
494.625	4.12
494.977	4.03
495.328	3.96
495.68	4.01
496.031	3.92
496.383	3.99
496.734	4.07
497.086	3.95
497.437	3.95
497.788	3.81
498.139	3.98
498.49	3.78
498.842	4.04
499.193	3.96
499.544	3.98
499.894	4.11
500.245	4.07
500.596	4.01
500.947	4.02
501.298	4.09
501.648	4.06
501.999	4.03
502.35	4.02
502.7	4.17
503.051	4.19
503.401	4.11
503.752	3.98
504.102	3.94
504.452	3.89
504.803	4.05
505.153	3.9
505.503	3.96
505.853	3.91
506.203	4.02
506.553	4.02
506.903	4.07
507.253	4.07
507.603	4.13
507.953	4.02
508.303	4.02
508.652	4.02
509.002	4
509.352	4.03
509.701	4.06
510.051	3.98
510.4	4.04
510.75	4.02
511.099	3.96
511.449	3.91
511.798	3.97
512.147	3.95
512.496	4.05
512.846	4.01
513.195	4.06
513.544	4
513.893	3.94
514.242	3.91
514.591	4.04
514.939	3.95
515.288	4.05
515.637	4.02
515.986	4.03
516.334	4.06
516.683	4.12
517.032	4.12
517.38	4.09
517.729	4.13
518.077	4.14
518.426	4.14
518.774	4.1
519.122	4.01
519.47	3.96
519.819	3.98
520.167	3.84
520.515	3.9
520.863	3.94
521.211	4.11
521.559	4.03
521.907	4.07
522.255	4.04
522.602	4.2
522.95	4.01
523.298	4.03
523.645	4.07
523.993	3.95
524.341	4.08
524.688	4.06
525.036	3.94
525.383	4.05
525.73	4.06
526.078	4.06
526.425	3.99
526.772	3.97
527.119	3.86
527.466	3.84
527.814	3.89
528.161	4
528.508	4.05
528.854	3.98
529.201	3.87
529.548	3.83
529.895	3.71
530.242	3.65
530.588	3.74
530.935	3.87
531.282	3.97
531.628	4.04
531.975	4.03
532.321	4.05
532.667	4.2
533.014	3.97
533.36	4.07
533.706	4.06
534.052	4
534.399	3.83
534.745	3.78
535.091	3.78
535.437	3.82
535.783	4.02
536.129	4.13
536.474	4.14
536.82	4.15
537.166	3.99
537.512	3.97
537.857	3.97
538.203	3.82
538.549	3.86
538.894	3.98
539.239	4.02
539.585	4.13
539.93	4.18
540.276	4.16
540.621	4.05
540.966	4.05
541.311	3.96
541.656	3.98
542.001	3.96
542.346	3.77
542.691	3.75
543.036	3.75
543.381	3.88
543.726	3.96
544.071	4
544.415	4.12
544.76	4
545.105	3.97
545.449	4.12
545.794	3.97
546.138	4.05
546.483	4.04
546.827	4.11
547.171	4.04
547.516	3.94
547.86	4.04
548.204	3.93
548.548	3.89
548.892	4.05
549.236	3.99
549.58	4.13
549.924	4.14
550.268	4.14
550.612	4.21
550.956	4.13
551.3	4.11
551.643	4.08
551.987	4.06
552.33	4.11
552.674	4.1
553.017	4.08
553.361	4.1
553.704	4.19
554.048	4.01
554.391	3.98
554.734	4.12
555.077	3.93
555.42	4.05
555.764	4.19
556.107	4.26
556.45	4.19
556.793	4.27
557.135	4.1
557.478	4.04
557.821	4.24
558.164	4.26
558.507	4.2
558.849	4.05
559.192	4.26
559.534	4.12
559.877	4.21
560.219	3.99
560.562	4.29
560.904	4.28
561.246	4.14
561.589	4.03
561.931	4.27
562.273	4.06
562.615	3.89
562.957	3.97
563.299	4.07
563.641	4.06
563.983	4.26
564.325	3.92
564.667	4.11
565.008	4.12
565.35	4.01
565.692	3.97
566.033	4.09
566.375	4.03
566.716	4.04
567.058	4.11
567.399	3.87
567.741	3.97
568.082	3.96
568.423	4.09
568.764	4.12
569.105	4.14
569.447	4.07
569.788	4.17
570.129	4.11
570.47	4.17
570.811	3.93
571.151	3.93
571.492	4.11
571.833	3.97
572.174	4.15
572.514	4.15
572.855	4
573.195	4.05
573.536	3.97
573.876	3.88
574.217	3.96
574.557	4.04
574.898	3.89
575.238	4.05
575.578	4.04
575.918	4.03
576.258	3.95
576.598	3.93
576.938	3.94
577.278	3.99
577.618	3.96
577.958	4.04
578.298	4.09
578.638	4.21
578.977	4.19
579.317	3.98
579.657	4.03
579.996	4.11
580.336	4.12
580.675	4.09
581.014	4.16
581.354	4.12
581.693	4.17
582.032	4.06
582.372	3.91
582.711	4.01
583.05	4.32
583.389	3.87
583.728	4.14
584.067	4.26
584.406	4.14
584.745	4.32
585.083	4.11
585.422	4.17
585.761	4.13
586.1	4.05
586.438	4.1
586.777	4
587.115	3.96
587.454	4.2
587.792	4.12
588.13	4.24
588.469	3.89
588.807	4.11
589.145	4.42
589.483	4.19
589.821	4.27
590.159	4.16
590.497	4.29
590.835	4.21
591.173	4.06
591.511	4.07
591.849	3.86
592.187	4.13
592.524	4.18
592.862	4.01
593.2	4.04
593.537	4.27
593.875	3.96
594.212	4.19
594.55	4.01
594.887	4.12
595.224	4.07
595.561	4.08
595.899	4.19
596.236	4.06
596.573	4.21
596.91	4.14
597.247	3.91
597.584	4.11
597.921	4.02
598.258	4.01
598.594	3.64
598.931	4.09
599.268	4.01
599.604	4.12
599.941	4.04
600.277	4.2
600.614	4.23
600.95	4.11
601.287	4.03
601.623	4
601.959	3.98
602.296	3.9
602.632	4.06
602.968	3.88
603.304	4.08
603.64	4.1
603.976	4.04
604.312	3.83
604.648	4.33
604.984	3.91
605.319	3.93
605.655	3.93
605.991	4.06
606.326	4.03
606.662	3.97
606.998	4.01
607.333	4.05
607.668	3.99
608.004	4.22
608.339	4.07
608.674	3.95
609.01	4.06
609.345	4.04
609.68	3.93
610.015	3.99
610.35	4.04
610.685	3.84
611.02	3.98
611.355	3.89
611.689	4.01
612.024	3.87
612.359	4.09
612.694	3.91
613.028	4.21
613.363	4.11
613.697	3.9
614.032	3.94
614.366	4.01
614.7	3.99
615.035	4.09
615.369	4.3
615.703	4.07
616.037	3.99
616.371	4.35
616.705	3.86
617.039	4.15
617.373	3.94
617.707	3.82
618.041	3.98
618.375	4.15
618.709	4.31
619.042	4.35
619.376	4.16
619.71	4.04
620.043	3.84
620.377	3.94
620.71	3.94
621.043	4.07
621.377	4.06
621.71	3.87
622.043	3.85
622.376	4.15
622.709	4.24
623.043	3.74
623.376	3.77
623.709	4.24
624.041	4
624.374	4.16
624.707	4.18
625.04	4.16
625.373	4
625.705	3.96
626.038	4.01
626.37	3.86
626.703	4.15
627.035	4.28
627.368	4.17
627.7	3.96
628.032	3.68
628.365	3.76
628.697	4.11
629.029	3.75
629.361	3.74
629.693	3.93
630.025	4.38
630.357	4.29
630.689	3.88
631.021	4.08
631.353	4.26
631.684	3.82
632.016	4
632.348	3.71
632.679	3.79
633.011	4.02
633.342	3.84
633.674	3.56
634.005	4.32
634.336	3.84
634.668	3.96
634.999	4.01
635.33	3.82
635.661	4.09
635.992	4.34
636.323	4.2
636.654	4.04
636.985	4.14
637.316	4.2
637.647	4.26
637.977	4.21
638.308	3.86
638.639	4.17
638.969	3.88
639.3	4.08
639.63	3.72
639.961	4.18
640.291	3.52
640.622	3.86
640.952	4.14
641.282	3.77
641.612	3.87
641.943	4.42
642.273	3.94
642.603	4.16
642.933	4.09
643.263	3.84
643.592	3.88
643.922	3.73
644.252	3.81
644.582	4.24
644.911	3.64
645.241	4.17
645.571	4.32
645.9	4.26
646.23	4.53
646.559	3.93
646.888	3.8
647.218	4.16
647.547	4.06
647.876	4.43
648.205	4.09
648.534	3.81
648.863	3.7
649.192	4.1
649.521	3.41
649.85	4.25
650.179	3.88
650.508	4.5
650.837	3.71
651.165	4.24
651.494	4.21
651.822	4.02
652.151	4.07
652.479	4.12
652.808	4.21
653.136	4.41
653.465	4
653.793	4.23
654.121	3.74
654.449	4.14
654.777	3.82
655.105	3.98
655.433	4.34
655.761	4.12
656.089	3.94
656.417	3.75
656.745	3.9
657.073	3.88
657.4	4.4
657.728	4.37
658.056	4.42
658.383	4.62
658.711	3.62
659.038	4.5
659.365	3.93
659.693	4.38
660.02	4.44
660.347	4.05
660.674	4.11
661.001	3.96
661.329	4.14
661.656	4.05
661.982	3.71
662.309	4.24
662.636	4.15
662.963	4.24
663.29	3.97
663.616	3.87
663.943	3.7
664.27	4.13
664.596	4.42
664.923	4.2
665.249	4.62
665.576	3.69
665.902	4.17
666.228	4.08
666.554	4.54
666.881	4.56
667.207	4.37
667.533	4.2
667.859	3.96
668.185	4.11
668.511	4.57
668.837	4.35
669.162	4.09
669.488	4.63
669.814	4.44
670.139	4.14
670.465	3.89
670.791	3.95
671.116	3.92
671.442	3.92
671.767	3.7
672.092	4.23
672.418	3.89
672.743	4.27
673.068	3.81
673.393	4
673.718	3.85
674.043	4.32
674.368	4.44
674.693	3.65
675.018	4.4
675.343	3.44
675.667	4.18
675.992	4.21
676.317	4.24
676.641	4.27
676.966	4.47
677.29	4.46
677.615	3.71
677.939	4.17
678.264	4.21
678.588	4.09
678.912	3.93
679.236	3.6
679.56	4.08
679.885	4.21
680.209	4.53
680.532	4.44
680.856	4.28
681.18	3.94
681.504	3.76
681.828	4.71
682.152	3.84
682.475	4.12
682.799	4.04
683.122	4.16
683.446	3.8
683.769	4.12
684.093	4.54
684.416	3.97
684.739	4.11
685.062	4.17
685.386	4
685.709	3.84
686.032	4.01
686.355	4.25
686.678	4.01
687.001	4.28
687.324	4.4
687.646	4.47
687.969	4.57
688.292	4.4
688.614	4.34
688.937	4.08
689.26	4.59
689.582	3.71
689.904	4.32
690.227	3.97
690.549	4.79
690.871	4.15
691.194	5.1
691.516	3.68
691.838	4.03
692.16	4.87
692.482	3.95
692.804	4
693.126	3.7
693.448	4.61
693.769	4.72
