Data from 1710-4_forehead_Reflection__3__179.txt Node

Date: Fri Sep 30 19:29:00 CDT 2022
User: ToomeyLab
Spectrometer: FLMS14357
Trigger mode: 0
Integration Time (sec): 1.000000E-2
Scans to average: 100
Electric dark correction enabled: true
Nonlinearity correction enabled: false
Boxcar width: 0
XAxis mode: Wavelengths
Number of Pixels in Spectrum: 2048
>>>>>Begin Spectral Data<<<<<
189.047	70.24
189.435	70.24
189.823	70.24
190.211	97.61
190.599	-3.5
190.987	3.04
191.375	45.75
191.763	110.22
192.151	70.42
192.538	-5606.12
192.926	-88.24
193.314	-410.37
193.702	-112.55
194.089	-718.41
194.477	20.11
194.864	28.57
195.252	-399.27
195.639	48.92
196.027	70.08
196.414	113.21
196.801	216.65
197.189	301.04
197.576	109.23
197.963	75.75
198.351	44.65
198.738	47.68
199.125	45.51
199.512	45.3
199.899	-45
200.286	45.66
200.673	36.01
201.06	-45.43
201.447	23.04
201.833	53.63
202.22	-41.41
202.607	86.72
202.994	61.82
203.38	-33.1
203.767	2.22
204.154	38.85
204.54	38.05
204.927	-48.12
205.313	79.11
205.699	-2.56
206.086	45.36
206.472	56.31
206.858	37.16
207.245	-92.09
207.631	18.56
208.017	2.11
208.403	37.5
208.789	53.56
209.175	43.71
209.561	60.4
209.947	34
210.333	51.48
210.719	50.41
211.105	-34.29
211.491	44.44
211.876	18.17
212.262	28.91
212.648	11.77
213.034	68.56
213.419	49.79
213.805	10.61
214.19	23.17
214.576	21.07
214.961	52.37
215.346	27.69
215.732	-16.32
216.117	30.91
216.502	73.64
216.888	10.01
217.273	35.92
217.658	8.91
218.043	49.98
218.428	25.05
218.813	-12.43
219.198	10.05
219.583	5.07
219.968	12.16
220.353	-2.4
220.738	41.12
221.122	-10.95
221.507	14.42
221.892	6.52
222.276	30.19
222.661	8.09
223.046	-14.68
223.43	7.2
223.815	7.28
224.199	-2.72
224.583	14.88
224.968	7.95
225.352	-0.15
225.736	15.69
226.121	10.9
226.505	12.05
226.889	11.8
227.273	8.67
227.657	2.4
228.041	5.98
228.425	3.21
228.809	3.89
229.193	2.94
229.577	3.35
229.961	3.23
230.344	3.69
230.728	3.58
231.112	3.19
231.495	2.62
231.879	4.17
232.263	4.81
232.646	2.4
233.03	3.28
233.413	2.77
233.797	0.36
234.18	3.65
234.563	5.03
234.946	3.19
235.33	2.73
235.713	1.33
236.096	3.95
236.479	2.98
236.862	4.25
237.245	5.06
237.628	3.51
238.011	3.01
238.394	-0.25
238.777	1.52
239.16	3.36
239.543	5.49
239.925	1.22
240.308	2.63
240.691	2.57
241.073	3.83
241.456	3.38
241.838	2.92
242.221	4.18
242.603	3.75
242.986	4.1
243.368	3.05
243.75	2.57
244.133	2.82
244.515	2.82
244.897	2.84
245.279	2.49
245.661	3.27
246.043	3.87
246.425	3.84
246.807	3.03
247.189	3.17
247.571	3.64
247.953	2.75
248.335	3.24
248.717	2.77
249.098	3.49
249.48	3.34
249.862	2.92
250.243	3.16
250.625	2.81
251.006	3.27
251.388	3.53
251.769	3.64
252.151	3.42
252.532	3.09
252.913	2.26
253.295	2.72
253.676	3.39
254.057	3.4
254.438	2.84
254.819	2.96
255.2	3.28
255.581	3.99
255.962	4.43
256.343	2.09
256.724	4.79
257.105	2.58
257.486	2.89
257.867	4.06
258.247	2.29
258.628	2.97
259.009	2.81
259.389	3.79
259.77	3
260.15	2.95
260.531	3.7
260.911	2.67
261.292	3.14
261.672	2.88
262.052	3.04
262.432	3.28
262.813	3.56
263.193	3.81
263.573	3.19
263.953	3.02
264.333	3.37
264.713	3.15
265.093	3.73
265.473	3.96
265.853	3.04
266.233	3.74
266.612	3.02
266.992	2.79
267.372	3.63
267.752	2.86
268.131	3.08
268.511	2.72
268.89	2.63
269.27	4.09
269.649	3.37
270.029	2.78
270.408	3.7
270.787	3.39
271.167	2.73
271.546	2.86
271.925	2.88
272.304	3
272.683	3.11
273.062	3.08
273.441	2.66
273.82	2.63
274.199	3.18
274.578	2.97
274.957	3.17
275.336	2.67
275.715	2.63
276.093	3.26
276.472	2.96
276.851	3.49
277.229	3.72
277.608	3.16
277.986	2.62
278.365	3.09
278.743	3.73
279.122	1.95
279.5	2.72
279.878	2.6
280.257	2.73
280.635	3.55
281.013	3.71
281.391	2.85
281.769	2.92
282.147	3.06
282.525	2.86
282.903	3.16
283.281	3.34
283.659	2.84
284.037	3.02
284.415	2.31
284.792	3.1
285.17	3.27
285.548	3.01
285.925	3.05
286.303	2.93
286.68	2.93
287.058	3.02
287.435	2.84
287.813	2.94
288.19	2.85
288.567	3.07
288.945	2.55
289.322	3.58
289.699	3.15
290.076	2.99
290.453	3.11
290.83	3.13
291.207	3.52
291.584	3.49
291.961	3.16
292.338	3.4
292.715	3.77
293.092	3.76
293.469	3.16
293.845	3.93
294.222	3.63
294.599	3.79
294.975	3.54
295.352	3.54
295.728	3.49
296.105	4.12
296.481	3.73
296.858	3.77
297.234	2.78
297.61	4.02
297.986	4.3
298.363	3.79
298.739	4
299.115	3.98
299.491	3.92
299.867	3.91
300.243	4.09
300.619	4.09
300.995	4.28
301.371	4.12
301.746	4.74
302.122	4.52
302.498	4.38
302.874	4.11
303.249	4.95
303.625	4.53
304	4.38
304.376	4.28
304.751	4.48
305.127	4.81
305.502	4.68
305.878	4.7
306.253	5.88
306.628	4.94
307.003	5.02
307.378	4.87
307.754	5.08
308.129	4.94
308.504	5.44
308.879	5.66
309.254	4.95
309.629	5.69
310.003	5.47
310.378	5.84
310.753	5.79
311.128	5.7
311.502	6.01
311.877	5.78
312.252	5.56
312.626	5.7
313.001	5.87
313.375	5.59
313.75	6.12
314.124	6
314.498	6.57
314.873	6.44
315.247	6.47
315.621	6.58
315.995	6.63
316.369	7.26
316.743	6.82
317.117	6.58
317.491	7.18
317.865	6.86
318.239	7.36
318.613	6.89
318.987	7.18
319.361	6.61
319.734	7.15
320.108	6.96
320.482	7.59
320.855	7.63
321.229	7.59
321.602	7.8
321.976	8.15
322.349	7.43
322.723	7.36
323.096	8.29
323.469	8.24
323.843	8.13
324.216	8.2
324.589	8.27
324.962	8.14
325.335	8.32
325.708	8.53
326.081	8.41
326.454	8.57
326.827	8.97
327.2	8.54
327.573	9
327.945	8.77
328.318	8.53
328.691	8.65
329.063	8.62
329.436	8.95
329.809	8.92
330.181	8.68
330.553	9.06
330.926	9.05
331.298	9.73
331.671	9.1
332.043	9.57
332.415	9.53
332.787	9.81
333.159	9.49
333.532	9.81
333.904	9.86
334.276	9.6
334.648	9.63
335.02	9.67
335.391	9.34
335.763	9.58
336.135	9.24
336.507	10.27
336.879	9.85
337.25	9.92
337.622	10.2
337.993	9.83
338.365	10.44
338.736	10.2
339.108	10.71
339.479	10.66
339.851	10.35
340.222	10.08
340.593	10.48
340.964	10.21
341.336	10.31
341.707	10.82
342.078	10.61
342.449	10.31
342.82	10.69
343.191	10.88
343.562	10.76
343.933	11.16
344.303	10.88
344.674	11.5
345.045	10.71
345.416	10.96
345.786	11.27
346.157	10.7
346.527	11.09
346.898	11.09
347.268	11.36
347.639	11.13
348.009	11.41
348.38	11.26
348.75	11.66
349.12	11.56
349.49	11.48
349.861	11.59
350.231	11.53
350.601	11.61
350.971	11.46
351.341	11.86
351.711	12.07
352.081	11.75
352.45	11.58
352.82	11.89
353.19	11.84
353.56	11.89
353.929	12.48
354.299	12.4
354.669	11.81
355.038	12.88
355.408	12.36
355.777	12.16
356.147	12.22
356.516	12.56
356.885	12.47
357.254	12.8
357.624	12.63
357.993	12.63
358.362	12.47
358.731	12.1
359.1	12.41
359.469	12.81
359.838	12.62
360.207	13.04
360.576	13.04
360.945	12.79
361.314	12.79
361.682	12.98
362.051	13
362.42	12.52
362.788	12.85
363.157	13.01
363.525	13.22
363.894	13.23
364.262	13.25
364.631	13.48
364.999	13.26
365.367	13.58
365.735	13.73
366.104	13.22
366.472	13.23
366.84	13.94
367.208	13.49
367.576	13.83
367.944	13.94
368.312	13.74
368.68	13.9
369.048	13.94
369.416	13.96
369.783	14.21
370.151	13.8
370.519	13.98
370.886	14.39
371.254	14.34
371.621	14.74
371.989	14.14
372.356	14.03
372.724	14.39
373.091	14.24
373.458	14.14
373.826	14.34
374.193	14.8
374.56	14.59
374.927	14.49
375.294	14.41
375.661	14.75
376.028	14.97
376.395	14.55
376.762	15.01
377.129	14.81
377.496	14.5
377.863	14.77
378.229	14.79
378.596	15
378.963	14.94
379.329	15.02
379.696	15.19
380.062	14.83
380.429	15.14
380.795	15.04
381.161	15.43
381.528	15.43
381.894	15.33
382.26	15.33
382.626	15.18
382.993	15.72
383.359	15.39
383.725	15.54
384.091	15.35
384.457	15.73
384.823	15.75
385.188	15.81
385.554	15.55
385.92	16.14
386.286	15.64
386.651	16.16
387.017	15.91
387.383	16.11
387.748	16.3
388.114	16.28
388.479	15.81
388.845	16.09
389.21	16.15
389.575	16.05
389.94	16.17
390.306	16.13
390.671	16.41
391.036	16.3
391.401	16.33
391.766	16.34
392.131	16.36
392.496	16.42
392.861	16.33
393.226	16.3
393.591	16.54
393.956	16.66
394.32	16.43
394.685	16.48
395.05	16.61
395.414	16.7
395.779	16.51
396.143	16.71
396.508	16.76
396.872	16.99
397.236	16.88
397.601	17.07
397.965	17.21
398.329	16.89
398.694	17.03
399.058	17.41
399.422	17.1
399.786	17.31
400.15	17.35
400.514	17.3
400.878	17.12
401.242	17.27
401.605	17.53
401.969	17.35
402.333	17.42
402.697	17.79
403.06	17.74
403.424	17.9
403.787	17.56
404.151	17.55
404.514	17.63
404.878	17.39
405.241	17.61
405.604	17.65
405.968	17.48
406.331	17.65
406.694	17.48
407.057	17.88
407.42	17.62
407.783	17.85
408.146	17.75
408.509	18.01
408.872	17.79
409.235	18.21
409.598	18.12
409.961	18.32
410.323	18.01
410.686	18.38
411.049	17.82
411.411	18.1
411.774	18.32
412.136	18.34
412.499	18.27
412.861	18.43
413.223	18.27
413.586	18.46
413.948	18.43
414.31	18.59
414.672	18.61
415.035	18.63
415.397	18.33
415.759	18.63
416.121	18.7
416.483	18.65
416.845	18.6
417.206	18.88
417.568	18.79
417.93	18.48
418.292	18.62
418.653	18.7
419.015	18.82
419.377	18.56
419.738	18.43
420.1	18.53
420.461	18.56
420.822	18.44
421.184	18.74
421.545	18.85
421.906	18.88
422.267	18.73
422.629	18.55
422.99	18.64
423.351	18.92
423.712	18.84
424.073	19.14
424.434	19.11
424.795	19.13
425.155	19.19
425.516	19.01
425.877	19.01
426.238	19.21
426.598	19.1
426.959	19.37
427.32	19.53
427.68	19.66
428.041	19.6
428.401	19.96
428.761	19.91
429.122	19.95
429.482	20.14
429.842	20.06
430.202	20.27
430.563	20.09
430.923	20.03
431.283	20.2
431.643	20.32
432.003	20.43
432.363	20.48
432.722	20.39
433.082	20.44
433.442	20.49
433.802	20.32
434.161	20.39
434.521	20.25
434.881	20.26
435.24	20.27
435.6	20.39
435.959	20.53
436.319	20.54
436.678	20.64
437.037	21
437.396	20.77
437.756	21
438.115	21.08
438.474	21.09
438.833	20.75
439.192	20.96
439.551	21.02
439.91	20.88
440.269	20.96
440.628	20.75
440.987	21.01
441.345	20.93
441.704	20.89
442.063	20.97
442.421	20.99
442.78	20.96
443.138	21.2
443.497	21.17
443.855	21.43
444.214	21.53
444.572	21.47
444.93	21.47
445.288	21.7
445.647	21.55
446.005	21.49
446.363	21.58
446.721	21.57
447.079	21.22
447.437	21.35
447.795	21.38
448.153	21.35
448.51	21.29
448.868	21.46
449.226	21.48
449.584	21.85
449.941	21.92
450.299	21.95
450.656	22.13
451.014	22.09
451.371	22.1
451.729	22.17
452.086	22.21
452.443	22.67
452.801	22.35
453.158	22.33
453.515	22.18
453.872	22.18
454.229	22.31
454.586	22.33
454.943	22.49
455.3	22.43
455.657	22.6
456.014	22.76
456.371	22.79
456.727	22.66
457.084	22.87
457.441	22.89
457.797	22.77
458.154	22.84
458.51	23
458.867	22.81
459.223	23.03
459.58	22.95
459.936	22.82
460.292	22.78
460.648	22.68
461.005	22.52
461.361	22.36
461.717	22.57
462.073	22.66
462.429	22.91
462.785	23.26
463.141	23.43
463.496	23.44
463.852	23.51
464.208	23.45
464.564	23.62
464.919	23.25
465.275	23.86
465.631	23.51
465.986	23.56
466.342	23.68
466.697	23.64
467.052	23.66
467.408	23.83
467.763	23.79
468.118	23.64
468.473	23.67
468.829	23.59
469.184	23.91
469.539	23.78
469.894	23.77
470.249	24.05
470.603	24.18
470.958	24.01
471.313	23.95
471.668	24.28
472.023	24.12
472.377	24.14
472.732	24.19
473.086	24.33
473.441	23.94
473.795	24.19
474.15	24.18
474.504	24.34
474.859	24.25
475.213	24.28
475.567	24.31
475.921	24.51
476.275	24.46
476.63	24.64
476.984	24.45
477.338	24.72
477.692	24.57
478.045	24.52
478.399	24.66
478.753	24.32
479.107	24.65
479.461	24.61
479.814	24.75
480.168	24.87
480.521	24.77
480.875	24.99
481.228	24.85
481.582	24.93
481.935	24.61
482.289	24.83
482.642	24.83
482.995	24.75
483.348	24.82
483.701	24.67
484.055	24.59
484.408	24.39
484.761	24.05
485.114	23.69
485.466	23.53
485.819	23.63
486.172	23.98
486.525	24.41
486.878	24.59
487.23	24.82
487.583	24.85
487.936	24.88
488.288	24.62
488.641	24.26
488.993	24.31
489.345	24.24
489.698	24.28
490.05	24.58
490.402	24.75
490.754	24.97
491.107	25.2
491.459	25.31
491.811	25.41
492.163	25.41
492.515	25.15
492.866	24.88
493.218	24.44
493.57	24.63
493.922	24.88
494.274	25.22
494.625	25.57
494.977	25.72
495.328	25.99
495.68	26.02
496.031	26.12
496.383	26.24
496.734	26
497.086	25.94
497.437	25.91
497.788	25.95
498.139	25.87
498.49	25.73
498.842	25.8
499.193	25.98
499.544	25.94
499.894	26.3
500.245	26.18
500.596	26.03
500.947	26.31
501.298	26.49
501.648	26.51
501.999	26.59
502.35	26.65
502.7	26.53
503.051	26.62
503.401	26.85
503.752	26.55
504.102	26.72
504.452	26.7
504.803	26.79
505.153	26.66
505.503	26.6
505.853	26.62
506.203	26.77
506.553	26.82
506.903	26.79
507.253	26.94
507.603	26.93
507.953	26.73
508.303	27.11
508.652	27.02
509.002	27.04
509.352	26.8
509.701	26.83
510.051	26.93
510.4	26.97
510.75	26.8
511.099	26.85
511.449	26.87
511.798	26.93
512.147	26.91
512.496	27.06
512.846	27.1
513.195	27.35
513.544	27.11
513.893	27.13
514.242	26.99
514.591	27.27
514.939	27.36
515.288	27.48
515.637	27.32
515.986	27.38
516.334	27.59
516.683	27.64
517.032	27.55
517.38	27.55
517.729	27.75
518.077	27.63
518.426	27.73
518.774	27.59
519.122	27.39
519.47	27.36
519.819	27.25
520.167	27.15
520.515	27.15
520.863	27.33
521.211	27.54
521.559	27.62
521.907	27.64
522.255	27.75
522.602	28.04
522.95	27.94
523.298	27.92
523.645	28.01
523.993	28.23
524.341	28.1
524.688	28.23
525.036	27.98
525.383	28.15
525.73	28.3
526.078	27.88
526.425	28.16
526.772	27.89
527.119	27.53
527.466	27.55
527.814	27.74
528.161	27.73
528.508	27.96
528.854	28
529.201	27.8
529.548	27.55
529.895	27.26
530.242	26.98
530.588	27.14
530.935	27.45
531.282	27.72
531.628	27.83
531.975	28.17
532.321	28.14
532.667	28.44
533.014	28.46
533.36	28.35
533.706	28.38
534.052	28.3
534.399	28.05
534.745	27.73
535.091	27.72
535.437	27.82
535.783	28.12
536.129	28.41
536.474	28.53
536.82	28.8
537.166	28.79
537.512	28.82
537.857	28.65
538.203	28.29
538.549	28.36
538.894	28.56
539.239	28.7
539.585	29.06
539.93	29.12
540.276	29.27
540.621	29.37
540.966	29.32
541.311	29.22
541.656	29.22
542.001	28.88
542.346	28.51
542.691	28.22
543.036	28.1
543.381	28.17
543.726	28.6
544.071	28.76
544.415	29.02
544.76	28.87
545.105	29.03
545.449	29.18
545.794	29.25
546.138	29.41
546.483	29.49
546.827	29.41
547.171	29.5
547.516	29.4
547.86	29.31
548.204	29.24
548.548	29.38
548.892	29.3
549.236	29.39
549.58	29.78
549.924	29.93
550.268	30.03
550.612	30.03
550.956	30.24
551.3	30.32
551.643	30.12
551.987	30.19
552.33	30.43
552.674	30.19
553.017	30.24
553.361	30.42
553.704	30.36
554.048	30.18
554.391	30.1
554.734	30.24
555.077	30.21
555.42	30.32
555.764	30.36
556.107	30.45
556.45	30.49
556.793	30.67
557.135	30.4
557.478	30.72
557.821	30.81
558.164	30.48
558.507	30.59
558.849	31.06
559.192	30.57
559.534	30.72
559.877	31.06
560.219	30.97
560.562	30.91
560.904	30.86
561.246	30.88
561.589	30.95
561.931	31.05
562.273	30.87
562.615	31.01
562.957	30.9
563.299	30.95
563.641	30.78
563.983	31.1
564.325	31.02
564.667	31.2
565.008	31.38
565.35	31.04
565.692	31.17
566.033	30.96
566.375	31.1
566.716	31.16
567.058	31.02
567.399	31.07
567.741	31.09
568.082	31.04
568.423	31.11
568.764	31.03
569.105	31.37
569.447	31.25
569.788	31.56
570.129	31.55
570.47	31.13
570.811	31.19
571.151	31.44
571.492	31.45
571.833	31.36
572.174	31.21
572.514	31.39
572.855	31.56
573.195	31.46
573.536	31.21
573.876	31.23
574.217	31.1
574.557	31.4
574.898	31.61
575.238	31.69
575.578	31.72
575.918	31.59
576.258	31.67
576.598	31.59
576.938	31.59
577.278	31.65
577.618	31.6
577.958	31.75
578.298	31.85
578.638	31.96
578.977	31.92
579.317	31.76
579.657	32.12
579.996	31.99
580.336	32.21
580.675	32.12
581.014	32.08
581.354	32.12
581.693	32.38
582.032	32.33
582.372	32.17
582.711	32.17
583.05	32.59
583.389	32.35
583.728	32.42
584.067	32.55
584.406	32.57
584.745	32.54
585.083	32.42
585.422	32.46
585.761	32.65
586.1	32.69
586.438	32.46
586.777	32.33
587.115	32.63
587.454	32.74
587.792	32.98
588.13	32.78
588.469	32.64
588.807	32.82
589.145	32.89
589.483	32.71
589.821	32.86
590.159	32.86
590.497	32.75
590.835	32.68
591.173	32.6
591.511	32.47
591.849	32.6
592.187	32.63
592.524	32.96
592.862	32.9
593.2	32.96
593.537	32.72
593.875	32.89
594.212	33.15
594.55	32.97
594.887	33.13
595.224	32.85
595.561	33.24
595.899	33.1
596.236	33.11
596.573	33.09
596.91	33.52
597.247	32.91
597.584	33
597.921	33.08
598.258	32.97
598.594	32.69
598.931	32.73
599.268	32.65
599.604	33.09
599.941	33.09
600.277	33.33
600.614	33.43
600.95	33.35
601.287	33.42
601.623	33.21
601.959	33.06
602.296	33.48
602.632	33.6
602.968	33.37
603.304	33.68
603.64	33.43
603.976	33.34
604.312	33.4
604.648	33.1
604.984	33.31
605.319	33.11
605.655	33.25
605.991	33.03
606.326	33.23
606.662	33.13
606.998	33.33
607.333	33.35
607.668	33.66
608.004	33.69
608.339	34.19
608.674	33.8
609.01	33.71
609.345	33.73
609.68	34.05
610.015	34.07
610.35	34.01
610.685	33.67
611.02	33.74
611.355	33.47
611.689	33.75
612.024	33.59
612.359	33.88
612.694	33.76
613.028	34.21
613.363	34.12
613.697	34.27
614.032	34.08
614.366	34.2
614.7	34.35
615.035	34.3
615.369	34.47
615.703	34.02
616.037	34.16
616.371	34.18
616.705	34.4
617.039	34.23
617.373	33.86
617.707	33.92
618.041	34.46
618.375	34.01
618.709	34.49
619.042	34.65
619.376	34.67
619.71	34.2
620.043	34.46
620.377	34.41
620.71	34.58
621.043	34.23
621.377	34.51
621.71	34.58
622.043	34.69
622.376	34.7
622.709	34.63
623.043	34.32
623.376	34.64
623.709	34.52
624.041	34.4
624.374	34.93
624.707	34.34
625.04	35.01
625.373	34.6
625.705	35.1
626.038	35.03
626.37	34.54
626.703	34.83
627.035	34.7
627.368	34.73
627.7	34.51
628.032	34.44
628.365	34.64
628.697	34.76
629.029	34.45
629.361	34.42
629.693	34.5
630.025	35.01
630.357	35.08
630.689	34.78
631.021	35.11
631.353	35.13
631.684	34.8
632.016	34.72
632.348	34.77
632.679	35.05
633.011	35.14
633.342	35.18
633.674	35.03
634.005	35.01
634.336	35.19
634.668	35.38
634.999	35.3
635.33	35.33
635.661	35.26
635.992	35.38
636.323	35.23
636.654	35.03
636.985	35.27
637.316	35.32
637.647	35.7
637.977	35.31
638.308	35.55
638.639	35.32
638.969	35.24
639.3	35.09
639.63	35.51
639.961	35.6
640.291	35.04
640.622	34.84
640.952	35.44
641.282	35.21
641.612	35.23
641.943	35.32
642.273	35.23
642.603	35.51
642.933	35.65
643.263	35.5
643.592	35.6
643.922	35.65
644.252	35.61
644.582	35.57
644.911	35.12
645.241	35.66
645.571	36.18
645.9	35.94
646.23	35.84
646.559	35.74
646.888	35.16
647.218	35.9
647.547	36.02
647.876	36.17
648.205	35.45
648.534	35.8
648.863	36.12
649.192	35.73
649.521	35.78
649.85	36.02
650.179	36.1
650.508	36.45
650.837	35.63
651.165	35.35
651.494	36.05
651.822	35.93
652.151	35.89
652.479	36.07
652.808	36.07
653.136	35.61
653.465	35.85
653.793	35.62
654.121	35.39
654.449	35.86
654.777	36.46
655.105	36.19
655.433	36.43
655.761	36.42
656.089	35.9
656.417	35.97
656.745	36.29
657.073	36.27
657.4	36.46
657.728	36.13
658.056	36.35
658.383	36.72
658.711	36
659.038	36.22
659.365	35.79
659.693	36.57
660.02	36.18
660.347	35.94
660.674	36.43
661.001	35.89
661.329	36.4
661.656	36.23
661.982	36.3
662.309	36.3
662.636	36.56
662.963	36.96
663.29	36.53
663.616	35.89
663.943	36.56
664.27	36.95
664.596	36.46
664.923	36.51
665.249	36.52
665.576	35.31
665.902	37.07
666.228	36.27
666.554	36.6
666.881	36.88
667.207	37.15
667.533	36.77
667.859	36.23
668.185	37.21
668.511	36.85
668.837	37.27
669.162	37.16
669.488	36.59
669.814	36.69
670.139	36.31
670.465	36.55
