Data from 1710-4_crown_Reflection__3__174.txt Node

Date: Fri Sep 30 19:27:30 CDT 2022
User: ToomeyLab
Spectrometer: FLMS14357
Trigger mode: 0
Integration Time (sec): 1.000000E-2
Scans to average: 100
Electric dark correction enabled: true
Nonlinearity correction enabled: false
Boxcar width: 0
XAxis mode: Wavelengths
Number of Pixels in Spectrum: 2048
>>>>>Begin Spectral Data<<<<<
189.047	104.87
189.435	104.87
189.823	104.87
190.211	121.79
190.599	168.76
190.987	76.33
191.375	258.12
191.763	178.19
192.151	-68.93
192.538	-9683.67
192.926	37.53
193.314	-14.31
193.702	115.17
194.089	144.35
194.477	103.77
194.864	27.62
195.252	-127.53
195.639	22
196.027	331.15
196.414	84.92
196.801	-165.71
197.189	-208.73
197.576	1.05
197.963	-3.47
198.351	14.65
198.738	-9.7
199.125	22.44
199.512	61.46
199.899	-20.43
200.286	-13.94
200.673	-26.88
201.06	-107.02
201.447	-58.15
201.833	19.07
202.22	12.31
202.607	1.44
202.994	13.75
203.38	38.01
203.767	-11.37
204.154	47.39
204.54	-11.73
204.927	-61.09
205.313	39.2
205.699	16.87
206.086	24.8
206.472	32.75
206.858	32.14
207.245	-64.34
207.631	6.48
208.017	-28.27
208.403	35.78
208.789	7.99
209.175	40.86
209.561	-1.9
209.947	17.55
210.333	0.27
210.719	-1.54
211.105	-16.15
211.491	-13.88
211.876	16.5
212.262	14.43
212.648	-21.35
213.034	25.7
213.419	-27.06
213.805	-12.06
214.19	19.86
214.576	2.16
214.961	43.46
215.346	30.41
215.732	-44.7
216.117	1.13
216.502	2.71
216.888	-28.06
217.273	20.2
217.658	7.16
218.043	3.14
218.428	18.24
218.813	-14.96
219.198	-2.59
219.583	2.72
219.968	10.58
220.353	-34.16
220.738	-0.68
221.122	-26.87
221.507	1.51
221.892	-23.43
222.276	0.18
222.661	-17.97
223.046	-14.45
223.43	0.89
223.815	-11
224.199	1.84
224.583	15.86
224.968	4.97
225.352	-11.8
225.736	10.72
226.121	-5.77
226.505	2.16
226.889	2.56
227.273	-7.35
227.657	-2.11
228.041	0.26
228.425	-3.1
228.809	4.37
229.193	0.22
229.577	2.74
229.961	2.86
230.344	4.19
230.728	3.7
231.112	3.36
231.495	2.3
231.879	2.8
232.263	3.79
232.646	4.17
233.03	1.44
233.413	2.41
233.797	-1.35
234.18	2.13
234.563	5.14
234.946	1.32
235.33	2.83
235.713	-0.1
236.096	3.43
236.479	2.95
236.862	4.49
237.245	2.72
237.628	4.05
238.011	-0.26
238.394	1.24
238.777	-0.91
239.16	2.57
239.543	4.22
239.925	0.91
240.308	1.62
240.691	2.7
241.073	3.11
241.456	1.74
241.838	3.04
242.221	3.77
242.603	3.16
242.986	2.89
243.368	2.77
243.75	2.25
244.133	2.74
244.515	2.23
244.897	2.44
245.279	2.12
245.661	3.41
246.043	2.88
246.425	3.41
246.807	2.52
247.189	2.23
247.571	3.34
247.953	2.61
248.335	2.99
248.717	2.61
249.098	3.17
249.48	2.89
249.862	2.46
250.243	2.67
250.625	2.93
251.006	3.03
251.388	3.06
251.769	1.69
252.151	1.64
252.532	2.1
252.913	2.15
253.295	2.62
253.676	3.12
254.057	2.98
254.438	2.83
254.819	3.33
255.2	2.91
255.581	2.07
255.962	3.29
256.343	2.12
256.724	3.9
257.105	1.6
257.486	3.39
257.867	2
258.247	2.01
258.628	2.33
259.009	2.39
259.389	2.64
259.77	2.38
260.15	2.83
260.531	3.02
260.911	2.27
261.292	2.96
261.672	2.34
262.052	2.87
262.432	2.88
262.813	3.07
263.193	2.27
263.573	3.32
263.953	2.44
264.333	2.6
264.713	2.16
265.093	2.8
265.473	2.51
265.853	2.2
266.233	2.37
266.612	2.85
266.992	2.15
267.372	2.31
267.752	2.3
268.131	2.29
268.511	2.37
268.89	2.05
269.27	2.89
269.649	2.84
270.029	2.61
270.408	2.33
270.787	2.91
271.167	2.09
271.546	2.42
271.925	2.96
272.304	3.12
272.683	2.2
273.062	2.45
273.441	2.13
273.82	2.44
274.199	2.61
274.578	2.29
274.957	2.36
275.336	2.39
275.715	2.37
276.093	2.07
276.472	2.52
276.851	2.54
277.229	2.65
277.608	2.62
277.986	2.7
278.365	2.73
278.743	2.77
279.122	1.74
279.5	2.89
279.878	2.07
280.257	2.01
280.635	2.22
281.013	2.43
281.391	2.32
281.769	2.25
282.147	2.42
282.525	2.97
282.903	1.8
283.281	2.73
283.659	2.66
284.037	2.71
284.415	1.81
284.792	2.7
285.17	2.58
285.548	2.69
285.925	2.46
286.303	2.31
286.68	2.47
287.058	2.28
287.435	2.3
287.813	2.04
288.19	2.2
288.567	2.24
288.945	2.03
289.322	3.09
289.699	1.74
290.076	2.2
290.453	2.35
290.83	2.32
291.207	2.54
291.584	2.37
291.961	2.54
292.338	2.5
292.715	2.33
293.092	2.24
293.469	2.06
293.845	2.63
294.222	2.21
294.599	2.26
294.975	2.57
295.352	2.3
295.728	2.48
296.105	2.67
296.481	2.34
296.858	1.86
297.234	1.73
297.61	2.37
297.986	2.55
298.363	2.27
298.739	2.66
299.115	2.23
299.491	2.41
299.867	2.2
300.243	2.56
300.619	2.35
300.995	2.43
301.371	2.9
301.746	2.55
302.122	2.25
302.498	2.05
302.874	1.94
303.249	2.31
303.625	2.01
304	2.05
304.376	2.04
304.751	2.38
305.127	2.11
305.502	2.37
305.878	2.44
306.253	2.92
306.628	2.27
307.003	2.32
307.378	2.43
307.754	2.42
308.129	2.21
308.504	2.41
308.879	2.75
309.254	1.58
309.629	2.1
310.003	2.01
310.378	2.46
310.753	1.97
311.128	2.07
311.502	2.59
311.877	1.83
312.252	2.14
312.626	2.15
313.001	2.15
313.375	1.97
313.75	2.3
314.124	1.83
314.498	1.91
314.873	1.96
315.247	2.12
315.621	2.27
315.995	1.84
316.369	2.07
316.743	2.07
317.117	1.99
317.491	1.96
317.865	2.24
318.239	1.87
318.613	1.95
318.987	2
319.361	2.34
319.734	1.8
320.108	1.37
320.482	1.86
320.855	2.28
321.229	2.51
321.602	2.51
321.976	2.44
322.349	1.71
322.723	2.17
323.096	2.04
323.469	2.04
323.843	2.09
324.216	2.14
324.589	2.73
324.962	1.89
325.335	2.04
325.708	1.89
326.081	2.73
326.454	2.28
326.827	2.22
327.2	2.22
327.573	2.33
327.945	2.19
328.318	2.54
328.691	2.02
329.063	2.27
329.436	2.22
329.809	1.79
330.181	2.2
330.553	2.51
330.926	2.61
331.298	2.07
331.671	2.36
332.043	1.81
332.415	2.38
332.787	2.32
333.159	2.29
333.532	2.44
333.904	2.11
334.276	2.3
334.648	1.88
335.02	1.83
335.391	2.26
335.763	2.07
336.135	2.09
336.507	3.13
336.879	2.54
337.25	1.91
337.622	1.96
337.993	1.54
338.365	2.41
338.736	2.23
339.108	2.81
339.479	2.62
339.851	2.77
340.222	1.82
340.593	2.06
340.964	2.33
341.336	1.81
341.707	2.07
342.078	2.43
342.449	1.94
342.82	2.07
343.191	1.59
343.562	2.24
343.933	2.29
344.303	2.22
344.674	2.06
345.045	1.96
345.416	2.06
345.786	2.02
346.157	0.96
346.527	1.78
346.898	1.93
347.268	2.12
347.639	1.81
348.009	1.81
348.38	2.19
348.75	1.97
349.12	1.88
349.49	1.9
349.861	2.13
350.231	1.84
350.601	1.91
350.971	1.73
351.341	2.07
351.711	2.27
352.081	1.7
352.45	1.95
352.82	2.18
353.19	1.52
353.56	1.66
353.929	1.71
354.299	2.19
354.669	2.14
355.038	2.22
355.408	1.96
355.777	2.22
356.147	1.9
356.516	2.14
356.885	1.66
357.254	2.33
357.624	2.44
357.993	1.97
358.362	1.91
358.731	2.03
359.1	1.95
359.469	2.21
359.838	1.9
360.207	1.97
360.576	2.1
360.945	2.18
361.314	2.1
361.682	2.12
362.051	2.2
362.42	1.97
362.788	2.33
363.157	2.18
363.525	1.95
363.894	2.05
364.262	1.99
364.631	2.23
364.999	2.24
365.367	2.19
365.735	2.15
366.104	1.63
366.472	2.12
366.84	2.09
367.208	1.94
367.576	1.9
367.944	1.95
368.312	1.82
368.68	2.12
369.048	2.04
369.416	1.75
369.783	2.03
370.151	1.92
370.519	2.22
370.886	1.99
371.254	2.17
371.621	2.47
371.989	1.84
372.356	1.94
372.724	1.87
373.091	2.01
373.458	1.8
373.826	1.85
374.193	2.15
374.56	2.03
374.927	2.31
375.294	1.88
375.661	2.18
376.028	2.21
376.395	2.36
376.762	2.09
377.129	2.17
377.496	2.12
377.863	1.93
378.229	1.91
378.596	1.87
378.963	1.88
379.329	2.04
379.696	1.91
380.062	2.07
380.429	2.01
380.795	1.91
381.161	2.04
381.528	1.92
381.894	1.95
382.26	2.2
382.626	2.11
382.993	2.26
383.359	2.13
383.725	2.07
384.091	1.95
384.457	2.31
384.823	2.42
385.188	2.22
385.554	2.15
385.92	2.19
386.286	1.97
386.651	2.17
387.017	2.1
387.383	2.23
387.748	2.32
388.114	2.31
388.479	2.19
388.845	1.76
389.21	1.89
389.575	2.27
389.94	2
390.306	2.12
390.671	1.96
391.036	2.09
391.401	2.21
391.766	2.02
392.131	1.99
392.496	1.83
392.861	2.17
393.226	2.02
393.591	2.06
393.956	2.19
394.32	2.07
394.685	2.04
395.05	1.98
395.414	2.06
395.779	1.86
396.143	2.06
396.508	2.04
396.872	2.06
397.236	2.35
397.601	2.26
397.965	2.14
398.329	1.98
398.694	2.01
399.058	2.31
399.422	2.34
399.786	2.36
400.15	2.4
400.514	2.23
400.878	2.15
401.242	2.13
401.605	2.22
401.969	2.01
402.333	2.25
402.697	2.27
403.06	2.19
403.424	2.15
403.787	2.1
404.151	1.97
404.514	2.06
404.878	2.1
405.241	2.38
405.604	2.15
405.968	2.03
406.331	2.25
406.694	2.16
407.057	2.32
407.42	2.09
407.783	2.26
408.146	2.12
408.509	2.31
408.872	1.98
409.235	2.06
409.598	2.02
409.961	2.2
410.323	1.85
410.686	2.13
411.049	1.98
411.411	2.01
411.774	2.12
412.136	2.29
412.499	2.18
412.861	2.08
413.223	2.24
413.586	2.21
413.948	2.09
414.31	2.44
414.672	2.13
415.035	2.14
415.397	2.15
415.759	2.19
416.121	2.26
416.483	2.22
416.845	2.04
417.206	2.39
417.568	2.37
417.93	2.22
418.292	2.24
418.653	2.14
419.015	2.16
419.377	2.06
419.738	2.08
420.1	2.02
420.461	2.16
420.822	2.22
421.184	1.99
421.545	2.21
421.906	2.22
422.267	2.1
422.629	2.01
422.99	2.19
423.351	2.25
423.712	2.28
424.073	2.13
424.434	2.09
424.795	2.13
425.155	2.14
425.516	2.08
425.877	2.07
426.238	2.19
426.598	2.15
426.959	2.25
427.32	2.29
427.68	2.27
428.041	2.07
428.401	2.13
428.761	2.06
429.122	2.27
429.482	2.39
429.842	2.15
430.202	2.2
430.563	2.14
430.923	2.33
431.283	2.26
431.643	2.46
432.003	2.21
432.363	2.29
432.722	2.09
433.082	2.18
433.442	2.36
433.802	2.28
434.161	2.19
434.521	2.06
434.881	2.17
435.24	2.2
435.6	2.26
435.959	2.28
436.319	2.18
436.678	2.28
437.037	2.22
437.396	2.18
437.756	2.23
438.115	2.21
438.474	2.25
438.833	2.16
439.192	2.18
439.551	2.38
439.91	2.18
440.269	2.36
440.628	2.11
440.987	2.25
441.345	2.18
441.704	2.18
442.063	2.24
442.421	2.27
442.78	2.23
443.138	2.2
443.497	2.24
443.855	2.17
444.214	2.28
444.572	2.13
444.93	2.19
445.288	2.25
445.647	2.22
446.005	2.36
446.363	2.32
446.721	2.18
447.079	2.22
447.437	2.19
447.795	2.21
448.153	2.26
448.51	2.19
448.868	2.26
449.226	2.21
449.584	2.27
449.941	2.23
450.299	2.24
450.656	2.25
451.014	2.2
451.371	2.36
451.729	2.2
452.086	2.31
452.443	2.46
452.801	2.23
453.158	2.17
453.515	2.08
453.872	2.38
454.229	2.19
454.586	2.18
454.943	2.16
455.3	2.31
455.657	2.42
456.014	2.35
456.371	2.36
456.727	2.25
457.084	2.36
457.441	2.32
457.797	2.26
458.154	2.39
458.51	2.41
458.867	2.41
459.223	2.41
459.58	2.28
459.936	2.29
460.292	2.32
460.648	2.24
461.005	2.03
461.361	2.16
461.717	2.18
462.073	2.3
462.429	2.37
462.785	2.42
463.141	2.51
463.496	2.42
463.852	2.42
464.208	2.39
464.564	2.33
464.919	2.25
465.275	2.33
465.631	2.32
465.986	2.37
466.342	2.43
466.697	2.37
467.052	2.21
467.408	2.35
467.763	2.41
468.118	2.28
468.473	2.36
468.829	2.17
469.184	2.4
469.539	2.28
469.894	2.37
470.249	2.32
470.603	2.4
470.958	2.28
471.313	2.16
471.668	2.29
472.023	2.15
472.377	2.28
472.732	2.32
473.086	2.34
473.441	2.25
473.795	2.4
474.15	2.41
474.504	2.33
474.859	2.36
475.213	2.46
475.567	2.25
475.921	2.3
476.275	2.39
476.63	2.45
476.984	2.21
477.338	2.43
477.692	2.36
478.045	2.27
478.399	2.38
478.753	2.29
479.107	2.43
479.461	2.25
479.814	2.37
480.168	2.32
480.521	2.28
480.875	2.39
481.228	2.48
481.582	2.5
481.935	2.18
482.289	2.1
482.642	2.41
482.995	2.25
483.348	2.28
483.701	2.34
484.055	2.31
484.408	2.32
484.761	2.18
485.114	2.05
485.466	2
485.819	2.08
486.172	2.21
486.525	2.35
486.878	2.41
487.23	2.45
487.583	2.41
487.936	2.39
488.288	2.35
488.641	2.13
488.993	2.14
489.345	2.17
489.698	2.2
490.05	2.27
490.402	2.31
490.754	2.36
491.107	2.43
491.459	2.38
491.811	2.44
492.163	2.4
492.515	2.21
492.866	2.18
493.218	2.17
493.57	2.2
493.922	2.22
494.274	2.46
494.625	2.47
494.977	2.43
495.328	2.47
495.68	2.4
496.031	2.41
496.383	2.45
496.734	2.42
497.086	2.4
497.437	2.29
497.788	2.16
498.139	2.42
498.49	2.26
498.842	2.42
499.193	2.28
499.544	2.26
499.894	2.48
500.245	2.43
500.596	2.33
500.947	2.5
501.298	2.57
501.648	2.31
501.999	2.27
502.35	2.37
502.7	2.48
503.051	2.51
503.401	2.59
503.752	2.37
504.102	2.44
504.452	2.27
504.803	2.36
505.153	2.34
505.503	2.19
505.853	2.39
506.203	2.35
506.553	2.36
506.903	2.45
507.253	2.41
507.603	2.53
507.953	2.29
508.303	2.39
508.652	2.31
509.002	2.45
509.352	2.33
509.701	2.3
510.051	2.38
510.4	2.52
510.75	2.36
511.099	2.38
511.449	2.36
511.798	2.37
512.147	2.39
512.496	2.5
512.846	2.37
513.195	2.39
513.544	2.41
513.893	2.38
514.242	2.34
514.591	2.54
514.939	2.41
515.288	2.49
515.637	2.38
515.986	2.41
516.334	2.39
516.683	2.37
517.032	2.48
517.38	2.43
517.729	2.39
518.077	2.5
518.426	2.43
518.774	2.42
519.122	2.36
519.47	2.44
519.819	2.34
520.167	2.34
520.515	2.31
520.863	2.37
521.211	2.48
521.559	2.41
521.907	2.43
522.255	2.52
522.602	2.57
522.95	2.43
523.298	2.47
523.645	2.44
523.993	2.37
524.341	2.48
524.688	2.43
525.036	2.32
525.383	2.41
525.73	2.4
526.078	2.32
526.425	2.31
526.772	2.22
527.119	2.32
527.466	2.22
527.814	2.36
528.161	2.42
528.508	2.52
528.854	2.41
529.201	2.39
529.548	2.25
529.895	2.18
530.242	2.19
530.588	2.18
530.935	2.34
531.282	2.41
531.628	2.5
531.975	2.45
532.321	2.51
532.667	2.5
533.014	2.52
533.36	2.51
533.706	2.4
534.052	2.38
534.399	2.26
534.745	2.22
535.091	2.29
535.437	2.29
535.783	2.44
536.129	2.5
536.474	2.51
536.82	2.53
537.166	2.43
537.512	2.45
537.857	2.4
538.203	2.33
538.549	2.34
538.894	2.41
539.239	2.51
539.585	2.49
539.93	2.59
540.276	2.58
540.621	2.48
540.966	2.51
541.311	2.38
541.656	2.31
542.001	2.42
542.346	2.29
542.691	2.26
543.036	2.26
543.381	2.25
543.726	2.4
544.071	2.41
544.415	2.6
544.76	2.5
545.105	2.49
545.449	2.51
545.794	2.4
546.138	2.47
546.483	2.61
546.827	2.52
547.171	2.44
547.516	2.46
547.86	2.32
548.204	2.33
548.548	2.41
548.892	2.54
549.236	2.48
549.58	2.5
549.924	2.56
550.268	2.45
550.612	2.6
550.956	2.61
551.3	2.43
551.643	2.56
551.987	2.29
552.33	2.72
552.674	2.53
553.017	2.5
553.361	2.59
553.704	2.51
554.048	2.51
554.391	2.45
554.734	2.46
555.077	2.41
555.42	2.51
555.764	2.57
556.107	2.65
556.45	2.55
556.793	2.64
557.135	2.6
557.478	2.56
557.821	2.49
558.164	2.62
558.507	2.76
558.849	2.5
559.192	2.58
559.534	2.48
559.877	2.7
560.219	2.63
560.562	2.56
560.904	2.54
561.246	2.54
561.589	2.47
561.931	2.52
562.273	2.33
562.615	2.45
562.957	2.44
563.299	2.66
563.641	2.65
563.983	2.52
564.325	2.34
564.667	2.61
565.008	2.54
565.35	2.53
565.692	2.58
566.033	2.54
566.375	2.42
566.716	2.5
567.058	2.56
567.399	2.4
567.741	2.44
568.082	2.49
568.423	2.57
568.764	2.38
569.105	2.53
569.447	2.42
569.788	2.71
570.129	2.57
570.47	2.56
570.811	2.26
571.151	2.42
571.492	2.4
571.833	2.27
572.174	2.44
572.514	2.47
572.855	2.53
573.195	2.49
573.536	2.44
573.876	2.36
574.217	2.49
574.557	2.59
574.898	2.36
575.238	2.39
575.578	2.39
575.918	2.54
576.258	2.42
576.598	2.36
576.938	2.45
577.278	2.41
577.618	2.46
577.958	2.4
578.298	2.52
578.638	2.71
578.977	2.59
579.317	2.45
579.657	2.55
579.996	2.63
580.336	2.54
580.675	2.34
581.014	2.59
581.354	2.53
581.693	2.5
582.032	2.55
582.372	2.44
582.711	2.5
583.05	2.99
583.389	2.29
583.728	2.5
584.067	2.65
584.406	2.45
584.745	2.59
585.083	2.47
585.422	2.74
585.761	2.43
586.1	2.67
586.438	2.57
586.777	2.42
587.115	2.63
587.454	2.65
587.792	2.66
588.13	2.65
588.469	2.41
588.807	2.66
589.145	2.73
589.483	2.42
589.821	2.43
590.159	2.61
590.497	2.53
590.835	2.58
591.173	2.53
591.511	2.62
591.849	2.5
592.187	2.5
592.524	2.71
592.862	2.5
593.2	2.5
593.537	2.58
593.875	2.41
594.212	2.46
594.55	2.6
594.887	2.44
595.224	2.37
595.561	2.31
595.899	2.52
596.236	2.62
596.573	2.71
596.91	2.52
597.247	2.44
597.584	2.52
597.921	2.63
598.258	2.63
598.594	2.31
598.931	2.49
599.268	2.46
599.604	2.46
599.941	2.52
600.277	2.81
600.614	2.71
600.95	2.46
601.287	2.42
601.623	2.75
601.959	2.5
602.296	2.53
602.632	2.42
602.968	2.44
603.304	2.81
603.64	2.59
603.976	2.45
604.312	2.47
604.648	2.74
604.984	2.42
605.319	2.53
605.655	2.36
605.991	2.62
606.326	2.48
606.662	2.59
606.998	2.55
607.333	2.67
607.668	2.46
608.004	2.51
608.339	2.54
608.674	2.63
609.01	2.54
609.345	2.46
609.68	2.45
610.015	2.5
610.35	2.45
610.685	2.22
611.02	2.51
611.355	2.43
611.689	2.73
612.024	2.54
612.359	2.52
612.694	2.45
613.028	2.51
613.363	2.46
613.697	2.83
614.032	2.72
614.366	2.52
614.7	2.39
615.035	2.71
615.369	2.6
615.703	2.68
616.037	2.4
616.371	2.47
616.705	2.38
617.039	2.58
617.373	2.38
617.707	2.21
618.041	2.4
618.375	2.61
618.709	2.66
619.042	2.73
619.376	3.08
619.71	2.7
620.043	2.54
620.377	2.31
620.71	2.62
621.043	2.65
621.377	2.75
621.71	2.59
622.043	2.3
622.376	2.69
622.709	2.53
623.043	2.27
623.376	2.59
623.709	2.49
624.041	2.45
624.374	2.79
624.707	2.59
625.04	2.84
625.373	2.31
625.705	2.73
626.038	2.79
626.37	2.35
626.703	2.4
627.035	2.49
627.368	2.51
627.7	2.32
628.032	2.36
628.365	2.53
628.697	2.74
629.029	2.4
629.361	2.53
629.693	2.56
630.025	2.74
630.357	2.55
630.689	2.43
631.021	2.86
631.353	2.81
631.684	2.14
632.016	2.25
632.348	2.21
632.679	2.38
633.011	2.7
633.342	2.33
633.674	2.63
634.005	2.46
634.336	2.38
634.668	2.38
634.999	2.55
635.33	2.57
635.661	2.76
635.992	2.7
636.323	2.7
636.654	2.38
636.985	2.56
637.316	2.72
637.647	2.59
637.977	2.7
638.308	2.73
638.639	3.02
638.969	2.42
639.3	2.45
639.63	2.44
639.961	2.77
640.291	2.37
640.622	2.51
640.952	2.8
641.282	2.48
641.612	2.42
641.943	2.78
642.273	2.49
642.603	2.76
642.933	2.88
643.263	2.32
643.592	2.56
643.922	2.51
644.252	2.71
644.582	2.84
644.911	2.73
645.241	2.56
645.571	3.25
645.9	2.48
646.23	2.87
646.559	2.41
646.888	2.77
647.218	2.9
647.547	2.48
647.876	2.91
648.205	2.47
648.534	2.11
648.863	2.28
649.192	2.75
649.521	2.62
649.85	3.38
650.179	2.58
650.508	3.24
650.837	2.27
651.165	2.49
651.494	2.91
651.822	2.67
652.151	2.58
652.479	2.86
652.808	2.73
653.136	2.96
653.465	2.09
653.793	2.29
654.121	2.58
654.449	2.98
654.777	2.66
655.105	2.88
655.433	3.07
655.761	2.68
656.089	2.89
656.417	2.64
656.745	2.52
657.073	2.47
657.4	3.03
657.728	2.72
658.056	3.1
658.383	2.8
658.711	2.39
659.038	2.62
659.365	2.15
659.693	2.96
660.02	2.81
660.347	2.77
660.674	2.55
661.001	2.74
661.329	2.83
661.656	2.76
661.982	2.67
662.309	2.57
662.636	2.8
662.963	2.66
663.29	2.91
663.616	2.33
663.943	2.64
664.27	2.59
664.596	2.66
664.923	2.67
665.249	3.31
665.576	2.29
665.902	2.8
666.228	2.19
666.554	2.7
666.881	2.95
667.207	2.86
667.533	2.49
667.859	2.28
668.185	2.85
668.511	2.46
668.837	3.11
669.162	2.82
669.488	3.01
669.814	3.24
670.139	2.6
670.465	2.49
670.791	2.52
671.116	2.64
671.442	2.44
671.767	2.32
672.092	2.46
672.418	2.47
672.743	2.78
673.068	2.54
673.393	2.33
673.718	2.77
674.043	3.22
674.368	2.65
674.693	2.08
675.018	2.76
675.343	2.39
675.667	2.61
675.992	2.81
676.317	2.13
676.641	2.48
676.966	2.7
677.29	2.75
677.615	2.46
677.939	2.44
678.264	2.49
678.588	2.21
678.912	2.34
679.236	2.26
679.56	1.95
679.885	3.24
680.209	2.61
680.532	2.13
680.856	2.81
681.18	2.77
681.504	2.47
681.828	3.15
682.152	2.24
682.475	2.49
682.799	2.65
683.122	2.61
683.446	2.87
683.769	2.16
684.093	3.08
684.416	2.88
684.739	2.66
685.062	2.54
685.386	2.88
685.709	2.56
686.032	2.72
686.355	2.79
686.678	2.17
687.001	2.31
687.324	2.61
687.646	2.92
687.969	2.97
688.292	2.47
688.614	2.42
688.937	1.95
689.26	2.75
689.582	2.54
689.904	3.22
690.227	2.6
690.549	2.81
690.871	2.46
691.194	2.84
691.516	2.27
691.838	2.83
