Data from 1710-4_chest_Reflection__3__169.txt Node

Date: Fri Sep 30 19:26:02 CDT 2022
User: ToomeyLab
Spectrometer: FLMS14357
Trigger mode: 0
Integration Time (sec): 1.000000E-2
Scans to average: 100
Electric dark correction enabled: true
Nonlinearity correction enabled: false
Boxcar width: 0
XAxis mode: Wavelengths
Number of Pixels in Spectrum: 2048
>>>>>Begin Spectral Data<<<<<
189.047	28.04
189.435	28.04
189.823	28.04
190.211	118.16
190.599	93.36
190.987	75.94
191.375	331.27
191.763	198.27
192.151	-132.19
192.538	-477.55
192.926	118.53
193.314	-245.93
193.702	40.61
194.089	519.67
194.477	35.4
194.864	102.75
195.252	-117.41
195.639	56.2
196.027	-272.06
196.414	33.08
196.801	111.68
197.189	339.04
197.576	177
197.963	-16.32
198.351	35.22
198.738	17.46
199.125	27.34
199.512	41.83
199.899	-37.75
200.286	-10.58
200.673	20.67
201.06	18.62
201.447	-18.67
201.833	64.93
202.22	3.62
202.607	27.35
202.994	4.28
203.38	47.24
203.767	-15.19
204.154	49.12
204.54	39.38
204.927	-36.83
205.313	87.81
205.699	17.62
206.086	22.99
206.472	30.34
206.858	22.91
207.245	-76.2
207.631	27.82
208.017	32
208.403	25.6
208.789	29.27
209.175	29.16
209.561	-6.6
209.947	57.93
210.333	26.38
210.719	43.26
211.105	3.73
211.491	34.39
211.876	34.26
212.262	23.33
212.648	-15.26
213.034	49.16
213.419	-5.55
213.805	43.51
214.19	6.42
214.576	7.28
214.961	64.37
215.346	33.67
215.732	-3.22
216.117	2.33
216.502	51.24
216.888	-1.9
217.273	20.5
217.658	4.2
218.043	30.38
218.428	27.63
218.813	-31.91
219.198	-3.21
219.583	8.47
219.968	8.24
220.353	17.17
220.738	39.24
221.122	-10.11
221.507	14.14
221.892	23.41
222.276	12.48
222.661	3.2
223.046	1.9
223.43	16.78
223.815	8.14
224.199	15.34
224.583	15.41
224.968	4.03
225.352	4.47
225.736	10.63
226.121	9.03
226.505	10.11
226.889	7.72
227.273	8.05
227.657	6.11
228.041	5.57
228.425	-0.29
228.809	11.05
229.193	8.34
229.577	6.46
229.961	6.68
230.344	6.74
230.728	7.32
231.112	7.15
231.495	8.03
231.879	6.66
232.263	9.66
232.646	8.71
233.03	6.99
233.413	8.37
233.797	5.38
234.18	6.85
234.563	10.6
234.946	7.09
235.33	5.14
235.713	5.54
236.096	7.61
236.479	7.24
236.862	7.04
237.245	7.84
237.628	6.26
238.011	6.24
238.394	5.71
238.777	6.05
239.16	5.83
239.543	8.39
239.925	6.14
240.308	6.22
240.691	6.9
241.073	8.11
241.456	6.48
241.838	6.51
242.221	7.44
242.603	7.44
242.986	7.8
243.368	6.59
243.75	7.02
244.133	6.29
244.515	6.59
244.897	6.53
245.279	5.88
245.661	7.13
246.043	6.74
246.425	6.65
246.807	7.29
247.189	6.15
247.571	6.84
247.953	6.17
248.335	7.24
248.717	6.66
249.098	6.71
249.48	6.92
249.862	6.45
250.243	7.11
250.625	6.53
251.006	7.32
251.388	7.25
251.769	6.88
252.151	6.24
252.532	6.14
252.913	6.41
253.295	6.51
253.676	6.93
254.057	6.58
254.438	6.76
254.819	6.82
255.2	5.85
255.581	4.73
255.962	7.09
256.343	7.27
256.724	7.61
257.105	6.09
257.486	7.43
257.867	6
258.247	6.29
258.628	6.27
259.009	6.59
259.389	6.54
259.77	6.23
260.15	6.01
260.531	6.14
260.911	6.06
261.292	6.6
261.672	6.02
262.052	6.28
262.432	6.35
262.813	6.94
263.193	6.23
263.573	6.58
263.953	6.62
264.333	6.06
264.713	6.24
265.093	6.01
265.473	6.28
265.853	5.78
266.233	6.96
266.612	6.64
266.992	6.37
267.372	6.5
267.752	5.58
268.131	6.03
268.511	6.08
268.89	5.59
269.27	6.54
269.649	6.66
270.029	5.96
270.408	6.25
270.787	5.6
271.167	6.26
271.546	6.1
271.925	6.3
272.304	6.57
272.683	6.14
273.062	5.99
273.441	5.53
273.82	6.25
274.199	6.31
274.578	6.4
274.957	5.62
275.336	5.67
275.715	6
276.093	5.64
276.472	6.28
276.851	7.22
277.229	6.04
277.608	6.29
277.986	5.74
278.365	6.18
278.743	6.29
279.122	5.1
279.5	5.99
279.878	5.04
280.257	5.72
280.635	6.18
281.013	5.95
281.391	5.78
281.769	5.84
282.147	5.65
282.525	6.03
282.903	5.91
283.281	6.52
283.659	5.95
284.037	6.25
284.415	4.99
284.792	5.74
285.17	6.18
285.548	5.86
285.925	5.38
286.303	5.63
286.68	5.64
287.058	5.7
287.435	5.94
287.813	5.57
288.19	5.7
288.567	5.53
288.945	5.29
289.322	6.03
289.699	5.46
290.076	6.22
290.453	5.9
290.83	5.68
291.207	6.19
291.584	5.53
291.961	5.93
292.338	6.17
292.715	6.24
293.092	5.97
293.469	5.63
293.845	6.32
294.222	6.44
294.599	5.78
294.975	6.44
295.352	6.39
295.728	6.27
296.105	6.61
296.481	6.35
296.858	6.17
297.234	6.07
297.61	6.57
297.986	6.87
298.363	6.3
298.739	6.77
299.115	6.53
299.491	6.75
299.867	6.02
300.243	6.54
300.619	6.35
300.995	6.61
301.371	7.18
301.746	6.84
302.122	6.83
302.498	6.79
302.874	6.48
303.249	6.64
303.625	6.86
304	7.05
304.376	6.69
304.751	6.82
305.127	7.55
305.502	6.86
305.878	7.11
306.253	7.34
306.628	6.8
307.003	7.14
307.378	7.15
307.754	6.54
308.129	7.13
308.504	7.43
308.879	6.97
309.254	6.35
309.629	7.16
310.003	6.98
310.378	7.21
310.753	6.9
311.128	6.96
311.502	7.39
311.877	6.78
312.252	6.55
312.626	6.96
313.001	6.96
313.375	6.77
313.75	6.95
314.124	6.63
314.498	6.95
314.873	7.07
315.247	6.98
315.621	7.53
315.995	6.7
316.369	6.67
316.743	7.49
317.117	7.06
317.491	6.98
317.865	7.96
318.239	7.27
318.613	7.39
318.987	7.34
319.361	6.97
319.734	6.71
320.108	7.27
320.482	6.97
320.855	7.2
321.229	7.12
321.602	7.02
321.976	8.06
322.349	6.99
322.723	6.84
323.096	7.47
323.469	7.15
323.843	7.41
324.216	7.36
324.589	7.41
324.962	7.28
325.335	7.57
325.708	7.4
326.081	7.29
326.454	7.58
326.827	7.43
327.2	7.51
327.573	7.47
327.945	7.54
328.318	7.47
328.691	7.57
329.063	7.5
329.436	7.32
329.809	7.27
330.181	6.76
330.553	7.64
330.926	7.53
331.298	7.54
331.671	7.27
332.043	7.45
332.415	7.88
332.787	7.68
333.159	7.56
333.532	7.44
333.904	7.69
334.276	7.4
334.648	7.05
335.02	7.54
335.391	7.46
335.763	7.52
336.135	7.32
336.507	7.79
336.879	7.14
337.25	7.1
337.622	7.19
337.993	7.13
338.365	7.89
338.736	7.24
339.108	7.92
339.479	7.78
339.851	7.69
340.222	7.23
340.593	7.29
340.964	7.44
341.336	7.27
341.707	7.51
342.078	7.28
342.449	7.27
342.82	7.46
343.191	7.31
343.562	7.21
343.933	7.36
344.303	7.4
344.674	7.59
345.045	7.31
345.416	7.61
345.786	7.65
346.157	7.01
346.527	7.48
346.898	7.52
347.268	7.85
347.639	7.19
348.009	7.35
348.38	7.5
348.75	7.57
349.12	7.39
349.49	6.82
349.861	7.92
350.231	7.48
350.601	7.48
350.971	7.06
351.341	6.98
351.711	7.19
352.081	7.04
352.45	6.94
352.82	7.39
353.19	7.28
353.56	7.13
353.929	7.52
354.299	7.07
354.669	7.39
355.038	7.73
355.408	7.31
355.777	7.49
356.147	7.16
356.516	7.73
356.885	7.47
357.254	7.52
357.624	7.66
357.993	7.31
358.362	7.18
358.731	7.15
359.1	7.08
359.469	7.73
359.838	7.51
360.207	7.49
360.576	7.7
360.945	7.27
361.314	7.35
361.682	7.4
362.051	7.52
362.42	7
362.788	7.47
363.157	7.48
363.525	7.55
363.894	7.6
364.262	7.37
364.631	7.65
364.999	7.8
365.367	7.5
365.735	7.64
366.104	7.32
366.472	7.51
366.84	7.54
367.208	7.36
367.576	7.32
367.944	7.63
368.312	7.43
368.68	7.51
369.048	7.7
369.416	7.58
369.783	7.59
370.151	7.66
370.519	7.35
370.886	7.68
371.254	7.73
371.621	8.05
371.989	7.44
372.356	7.54
372.724	7.63
373.091	7.74
373.458	7.28
373.826	7.6
374.193	7.89
374.56	8.08
374.927	7.41
375.294	7.45
375.661	7.29
376.028	7.73
376.395	7.36
376.762	7.62
377.129	7.42
377.496	7.42
377.863	7.5
378.229	7.42
378.596	7.63
378.963	7.3
379.329	7.6
379.696	7.52
380.062	7.88
380.429	7.7
380.795	7.35
381.161	7.49
381.528	7.79
381.894	7.73
382.26	7.87
382.626	7.87
382.993	7.6
383.359	7.5
383.725	7.75
384.091	7.74
384.457	7.97
384.823	7.92
385.188	7.8
385.554	7.65
385.92	7.77
386.286	7.75
386.651	8
387.017	7.63
387.383	7.85
387.748	7.88
388.114	7.73
388.479	7.8
388.845	7.88
389.21	7.65
389.575	7.92
389.94	7.64
390.306	7.79
390.671	7.72
391.036	7.8
391.401	7.75
391.766	7.93
392.131	7.59
392.496	7.72
392.861	7.92
393.226	7.5
393.591	7.96
393.956	7.88
394.32	7.74
394.685	7.68
395.05	7.89
395.414	7.82
395.779	7.78
396.143	7.78
396.508	7.6
396.872	7.8
397.236	7.83
397.601	7.8
397.965	7.88
398.329	7.81
398.694	7.97
399.058	8.13
399.422	7.91
399.786	8
400.15	7.82
400.514	8.11
400.878	7.84
401.242	7.74
401.605	7.93
401.969	7.77
402.333	7.69
402.697	7.87
403.06	7.84
403.424	7.78
403.787	7.78
404.151	7.8
404.514	7.72
404.878	7.77
405.241	8.1
405.604	7.77
405.968	7.79
406.331	7.95
406.694	7.83
407.057	7.9
407.42	8.08
407.783	7.86
408.146	7.82
408.509	7.8
408.872	7.71
409.235	7.84
409.598	7.88
409.961	7.97
410.323	7.66
410.686	7.76
411.049	7.84
411.411	7.8
411.774	7.86
412.136	8.03
412.499	8.11
412.861	8
413.223	8
413.586	7.72
413.948	7.78
414.31	8.03
414.672	8.01
415.035	7.9
415.397	7.95
415.759	7.99
416.121	8.1
416.483	7.84
416.845	7.97
417.206	8.11
417.568	8.26
417.93	7.77
418.292	8.03
418.653	7.96
419.015	8.05
419.377	7.76
419.738	8
420.1	7.83
420.461	7.86
420.822	7.75
421.184	7.73
421.545	7.85
421.906	7.89
422.267	7.89
422.629	7.8
422.99	7.76
423.351	7.87
423.712	7.81
424.073	7.93
424.434	7.93
424.795	7.91
425.155	7.98
425.516	7.96
425.877	7.89
426.238	7.96
426.598	7.88
426.959	7.96
427.32	8.14
427.68	8.02
428.041	7.99
428.401	8.19
428.761	8.03
429.122	8.11
429.482	8.13
429.842	8.05
430.202	8.35
430.563	8.04
430.923	8.36
431.283	8.31
431.643	8.29
432.003	8.28
432.363	8.11
432.722	8.14
433.082	8.24
433.442	8.26
433.802	8.1
434.161	8.25
434.521	8.25
434.881	8.31
435.24	8.13
435.6	8.29
435.959	8.3
436.319	8.17
436.678	8.41
437.037	8.36
437.396	8.38
437.756	8.24
438.115	8.19
438.474	8.3
438.833	8.38
439.192	8.31
439.551	8.3
439.91	8.29
440.269	8.39
440.628	8.23
440.987	8.36
441.345	8.43
441.704	8.32
442.063	8.33
442.421	8.36
442.78	8.38
443.138	8.3
443.497	8.3
443.855	8.47
444.214	8.46
444.572	8.37
444.93	8.39
445.288	8.54
445.647	8.39
446.005	8.55
446.363	8.43
446.721	8.42
447.079	8.29
447.437	8.32
447.795	8.3
448.153	8.32
448.51	8.24
448.868	8.42
449.226	8.33
449.584	8.42
449.941	8.53
450.299	8.52
450.656	8.53
451.014	8.53
451.371	8.53
451.729	8.5
452.086	8.68
452.443	8.75
452.801	8.43
453.158	8.63
453.515	8.44
453.872	8.78
454.229	8.6
454.586	8.42
454.943	8.5
455.3	8.81
455.657	8.65
456.014	8.75
456.371	8.69
456.727	8.61
457.084	8.69
457.441	8.57
457.797	8.57
458.154	8.79
458.51	8.81
458.867	8.77
459.223	8.7
459.58	8.78
459.936	8.76
460.292	8.71
460.648	8.68
461.005	8.53
461.361	8.58
461.717	8.56
462.073	8.6
462.429	8.72
462.785	8.68
463.141	8.87
463.496	8.8
463.852	8.85
464.208	8.91
464.564	8.96
464.919	8.53
465.275	8.88
465.631	8.86
465.986	8.97
466.342	8.93
466.697	8.87
467.052	8.69
467.408	8.81
467.763	8.84
468.118	8.99
468.473	8.81
468.829	8.81
469.184	8.95
469.539	8.8
469.894	8.95
470.249	8.87
470.603	9.09
470.958	8.98
471.313	8.82
471.668	9.01
472.023	8.99
472.377	9.03
472.732	9
473.086	8.92
473.441	9.01
473.795	9.11
474.15	8.99
474.504	8.9
474.859	9.03
475.213	9.26
475.567	9.03
475.921	9.16
476.275	9.05
476.63	9.12
476.984	9.07
477.338	9.1
477.692	9.03
478.045	8.9
478.399	9.13
478.753	9.01
479.107	9.24
479.461	9.06
479.814	9.16
480.168	9.08
480.521	9.17
480.875	9.26
481.228	9.15
481.582	9.2
481.935	9.07
482.289	9.1
482.642	9.23
482.995	9.08
483.348	9.15
483.701	9.03
484.055	9.08
484.408	9.03
484.761	8.92
485.114	8.75
485.466	8.71
485.819	8.72
486.172	8.82
486.525	8.87
486.878	8.86
487.23	8.95
487.583	8.97
487.936	9
488.288	9.08
488.641	8.95
488.993	8.95
489.345	8.9
489.698	8.92
490.05	9
490.402	8.97
490.754	9.01
491.107	9.11
491.459	9.15
491.811	9.16
492.163	9.33
492.515	9.09
492.866	9.09
493.218	9.02
493.57	9.08
493.922	9.09
494.274	9.18
494.625	9.32
494.977	9.32
495.328	9.3
495.68	9.39
496.031	9.41
496.383	9.49
496.734	9.44
497.086	9.49
497.437	9.41
497.788	9.4
498.139	9.5
498.49	9.4
498.842	9.49
499.193	9.45
499.544	9.44
499.894	9.69
500.245	9.56
500.596	9.5
500.947	9.61
501.298	9.65
501.648	9.66
501.999	9.65
502.35	9.72
502.7	9.78
503.051	9.78
503.401	9.77
503.752	9.61
504.102	9.66
504.452	9.68
504.803	9.9
505.153	9.65
505.503	9.76
505.853	9.78
506.203	9.75
506.553	9.76
506.903	9.73
507.253	9.84
507.603	9.94
507.953	9.8
508.303	9.94
508.652	9.89
509.002	9.97
509.352	9.88
509.701	9.98
510.051	9.87
510.4	9.91
510.75	9.87
511.099	9.89
511.449	9.9
511.798	9.79
512.147	9.85
512.496	9.99
512.846	9.87
513.195	10.11
513.544	10.04
513.893	10.02
514.242	9.98
514.591	10.08
514.939	9.95
515.288	10.1
515.637	9.99
515.986	10.02
516.334	10.17
516.683	10.04
517.032	10.1
517.38	10.21
517.729	10.29
518.077	10.21
518.426	10.22
518.774	10.22
519.122	10.25
519.47	10.22
519.819	10.18
520.167	10.09
520.515	10.15
520.863	10.15
521.211	10.28
521.559	10.22
521.907	10.33
522.255	10.29
522.602	10.53
522.95	10.46
523.298	10.39
523.645	10.38
523.993	10.42
524.341	10.35
524.688	10.47
525.036	10.29
525.383	10.53
525.73	10.55
526.078	10.56
526.425	10.54
526.772	10.42
527.119	10.36
527.466	10.33
527.814	10.44
528.161	10.53
528.508	10.61
528.854	10.51
529.201	10.48
529.548	10.38
529.895	10.3
530.242	10.26
530.588	10.32
530.935	10.42
531.282	10.48
531.628	10.53
531.975	10.51
532.321	10.67
532.667	10.86
533.014	10.86
533.36	10.89
533.706	10.84
534.052	10.93
534.399	10.75
534.745	10.7
535.091	10.66
535.437	10.78
535.783	10.86
536.129	10.94
536.474	10.96
536.82	10.95
537.166	11.1
537.512	11.1
537.857	11.08
538.203	11
538.549	11.11
538.894	11.12
539.239	11.24
539.585	11.35
539.93	11.35
540.276	11.48
540.621	11.38
540.966	11.3
541.311	11.34
541.656	11.35
542.001	11.33
542.346	11.27
542.691	11.15
543.036	11.15
543.381	11.22
543.726	11.3
544.071	11.34
544.415	11.45
544.76	11.38
545.105	11.48
545.449	11.55
545.794	11.6
546.138	11.71
546.483	11.76
546.827	11.93
547.171	11.72
547.516	11.79
547.86	11.79
548.204	11.81
548.548	11.81
548.892	11.93
549.236	11.89
549.58	11.9
549.924	11.93
550.268	12
550.612	12.12
550.956	12.17
551.3	12.16
551.643	12.2
551.987	12.03
552.33	12.43
552.674	12.3
553.017	12.32
553.361	12.6
553.704	12.33
554.048	12.39
554.391	12.44
554.734	12.44
555.077	12.28
555.42	12.61
555.764	12.79
556.107	12.62
556.45	12.68
556.793	12.63
557.135	12.62
557.478	12.66
557.821	12.84
558.164	12.82
558.507	12.95
558.849	12.88
559.192	13.02
559.534	12.83
559.877	13.06
560.219	13.17
560.562	13.11
560.904	13.14
561.246	13.17
561.589	12.92
561.931	13.02
562.273	13.06
562.615	13.02
562.957	13.1
563.299	13.37
563.641	13.25
563.983	13.48
564.325	13.24
564.667	13.34
565.008	13.58
565.35	13.4
565.692	13.58
566.033	13.43
566.375	13.61
566.716	13.64
567.058	13.58
567.399	13.61
567.741	13.51
568.082	13.63
568.423	13.67
568.764	13.6
569.105	13.75
569.447	13.75
569.788	13.92
570.129	13.84
570.47	13.9
570.811	14.01
571.151	13.82
571.492	14.04
571.833	13.83
572.174	14.01
572.514	14.13
572.855	13.99
573.195	14.23
573.536	14.16
573.876	14.03
574.217	14.23
574.557	14.28
574.898	14.37
575.238	14.34
575.578	14.2
575.918	14.45
576.258	14.34
576.598	14.45
576.938	14.5
577.278	14.74
577.618	14.6
577.958	14.77
578.298	14.71
578.638	14.75
578.977	14.72
579.317	14.95
579.657	14.91
579.996	14.81
580.336	14.97
580.675	14.8
581.014	15.18
581.354	15.18
581.693	15.3
582.032	15.16
582.372	15.14
582.711	15.09
583.05	15.52
583.389	15.24
583.728	15.53
584.067	15.61
584.406	15.33
584.745	15.64
585.083	15.72
585.422	15.78
585.761	15.52
586.1	15.9
586.438	15.65
586.777	15.66
587.115	15.52
587.454	16.11
587.792	16.03
588.13	15.93
588.469	15.82
588.807	16.07
589.145	16.28
589.483	16.15
589.821	16.21
590.159	16.22
590.497	16.09
590.835	16.23
591.173	16.41
591.511	16.09
591.849	16.16
592.187	16.1
592.524	16.73
592.862	16.16
593.2	16.65
593.537	16.58
593.875	16.46
594.212	16.77
594.55	16.68
594.887	16.76
595.224	16.64
595.561	17.13
595.899	17.08
596.236	16.87
596.573	16.86
596.91	16.92
597.247	16.93
597.584	17.07
597.921	17.01
598.258	17.07
598.594	16.79
598.931	17.04
599.268	17.05
599.604	17.3
599.941	17.17
600.277	17.29
600.614	17.55
600.95	17.2
601.287	17.23
601.623	17.74
601.959	17.41
602.296	17.6
602.632	17.67
602.968	17.55
603.304	17.7
603.64	17.48
603.976	17.73
604.312	17.62
604.648	17.85
604.984	17.77
605.319	17.85
605.655	17.84
605.991	17.84
606.326	18.04
606.662	17.94
606.998	18.08
607.333	18.21
607.668	18.08
608.004	18.29
608.339	18.31
608.674	18.19
609.01	18.14
609.345	18.39
609.68	18.24
610.015	18.45
610.35	18.54
610.685	18.5
611.02	18.63
611.355	18.51
611.689	18.57
612.024	18.62
612.359	18.77
612.694	18.78
613.028	18.94
613.363	18.73
613.697	19.4
614.032	18.87
614.366	19.35
614.7	18.82
615.035	19.43
615.369	19.27
615.703	19.46
616.037	18.97
616.371	19.29
616.705	18.98
617.039	19.49
617.373	19.22
617.707	19.54
618.041	19.08
618.375	19.27
618.709	19.57
619.042	20
619.376	20
619.71	19.47
620.043	19.81
620.377	19.69
620.71	19.73
621.043	19.76
621.377	19.93
621.71	19.67
622.043	19.89
622.376	19.93
622.709	20.14
623.043	19.66
623.376	20.25
623.709	20.33
624.041	20.17
624.374	20.32
624.707	20.34
625.04	20.82
625.373	20.69
625.705	20.57
626.038	20.61
626.37	20.48
626.703	20.69
627.035	20.47
627.368	20.65
627.7	20.78
628.032	20.46
628.365	20.52
628.697	20.8
629.029	20.66
629.361	20.82
629.693	20.96
630.025	21.21
630.357	21.32
630.689	21.21
631.021	21.49
631.353	21.56
631.684	20.79
632.016	20.94
632.348	21.32
632.679	21.23
633.011	21.47
633.342	21.41
633.674	21.82
634.005	21.59
634.336	21.91
634.668	21.62
634.999	21.93
635.33	21.97
635.661	22.01
635.992	21.98
636.323	22.1
636.654	22.11
636.985	22.09
637.316	22.07
637.647	22.39
637.977	22.26
638.308	22.25
638.639	22.21
638.969	22.15
639.3	22.39
639.63	22.46
639.961	22.74
640.291	22.44
640.622	22.32
640.952	22.64
641.282	22.02
641.612	22.54
641.943	22.75
642.273	22.83
642.603	22.5
642.933	22.69
643.263	22.91
643.592	22.88
643.922	22.99
644.252	23.12
644.582	23.25
644.911	22.69
645.241	23.19
645.571	23.54
645.9	23.26
646.23	23.74
646.559	23.28
646.888	23.16
647.218	23.38
647.547	23.44
647.876	23.77
648.205	23.29
648.534	23.27
648.863	23.45
649.192	23.79
649.521	23.4
649.85	24.2
650.179	23.58
650.508	23.76
650.837	23.41
651.165	23.45
651.494	23.7
651.822	23.88
652.151	23.77
652.479	24.16
652.808	23.96
653.136	24.44
653.465	23.96
653.793	23.83
654.121	23.74
654.449	24.52
654.777	24.58
655.105	24.3
655.433	24.59
655.761	24.93
656.089	24.65
656.417	24.52
656.745	24.95
657.073	24.6
657.4	24.53
657.728	25.23
658.056	24.76
658.383	25.05
658.711	24.71
659.038	24.8
659.365	24.21
659.693	25.38
660.02	25.18
660.347	25.07
660.674	25.3
661.001	25.07
661.329	24.99
661.656	25.03
661.982	25.2
662.309	25.45
662.636	25.43
662.963	25.67
663.29	25.48
663.616	25.16
663.943	25.61
664.27	25.62
664.596	26
664.923	25.91
665.249	25.82
665.576	25.32
665.902	26.02
666.228	25.11
666.554	25.82
666.881	26.29
667.207	26.07
667.533	25.87
667.859	25.99
668.185	26.67
668.511	26.55
668.837	26.46
669.162	26.12
669.488	26.33
669.814	26.42
670.139	26.2
670.465	26.03
670.791	25.88
671.116	26.3
671.442	26.81
671.767	26.49
672.092	27.13
672.418	26.92
672.743	27.36
673.068	27.29
673.393	26.92
673.718	26.43
674.043	27.08
674.368	27.16
674.693	26.83
675.018	27.24
675.343	26.92
675.667	27.36
675.992	27.85
676.317	26.82
676.641	27.13
676.966	27.11
677.29	27.31
677.615	27.21
677.939	27.79
678.264	27.75
678.588	27.35
678.912	27.62
679.236	26.86
679.56	27.44
679.885	27.81
680.209	27.85
680.532	27.5
680.856	27.82
681.18	27.47
681.504	27.98
681.828	27.8
