Data from 1710-1_chest_Reflection__3__18.txt Node

Date: Fri Oct 07 15:13:07 CDT 2022
User: ToomeyLab
Spectrometer: FLMS14357
Trigger mode: 0
Integration Time (sec): 1.000000E-2
Scans to average: 100
Electric dark correction enabled: true
Nonlinearity correction enabled: false
Boxcar width: 0
XAxis mode: Wavelengths
Number of Pixels in Spectrum: 2048
>>>>>Begin Spectral Data<<<<<
189.047	227.87
189.435	227.87
189.823	227.87
190.211	-123
190.599	278.82
190.987	113.6
191.375	142.89
191.763	-128.83
192.151	-31.47
192.538	-95.74
192.926	322.66
193.314	931.96
193.702	-1400
194.089	-149.36
194.477	308.74
194.864	142.53
195.252	326.85
195.639	101.11
196.027	79.07
196.414	80.82
196.801	337.33
197.189	-132.75
197.576	478.26
197.963	-20.85
198.351	16.31
198.738	-1.73
199.125	11.01
199.512	16.58
199.899	9.45
200.286	23.2
200.673	-41.62
201.06	2.57
201.447	9.83
201.833	9.3
202.22	-2.86
202.607	-10.26
202.994	62.23
203.38	23.76
203.767	3.73
204.154	-11.44
204.54	2.89
204.927	4.67
205.313	-23.74
205.699	5.02
206.086	-11.95
206.472	44.71
206.858	27.73
207.245	-3.73
207.631	-30.81
208.017	19.77
208.403	27.29
208.789	25.14
209.175	7.44
209.561	16.7
209.947	-0.2
210.333	3.38
210.719	14.41
211.105	28.43
211.491	1.62
211.876	14.24
212.262	14.39
212.648	21.56
213.034	-12.09
213.419	14.08
213.805	-7.02
214.19	8.26
214.576	4.46
214.961	15.4
215.346	-5.09
215.732	6.59
216.117	16.04
216.502	15.13
216.888	6.95
217.273	-26.55
217.658	1.3
218.043	1.83
218.428	6.09
218.813	23.16
219.198	19.04
219.583	25.65
219.968	25.47
220.353	-16.12
220.738	10.27
221.122	13.07
221.507	-31.43
221.892	12.21
222.276	14.44
222.661	19.78
223.046	1.37
223.43	2.91
223.815	9.86
224.199	13.96
224.583	4.74
224.968	-3.1
225.352	6.67
225.736	4.12
226.121	14.55
226.505	3.18
226.889	4.7
227.273	6.54
227.657	2.77
228.041	5.79
228.425	5.35
228.809	3.88
229.193	2.48
229.577	2.46
229.961	2.13
230.344	2.68
230.728	2.54
231.112	2.37
231.495	4.02
231.879	3.17
232.263	3.76
232.646	2.49
233.03	2.51
233.413	3.31
233.797	4.25
234.18	1.57
234.563	1.68
234.946	0.9
235.33	2.23
235.713	2.23
236.096	3.5
236.479	3.54
236.862	3.15
237.245	2.13
237.628	3.85
238.011	4.91
238.394	2.08
238.777	1.74
239.16	3.09
239.543	3.24
239.925	3.23
240.308	1.77
240.691	3.7
241.073	2.87
241.456	3.08
241.838	3.41
242.221	3.86
242.603	3.01
242.986	3.31
243.368	2.6
243.75	2.99
244.133	2.23
244.515	2.56
244.897	2.81
245.279	3.43
245.661	3.05
246.043	2.39
246.425	3.79
246.807	3.66
247.189	3.4
247.571	3.03
247.953	2.87
248.335	2.9
248.717	2.97
249.098	2.95
249.48	2.83
249.862	2.79
250.243	2.94
250.625	3.05
251.006	3.07
251.388	2.73
251.769	3.75
252.151	2.74
252.532	4.29
252.913	2.69
253.295	3.59
253.676	2.7
254.057	2.75
254.438	3.05
254.819	3.22
255.2	3.28
255.581	2.26
255.962	2.96
256.343	3.09
256.724	3.6
257.105	3.43
257.486	2.32
257.867	2.68
258.247	4
258.628	2.89
259.009	3.28
259.389	2.83
259.77	3.45
260.15	2.5
260.531	3.15
260.911	2.96
261.292	2.69
261.672	2.81
262.052	2.7
262.432	2.73
262.813	3.03
263.193	2.53
263.573	3.01
263.953	2.98
264.333	2.78
264.713	2.41
265.093	2.66
265.473	3
265.853	2.33
266.233	2.72
266.612	3.33
266.992	2.83
267.372	2.44
267.752	2.76
268.131	2.36
268.511	2.94
268.89	2.46
269.27	2.74
269.649	2.99
270.029	2.63
270.408	2.56
270.787	2.87
271.167	3.06
271.546	3.34
271.925	2.7
272.304	3
272.683	2.22
273.062	2.76
273.441	2.79
273.82	2.72
274.199	2.43
274.578	2.39
274.957	2.71
275.336	2.72
275.715	2.66
276.093	3.27
276.472	2.41
276.851	3.03
277.229	2.06
277.608	2.84
277.986	2.47
278.365	2.41
278.743	2.5
279.122	2.38
279.5	2.62
279.878	3.09
280.257	2.83
280.635	3.04
281.013	2.77
281.391	3.3
281.769	3.41
282.147	2.34
282.525	2.46
282.903	2.95
283.281	2.5
283.659	2.83
284.037	3.26
284.415	3.46
284.792	2.6
285.17	2.18
285.548	2.23
285.925	2.98
286.303	2.35
286.68	2.56
287.058	2.71
287.435	2.63
287.813	2.52
288.19	3.08
288.567	2.95
288.945	2.52
289.322	2.78
289.699	2.95
290.076	3
290.453	2.94
290.83	2.98
291.207	2.78
291.584	2.96
291.961	2.57
292.338	2.29
292.715	2.81
293.092	3.01
293.469	2.92
293.845	3.35
294.222	2.98
294.599	2.62
294.975	2.64
295.352	3.4
295.728	3.05
296.105	3.53
296.481	3.08
296.858	3.09
297.234	2.93
297.61	3.59
297.986	3.08
298.363	3.19
298.739	2.96
299.115	2.97
299.491	3.01
299.867	2.94
300.243	2.88
300.619	3.07
300.995	2.92
301.371	2.82
301.746	3.16
302.122	3.43
302.498	3.05
302.874	3.1
303.249	3.4
303.625	2.93
304	3.56
304.376	3.51
304.751	3.26
305.127	2.8
305.502	3.52
305.878	3.14
306.253	3.4
306.628	3.74
307.003	3.4
307.378	3.9
307.754	3.76
308.129	3.29
308.504	3.28
308.879	3.41
309.254	3.76
309.629	3.32
310.003	2.9
310.378	3.4
310.753	3.36
311.128	3.64
311.502	3.67
311.877	3.45
312.252	3.48
312.626	3.6
313.001	3.34
313.375	3.27
313.75	3.21
314.124	3.63
314.498	3.21
314.873	3.78
315.247	3.32
315.621	3.71
315.995	3.53
316.369	3.32
316.743	3.16
317.117	3.74
317.491	4.03
317.865	3.9
318.239	3.66
318.613	3.7
318.987	3.76
319.361	3.42
319.734	3.29
320.108	3.8
320.482	3.86
320.855	3.66
321.229	4.39
321.602	3.83
321.976	3.43
322.349	3.77
322.723	3.95
323.096	3.83
323.469	4.17
323.843	4.52
324.216	4.09
324.589	4.6
324.962	3.81
325.335	3.62
325.708	3.45
326.081	4.02
326.454	3.63
326.827	3.82
327.2	4.24
327.573	4.51
327.945	3.69
328.318	3.56
328.691	4.11
329.063	4.17
329.436	3.94
329.809	3.96
330.181	4.21
330.553	3.93
330.926	4.33
331.298	3.7
331.671	3.63
332.043	3.6
332.415	4.05
332.787	4.33
333.159	4
333.532	4.06
333.904	4.07
334.276	4.26
334.648	4.12
335.02	4.17
335.391	4.22
335.763	4.46
336.135	3.73
336.507	4.6
336.879	4.22
337.25	4.14
337.622	4.02
337.993	4.46
338.365	4.73
338.736	4.11
339.108	4.02
339.479	4.37
339.851	3.82
340.222	4.39
340.593	3.71
340.964	4.29
341.336	4.07
341.707	3.3
342.078	4.26
342.449	4.07
342.82	4.04
343.191	3.82
343.562	4.28
343.933	4.55
344.303	4.33
344.674	4.53
345.045	4.3
345.416	4.21
345.786	4.64
346.157	4.32
346.527	3.8
346.898	4.33
347.268	3.88
347.639	3.86
348.009	4.58
348.38	4.15
348.75	4.51
349.12	4.51
349.49	4.11
349.861	3.89
350.231	4.27
350.601	4.24
350.971	4.37
351.341	4.21
351.711	4.28
352.081	4.54
352.45	4.03
352.82	4.39
353.19	4.68
353.56	4.08
353.929	4.45
354.299	4.55
354.669	4.3
355.038	3.76
355.408	4.45
355.777	4.05
356.147	4.04
356.516	4.54
356.885	4.28
357.254	4.19
357.624	4.28
357.993	4.17
358.362	4.08
358.731	4.31
359.1	4.45
359.469	4.22
359.838	4.29
360.207	4.37
360.576	4.02
360.945	4.48
361.314	4.35
361.682	3.89
362.051	4.31
362.42	4.24
362.788	4.08
363.157	3.99
363.525	4.23
363.894	4.35
364.262	4.44
364.631	4.19
364.999	4.75
365.367	4.28
365.735	4.55
366.104	4.11
366.472	4.35
366.84	4.26
367.208	4.14
367.576	4.58
367.944	4.32
368.312	4.4
368.68	4.5
369.048	4.36
369.416	4.53
369.783	4.24
370.151	4.47
370.519	4.17
370.886	4.02
371.254	4.56
371.621	4.56
371.989	4.4
372.356	4.55
372.724	4.81
373.091	4.45
373.458	4.64
373.826	4.22
374.193	4.54
374.56	4.62
374.927	4.63
375.294	4.27
375.661	4.54
376.028	4.82
376.395	4.54
376.762	4.45
377.129	4.56
377.496	4.38
377.863	4.89
378.229	4.68
378.596	4.62
378.963	4.47
379.329	4.59
379.696	4.3
380.062	4.39
380.429	4.43
380.795	4.69
381.161	4.28
381.528	4.86
381.894	4.85
382.26	4.54
382.626	4.73
382.993	4.68
383.359	4.46
383.725	4.69
384.091	4.59
384.457	4.86
384.823	4.43
385.188	4.66
385.554	4.76
385.92	4.91
386.286	4.61
386.651	4.31
387.017	4.66
387.383	4.51
387.748	4.35
388.114	4.76
388.479	4.67
388.845	4.81
389.21	4.64
389.575	4.45
389.94	4.73
390.306	4.38
390.671	5
391.036	4.72
391.401	4.37
391.766	4.62
392.131	4.54
392.496	4.51
392.861	4.43
393.226	4.81
393.591	4.63
393.956	4.78
394.32	4.61
394.685	4.69
395.05	4.29
395.414	4.68
395.779	4.65
396.143	4.61
396.508	4.53
396.872	4.55
397.236	4.64
397.601	4.63
397.965	4.73
398.329	4.65
398.694	4.91
399.058	4.6
399.422	4.84
399.786	4.84
400.15	4.66
400.514	4.57
400.878	4.85
401.242	4.77
401.605	4.87
401.969	4.87
402.333	4.54
402.697	4.48
403.06	5
403.424	4.8
403.787	5.08
404.151	4.87
404.514	4.77
404.878	4.62
405.241	4.75
405.604	5.03
405.968	4.73
406.331	4.74
406.694	4.66
407.057	4.98
407.42	4.84
407.783	4.73
408.146	4.73
408.509	4.68
408.872	4.88
409.235	4.93
409.598	4.89
409.961	4.79
410.323	4.84
410.686	4.72
411.049	4.74
411.411	4.9
411.774	4.91
412.136	4.83
412.499	4.81
412.861	4.71
413.223	4.76
413.586	4.96
413.948	4.94
414.31	4.66
414.672	4.86
415.035	4.98
415.397	5.03
415.759	4.72
416.121	4.63
416.483	4.97
416.845	4.84
417.206	4.74
417.568	5.04
417.93	4.77
418.292	4.79
418.653	4.99
419.015	4.73
419.377	4.99
419.738	4.84
420.1	4.88
420.461	4.91
420.822	4.81
421.184	4.73
421.545	4.79
421.906	4.93
422.267	4.84
422.629	4.8
422.99	4.78
423.351	4.77
423.712	4.84
424.073	4.83
424.434	4.91
424.795	4.7
425.155	4.89
425.516	4.87
425.877	4.86
426.238	4.88
426.598	4.78
426.959	4.89
427.32	4.99
427.68	4.95
428.041	5.03
428.401	5.06
428.761	5.06
429.122	5.04
429.482	5.07
429.842	4.96
430.202	5.15
430.563	5.1
430.923	5.08
431.283	5.05
431.643	5.1
432.003	5.07
432.363	5.23
432.722	5.14
433.082	4.81
433.442	5.06
433.802	5.21
434.161	5.03
434.521	5.11
434.881	5.03
435.24	5.04
435.6	5
435.959	5.09
436.319	5.04
436.678	5.16
437.037	5.06
437.396	4.98
437.756	4.94
438.115	5.16
438.474	5.2
438.833	5.16
439.192	5.16
439.551	5.13
439.91	5.14
440.269	5.02
440.628	5.13
440.987	5.11
441.345	5.01
441.704	5.07
442.063	5.17
442.421	5.15
442.78	5.08
443.138	4.99
443.497	5.22
443.855	5.17
444.214	5.13
444.572	5.21
444.93	5.18
445.288	5.05
445.647	5.29
446.005	5.17
446.363	5.11
446.721	5.09
447.079	5.32
447.437	5.13
447.795	5.17
448.153	5.16
448.51	5.2
448.868	5.12
449.226	5.12
449.584	5.21
449.941	5.28
450.299	5.34
450.656	5.2
451.014	5.32
451.371	5.23
451.729	5.35
452.086	5.28
452.443	5.47
452.801	5.37
453.158	5.33
453.515	5.4
453.872	5.18
454.229	5.29
454.586	5.32
454.943	5.34
455.3	5.3
455.657	5.51
456.014	5.56
456.371	5.37
456.727	5.37
457.084	5.33
457.441	5.49
457.797	5.41
458.154	5.46
458.51	5.61
458.867	5.46
459.223	5.47
459.58	5.54
459.936	5.55
460.292	5.3
460.648	5.48
461.005	5.38
461.361	5.26
461.717	5.23
462.073	5.26
462.429	5.46
462.785	5.45
463.141	5.52
463.496	5.58
463.852	5.67
464.208	5.6
464.564	5.48
464.919	5.52
465.275	5.56
465.631	5.72
465.986	5.64
466.342	5.57
466.697	5.63
467.052	5.54
467.408	5.49
467.763	5.66
468.118	5.33
468.473	5.54
468.829	5.49
469.184	5.67
469.539	5.67
469.894	5.57
470.249	5.6
470.603	5.65
470.958	5.56
471.313	5.69
471.668	5.71
472.023	5.83
472.377	5.78
472.732	5.63
473.086	5.85
473.441	5.64
473.795	5.5
474.15	5.61
474.504	5.86
474.859	5.75
475.213	5.78
475.567	5.84
475.921	5.91
476.275	5.84
476.63	5.68
476.984	5.58
477.338	5.87
477.692	5.87
478.045	5.78
478.399	5.76
478.753	5.78
479.107	5.84
479.461	5.75
479.814	5.7
480.168	5.69
480.521	5.78
480.875	5.83
481.228	5.62
481.582	5.8
481.935	5.82
482.289	5.91
482.642	5.87
482.995	5.78
483.348	5.88
483.701	5.63
484.055	5.72
484.408	5.72
484.761	5.56
485.114	5.47
485.466	5.41
485.819	5.37
486.172	5.51
486.525	5.59
486.878	5.68
487.23	5.79
487.583	5.76
487.936	5.83
488.288	5.76
488.641	5.67
488.993	5.6
489.345	5.63
489.698	5.63
490.05	5.65
490.402	5.72
490.754	5.84
491.107	5.91
491.459	5.95
491.811	5.97
492.163	6.02
492.515	5.94
492.866	5.79
493.218	5.76
493.57	5.71
493.922	5.76
494.274	5.93
494.625	6.03
494.977	6.06
495.328	6.12
495.68	6.19
496.031	6.13
496.383	6.13
496.734	6.21
497.086	6.19
497.437	6.17
497.788	6.12
498.139	6.23
498.49	6.15
498.842	6.1
499.193	6.13
499.544	6.2
499.894	6.21
500.245	6.17
500.596	6.25
500.947	6.13
501.298	6.27
501.648	6.29
501.999	6.29
502.35	6.26
502.7	6.35
503.051	6.29
503.401	6.34
503.752	6.34
504.102	6.27
504.452	6.3
504.803	6.51
505.153	6.34
505.503	6.3
505.853	6.45
506.203	6.39
506.553	6.56
506.903	6.43
507.253	6.6
507.603	6.57
507.953	6.46
508.303	6.5
508.652	6.47
509.002	6.48
509.352	6.61
509.701	6.56
510.051	6.45
510.4	6.5
510.75	6.49
511.099	6.47
511.449	6.45
511.798	6.6
512.147	6.54
512.496	6.48
512.846	6.6
513.195	6.66
513.544	6.57
513.893	6.64
514.242	6.61
514.591	6.7
514.939	6.7
515.288	6.77
515.637	6.72
515.986	6.72
516.334	6.83
516.683	6.72
517.032	6.71
517.38	6.76
517.729	6.81
518.077	6.77
518.426	6.82
518.774	6.76
519.122	6.81
519.47	6.78
519.819	6.73
520.167	6.6
520.515	6.74
520.863	6.79
521.211	6.88
521.559	6.82
521.907	7.01
522.255	6.85
522.602	6.93
522.95	7.04
523.298	6.98
523.645	7.11
523.993	7.04
524.341	6.99
524.688	7.03
525.036	7.05
525.383	7.06
525.73	7.1
526.078	7.16
526.425	7.01
526.772	7.02
527.119	7
527.466	6.96
527.814	7
528.161	7.04
528.508	7.01
528.854	7.09
529.201	7.17
529.548	7.05
529.895	6.94
530.242	6.82
530.588	6.82
530.935	6.93
531.282	7.02
531.628	7.16
531.975	7.25
532.321	7.25
532.667	7.25
533.014	7.38
533.36	7.35
533.706	7.24
534.052	7.28
534.399	7.34
534.745	7.18
535.091	7.12
535.437	7.2
535.783	7.29
536.129	7.46
536.474	7.46
536.82	7.49
537.166	7.63
537.512	7.53
537.857	7.55
538.203	7.44
538.549	7.41
538.894	7.55
539.239	7.63
539.585	7.59
539.93	7.75
540.276	7.72
540.621	7.76
540.966	7.73
541.311	7.77
541.656	7.69
542.001	7.62
542.346	7.77
542.691	7.57
543.036	7.48
543.381	7.52
543.726	7.57
544.071	7.75
544.415	7.77
544.76	7.87
545.105	7.83
545.449	7.9
545.794	7.91
546.138	8.09
546.483	8.03
546.827	8.02
547.171	8.1
547.516	8
547.86	8.1
548.204	8.03
548.548	8.12
548.892	8.02
549.236	8.22
549.58	8.15
549.924	8.34
550.268	8.4
550.612	8.36
550.956	8.45
551.3	8.47
551.643	8.56
551.987	8.39
552.33	8.6
552.674	8.67
553.017	8.67
553.361	8.59
553.704	8.64
554.048	8.74
554.391	8.56
554.734	8.68
555.077	8.73
555.42	8.67
555.764	8.84
556.107	8.75
556.45	8.85
556.793	8.93
557.135	8.9
557.478	8.96
557.821	8.96
558.164	9.05
558.507	8.86
558.849	9.1
559.192	9.05
559.534	8.99
559.877	9.1
560.219	9.12
560.562	9.01
560.904	9.15
561.246	9.31
561.589	9.22
561.931	9.13
562.273	9.36
562.615	9.29
562.957	9.32
563.299	9.33
563.641	9.36
563.983	9.13
564.325	9.46
564.667	9.39
565.008	9.35
565.35	9.45
565.692	9.44
566.033	9.24
566.375	9.74
566.716	9.66
567.058	9.7
567.399	9.52
567.741	9.54
568.082	9.51
568.423	9.52
568.764	9.73
569.105	9.61
569.447	9.88
569.788	9.78
570.129	9.62
570.47	10.13
570.811	9.89
571.151	10.03
571.492	9.9
571.833	9.9
572.174	9.93
572.514	10.16
572.855	9.97
573.195	10.06
573.536	9.87
573.876	10.24
574.217	10.1
574.557	10.17
574.898	10.18
575.238	10.19
575.578	10.19
575.918	10.26
576.258	10.4
576.598	10.26
576.938	10.45
577.278	10.57
577.618	10.33
577.958	10.65
578.298	10.58
578.638	10.54
578.977	10.55
579.317	10.67
579.657	10.71
579.996	10.79
580.336	10.64
580.675	10.79
581.014	10.93
581.354	11.05
581.693	11.02
582.032	10.83
582.372	10.64
582.711	11.05
583.05	10.66
583.389	10.94
583.728	10.9
584.067	11.18
584.406	11.29
584.745	11.09
585.083	11.37
585.422	11.25
585.761	11.31
586.1	11.42
586.438	11.6
586.777	11.35
587.115	11.44
587.454	11.67
587.792	11.44
588.13	11.42
588.469	11.37
588.807	11.62
589.145	11.58
589.483	11.5
589.821	11.54
590.159	11.48
590.497	11.73
590.835	11.69
591.173	11.53
591.511	11.7
591.849	11.88
592.187	11.72
592.524	12.02
592.862	12.08
593.2	12.01
593.537	11.85
593.875	12.14
594.212	12.13
594.55	12.12
594.887	12.19
595.224	12.13
595.561	12.29
595.899	12.21
596.236	12.3
596.573	12.13
596.91	12.6
597.247	12.57
597.584	12.26
597.921	12.39
598.258	12.47
598.594	12.26
598.931	12.51
599.268	12.29
599.604	12.71
599.941	12.66
600.277	12.47
600.614	12.38
600.95	12.88
601.287	12.94
601.623	13.09
601.959	12.71
602.296	12.93
602.632	12.77
602.968	12.77
603.304	12.89
603.64	12.78
603.976	12.78
604.312	13.35
604.648	13.05
604.984	13.1
605.319	13.05
605.655	13.15
605.991	13.06
606.326	13.09
606.662	13.14
606.998	13.29
607.333	13.35
607.668	13.27
608.004	13.49
608.339	13.76
608.674	13.55
609.01	13.62
609.345	13.7
609.68	13.5
610.015	13.39
610.35	13.76
610.685	13.74
611.02	13.56
611.355	13.72
611.689	13.64
612.024	13.87
612.359	13.71
612.694	13.71
613.028	13.78
613.363	13.93
613.697	13.9
614.032	14.03
614.366	14.2
614.7	14.07
615.035	14.18
615.369	14.44
615.703	14.37
616.037	14.22
616.371	14.38
616.705	14.11
617.039	14.8
617.373	14.48
617.707	14.53
618.041	15
618.375	14.75
618.709	14.85
619.042	14.37
619.376	14.73
619.71	14.73
620.043	14.62
620.377	14.78
620.71	14.87
621.043	14.83
621.377	14.94
621.71	15.01
622.043	14.99
622.376	14.81
622.709	15.03
623.043	14.8
623.376	15.44
623.709	15.24
624.041	15.12
624.374	15.48
624.707	15.44
625.04	15.42
625.373	15.15
625.705	15.5
626.038	15.3
626.37	15.27
626.703	15.33
627.035	15.68
627.368	15.42
627.7	15.49
628.032	15.26
628.365	15.91
628.697	15.49
629.029	15.47
629.361	15.53
629.693	15.68
630.025	15.8
630.357	15.8
630.689	15.74
631.021	16.09
631.353	15.8
631.684	15.68
632.016	16.03
632.348	16.31
632.679	16.03
633.011	16.47
633.342	15.89
633.674	15.91
634.005	16.4
634.336	16.09
634.668	16.32
634.999	16.18
635.33	16.21
635.661	16.29
635.992	16.33
636.323	16.6
636.654	16.41
636.985	16.7
637.316	16.59
637.647	16.28
637.977	16.64
638.308	16.83
638.639	16.89
638.969	17.09
639.3	16.65
639.63	16.97
639.961	17.09
640.291	17.24
640.622	17.03
640.952	16.9
641.282	16.98
641.612	16.88
641.943	17.44
642.273	17.14
642.603	17.26
642.933	17.04
643.263	17.42
643.592	17.02
643.922	17.21
644.252	17.74
644.582	18.05
644.911	18.1
645.241	17.3
645.571	17.47
645.9	17.68
646.23	17.58
646.559	17.69
646.888	17.55
647.218	17.5
647.547	17.6
647.876	17.41
648.205	17.94
648.534	17.95
648.863	17.66
649.192	18.06
649.521	17.75
649.85	17.48
650.179	17.85
650.508	18.06
650.837	17.86
651.165	18.11
651.494	17.9
651.822	17.91
652.151	18.15
652.479	18.33
652.808	18.25
653.136	18.34
653.465	18.47
653.793	18.69
654.121	18.56
654.449	18.63
654.777	18.57
655.105	18.62
655.433	18.54
655.761	17.93
656.089	18.31
656.417	18.46
656.745	18.68
657.073	18.83
657.4	19.46
657.728	18.52
658.056	18.63
658.383	19.07
658.711	19.31
659.038	19.15
659.365	18.74
659.693	19.17
660.02	19.37
660.347	19.03
660.674	18.73
661.001	18.88
661.329	18.97
661.656	19.46
661.982	19.08
662.309	18.87
662.636	19.24
662.963	19.44
663.29	19.29
663.616	18.58
663.943	20
664.27	18.99
664.596	19.44
664.923	19.44
665.249	19.62
665.576	19.4
665.902	19.76
666.228	19.55
666.554	18.97
666.881	19.7
667.207	19.62
667.533	19.86
667.859	20
668.185	20.02
668.511	19.88
668.837	20.07
669.162	20.55
669.488	19.52
669.814	19.99
670.139	20.2
670.465	20.42
670.791	20.27
671.116	19.46
671.442	20.1
671.767	20.75
672.092	20.24
672.418	20.81
672.743	21.12
673.068	20.82
673.393	20.21
673.718	20.8
674.043	20.52
674.368	19.98
674.693	21.38
675.018	20.34
675.343	20.26
675.667	20.78
675.992	20.31
676.317	21.08
676.641	21.59
676.966	20.35
677.29	21.11
677.615	20.77
677.939	20.37
678.264	20.83
678.588	21.42
678.912	20.99
679.236	20.75
679.56	21.28
679.885	20.79
680.209	21.14
680.532	20.79
680.856	21.24
681.18	21.08
681.504	20.79
681.828	20.57
682.152	21.18
682.475	21.39
682.799	21.26
683.122	21.44
683.446	21.31
683.769	20.54
684.093	21.03
684.416	21.73
684.739	21.66
685.062	21.19
