Data from 1710-1_forehead_Reflection__1__26.txt Node

Date: Fri Oct 07 15:17:08 CDT 2022
User: ToomeyLab
Spectrometer: FLMS14357
Trigger mode: 0
Integration Time (sec): 1.000000E-2
Scans to average: 100
Electric dark correction enabled: true
Nonlinearity correction enabled: false
Boxcar width: 0
XAxis mode: Wavelengths
Number of Pixels in Spectrum: 2048
>>>>>Begin Spectral Data<<<<<
189.047	201.17
189.435	201.17
189.823	201.17
190.211	105.2
190.599	757.14
190.987	109.69
191.375	90.3
191.763	105.14
192.151	-6.71
192.538	107.31
192.926	-572.23
193.314	1036.66
193.702	-1435.69
194.089	-62.06
194.477	-999.68
194.864	161.12
195.252	859.28
195.639	-37.29
196.027	135.31
196.414	113.23
196.801	64.84
197.189	-58.86
197.576	276.81
197.963	15.11
198.351	38.13
198.738	17.46
199.125	71.14
199.512	51.78
199.899	56.27
200.286	44.35
200.673	46.39
201.06	46.11
201.447	23.07
201.833	51.91
202.22	43.44
202.607	54.78
202.994	46.8
203.38	24.7
203.767	34.44
204.154	26.86
204.54	49.67
204.927	75.35
205.313	35.29
205.699	27.89
206.086	-5.92
206.472	79.47
206.858	53.7
207.245	27.4
207.631	40.58
208.017	29.6
208.403	45.04
208.789	55.93
209.175	49.33
209.561	46.84
209.947	48.52
210.333	46.67
210.719	28.69
211.105	38.46
211.491	11.11
211.876	12.98
212.262	20.37
212.648	40.56
213.034	23.65
213.419	10.97
213.805	22.28
214.19	40.25
214.576	42.21
214.961	26.05
215.346	22.96
215.732	21.96
216.117	40.25
216.502	24.06
216.888	-10.81
217.273	13.6
217.658	25.54
218.043	19.06
218.428	30.52
218.813	20.12
219.198	39.21
219.583	16.47
219.968	21.67
220.353	16.83
220.738	20.9
221.122	30.97
221.507	-11.02
221.892	13.85
222.276	19.15
222.661	22.33
223.046	12.33
223.43	23.92
223.815	11.69
224.199	21.35
224.583	14.82
224.968	13.05
225.352	14.22
225.736	10.68
226.121	21.87
226.505	10.75
226.889	11.34
227.273	16.39
227.657	7.69
228.041	9.57
228.425	8.86
228.809	8.51
229.193	6.82
229.577	2.66
229.961	3.6
230.344	4.2
230.728	4.8
231.112	4.46
231.495	4.53
231.879	5.59
232.263	4.5
232.646	6.43
233.03	4.91
233.413	3.71
233.797	6.5
234.18	4.73
234.563	4.86
234.946	3.78
235.33	3.99
235.713	4.48
236.096	4.15
236.479	5.06
236.862	5
237.245	5.4
237.628	5.2
238.011	6.14
238.394	4.23
238.777	5.95
239.16	5.7
239.543	5.09
239.925	7.47
240.308	5.58
240.691	5.46
241.073	3.62
241.456	6.69
241.838	6.57
242.221	5.76
242.603	5.52
242.986	4.55
243.368	4.32
243.75	4.64
244.133	4.22
244.515	4.26
244.897	4.38
245.279	4.92
245.661	4.93
246.043	4.22
246.425	6.73
246.807	6
247.189	5.32
247.571	5.04
247.953	4.64
248.335	3.92
248.717	4.24
249.098	3.99
249.48	4.26
249.862	4.42
250.243	4.5
250.625	4.3
251.006	4.56
251.388	5.02
251.769	4.94
252.151	4.74
252.532	5.4
252.913	4.5
253.295	5.45
253.676	4.34
254.057	4.74
254.438	5.14
254.819	4.39
255.2	4.59
255.581	5.01
255.962	5.25
256.343	5.37
256.724	5.66
257.105	4.8
257.486	4.82
257.867	4.85
258.247	5.63
258.628	5.02
259.009	4.96
259.389	5.32
259.77	4.31
260.15	4.95
260.531	4.88
260.911	4.48
261.292	4.36
261.672	4.43
262.052	4.43
262.432	4.32
262.813	4.78
263.193	4.01
263.573	5.01
263.953	4.88
264.333	4.87
264.713	4.01
265.093	4.51
265.473	4.9
265.853	4.3
266.233	4.42
266.612	5.46
266.992	5.58
267.372	4.54
267.752	4.03
268.131	4.57
268.511	4.56
268.89	4.15
269.27	4.35
269.649	4.93
270.029	4.62
270.408	4.64
270.787	5.05
271.167	5.2
271.546	5.12
271.925	3.87
272.304	4.51
272.683	4.32
273.062	4.68
273.441	4.66
273.82	4.64
274.199	4.23
274.578	4.52
274.957	4.53
275.336	4.43
275.715	4.43
276.093	4.62
276.472	4.4
276.851	4.18
277.229	4.6
277.608	5.35
277.986	4.59
278.365	4.8
278.743	4.99
279.122	4.39
279.5	4.82
279.878	5.14
280.257	4.65
280.635	4.86
281.013	4.37
281.391	4.69
281.769	5.04
282.147	4.58
282.525	4.29
282.903	4.55
283.281	4.64
283.659	5.16
284.037	4.44
284.415	5.09
284.792	4.92
285.17	4.36
285.548	4.73
285.925	4.61
286.303	4.33
286.68	4.15
287.058	4.12
287.435	4.55
287.813	4.65
288.19	4.77
288.567	5.03
288.945	4.38
289.322	4.86
289.699	4.73
290.076	4.7
290.453	4.91
290.83	5.18
291.207	5.04
291.584	5.27
291.961	4.85
292.338	4.88
292.715	5.41
293.092	5.25
293.469	5.43
293.845	6.04
294.222	5.66
294.599	5.39
294.975	5.54
295.352	5.88
295.728	6.3
296.105	5.67
296.481	5.52
296.858	5.99
297.234	5.62
297.61	6.21
297.986	5.77
298.363	6.24
298.739	5.97
299.115	5.59
299.491	5.96
299.867	5.8
300.243	6.23
300.619	6.35
300.995	6.47
301.371	6.3
301.746	6.3
302.122	6.54
302.498	6.42
302.874	6.76
303.249	6.53
303.625	6.52
304	7.02
304.376	6.66
304.751	6.55
305.127	7.33
305.502	7.13
305.878	7.24
306.253	7.53
306.628	7.85
307.003	7.43
307.378	8.22
307.754	7.88
308.129	7.78
308.504	7.61
308.879	7.46
309.254	7.91
309.629	7.96
310.003	8.06
310.378	8.28
310.753	8.22
311.128	7.88
311.502	8.5
311.877	8.31
312.252	8.55
312.626	8.76
313.001	8.61
313.375	8.85
313.75	9.11
314.124	8.87
314.498	8.82
314.873	9.04
315.247	9.4
315.621	9.22
315.995	9.79
316.369	9.14
316.743	9.31
317.117	10.12
317.491	10.24
317.865	9.73
318.239	10.09
318.613	10.67
318.987	10.66
319.361	10.31
319.734	9.95
320.108	10.31
320.482	11.1
320.855	10.76
321.229	10.99
321.602	10.42
321.976	11.06
322.349	11.62
322.723	11.36
323.096	11.36
323.469	11.75
323.843	12.05
324.216	11.56
324.589	11.63
324.962	12.03
325.335	11.36
325.708	11.24
326.081	11.56
326.454	12.19
326.827	12.15
327.2	12.18
327.573	12.48
327.945	12.27
328.318	12.02
328.691	12.31
329.063	12.5
329.436	12.8
329.809	13.42
330.181	13.14
330.553	12.99
330.926	13.42
331.298	12.57
331.671	13.24
332.043	12.61
332.415	13.63
332.787	13.21
333.159	13.42
333.532	13.79
333.904	13.4
334.276	13.63
334.648	14.1
335.02	13.22
335.391	13.79
335.763	13.95
336.135	13.98
336.507	14.41
336.879	14.51
337.25	14.47
337.622	14.76
337.993	14.54
338.365	14.82
338.736	14.39
339.108	14.32
339.479	15.13
339.851	14.82
340.222	15.31
340.593	14.92
340.964	15.1
341.336	15.02
341.707	15.33
342.078	15.23
342.449	15.53
342.82	15.07
343.191	15.17
343.562	15.59
343.933	15.66
344.303	15.61
344.674	15.85
345.045	15.81
345.416	15.78
345.786	16.23
346.157	16.23
346.527	15.87
346.898	16.65
347.268	15.87
347.639	15.95
348.009	16.64
348.38	16.32
348.75	16.65
349.12	16.81
349.49	16.5
349.861	16.84
350.231	16.48
350.601	16.81
350.971	17.13
351.341	16.97
351.711	17.06
352.081	17.29
352.45	17.13
352.82	17.12
353.19	17.76
353.56	17.06
353.929	17.46
354.299	17.86
354.669	17.87
355.038	17.69
355.408	18.07
355.777	17.8
356.147	17.75
356.516	18.22
356.885	18.36
357.254	17.98
357.624	18.08
357.993	18.22
358.362	18
358.731	18.36
359.1	18.32
359.469	18.58
359.838	18.47
360.207	18.9
360.576	18.74
360.945	19.18
361.314	19.4
361.682	18.93
362.051	19.25
362.42	19.05
362.788	19
363.157	19.29
363.525	18.96
363.894	19.17
364.262	19.25
364.631	19.42
364.999	19.6
365.367	19.36
365.735	19.8
366.104	19.74
366.472	19.9
366.84	19.96
367.208	19.9
367.576	20.23
367.944	20.2
368.312	19.9
368.68	20.3
369.048	20.48
369.416	20.76
369.783	20.73
370.151	21.23
370.519	20.76
370.886	21.01
371.254	20.99
371.621	20.75
371.989	21.44
372.356	21.35
372.724	21.47
373.091	21.32
373.458	21.34
373.826	21.28
374.193	21.49
374.56	21.66
374.927	21.71
375.294	21.75
375.661	21.45
376.028	21.97
376.395	22.15
376.762	22.18
377.129	22.07
377.496	22.44
377.863	22.44
378.229	22.58
378.596	22.44
378.963	22.46
379.329	22.55
379.696	22.43
380.062	22.75
380.429	23.04
380.795	22.89
381.161	23.16
381.528	23.14
381.894	23.39
382.26	23.22
382.626	23.02
382.993	23.44
383.359	23.52
383.725	23.78
384.091	24.01
384.457	23.67
384.823	23.72
385.188	24.14
385.554	23.89
385.92	24.06
386.286	24.03
386.651	24
387.017	24.31
387.383	24.5
387.748	24.15
388.114	24.45
388.479	24.39
388.845	24.53
389.21	24.4
389.575	24.48
389.94	24.96
390.306	24.78
390.671	25.34
391.036	25.37
391.401	25.17
391.766	25.1
392.131	25.5
392.496	25.23
392.861	25.33
393.226	25.32
393.591	25.3
393.956	25.33
394.32	25.66
394.685	25.53
395.05	25.59
395.414	25.8
395.779	25.99
396.143	25.96
396.508	25.76
396.872	26.05
397.236	26.3
397.601	26.39
397.965	26.53
398.329	26.43
398.694	26.74
399.058	26.51
399.422	26.86
399.786	26.8
400.15	26.86
400.514	26.7
400.878	26.82
401.242	27.34
401.605	27.12
401.969	27.29
402.333	27.22
402.697	27.41
403.06	27.78
403.424	27.54
403.787	27.63
404.151	27.87
404.514	27.91
404.878	27.88
405.241	27.74
405.604	27.88
405.968	27.89
406.331	28.02
406.694	27.79
407.057	28.2
407.42	28.13
407.783	28.13
408.146	28.47
408.509	28.38
408.872	28.36
409.235	28.79
409.598	28.87
409.961	28.87
410.323	28.87
410.686	28.99
411.049	29.19
411.411	29.2
411.774	28.99
412.136	29.1
412.499	29.33
412.861	29.08
413.223	29.39
413.586	29.55
413.948	29.42
414.31	29.57
414.672	29.67
415.035	29.94
415.397	29.79
415.759	30
416.121	29.9
416.483	29.96
416.845	30.02
417.206	30.02
417.568	30.06
417.93	29.96
418.292	30.17
418.653	30.18
419.015	30.1
419.377	30.01
419.738	30.07
420.1	30.11
420.461	30.25
420.822	30.15
421.184	30.18
421.545	30.23
421.906	30.28
422.267	30.25
422.629	30.08
422.99	30.22
423.351	30.45
423.712	30.48
424.073	30.56
424.434	30.86
424.795	30.78
425.155	30.89
425.516	30.7
425.877	30.7
426.238	30.93
426.598	30.85
426.959	31.03
427.32	31.26
427.68	31.42
428.041	31.61
428.401	31.71
428.761	31.98
429.122	31.93
429.482	32.07
429.842	32.13
430.202	32.4
430.563	32.53
430.923	32.39
431.283	32.25
431.643	32.78
432.003	32.5
432.363	32.66
432.722	32.71
433.082	32.5
433.442	32.6
433.802	32.99
434.161	32.99
434.521	32.93
434.881	32.71
435.24	32.91
435.6	32.97
435.959	33.23
436.319	32.99
436.678	33.34
437.037	33.49
437.396	33.68
437.756	33.58
438.115	33.61
438.474	33.55
438.833	33.7
439.192	33.95
439.551	33.6
439.91	33.7
440.269	33.85
440.628	34.12
440.987	33.89
441.345	33.82
441.704	34.02
442.063	33.93
442.421	33.94
442.78	33.92
443.138	34.15
443.497	34.32
443.855	34.3
444.214	34.48
444.572	34.74
444.93	34.71
445.288	34.78
445.647	35.06
446.005	34.82
446.363	34.8
446.721	34.75
447.079	34.81
447.437	34.85
447.795	34.61
448.153	34.78
448.51	34.73
448.868	34.81
449.226	34.99
449.584	35.06
449.941	35.12
450.299	35.38
450.656	35.61
451.014	35.8
451.371	35.9
451.729	36.08
452.086	35.98
452.443	36.2
452.801	36.15
453.158	36.4
453.515	36.44
453.872	36.46
454.229	36.39
454.586	36.37
454.943	36.46
455.3	36.63
455.657	36.85
456.014	36.86
456.371	36.88
456.727	37.23
457.084	37.1
457.441	37.13
457.797	37.06
458.154	37.06
458.51	37.38
458.867	37.37
459.223	37.37
459.58	37.32
459.936	37.53
460.292	37.35
460.648	37.36
461.005	37.08
461.361	36.97
461.717	37.09
462.073	37.18
462.429	37.45
462.785	37.81
463.141	37.9
463.496	37.88
463.852	38.08
464.208	37.96
464.564	38.35
464.919	38.28
465.275	38.48
465.631	38.6
465.986	38.49
466.342	38.67
466.697	38.7
467.052	38.53
467.408	38.65
467.763	38.94
468.118	38.79
468.473	38.71
468.829	38.73
469.184	39.05
469.539	39.06
469.894	38.89
470.249	39.14
470.603	39.08
470.958	39.35
471.313	39.27
471.668	39.59
472.023	39.59
472.377	39.48
472.732	39.72
473.086	39.98
473.441	39.63
473.795	39.75
474.15	39.72
474.504	40.09
474.859	39.9
475.213	40.07
475.567	40.27
475.921	40.36
476.275	40.27
476.63	40.34
476.984	40.35
477.338	40.62
477.692	40.4
478.045	40.52
478.399	40.44
478.753	40.36
479.107	40.42
479.461	40.32
479.814	40.53
480.168	40.74
480.521	40.71
480.875	40.59
481.228	40.81
481.582	40.58
481.935	40.91
482.289	40.85
482.642	40.97
482.995	40.78
483.348	40.74
483.701	40.71
484.055	40.59
484.408	40.67
484.761	40.3
485.114	39.82
485.466	39.97
485.819	40.13
486.172	40.34
486.525	40.36
486.878	40.46
487.23	40.59
487.583	40.84
487.936	40.84
488.288	40.75
488.641	40.71
488.993	40.55
489.345	40.65
489.698	40.78
490.05	40.88
490.402	40.94
490.754	41.26
491.107	41.35
491.459	41.72
491.811	41.85
492.163	42.03
492.515	41.82
492.866	41.33
493.218	41.32
493.57	41.39
493.922	41.56
494.274	41.74
494.625	41.95
494.977	42.3
495.328	42.47
495.68	42.48
496.031	42.84
496.383	42.91
496.734	42.95
497.086	43.08
497.437	43.03
497.788	43.16
498.139	43.08
498.49	43.02
498.842	43.02
499.193	43.12
499.544	43.11
499.894	43.2
500.245	43.24
500.596	43.25
500.947	43.38
501.298	43.64
501.648	43.72
501.999	44.03
502.35	43.87
502.7	44.24
503.051	44.18
503.401	44.03
503.752	44.17
504.102	44.36
504.452	44.3
504.803	44.25
505.153	44.35
505.503	44.44
505.853	44.57
506.203	44.48
506.553	44.55
506.903	44.45
507.253	44.5
507.603	44.75
507.953	44.59
508.303	44.58
508.652	44.98
509.002	44.85
509.352	44.78
509.701	44.91
510.051	44.68
510.4	44.82
510.75	44.88
511.099	44.8
511.449	44.84
511.798	44.85
512.147	44.79
512.496	45.15
512.846	45.15
513.195	45.2
513.544	45.12
513.893	45.12
514.242	45.36
514.591	45.39
514.939	45.3
515.288	45.66
515.637	45.54
515.986	45.73
516.334	45.97
516.683	46.1
517.032	45.89
517.38	46.07
517.729	45.88
518.077	46.2
518.426	46.04
518.774	46.04
519.122	45.86
519.47	45.84
519.819	45.85
520.167	45.71
520.515	45.77
520.863	45.81
521.211	45.87
521.559	45.84
521.907	46.09
522.255	46.26
522.602	46.32
522.95	46.59
523.298	46.77
523.645	46.84
523.993	47.01
524.341	46.85
524.688	46.78
525.036	47.05
525.383	46.94
525.73	47.2
526.078	46.8
526.425	46.81
526.772	46.87
527.119	46.75
527.466	46.58
527.814	46.73
528.161	46.52
528.508	46.7
528.854	46.88
529.201	46.89
529.548	46.78
529.895	46.24
530.242	46.32
530.588	46.63
530.935	46.66
531.282	46.86
531.628	46.72
531.975	46.92
532.321	46.92
532.667	47.26
533.014	47.43
533.36	47.5
533.706	47.46
534.052	47.57
534.399	47.49
534.745	47.12
535.091	47
535.437	47.23
535.783	47.46
536.129	47.69
536.474	47.84
536.82	48.07
537.166	48.05
537.512	48.28
537.857	48.18
538.203	48.13
538.549	48.13
538.894	48.25
539.239	48.39
539.585	48.42
539.93	48.6
540.276	48.97
540.621	48.93
540.966	49.07
541.311	49.04
541.656	48.98
542.001	48.65
542.346	48.71
542.691	48.21
543.036	48.02
543.381	48.29
543.726	48.34
544.071	48.58
544.415	48.61
544.76	48.52
545.105	48.71
545.449	48.98
545.794	49.22
546.138	49.5
546.483	49.51
546.827	49.29
547.171	49.47
547.516	49.49
547.86	49.42
548.204	49.5
548.548	49.57
548.892	49.47
549.236	49.8
549.58	49.89
549.924	49.82
550.268	50.18
550.612	50.28
550.956	50.51
551.3	50.67
551.643	50.67
551.987	50.51
552.33	50.78
552.674	50.85
553.017	50.92
553.361	50.83
553.704	50.67
554.048	50.78
554.391	50.75
554.734	50.81
555.077	50.68
555.42	50.95
555.764	51.17
556.107	50.83
556.45	51.02
556.793	51.47
557.135	51.02
557.478	51.39
557.821	51.48
558.164	51.51
558.507	51.64
558.849	51.48
559.192	51.68
559.534	51.65
559.877	52.05
560.219	51.7
560.562	51.52
560.904	52.15
561.246	52.09
561.589	52.07
561.931	52.04
562.273	52.07
562.615	52.35
562.957	52.21
563.299	52.07
563.641	52.37
563.983	52.27
564.325	52.21
564.667	52.56
565.008	52.45
565.35	52.42
565.692	52.55
566.033	52.25
566.375	52.65
566.716	52.6
567.058	52.33
567.399	52.44
567.741	52.56
568.082	52.58
568.423	52.58
568.764	52.59
569.105	52.62
569.447	52.87
569.788	52.57
570.129	52.78
570.47	52.92
570.811	53.16
571.151	52.84
571.492	53.37
571.833	53.29
572.174	53.03
572.514	53.26
572.855	53.13
573.195	53.04
573.536	53.2
573.876	53.24
574.217	53.07
574.557	53.53
574.898	53.35
575.238	53.27
575.578	53.38
575.918	53.43
576.258	53.44
576.598	53.57
576.938	53.63
577.278	53.94
577.618	53.58
577.958	54.01
578.298	53.62
578.638	54.03
578.977	53.92
579.317	54.19
579.657	53.92
579.996	54.02
580.336	54.23
580.675	54.39
581.014	54.66
581.354	54.51
581.693	54.88
582.032	55.04
582.372	54.16
582.711	54.64
583.05	54.39
583.389	54.86
583.728	54.34
584.067	54.91
584.406	55.05
584.745	54.88
585.083	54.97
585.422	54.76
585.761	55.13
586.1	55.59
586.438	55.1
586.777	55.24
587.115	55.17
587.454	55.3
587.792	55.08
588.13	55.33
588.469	55.52
588.807	55.4
589.145	55.46
589.483	55.43
589.821	55.04
590.159	54.93
590.497	55.16
590.835	55.74
591.173	55.23
591.511	55.37
591.849	55.67
592.187	55.88
592.524	55.61
592.862	55.88
593.2	55.78
593.537	55.98
593.875	55.91
594.212	55.63
594.55	55.9
594.887	55.9
595.224	56.24
595.561	56.03
595.899	56.2
596.236	56.2
596.573	55.97
596.91	56.02
597.247	56.17
597.584	56.08
597.921	56.2
598.258	56.04
598.594	55.94
598.931	55.77
599.268	56
599.604	56.44
599.941	56.12
600.277	56.24
600.614	56.4
600.95	56.9
601.287	56.6
601.623	56.92
601.959	56.57
602.296	56.92
602.632	57
602.968	57.11
603.304	57.17
603.64	57.21
603.976	56.92
604.312	57.32
604.648	57.05
604.984	56.5
605.319	56.94
605.655	56.72
605.991	56.8
606.326	56.66
606.662	56.93
606.998	56.71
607.333	56.95
607.668	56.96
608.004	57.2
608.339	57.4
608.674	57.28
609.01	57.28
609.345	57.64
609.68	57.76
610.015	57.66
610.35	57.83
610.685	57.68
611.02	57.33
611.355	57.31
611.689	57.45
612.024	57.52
612.359	57.67
612.694	57.66
613.028	57.67
613.363	58.12
613.697	58.01
614.032	58.05
614.366	58.29
614.7	57.95
615.035	58.44
615.369	58.47
615.703	58
616.037	58.34
616.371	58.28
616.705	58.24
617.039	58.24
617.373	58.92
617.707	58.34
618.041	59.01
618.375	58.57
618.709	58.81
619.042	58.76
619.376	58.85
619.71	58.77
620.043	59.03
620.377	58.27
620.71	58.82
621.043	58.94
621.377	59.03
621.71	59
622.043	58.73
622.376	59.2
622.709	59.27
623.043	58.92
623.376	59.25
623.709	58.7
624.041	59.02
624.374	59.92
624.707	59.11
625.04	59.7
625.373	59.2
625.705	58.83
626.038	59.6
626.37	59.36
626.703	58.85
627.035	59.53
627.368	59.4
627.7	59.67
628.032	59.6
628.365	59.84
628.697	59.83
629.029	59.19
629.361	59.67
629.693	59.45
630.025	59.65
630.357	59.65
630.689	59.8
631.021	59.96
631.353	59.58
631.684	59.34
632.016	59.49
632.348	60.26
632.679	59.71
633.011	59.91
633.342	59.75
633.674	60.17
634.005	60.63
634.336	59.83
634.668	60.14
634.999	60.05
635.33	60.43
635.661	60.15
635.992	59.88
636.323	60.03
636.654	60.41
636.985	60.08
637.316	60.76
637.647	60.61
637.977	60.2
638.308	60.79
638.639	60.76
638.969	60.64
639.3	60.3
639.63	60.47
639.961	60.35
640.291	60.82
640.622	60.7
640.952	61.23
641.282	60.04
641.612	60.9
641.943	60.96
642.273	61.07
642.603	61.22
642.933	61.05
643.263	61.21
643.592	60.91
643.922	61.4
644.252	61.57
644.582	61.44
644.911	61.21
645.241	61.67
645.571	61.21
645.9	61.3
646.23	61.07
646.559	61.73
646.888	61.63
647.218	61.54
647.547	61.05
647.876	61.38
648.205	61.74
648.534	61.98
648.863	61.23
649.192	62.02
649.521	62.09
649.85	61.29
650.179	61.29
650.508	61.85
650.837	62.33
651.165	61.37
651.494	61.93
651.822	61.27
652.151	61.55
652.479	61.6
652.808	62.16
653.136	61.77
653.465	61.76
653.793	61.84
654.121	62.22
654.449	62.37
654.777	62.73
655.105	62.9
655.433	62.38
655.761	61.95
656.089	61.95
656.417	62.27
656.745	62.38
657.073	62.43
657.4	62.58
657.728	62.34
658.056	62.2
658.383	62.01
658.711	62.6
659.038	62.73
659.365	62.79
659.693	62.37
660.02	63.27
660.347	62.2
660.674	62.8
661.001	62.42
661.329	62.03
661.656	62.6
661.982	62.57
662.309	62.13
662.636	62.64
662.963	63.06
663.29	62.48
663.616	62.75
663.943	63.11
664.27	62.4
664.596	63.8
664.923	62.8
665.249	63.9
665.576	63.6
665.902	63.2
666.228	63.41
666.554	62.68
666.881	63.7
667.207	63.19
667.533	62.82
667.859	63.3
668.185	63.65
668.511	64.05
668.837	63.91
669.162	63.82
669.488	63.76
