Data from 1710-1_crown_Reflection__3__23.txt Node

Date: Fri Oct 07 15:14:59 CDT 2022
User: ToomeyLab
Spectrometer: FLMS14357
Trigger mode: 0
Integration Time (sec): 1.000000E-2
Scans to average: 100
Electric dark correction enabled: true
Nonlinearity correction enabled: false
Boxcar width: 0
XAxis mode: Wavelengths
Number of Pixels in Spectrum: 2048
>>>>>Begin Spectral Data<<<<<
189.047	71.11
189.435	71.11
189.823	71.11
190.211	23.88
190.599	-1909.85
190.987	114.4
191.375	-10.82
191.763	64.99
192.151	-14.01
192.538	-21.3
192.926	-903.07
193.314	315.84
193.702	-1330.39
194.089	-82.09
194.477	-76.05
194.864	227.56
195.252	82.7
195.639	-192.1
196.027	93.64
196.414	70.65
196.801	32.28
197.189	44.14
197.576	-1175.36
197.963	34.5
198.351	-8.29
198.738	24.9
199.125	4.71
199.512	4.91
199.899	-51.93
200.286	-0.46
200.673	-50.78
201.06	-2.83
201.447	-8.65
201.833	8.55
202.22	61.18
202.607	34.38
202.994	23.32
203.38	25.64
203.767	19.84
204.154	-18.99
204.54	-2.02
204.927	27.75
205.313	-30.83
205.699	-12.96
206.086	5.06
206.472	-0.27
206.858	33.58
207.245	15.11
207.631	4.75
208.017	-1.58
208.403	34.5
208.789	31.08
209.175	-41.19
209.561	20.91
209.947	7.86
210.333	-3.81
210.719	3.79
211.105	14.04
211.491	-4.51
211.876	-1.64
212.262	12.81
212.648	5.72
213.034	16.45
213.419	0.55
213.805	16.92
214.19	7.46
214.576	-4.09
214.961	7.43
215.346	-1.13
215.732	6.92
216.117	-13.77
216.502	-7.16
216.888	-20.66
217.273	-5.17
217.658	17.1
218.043	-2.69
218.428	30.84
218.813	22.51
219.198	9.27
219.583	19.81
219.968	-12.71
220.353	14.34
220.738	11.99
221.122	2.57
221.507	-1.89
221.892	-5.96
222.276	6.34
222.661	10.36
223.046	15.55
223.43	9.58
223.815	8.83
224.199	9.73
224.583	5.12
224.968	-3.5
225.352	4.45
225.736	6.59
226.121	8.95
226.505	8.4
226.889	7.09
227.273	3.33
227.657	6.11
228.041	8.09
228.425	5.96
228.809	6.7
229.193	8.03
229.577	4.92
229.961	6.74
230.344	6.25
230.728	6.01
231.112	7.05
231.495	8.08
231.879	6.42
232.263	7.31
232.646	6.95
233.03	7.12
233.413	5.49
233.797	8.26
234.18	5.71
234.563	4.45
234.946	7.83
235.33	6.59
235.713	5.88
236.096	6.85
236.479	6.72
236.862	6.27
237.245	7.22
237.628	6.7
238.011	9
238.394	5.66
238.777	6.91
239.16	7.9
239.543	6.34
239.925	8.12
240.308	7.03
240.691	6.03
241.073	7.21
241.456	7.63
241.838	7.63
242.221	7.76
242.603	6.96
242.986	6.71
243.368	6.86
243.75	6.69
244.133	6.55
244.515	6.87
244.897	6.55
245.279	7.08
245.661	6.97
246.043	5.76
246.425	7.29
246.807	6.66
247.189	6.77
247.571	6.38
247.953	6.45
248.335	6.4
248.717	6.41
249.098	6.02
249.48	6.54
249.862	6.22
250.243	6.6
250.625	6.73
251.006	6.41
251.388	6.27
251.769	6.72
252.151	5.94
252.532	6.46
252.913	5.51
253.295	6.69
253.676	6.55
254.057	6.27
254.438	6.57
254.819	6.53
255.2	5.49
255.581	5.51
255.962	5.1
256.343	6.41
256.724	6.22
257.105	6.28
257.486	5.8
257.867	5.38
258.247	6.18
258.628	5.4
259.009	6.07
259.389	6
259.77	6.3
260.15	5.7
260.531	6.65
260.911	5.96
261.292	6.02
261.672	5.92
262.052	5.88
262.432	5.57
262.813	5.72
263.193	5.86
263.573	6.48
263.953	5.6
264.333	5.99
264.713	5.22
265.093	5.99
265.473	6.01
265.853	5.12
266.233	5.78
266.612	5.94
266.992	6.16
267.372	5.65
267.752	5.79
268.131	5.82
268.511	5.64
268.89	5.44
269.27	5.56
269.649	5.99
270.029	4.99
270.408	5.55
270.787	5.54
271.167	5.97
271.546	5.76
271.925	5.41
272.304	5.67
272.683	5.43
273.062	5.75
273.441	5.6
273.82	5.99
274.199	5.17
274.578	5.35
274.957	5.53
275.336	5.56
275.715	5.51
276.093	6
276.472	5.61
276.851	5.21
277.229	4.87
277.608	5.64
277.986	5.47
278.365	5.54
278.743	5.72
279.122	5.22
279.5	5.3
279.878	5.49
280.257	5.3
280.635	5.71
281.013	5.35
281.391	5.99
281.769	5.52
282.147	5.03
282.525	5.19
282.903	4.97
283.281	5.25
283.659	5.83
284.037	5.83
284.415	5.89
284.792	5.79
285.17	5
285.548	5.11
285.925	5.57
286.303	5.19
286.68	4.73
287.058	5.26
287.435	5.1
287.813	5.38
288.19	5.29
288.567	5.03
288.945	5.29
289.322	5.32
289.699	5.19
290.076	5.71
290.453	5.42
290.83	5.39
291.207	5.51
291.584	5.62
291.961	5.16
292.338	5.41
292.715	5.28
293.092	5.09
293.469	5.98
293.845	5.77
294.222	5.47
294.599	5.17
294.975	5.08
295.352	5.41
295.728	5.72
296.105	5.23
296.481	5.43
296.858	5.5
297.234	4.98
297.61	5.45
297.986	5.47
298.363	5.45
298.739	5.41
299.115	5.36
299.491	5.3
299.867	5.06
300.243	5.14
300.619	5.29
300.995	5.02
301.371	4.95
301.746	5.46
302.122	5.59
302.498	5.33
302.874	5.29
303.249	5.28
303.625	5.18
304	5.46
304.376	5.23
304.751	4.89
305.127	5.09
305.502	4.84
305.878	5.41
306.253	5.03
306.628	5.58
307.003	5.65
307.378	5.42
307.754	4.7
308.129	5.48
308.504	5.44
308.879	4.81
309.254	5.03
309.629	4.94
310.003	5.42
310.378	5.33
310.753	5.1
311.128	5.28
311.502	5.3
311.877	4.94
312.252	4.89
312.626	5.47
313.001	4.96
313.375	5
313.75	5.46
314.124	5.09
314.498	4.95
314.873	4.87
315.247	5.01
315.621	4.92
315.995	5.12
316.369	4.96
316.743	5.03
317.117	5.08
317.491	5.58
317.865	5.3
318.239	5.26
318.613	5.13
318.987	5.89
319.361	5.44
319.734	5.11
320.108	4.97
320.482	5.22
320.855	5.14
321.229	5.73
321.602	4.96
321.976	5.44
322.349	5.66
322.723	5.23
323.096	5.47
323.469	5.46
323.843	5.64
324.216	5.19
324.589	5.37
324.962	5.36
325.335	5.2
325.708	4.37
326.081	5.48
326.454	5.66
326.827	4.99
327.2	5.62
327.573	5.59
327.945	5.43
328.318	5.16
328.691	5.86
329.063	4.88
329.436	5.5
329.809	5.41
330.181	5.73
330.553	5.12
330.926	5.6
331.298	4.86
331.671	5.29
332.043	5.41
332.415	4.85
332.787	4.95
333.159	5.66
333.532	5.41
333.904	5.92
334.276	5.44
334.648	5.11
335.02	5.29
335.391	5.34
335.763	5.82
336.135	5.15
336.507	5.72
336.879	5.46
337.25	5.64
337.622	5.72
337.993	5.23
338.365	5.45
338.736	5.1
339.108	5.3
339.479	5.29
339.851	5.26
340.222	5.29
340.593	5.43
340.964	5.48
341.336	5.22
341.707	5.18
342.078	5.59
342.449	5.54
342.82	5.56
343.191	5.2
343.562	5.55
343.933	5.39
344.303	5.36
344.674	5.35
345.045	5.4
345.416	5.5
345.786	6.09
346.157	5.34
346.527	5.17
346.898	5.5
347.268	5.38
347.639	5.16
348.009	5.62
348.38	5.37
348.75	5.7
349.12	5.63
349.49	5.03
349.861	5.52
350.231	5.8
350.601	5.32
350.971	5.59
351.341	5.45
351.711	5.44
352.081	5.48
352.45	5.58
352.82	5.49
353.19	6.39
353.56	5.23
353.929	5.46
354.299	5.73
354.669	5.39
355.038	5.22
355.408	5.65
355.777	5.41
356.147	5.43
356.516	5.23
356.885	5.63
357.254	5.56
357.624	5.64
357.993	5.4
358.362	5.39
358.731	5.41
359.1	5.85
359.469	5.53
359.838	5.3
360.207	5.74
360.576	5.47
360.945	5.67
361.314	5.65
361.682	5.44
362.051	5.7
362.42	5.65
362.788	5.41
363.157	5.39
363.525	5.35
363.894	5.4
364.262	5.38
364.631	5.32
364.999	5.32
365.367	5.57
365.735	5.66
366.104	5.65
366.472	5.89
366.84	5.34
367.208	5.66
367.576	5.57
367.944	5.44
368.312	5.3
368.68	5.68
369.048	5.86
369.416	5.9
369.783	5.19
370.151	5.9
370.519	5.59
370.886	5.26
371.254	5.64
371.621	5.42
371.989	5.49
372.356	5.36
372.724	5.66
373.091	5.52
373.458	5.7
373.826	5.37
374.193	5.92
374.56	5.94
374.927	5.68
375.294	5.71
375.661	5.62
376.028	5.68
376.395	5.71
376.762	5.46
377.129	5.78
377.496	5.72
377.863	5.83
378.229	5.71
378.596	5.73
378.963	5.83
379.329	5.72
379.696	5.55
380.062	5.77
380.429	5.77
380.795	5.69
381.161	5.55
381.528	5.91
381.894	6.04
382.26	5.86
382.626	5.76
382.993	5.95
383.359	5.58
383.725	5.82
384.091	5.73
384.457	6.08
384.823	5.84
385.188	5.69
385.554	5.59
385.92	6.18
386.286	5.66
386.651	5.36
387.017	5.86
387.383	5.76
387.748	5.81
388.114	5.73
388.479	5.86
388.845	5.58
389.21	5.76
389.575	5.68
389.94	5.57
390.306	5.74
390.671	6.24
391.036	5.69
391.401	5.62
391.766	5.91
392.131	5.91
392.496	5.59
392.861	5.84
393.226	5.92
393.591	5.63
393.956	5.9
394.32	5.65
394.685	5.76
395.05	5.5
395.414	5.76
395.779	5.85
396.143	5.83
396.508	5.74
396.872	5.63
397.236	5.75
397.601	5.7
397.965	5.88
398.329	5.8
398.694	5.95
399.058	5.73
399.422	6.04
399.786	5.92
400.15	5.87
400.514	5.68
400.878	6.13
401.242	6.04
401.605	5.98
401.969	5.78
402.333	5.79
402.697	5.88
403.06	6.05
403.424	5.8
403.787	6.03
404.151	6.13
404.514	5.82
404.878	5.83
405.241	5.82
405.604	5.96
405.968	5.63
406.331	5.98
406.694	5.73
407.057	5.87
407.42	5.92
407.783	5.7
408.146	5.82
408.509	5.87
408.872	6.05
409.235	5.93
409.598	5.93
409.961	5.87
410.323	6.16
410.686	6
411.049	5.8
411.411	6.01
411.774	6.04
412.136	5.86
412.499	6.16
412.861	5.95
413.223	5.92
413.586	5.93
413.948	5.95
414.31	5.82
414.672	6.06
415.035	5.86
415.397	6.12
415.759	5.68
416.121	5.64
416.483	5.94
416.845	5.82
417.206	6
417.568	6.04
417.93	5.76
418.292	6.06
418.653	6.18
419.015	5.98
419.377	5.97
419.738	5.93
420.1	6.01
420.461	6.12
420.822	5.94
421.184	5.91
421.545	5.94
421.906	5.97
422.267	5.92
422.629	5.81
422.99	5.72
423.351	5.91
423.712	5.91
424.073	5.95
424.434	6
424.795	5.93
425.155	5.96
425.516	5.91
425.877	5.96
426.238	5.91
426.598	5.85
426.959	5.89
427.32	6.11
427.68	5.93
428.041	5.99
428.401	6.07
428.761	6.13
429.122	6.09
429.482	6.09
429.842	6.11
430.202	6.21
430.563	6.24
430.923	6.07
431.283	6.07
431.643	6.07
432.003	6.11
432.363	6.1
432.722	6.11
433.082	5.96
433.442	5.91
433.802	6.15
434.161	6.14
434.521	6.1
434.881	5.97
435.24	6.04
435.6	5.99
435.959	6.08
436.319	6.05
436.678	6.09
437.037	6.03
437.396	6.08
437.756	6.17
438.115	6.18
438.474	5.97
438.833	6.2
439.192	6.02
439.551	6.08
439.91	6.18
440.269	6.02
440.628	6.09
440.987	6.17
441.345	6.05
441.704	6.05
442.063	6.1
442.421	6.02
442.78	6.09
443.138	6.12
443.497	6.15
443.855	5.99
444.214	6.19
444.572	6.2
444.93	6.16
445.288	5.9
445.647	6.16
446.005	6.13
446.363	6.15
446.721	6.06
447.079	6.19
447.437	6.09
447.795	6.21
448.153	6.04
448.51	6.12
448.868	5.98
449.226	6.13
449.584	6.06
449.941	6.2
450.299	6.19
450.656	6.17
451.014	6.04
451.371	6.06
451.729	6.14
452.086	6.1
452.443	6.3
452.801	6.31
453.158	6.36
453.515	6.22
453.872	6.2
454.229	6.19
454.586	6.13
454.943	6.14
455.3	5.98
455.657	6.36
456.014	6.28
456.371	6.26
456.727	6.34
457.084	6.16
457.441	6.41
457.797	6.29
458.154	6.35
458.51	6.35
458.867	6.11
459.223	6.26
459.58	6.39
459.936	6.31
460.292	6.35
460.648	6.25
461.005	6.16
461.361	6.24
461.717	6.24
462.073	6.15
462.429	6.25
462.785	6.35
463.141	6.36
463.496	6.36
463.852	6.22
464.208	6.36
464.564	6.19
464.919	6.16
465.275	6.29
465.631	6.43
465.986	6.4
466.342	6.42
466.697	6.53
467.052	6.41
467.408	6.24
467.763	6.38
468.118	6.26
468.473	6.36
468.829	6.21
469.184	6.28
469.539	6.32
469.894	6.35
470.249	6.36
470.603	6.32
470.958	6.4
471.313	6.13
471.668	6.34
472.023	6.42
472.377	6.62
472.732	6.4
473.086	6.56
473.441	6.22
473.795	6.37
474.15	6.32
474.504	6.48
474.859	6.42
475.213	6.36
475.567	6.25
475.921	6.25
476.275	6.43
476.63	6.46
476.984	6.27
477.338	6.33
477.692	6.51
478.045	6.37
478.399	6.43
478.753	6.36
479.107	6.46
479.461	6.49
479.814	6.3
480.168	6.4
480.521	6.38
480.875	6.35
481.228	6.36
481.582	6.23
481.935	6.49
482.289	6.38
482.642	6.45
482.995	6.5
483.348	6.46
483.701	6.41
484.055	6.38
484.408	6.37
484.761	6.24
485.114	6.21
485.466	6.08
485.819	6.07
486.172	6.07
486.525	6.11
486.878	6.15
487.23	6.23
487.583	6.29
487.936	6.32
488.288	6.34
488.641	6.3
488.993	6.17
489.345	6.2
489.698	6.18
490.05	6.19
490.402	6.2
490.754	6.29
491.107	6.35
491.459	6.39
491.811	6.4
492.163	6.5
492.515	6.5
492.866	6.38
493.218	6.33
493.57	6.28
493.922	6.25
494.274	6.34
494.625	6.36
494.977	6.36
495.328	6.46
495.68	6.54
496.031	6.51
496.383	6.54
496.734	6.38
497.086	6.59
497.437	6.55
497.788	6.55
498.139	6.58
498.49	6.55
498.842	6.43
499.193	6.44
499.544	6.57
499.894	6.49
500.245	6.54
500.596	6.56
500.947	6.42
501.298	6.49
501.648	6.68
501.999	6.61
502.35	6.45
502.7	6.59
503.051	6.63
503.401	6.48
503.752	6.53
504.102	6.71
504.452	6.63
504.803	6.59
505.153	6.62
505.503	6.63
505.853	6.7
506.203	6.66
506.553	6.86
506.903	6.61
507.253	6.62
507.603	6.68
507.953	6.65
508.303	6.68
508.652	6.63
509.002	6.65
509.352	6.71
509.701	6.76
510.051	6.64
510.4	6.61
510.75	6.6
511.099	6.57
511.449	6.63
511.798	6.7
512.147	6.55
512.496	6.6
512.846	6.66
513.195	6.66
513.544	6.7
513.893	6.66
514.242	6.67
514.591	6.66
514.939	6.71
515.288	6.72
515.637	6.65
515.986	6.53
516.334	6.66
516.683	6.72
517.032	6.6
517.38	6.65
517.729	6.66
518.077	6.63
518.426	6.65
518.774	6.64
519.122	6.7
519.47	6.68
519.819	6.65
520.167	6.56
520.515	6.52
520.863	6.6
521.211	6.6
521.559	6.55
521.907	6.6
522.255	6.64
522.602	6.7
522.95	6.81
523.298	6.76
523.645	6.67
523.993	6.6
524.341	6.75
524.688	6.66
525.036	6.8
525.383	6.7
525.73	6.7
526.078	6.71
526.425	6.71
526.772	6.71
527.119	6.67
527.466	6.7
527.814	6.68
528.161	6.65
528.508	6.59
528.854	6.64
529.201	6.66
529.548	6.61
529.895	6.5
530.242	6.48
530.588	6.5
530.935	6.42
531.282	6.42
531.628	6.41
531.975	6.56
532.321	6.54
532.667	6.66
533.014	6.64
533.36	6.65
533.706	6.66
534.052	6.69
534.399	6.76
534.745	6.63
535.091	6.57
535.437	6.58
535.783	6.58
536.129	6.67
536.474	6.63
536.82	6.58
537.166	6.71
537.512	6.66
537.857	6.71
538.203	6.7
538.549	6.63
538.894	6.74
539.239	6.67
539.585	6.74
539.93	6.78
540.276	6.7
540.621	6.8
540.966	6.74
541.311	6.78
541.656	6.87
542.001	6.72
542.346	6.81
542.691	6.65
543.036	6.65
543.381	6.56
543.726	6.53
544.071	6.62
544.415	6.61
544.76	6.67
545.105	6.68
545.449	6.72
545.794	6.65
546.138	6.77
546.483	6.73
546.827	6.69
547.171	6.85
547.516	6.73
547.86	6.74
548.204	6.69
548.548	6.81
548.892	6.79
549.236	6.83
549.58	6.77
549.924	6.8
550.268	6.8
550.612	6.73
550.956	6.91
551.3	7.07
551.643	6.81
551.987	6.96
552.33	6.96
552.674	7.12
553.017	6.95
553.361	6.77
553.704	6.99
554.048	7.03
554.391	6.84
554.734	6.93
555.077	6.89
555.42	6.99
555.764	6.93
556.107	6.76
556.45	6.95
556.793	6.95
557.135	6.78
557.478	7.06
557.821	6.75
558.164	7.06
558.507	6.95
558.849	6.89
559.192	6.97
559.534	6.85
559.877	7.02
560.219	6.92
560.562	6.74
560.904	6.9
561.246	7.12
561.589	7.02
561.931	6.82
562.273	7.05
562.615	7.04
562.957	7.02
563.299	6.98
563.641	7.01
563.983	6.78
564.325	6.92
564.667	7.02
565.008	6.89
565.35	6.96
565.692	6.7
566.033	6.93
566.375	7.16
566.716	6.88
567.058	6.86
567.399	6.88
567.741	6.98
568.082	6.97
568.423	6.86
568.764	6.92
569.105	6.9
569.447	6.89
569.788	6.83
570.129	6.91
570.47	6.99
570.811	7.15
571.151	6.87
571.492	7.06
571.833	7.09
572.174	7.01
572.514	7.16
572.855	6.89
573.195	7.04
573.536	6.99
573.876	7.05
574.217	7.09
574.557	6.99
574.898	6.89
575.238	6.92
575.578	7
575.918	6.95
576.258	6.83
576.598	7.09
576.938	7.22
577.278	7.07
577.618	6.83
577.958	7.11
578.298	6.95
578.638	6.91
578.977	6.95
579.317	7.05
579.657	7.07
579.996	7.06
580.336	7.01
580.675	7
581.014	7.2
581.354	7.33
581.693	7.22
582.032	7.02
582.372	6.98
582.711	7.2
583.05	6.92
583.389	7.25
583.728	7.05
584.067	7.17
584.406	6.92
584.745	6.97
585.083	7.14
585.422	6.97
585.761	7.19
586.1	7.15
586.438	7.2
586.777	7.22
587.115	7.1
587.454	7.06
587.792	7.09
588.13	7.07
588.469	7.07
588.807	7
589.145	6.82
589.483	7.03
589.821	6.94
590.159	6.92
590.497	7.1
590.835	7.25
591.173	6.93
591.511	7.09
591.849	7.14
592.187	7.04
592.524	7.14
592.862	7.08
593.2	7.17
593.537	7.21
593.875	7.2
594.212	7.18
594.55	6.92
594.887	7.06
595.224	7.25
595.561	7.45
595.899	7.07
596.236	7.31
596.573	6.96
596.91	7.22
597.247	7.14
597.584	7.04
597.921	7.33
598.258	7.31
598.594	6.91
598.931	7.11
599.268	7
599.604	7.21
599.941	7
600.277	7.07
600.614	6.84
600.95	7.18
601.287	7.17
601.623	7.14
601.959	7.14
602.296	7.21
602.632	7.14
602.968	7.06
603.304	7.18
603.64	7.17
603.976	7.02
604.312	7.13
604.648	7.15
604.984	7.27
605.319	7.26
605.655	7.12
605.991	6.97
606.326	7.21
606.662	7.1
606.998	7.22
607.333	7.29
607.668	7.37
608.004	7.03
608.339	7.19
608.674	7.02
609.01	7.28
609.345	7.35
609.68	7.29
610.015	7.42
610.35	7.39
610.685	7.23
611.02	7.21
611.355	7.37
611.689	7.39
612.024	7.38
612.359	7.27
612.694	7.11
613.028	7
613.363	7.1
613.697	7.35
614.032	7.29
614.366	7.13
614.7	7.03
615.035	7.3
615.369	7.21
615.703	7.54
616.037	7.04
616.371	7.16
616.705	6.96
617.039	7.5
617.373	7.41
617.707	7.19
618.041	7.57
618.375	7.45
618.709	7.13
619.042	7.36
619.376	7.79
619.71	7.33
620.043	7.48
620.377	7.24
620.71	7.16
621.043	7.26
621.377	7.55
621.71	7.47
622.043	7.11
622.376	7.25
622.709	7.39
623.043	7.12
623.376	7.57
623.709	7.36
624.041	7.44
624.374	7.36
624.707	7.44
625.04	7.54
625.373	7.52
625.705	7.26
626.038	7.44
626.37	7.42
626.703	7.33
627.035	7.47
627.368	7.53
627.7	7.41
628.032	7.18
628.365	7.33
628.697	7.57
629.029	7.49
629.361	7.37
629.693	7.22
630.025	7.4
630.357	7.39
630.689	7.29
631.021	7.09
631.353	7.3
631.684	7.25
632.016	7.35
632.348	7.7
632.679	7.39
633.011	7.66
633.342	7.41
633.674	7.47
634.005	7.35
634.336	7.26
634.668	7.26
634.999	7.3
635.33	7.45
635.661	7.41
635.992	7.15
636.323	7.31
636.654	7.45
636.985	7.64
637.316	7.44
637.647	7.14
637.977	7.4
638.308	7.49
638.639	7.26
638.969	7.02
639.3	7.24
639.63	7.35
639.961	7.62
640.291	7.67
640.622	7.81
640.952	6.98
641.282	7.32
641.612	7.73
641.943	7.71
642.273	7.44
642.603	7.61
642.933	7.49
643.263	7.7
643.592	7.05
643.922	7.54
644.252	7.9
644.582	8.09
644.911	7.72
645.241	7.51
645.571	7.12
645.9	7.74
646.23	7.43
646.559	8.02
646.888	7.81
647.218	7.51
647.547	7.44
647.876	7.51
648.205	7.61
648.534	7.44
648.863	7.61
649.192	7.7
649.521	7.92
649.85	7.11
650.179	7.55
650.508	8.29
650.837	8.01
651.165	7.76
651.494	7.41
651.822	7.79
652.151	8.05
652.479	7.76
652.808	7.53
653.136	7.6
653.465	8.27
653.793	7.81
654.121	7.91
654.449	7.81
654.777	7.46
655.105	8.01
655.433	7.91
655.761	7.45
656.089	8.02
656.417	7.79
656.745	7.44
657.073	7.69
657.4	7.56
657.728	7.63
658.056	7.63
658.383	8.01
658.711	7.83
659.038	8.25
659.365	7.57
659.693	7.48
660.02	8.27
660.347	7.8
660.674	7.45
661.001	7.91
661.329	7.88
661.656	7.82
661.982	7.58
662.309	7.94
662.636	8.13
662.963	7.94
663.29	7.97
663.616	7.59
663.943	8.11
664.27	7.19
664.596	7.67
664.923	7.97
665.249	7.74
665.576	7.65
665.902	8.07
666.228	8.21
666.554	7.52
666.881	8.02
667.207	8.59
667.533	7.96
667.859	7.4
668.185	7.97
668.511	7.72
668.837	8.1
669.162	7.86
669.488	7.35
669.814	8.15
670.139	8.69
670.465	8.25
670.791	7.66
671.116	7.22
671.442	8
671.767	8.21
672.092	7.87
672.418	8.56
672.743	8.41
673.068	8.39
673.393	7.91
673.718	7.93
674.043	7.6
674.368	7.86
674.693	8.6
675.018	8.43
675.343	7.69
675.667	8.23
675.992	8.29
676.317	8.55
676.641	8.25
676.966	7.78
677.29	7.97
677.615	7.8
677.939	7.79
678.264	7.98
678.588	8.51
678.912	8.1
679.236	8.17
679.56	7.86
679.885	8.54
680.209	8.76
680.532	7.43
680.856	8.16
681.18	8.1
681.504	8.26
681.828	7.72
682.152	8.49
682.475	8.36
682.799	8.28
683.122	8.05
683.446	7.74
683.769	8.18
684.093	8.59
684.416	8.05
684.739	8.04
685.062	8.27
685.386	8.18
685.709	8.45
686.032	8.55
686.355	8.18
686.678	8.28
687.001	7.84
687.324	8.4
687.646	7.52
687.969	8.18
688.292	7.72
688.614	8.06
688.937	8.12
689.26	9.06
689.582	7.88
689.904	8.2
690.227	8.61
690.549	8.11
690.871	8.23
691.194	8.52
691.516	8.27
691.838	8.61
692.16	8.7
692.482	7.77
692.804	8.06
693.126	8.21
693.448	8.39
