Data from 1710-1_chest_Reflection__1__16.txt Node

Date: Fri Oct 07 15:12:35 CDT 2022
User: ToomeyLab
Spectrometer: FLMS14357
Trigger mode: 0
Integration Time (sec): 1.000000E-2
Scans to average: 100
Electric dark correction enabled: true
Nonlinearity correction enabled: false
Boxcar width: 0
XAxis mode: Wavelengths
Number of Pixels in Spectrum: 2048
>>>>>Begin Spectral Data<<<<<
189.047	122.55
189.435	122.55
189.823	122.55
190.211	-6.42
190.599	9.36
190.987	113.8
191.375	3.25
191.763	-83.44
192.151	39.88
192.538	74.51
192.926	-100.34
193.314	243.11
193.702	-1836.4
194.089	259.86
194.477	-249.51
194.864	169.88
195.252	0.54
195.639	-49
196.027	-89.76
196.414	109.93
196.801	-57.55
197.189	25.62
197.576	-6195.65
197.963	95.25
198.351	40.94
198.738	31.7
199.125	38.22
199.512	5.09
199.899	15.6
200.286	0.31
200.673	5.07
201.06	36.29
201.447	37.75
201.833	32.87
202.22	33.79
202.607	35.78
202.994	36.65
203.38	16.39
203.767	11.53
204.154	-9.56
204.54	16.75
204.927	10.03
205.313	-15.31
205.699	1.95
206.086	-14.05
206.472	54.33
206.858	-0.94
207.245	14.89
207.631	22.37
208.017	16.92
208.403	31.78
208.789	16.79
209.175	60.81
209.561	35.95
209.947	45.4
210.333	13.94
210.719	11.69
211.105	15.3
211.491	-7.91
211.876	5.99
212.262	34.4
212.648	22.57
213.034	19.3
213.419	2.38
213.805	38.46
214.19	9.99
214.576	35.68
214.961	-10.59
215.346	-17.17
215.732	30.64
216.117	11.41
216.502	40.08
216.888	-13.6
217.273	0.55
217.658	39.66
218.043	12.14
218.428	39.62
218.813	37.61
219.198	16.42
219.583	23.25
219.968	12.23
220.353	4.57
220.738	28.78
221.122	4.48
221.507	-4.91
221.892	4.17
222.276	-3.7
222.661	11.75
223.046	13.42
223.43	12.6
223.815	3.67
224.199	8.52
224.583	5.46
224.968	2.42
225.352	0.16
225.736	-4.54
226.121	16.58
226.505	10.11
226.889	6.86
227.273	9.52
227.657	5.93
228.041	3.89
228.425	5.79
228.809	4.81
229.193	3.67
229.577	3.03
229.961	3.18
230.344	3.87
230.728	3.57
231.112	2.92
231.495	3.59
231.879	3.96
232.263	1.86
232.646	4.06
233.03	3.37
233.413	4.06
233.797	5.63
234.18	1.37
234.563	1.89
234.946	1.92
235.33	1.94
235.713	2.53
236.096	2.82
236.479	3.78
236.862	2.92
237.245	3.61
237.628	2.94
238.011	3.86
238.394	1.29
238.777	2.23
239.16	5.14
239.543	0.72
239.925	2.42
240.308	4.46
240.691	3.77
241.073	4.22
241.456	4.87
241.838	3.45
242.221	3.76
242.603	3.63
242.986	3.43
243.368	2.65
243.75	3.31
244.133	2.73
244.515	2.85
244.897	3.14
245.279	3.52
245.661	3.72
246.043	2.56
246.425	3.97
246.807	3.87
247.189	3.78
247.571	2.73
247.953	3.03
248.335	3.04
248.717	2.77
249.098	2.72
249.48	2.74
249.862	2.78
250.243	2.78
250.625	2.74
251.006	2.51
251.388	3.33
251.769	3.28
252.151	3.41
252.532	3.35
252.913	2.11
253.295	3.36
253.676	2.88
254.057	2.78
254.438	2.9
254.819	2.5
255.2	2.59
255.581	2.45
255.962	3.16
256.343	2.75
256.724	3.21
257.105	3.99
257.486	3.72
257.867	2.55
258.247	2.66
258.628	3.34
259.009	2.93
259.389	2.34
259.77	3.08
260.15	1.99
260.531	3.07
260.911	3.1
261.292	2.62
261.672	2.87
262.052	2.68
262.432	2.5
262.813	2.79
263.193	3.03
263.573	2.7
263.953	3.39
264.333	3.02
264.713	2.5
265.093	2.81
265.473	3.13
265.853	2.19
266.233	2.96
266.612	3.6
266.992	3.54
267.372	2.56
267.752	2.96
268.131	2.66
268.511	2.74
268.89	2.57
269.27	2.55
269.649	3.12
270.029	2.52
270.408	2.21
270.787	3.05
271.167	2.96
271.546	2.69
271.925	2.18
272.304	3.34
272.683	2.51
273.062	2.64
273.441	2.72
273.82	2.47
274.199	2.53
274.578	2.59
274.957	2.63
275.336	3.04
275.715	2.58
276.093	3.11
276.472	2.56
276.851	2.29
277.229	2
277.608	3.05
277.986	2.58
278.365	2.84
278.743	2.38
279.122	2.47
279.5	2.69
279.878	2.84
280.257	2.38
280.635	2.55
281.013	2.8
281.391	2.64
281.769	2.88
282.147	2.03
282.525	2.39
282.903	2.74
283.281	2.48
283.659	3.2
284.037	3.03
284.415	3.07
284.792	2.68
285.17	2.59
285.548	2.44
285.925	2.44
286.303	2.08
286.68	2.11
287.058	2.7
287.435	2.39
287.813	2.72
288.19	2.75
288.567	2.73
288.945	2.49
289.322	2.56
289.699	2.12
290.076	2.66
290.453	2.94
290.83	2.51
291.207	3.3
291.584	2.83
291.961	2.29
292.338	2.56
292.715	2.54
293.092	2.78
293.469	2.69
293.845	3.07
294.222	2.57
294.599	2.33
294.975	2.36
295.352	3.34
295.728	3.15
296.105	2.53
296.481	2.41
296.858	3.03
297.234	2.41
297.61	3.23
297.986	2.75
298.363	2.81
298.739	2.44
299.115	2.25
299.491	2.51
299.867	2.33
300.243	2.74
300.619	2.99
300.995	2.5
301.371	2.31
301.746	2.76
302.122	2.71
302.498	2.96
302.874	3.25
303.249	2.52
303.625	2.59
304	3.09
304.376	2.93
304.751	2.51
305.127	2.45
305.502	3.05
305.878	2.49
306.253	3.07
306.628	3.17
307.003	3.05
307.378	3.1
307.754	2.46
308.129	2.88
308.504	2.58
308.879	2.71
309.254	2.7
309.629	2.52
310.003	2.57
310.378	2.77
310.753	2.86
311.128	2.4
311.502	3.1
311.877	2.48
312.252	2.92
312.626	2.59
313.001	2.55
313.375	2.6
313.75	2.57
314.124	2.91
314.498	2.78
314.873	2.79
315.247	2.48
315.621	2.34
315.995	2.65
316.369	2.49
316.743	2.29
317.117	2.76
317.491	2.98
317.865	3.07
318.239	2.52
318.613	2.68
318.987	2.58
319.361	3.14
319.734	2.6
320.108	2.33
320.482	3.49
320.855	3.09
321.229	3.31
321.602	2.81
321.976	2.95
322.349	3.02
322.723	2.76
323.096	2.85
323.469	3.07
323.843	3.18
324.216	2.87
324.589	3.2
324.962	3.4
325.335	2.78
325.708	2.16
326.081	2.74
326.454	3.27
326.827	2.76
327.2	3.18
327.573	2.83
327.945	3.15
328.318	3.02
328.691	2.97
329.063	3.23
329.436	2.96
329.809	3.07
330.181	3.07
330.553	2.61
330.926	3.33
331.298	2.86
331.671	3.03
332.043	2.89
332.415	2.68
332.787	2.84
333.159	2.26
333.532	2.81
333.904	2.86
334.276	3.06
334.648	3.29
335.02	2.88
335.391	2.98
335.763	3.62
336.135	2.51
336.507	3.26
336.879	3.06
337.25	3.11
337.622	3.25
337.993	2.89
338.365	3.29
338.736	2.96
339.108	2.98
339.479	2.94
339.851	2.76
340.222	3.35
340.593	2.93
340.964	2.62
341.336	2.8
341.707	2.61
342.078	2.94
342.449	2.95
342.82	2.9
343.191	2.7
343.562	2.81
343.933	3.07
344.303	3.23
344.674	3.02
345.045	3.23
345.416	3.15
345.786	3.62
346.157	3.22
346.527	2.77
346.898	3.2
347.268	2.8
347.639	2.36
348.009	3.43
348.38	3.29
348.75	3.04
349.12	3.39
349.49	2.96
349.861	2.95
350.231	3.33
350.601	3.37
350.971	3.43
351.341	3.02
351.711	3.17
352.081	3.07
352.45	3.13
352.82	3.25
353.19	3.41
353.56	2.95
353.929	2.57
354.299	3.15
354.669	2.82
355.038	2.4
355.408	3.2
355.777	3.19
356.147	3.03
356.516	3.08
356.885	2.94
357.254	3.08
357.624	2.9
357.993	2.81
358.362	2.8
358.731	2.72
359.1	3.08
359.469	3.04
359.838	2.86
360.207	3.24
360.576	3.1
360.945	3.08
361.314	2.95
361.682	2.69
362.051	3.11
362.42	3.13
362.788	2.86
363.157	2.64
363.525	3.05
363.894	2.98
364.262	2.97
364.631	2.95
364.999	3.01
365.367	3.01
365.735	3.23
366.104	3.16
366.472	3.02
366.84	2.86
367.208	3.11
367.576	2.92
367.944	3.06
368.312	2.93
368.68	2.98
369.048	3.21
369.416	3.36
369.783	3.1
370.151	3.07
370.519	2.8
370.886	2.83
371.254	2.89
371.621	3.1
371.989	3.13
372.356	3.12
372.724	3.1
373.091	3.07
373.458	3.34
373.826	2.71
374.193	3.27
374.56	3.16
374.927	2.88
375.294	3.06
375.661	2.82
376.028	3.2
376.395	3.4
376.762	3.07
377.129	3.34
377.496	3.11
377.863	3.31
378.229	3.31
378.596	2.94
378.963	3.41
379.329	3.2
379.696	2.97
380.062	3.16
380.429	3.21
380.795	3.33
381.161	3.24
381.528	3.24
381.894	3.4
382.26	3.1
382.626	3.25
382.993	3.16
383.359	3.01
383.725	3.41
384.091	3.14
384.457	3.2
384.823	2.94
385.188	3.2
385.554	3.1
385.92	3.44
386.286	3.32
386.651	3.11
387.017	3.37
387.383	3.27
387.748	2.95
388.114	3.26
388.479	3.06
388.845	3.29
389.21	3.33
389.575	3.1
389.94	3
390.306	2.95
390.671	3.63
391.036	3.25
391.401	2.97
391.766	3.14
392.131	3.15
392.496	3.02
392.861	3.05
393.226	3.5
393.591	3.24
393.956	3.24
394.32	3.25
394.685	3.05
395.05	2.93
395.414	3.18
395.779	3.27
396.143	3.16
396.508	2.99
396.872	3.05
397.236	3.09
397.601	2.94
397.965	3.3
398.329	3.17
398.694	3.28
399.058	3.33
399.422	3.44
399.786	3.16
400.15	3.27
400.514	3.08
400.878	3.05
401.242	3.1
401.605	3.29
401.969	3.08
402.333	3.24
402.697	3.26
403.06	3.37
403.424	3.26
403.787	3.44
404.151	3.37
404.514	3.6
404.878	3.37
405.241	3
405.604	3.3
405.968	3.3
406.331	3.28
406.694	3.33
407.057	3.11
407.42	3.16
407.783	3.16
408.146	3.38
408.509	3.26
408.872	3.29
409.235	3.4
409.598	3.43
409.961	3.34
410.323	3.32
410.686	3.1
411.049	3.43
411.411	3.51
411.774	3.23
412.136	3.32
412.499	3.48
412.861	3.32
413.223	3.28
413.586	3.23
413.948	3.09
414.31	3.19
414.672	3.4
415.035	3.26
415.397	3.31
415.759	3.13
416.121	3.21
416.483	3.33
416.845	3.24
417.206	3.26
417.568	3.4
417.93	3.06
418.292	3.23
418.653	3.28
419.015	3.27
419.377	3.19
419.738	3.27
420.1	3.19
420.461	3.32
420.822	3.24
421.184	3.16
421.545	3.13
421.906	3.31
422.267	3.14
422.629	3.13
422.99	3.15
423.351	3.19
423.712	3.29
424.073	3.24
424.434	3.25
424.795	2.98
425.155	3.26
425.516	3.07
425.877	3.17
426.238	3.18
426.598	3.11
426.959	3.14
427.32	3.31
427.68	3.28
428.041	3.34
428.401	3.32
428.761	3.39
429.122	3.36
429.482	3.37
429.842	3.22
430.202	3.27
430.563	3.44
430.923	3.31
431.283	3.23
431.643	3.33
432.003	3.44
432.363	3.45
432.722	3.34
433.082	3.26
433.442	3.3
433.802	3.46
434.161	3.36
434.521	3.3
434.881	3.21
435.24	3.36
435.6	3.29
435.959	3.35
436.319	3.36
436.678	3.39
437.037	3.26
437.396	3.41
437.756	3.5
438.115	3.44
438.474	3.33
438.833	3.37
439.192	3.35
439.551	3.29
439.91	3.46
440.269	3.4
440.628	3.43
440.987	3.38
441.345	3.27
441.704	3.37
442.063	3.39
442.421	3.37
442.78	3.28
443.138	3.24
443.497	3.31
443.855	3.39
444.214	3.43
444.572	3.48
444.93	3.35
445.288	3.18
445.647	3.54
446.005	3.32
446.363	3.37
446.721	3.33
447.079	3.35
447.437	3.35
447.795	3.38
448.153	3.29
448.51	3.36
448.868	3.27
449.226	3.24
449.584	3.34
449.941	3.43
450.299	3.3
450.656	3.35
451.014	3.41
451.371	3.37
451.729	3.41
452.086	3.31
452.443	3.56
452.801	3.48
453.158	3.53
453.515	3.49
453.872	3.28
454.229	3.49
454.586	3.36
454.943	3.53
455.3	3.32
455.657	3.63
456.014	3.59
456.371	3.55
456.727	3.6
457.084	3.5
457.441	3.77
457.797	3.57
458.154	3.48
458.51	3.61
458.867	3.47
459.223	3.41
459.58	3.51
459.936	3.58
460.292	3.37
460.648	3.42
461.005	3.41
461.361	3.37
461.717	3.43
462.073	3.44
462.429	3.43
462.785	3.55
463.141	3.43
463.496	3.62
463.852	3.65
464.208	3.45
464.564	3.58
464.919	3.41
465.275	3.59
465.631	3.56
465.986	3.58
466.342	3.69
466.697	3.75
467.052	3.39
467.408	3.59
467.763	3.59
468.118	3.51
468.473	3.62
468.829	3.58
469.184	3.61
469.539	3.63
469.894	3.45
470.249	3.58
470.603	3.53
470.958	3.7
471.313	3.53
471.668	3.68
472.023	3.73
472.377	3.68
472.732	3.59
473.086	3.75
473.441	3.67
473.795	3.52
474.15	3.58
474.504	3.67
474.859	3.74
475.213	3.63
475.567	3.68
475.921	3.52
476.275	3.71
476.63	3.66
476.984	3.57
477.338	3.8
477.692	3.82
478.045	3.64
478.399	3.62
478.753	3.46
479.107	3.73
479.461	3.74
479.814	3.66
480.168	3.52
480.521	3.55
480.875	3.65
481.228	3.59
481.582	3.71
481.935	3.66
482.289	3.63
482.642	3.75
482.995	3.66
483.348	3.71
483.701	3.51
484.055	3.6
484.408	3.65
484.761	3.48
485.114	3.41
485.466	3.38
485.819	3.34
486.172	3.4
486.525	3.43
486.878	3.51
487.23	3.63
487.583	3.56
487.936	3.55
488.288	3.51
488.641	3.54
488.993	3.49
489.345	3.49
489.698	3.47
490.05	3.53
490.402	3.54
490.754	3.55
491.107	3.68
491.459	3.64
491.811	3.7
492.163	3.73
492.515	3.72
492.866	3.59
493.218	3.56
493.57	3.56
493.922	3.55
494.274	3.67
494.625	3.73
494.977	3.69
495.328	3.84
495.68	3.78
496.031	3.75
496.383	3.83
496.734	3.69
497.086	3.86
497.437	3.82
497.788	3.72
498.139	3.79
498.49	3.83
498.842	3.87
499.193	3.77
499.544	3.87
499.894	3.81
500.245	3.73
500.596	3.88
500.947	3.73
501.298	3.78
501.648	3.81
501.999	3.84
502.35	3.87
502.7	3.84
503.051	3.88
503.401	3.91
503.752	3.92
504.102	3.89
504.452	3.86
504.803	3.95
505.153	3.95
505.503	3.87
505.853	4.02
506.203	3.89
506.553	4.05
506.903	3.99
507.253	4.04
507.603	3.99
507.953	4.07
508.303	4.06
508.652	3.92
509.002	4.01
509.352	3.99
509.701	4.14
510.051	3.89
510.4	4.01
510.75	3.93
511.099	3.89
511.449	3.98
511.798	4.07
512.147	3.96
512.496	3.96
512.846	4.08
513.195	3.98
513.544	4.03
513.893	4.07
514.242	3.98
514.591	4.04
514.939	4.1
515.288	4.17
515.637	4.08
515.986	4.13
516.334	4.19
516.683	4.1
517.032	3.97
517.38	3.99
517.729	4.02
518.077	4.07
518.426	4.11
518.774	4.09
519.122	4.12
519.47	4.07
519.819	4.05
520.167	4.03
520.515	4.08
520.863	4.04
521.211	4.09
521.559	4.07
521.907	4.15
522.255	4.09
522.602	4.17
522.95	4.25
523.298	4.22
523.645	4.13
523.993	4.2
524.341	4.12
524.688	4.22
525.036	4.24
525.383	4.23
525.73	4.18
526.078	4.4
526.425	4.23
526.772	4.18
527.119	4.24
527.466	4.19
527.814	4.19
528.161	4.27
528.508	4.16
528.854	4.19
529.201	4.29
529.548	4.23
529.895	4.08
530.242	4.07
530.588	4.08
530.935	4.12
531.282	4.14
531.628	4.19
531.975	4.28
532.321	4.34
532.667	4.29
533.014	4.39
533.36	4.42
533.706	4.38
534.052	4.29
534.399	4.32
534.745	4.29
535.091	4.26
535.437	4.22
535.783	4.37
536.129	4.44
536.474	4.46
536.82	4.46
537.166	4.46
537.512	4.41
537.857	4.49
538.203	4.42
538.549	4.46
538.894	4.49
539.239	4.52
539.585	4.54
539.93	4.63
540.276	4.65
540.621	4.66
540.966	4.56
541.311	4.71
541.656	4.6
542.001	4.56
542.346	4.65
542.691	4.49
543.036	4.46
543.381	4.47
543.726	4.48
544.071	4.52
544.415	4.67
544.76	4.62
545.105	4.65
545.449	4.73
545.794	4.74
546.138	4.76
546.483	4.68
546.827	4.71
547.171	4.87
547.516	4.65
547.86	4.8
548.204	4.72
548.548	4.82
548.892	4.76
549.236	5.04
549.58	4.91
549.924	4.9
550.268	4.98
550.612	4.94
550.956	5.01
551.3	5.16
551.643	4.98
551.987	5.05
552.33	5.01
552.674	5.21
553.017	5.12
553.361	5.13
553.704	5.14
554.048	5.06
554.391	5.01
554.734	5.19
555.077	5.13
555.42	5.24
555.764	5.1
556.107	5.09
556.45	5.31
556.793	5.16
557.135	5.22
557.478	5.46
557.821	5.29
558.164	5.28
558.507	5.44
558.849	5.24
559.192	5.43
559.534	5.4
559.877	5.38
560.219	5.66
560.562	5.12
560.904	5.36
561.246	5.54
561.589	5.44
561.931	5.41
562.273	5.58
562.615	5.59
562.957	5.53
563.299	5.37
563.641	5.54
563.983	5.46
564.325	5.65
564.667	5.65
565.008	5.6
565.35	5.55
565.692	5.51
566.033	5.7
566.375	5.63
566.716	5.78
567.058	5.7
567.399	5.65
567.741	5.72
568.082	5.68
568.423	5.77
568.764	5.81
569.105	5.75
569.447	5.61
569.788	5.65
570.129	5.75
570.47	5.97
570.811	5.96
571.151	5.87
571.492	5.95
571.833	5.96
572.174	5.89
572.514	5.92
572.855	6.12
573.195	5.9
573.536	6.05
573.876	6.04
574.217	6
574.557	6.05
574.898	6.11
575.238	6.17
575.578	6.17
575.918	6.1
576.258	6.21
576.598	6.13
576.938	6.27
577.278	6.26
577.618	6.04
577.958	6.49
578.298	6.26
578.638	6.28
578.977	6.37
579.317	6.32
579.657	6.52
579.996	6.43
580.336	6.56
580.675	6.47
581.014	6.75
581.354	6.5
581.693	6.54
582.032	6.71
582.372	6.47
582.711	6.58
583.05	6.46
583.389	6.61
583.728	6.71
584.067	6.57
584.406	6.73
584.745	6.6
585.083	6.9
585.422	6.63
585.761	6.81
586.1	6.9
586.438	7.07
586.777	6.93
587.115	7.08
587.454	7.05
587.792	7
588.13	7.01
588.469	6.94
588.807	6.9
589.145	6.99
589.483	7.17
589.821	6.93
590.159	6.65
590.497	7.09
590.835	7.3
591.173	6.99
591.511	7.34
591.849	7.22
592.187	7.1
592.524	7.32
592.862	7.27
593.2	7.42
593.537	7.25
593.875	7.47
594.212	7.09
594.55	7.51
594.887	7.33
595.224	7.36
595.561	7.3
595.899	7.47
596.236	7.72
596.573	7.5
596.91	7.8
597.247	7.55
597.584	7.43
597.921	7.76
598.258	7.78
598.594	7.55
598.931	7.56
599.268	7.66
599.604	8.01
599.941	7.66
600.277	7.7
600.614	7.7
600.95	7.89
601.287	7.88
601.623	7.95
601.959	7.8
602.296	8.16
602.632	7.99
602.968	7.76
603.304	7.7
603.64	8.15
603.976	7.83
604.312	8.45
604.648	8.12
604.984	8.01
605.319	8.14
605.655	8.15
605.991	8.25
606.326	8.33
606.662	8.24
606.998	8.26
607.333	8.29
607.668	8.41
608.004	8.4
608.339	8.47
608.674	8.45
609.01	8.72
609.345	8.56
609.68	8.63
610.015	8.59
610.35	8.67
610.685	8.77
611.02	8.73
611.355	8.66
611.689	8.6
612.024	8.64
612.359	8.63
612.694	8.7
613.028	8.72
613.363	8.87
613.697	8.6
614.032	8.69
614.366	8.62
614.7	9.07
615.035	8.98
615.369	8.99
615.703	8.99
616.037	8.75
616.371	8.98
616.705	8.7
617.039	9.39
617.373	9.27
617.707	8.9
618.041	9.54
618.375	9.73
618.709	9.29
619.042	9.41
619.376	9.6
619.71	9.41
620.043	9.11
620.377	9.18
620.71	9.51
621.043	9.41
621.377	9.8
621.71	10.01
622.043	9.65
622.376	9.57
622.709	9.93
623.043	9.71
623.376	9.88
623.709	9.69
624.041	9.91
624.374	9.59
624.707	9.76
625.04	10.03
625.373	9.86
625.705	9.92
626.038	9.9
626.37	10.06
626.703	9.83
627.035	10.14
627.368	10.03
627.7	9.98
628.032	10.4
628.365	10.28
628.697	10.04
629.029	10.21
629.361	10.32
629.693	10.24
630.025	10.35
630.357	10.07
630.689	10.29
631.021	10.61
631.353	10.61
631.684	10.39
632.016	10.66
632.348	10.54
632.679	10.34
633.011	10.68
633.342	10.53
633.674	10.7
634.005	10.74
634.336	10.67
634.668	10.63
634.999	10.76
635.33	10.92
635.661	10.52
635.992	10.57
636.323	10.66
636.654	10.55
636.985	10.98
637.316	10.85
637.647	10.86
637.977	11.31
638.308	10.87
638.639	11.1
638.969	11.31
639.3	11.17
639.63	11.13
639.961	11.46
640.291	11.35
640.622	11.62
640.952	11.2
641.282	11.26
641.612	11.08
641.943	11.39
642.273	11.31
642.603	11.39
642.933	11.59
643.263	11.83
643.592	11.42
643.922	12
644.252	11.61
644.582	12.15
644.911	12.03
645.241	11.47
645.571	11.6
645.9	11.95
646.23	11.8
646.559	12.12
646.888	12.42
647.218	12.08
647.547	12.01
647.876	12.11
648.205	12.27
648.534	12.05
648.863	11.81
649.192	12.07
649.521	12.14
649.85	11.97
650.179	12.28
650.508	12.34
650.837	12.37
651.165	12.43
651.494	12.4
651.822	11.99
652.151	12.46
652.479	12.56
652.808	12.22
653.136	12.34
653.465	12.71
653.793	12.75
654.121	12.75
654.449	12.92
654.777	12.75
655.105	13.35
655.433	12.79
655.761	12.74
656.089	12.89
656.417	12.78
656.745	12.72
657.073	12.99
657.4	13.13
657.728	13.03
658.056	13.05
658.383	13.11
658.711	13.06
659.038	13.48
659.365	13
659.693	13.43
660.02	13.56
660.347	13.2
660.674	13.07
661.001	13.43
661.329	13.04
661.656	13.38
661.982	13.29
662.309	13.18
662.636	13.45
662.963	13.51
663.29	13.59
663.616	13.48
663.943	13.8
664.27	13.51
664.596	14.06
664.923	13.76
665.249	14.11
665.576	14.01
665.902	13.52
666.228	13.4
666.554	14.08
666.881	14.04
667.207	14.78
667.533	14.22
667.859	14
668.185	14.18
668.511	14.19
668.837	14.6
669.162	14.79
669.488	13.59
669.814	14.45
670.139	14.52
670.465	14.06
670.791	14.23
671.116	14.03
671.442	14.71
671.767	14.42
672.092	14.75
672.418	14.82
672.743	14.92
673.068	15.44
673.393	14.88
673.718	15.38
674.043	14.65
674.368	14.43
674.693	15.36
675.018	15.04
675.343	14.34
675.667	15.6
675.992	15.31
676.317	15.44
676.641	15.32
676.966	15.31
677.29	15.26
677.615	14.8
677.939	15.6
678.264	15.6
678.588	15.83
678.912	15.36
679.236	15.46
679.56	15.73
679.885	15.39
680.209	15.74
680.532	15.31
680.856	15.87
681.18	15.44
681.504	15.77
681.828	15.44
682.152	15.65
682.475	16.11
682.799	15.77
683.122	15.82
683.446	15.61
683.769	15.72
684.093	15.2
684.416	15.71
684.739	16.17
685.062	16.28
685.386	15.64
685.709	16.47
686.032	16.46
686.355	16.3
686.678	16.62
687.001	16.67
687.324	16.36
687.646	16.53
687.969	16.23
688.292	17.19
