Data from 1710-1_forehead_Reflection__4__29.txt Node

Date: Fri Oct 07 15:17:44 CDT 2022
User: ToomeyLab
Spectrometer: FLMS14357
Trigger mode: 0
Integration Time (sec): 1.000000E-2
Scans to average: 100
Electric dark correction enabled: true
Nonlinearity correction enabled: false
Boxcar width: 0
XAxis mode: Wavelengths
Number of Pixels in Spectrum: 2048
>>>>>Begin Spectral Data<<<<<
189.047	42.73
189.435	42.73
189.823	42.73
190.211	-23.19
190.599	-26.11
190.987	104.8
191.375	119.61
191.763	-303.43
192.151	-12.62
192.538	-75.51
192.926	200.85
193.314	67.16
193.702	-3207.42
194.089	94.35
194.477	1487.7
194.864	217.12
195.252	88.47
195.639	7.65
196.027	-110.84
196.414	71.24
196.801	-195.36
197.189	119.43
197.576	2186.96
197.963	33.28
198.351	12.35
198.738	28.01
199.125	41.16
199.512	38.09
199.899	21.59
200.286	44.01
200.673	27.39
201.06	62
201.447	48.53
201.833	19.62
202.22	61.94
202.607	46.03
202.994	24.02
203.38	15.73
203.767	30.05
204.154	24.71
204.54	51.46
204.927	53.49
205.313	3.39
205.699	40.27
206.086	29.21
206.472	56.04
206.858	27.77
207.245	37.43
207.631	63.55
208.017	14.59
208.403	37.43
208.789	17.51
209.175	12.62
209.561	34.98
209.947	46.22
210.333	34.78
210.719	9.91
211.105	46.66
211.491	35.06
211.876	20.81
212.262	37.06
212.648	10.73
213.034	5.61
213.419	16.9
213.805	18.12
214.19	26.91
214.576	18.06
214.961	22.74
215.346	6.28
215.732	20.34
216.117	17.74
216.502	28.59
216.888	15.99
217.273	26.63
217.658	40.83
218.043	9
218.428	27.95
218.813	42.42
219.198	23.39
219.583	25.88
219.968	20.97
220.353	30.24
220.738	9.21
221.122	12.32
221.507	-10.23
221.892	8
222.276	21.27
222.661	29.42
223.046	18.15
223.43	14.59
223.815	22.44
224.199	8.32
224.583	13.97
224.968	9.39
225.352	14.26
225.736	10.98
226.121	18.61
226.505	9.64
226.889	6.87
227.273	11.71
227.657	10.63
228.041	6.04
228.425	6.77
228.809	4.37
229.193	5.99
229.577	4.6
229.961	5.13
230.344	4.82
230.728	4.93
231.112	5.04
231.495	4.92
231.879	5.04
232.263	5.54
232.646	5.54
233.03	5.25
233.413	5.07
233.797	7.62
234.18	5.15
234.563	5.19
234.946	4.88
235.33	6
235.713	5.28
236.096	5.86
236.479	5.21
236.862	3.81
237.245	4.61
237.628	5.03
238.011	6.35
238.394	6.72
238.777	6.08
239.16	6.35
239.543	5.07
239.925	5.25
240.308	5.01
240.691	5.5
241.073	3.91
241.456	5.75
241.838	5.5
242.221	6.01
242.603	5.47
242.986	5.24
243.368	4.8
243.75	5.06
244.133	4.76
244.515	5.1
244.897	5.26
245.279	5.33
245.661	5.42
246.043	4.95
246.425	6.57
246.807	4.92
247.189	5.76
247.571	5.47
247.953	5.07
248.335	5.29
248.717	4.97
249.098	4.83
249.48	4.99
249.862	5.1
250.243	5.55
250.625	5.01
251.006	4.99
251.388	5.44
251.769	5.1
252.151	5.46
252.532	6.91
252.913	4.71
253.295	6.73
253.676	5.58
254.057	5.43
254.438	5.44
254.819	5.12
255.2	5.2
255.581	4.98
255.962	5.78
256.343	6.42
256.724	6.76
257.105	6.75
257.486	6.2
257.867	5.6
258.247	7.19
258.628	5.46
259.009	5.36
259.389	6.26
259.77	5.64
260.15	4.89
260.531	5.77
260.911	5.3
261.292	5.16
261.672	5.21
262.052	4.91
262.432	4.79
262.813	5.22
263.193	5.16
263.573	5.57
263.953	5.69
264.333	5.43
264.713	5.24
265.093	5.42
265.473	5.73
265.853	4.45
266.233	5.75
266.612	5.67
266.992	5.58
267.372	5.55
267.752	5.52
268.131	5.6
268.511	5.12
268.89	4.34
269.27	5.02
269.649	5.17
270.029	5.1
270.408	4.95
270.787	5.14
271.167	5.8
271.546	5.46
271.925	4.54
272.304	5.24
272.683	5.25
273.062	5.08
273.441	5.05
273.82	5.1
274.199	5.28
274.578	5.22
274.957	5.24
275.336	5.31
275.715	5.08
276.093	5.09
276.472	5.63
276.851	4.95
277.229	4.67
277.608	5.52
277.986	4.84
278.365	5.18
278.743	4.73
279.122	5.09
279.5	4.83
279.878	4.96
280.257	5.49
280.635	5.34
281.013	5.19
281.391	5.42
281.769	5.38
282.147	5.1
282.525	4.86
282.903	5.34
283.281	4.83
283.659	5.46
284.037	5.48
284.415	5.52
284.792	5.26
285.17	5.01
285.548	5.23
285.925	5.33
286.303	5.07
286.68	4.96
287.058	5.06
287.435	5.37
287.813	4.95
288.19	5.59
288.567	5.29
288.945	5.11
289.322	5.12
289.699	5.52
290.076	5.73
290.453	5.55
290.83	5.64
291.207	5.69
291.584	5.93
291.961	5.52
292.338	5.82
292.715	5.83
293.092	5.79
293.469	6.23
293.845	6.22
294.222	6.39
294.599	5.66
294.975	5.82
295.352	6.45
295.728	6.36
296.105	6.69
296.481	6.11
296.858	6.37
297.234	6.13
297.61	6.98
297.986	6.5
298.363	6.71
298.739	6.62
299.115	6.37
299.491	6.89
299.867	6.87
300.243	6.78
300.619	7.1
300.995	6.9
301.371	7.02
301.746	7.03
302.122	7.04
302.498	7.24
302.874	7.39
303.249	7.23
303.625	7.32
304	7.28
304.376	7.32
304.751	7.27
305.127	7.63
305.502	7.65
305.878	7.52
306.253	7.85
306.628	8.36
307.003	8.21
307.378	8.37
307.754	7.96
308.129	8.07
308.504	8.37
308.879	8.4
309.254	7.89
309.629	8.54
310.003	8.12
310.378	8.53
310.753	8.69
311.128	8.72
311.502	8.86
311.877	8.64
312.252	8.78
312.626	9.09
313.001	9.02
313.375	8.65
313.75	9.05
314.124	8.95
314.498	9.28
314.873	9.52
315.247	9.5
315.621	9.2
315.995	9.55
316.369	9.41
316.743	9.06
317.117	9.91
317.491	9.83
317.865	9.87
318.239	10.37
318.613	10.11
318.987	10.13
319.361	10.71
319.734	9.84
320.108	10.16
320.482	11.14
320.855	10.5
321.229	11.15
321.602	10.61
321.976	10.57
322.349	10.58
322.723	10.8
323.096	11.03
323.469	11.08
323.843	11.34
324.216	11.18
324.589	11.58
324.962	11.64
325.335	11.26
325.708	10.77
326.081	11.3
326.454	11.45
326.827	11.13
327.2	11.84
327.573	12.11
327.945	11.91
328.318	11.7
328.691	11.65
329.063	12.14
329.436	11.83
329.809	12.19
330.181	12.15
330.553	11.92
330.926	11.96
331.298	12.24
331.671	12.04
332.043	12.32
332.415	12.27
332.787	12.28
333.159	12.06
333.532	12.37
333.904	13.17
334.276	12.12
334.648	12.56
335.02	12.65
335.391	12.91
335.763	13.16
336.135	12.61
336.507	13.44
336.879	13.38
337.25	13.39
337.622	13.3
337.993	13.24
338.365	13.61
338.736	13.17
339.108	13.75
339.479	13.55
339.851	13.31
340.222	13.49
340.593	13.27
340.964	13.8
341.336	13.93
341.707	13.48
342.078	13.99
342.449	13.95
342.82	14
343.191	13.7
343.562	14.08
343.933	13.98
344.303	14.32
344.674	14.08
345.045	14.13
345.416	14.38
345.786	14.65
346.157	14.66
346.527	13.83
346.898	14.5
347.268	14.48
347.639	14.49
348.009	14.86
348.38	14.72
348.75	14.84
349.12	14.88
349.49	14.28
349.861	14.47
350.231	14.46
350.601	14.88
350.971	15.33
351.341	15.12
351.711	14.86
352.081	15.19
352.45	15.14
352.82	15.1
353.19	15.6
353.56	15.49
353.929	15.23
354.299	15.38
354.669	15.27
355.038	15.31
355.408	15.43
355.777	15.18
356.147	15.6
356.516	15.85
356.885	15.81
357.254	15.4
357.624	15.69
357.993	15.3
358.362	15.72
358.731	16.04
359.1	16.12
359.469	15.96
359.838	15.83
360.207	15.98
360.576	15.98
360.945	16.55
361.314	16.4
361.682	15.94
362.051	16.32
362.42	16.39
362.788	16.36
363.157	16.25
363.525	16.58
363.894	16.33
364.262	16.43
364.631	16.21
364.999	16.74
365.367	16.9
365.735	16.96
366.104	16.91
366.472	16.76
366.84	16.59
367.208	17.11
367.576	16.9
367.944	17.25
368.312	17.02
368.68	17.11
369.048	17.33
369.416	17.52
369.783	17.44
370.151	17.95
370.519	17.59
370.886	17.19
371.254	17.45
371.621	17.62
371.989	17.99
372.356	17.77
372.724	18.02
373.091	17.83
373.458	17.77
373.826	17.76
374.193	18.07
374.56	18.12
374.927	18.19
375.294	18.15
375.661	18.3
376.028	18.49
376.395	18.25
376.762	18.33
377.129	18.36
377.496	18.19
377.863	18.62
378.229	18.43
378.596	18.39
378.963	18.77
379.329	18.46
379.696	18.65
380.062	18.53
380.429	18.65
380.795	18.75
381.161	18.55
381.528	19.19
381.894	19.06
382.26	19.09
382.626	18.91
382.993	19.18
383.359	18.87
383.725	19.23
384.091	19.44
384.457	19.42
384.823	19.21
385.188	19.59
385.554	19.4
385.92	19.85
386.286	19.69
386.651	19.36
387.017	19.67
387.383	19.82
387.748	19.73
388.114	19.79
388.479	19.83
388.845	19.99
389.21	19.96
389.575	20.01
389.94	20.03
390.306	19.96
390.671	20.22
391.036	20.3
391.401	20.12
391.766	20.05
392.131	20.34
392.496	20.17
392.861	20.28
393.226	20.25
393.591	20.13
393.956	20.4
394.32	20.61
394.685	20.54
395.05	20.54
395.414	20.67
395.779	20.91
396.143	20.61
396.508	20.68
396.872	20.63
397.236	20.93
397.601	20.99
397.965	20.89
398.329	21.1
398.694	21.11
399.058	21.35
399.422	21.06
399.786	21.32
400.15	21.09
400.514	21.23
400.878	21.34
401.242	21.42
401.605	21.64
401.969	21.41
402.333	21.43
402.697	21.44
403.06	21.79
403.424	21.73
403.787	22.05
404.151	21.84
404.514	21.77
404.878	22.09
405.241	21.65
405.604	22.22
405.968	22.03
406.331	22.01
406.694	21.75
407.057	21.93
407.42	22.15
407.783	22
408.146	22.12
408.509	22.24
408.872	22.22
409.235	22.23
409.598	22.35
409.961	22.82
410.323	22.69
410.686	22.7
411.049	22.64
411.411	22.64
411.774	22.66
412.136	22.79
412.499	22.65
412.861	22.67
413.223	22.5
413.586	22.69
413.948	22.95
414.31	22.88
414.672	23.03
415.035	23.11
415.397	23.3
415.759	23.17
416.121	23.14
416.483	23.28
416.845	23.43
417.206	23.31
417.568	23.46
417.93	23.26
418.292	23.15
418.653	23.57
419.015	23.24
419.377	23.17
419.738	23.22
420.1	23.24
420.461	23.38
420.822	23.35
421.184	23.17
421.545	23.39
421.906	23.37
422.267	23.44
422.629	23.28
422.99	23.3
423.351	23.42
423.712	23.42
424.073	23.55
424.434	23.61
424.795	23.59
425.155	23.78
425.516	23.66
425.877	23.77
426.238	23.83
426.598	23.89
426.959	23.83
427.32	23.93
427.68	24.14
428.041	24.34
428.401	24.33
428.761	24.44
429.122	24.68
429.482	24.42
429.842	24.66
430.202	24.81
430.563	24.85
430.923	24.88
431.283	24.92
431.643	24.99
432.003	24.93
432.363	25.28
432.722	25.22
433.082	25.01
433.442	25.21
433.802	25.33
434.161	25.35
434.521	25.28
434.881	25.24
435.24	25.25
435.6	25.33
435.959	25.23
436.319	25.25
436.678	25.39
437.037	25.44
437.396	25.59
437.756	25.62
438.115	25.57
438.474	25.71
438.833	25.7
439.192	25.74
439.551	25.91
439.91	25.85
440.269	25.85
440.628	25.96
440.987	25.82
441.345	25.82
441.704	26.02
442.063	25.92
442.421	26.08
442.78	25.88
443.138	25.82
443.497	26.1
443.855	26.07
444.214	26.07
444.572	26.35
444.93	26.23
445.288	26.39
445.647	26.7
446.005	26.46
446.363	26.52
446.721	26.37
447.079	26.56
447.437	26.31
447.795	26.41
448.153	26.37
448.51	26.45
448.868	26.42
449.226	26.49
449.584	26.55
449.941	26.72
450.299	26.81
450.656	26.94
451.014	26.89
451.371	27.2
451.729	27.21
452.086	27.09
452.443	27.42
452.801	27.28
453.158	27.32
453.515	27.56
453.872	27.45
454.229	27.61
454.586	27.38
454.943	27.7
455.3	27.76
455.657	27.76
456.014	27.98
456.371	27.8
456.727	28.09
457.084	28.03
457.441	28.1
457.797	28.02
458.154	28.16
458.51	28.05
458.867	28.19
459.223	28.11
459.58	28.22
459.936	28.37
460.292	28.21
460.648	27.99
461.005	28.18
461.361	28.07
461.717	27.91
462.073	28.02
462.429	28.08
462.785	28.38
463.141	28.43
463.496	28.62
463.852	28.56
464.208	28.67
464.564	28.88
464.919	28.95
465.275	29.05
465.631	29.1
465.986	28.85
466.342	29.22
466.697	29.42
467.052	29.01
467.408	29.1
467.763	29.4
468.118	29.03
468.473	29.18
468.829	29.2
469.184	29.55
469.539	29.27
469.894	29.25
470.249	29.52
470.603	29.45
470.958	29.52
471.313	29.66
471.668	29.66
472.023	29.85
472.377	29.93
472.732	29.74
473.086	29.82
473.441	29.75
473.795	29.75
474.15	29.86
474.504	29.98
474.859	29.91
475.213	30.33
475.567	30.15
475.921	30.14
476.275	30.16
476.63	30.33
476.984	30.29
477.338	30.43
477.692	30.26
478.045	30.37
478.399	30.3
478.753	30.26
479.107	30.43
479.461	30.29
479.814	30.51
480.168	30.56
480.521	30.52
480.875	30.41
481.228	30.64
481.582	30.56
481.935	30.61
482.289	30.6
482.642	30.73
482.995	30.7
483.348	30.65
483.701	30.51
484.055	30.33
484.408	30.41
484.761	30.13
485.114	30.05
485.466	29.96
485.819	30.09
486.172	30.08
486.525	29.98
486.878	30.08
487.23	30.31
487.583	30.38
487.936	30.61
488.288	30.55
488.641	30.57
488.993	30.38
489.345	30.29
489.698	30.45
490.05	30.48
490.402	30.56
490.754	30.76
491.107	30.87
491.459	31.03
491.811	31.13
492.163	31.34
492.515	31.22
492.866	31.1
493.218	31.01
493.57	31.04
493.922	30.95
494.274	31.19
494.625	31.26
494.977	31.58
495.328	31.7
495.68	31.83
496.031	32.09
496.383	32.25
496.734	32.23
497.086	32.2
497.437	32.43
497.788	32.31
498.139	32.23
498.49	32.31
498.842	32.37
499.193	32.26
499.544	32.25
499.894	32.41
500.245	32.35
500.596	32.73
500.947	32.38
501.298	32.67
501.648	32.65
501.999	32.97
502.35	32.95
502.7	33.09
503.051	33.11
503.401	33.03
503.752	33.06
504.102	33.06
504.452	33.32
504.803	33.39
505.153	33.46
505.503	33.23
505.853	33.46
506.203	33.29
506.553	33.42
506.903	33.53
507.253	33.44
507.603	33.46
507.953	33.54
508.303	33.53
508.652	33.4
509.002	33.73
509.352	33.72
509.701	33.56
510.051	33.69
510.4	33.67
510.75	33.53
511.099	33.63
511.449	33.68
511.798	33.8
512.147	33.77
512.496	33.87
512.846	34.05
513.195	33.83
513.544	34.11
513.893	33.98
514.242	34.11
514.591	34
514.939	34.16
515.288	34.13
515.637	34.41
515.986	34.33
516.334	34.51
516.683	34.49
517.032	34.5
517.38	34.62
517.729	34.54
518.077	34.58
518.426	34.58
518.774	34.52
519.122	34.59
519.47	34.6
519.819	34.63
520.167	34.47
520.515	34.48
520.863	34.33
521.211	34.51
521.559	34.52
521.907	34.64
522.255	34.69
522.602	34.86
522.95	35.17
523.298	35.24
523.645	35.12
523.993	35.25
524.341	35.19
524.688	35.34
525.036	35.42
525.383	35.33
525.73	35.37
526.078	35.49
526.425	35.41
526.772	35.27
527.119	35.31
527.466	35.12
527.814	35.33
528.161	35.09
528.508	35.33
528.854	35.31
529.201	35.37
529.548	35.19
529.895	34.96
530.242	34.86
530.588	35.16
530.935	35.23
531.282	35.05
531.628	35.16
531.975	35.32
532.321	35.42
532.667	35.63
533.014	35.79
533.36	35.83
533.706	35.82
534.052	35.89
534.399	35.9
534.745	35.66
535.091	35.65
535.437	35.67
535.783	35.74
536.129	35.91
536.474	36.08
536.82	36.2
537.166	36.31
537.512	36.42
537.857	36.35
538.203	36.37
538.549	36.41
538.894	36.42
539.239	36.48
539.585	36.49
539.93	36.75
540.276	37.05
540.621	36.94
540.966	37.04
541.311	37.06
541.656	36.97
542.001	36.89
542.346	36.77
542.691	36.57
543.036	36.52
543.381	36.47
543.726	36.56
544.071	36.62
544.415	36.77
544.76	36.72
545.105	36.93
545.449	37.11
545.794	37.17
546.138	37.38
546.483	37.39
546.827	37.31
547.171	37.57
547.516	37.51
547.86	37.63
548.204	37.49
548.548	37.56
548.892	37.46
549.236	37.81
549.58	37.86
549.924	37.91
550.268	38.24
550.612	38.16
550.956	38.31
551.3	38.21
551.643	38.66
551.987	38.51
552.33	38.65
552.674	38.69
553.017	38.81
553.361	38.48
553.704	38.73
554.048	38.67
554.391	38.63
554.734	38.91
555.077	38.67
555.42	38.86
555.764	38.67
556.107	38.83
556.45	38.91
556.793	39.02
557.135	39.26
557.478	39.22
557.821	39.41
558.164	39.26
558.507	39.31
558.849	39.35
559.192	39.32
559.534	39.51
559.877	39.63
560.219	39.76
560.562	39.25
560.904	39.69
561.246	39.71
561.589	39.89
561.931	39.75
562.273	39.72
562.615	40.09
562.957	39.64
563.299	39.93
563.641	39.79
563.983	39.96
564.325	40.06
564.667	40.19
565.008	40
565.35	39.82
565.692	40.08
566.033	40
566.375	40.34
566.716	40.23
567.058	40.31
567.399	40.21
567.741	40.16
568.082	40.1
568.423	40.25
568.764	40.26
569.105	40.15
569.447	40.39
569.788	40.37
570.129	40.33
570.47	40.59
570.811	40.72
571.151	40.78
571.492	40.79
571.833	40.68
572.174	40.59
572.514	40.86
572.855	40.88
573.195	40.82
573.536	40.88
573.876	41.01
574.217	40.85
574.557	40.93
574.898	40.76
575.238	40.84
575.578	40.86
575.918	41.1
576.258	41.03
576.598	41.09
576.938	41.33
577.278	41.33
577.618	41.26
577.958	41.43
578.298	41.3
578.638	41.5
578.977	41.47
579.317	41.51
579.657	41.63
579.996	41.69
580.336	41.98
580.675	41.81
581.014	42.01
581.354	41.98
581.693	41.99
582.032	42.2
582.372	41.78
582.711	42.21
583.05	41.87
583.389	42.26
583.728	42.14
584.067	42.22
584.406	42.32
584.745	42.29
585.083	42.6
585.422	42.46
585.761	42.46
586.1	42.62
586.438	42.79
586.777	42.32
587.115	42.88
587.454	42.97
587.792	42.53
588.13	42.32
588.469	42.71
588.807	42.82
589.145	43.04
589.483	42.72
589.821	42.88
590.159	42.59
590.497	43.05
590.835	42.82
591.173	42.66
591.511	42.86
591.849	43.23
592.187	43.09
592.524	43.08
592.862	43.2
593.2	43.02
593.537	43.03
593.875	43.24
594.212	43.34
594.55	43.56
594.887	43.45
595.224	43.34
595.561	43.89
595.899	43.4
596.236	43.33
596.573	43.06
596.91	43.58
597.247	43.7
597.584	43.21
597.921	43.46
598.258	43.43
598.594	43.62
598.931	43.39
599.268	43.32
599.604	43.62
599.941	43.52
600.277	43.6
600.614	43.37
600.95	43.91
601.287	43.61
601.623	44.17
601.959	43.86
602.296	44.36
602.632	44.3
602.968	44.27
603.304	44.31
603.64	44.38
603.976	44.29
604.312	44.26
604.648	44.4
604.984	43.98
605.319	44.09
605.655	44.12
605.991	44.05
606.326	43.93
606.662	44.2
606.998	44.12
607.333	44.48
607.668	44.32
608.004	44.48
608.339	44.57
608.674	44.63
609.01	44.44
609.345	44.71
609.68	44.76
610.015	44.8
610.35	44.99
610.685	44.95
611.02	44.78
611.355	44.95
611.689	44.81
612.024	45.05
612.359	44.68
612.694	44.65
613.028	44.82
613.363	45.01
613.697	45.11
614.032	45.43
614.366	44.97
614.7	45.17
615.035	45.28
615.369	45.66
615.703	45.66
616.037	45.54
616.371	45.68
616.705	45.61
617.039	45.81
617.373	45.58
617.707	45.38
618.041	45.58
618.375	46.18
618.709	45.59
619.042	45.8
619.376	46.12
619.71	46.12
620.043	46.07
620.377	45.64
620.71	46.15
621.043	46.06
621.377	45.66
621.71	46.78
622.043	46.11
622.376	46.13
622.709	46.3
623.043	46.08
623.376	46.27
623.709	46.37
624.041	46.63
624.374	46.54
624.707	46.16
625.04	46.68
625.373	46.29
625.705	46.27
626.038	46.58
626.37	46.4
626.703	46.28
627.035	46.68
627.368	46.65
627.7	46.92
628.032	46.97
628.365	46.85
628.697	46.41
629.029	46.66
629.361	46.84
629.693	46.44
630.025	46.49
630.357	46.48
630.689	46.41
631.021	47.04
631.353	47
631.684	46.85
632.016	47.01
632.348	47.41
632.679	46.76
633.011	47.59
633.342	47.08
633.674	47.1
634.005	47.34
634.336	46.99
634.668	47.36
634.999	47.3
635.33	47.61
635.661	47.22
635.992	47.29
636.323	47.62
636.654	47.4
636.985	47.58
637.316	47.81
637.647	47.37
637.977	47.85
638.308	47.65
638.639	47.72
638.969	47.55
639.3	47.52
639.63	47.68
639.961	47.52
640.291	48.38
640.622	47.63
640.952	47.75
641.282	47.56
641.612	48.15
641.943	48.19
642.273	47.94
642.603	48.08
642.933	48.06
643.263	48.41
643.592	47.39
643.922	48.36
644.252	48.3
644.582	47.92
644.911	48.47
645.241	48.97
645.571	48.27
645.9	48.37
646.23	48.12
646.559	48.54
646.888	48.89
647.218	48.78
647.547	48.19
647.876	48.4
648.205	48.77
648.534	48.87
648.863	48.69
649.192	48.98
649.521	48.35
649.85	48.2
650.179	48.63
650.508	49.55
650.837	49.02
651.165	48.54
651.494	48.61
651.822	48.67
652.151	48.49
652.479	48.65
652.808	49.28
653.136	48.99
653.465	49.64
653.793	48.95
654.121	48.79
654.449	49.38
654.777	49.18
655.105	49.6
655.433	48.26
655.761	48.77
656.089	49.24
656.417	48.86
656.745	49.08
657.073	49.06
657.4	49.26
657.728	49.43
658.056	49.39
658.383	49.54
658.711	49.22
659.038	49.1
659.365	49.34
659.693	49.25
660.02	50.04
660.347	48.9
660.674	49.34
661.001	49.28
661.329	48.97
661.656	49.63
661.982	49.59
662.309	49.15
662.636	49.53
662.963	50.54
663.29	49.48
663.616	49.2
663.943	49.8
664.27	50.09
664.596	50.33
664.923	50.07
665.249	50.16
665.576	50.08
665.902	49.27
666.228	50.29
666.554	50.24
666.881	49.5
667.207	50.26
667.533	50.15
667.859	50.08
668.185	50.74
668.511	50.84
668.837	50.14
