Data from 1710-1_chest_Reflection__0__15.txt Node

Date: Fri Oct 07 15:12:15 CDT 2022
User: ToomeyLab
Spectrometer: FLMS14357
Trigger mode: 0
Integration Time (sec): 1.000000E-2
Scans to average: 100
Electric dark correction enabled: true
Nonlinearity correction enabled: false
Boxcar width: 0
XAxis mode: Wavelengths
Number of Pixels in Spectrum: 2048
>>>>>Begin Spectral Data<<<<<
189.047	95.38
189.435	95.38
189.823	95.38
190.211	-46.67
190.599	345.32
190.987	108.91
191.375	214.97
191.763	-219.51
192.151	-45.65
192.538	173.47
192.926	-935.43
193.314	-17.89
193.702	-2562.19
194.089	278.65
194.477	-625.57
194.864	194.1
195.252	601.98
195.639	-65.62
196.027	-114.72
196.414	42.75
196.801	-74.13
197.189	165.65
197.576	-2453.62
197.963	29.66
198.351	-27.34
198.738	57.11
199.125	21.68
199.512	2.15
199.899	-6.46
200.286	21.72
200.673	-25.57
201.06	14.32
201.447	35.85
201.833	11.91
202.22	55.98
202.607	54.48
202.994	5.01
203.38	-0.02
203.767	27.68
204.154	9.67
204.54	25.73
204.927	26.86
205.313	28.26
205.699	31.32
206.086	-20.86
206.472	45.82
206.858	-5.42
207.245	19.85
207.631	-20.25
208.017	-6.23
208.403	37.36
208.789	3.18
209.175	-36.87
209.561	32.39
209.947	22.04
210.333	4.54
210.719	12.7
211.105	30.97
211.491	-9.72
211.876	6.8
212.262	17.98
212.648	27.73
213.034	5.62
213.419	10.89
213.805	16.76
214.19	14.78
214.576	17.56
214.961	21.8
215.346	-1.48
215.732	33.25
216.117	1.26
216.502	8.64
216.888	-15.94
217.273	-0.94
217.658	9.97
218.043	-2.83
218.428	-3.32
218.813	12.36
219.198	5.19
219.583	27.68
219.968	4.17
220.353	0.3
220.738	16
221.122	6.34
221.507	-8.67
221.892	-1.32
222.276	-5.53
222.661	15.99
223.046	10.65
223.43	8.85
223.815	11.84
224.199	6.03
224.583	9.42
224.968	-6.58
225.352	1.51
225.736	-1.34
226.121	8.28
226.505	4.79
226.889	-1.14
227.273	6.39
227.657	2.83
228.041	2.56
228.425	2.76
228.809	3.85
229.193	2.81
229.577	3.31
229.961	1.57
230.344	2.18
230.728	2.22
231.112	3.13
231.495	3.6
231.879	2.36
232.263	2.22
232.646	2.51
233.03	2.59
233.413	2.93
233.797	4.03
234.18	2.35
234.563	3.61
234.946	1.36
235.33	2.94
235.713	1.95
236.096	1.95
236.479	3.12
236.862	2.55
237.245	2.41
237.628	3.12
238.011	2.81
238.394	2.31
238.777	2.3
239.16	4.61
239.543	1.63
239.925	4.95
240.308	3.24
240.691	2.38
241.073	1.24
241.456	2.85
241.838	4.32
242.221	3.69
242.603	2.48
242.986	2.66
243.368	2.48
243.75	2.82
244.133	2.5
244.515	2.77
244.897	2.53
245.279	2.48
245.661	2.74
246.043	2.41
246.425	2.93
246.807	2.77
247.189	2.95
247.571	2.8
247.953	2.57
248.335	2.42
248.717	2.35
249.098	2.18
249.48	2.4
249.862	2.61
250.243	2.69
250.625	2.75
251.006	2.76
251.388	2.88
251.769	2.75
252.151	2.95
252.532	3.88
252.913	2.41
253.295	3.04
253.676	2.59
254.057	2.32
254.438	2.39
254.819	3.05
255.2	3.22
255.581	2.53
255.962	2.88
256.343	2.86
256.724	2.55
257.105	3.43
257.486	3.65
257.867	2.25
258.247	4.24
258.628	2.15
259.009	2.84
259.389	2.78
259.77	2.59
260.15	1.89
260.531	2.44
260.911	2.24
261.292	2.25
261.672	2.41
262.052	2.21
262.432	2.03
262.813	2.54
263.193	2.72
263.573	2.25
263.953	2.67
264.333	1.95
264.713	2.28
265.093	2.26
265.473	3.08
265.853	2.1
266.233	3.26
266.612	2.93
266.992	2.57
267.372	2.45
267.752	2.01
268.131	2.5
268.511	2.23
268.89	1.67
269.27	2.3
269.649	2.4
270.029	2.94
270.408	1.79
270.787	1.98
271.167	2.59
271.546	2.42
271.925	2.18
272.304	2.27
272.683	2.05
273.062	2.05
273.441	2.47
273.82	2.56
274.199	2.27
274.578	2.39
274.957	2.15
275.336	2.7
275.715	2.61
276.093	2.71
276.472	2.37
276.851	2.48
277.229	1.44
277.608	2.79
277.986	2.18
278.365	2.64
278.743	2.44
279.122	2.5
279.5	2.35
279.878	2.48
280.257	2.59
280.635	2.72
281.013	1.91
281.391	2.15
281.769	2.26
282.147	1.96
282.525	2.56
282.903	2.31
283.281	2.49
283.659	2.77
284.037	2.41
284.415	2.74
284.792	2.48
285.17	2.12
285.548	2.15
285.925	2.32
286.303	2.14
286.68	1.9
287.058	1.96
287.435	2.3
287.813	2.5
288.19	2.47
288.567	2.54
288.945	2.09
289.322	2.29
289.699	2.18
290.076	2.53
290.453	2.42
290.83	2.4
291.207	2.81
291.584	2.85
291.961	2.21
292.338	2.74
292.715	2.55
293.092	2.66
293.469	2.68
293.845	2.59
294.222	2.82
294.599	2.08
294.975	2.24
295.352	3.04
295.728	2.77
296.105	3.16
296.481	2.47
296.858	2.58
297.234	2.39
297.61	2.45
297.986	2.77
298.363	2.85
298.739	2.5
299.115	2.34
299.491	2.44
299.867	2.5
300.243	2.28
300.619	2.77
300.995	2.23
301.371	2.31
301.746	2.6
302.122	2.35
302.498	2.89
302.874	2.35
303.249	2.59
303.625	2.65
304	2.88
304.376	2.39
304.751	2.47
305.127	2.35
305.502	2.69
305.878	2.62
306.253	2.05
306.628	2.81
307.003	2.8
307.378	3.3
307.754	2.13
308.129	2.61
308.504	2.26
308.879	2.68
309.254	2.27
309.629	2.35
310.003	2.76
310.378	3.2
310.753	2.58
311.128	2.7
311.502	2.78
311.877	2.71
312.252	2.41
312.626	2.77
313.001	2.79
313.375	2.53
313.75	2.89
314.124	2.68
314.498	2.76
314.873	3.01
315.247	2.37
315.621	2.27
315.995	2.47
316.369	2.9
316.743	2.53
317.117	2.53
317.491	2.69
317.865	2.5
318.239	2.47
318.613	2.91
318.987	3.09
319.361	3.3
319.734	2.78
320.108	2.78
320.482	2.83
320.855	2.82
321.229	3.3
321.602	2.65
321.976	2.63
322.349	3.02
322.723	2.42
323.096	2.96
323.469	2.69
323.843	3.4
324.216	2.84
324.589	3.66
324.962	3.23
325.335	2.64
325.708	2.43
326.081	2.79
326.454	3.05
326.827	3.2
327.2	2.97
327.573	3.25
327.945	3.02
328.318	2.48
328.691	2.85
329.063	2.84
329.436	2.85
329.809	3.4
330.181	3.24
330.553	2.66
330.926	3.3
331.298	2.71
331.671	3
332.043	3.17
332.415	3.32
332.787	2.83
333.159	3.12
333.532	2.73
333.904	3.23
334.276	2.81
334.648	2.86
335.02	2.93
335.391	3.13
335.763	3.43
336.135	3.34
336.507	3.48
336.879	3.24
337.25	3.07
337.622	3.52
337.993	3.25
338.365	3.31
338.736	3.14
339.108	3.21
339.479	2.81
339.851	2.89
340.222	2.83
340.593	2.84
340.964	3.22
341.336	2.92
341.707	3.19
342.078	3.08
342.449	3.2
342.82	3.16
343.191	2.99
343.562	3.09
343.933	3.15
344.303	2.9
344.674	3.39
345.045	2.94
345.416	3.04
345.786	3.45
346.157	3.16
346.527	2.91
346.898	3.09
347.268	2.72
347.639	3.01
348.009	3.22
348.38	3.41
348.75	3.59
349.12	3.35
349.49	2.68
349.861	2.86
350.231	3.04
350.601	2.95
350.971	3.62
351.341	3.07
351.711	3.41
352.081	3.29
352.45	2.99
352.82	3.18
353.19	3.39
353.56	2.77
353.929	2.85
354.299	3.48
354.669	2.87
355.038	2.51
355.408	3.31
355.777	3.17
356.147	3.18
356.516	2.82
356.885	3.54
357.254	3.14
357.624	3.23
357.993	2.92
358.362	3.25
358.731	2.95
359.1	3.1
359.469	3.23
359.838	2.94
360.207	3.15
360.576	2.92
360.945	3.61
361.314	3.18
361.682	3.1
362.051	2.93
362.42	3.46
362.788	3.07
363.157	2.95
363.525	3.08
363.894	3.13
364.262	3.08
364.631	2.86
364.999	3.02
365.367	2.83
365.735	2.99
366.104	3.22
366.472	3.14
366.84	2.71
367.208	3.17
367.576	3.19
367.944	3.24
368.312	3.19
368.68	3.02
369.048	3.61
369.416	3.46
369.783	3.21
370.151	3.41
370.519	2.88
370.886	3.05
371.254	3.15
371.621	3.12
371.989	3.4
372.356	3.15
372.724	3.28
373.091	3.18
373.458	3.22
373.826	2.75
374.193	3.31
374.56	3.25
374.927	3.15
375.294	3.28
375.661	3.17
376.028	3.17
376.395	3.45
376.762	3.15
377.129	2.99
377.496	3.35
377.863	3.5
378.229	3.36
378.596	3.36
378.963	3.38
379.329	3.36
379.696	3.02
380.062	3.25
380.429	3.19
380.795	3.29
381.161	3.01
381.528	3.21
381.894	3.71
382.26	3.21
382.626	3.38
382.993	3.68
383.359	3
383.725	3.44
384.091	3.34
384.457	3.41
384.823	3.37
385.188	3.22
385.554	3.33
385.92	3.65
386.286	3.31
386.651	3.1
387.017	3.45
387.383	3.15
387.748	3.15
388.114	3.39
388.479	3.42
388.845	3.39
389.21	3.34
389.575	3.05
389.94	3.3
390.306	3.27
390.671	3.52
391.036	3.35
391.401	3.29
391.766	3.23
392.131	3.37
392.496	3.16
392.861	3.35
393.226	3.35
393.591	3.13
393.956	3.46
394.32	3.27
394.685	3.43
395.05	3.17
395.414	3.39
395.779	3.3
396.143	3.29
396.508	3.32
396.872	3.18
397.236	3.6
397.601	3.22
397.965	3.43
398.329	3.17
398.694	3.29
399.058	3.39
399.422	3.38
399.786	3.29
400.15	3.38
400.514	3.22
400.878	3.33
401.242	3.18
401.605	3.28
401.969	3.13
402.333	3.43
402.697	3.23
403.06	3.71
403.424	3.48
403.787	3.62
404.151	3.46
404.514	3.46
404.878	3.54
405.241	3.33
405.604	3.54
405.968	3.48
406.331	3.29
406.694	3.37
407.057	3.37
407.42	3.43
407.783	3.37
408.146	3.42
408.509	3.48
408.872	3.39
409.235	3.4
409.598	3.43
409.961	3.68
410.323	3.53
410.686	3.12
411.049	3.27
411.411	3.56
411.774	3.45
412.136	3.42
412.499	3.52
412.861	3.16
413.223	3.4
413.586	3.34
413.948	3.38
414.31	3.34
414.672	3.4
415.035	3.56
415.397	3.48
415.759	3.38
416.121	3.34
416.483	3.57
416.845	3.36
417.206	3.58
417.568	3.57
417.93	3.27
418.292	3.5
418.653	3.54
419.015	3.49
419.377	3.37
419.738	3.33
420.1	3.37
420.461	3.57
420.822	3.49
421.184	3.37
421.545	3.37
421.906	3.54
422.267	3.32
422.629	3.4
422.99	3.23
423.351	3.34
423.712	3.55
424.073	3.46
424.434	3.43
424.795	3.25
425.155	3.44
425.516	3.35
425.877	3.43
426.238	3.39
426.598	3.28
426.959	3.42
427.32	3.54
427.68	3.43
428.041	3.48
428.401	3.75
428.761	3.62
429.122	3.48
429.482	3.42
429.842	3.36
430.202	3.65
430.563	3.67
430.923	3.49
431.283	3.55
431.643	3.72
432.003	3.58
432.363	3.81
432.722	3.63
433.082	3.53
433.442	3.5
433.802	3.77
434.161	3.7
434.521	3.6
434.881	3.5
435.24	3.64
435.6	3.52
435.959	3.52
436.319	3.55
436.678	3.59
437.037	3.55
437.396	3.66
437.756	3.52
438.115	3.64
438.474	3.55
438.833	3.7
439.192	3.57
439.551	3.67
439.91	3.66
440.269	3.49
440.628	3.58
440.987	3.62
441.345	3.57
441.704	3.46
442.063	3.59
442.421	3.58
442.78	3.53
443.138	3.53
443.497	3.57
443.855	3.64
444.214	3.68
444.572	3.64
444.93	3.63
445.288	3.39
445.647	3.78
446.005	3.68
446.363	3.73
446.721	3.64
447.079	3.74
447.437	3.61
447.795	3.64
448.153	3.49
448.51	3.63
448.868	3.57
449.226	3.58
449.584	3.64
449.941	3.65
450.299	3.72
450.656	3.61
451.014	3.69
451.371	3.74
451.729	3.69
452.086	3.73
452.443	3.79
452.801	3.83
453.158	3.76
453.515	3.77
453.872	3.69
454.229	3.75
454.586	3.68
454.943	3.82
455.3	3.68
455.657	3.98
456.014	3.94
456.371	3.85
456.727	3.93
457.084	3.81
457.441	3.83
457.797	3.96
458.154	3.58
458.51	3.95
458.867	3.78
459.223	3.79
459.58	3.8
459.936	3.95
460.292	3.7
460.648	3.79
461.005	3.84
461.361	3.75
461.717	3.76
462.073	3.72
462.429	3.72
462.785	3.87
463.141	3.78
463.496	3.94
463.852	3.87
464.208	3.84
464.564	3.66
464.919	3.93
465.275	4.01
465.631	3.97
465.986	4
466.342	4.01
466.697	4.14
467.052	3.84
467.408	3.82
467.763	3.97
468.118	3.86
468.473	3.95
468.829	3.9
469.184	4.11
469.539	3.98
469.894	3.74
470.249	3.93
470.603	4.04
470.958	3.93
471.313	4.05
471.668	3.93
472.023	4.22
472.377	4.2
472.732	3.94
473.086	3.93
473.441	3.98
473.795	4.07
474.15	3.9
474.504	4.16
474.859	3.98
475.213	4
475.567	4.04
475.921	3.99
476.275	3.98
476.63	4.01
476.984	3.93
477.338	4.07
477.692	4.2
478.045	4.06
478.399	4.18
478.753	4.07
479.107	4.16
479.461	4.17
479.814	4.03
480.168	3.99
480.521	4.06
480.875	4.07
481.228	3.92
481.582	4.11
481.935	4.06
482.289	4.04
482.642	4.08
482.995	4.18
483.348	4.07
483.701	4.11
484.055	3.99
484.408	4.04
484.761	3.9
485.114	3.87
485.466	3.78
485.819	3.79
486.172	3.83
486.525	3.9
486.878	3.97
487.23	4.08
487.583	4.05
487.936	4.03
488.288	4.03
488.641	3.98
488.993	3.94
489.345	3.96
489.698	3.92
490.05	3.98
490.402	4.02
490.754	4.03
491.107	4.13
491.459	4.17
491.811	4.25
492.163	4.27
492.515	4.15
492.866	4.08
493.218	4.06
493.57	4.01
493.922	4.07
494.274	4.14
494.625	4.15
494.977	4.25
495.328	4.25
495.68	4.33
496.031	4.38
496.383	4.31
496.734	4.15
497.086	4.35
497.437	4.41
497.788	4.34
498.139	4.39
498.49	4.34
498.842	4.33
499.193	4.36
499.544	4.37
499.894	4.37
500.245	4.36
500.596	4.42
500.947	4.27
501.298	4.35
501.648	4.35
501.999	4.5
502.35	4.44
502.7	4.5
503.051	4.46
503.401	4.59
503.752	4.45
504.102	4.55
504.452	4.55
504.803	4.64
505.153	4.5
505.503	4.5
505.853	4.6
506.203	4.44
506.553	4.67
506.903	4.53
507.253	4.61
507.603	4.7
507.953	4.56
508.303	4.53
508.652	4.59
509.002	4.65
509.352	4.63
509.701	4.63
510.051	4.51
510.4	4.6
510.75	4.57
511.099	4.56
511.449	4.7
511.798	4.73
512.147	4.63
512.496	4.64
512.846	4.78
513.195	4.61
513.544	4.63
513.893	4.78
514.242	4.73
514.591	4.72
514.939	4.84
515.288	4.8
515.637	4.83
515.986	4.89
516.334	4.93
516.683	4.71
517.032	4.72
517.38	4.77
517.729	4.66
518.077	4.74
518.426	4.72
518.774	4.83
519.122	4.84
519.47	4.78
519.819	4.76
520.167	4.65
520.515	4.67
520.863	4.79
521.211	4.76
521.559	4.78
521.907	4.84
522.255	4.74
522.602	4.9
522.95	5
523.298	5.02
523.645	5.02
523.993	4.94
524.341	5
524.688	4.98
525.036	5.04
525.383	5.01
525.73	5.1
526.078	5.06
526.425	5.06
526.772	4.96
527.119	4.99
527.466	4.97
527.814	5.03
528.161	5
528.508	4.92
528.854	5.03
529.201	5.03
529.548	5.02
529.895	4.89
530.242	4.84
530.588	4.87
530.935	4.95
531.282	5.02
531.628	5.06
531.975	5.1
532.321	5.18
532.667	5.21
533.014	5.15
533.36	5.26
533.706	5.22
534.052	5.26
534.399	5.33
534.745	5.15
535.091	5.11
535.437	5.15
535.783	5.18
536.129	5.31
536.474	5.33
536.82	5.29
537.166	5.41
537.512	5.5
537.857	5.35
538.203	5.35
538.549	5.29
538.894	5.35
539.239	5.47
539.585	5.43
539.93	5.6
540.276	5.59
540.621	5.66
540.966	5.55
541.311	5.65
541.656	5.6
542.001	5.59
542.346	5.61
542.691	5.44
543.036	5.41
543.381	5.39
543.726	5.47
544.071	5.54
544.415	5.57
544.76	5.66
545.105	5.57
545.449	5.69
545.794	5.74
546.138	5.84
546.483	5.79
546.827	5.8
547.171	5.89
547.516	5.81
547.86	5.83
548.204	5.85
548.548	5.91
548.892	5.91
549.236	6.09
549.58	6.06
549.924	6.03
550.268	6.11
550.612	6
550.956	6.18
551.3	6.17
551.643	6.16
551.987	6.23
552.33	6.34
552.674	6.23
553.017	6.37
553.361	6.34
553.704	6.36
554.048	6.24
554.391	6.11
554.734	6.26
555.077	6.4
555.42	6.29
555.764	6.36
556.107	6.24
556.45	6.42
556.793	6.57
557.135	6.45
557.478	6.44
557.821	6.38
558.164	6.52
558.507	6.58
558.849	6.61
559.192	6.63
559.534	6.51
559.877	6.72
560.219	6.88
560.562	6.49
560.904	6.76
561.246	6.77
561.589	6.73
561.931	6.69
562.273	7.04
562.615	6.89
562.957	6.94
563.299	6.98
563.641	6.87
563.983	6.83
564.325	7.04
564.667	7
565.008	7.12
565.35	6.9
565.692	6.96
566.033	7.16
566.375	7.41
566.716	7.18
567.058	7.12
567.399	7.07
567.741	7.16
568.082	7.12
568.423	7.17
568.764	7.17
569.105	7.09
569.447	7.39
569.788	7.07
570.129	7.31
570.47	7.5
570.811	7.43
571.151	7.43
571.492	7.42
571.833	7.29
572.174	7.46
572.514	7.59
572.855	7.44
573.195	7.47
573.536	7.54
573.876	7.54
574.217	7.62
574.557	7.62
574.898	7.65
575.238	7.83
575.578	7.78
575.918	7.74
576.258	7.86
576.598	7.86
576.938	7.81
577.278	7.99
577.618	7.65
577.958	8.14
578.298	7.95
578.638	7.93
578.977	8
579.317	8.16
579.657	8.25
579.996	8.38
580.336	8.29
580.675	8.24
581.014	8.16
581.354	8.24
581.693	8.2
582.032	8.34
582.372	8.25
582.711	8.48
583.05	8.23
583.389	8.51
583.728	8.44
584.067	8.33
584.406	8.55
584.745	8.59
585.083	8.71
585.422	8.64
585.761	8.82
586.1	8.81
586.438	9.02
586.777	8.76
587.115	8.88
587.454	8.87
587.792	8.87
588.13	8.64
588.469	8.9
588.807	9.03
589.145	9.01
589.483	9.08
589.821	9.06
590.159	8.89
590.497	9.02
590.835	9.07
591.173	9.01
591.511	9.39
591.849	9.22
592.187	9.26
592.524	9.36
592.862	9.37
593.2	9.48
593.537	9.35
593.875	9.43
594.212	9.38
594.55	9.34
594.887	9.35
595.224	9.59
595.561	9.73
595.899	9.51
596.236	9.87
596.573	9.66
596.91	9.7
597.247	9.69
597.584	9.66
597.921	9.83
598.258	9.79
598.594	9.77
598.931	9.85
599.268	9.82
599.604	9.92
599.941	9.8
600.277	9.96
600.614	9.7
600.95	10.28
601.287	10.38
601.623	10.25
601.959	10.1
602.296	10.54
602.632	10.08
602.968	10.28
603.304	10.41
603.64	10.4
603.976	10.5
604.312	10.71
604.648	10.51
604.984	10.63
605.319	10.62
605.655	10.71
605.991	10.56
606.326	10.68
606.662	10.52
606.998	10.69
607.333	10.86
607.668	10.89
608.004	10.83
608.339	11
608.674	11.1
609.01	11.1
609.345	11.09
609.68	11.07
610.015	11.47
610.35	11.04
610.685	11.22
611.02	11.2
611.355	11.2
611.689	11.36
612.024	11.27
612.359	11.58
612.694	11.27
613.028	11.4
613.363	11.47
613.697	11.29
614.032	11.44
614.366	11.19
614.7	11.63
615.035	11.91
615.369	11.75
615.703	11.8
616.037	11.39
616.371	11.63
616.705	11.86
617.039	12.18
617.373	12.09
617.707	11.72
618.041	12.24
618.375	12.09
618.709	12.23
619.042	12.55
619.376	12.42
619.71	12.26
620.043	12.16
620.377	12.03
620.71	12.54
621.043	12.65
621.377	12.46
621.71	12.69
622.043	12.26
622.376	12.65
622.709	12.74
623.043	12.43
623.376	12.72
623.709	12.72
624.041	12.81
624.374	12.89
624.707	12.69
625.04	13.17
625.373	12.71
625.705	13.16
626.038	13.14
626.37	12.99
626.703	12.82
627.035	13.15
627.368	13.06
627.7	13.18
628.032	13.04
628.365	13.39
628.697	13.34
629.029	13.38
629.361	13.47
629.693	12.92
630.025	13.58
630.357	13.27
630.689	13.69
631.021	13.68
631.353	13.6
631.684	13.38
632.016	13.69
632.348	14.1
632.679	13.68
633.011	13.95
633.342	13.8
633.674	13.72
634.005	13.81
634.336	13.79
634.668	13.91
634.999	14.03
635.33	13.93
635.661	14.17
635.992	13.78
636.323	13.98
636.654	14.1
636.985	14.29
637.316	14.45
637.647	14.32
637.977	14.57
638.308	14.74
638.639	14.41
638.969	14.71
639.3	14.36
639.63	14.83
639.961	14.69
640.291	15.05
640.622	14.87
640.952	14.6
641.282	14.86
641.612	14.73
641.943	15.19
642.273	15.06
642.603	15.28
642.933	15.08
643.263	15.11
643.592	15.15
643.922	15.33
644.252	15.64
644.582	15.8
644.911	16.08
645.241	15.57
645.571	15.21
645.9	15.46
646.23	15.27
646.559	15.97
646.888	15.72
647.218	15.93
647.547	15.82
647.876	15.45
648.205	16.02
648.534	16.13
648.863	15.81
649.192	15.89
649.521	16.18
649.85	15.83
650.179	15.9
650.508	16.39
650.837	16.24
651.165	16.49
651.494	16.29
651.822	16.08
652.151	16.32
652.479	16
652.808	16.71
653.136	16.15
653.465	16.97
653.793	16.37
654.121	17.03
654.449	17.17
654.777	16.61
655.105	16.85
655.433	16.58
655.761	16.63
656.089	16.94
656.417	16.8
656.745	16.66
657.073	17.06
657.4	16.9
657.728	16.81
658.056	16.82
658.383	16.89
658.711	17.07
659.038	17.84
659.365	17.12
659.693	17.46
660.02	17.39
660.347	17.24
660.674	17.14
661.001	17.49
661.329	17.25
661.656	17.43
661.982	17.23
662.309	17.67
662.636	18.23
662.963	17.5
663.29	17.71
663.616	17.79
663.943	17.96
664.27	18.16
664.596	17.52
664.923	17.7
665.249	18
665.576	18.33
665.902	18.62
666.228	18.41
666.554	18.2
666.881	18.4
667.207	18.94
667.533	18.54
667.859	18.08
668.185	18.36
668.511	18.65
668.837	18.79
669.162	18.96
669.488	18.42
669.814	18.79
670.139	18.62
670.465	18.51
670.791	19.03
671.116	18.41
671.442	18.74
671.767	19.45
672.092	19.44
672.418	19.27
672.743	19.42
673.068	19.4
673.393	19.06
673.718	19.68
674.043	19.09
674.368	18.87
674.693	19.64
675.018	19.33
675.343	19.12
675.667	19.92
675.992	19.44
676.317	20.32
676.641	20.21
676.966	19.82
677.29	20.02
677.615	19.27
677.939	19.81
678.264	20
678.588	20.36
678.912	20.2
679.236	20.24
679.56	20.41
679.885	20.03
680.209	20.12
680.532	20.54
680.856	20.07
681.18	20.1
681.504	20.11
681.828	19.96
682.152	20.02
682.475	20.96
682.799	20.53
683.122	20.33
683.446	20.75
683.769	20.89
684.093	20.85
684.416	20
684.739	20.98
685.062	21.33
685.386	20.65
685.709	21.7
686.032	21.69
686.355	20.8
686.678	21.46
