Data from 1710-1_crown_Reflection__1__21.txt Node

Date: Fri Oct 07 15:14:33 CDT 2022
User: ToomeyLab
Spectrometer: FLMS14357
Trigger mode: 0
Integration Time (sec): 1.000000E-2
Scans to average: 100
Electric dark correction enabled: true
Nonlinearity correction enabled: false
Boxcar width: 0
XAxis mode: Wavelengths
Number of Pixels in Spectrum: 2048
>>>>>Begin Spectral Data<<<<<
189.047	131.04
189.435	131.04
189.823	131.04
190.211	-43.35
190.599	-240.89
190.987	50.74
191.375	301.39
191.763	-61.75
192.151	64.75
192.538	41.09
192.926	322.83
193.314	110.56
193.702	-1128.27
194.089	135.11
194.477	329.13
194.864	147.35
195.252	975.68
195.639	-139.87
196.027	130.03
196.414	46.71
196.801	-44.62
197.189	-115.1
197.576	-2305.8
197.963	111.14
198.351	22.63
198.738	7.94
199.125	33.15
199.512	-23.84
199.899	8.94
200.286	10.73
200.673	-21.46
201.06	45.89
201.447	48.38
201.833	14.36
202.22	35.21
202.607	33.94
202.994	25.2
203.38	5.17
203.767	20.79
204.154	-22.07
204.54	17.11
204.927	40.6
205.313	9.97
205.699	14.8
206.086	3.79
206.472	61.3
206.858	12.51
207.245	10.1
207.631	17.75
208.017	27.99
208.403	34.56
208.789	27.47
209.175	-52.7
209.561	18.36
209.947	7.95
210.333	-1.77
210.719	16.24
211.105	33.05
211.491	27.94
211.876	0.33
212.262	14.91
212.648	42.72
213.034	39.21
213.419	20.47
213.805	5.8
214.19	-0.63
214.576	15.79
214.961	8.62
215.346	4.52
215.732	-13.85
216.117	31.26
216.502	24.62
216.888	-1.96
217.273	-2.73
217.658	-5.07
218.043	9.63
218.428	16.01
218.813	33.59
219.198	34.46
219.583	26.63
219.968	12.99
220.353	-0.77
220.738	-10.96
221.122	19.24
221.507	-15.42
221.892	9.36
222.276	9.53
222.661	12.46
223.046	15.18
223.43	7.39
223.815	9.33
224.199	2.91
224.583	12.77
224.968	-2.24
225.352	7.6
225.736	9.51
226.121	16.9
226.505	9.33
226.889	6.87
227.273	14.25
227.657	11.7
228.041	7.75
228.425	9.57
228.809	10.38
229.193	8.73
229.577	9.51
229.961	8.4
230.344	7.36
230.728	7.46
231.112	7.97
231.495	7.95
231.879	8.13
232.263	6.86
232.646	8.49
233.03	7.76
233.413	6.84
233.797	7.51
234.18	7.21
234.563	6.26
234.946	8.01
235.33	6
235.713	7.21
236.096	8.04
236.479	7.87
236.862	7.41
237.245	6.6
237.628	7.26
238.011	8.49
238.394	8.49
238.777	8.3
239.16	7.6
239.543	6.29
239.925	8.22
240.308	7.91
240.691	7.86
241.073	5.67
241.456	8.23
241.838	7.75
242.221	9
242.603	6.95
242.986	7.52
243.368	6.97
243.75	7.58
244.133	6.83
244.515	6.98
244.897	7.34
245.279	7.56
245.661	6.68
246.043	6.88
246.425	7.91
246.807	6.74
247.189	7.9
247.571	7.41
247.953	6.89
248.335	7.01
248.717	6.68
249.098	6.59
249.48	6.25
249.862	6.44
250.243	6.81
250.625	6.24
251.006	6.55
251.388	6.84
251.769	7.11
252.151	7.16
252.532	7.47
252.913	6.11
253.295	7.53
253.676	6.96
254.057	6.56
254.438	6.51
254.819	6.39
255.2	6.54
255.581	5.79
255.962	7.36
256.343	7.62
256.724	7
257.105	6.81
257.486	6.56
257.867	6.84
258.247	6.29
258.628	6.32
259.009	6.23
259.389	6.5
259.77	6.46
260.15	5.7
260.531	6.81
260.911	6.53
261.292	6.32
261.672	6.15
262.052	5.91
262.432	5.62
262.813	6.01
263.193	6.02
263.573	6.39
263.953	6.52
264.333	5.54
264.713	6.14
265.093	6.15
265.473	6.33
265.853	6.1
266.233	6.47
266.612	6.13
266.992	6.67
267.372	5.8
267.752	5.99
268.131	6.2
268.511	5.93
268.89	5.52
269.27	6.13
269.649	6.2
270.029	5.72
270.408	5.21
270.787	5.56
271.167	6.05
271.546	6.06
271.925	5.44
272.304	5.59
272.683	5.98
273.062	5.57
273.441	6
273.82	5.7
274.199	5.96
274.578	5.67
274.957	5.76
275.336	5.99
275.715	5.49
276.093	6.02
276.472	6.24
276.851	6.16
277.229	5.33
277.608	5.59
277.986	5.75
278.365	6.32
278.743	5.94
279.122	5.65
279.5	5.83
279.878	6.15
280.257	6.16
280.635	6.05
281.013	5.81
281.391	5.77
281.769	5.99
282.147	5.72
282.525	5.83
282.903	5.65
283.281	5.09
283.659	6.16
284.037	6.02
284.415	6.13
284.792	5.96
285.17	5.39
285.548	5.63
285.925	5.91
286.303	5.44
286.68	5.06
287.058	5.44
287.435	5.83
287.813	5.6
288.19	5.73
288.567	5.38
288.945	5.41
289.322	5.25
289.699	5.37
290.076	5.78
290.453	5.89
290.83	6.03
291.207	5.73
291.584	5.67
291.961	5.3
292.338	5.32
292.715	5.95
293.092	5.41
293.469	5.76
293.845	5.69
294.222	5.62
294.599	5.75
294.975	5.21
295.352	5.89
295.728	5.7
296.105	5.92
296.481	5.7
296.858	5.33
297.234	4.96
297.61	5.91
297.986	5.37
298.363	5.86
298.739	5.66
299.115	5.33
299.491	5.64
299.867	5.46
300.243	5.63
300.619	5.9
300.995	5.37
301.371	5.74
301.746	5.74
302.122	6.01
302.498	5.36
302.874	5.64
303.249	5.18
303.625	5.7
304	5.51
304.376	5.7
304.751	5.32
305.127	5.05
305.502	5.66
305.878	5.5
306.253	5.63
306.628	5.76
307.003	5.65
307.378	6.2
307.754	5.73
308.129	5.37
308.504	5.54
308.879	5.6
309.254	5.62
309.629	5.62
310.003	5.49
310.378	5.3
310.753	5.51
311.128	5.43
311.502	5.8
311.877	5.25
312.252	5.62
312.626	5.7
313.001	5.78
313.375	5.55
313.75	5.63
314.124	5.38
314.498	5.39
314.873	5.5
315.247	5.53
315.621	5.84
315.995	5.24
316.369	5.59
316.743	5.43
317.117	5.42
317.491	5.53
317.865	5.55
318.239	5.28
318.613	5.58
318.987	5.83
319.361	5.79
319.734	5.5
320.108	5.77
320.482	6.24
320.855	5.67
321.229	6.08
321.602	6
321.976	5.73
322.349	6.52
322.723	5.43
323.096	5.67
323.469	5.87
323.843	6.1
324.216	5.85
324.589	5.94
324.962	6.06
325.335	5.67
325.708	5.59
326.081	5.63
326.454	6.17
326.827	6.05
327.2	5.94
327.573	5.91
327.945	5.92
328.318	6.14
328.691	6.07
329.063	5.77
329.436	6.04
329.809	6.11
330.181	5.88
330.553	5.61
330.926	6.13
331.298	5.77
331.671	5.47
332.043	5.81
332.415	5.86
332.787	5.31
333.159	6.16
333.532	5.82
333.904	6.05
334.276	5.61
334.648	5.81
335.02	6.06
335.391	6.05
335.763	6.25
336.135	5.85
336.507	6.22
336.879	5.9
337.25	6.2
337.622	5.88
337.993	5.96
338.365	6.2
338.736	5.8
339.108	5.61
339.479	5.94
339.851	5.51
340.222	6.14
340.593	5.58
340.964	5.88
341.336	5.66
341.707	5.74
342.078	6.29
342.449	5.87
342.82	6.27
343.191	5.89
343.562	5.7
343.933	5.89
344.303	6.03
344.674	5.96
345.045	6.66
345.416	6.34
345.786	6.41
346.157	6.04
346.527	6.2
346.898	5.96
347.268	5.74
347.639	5.78
348.009	6.56
348.38	5.93
348.75	6.29
349.12	6.22
349.49	5.76
349.861	5.58
350.231	6.46
350.601	5.92
350.971	6.25
351.341	6.2
351.711	6.11
352.081	6.4
352.45	6.13
352.82	5.82
353.19	6.29
353.56	6.2
353.929	5.99
354.299	6.25
354.669	6.17
355.038	6.39
355.408	6.38
355.777	6.23
356.147	6.04
356.516	6.15
356.885	6.42
357.254	6.04
357.624	6.31
357.993	6.31
358.362	6.17
358.731	6.15
359.1	6.17
359.469	6.24
359.838	5.93
360.207	6.26
360.576	5.93
360.945	6.51
361.314	6.39
361.682	6.17
362.051	6.15
362.42	6.31
362.788	5.99
363.157	6.12
363.525	6.2
363.894	6.33
364.262	5.94
364.631	5.87
364.999	5.95
365.367	6.23
365.735	6.28
366.104	6.31
366.472	6.2
366.84	6.09
367.208	6.37
367.576	6.57
367.944	6.29
368.312	6.08
368.68	6.41
369.048	6.17
369.416	6.69
369.783	6.2
370.151	6.35
370.519	6.11
370.886	6.07
371.254	6.32
371.621	6.35
371.989	6.43
372.356	6.64
372.724	6.52
373.091	6.39
373.458	6.42
373.826	6.01
374.193	6.51
374.56	6.41
374.927	6.49
375.294	6.38
375.661	6.36
376.028	6.51
376.395	6.44
376.762	6.53
377.129	6.42
377.496	6.49
377.863	6.56
378.229	6.31
378.596	6.35
378.963	6.5
379.329	6.45
379.696	6.25
380.062	6.35
380.429	6.26
380.795	6.27
381.161	6.42
381.528	6.37
381.894	6.72
382.26	6.52
382.626	6.49
382.993	6.85
383.359	6.46
383.725	6.11
384.091	6.48
384.457	6.41
384.823	6.36
385.188	6.43
385.554	6.58
385.92	6.67
386.286	6.52
386.651	6.21
387.017	6.48
387.383	6.49
387.748	6.54
388.114	6.48
388.479	6.3
388.845	6.54
389.21	6.57
389.575	6.68
389.94	6.44
390.306	6.45
390.671	6.84
391.036	6.57
391.401	6.49
391.766	6.59
392.131	6.68
392.496	6.43
392.861	6.32
393.226	6.35
393.591	6.55
393.956	6.53
394.32	6.42
394.685	6.42
395.05	6.32
395.414	6.72
395.779	6.26
396.143	6.39
396.508	6.3
396.872	6.3
397.236	6.45
397.601	6.44
397.965	6.6
398.329	6.45
398.694	6.56
399.058	6.42
399.422	6.46
399.786	6.33
400.15	6.48
400.514	6.26
400.878	6.59
401.242	6.49
401.605	6.56
401.969	6.42
402.333	6.23
402.697	6.47
403.06	6.68
403.424	6.43
403.787	6.54
404.151	6.45
404.514	6.29
404.878	6.57
405.241	6.22
405.604	6.56
405.968	6.4
406.331	6.33
406.694	6.33
407.057	6.49
407.42	6.37
407.783	6.49
408.146	6.47
408.509	6.42
408.872	6.42
409.235	6.58
409.598	6.54
409.961	6.55
410.323	6.48
410.686	6.63
411.049	6.55
411.411	6.44
411.774	6.73
412.136	6.34
412.499	6.78
412.861	6.48
413.223	6.34
413.586	6.45
413.948	6.48
414.31	6.4
414.672	6.56
415.035	6.53
415.397	6.73
415.759	6.47
416.121	6.4
416.483	6.52
416.845	6.34
417.206	6.36
417.568	6.66
417.93	6.17
418.292	6.61
418.653	6.64
419.015	6.3
419.377	6.47
419.738	6.36
420.1	6.46
420.461	6.59
420.822	6.42
421.184	6.35
421.545	6.28
421.906	6.42
422.267	6.4
422.629	6.22
422.99	6.28
423.351	6.41
423.712	6.36
424.073	6.28
424.434	6.42
424.795	6.23
425.155	6.32
425.516	6.28
425.877	6.34
426.238	6.38
426.598	6.31
426.959	6.23
427.32	6.35
427.68	6.26
428.041	6.38
428.401	6.35
428.761	6.44
429.122	6.28
429.482	6.39
429.842	6.32
430.202	6.35
430.563	6.63
430.923	6.45
431.283	6.34
431.643	6.64
432.003	6.39
432.363	6.73
432.722	6.5
433.082	6.37
433.442	6.35
433.802	6.67
434.161	6.61
434.521	6.41
434.881	6.41
435.24	6.42
435.6	6.34
435.959	6.43
436.319	6.33
436.678	6.43
437.037	6.43
437.396	6.47
437.756	6.36
438.115	6.46
438.474	6.39
438.833	6.35
439.192	6.5
439.551	6.41
439.91	6.51
440.269	6.41
440.628	6.44
440.987	6.38
441.345	6.43
441.704	6.27
442.063	6.39
442.421	6.39
442.78	6.3
443.138	6.28
443.497	6.37
443.855	6.39
444.214	6.3
444.572	6.45
444.93	6.32
445.288	6.39
445.647	6.57
446.005	6.52
446.363	6.36
446.721	6.46
447.079	6.44
447.437	6.38
447.795	6.27
448.153	6.22
448.51	6.22
448.868	6.18
449.226	6.28
449.584	6.24
449.941	6.29
450.299	6.29
450.656	6.23
451.014	6.3
451.371	6.3
451.729	6.22
452.086	6.4
452.443	6.4
452.801	6.24
453.158	6.3
453.515	6.3
453.872	6.38
454.229	6.41
454.586	6.3
454.943	6.29
455.3	6.31
455.657	6.49
456.014	6.52
456.371	6.41
456.727	6.46
457.084	6.43
457.441	6.52
457.797	6.43
458.154	6.2
458.51	6.51
458.867	6.33
459.223	6.23
459.58	6.5
459.936	6.36
460.292	6.34
460.648	6.4
461.005	6.4
461.361	6.35
461.717	6.31
462.073	6.27
462.429	6.15
462.785	6.21
463.141	6.32
463.496	6.33
463.852	6.19
464.208	6.23
464.564	6.38
464.919	6.37
465.275	6.29
465.631	6.6
465.986	6.4
466.342	6.52
466.697	6.51
467.052	6.24
467.408	6.42
467.763	6.43
468.118	6.23
468.473	6.28
468.829	6.37
469.184	6.39
469.539	6.33
469.894	6.24
470.249	6.32
470.603	6.36
470.958	6.33
471.313	6.51
471.668	6.36
472.023	6.42
472.377	6.49
472.732	6.3
473.086	6.4
473.441	6.3
473.795	6.39
474.15	6.2
474.504	6.49
474.859	6.43
475.213	6.25
475.567	6.43
475.921	6.35
476.275	6.41
476.63	6.29
476.984	6.18
477.338	6.47
477.692	6.34
478.045	6.34
478.399	6.34
478.753	6.3
479.107	6.25
479.461	6.36
479.814	6.31
480.168	6.28
480.521	6.26
480.875	6.27
481.228	6.12
481.582	6.3
481.935	6.34
482.289	6.3
482.642	6.26
482.995	6.24
483.348	6.25
483.701	6.29
484.055	6.24
484.408	6.23
484.761	6.09
485.114	6.03
485.466	5.96
485.819	5.92
486.172	5.88
486.525	5.8
486.878	5.86
487.23	5.95
487.583	6
487.936	6.14
488.288	6.1
488.641	6.05
488.993	6.06
489.345	6
489.698	5.96
490.05	5.95
490.402	5.92
490.754	5.97
491.107	6.02
491.459	6.06
491.811	6.17
492.163	6.17
492.515	6.19
492.866	6
493.218	6.13
493.57	5.95
493.922	5.93
494.274	5.94
494.625	6.03
494.977	6.08
495.328	6.03
495.68	6.03
496.031	6.09
496.383	6.15
496.734	6.09
497.086	6.22
497.437	6.18
497.788	6.15
498.139	6.24
498.49	6.23
498.842	6.19
499.193	6.16
499.544	6.13
499.894	6.17
500.245	6.2
500.596	6.15
500.947	6.04
501.298	6.14
501.648	6.21
501.999	6.17
502.35	6.2
502.7	6.17
503.051	6.3
503.401	6.2
503.752	6.09
504.102	6.32
504.452	6.16
504.803	6.31
505.153	6.19
505.503	6.23
505.853	6.23
506.203	6.1
506.553	6.31
506.903	6.17
507.253	6.21
507.603	6.05
507.953	6.16
508.303	6.09
508.652	6.1
509.002	6.16
509.352	6.15
509.701	6.2
510.051	6.12
510.4	6.14
510.75	6.14
511.099	6.12
511.449	6.13
511.798	6.13
512.147	6.02
512.496	6.05
512.846	6.15
513.195	6.1
513.544	6.04
513.893	6.21
514.242	6.03
514.591	6.05
514.939	6.04
515.288	6.14
515.637	6.2
515.986	6.05
516.334	6.04
516.683	6.15
517.032	6.07
517.38	6.1
517.729	6.01
518.077	6.04
518.426	6.03
518.774	6.05
519.122	6.03
519.47	6.1
519.819	6.1
520.167	5.98
520.515	5.93
520.863	6.01
521.211	6
521.559	5.94
521.907	6.04
522.255	6
522.602	6
522.95	6.15
523.298	6.13
523.645	6.13
523.993	5.99
524.341	6
524.688	6.02
525.036	6.16
525.383	5.97
525.73	6.02
526.078	6.1
526.425	6.08
526.772	6.1
527.119	5.97
527.466	5.99
527.814	5.95
528.161	5.9
528.508	5.89
528.854	5.95
529.201	5.97
529.548	5.89
529.895	5.83
530.242	5.82
530.588	5.82
530.935	5.73
531.282	5.72
531.628	5.74
531.975	5.79
532.321	5.77
532.667	5.85
533.014	5.9
533.36	5.96
533.706	5.84
534.052	5.93
534.399	5.94
534.745	5.84
535.091	5.85
535.437	5.81
535.783	5.8
536.129	5.86
536.474	5.78
536.82	5.87
537.166	5.86
537.512	5.94
537.857	5.97
538.203	5.84
538.549	5.91
538.894	5.86
539.239	5.86
539.585	5.82
539.93	5.98
540.276	5.99
540.621	6.03
540.966	5.92
541.311	6.08
541.656	5.91
542.001	5.84
542.346	6.04
542.691	5.88
543.036	5.85
543.381	5.75
543.726	5.69
544.071	5.77
544.415	5.75
544.76	5.72
545.105	5.83
545.449	5.87
545.794	5.92
546.138	5.91
546.483	5.9
546.827	5.92
547.171	6.03
547.516	5.79
547.86	5.9
548.204	5.76
548.548	5.83
548.892	5.89
549.236	5.87
549.58	5.85
549.924	5.82
550.268	5.83
550.612	5.81
550.956	5.96
551.3	6.02
551.643	5.96
551.987	5.9
552.33	6
552.674	6.02
553.017	6.14
553.361	6.02
553.704	6.06
554.048	5.95
554.391	5.73
554.734	6.12
555.077	5.94
555.42	5.89
555.764	5.98
556.107	5.93
556.45	5.92
556.793	6.02
557.135	6.1
557.478	6.01
557.821	5.83
558.164	5.98
558.507	5.96
558.849	5.97
559.192	5.73
559.534	5.89
559.877	5.96
560.219	5.84
560.562	5.76
560.904	6.08
561.246	5.99
561.589	5.94
561.931	5.91
562.273	6.18
562.615	6.04
562.957	5.97
563.299	6.14
563.641	6.03
563.983	5.8
564.325	6.1
564.667	5.89
565.008	6.04
565.35	5.87
565.692	5.96
566.033	5.73
566.375	6.13
566.716	5.91
567.058	5.88
567.399	5.85
567.741	6.05
568.082	5.88
568.423	5.89
568.764	5.88
569.105	5.8
569.447	5.87
569.788	5.69
570.129	5.85
570.47	5.97
570.811	6.01
571.151	5.89
571.492	5.95
571.833	5.75
572.174	5.84
572.514	5.92
572.855	6.02
573.195	6.1
573.536	5.87
573.876	6.04
574.217	5.84
574.557	5.92
574.898	5.74
575.238	5.76
575.578	5.99
575.918	5.76
576.258	5.93
576.598	5.92
576.938	5.99
577.278	5.99
577.618	5.79
577.958	6
578.298	5.93
578.638	5.84
578.977	5.74
579.317	5.88
579.657	5.8
579.996	5.91
580.336	5.78
580.675	5.99
581.014	5.96
581.354	5.81
581.693	5.92
582.032	5.96
582.372	5.79
582.711	5.84
583.05	5.77
583.389	5.85
583.728	5.75
584.067	5.85
584.406	5.74
584.745	5.92
585.083	6
585.422	5.78
585.761	6.11
586.1	5.99
586.438	6.02
586.777	5.83
587.115	5.87
587.454	6.04
587.792	5.99
588.13	5.82
588.469	6
588.807	5.79
589.145	5.98
589.483	5.78
589.821	5.98
590.159	5.59
590.497	5.75
590.835	5.83
591.173	5.91
591.511	5.82
591.849	5.85
592.187	5.77
592.524	6.03
592.862	5.87
593.2	5.92
593.537	5.77
593.875	5.96
594.212	5.92
594.55	5.96
594.887	5.6
595.224	6
595.561	5.84
595.899	5.88
596.236	6.09
596.573	5.87
596.91	5.94
597.247	6.08
597.584	5.69
597.921	5.81
598.258	5.88
598.594	5.86
598.931	5.86
599.268	5.7
599.604	5.98
599.941	5.81
600.277	5.82
600.614	5.5
600.95	5.85
601.287	6.12
601.623	6.03
601.959	5.86
602.296	5.86
602.632	5.83
602.968	5.81
603.304	5.9
603.64	5.83
603.976	5.88
604.312	5.97
604.648	5.81
604.984	5.57
605.319	5.91
605.655	5.86
605.991	5.65
606.326	5.96
606.662	5.8
606.998	5.98
607.333	5.8
607.668	5.89
608.004	5.91
608.339	5.86
608.674	5.83
609.01	5.76
609.345	5.79
609.68	5.96
610.015	5.74
610.35	5.96
610.685	6.05
611.02	5.79
611.355	6.02
611.689	5.94
612.024	5.93
612.359	5.87
612.694	5.79
613.028	5.66
613.363	5.91
613.697	5.83
614.032	5.75
614.366	5.71
614.7	5.85
615.035	5.95
615.369	5.91
615.703	5.8
616.037	5.9
616.371	5.58
616.705	5.71
617.039	5.96
617.373	6.06
617.707	5.77
618.041	6.13
618.375	5.95
618.709	5.89
619.042	5.78
619.376	6.08
619.71	5.86
620.043	5.95
620.377	5.87
620.71	5.98
621.043	5.75
621.377	6
621.71	6.05
622.043	6.13
622.376	5.73
622.709	6.04
623.043	5.68
623.376	6
623.709	5.72
624.041	5.87
624.374	5.94
624.707	6.14
625.04	6.08
625.373	5.65
625.705	5.91
626.038	6.17
626.37	6.16
626.703	5.91
627.035	6.2
627.368	6.32
627.7	6.01
628.032	5.65
628.365	6.01
628.697	5.9
629.029	5.94
629.361	6.07
629.693	5.81
630.025	5.99
630.357	5.82
630.689	5.84
631.021	6
631.353	5.85
631.684	5.76
632.016	5.98
632.348	6.14
632.679	6.06
633.011	6
633.342	5.91
633.674	5.87
634.005	5.95
634.336	5.64
634.668	5.68
634.999	5.92
635.33	5.96
635.661	5.73
635.992	5.69
636.323	6.03
636.654	5.8
636.985	5.75
637.316	5.83
637.647	5.94
637.977	5.71
638.308	6.14
638.639	6.01
638.969	5.84
639.3	5.56
639.63	5.66
639.961	5.76
640.291	6.31
640.622	6.19
640.952	5.76
641.282	5.71
641.612	6.01
641.943	5.97
642.273	5.94
642.603	5.91
642.933	6.14
643.263	6.28
643.592	5.4
643.922	5.99
644.252	6.37
644.582	6.31
644.911	6.3
645.241	5.76
645.571	5.85
645.9	6.31
646.23	6.18
646.559	6.54
646.888	5.89
647.218	6
647.547	6
647.876	5.82
648.205	5.58
648.534	5.83
648.863	5.89
649.192	6.04
649.521	6.27
649.85	5.44
650.179	5.91
650.508	6.2
650.837	6
651.165	5.9
651.494	5.84
651.822	6.22
652.151	6.19
652.479	6.4
652.808	6.29
653.136	5.75
653.465	6.31
653.793	6.2
654.121	6.33
654.449	6.24
654.777	5.85
655.105	6.25
655.433	6.15
655.761	5.81
656.089	6.17
656.417	6.17
656.745	6
657.073	6.19
657.4	5.84
657.728	6.04
658.056	5.96
658.383	6
658.711	6.08
659.038	6.48
659.365	5.78
659.693	6.02
660.02	6.34
660.347	5.78
660.674	6.23
661.001	5.85
661.329	5.79
661.656	5.86
661.982	6.04
662.309	5.95
662.636	6.28
662.963	6.06
663.29	5.76
663.616	6.21
663.943	6.37
664.27	5.69
664.596	6.27
664.923	6.13
665.249	6.56
665.576	5.83
665.902	6.28
666.228	6.38
666.554	6.07
666.881	6.17
667.207	6.6
667.533	6.11
667.859	6.12
668.185	6.17
668.511	6.31
668.837	6.72
669.162	6.02
669.488	6
669.814	6.35
670.139	6.25
670.465	6.35
670.791	5.99
671.116	6.13
671.442	6.1
671.767	6.11
672.092	6.28
672.418	6.53
672.743	6.7
673.068	6.55
673.393	6.4
673.718	6.94
674.043	5.62
674.368	6.19
674.693	6.93
675.018	5.93
675.343	5.52
675.667	6.7
675.992	6.97
676.317	6.85
676.641	6.28
676.966	6.35
677.29	6.2
677.615	5.61
677.939	6.92
678.264	6.22
678.588	7.19
678.912	6.4
679.236	6.9
679.56	6.04
679.885	6.52
680.209	6.22
680.532	5.84
680.856	6.68
681.18	6.16
681.504	6.3
681.828	6.25
682.152	6.27
682.475	6.77
682.799	6.09
683.122	6.44
683.446	6.4
683.769	6.76
684.093	6.31
684.416	6.09
684.739	6.25
685.062	6.16
685.386	6.08
685.709	6.85
686.032	6.96
686.355	6.15
686.678	6.93
687.001	6.78
687.324	6.43
687.646	6.39
687.969	6.15
688.292	6.02
688.614	6.15
688.937	6.33
689.26	6.54
689.582	5.84
689.904	6.13
690.227	6.51
690.549	6.93
690.871	6.54
691.194	6.54
691.516	6.91
691.838	6.63
692.16	6.79
692.482	6.57
692.804	6.4
693.126	6.69
693.448	7.14
693.769	7.26
694.091	5.95
