Data from 1710-1_crown_Reflection__0__20.txt Node

Date: Fri Oct 07 15:14:21 CDT 2022
User: ToomeyLab
Spectrometer: FLMS14357
Trigger mode: 0
Integration Time (sec): 1.000000E-2
Scans to average: 100
Electric dark correction enabled: true
Nonlinearity correction enabled: false
Boxcar width: 0
XAxis mode: Wavelengths
Number of Pixels in Spectrum: 2048
>>>>>Begin Spectral Data<<<<<
189.047	63.41
189.435	63.41
189.823	63.41
190.211	75.56
190.599	1102.46
190.987	105.8
191.375	98.99
191.763	-274.22
192.151	-3.2
192.538	94.53
192.926	280.41
193.314	-473.31
193.702	-1391.52
194.089	-345.92
194.477	-765.7
194.864	129.69
195.252	-403.96
195.639	56.24
196.027	175.73
196.414	25.53
196.801	-22.46
197.189	-119.7
197.576	5220.29
197.963	50.37
198.351	18.32
198.738	19.41
199.125	30.81
199.512	-24.39
199.899	-14.18
200.286	9.66
200.673	-26.42
201.06	14.73
201.447	13.96
201.833	36.53
202.22	34.81
202.607	25.96
202.994	37.22
203.38	19.37
203.767	27.9
204.154	-5.17
204.54	2.94
204.927	35.75
205.313	-23.67
205.699	-2.76
206.086	-12.99
206.472	57.12
206.858	45.78
207.245	3.05
207.631	12.62
208.017	17.89
208.403	46.76
208.789	37.31
209.175	-6.37
209.561	36.65
209.947	-4.78
210.333	7.12
210.719	21.68
211.105	11.61
211.491	6.8
211.876	-3.52
212.262	26.85
212.648	8.53
213.034	33.79
213.419	12.11
213.805	3
214.19	32.75
214.576	18.15
214.961	-2.69
215.346	-4.13
215.732	-11.17
216.117	8.43
216.502	9.86
216.888	-8.42
217.273	-0.39
217.658	10.65
218.043	-7.3
218.428	10.74
218.813	34.23
219.198	23.53
219.583	16.25
219.968	-6.02
220.353	1.29
220.738	14.24
221.122	-5.3
221.507	-9.1
221.892	-7.97
222.276	2.59
222.661	15
223.046	7.58
223.43	24.05
223.815	12.94
224.199	9.64
224.583	3.91
224.968	2.15
225.352	2.89
225.736	4.16
226.121	17.67
226.505	9.53
226.889	13.07
227.273	9.89
227.657	3.56
228.041	8.54
228.425	5.68
228.809	7.02
229.193	8.28
229.577	5.2
229.961	4.21
230.344	3.81
230.728	5.7
231.112	5.15
231.495	4.84
231.879	5.04
232.263	3.98
232.646	6.13
233.03	5.21
233.413	4.99
233.797	6.61
234.18	2.74
234.563	5.44
234.946	6.57
235.33	2.55
235.713	4.01
236.096	5.32
236.479	4.64
236.862	4.65
237.245	4.99
237.628	4.44
238.011	4.91
238.394	5.57
238.777	3.98
239.16	6.28
239.543	4.01
239.925	6.94
240.308	5.24
240.691	4.76
241.073	3.46
241.456	4.95
241.838	4.96
242.221	6.75
242.603	5.03
242.986	5.92
243.368	4.29
243.75	4.83
244.133	4.42
244.515	4.56
244.897	4.69
245.279	4.64
245.661	4.96
246.043	4.51
246.425	5.33
246.807	5.12
247.189	5.3
247.571	5.08
247.953	4.94
248.335	4.77
248.717	4.73
249.098	4.47
249.48	4.3
249.862	4.69
250.243	4.53
250.625	4.87
251.006	4.57
251.388	5.05
251.769	5.22
252.151	5.28
252.532	4.87
252.913	4.14
253.295	5.33
253.676	4.54
254.057	4.78
254.438	4.52
254.819	4.21
255.2	5.19
255.581	4.55
255.962	5.49
256.343	5.32
256.724	4.78
257.105	4.11
257.486	5.35
257.867	4.21
258.247	5.62
258.628	4.14
259.009	4.57
259.389	4.67
259.77	4.14
260.15	4.1
260.531	4.6
260.911	4.54
261.292	4.38
261.672	4.4
262.052	4.3
262.432	4.03
262.813	4.45
263.193	3.96
263.573	4.44
263.953	4.71
264.333	4.75
264.713	4.07
265.093	3.99
265.473	4.39
265.853	3.97
266.233	4.49
266.612	4.98
266.992	4.55
267.372	3.67
267.752	4.08
268.131	4.36
268.511	4.58
268.89	4.02
269.27	4.15
269.649	4.1
270.029	4.03
270.408	3.86
270.787	4.28
271.167	4.33
271.546	4.23
271.925	3.63
272.304	4.34
272.683	4.03
273.062	3.78
273.441	3.78
273.82	4.25
274.199	4.26
274.578	4.16
274.957	4.28
275.336	4.12
275.715	4.13
276.093	4.06
276.472	3.78
276.851	4.02
277.229	3.61
277.608	4.53
277.986	4.4
278.365	4.12
278.743	4.13
279.122	4.09
279.5	3.69
279.878	4.38
280.257	3.81
280.635	3.84
281.013	4.29
281.391	4.18
281.769	3.76
282.147	3.65
282.525	4.01
282.903	4.34
283.281	3.78
283.659	3.98
284.037	4.34
284.415	4.37
284.792	4.44
285.17	4.11
285.548	3.61
285.925	4.19
286.303	4.19
286.68	3.49
287.058	3.57
287.435	3.69
287.813	4.32
288.19	4.08
288.567	4.06
288.945	3.86
289.322	3.97
289.699	4.12
290.076	4.45
290.453	4.31
290.83	3.92
291.207	4.45
291.584	4.28
291.961	4.07
292.338	4.11
292.715	4.01
293.092	4.01
293.469	4.33
293.845	4.38
294.222	4.41
294.599	4.26
294.975	3.99
295.352	4.1
295.728	4.11
296.105	4.98
296.481	3.74
296.858	4.06
297.234	4.03
297.61	4.55
297.986	4.25
298.363	4.29
298.739	4.13
299.115	3.93
299.491	4.08
299.867	4.22
300.243	4.19
300.619	4.3
300.995	4.29
301.371	4.24
301.746	4.26
302.122	4.42
302.498	4.05
302.874	4.58
303.249	4.19
303.625	4.15
304	4.07
304.376	4.11
304.751	3.91
305.127	3.9
305.502	4.23
305.878	4.16
306.253	4.33
306.628	4.56
307.003	4.22
307.378	5
307.754	4.54
308.129	4.25
308.504	4.29
308.879	4.29
309.254	4.27
309.629	4.4
310.003	4.13
310.378	4.29
310.753	4.69
311.128	4.29
311.502	4.86
311.877	4.44
312.252	4.44
312.626	4.5
313.001	4.27
313.375	4.49
313.75	4.64
314.124	4.58
314.498	4.53
314.873	4.41
315.247	3.96
315.621	4.47
315.995	4.46
316.369	4.34
316.743	4.19
317.117	4.31
317.491	5.07
317.865	4.57
318.239	4.47
318.613	4.4
318.987	4.53
319.361	4.79
319.734	4.44
320.108	3.93
320.482	5.37
320.855	4.77
321.229	4.87
321.602	4.82
321.976	4.57
322.349	5.13
322.723	4.85
323.096	4.75
323.469	4.5
323.843	5.26
324.216	4.48
324.589	5.02
324.962	4.86
325.335	4.73
325.708	4.34
326.081	4.53
326.454	4.59
326.827	4.41
327.2	4.73
327.573	4.28
327.945	4.87
328.318	4.54
328.691	4.54
329.063	4.81
329.436	4.78
329.809	4.85
330.181	5.19
330.553	4.14
330.926	5.52
331.298	4.4
331.671	3.99
332.043	4.77
332.415	5.07
332.787	4.94
333.159	4.39
333.532	5.06
333.904	4.5
334.276	4.59
334.648	4.56
335.02	4.52
335.391	4.65
335.763	5.36
336.135	5.08
336.507	5.19
336.879	4.74
337.25	4.84
337.622	5.32
337.993	5
338.365	4.75
338.736	4.71
339.108	4.83
339.479	4.89
339.851	4.5
340.222	4.72
340.593	4.83
340.964	4.7
341.336	4.83
341.707	4.83
342.078	4.96
342.449	4.82
342.82	5.1
343.191	4.75
343.562	4.81
343.933	4.76
344.303	4.87
344.674	4.88
345.045	5.07
345.416	5.17
345.786	5.55
346.157	4.95
346.527	4.74
346.898	4.78
347.268	4.69
347.639	4.4
348.009	5.06
348.38	4.88
348.75	5.28
349.12	5.23
349.49	4.68
349.861	4.66
350.231	5
350.601	4.82
350.971	4.9
351.341	5.01
351.711	4.95
352.081	5.44
352.45	5.03
352.82	5.16
353.19	5.38
353.56	5.12
353.929	4.78
354.299	5.05
354.669	4.94
355.038	4.79
355.408	5.14
355.777	4.95
356.147	4.99
356.516	5.1
356.885	5
357.254	5.05
357.624	4.95
357.993	4.62
358.362	4.7
358.731	5.3
359.1	4.99
359.469	4.91
359.838	4.76
360.207	4.8
360.576	4.96
360.945	5.3
361.314	5.18
361.682	5.06
362.051	4.88
362.42	5.22
362.788	4.98
363.157	5.05
363.525	5.03
363.894	5.11
364.262	5.12
364.631	4.95
364.999	4.92
365.367	4.86
365.735	5.4
366.104	5.26
366.472	5.22
366.84	5.03
367.208	5.06
367.576	5.15
367.944	5.13
368.312	5.2
368.68	4.91
369.048	4.93
369.416	5.29
369.783	5.02
370.151	5.48
370.519	5.08
370.886	4.89
371.254	5.1
371.621	5.36
371.989	5.37
372.356	5.49
372.724	5.31
373.091	5.25
373.458	5.27
373.826	4.98
374.193	5.27
374.56	5
374.927	5.22
375.294	5.33
375.661	5.22
376.028	5.4
376.395	5.38
376.762	5.37
377.129	5.26
377.496	5.2
377.863	5.53
378.229	5.35
378.596	5.17
378.963	5.32
379.329	5.26
379.696	5.4
380.062	5.44
380.429	5.4
380.795	5.3
381.161	5.21
381.528	5.56
381.894	5.47
382.26	5.55
382.626	5.55
382.993	5.51
383.359	5.18
383.725	5.34
384.091	5.48
384.457	5.13
384.823	5.31
385.188	5.07
385.554	5.38
385.92	5.5
386.286	5.2
386.651	5.39
387.017	5.36
387.383	5.45
387.748	5.18
388.114	5.16
388.479	5.67
388.845	5.28
389.21	5.34
389.575	5.09
389.94	5.53
390.306	5.24
390.671	5.67
391.036	5.41
391.401	5.32
391.766	5.57
392.131	5.43
392.496	5.31
392.861	5.25
393.226	5.51
393.591	5.44
393.956	5.37
394.32	5.47
394.685	5.39
395.05	5.27
395.414	5.57
395.779	5.38
396.143	5.19
396.508	5.39
396.872	5.28
397.236	5.46
397.601	5.47
397.965	5.53
398.329	5.4
398.694	5.41
399.058	5.3
399.422	5.63
399.786	5.19
400.15	5.53
400.514	5.5
400.878	5.58
401.242	5.33
401.605	5.57
401.969	5.52
402.333	5.36
402.697	5.36
403.06	5.65
403.424	5.47
403.787	5.85
404.151	5.66
404.514	5.51
404.878	5.37
405.241	5.34
405.604	5.6
405.968	5.51
406.331	5.57
406.694	5.39
407.057	5.69
407.42	5.34
407.783	5.35
408.146	5.64
408.509	5.74
408.872	5.62
409.235	5.39
409.598	5.76
409.961	5.62
410.323	5.62
410.686	5.37
411.049	5.61
411.411	5.77
411.774	5.68
412.136	5.52
412.499	5.73
412.861	5.42
413.223	5.68
413.586	5.7
413.948	5.46
414.31	5.58
414.672	5.62
415.035	5.5
415.397	5.86
415.759	5.4
416.121	5.65
416.483	5.7
416.845	5.47
417.206	5.69
417.568	5.73
417.93	5.38
418.292	5.81
418.653	5.61
419.015	5.6
419.377	5.51
419.738	5.59
420.1	5.53
420.461	5.49
420.822	5.6
421.184	5.6
421.545	5.5
421.906	5.6
422.267	5.51
422.629	5.5
422.99	5.5
423.351	5.51
423.712	5.62
424.073	5.55
424.434	5.62
424.795	5.46
425.155	5.52
425.516	5.52
425.877	5.53
426.238	5.6
426.598	5.55
426.959	5.56
427.32	5.59
427.68	5.42
428.041	5.65
428.401	5.72
428.761	5.73
429.122	5.67
429.482	5.61
429.842	5.67
430.202	5.69
430.563	5.86
430.923	5.81
431.283	5.72
431.643	5.81
432.003	5.73
432.363	5.99
432.722	5.84
433.082	5.78
433.442	5.61
433.802	5.99
434.161	5.87
434.521	5.82
434.881	5.73
435.24	5.86
435.6	5.74
435.959	5.71
436.319	5.72
436.678	5.75
437.037	5.82
437.396	5.77
437.756	5.75
438.115	5.95
438.474	5.72
438.833	5.75
439.192	5.81
439.551	5.77
439.91	5.85
440.269	5.72
440.628	5.76
440.987	5.85
441.345	5.72
441.704	5.73
442.063	5.84
442.421	5.79
442.78	5.73
443.138	5.76
443.497	5.74
443.855	5.85
444.214	5.73
444.572	5.91
444.93	5.76
445.288	5.73
445.647	6.02
446.005	5.92
446.363	5.79
446.721	5.75
447.079	5.78
447.437	5.91
447.795	5.81
448.153	5.71
448.51	5.84
448.868	5.69
449.226	5.71
449.584	5.75
449.941	5.85
450.299	5.79
450.656	5.86
451.014	5.96
451.371	5.87
451.729	5.85
452.086	5.93
452.443	6
452.801	5.88
453.158	5.91
453.515	5.92
453.872	5.84
454.229	6.14
454.586	5.82
454.943	6.08
455.3	5.87
455.657	6.15
456.014	5.97
456.371	6.12
456.727	6.09
457.084	5.97
457.441	6.08
457.797	6.15
458.154	5.98
458.51	6.16
458.867	5.96
459.223	5.86
459.58	6.07
459.936	5.98
460.292	5.94
460.648	6.08
461.005	6.11
461.361	5.99
461.717	5.97
462.073	5.9
462.429	5.95
462.785	6.1
463.141	5.93
463.496	6
463.852	6.12
464.208	6.12
464.564	6.16
464.919	6.04
465.275	6.08
465.631	6.27
465.986	6.27
466.342	6.16
466.697	6.23
467.052	6.05
467.408	6.03
467.763	6.14
468.118	5.97
468.473	5.99
468.829	6.1
469.184	6.08
469.539	6.17
469.894	6.02
470.249	6.21
470.603	6.02
470.958	6.02
471.313	6.12
471.668	6.12
472.023	6.41
472.377	6.32
472.732	6.08
473.086	6.24
473.441	6.03
473.795	6.24
474.15	6.13
474.504	6.3
474.859	6.17
475.213	6.12
475.567	6.15
475.921	6.23
476.275	6.24
476.63	6.11
476.984	6.34
477.338	6.39
477.692	6.37
478.045	6.22
478.399	6.32
478.753	6.09
479.107	6.27
479.461	6.35
479.814	6.21
480.168	6.18
480.521	6.17
480.875	6.26
481.228	6.15
481.582	6.24
481.935	6.37
482.289	6.37
482.642	6.23
482.995	6.28
483.348	6.19
483.701	6.24
484.055	6.17
484.408	6.2
484.761	6.04
485.114	5.95
485.466	5.86
485.819	5.88
486.172	5.89
486.525	5.96
486.878	6.02
487.23	6.11
487.583	6.16
487.936	6.13
488.288	6.12
488.641	6.17
488.993	5.98
489.345	6.03
489.698	6.06
490.05	6.06
490.402	6.07
490.754	6.12
491.107	6.2
491.459	6.26
491.811	6.26
492.163	6.37
492.515	6.31
492.866	6.13
493.218	6.18
493.57	6.1
493.922	6.13
494.274	6.19
494.625	6.26
494.977	6.31
495.328	6.4
495.68	6.41
496.031	6.39
496.383	6.46
496.734	6.26
497.086	6.44
497.437	6.29
497.788	6.38
498.139	6.3
498.49	6.47
498.842	6.44
499.193	6.4
499.544	6.42
499.894	6.33
500.245	6.39
500.596	6.48
500.947	6.26
501.298	6.37
501.648	6.45
501.999	6.45
502.35	6.56
502.7	6.64
503.051	6.67
503.401	6.47
503.752	6.46
504.102	6.56
504.452	6.6
504.803	6.64
505.153	6.53
505.503	6.44
505.853	6.54
506.203	6.47
506.553	6.61
506.903	6.37
507.253	6.65
507.603	6.59
507.953	6.62
508.303	6.44
508.652	6.55
509.002	6.59
509.352	6.54
509.701	6.69
510.051	6.58
510.4	6.54
510.75	6.47
511.099	6.54
511.449	6.54
511.798	6.64
512.147	6.55
512.496	6.56
512.846	6.64
513.195	6.59
513.544	6.64
513.893	6.66
514.242	6.61
514.591	6.54
514.939	6.61
515.288	6.69
515.637	6.72
515.986	6.74
516.334	6.73
516.683	6.75
517.032	6.69
517.38	6.62
517.729	6.62
518.077	6.58
518.426	6.65
518.774	6.65
519.122	6.65
519.47	6.7
519.819	6.54
520.167	6.55
520.515	6.54
520.863	6.59
521.211	6.68
521.559	6.58
521.907	6.68
522.255	6.61
522.602	6.73
522.95	6.82
523.298	6.81
523.645	6.75
523.993	6.77
524.341	6.78
524.688	6.72
525.036	6.8
525.383	6.75
525.73	6.76
526.078	6.84
526.425	6.82
526.772	6.74
527.119	6.67
527.466	6.74
527.814	6.63
528.161	6.63
528.508	6.6
528.854	6.72
529.201	6.68
529.548	6.59
529.895	6.51
530.242	6.44
530.588	6.39
530.935	6.46
531.282	6.53
531.628	6.6
531.975	6.63
532.321	6.6
532.667	6.74
533.014	6.68
533.36	6.79
533.706	6.68
534.052	6.72
534.399	6.69
534.745	6.66
535.091	6.57
535.437	6.58
535.783	6.67
536.129	6.77
536.474	6.74
536.82	6.84
537.166	6.88
537.512	6.85
537.857	6.8
538.203	6.74
538.549	6.76
538.894	6.76
539.239	6.8
539.585	6.87
539.93	6.87
540.276	6.96
540.621	7.01
540.966	6.86
541.311	7.03
541.656	7.08
542.001	6.85
542.346	6.84
542.691	6.79
543.036	6.67
543.381	6.61
543.726	6.72
544.071	6.75
544.415	6.79
544.76	6.82
545.105	6.86
545.449	6.82
545.794	7
546.138	6.92
546.483	6.97
546.827	6.91
547.171	6.98
547.516	6.87
547.86	7.04
548.204	6.94
548.548	6.97
548.892	7
549.236	6.95
549.58	6.94
549.924	6.96
550.268	7.12
550.612	6.92
550.956	7.15
551.3	7.1
551.643	7.19
551.987	7.2
552.33	7.13
552.674	7.24
553.017	7.24
553.361	7.06
553.704	7.23
554.048	7.18
554.391	7.04
554.734	7.13
555.077	7.2
555.42	7.15
555.764	7.24
556.107	7.22
556.45	7.13
556.793	7.14
557.135	7.29
557.478	7.36
557.821	7.02
558.164	7.06
558.507	7.31
558.849	7.2
559.192	7.31
559.534	7.12
559.877	7.26
560.219	7.42
560.562	7.13
560.904	7.41
561.246	7.26
561.589	7.27
561.931	7.05
562.273	7.28
562.615	7.43
562.957	7.4
563.299	7.4
563.641	7.26
563.983	7.04
564.325	7.4
564.667	7.41
565.008	7.5
565.35	7.29
565.692	7.49
566.033	7.38
566.375	7.6
566.716	7.35
567.058	7.3
567.399	7.31
567.741	7.41
568.082	7.34
568.423	7.3
568.764	7.33
569.105	7.37
569.447	7.4
569.788	7.31
570.129	7.26
570.47	7.66
570.811	7.43
571.151	7.38
571.492	7.37
571.833	7.52
572.174	7.34
572.514	7.63
572.855	7.43
573.195	7.52
573.536	7.33
573.876	7.5
574.217	7.44
574.557	7.45
574.898	7.38
575.238	7.58
575.578	7.52
575.918	7.45
576.258	7.68
576.598	7.54
576.938	7.44
577.278	7.57
577.618	7.4
577.958	7.69
578.298	7.69
578.638	7.58
578.977	7.72
579.317	7.56
579.657	7.66
579.996	7.69
580.336	7.74
580.675	7.64
581.014	7.6
581.354	7.8
581.693	7.64
582.032	7.56
582.372	7.59
582.711	7.78
583.05	7.46
583.389	7.71
583.728	7.63
584.067	7.74
584.406	7.65
584.745	7.72
585.083	7.68
585.422	7.55
585.761	7.63
586.1	7.8
586.438	7.85
586.777	7.74
587.115	7.71
587.454	7.63
587.792	7.74
588.13	7.79
588.469	7.75
588.807	7.62
589.145	7.68
589.483	7.8
589.821	7.57
590.159	7.54
590.497	7.74
590.835	7.7
591.173	7.57
591.511	7.85
591.849	7.88
592.187	7.67
592.524	7.82
592.862	7.71
593.2	7.92
593.537	7.72
593.875	7.72
594.212	7.56
594.55	7.81
594.887	7.64
595.224	7.54
595.561	8.03
595.899	7.94
596.236	7.94
596.573	7.73
596.91	7.77
597.247	7.68
597.584	7.71
597.921	8.15
598.258	8.03
598.594	7.66
598.931	7.7
599.268	7.63
599.604	8.01
599.941	7.85
600.277	7.67
600.614	7.72
600.95	7.97
601.287	7.83
601.623	7.8
601.959	7.78
602.296	7.91
602.632	8.03
602.968	7.72
603.304	7.94
603.64	8.02
603.976	7.68
604.312	8.24
604.648	7.99
604.984	7.8
605.319	7.89
605.655	8
605.991	7.87
606.326	7.98
606.662	7.87
606.998	8.01
607.333	7.91
607.668	8.04
608.004	8.1
608.339	8.27
608.674	7.81
609.01	8.23
609.345	8.03
609.68	8.11
610.015	8.21
610.35	8.1
610.685	8.29
611.02	8.04
611.355	7.98
611.689	8.18
612.024	8.09
612.359	7.95
612.694	8.14
613.028	8.15
613.363	8.1
613.697	8
614.032	8.03
614.366	8.05
614.7	8.11
615.035	7.99
615.369	8.24
615.703	8.18
616.037	8.2
616.371	8.07
616.705	8.44
617.039	8.27
617.373	8.31
617.707	8.1
618.041	8.71
618.375	8.53
618.709	8.44
619.042	8.32
619.376	8.42
619.71	8.35
620.043	8.04
620.377	7.99
620.71	8.38
621.043	8.52
621.377	8.32
621.71	8.51
622.043	8.44
622.376	8.26
622.709	8.5
623.043	8.12
623.376	8.61
623.709	8.24
624.041	8.48
624.374	8.52
624.707	8.3
625.04	8.51
625.373	8.15
625.705	8.33
626.038	8.35
626.37	8.48
626.703	8.42
627.035	8.59
627.368	8.2
627.7	8.15
628.032	8.2
628.365	8.32
628.697	8.18
629.029	8.48
629.361	8.41
629.693	8.38
630.025	8.42
630.357	8.61
630.689	8.35
631.021	8.4
631.353	8.12
631.684	8.51
632.016	8.43
632.348	8.49
632.679	8.73
633.011	8.63
633.342	8.54
633.674	8.61
634.005	8.7
634.336	8.25
634.668	8.64
634.999	8.52
635.33	8.58
635.661	8.57
635.992	8.4
636.323	8.19
636.654	8.44
636.985	8.65
637.316	8.61
637.647	8.23
637.977	8.45
638.308	8.73
638.639	8.67
638.969	8.51
639.3	8.24
639.63	8.59
639.961	8.66
640.291	8.75
640.622	8.86
640.952	8.32
641.282	8.39
641.612	8.74
641.943	8.52
642.273	8.42
642.603	9.01
642.933	8.76
643.263	9.23
643.592	8.27
643.922	9.31
644.252	9.15
644.582	8.95
644.911	8.99
645.241	8.79
645.571	8.74
645.9	8.71
646.23	8.64
646.559	8.98
646.888	8.57
647.218	8.7
647.547	8.46
647.876	9.04
648.205	8.81
648.534	8.76
648.863	8.72
649.192	8.6
649.521	9.46
649.85	8.73
650.179	9.07
650.508	9.03
650.837	9.12
651.165	8.98
651.494	8.95
651.822	8.72
652.151	9.01
652.479	8.96
652.808	9.13
653.136	8.93
653.465	8.84
653.793	8.98
654.121	9.19
654.449	8.95
654.777	8.96
655.105	9.39
655.433	9.21
655.761	8.86
656.089	9.36
656.417	8.87
656.745	9.27
657.073	8.81
657.4	8.92
657.728	9.2
658.056	8.75
658.383	9.02
658.711	9.13
659.038	9.53
659.365	9
659.693	9.34
660.02	9.26
660.347	9.12
660.674	8.86
661.001	8.92
661.329	9.18
661.656	9.28
661.982	9.04
662.309	9.03
662.636	9.12
662.963	9.12
663.29	8.97
663.616	9.07
663.943	9.16
664.27	9.13
664.596	8.77
664.923	9.3
665.249	9.3
665.576	9.12
665.902	9.76
666.228	9.26
666.554	8.57
666.881	9.19
667.207	9.74
667.533	9.83
667.859	9.24
668.185	9.48
668.511	9.42
668.837	9.7
669.162	9.74
669.488	9.34
669.814	9.65
670.139	9.52
670.465	9.41
670.791	8.94
671.116	9.21
671.442	9.22
671.767	9.69
672.092	9.55
672.418	10.01
672.743	10.01
673.068	9.73
673.393	9.52
673.718	9.57
674.043	8.98
674.368	8.33
674.693	9.85
675.018	9.41
675.343	9.76
675.667	9.6
675.992	10.1
676.317	9.52
676.641	9.64
676.966	10.15
677.29	9.65
677.615	9.41
677.939	9.71
678.264	9.89
678.588	9.96
678.912	9.74
679.236	10.14
679.56	10.05
679.885	9.49
680.209	9.62
680.532	9.61
680.856	9.42
681.18	9.77
681.504	9.5
681.828	9.4
682.152	9.66
682.475	9.75
682.799	9.85
683.122	9.64
683.446	9.98
683.769	9.59
684.093	9.74
684.416	9.29
684.739	9.48
685.062	9.66
685.386	9.64
685.709	10.36
686.032	9.87
686.355	9.51
686.678	9.68
687.001	10.35
687.324	9.89
687.646	9.33
687.969	9.49
688.292	10.25
688.614	9.64
688.937	9.57
689.26	9.91
689.582	10.17
689.904	9.79
690.227	9.23
690.549	9.86
690.871	9.62
691.194	10.02
691.516	9.89
691.838	9.99
692.16	10.15
692.482	10.04
