Data from 1710-1_chest_Reflection__2__17.txt Node

Date: Fri Oct 07 15:12:55 CDT 2022
User: ToomeyLab
Spectrometer: FLMS14357
Trigger mode: 0
Integration Time (sec): 1.000000E-2
Scans to average: 100
Electric dark correction enabled: true
Nonlinearity correction enabled: false
Boxcar width: 0
XAxis mode: Wavelengths
Number of Pixels in Spectrum: 2048
>>>>>Begin Spectral Data<<<<<
189.047	125.31
189.435	125.31
189.823	125.31
190.211	28.92
190.599	-191.13
190.987	104.33
191.375	47.95
191.763	-648.91
192.151	-69.87
192.538	-35.29
192.926	-305.96
193.314	1380.65
193.702	-1872.79
194.089	-27
194.477	596.76
194.864	272.87
195.252	-248.65
195.639	47.65
196.027	105.62
196.414	26.46
196.801	81.13
197.189	-99.13
197.576	2602.9
197.963	60.08
198.351	13.45
198.738	2.26
199.125	39.32
199.512	13.36
199.899	41.81
200.286	26.76
200.673	-7.86
201.06	38.1
201.447	30.6
201.833	39.44
202.22	40.78
202.607	53.94
202.994	48.48
203.38	20.78
203.767	35.49
204.154	25.98
204.54	7.69
204.927	35.98
205.313	6.31
205.699	12.69
206.086	-4.17
206.472	64.15
206.858	-2.11
207.245	10.22
207.631	37.22
208.017	36.24
208.403	32.06
208.789	34.87
209.175	43.94
209.561	36.86
209.947	34.19
210.333	28.16
210.719	23.66
211.105	22.47
211.491	12.76
211.876	21.95
212.262	25.07
212.648	29.3
213.034	23.79
213.419	5.29
213.805	-16.71
214.19	22.68
214.576	-7.21
214.961	19.92
215.346	7.93
215.732	3.15
216.117	-6.99
216.502	8.1
216.888	-5.23
217.273	-11.16
217.658	8.17
218.043	6.91
218.428	22.71
218.813	28.5
219.198	11.38
219.583	12.5
219.968	13.35
220.353	-14.99
220.738	10.64
221.122	8.33
221.507	1.85
221.892	-5.36
222.276	12.74
222.661	25.58
223.046	7.89
223.43	12.27
223.815	15.75
224.199	16.24
224.583	1.82
224.968	-5.25
225.352	8.98
225.736	9.31
226.121	11.62
226.505	4.26
226.889	4.28
227.273	5.2
227.657	3.63
228.041	5.29
228.425	3.94
228.809	2.92
229.193	3.39
229.577	2.18
229.961	1.41
230.344	1.6
230.728	2.94
231.112	2.58
231.495	3.25
231.879	2.76
232.263	2.11
232.646	2.8
233.03	3.41
233.413	1.85
233.797	2.3
234.18	1.62
234.563	2.72
234.946	1.39
235.33	0.62
235.713	1.15
236.096	2.7
236.479	1.85
236.862	3.01
237.245	3.64
237.628	3.42
238.011	4.48
238.394	2.08
238.777	1.95
239.16	3.51
239.543	1.79
239.925	2.41
240.308	2.01
240.691	3.03
241.073	2.1
241.456	3.09
241.838	2.66
242.221	3.77
242.603	3.12
242.986	2.93
243.368	2.1
243.75	2.43
244.133	1.73
244.515	2.35
244.897	2.45
245.279	2.53
245.661	2.93
246.043	2.33
246.425	3.66
246.807	3.14
247.189	3.23
247.571	2.03
247.953	2.69
248.335	2.35
248.717	1.93
249.098	2.26
249.48	1.92
249.862	2.43
250.243	2.55
250.625	2.11
251.006	2.61
251.388	2.34
251.769	2.49
252.151	3.07
252.532	3.16
252.913	2.15
253.295	2.52
253.676	2.4
254.057	2.18
254.438	2.54
254.819	1.58
255.2	1.65
255.581	2.08
255.962	2.61
256.343	3.29
256.724	2.51
257.105	3.51
257.486	2.83
257.867	1.86
258.247	3
258.628	2.08
259.009	2.34
259.389	3.16
259.77	2.44
260.15	1.56
260.531	2.68
260.911	2.26
261.292	2.16
261.672	2.08
262.052	2.2
262.432	1.99
262.813	2.35
263.193	2.5
263.573	2.63
263.953	2.62
264.333	2.15
264.713	1.98
265.093	2.44
265.473	2.63
265.853	2.05
266.233	2.96
266.612	2.62
266.992	2.49
267.372	2.22
267.752	1.93
268.131	2.3
268.511	2.16
268.89	1.22
269.27	2.48
269.649	1.99
270.029	2.34
270.408	1.91
270.787	2.93
271.167	2.07
271.546	2.69
271.925	1.92
272.304	2.51
272.683	1.76
273.062	2.23
273.441	2.24
273.82	2.18
274.199	2.25
274.578	2.01
274.957	2
275.336	2.04
275.715	1.93
276.093	1.91
276.472	2.24
276.851	1.96
277.229	1.65
277.608	2.68
277.986	1.98
278.365	2.32
278.743	2.28
279.122	2.46
279.5	1.82
279.878	2.63
280.257	2.38
280.635	3.04
281.013	2.14
281.391	2.14
281.769	2.09
282.147	1.26
282.525	2.18
282.903	2.26
283.281	1.92
283.659	2.71
284.037	2.21
284.415	2.67
284.792	2.54
285.17	1.95
285.548	1.98
285.925	1.91
286.303	1.96
286.68	1.71
287.058	2.34
287.435	2.02
287.813	2.15
288.19	2.18
288.567	2.33
288.945	1.92
289.322	2.29
289.699	2.08
290.076	2.81
290.453	2.2
290.83	2.11
291.207	2.13
291.584	2.46
291.961	2.2
292.338	1.94
292.715	2.23
293.092	2.34
293.469	2.8
293.845	2.62
294.222	2.39
294.599	2.09
294.975	1.81
295.352	2.65
295.728	2.52
296.105	2.61
296.481	2.11
296.858	2.43
297.234	2.13
297.61	2.51
297.986	2.67
298.363	2.54
298.739	2.48
299.115	2.23
299.491	2.39
299.867	2.33
300.243	2.39
300.619	2.78
300.995	2.15
301.371	2.64
301.746	2.5
302.122	2.23
302.498	2.48
302.874	2.53
303.249	1.95
303.625	2.38
304	2.5
304.376	2.36
304.751	2.2
305.127	2.1
305.502	2.48
305.878	2.68
306.253	2.83
306.628	2.79
307.003	2.72
307.378	3.51
307.754	2.09
308.129	2.33
308.504	2.69
308.879	1.98
309.254	2.53
309.629	2.7
310.003	2.52
310.378	3.1
310.753	3.06
311.128	2.74
311.502	2.88
311.877	2.66
312.252	2.74
312.626	2.88
313.001	2.6
313.375	2.53
313.75	2.48
314.124	2.45
314.498	2.27
314.873	2.99
315.247	2.77
315.621	2.42
315.995	2.86
316.369	2.62
316.743	2.21
317.117	2.69
317.491	3.45
317.865	2.76
318.239	2.54
318.613	2.72
318.987	2.97
319.361	3.07
319.734	2.38
320.108	2.53
320.482	3.11
320.855	2.95
321.229	3.26
321.602	2.99
321.976	2.82
322.349	3.07
322.723	3.07
323.096	2.84
323.469	3.46
323.843	3.04
324.216	2.88
324.589	3.85
324.962	2.92
325.335	2.62
325.708	2.6
326.081	2.87
326.454	2.75
326.827	2.52
327.2	3.08
327.573	3.23
327.945	3.03
328.318	2.7
328.691	2.95
329.063	3.1
329.436	3.14
329.809	3.44
330.181	3.41
330.553	2.98
330.926	2.83
331.298	2.66
331.671	2.58
332.043	3.1
332.415	2.81
332.787	3.23
333.159	2.88
333.532	2.93
333.904	3.07
334.276	2.89
334.648	3.02
335.02	2.89
335.391	3.43
335.763	3.41
336.135	2.85
336.507	3.36
336.879	3.38
337.25	3.29
337.622	3.32
337.993	2.9
338.365	3.35
338.736	3.2
339.108	3.46
339.479	3.2
339.851	3.03
340.222	2.87
340.593	3.15
340.964	3.13
341.336	2.9
341.707	2.79
342.078	3.19
342.449	3.15
342.82	3.18
343.191	2.9
343.562	2.96
343.933	3.1
344.303	2.71
344.674	3.33
345.045	3.47
345.416	3.05
345.786	3.48
346.157	3.2
346.527	2.94
346.898	3.29
347.268	2.96
347.639	2.75
348.009	3.33
348.38	2.96
348.75	3.13
349.12	3.27
349.49	2.64
349.861	3.09
350.231	3.29
350.601	3.17
350.971	3.46
351.341	3.08
351.711	3.07
352.081	3.33
352.45	2.79
352.82	3.11
353.19	3.2
353.56	2.84
353.929	2.99
354.299	3.21
354.669	3.25
355.038	3.27
355.408	2.94
355.777	3.28
356.147	3.38
356.516	3.41
356.885	3.34
357.254	3.08
357.624	3.26
357.993	3.06
358.362	2.98
358.731	3.11
359.1	3.05
359.469	3.12
359.838	2.77
360.207	3.02
360.576	3.13
360.945	3.54
361.314	3.1
361.682	2.97
362.051	3.06
362.42	3.18
362.788	3.16
363.157	2.99
363.525	3.18
363.894	3.06
364.262	3.18
364.631	2.98
364.999	3.27
365.367	3.08
365.735	3.4
366.104	3.02
366.472	3.08
366.84	2.93
367.208	3.26
367.576	3.25
367.944	3.21
368.312	3.04
368.68	3.04
369.048	3.33
369.416	3.12
369.783	3.3
370.151	3.19
370.519	3.15
370.886	3.05
371.254	3.05
371.621	3.16
371.989	3.47
372.356	3.43
372.724	3.17
373.091	3.31
373.458	3.09
373.826	2.93
374.193	3.26
374.56	3.07
374.927	3.18
375.294	3.21
375.661	3.19
376.028	3.02
376.395	3.28
376.762	3.24
377.129	3.1
377.496	3.19
377.863	3.44
378.229	3.24
378.596	3.37
378.963	3.26
379.329	3.06
379.696	2.92
380.062	3.1
380.429	3.51
380.795	3.14
381.161	3.08
381.528	3.41
381.894	3.5
382.26	3.15
382.626	3.35
382.993	3.34
383.359	3.12
383.725	3.34
384.091	3.4
384.457	3.05
384.823	3.46
385.188	3.22
385.554	3.21
385.92	3.48
386.286	3.38
386.651	3.12
387.017	3.45
387.383	3.25
387.748	3.58
388.114	3.29
388.479	3.5
388.845	3.36
389.21	3.26
389.575	3.29
389.94	3.36
390.306	3.09
390.671	3.78
391.036	3.47
391.401	3.26
391.766	3.5
392.131	3.2
392.496	3.16
392.861	3.27
393.226	3.38
393.591	3.22
393.956	3.47
394.32	3.19
394.685	3.22
395.05	3.06
395.414	3.45
395.779	3.3
396.143	3.44
396.508	3.1
396.872	3.29
397.236	3.35
397.601	3.24
397.965	3.49
398.329	3.23
398.694	3.69
399.058	3.36
399.422	3.41
399.786	3.46
400.15	3.36
400.514	3.21
400.878	3.39
401.242	3.31
401.605	3.53
401.969	3.27
402.333	3.39
402.697	3.26
403.06	3.5
403.424	3.46
403.787	3.45
404.151	3.5
404.514	3.39
404.878	3.46
405.241	3.25
405.604	3.7
405.968	3.42
406.331	3.42
406.694	3.37
407.057	3.6
407.42	3.31
407.783	3.3
408.146	3.62
408.509	3.3
408.872	3.45
409.235	3.46
409.598	3.51
409.961	3.5
410.323	3.63
410.686	3.51
411.049	3.47
411.411	3.53
411.774	3.54
412.136	3.38
412.499	3.7
412.861	3.34
413.223	3.42
413.586	3.62
413.948	3.56
414.31	3.37
414.672	3.47
415.035	3.31
415.397	3.76
415.759	3.35
416.121	3.43
416.483	3.67
416.845	3.17
417.206	3.42
417.568	3.59
417.93	3.29
418.292	3.69
418.653	3.48
419.015	3.37
419.377	3.44
419.738	3.35
420.1	3.49
420.461	3.44
420.822	3.43
421.184	3.42
421.545	3.3
421.906	3.4
422.267	3.36
422.629	3.36
422.99	3.35
423.351	3.41
423.712	3.39
424.073	3.4
424.434	3.47
424.795	3.3
425.155	3.34
425.516	3.27
425.877	3.4
426.238	3.37
426.598	3.39
426.959	3.39
427.32	3.49
427.68	3.47
428.041	3.54
428.401	3.64
428.761	3.72
429.122	3.48
429.482	3.55
429.842	3.56
430.202	3.53
430.563	3.65
430.923	3.63
431.283	3.39
431.643	3.48
432.003	3.5
432.363	3.73
432.722	3.75
433.082	3.5
433.442	3.48
433.802	3.73
434.161	3.72
434.521	3.56
434.881	3.55
435.24	3.56
435.6	3.64
435.959	3.59
436.319	3.61
436.678	3.49
437.037	3.61
437.396	3.58
437.756	3.67
438.115	3.68
438.474	3.54
438.833	3.7
439.192	3.52
439.551	3.65
439.91	3.69
440.269	3.62
440.628	3.69
440.987	3.67
441.345	3.61
441.704	3.57
442.063	3.56
442.421	3.61
442.78	3.55
443.138	3.62
443.497	3.63
443.855	3.66
444.214	3.52
444.572	3.68
444.93	3.63
445.288	3.42
445.647	3.79
446.005	3.59
446.363	3.61
446.721	3.54
447.079	3.64
447.437	3.62
447.795	3.66
448.153	3.52
448.51	3.63
448.868	3.59
449.226	3.64
449.584	3.64
449.941	3.66
450.299	3.83
450.656	3.63
451.014	3.76
451.371	3.63
451.729	3.6
452.086	3.66
452.443	3.9
452.801	3.76
453.158	3.67
453.515	3.72
453.872	3.64
454.229	3.82
454.586	3.87
454.943	3.78
455.3	3.66
455.657	3.86
456.014	3.72
456.371	3.8
456.727	3.86
457.084	3.84
457.441	3.91
457.797	3.9
458.154	3.74
458.51	3.96
458.867	3.69
459.223	3.76
459.58	3.98
459.936	3.87
460.292	3.65
460.648	3.71
461.005	3.67
461.361	3.62
461.717	3.65
462.073	3.69
462.429	3.78
462.785	3.81
463.141	3.78
463.496	3.9
463.852	3.91
464.208	3.86
464.564	3.93
464.919	3.92
465.275	3.9
465.631	3.91
465.986	3.91
466.342	4.03
466.697	4.06
467.052	3.84
467.408	3.79
467.763	4.06
468.118	3.81
468.473	3.99
468.829	3.83
469.184	3.86
469.539	3.92
469.894	3.9
470.249	4
470.603	4
470.958	4.01
471.313	4
471.668	3.89
472.023	4.12
472.377	4.03
472.732	3.78
473.086	4.07
473.441	4.01
473.795	3.96
474.15	4.03
474.504	4.08
474.859	4
475.213	4.05
475.567	4.12
475.921	3.99
476.275	4.09
476.63	4.03
476.984	3.98
477.338	4.02
477.692	4.05
478.045	3.95
478.399	4.02
478.753	4
479.107	3.95
479.461	3.97
479.814	3.99
480.168	3.85
480.521	4.06
480.875	4.12
481.228	3.97
481.582	4.03
481.935	4.13
482.289	4.1
482.642	4.07
482.995	4.09
483.348	4.1
483.701	3.98
484.055	3.99
484.408	4.07
484.761	3.83
485.114	3.79
485.466	3.73
485.819	3.73
486.172	3.8
486.525	3.85
486.878	3.93
487.23	4
487.583	3.97
487.936	4.03
488.288	3.98
488.641	3.92
488.993	3.86
489.345	3.9
489.698	3.88
490.05	3.95
490.402	3.96
490.754	3.99
491.107	4.06
491.459	4.1
491.811	4.11
492.163	4.17
492.515	4.16
492.866	4.02
493.218	3.99
493.57	3.91
493.922	3.97
494.274	4.07
494.625	4.19
494.977	4.2
495.328	4.15
495.68	4.2
496.031	4.17
496.383	4.23
496.734	4.12
497.086	4.22
497.437	4.21
497.788	4.2
498.139	4.24
498.49	4.29
498.842	4.31
499.193	4.24
499.544	4.23
499.894	4.23
500.245	4.32
500.596	4.32
500.947	4.25
501.298	4.33
501.648	4.28
501.999	4.3
502.35	4.31
502.7	4.41
503.051	4.44
503.401	4.34
503.752	4.43
504.102	4.4
504.452	4.41
504.803	4.44
505.153	4.46
505.503	4.41
505.853	4.5
506.203	4.32
506.553	4.58
506.903	4.35
507.253	4.53
507.603	4.55
507.953	4.49
508.303	4.55
508.652	4.41
509.002	4.41
509.352	4.44
509.701	4.6
510.051	4.47
510.4	4.44
510.75	4.47
511.099	4.41
511.449	4.51
511.798	4.56
512.147	4.54
512.496	4.5
512.846	4.63
513.195	4.54
513.544	4.57
513.893	4.58
514.242	4.55
514.591	4.73
514.939	4.66
515.288	4.73
515.637	4.7
515.986	4.67
516.334	4.77
516.683	4.63
517.032	4.66
517.38	4.61
517.729	4.66
518.077	4.56
518.426	4.61
518.774	4.7
519.122	4.83
519.47	4.75
519.819	4.68
520.167	4.61
520.515	4.58
520.863	4.68
521.211	4.69
521.559	4.69
521.907	4.8
522.255	4.76
522.602	4.75
522.95	4.87
523.298	4.83
523.645	4.76
523.993	4.79
524.341	4.78
524.688	4.85
525.036	4.93
525.383	4.87
525.73	4.83
526.078	4.98
526.425	4.91
526.772	4.89
527.119	4.86
527.466	4.91
527.814	4.84
528.161	4.86
528.508	4.87
528.854	4.95
529.201	5.02
529.548	4.91
529.895	4.75
530.242	4.7
530.588	4.7
530.935	4.8
531.282	4.87
531.628	4.93
531.975	4.98
532.321	4.98
532.667	5.07
533.014	4.99
533.36	5.08
533.706	5.11
534.052	5.02
534.399	5.07
534.745	5.03
535.091	4.94
535.437	4.99
535.783	5.09
536.129	5.16
536.474	5.14
536.82	5.13
537.166	5.28
537.512	5.21
537.857	5.22
538.203	5.17
538.549	5.23
538.894	5.23
539.239	5.29
539.585	5.35
539.93	5.41
540.276	5.47
540.621	5.48
540.966	5.44
541.311	5.45
541.656	5.38
542.001	5.39
542.346	5.39
542.691	5.25
543.036	5.24
543.381	5.28
543.726	5.28
544.071	5.41
544.415	5.46
544.76	5.45
545.105	5.41
545.449	5.52
545.794	5.62
546.138	5.6
546.483	5.63
546.827	5.66
547.171	5.73
547.516	5.58
547.86	5.64
548.204	5.63
548.548	5.73
548.892	5.61
549.236	5.79
549.58	5.65
549.924	5.8
550.268	5.92
550.612	5.89
550.956	5.84
551.3	5.99
551.643	5.91
551.987	6.07
552.33	5.91
552.674	6.11
553.017	6.08
553.361	5.99
553.704	6.05
554.048	6.06
554.391	6.04
554.734	6.21
555.077	6.1
555.42	6.11
555.764	6.09
556.107	6.03
556.45	6.35
556.793	6.2
557.135	6.23
557.478	6.39
557.821	6.21
558.164	6.29
558.507	6.35
558.849	6.35
559.192	6.23
559.534	6.25
559.877	6.64
560.219	6.54
560.562	6.3
560.904	6.47
561.246	6.52
561.589	6.6
561.931	6.4
562.273	6.68
562.615	6.64
562.957	6.53
563.299	6.74
563.641	6.72
563.983	6.66
564.325	6.65
564.667	6.72
565.008	6.67
565.35	6.54
565.692	6.65
566.033	6.76
566.375	6.92
566.716	6.91
567.058	6.7
567.399	6.99
567.741	6.81
568.082	6.74
568.423	6.74
568.764	6.92
569.105	6.84
569.447	6.97
569.788	6.89
570.129	6.83
570.47	7.19
570.811	7.11
571.151	7.1
571.492	7.08
571.833	7.24
572.174	6.95
572.514	7.29
572.855	7.06
573.195	7.25
573.536	7.06
573.876	7.25
574.217	7.35
574.557	7.31
574.898	7.22
575.238	7.38
575.578	7.43
575.918	7.26
576.258	7.4
576.598	7.38
576.938	7.5
577.278	7.35
577.618	7.31
577.958	7.58
578.298	7.51
578.638	7.63
578.977	7.53
579.317	7.72
579.657	7.6
579.996	7.76
580.336	7.85
580.675	7.77
581.014	7.75
581.354	7.7
581.693	7.98
582.032	7.9
582.372	7.77
582.711	7.8
583.05	7.74
583.389	7.87
583.728	7.87
584.067	7.99
584.406	8
584.745	8
585.083	8.09
585.422	8.06
585.761	8.17
586.1	8.24
586.438	8.34
586.777	8.33
587.115	8.44
587.454	8.27
587.792	8.33
588.13	8.29
588.469	8.42
588.807	8.3
589.145	8.46
589.483	8.65
589.821	8.51
590.159	8.35
590.497	8.38
590.835	8.39
591.173	8.43
591.511	8.6
591.849	8.64
592.187	8.45
592.524	8.83
592.862	8.87
593.2	8.74
593.537	8.64
593.875	8.86
594.212	8.79
594.55	8.72
594.887	8.74
595.224	8.89
595.561	9.05
595.899	8.86
596.236	9.12
596.573	8.91
596.91	8.99
597.247	9.07
597.584	8.91
597.921	9.15
598.258	9.25
598.594	9.08
598.931	8.97
599.268	9.08
599.604	9.19
599.941	9.32
600.277	8.97
600.614	9.1
600.95	9.64
601.287	9.61
601.623	9.58
601.959	9.31
602.296	9.53
602.632	9.29
602.968	9.43
603.304	9.58
603.64	9.69
603.976	9.66
604.312	10.03
604.648	9.64
604.984	9.38
605.319	9.65
605.655	9.81
605.991	9.55
606.326	9.7
606.662	9.71
606.998	9.8
607.333	9.86
607.668	9.95
608.004	9.98
608.339	10.4
608.674	10.01
609.01	10.14
609.345	10.18
609.68	10.3
610.015	10.28
610.35	10.25
610.685	10.2
611.02	10.32
611.355	10.28
611.689	10.34
612.024	10.29
612.359	10.43
612.694	10.27
613.028	10.4
613.363	10.25
613.697	10.69
614.032	10.59
614.366	10.43
614.7	10.56
615.035	10.62
615.369	10.89
615.703	10.62
616.037	10.65
616.371	10.51
616.705	10.81
617.039	10.94
617.373	10.94
617.707	10.45
618.041	11.38
618.375	11.01
618.709	11.13
619.042	11.04
619.376	11.03
619.71	10.97
620.043	11.22
620.377	11.16
620.71	11.23
621.043	11.26
621.377	11.41
621.71	11.5
622.043	11.44
622.376	11.4
622.709	11.52
623.043	11.36
623.376	11.68
623.709	11.14
624.041	11.48
624.374	11.45
624.707	11.54
625.04	11.77
625.373	11.52
625.705	11.69
626.038	11.94
626.37	12.17
626.703	11.88
627.035	12.02
627.368	11.76
627.7	11.81
628.032	11.8
628.365	11.71
628.697	11.95
629.029	12.01
629.361	11.87
629.693	12.19
630.025	12.04
630.357	11.99
630.689	12.14
631.021	12.55
631.353	12.08
631.684	12.33
632.016	12.26
632.348	12.46
632.679	12.54
633.011	12.47
633.342	12.23
633.674	12.46
634.005	12.41
634.336	12.48
634.668	13.03
634.999	12.85
635.33	12.78
635.661	12.49
635.992	12.57
636.323	12.61
636.654	12.34
636.985	12.97
637.316	12.48
637.647	12.78
637.977	12.61
638.308	12.89
638.639	12.75
638.969	12.79
639.3	13.11
639.63	13.13
639.961	13.31
640.291	13.38
640.622	13.46
640.952	12.66
641.282	12.83
641.612	13.15
641.943	13.26
642.273	13.28
642.603	13.25
642.933	13.38
643.263	13.89
643.592	13.31
643.922	13.49
644.252	13.94
644.582	13.8
644.911	13.85
645.241	14
645.571	13.67
645.9	13.9
646.23	14.04
646.559	14.1
646.888	14.06
647.218	13.84
647.547	13.81
647.876	13.79
648.205	13.94
648.534	13.95
648.863	13.86
649.192	14.17
649.521	14.06
649.85	14.02
650.179	13.97
650.508	14.4
650.837	14.08
651.165	14.34
651.494	14.06
651.822	14.19
652.151	14.4
652.479	14.47
652.808	14.42
653.136	14.33
653.465	14.48
653.793	14.39
654.121	14.57
654.449	14.87
654.777	14.62
655.105	14.93
655.433	14.19
655.761	14.45
656.089	14.77
656.417	14.64
656.745	14.4
657.073	14.94
657.4	14.48
657.728	15.53
658.056	15.06
658.383	15.25
658.711	15.25
659.038	15.26
659.365	15.01
659.693	15.14
660.02	15.48
660.347	15.18
660.674	14.86
661.001	15.33
661.329	15.16
661.656	15.34
661.982	15.01
662.309	15.21
662.636	15.25
662.963	15.31
663.29	15.39
663.616	15.22
663.943	15.8
664.27	15.34
664.596	15.66
664.923	15.49
665.249	15.72
665.576	16.37
665.902	15.88
666.228	15.7
666.554	15.69
666.881	16.08
667.207	15.86
667.533	15.88
667.859	16.15
668.185	15.78
668.511	15.94
668.837	16.33
669.162	16.09
669.488	16.17
669.814	16.22
670.139	16.7
670.465	16.1
670.791	16.39
671.116	16.41
671.442	16.52
671.767	16.42
672.092	16.71
672.418	16.26
672.743	17.14
673.068	16.84
673.393	16.7
673.718	16.58
674.043	16.92
674.368	16.21
674.693	17.52
675.018	16.96
675.343	17.19
675.667	17.41
675.992	17.12
676.317	17.68
676.641	17.33
676.966	17.19
677.29	17.34
677.615	16.8
677.939	17.32
678.264	16.97
678.588	17.58
678.912	17.08
679.236	17.7
679.56	17.76
679.885	17.54
680.209	17.24
680.532	17.37
680.856	17.32
681.18	17.16
681.504	17.19
681.828	17.11
682.152	17.57
682.475	17.79
682.799	17.09
683.122	17.91
683.446	17.67
683.769	17.39
684.093	17.45
684.416	17.58
684.739	17.71
685.062	17.63
685.386	17.75
685.709	18.71
686.032	18.84
686.355	17.88
686.678	18.22
687.001	18.08
687.324	17.53
