Data from 1710-1_forehead_Reflection__3__28.txt Node

Date: Fri Oct 07 15:17:32 CDT 2022
User: ToomeyLab
Spectrometer: FLMS14357
Trigger mode: 0
Integration Time (sec): 1.000000E-2
Scans to average: 100
Electric dark correction enabled: true
Nonlinearity correction enabled: false
Boxcar width: 0
XAxis mode: Wavelengths
Number of Pixels in Spectrum: 2048
>>>>>Begin Spectral Data<<<<<
189.047	79.28
189.435	79.28
189.823	79.28
190.211	37.84
190.599	1226.11
190.987	69.49
191.375	149.55
191.763	-299.05
192.151	-27.13
192.538	-99.06
192.926	429.47
193.314	11.44
193.702	-1811.66
194.089	-10.9
194.477	48.87
194.864	256.68
195.252	356.22
195.639	-194.15
196.027	-152.31
196.414	77.8
196.801	-7.11
197.189	-98.63
197.576	-2702.9
197.963	29.84
198.351	27.02
198.738	30.7
199.125	52.48
199.512	10.81
199.899	28.4
200.286	64.2
200.673	8.61
201.06	33.69
201.447	25.57
201.833	34.45
202.22	79.27
202.607	37.57
202.994	58.43
203.38	16.6
203.767	49.59
204.154	14.59
204.54	31.6
204.927	41.51
205.313	19.24
205.699	14.51
206.086	4.77
206.472	84.7
206.858	55.15
207.245	51.51
207.631	24.82
208.017	11.74
208.403	25.33
208.789	48.03
209.175	-0.91
209.561	59.07
209.947	14.24
210.333	26.43
210.719	44.54
211.105	35.51
211.491	37
211.876	30.37
212.262	36.63
212.648	16.11
213.034	35.04
213.419	17.54
213.805	13.64
214.19	15.43
214.576	33.45
214.961	26.22
215.346	9.83
215.732	34.52
216.117	40.4
216.502	20.46
216.888	11.97
217.273	24.93
217.658	10.56
218.043	23.21
218.428	43.37
218.813	38.85
219.198	15.33
219.583	25.93
219.968	45.93
220.353	14.64
220.738	31.25
221.122	25.3
221.507	8.69
221.892	14.77
222.276	10.88
222.661	30.45
223.046	17.3
223.43	23.62
223.815	19.57
224.199	11.25
224.583	10.28
224.968	3.54
225.352	15.64
225.736	14.19
226.121	15.11
226.505	12.95
226.889	4.51
227.273	16.19
227.657	8.02
228.041	9.81
228.425	7.58
228.809	9.44
229.193	8.12
229.577	4.92
229.961	4.9
230.344	4.85
230.728	4.99
231.112	4.95
231.495	5.26
231.879	5.29
232.263	5.57
232.646	5.14
233.03	5.04
233.413	4.51
233.797	6.76
234.18	3.8
234.563	5.03
234.946	5.17
235.33	2.86
235.713	5.3
236.096	4.96
236.479	5.28
236.862	5.96
237.245	5.44
237.628	5.78
238.011	7.2
238.394	6.06
238.777	5.41
239.16	6.82
239.543	5.31
239.925	4.66
240.308	4.36
240.691	5.29
241.073	4.25
241.456	7.05
241.838	6.41
242.221	6.06
242.603	4.91
242.986	5.29
243.368	4.89
243.75	5
244.133	4.73
244.515	4.95
244.897	4.63
245.279	4.9
245.661	4.99
246.043	5.5
246.425	6.46
246.807	5.49
247.189	5.53
247.571	5.73
247.953	5.05
248.335	5.05
248.717	4.66
249.098	4.55
249.48	4.63
249.862	4.57
250.243	4.79
250.625	4.8
251.006	4.8
251.388	5.1
251.769	6.26
252.151	5.53
252.532	6.43
252.913	5.22
253.295	6.07
253.676	5.39
254.057	4.99
254.438	5.05
254.819	4.54
255.2	5.32
255.581	5.18
255.962	6.22
256.343	5.34
256.724	6.08
257.105	6.98
257.486	5.62
257.867	5.5
258.247	6.21
258.628	5.7
259.009	5.55
259.389	5.34
259.77	5.33
260.15	5.17
260.531	5.51
260.911	5.29
261.292	5.03
261.672	5.01
262.052	4.81
262.432	4.39
262.813	5.25
263.193	5.43
263.573	5.45
263.953	5.74
264.333	5.28
264.713	5.14
265.093	5.84
265.473	5.14
265.853	4.93
266.233	5.19
266.612	5.9
266.992	5.3
267.372	4.97
267.752	5.05
268.131	5.19
268.511	4.83
268.89	4.67
269.27	4.99
269.649	5.07
270.029	4.69
270.408	4.73
270.787	5.29
271.167	5.16
271.546	4.82
271.925	4.48
272.304	4.81
272.683	4.49
273.062	4.93
273.441	4.87
273.82	5.05
274.199	4.77
274.578	4.68
274.957	4.96
275.336	5.2
275.715	5.14
276.093	4.98
276.472	5.52
276.851	5.34
277.229	4.63
277.608	4.87
277.986	4.74
278.365	5.18
278.743	5.05
279.122	5.27
279.5	4.95
279.878	4.91
280.257	4.74
280.635	4.86
281.013	4.99
281.391	5.2
281.769	5.15
282.147	4.91
282.525	4.88
282.903	4.72
283.281	4.91
283.659	5.05
284.037	5.39
284.415	5.55
284.792	5.07
285.17	5.01
285.548	5.09
285.925	5.08
286.303	4.64
286.68	4.57
287.058	4.87
287.435	4.92
287.813	5.06
288.19	5.17
288.567	5.1
288.945	5.1
289.322	5.18
289.699	5.26
290.076	5.74
290.453	5.73
290.83	5.23
291.207	5.46
291.584	5.39
291.961	5.26
292.338	5.36
292.715	5.74
293.092	5.59
293.469	5.74
293.845	5.89
294.222	6.01
294.599	5.6
294.975	5.88
295.352	6.55
295.728	6.33
296.105	6.51
296.481	5.49
296.858	6.41
297.234	6.33
297.61	6.55
297.986	6.37
298.363	6.52
298.739	6.18
299.115	6.03
299.491	6.65
299.867	6.33
300.243	6.77
300.619	6.61
300.995	6.66
301.371	6.24
301.746	7.19
302.122	7.08
302.498	7.13
302.874	7.17
303.249	7.23
303.625	7.01
304	7.63
304.376	7.15
304.751	7.41
305.127	7.06
305.502	7.59
305.878	7.56
306.253	7.54
306.628	7.74
307.003	7.98
307.378	8.57
307.754	7.61
308.129	7.99
308.504	7.9
308.879	7.91
309.254	8
309.629	8.23
310.003	8.53
310.378	8.43
310.753	8.47
311.128	8.18
311.502	8.77
311.877	8.6
312.252	8.87
312.626	8.94
313.001	8.98
313.375	8.58
313.75	8.8
314.124	9.14
314.498	9.43
314.873	9.43
315.247	9.07
315.621	9.05
315.995	9.81
316.369	9.57
316.743	9.34
317.117	9.79
317.491	10.38
317.865	9.68
318.239	10.46
318.613	10.34
318.987	10.42
319.361	10.46
319.734	10.4
320.108	10.08
320.482	11.15
320.855	10.78
321.229	11.04
321.602	10.42
321.976	10.86
322.349	11.62
322.723	11.36
323.096	10.9
323.469	11.33
323.843	11.67
324.216	11.29
324.589	11.98
324.962	11.21
325.335	11.25
325.708	11.11
326.081	11.75
326.454	12.02
326.827	11.72
327.2	11.98
327.573	12.07
327.945	11.72
328.318	11.77
328.691	11.97
329.063	11.88
329.436	12.66
329.809	12.19
330.181	12.32
330.553	12.1
330.926	12.83
331.298	12.16
331.671	12.22
332.043	12.42
332.415	12.8
332.787	12.25
333.159	12.54
333.532	12.8
333.904	12.97
334.276	13.06
334.648	12.99
335.02	12.44
335.391	13.18
335.763	13.73
336.135	13.04
336.507	13.56
336.879	13.75
337.25	13.92
337.622	13.48
337.993	13.97
338.365	13.9
338.736	13.45
339.108	13.83
339.479	13.89
339.851	13.74
340.222	14.01
340.593	13.87
340.964	13.92
341.336	14.04
341.707	13.88
342.078	14.39
342.449	14.47
342.82	14.3
343.191	14.11
343.562	14.07
343.933	14.39
344.303	14.95
344.674	14.69
345.045	14.46
345.416	14.84
345.786	15.35
346.157	14.79
346.527	14.89
346.898	15.34
347.268	14.8
347.639	14.71
348.009	15.47
348.38	15.29
348.75	15.41
349.12	15.21
349.49	15.09
349.861	15.5
350.231	15.53
350.601	15.12
350.971	16.13
351.341	15.71
351.711	15.61
352.081	15.88
352.45	15.76
352.82	15.93
353.19	16.25
353.56	15.77
353.929	15.73
354.299	16.15
354.669	16.16
355.038	16.22
355.408	16.29
355.777	16.11
356.147	16.28
356.516	16.52
356.885	16.75
357.254	16.41
357.624	16.27
357.993	16.49
358.362	16.81
358.731	16.67
359.1	16.72
359.469	16.88
359.838	16.54
360.207	16.87
360.576	16.72
360.945	16.91
361.314	17.11
361.682	17.2
362.051	17.26
362.42	17.31
362.788	17.27
363.157	17.04
363.525	17.3
363.894	17.35
364.262	17.39
364.631	17.28
364.999	17.6
365.367	17.81
365.735	18.18
366.104	17.64
366.472	17.85
366.84	17.74
367.208	17.76
367.576	17.67
367.944	18.04
368.312	18.26
368.68	18.2
369.048	18.71
369.416	18.39
369.783	18.38
370.151	18.62
370.519	18.16
370.886	18.46
371.254	18.64
371.621	18.74
371.989	18.91
372.356	18.86
372.724	19.12
373.091	18.97
373.458	19
373.826	18.7
374.193	19.18
374.56	19.29
374.927	19.44
375.294	19.18
375.661	19.45
376.028	19.55
376.395	19.36
376.762	19.73
377.129	19.79
377.496	19.75
377.863	19.88
378.229	19.85
378.596	19.77
378.963	20.09
379.329	19.73
379.696	19.88
380.062	20.21
380.429	20.42
380.795	20.06
381.161	20.11
381.528	20.25
381.894	20.62
382.26	20.28
382.626	20.61
382.993	20.52
383.359	20.42
383.725	20.7
384.091	20.93
384.457	20.99
384.823	21.04
385.188	20.71
385.554	20.76
385.92	21.14
386.286	20.87
386.651	20.78
387.017	20.89
387.383	21.48
387.748	21.19
388.114	21.11
388.479	21.17
388.845	21.37
389.21	21.38
389.575	21.35
389.94	21.78
390.306	21.49
390.671	22.01
391.036	21.87
391.401	21.6
391.766	21.96
392.131	21.98
392.496	21.85
392.861	21.75
393.226	22.27
393.591	22.09
393.956	22.18
394.32	22.03
394.685	22.39
395.05	22.34
395.414	22.27
395.779	22.67
396.143	22.57
396.508	22.27
396.872	22.37
397.236	22.75
397.601	22.86
397.965	22.87
398.329	22.82
398.694	22.81
399.058	22.9
399.422	23.26
399.786	23.38
400.15	22.97
400.514	22.97
400.878	23.22
401.242	23.13
401.605	23.45
401.969	23.42
402.333	23.44
402.697	23.36
403.06	23.63
403.424	23.7
403.787	23.95
404.151	23.82
404.514	23.84
404.878	23.68
405.241	23.66
405.604	24.06
405.968	23.76
406.331	24.05
406.694	23.79
407.057	23.95
407.42	24.15
407.783	24.07
408.146	24.22
408.509	24.22
408.872	24.35
409.235	24.28
409.598	24.51
409.961	24.33
410.323	24.69
410.686	25.1
411.049	24.71
411.411	24.76
411.774	24.88
412.136	24.73
412.499	24.83
412.861	24.9
413.223	24.65
413.586	25.09
413.948	25.01
414.31	24.98
414.672	25.24
415.035	25.12
415.397	25.41
415.759	25.48
416.121	25.36
416.483	25.4
416.845	25.56
417.206	25.55
417.568	25.66
417.93	25.3
418.292	25.78
418.653	25.64
419.015	25.7
419.377	25.54
419.738	25.72
420.1	25.61
420.461	25.73
420.822	25.5
421.184	25.57
421.545	25.69
421.906	25.69
422.267	25.76
422.629	25.56
422.99	25.69
423.351	25.79
423.712	25.72
424.073	25.81
424.434	26.07
424.795	26.12
425.155	26.33
425.516	26.03
425.877	26.09
426.238	26.22
426.598	26.07
426.959	26.26
427.32	26.42
427.68	26.57
428.041	26.7
428.401	26.7
428.761	27.02
429.122	26.82
429.482	26.97
429.842	27.13
430.202	27.04
430.563	27.35
430.923	27.32
431.283	27.2
431.643	27.49
432.003	27.35
432.363	27.67
432.722	27.49
433.082	27.39
433.442	27.64
433.802	28.01
434.161	27.83
434.521	27.81
434.881	27.78
435.24	27.92
435.6	27.89
435.959	27.83
436.319	27.82
436.678	27.89
437.037	28.04
437.396	28.1
437.756	28.25
438.115	28.24
438.474	28.3
438.833	28.26
439.192	28.51
439.551	28.52
439.91	28.5
440.269	28.46
440.628	28.61
440.987	28.52
441.345	28.53
441.704	28.48
442.063	28.53
442.421	28.54
442.78	28.54
443.138	28.54
443.497	28.75
443.855	28.63
444.214	28.8
444.572	28.89
444.93	28.96
445.288	29.01
445.647	29.36
446.005	29.32
446.363	29.21
446.721	29.14
447.079	29.24
447.437	29.1
447.795	29.21
448.153	29.03
448.51	29.2
448.868	29.09
449.226	29.08
449.584	29.23
449.941	29.47
450.299	29.64
450.656	29.56
451.014	29.81
451.371	29.83
451.729	30.01
452.086	29.92
452.443	30.32
452.801	30.12
453.158	30.34
453.515	30.37
453.872	30.39
454.229	30.3
454.586	30.37
454.943	30.32
455.3	30.2
455.657	30.49
456.014	30.44
456.371	30.89
456.727	30.76
457.084	30.87
457.441	30.98
457.797	30.95
458.154	30.81
458.51	30.98
458.867	31.14
459.223	30.97
459.58	31.23
459.936	31.23
460.292	31.14
460.648	31.17
461.005	31.07
461.361	31
461.717	30.86
462.073	30.92
462.429	30.82
462.785	31.17
463.141	31.2
463.496	31.3
463.852	31.49
464.208	31.51
464.564	31.78
464.919	31.8
465.275	31.93
465.631	31.87
465.986	31.96
466.342	32.23
466.697	32.13
467.052	31.95
467.408	31.96
467.763	32.13
468.118	32.2
468.473	32.07
468.829	32.17
469.184	32.3
469.539	32.31
469.894	32.4
470.249	32.19
470.603	32.26
470.958	32.49
471.313	32.32
471.668	32.61
472.023	32.84
472.377	32.64
472.732	32.82
473.086	32.99
473.441	32.76
473.795	32.89
474.15	32.7
474.504	33.07
474.859	33.11
475.213	33
475.567	33.03
475.921	33.12
476.275	33.27
476.63	33.15
476.984	33.19
477.338	33.29
477.692	33.31
478.045	33.45
478.399	33.44
478.753	33.39
479.107	33.56
479.461	33.45
479.814	33.49
480.168	33.39
480.521	33.75
480.875	33.59
481.228	33.78
481.582	33.52
481.935	33.84
482.289	33.74
482.642	33.94
482.995	33.82
483.348	33.69
483.701	33.65
484.055	33.6
484.408	33.74
484.761	33.44
485.114	33.29
485.466	33.34
485.819	33.3
486.172	33.25
486.525	32.99
486.878	32.96
487.23	33.15
487.583	33.35
487.936	33.67
488.288	33.87
488.641	33.77
488.993	33.75
489.345	33.65
489.698	33.73
490.05	33.63
490.402	33.59
490.754	33.8
491.107	33.93
491.459	34.13
491.811	34.2
492.163	34.54
492.515	34.54
492.866	34.31
493.218	34.36
493.57	34.29
493.922	34.06
494.274	34.12
494.625	34.2
494.977	34.43
495.328	34.65
495.68	34.9
496.031	35.23
496.383	35.41
496.734	35.37
497.086	35.36
497.437	35.57
497.788	35.37
498.139	35.53
498.49	35.5
498.842	35.46
499.193	35.29
499.544	35.31
499.894	35.59
500.245	35.71
500.596	35.7
500.947	35.52
501.298	35.85
501.648	35.76
501.999	36.03
502.35	36.24
502.7	36.25
503.051	36.24
503.401	36.22
503.752	36.33
504.102	36.19
504.452	36.31
504.803	36.33
505.153	36.42
505.503	36.41
505.853	36.52
506.203	36.31
506.553	36.65
506.903	36.46
507.253	36.73
507.603	36.77
507.953	36.74
508.303	36.62
508.652	36.88
509.002	36.9
509.352	36.91
509.701	36.94
510.051	36.75
510.4	36.92
510.75	36.67
511.099	36.85
511.449	36.95
511.798	37.05
512.147	36.94
512.496	37.13
512.846	37.04
513.195	37.13
513.544	37.28
513.893	37.14
514.242	37.3
514.591	37.33
514.939	37.22
515.288	37.32
515.637	37.56
515.986	37.44
516.334	37.66
516.683	37.67
517.032	37.63
517.38	37.8
517.729	37.75
518.077	37.9
518.426	37.76
518.774	37.89
519.122	37.82
519.47	37.87
519.819	37.72
520.167	37.77
520.515	37.88
520.863	37.77
521.211	37.66
521.559	37.68
521.907	37.84
522.255	37.91
522.602	37.93
522.95	38.35
523.298	38.26
523.645	38.59
523.993	38.64
524.341	38.44
524.688	38.6
525.036	38.55
525.383	38.55
525.73	38.89
526.078	38.49
526.425	38.53
526.772	38.52
527.119	38.59
527.466	38.5
527.814	38.47
528.161	38.45
528.508	38.45
528.854	38.49
529.201	38.6
529.548	38.69
529.895	38.47
530.242	38.46
530.588	38.63
530.935	38.38
531.282	38.19
531.628	38.14
531.975	38.35
532.321	38.41
532.667	38.66
533.014	38.9
533.36	38.92
533.706	39.03
534.052	39.14
534.399	39.15
534.745	39.17
535.091	39.01
535.437	38.97
535.783	38.85
536.129	38.93
536.474	39.14
536.82	39.13
537.166	39.36
537.512	39.38
537.857	39.57
538.203	39.57
538.549	39.79
538.894	39.71
539.239	39.58
539.585	39.64
539.93	39.79
540.276	40.08
540.621	40.09
540.966	40.28
541.311	40.49
541.656	40.44
542.001	40.13
542.346	40.24
542.691	39.96
543.036	39.89
543.381	39.81
543.726	39.55
544.071	39.62
544.415	39.62
544.76	39.76
545.105	40.01
545.449	40.12
545.794	40.24
546.138	40.32
546.483	40.47
546.827	40.43
547.171	40.77
547.516	40.65
547.86	40.8
548.204	40.62
548.548	40.67
548.892	40.73
549.236	40.7
549.58	40.83
549.924	40.99
550.268	40.93
550.612	41.21
550.956	41.63
551.3	41.38
551.643	41.5
551.987	41.48
552.33	41.88
552.674	41.83
553.017	41.95
553.361	41.63
553.704	41.9
554.048	41.91
554.391	41.79
554.734	41.99
555.077	41.86
555.42	41.8
555.764	41.81
556.107	41.68
556.45	41.76
556.793	41.95
557.135	42.26
557.478	42.12
557.821	42.21
558.164	42.25
558.507	42.42
558.849	42.28
559.192	42.37
559.534	42.44
559.877	42.61
560.219	42.83
560.562	42.41
560.904	42.56
561.246	42.73
561.589	42.78
561.931	42.81
562.273	42.49
562.615	42.97
562.957	42.93
563.299	42.77
563.641	42.91
563.983	42.96
564.325	42.88
564.667	43.02
565.008	42.9
565.35	42.98
565.692	42.95
566.033	43.02
566.375	43.47
566.716	43.31
567.058	43.31
567.399	43.1
567.741	43.08
568.082	43.22
568.423	43.22
568.764	43.3
569.105	43.03
569.447	43.33
569.788	43.19
570.129	43.32
570.47	43.55
570.811	43.82
571.151	43.55
571.492	43.73
571.833	43.59
572.174	43.76
572.514	43.78
572.855	43.82
573.195	43.6
573.536	43.87
573.876	43.88
574.217	43.66
574.557	43.91
574.898	43.68
575.238	43.93
575.578	44.08
575.918	43.88
576.258	43.94
576.598	44.07
576.938	43.97
577.278	44.2
577.618	43.87
577.958	44.15
578.298	44.19
578.638	44.29
578.977	44.26
579.317	44.49
579.657	44.51
579.996	44.54
580.336	44.3
580.675	44.47
581.014	44.46
581.354	44.68
581.693	44.85
582.032	44.9
582.372	44.76
582.711	44.91
583.05	44.69
583.389	44.98
583.728	44.65
584.067	44.83
584.406	44.87
584.745	45.03
585.083	45.07
585.422	45.07
585.761	44.87
586.1	45.37
586.438	45.17
586.777	45.2
587.115	45.17
587.454	45.33
587.792	45.3
588.13	45.09
588.469	45.27
588.807	45.3
589.145	45.5
589.483	45.53
589.821	45.3
590.159	45.15
590.497	45.58
590.835	45.67
591.173	45.41
591.511	45.33
591.849	45.9
592.187	45.5
592.524	45.58
592.862	45.6
593.2	45.44
593.537	45.74
593.875	45.73
594.212	45.8
594.55	45.96
594.887	45.98
595.224	46.19
595.561	45.84
595.899	46.1
596.236	46.61
596.573	45.78
596.91	46.13
597.247	46.36
597.584	46.12
597.921	46.11
598.258	46.18
598.594	45.97
598.931	46.2
599.268	46.14
599.604	46.14
599.941	46.04
600.277	45.74
600.614	46.14
600.95	46.7
601.287	46.46
601.623	46.59
601.959	46.62
602.296	46.83
602.632	46.82
602.968	46.56
603.304	46.97
603.64	46.86
603.976	47.07
604.312	46.97
604.648	46.65
604.984	46.77
605.319	46.93
605.655	46.86
605.991	46.53
606.326	46.6
606.662	46.96
606.998	46.68
607.333	46.78
607.668	46.57
608.004	46.98
608.339	47.01
608.674	47.08
609.01	47.31
609.345	47.18
609.68	47.28
610.015	47.34
610.35	47.38
610.685	47.47
611.02	47.19
611.355	47.48
611.689	47.66
612.024	47.29
612.359	47.41
612.694	47.35
613.028	47.19
613.363	47.21
613.697	47.33
614.032	47.68
614.366	47.27
614.7	47.58
615.035	47.96
615.369	48.28
615.703	47.72
616.037	47.9
616.371	48.01
616.705	47.81
617.039	48.33
617.373	48.07
617.707	47.92
618.041	48.33
618.375	48.15
618.709	48.45
619.042	48.08
619.376	48.34
619.71	48.17
620.043	47.93
620.377	47.99
620.71	48.43
621.043	48.45
621.377	48.16
621.71	48.78
622.043	48.29
622.376	48.14
622.709	48.54
623.043	48.45
623.376	48.59
623.709	48.64
624.041	48.71
624.374	48.96
624.707	48.35
625.04	48.73
625.373	48.59
625.705	48.35
626.038	48.6
626.37	49.04
626.703	48.86
627.035	48.98
627.368	49.18
627.7	48.93
628.032	48.83
628.365	49.09
628.697	49.06
629.029	48.58
629.361	49.27
629.693	48.7
630.025	48.51
630.357	48.95
630.689	49.03
631.021	49.19
631.353	49.28
631.684	49.37
632.016	49.3
632.348	49.56
632.679	48.98
633.011	49.32
633.342	48.98
633.674	49.53
634.005	49.68
634.336	49.07
634.668	49.82
634.999	49.73
635.33	49.71
635.661	49.24
635.992	49.34
636.323	49.78
636.654	49.08
636.985	49.85
637.316	49.82
637.647	49.57
637.977	49.24
638.308	49.81
638.639	50.14
638.969	49.83
639.3	49.61
639.63	49.99
639.961	49.55
640.291	49.81
640.622	49.83
640.952	49.75
641.282	49.81
641.612	49.7
641.943	50.28
642.273	50.08
642.603	50.41
642.933	49.58
643.263	50.32
643.592	50.44
643.922	49.88
644.252	50.45
644.582	50.26
644.911	50.67
645.241	50.82
645.571	49.97
645.9	50.46
646.23	50.33
646.559	50.27
646.888	50.07
647.218	50.44
647.547	50.32
647.876	49.96
648.205	50.97
648.534	50.61
648.863	50.57
649.192	50.82
649.521	50.46
649.85	50.27
650.179	50.68
650.508	50.61
650.837	51.07
651.165	50.47
651.494	50.47
651.822	50.88
652.151	50.76
652.479	50.79
652.808	50.94
653.136	50.74
653.465	50.93
653.793	51.09
654.121	50.93
654.449	51.49
654.777	51.38
655.105	51.54
655.433	51.07
655.761	50.67
656.089	51.13
656.417	51.15
656.745	51.25
657.073	51.87
657.4	51.45
657.728	51.38
658.056	50.78
658.383	51.24
658.711	51.54
659.038	51.55
659.365	50.77
659.693	51.43
660.02	51.9
660.347	51.92
660.674	51.06
661.001	51.87
661.329	51.28
661.656	51.49
661.982	51.37
662.309	50.81
662.636	51.11
662.963	51.55
663.29	50.58
663.616	51.36
663.943	52.29
664.27	51.42
664.596	52.2
664.923	51.5
665.249	52.51
665.576	51.79
665.902	51.79
666.228	51.84
666.554	52.18
666.881	51.69
667.207	52.17
667.533	51.99
667.859	52.35
668.185	52.6
668.511	51.65
668.837	51.82
