Data from 0189_chest_Reflection__4__115.txt Node

Date: Fri Sep 22 21:13:25 CDT 2023
User: ToomeyLab
Spectrometer: FLMS14357
Trigger mode: 0
Integration Time (sec): 1.000000E-2
Scans to average: 100
Electric dark correction enabled: true
Nonlinearity correction enabled: false
Boxcar width: 0
XAxis mode: Wavelengths
Number of Pixels in Spectrum: 2048
>>>>>Begin Spectral Data<<<<<
189.047	0.49
189.435	0.49
189.823	0.49
190.211	390.73
190.599	82.56
190.987	-1459.23
191.375	-55.82
191.763	1781.31
192.151	221.31
192.538	319.2
192.926	184.62
193.314	33.13
193.702	-468.36
194.089	71.47
194.477	232.07
194.864	-455.99
195.252	35.98
195.639	112.7
196.027	2019.32
196.414	396.44
196.801	36.69
197.189	16.71
197.576	-18.9
197.963	45.27
198.351	23.16
198.738	15.52
199.125	1.91
199.512	28.84
199.899	57.61
200.286	8.33
200.673	67.88
201.06	18.4
201.447	49.44
201.833	-24.55
202.22	35.55
202.607	32.9
202.994	69.07
203.38	37.22
203.767	-3.86
204.154	33.9
204.54	48.22
204.927	8.91
205.313	39.7
205.699	51.76
206.086	48.24
206.472	48.91
206.858	14.48
207.245	11.08
207.631	43.43
208.017	-0.62
208.403	28.96
208.789	21.82
209.175	55.18
209.561	44.95
209.947	40.71
210.333	31.86
210.719	17.15
211.105	13.61
211.491	14.95
211.876	54.79
212.262	38.39
212.648	30.15
213.034	39.48
213.419	30.24
213.805	27.03
214.19	18.41
214.576	11.52
214.961	8.78
215.346	-10.04
215.732	22.11
216.117	19.34
216.502	29.4
216.888	7.73
217.273	15
217.658	18.79
218.043	28.99
218.428	23.04
218.813	0.82
219.198	19.42
219.583	-10.11
219.968	9.73
220.353	52.48
220.738	19.94
221.122	7.38
221.507	15.8
221.892	14.02
222.276	-2.89
222.661	-2.1
223.046	22.21
223.43	23.89
223.815	7.65
224.199	4.39
224.583	14.04
224.968	18.4
225.352	6.32
225.736	11.7
226.121	5.29
226.505	9.42
226.889	6.51
227.273	9.68
227.657	8.98
228.041	5.09
228.425	14.04
228.809	2.05
229.193	6.28
229.577	7.6
229.961	6.67
230.344	5.67
230.728	4.4
231.112	5.14
231.495	3.94
231.879	4.13
232.263	3.05
232.646	4.58
233.03	3.6
233.413	4.36
233.797	4.63
234.18	4.01
234.563	6.26
234.946	5.71
235.33	1.4
235.713	1.4
236.096	3.28
236.479	4.42
236.862	6.75
237.245	5.05
237.628	5.12
238.011	4.79
238.394	4.95
238.777	5.15
239.16	5.02
239.543	5.26
239.925	5
240.308	4.86
240.691	3.73
241.073	5.3
241.456	5.38
241.838	4.31
242.221	4.3
242.603	3.59
242.986	3.19
243.368	3.38
243.75	4.42
244.133	4.28
244.515	3.38
244.897	3.27
245.279	3.87
245.661	3.53
246.043	3.55
246.425	3.73
246.807	3.77
247.189	3.48
247.571	4.41
247.953	4.36
248.335	4.09
248.717	3.78
249.098	3.87
249.48	3.31
249.862	3.59
250.243	3.73
250.625	4.01
251.006	3.06
251.388	3.87
251.769	4.35
252.151	3.95
252.532	3.84
252.913	4.2
253.295	5.07
253.676	4.23
254.057	4.41
254.438	4.16
254.819	3.17
255.2	3.75
255.581	4
255.962	5.28
256.343	4.85
256.724	4.71
257.105	4.34
257.486	4.65
257.867	4.49
258.247	4.47
258.628	4.92
259.009	3.5
259.389	2.95
259.77	3.48
260.15	3.81
260.531	3.69
260.911	3.17
261.292	3.45
261.672	3.14
262.052	3.15
262.432	3.4
262.813	3.55
263.193	3.25
263.573	3.86
263.953	3.13
264.333	3.65
264.713	3.33
265.093	4.08
265.473	4.2
265.853	3.04
266.233	3.07
266.612	3.66
266.992	4.38
267.372	2.94
267.752	3.56
268.131	3.41
268.511	3.26
268.89	3.58
269.27	3.53
269.649	4.06
270.029	3.25
270.408	3.66
270.787	3.27
271.167	3.78
271.546	3.01
271.925	3.67
272.304	3.33
272.683	3.74
273.062	4.04
273.441	3.23
273.82	4.03
274.199	3.67
274.578	3.52
274.957	3.07
275.336	3.17
275.715	3.13
276.093	3.24
276.472	3.21
276.851	3.27
277.229	2.49
277.608	3.6
277.986	2.95
278.365	3.22
278.743	3.59
279.122	3.17
279.5	4.11
279.878	3.55
280.257	4.04
280.635	3.39
281.013	3.93
281.391	3.14
281.769	3.89
282.147	3.12
282.525	3.2
282.903	3.16
283.281	3.8
283.659	3.64
284.037	3.3
284.415	3.6
284.792	2.85
285.17	3.14
285.548	4.05
285.925	3.67
286.303	3.47
286.68	3.16
287.058	3.16
287.435	3.33
287.813	3.19
288.19	3.16
288.567	3.8
288.945	3.23
289.322	3.51
289.699	3.24
290.076	3.64
290.453	3.2
290.83	3.08
291.207	3.53
291.584	3.08
291.961	2.92
292.338	3.84
292.715	3.88
293.092	3.26
293.469	3.66
293.845	4.06
294.222	3.45
294.599	3.55
294.975	3.64
295.352	4.33
295.728	3.62
296.105	4.41
296.481	3.47
296.858	3.9
297.234	4.09
297.61	3.7
297.986	3.8
298.363	3.92
298.739	3.94
299.115	3.75
299.491	3.97
299.867	4.05
300.243	3.84
300.619	3.7
300.995	3.28
301.371	3.93
301.746	4.04
302.122	3.96
302.498	3.73
302.874	3.61
303.249	3.56
303.625	4.09
304	4.07
304.376	4.32
304.751	4.31
305.127	4.16
305.502	4.1
305.878	4.14
306.253	4.45
306.628	4.91
307.003	4.1
307.378	3.58
307.754	3.93
308.129	4.01
308.504	3.85
308.879	4.09
309.254	4.19
309.629	4.43
310.003	4.44
310.378	4.46
310.753	4.16
311.128	4.09
311.502	4.3
311.877	3.88
312.252	4.17
312.626	3.9
313.001	4.48
313.375	4.28
313.75	4.58
314.124	4.28
314.498	3.66
314.873	4.43
315.247	4.3
315.621	4.36
315.995	4.39
316.369	4.56
316.743	3.9
317.117	4.41
317.491	4.87
317.865	4.27
318.239	3.88
318.613	4.47
318.987	4.55
319.361	3.92
319.734	3.92
320.108	4.83
320.482	4.09
320.855	4.54
321.229	4.82
321.602	4.54
321.976	4.12
322.349	4.48
322.723	4.55
323.096	4.13
323.469	4.77
323.843	4.43
324.216	4.58
324.589	4.42
324.962	4.01
325.335	4.17
325.708	4.62
326.081	4.77
326.454	3.87
326.827	4.16
327.2	4.06
327.573	4.99
327.945	4.35
328.318	4.57
328.691	4.5
329.063	4.08
329.436	4.67
329.809	4.63
330.181	4.63
330.553	4.48
330.926	4.53
331.298	4.32
331.671	4.43
332.043	3.59
332.415	3.81
332.787	4.68
333.159	4.1
333.532	4.53
333.904	4.37
334.276	4.45
334.648	4.23
335.02	3.58
335.391	4.49
335.763	4.55
336.135	4.72
336.507	4.74
336.879	4.26
337.25	4.49
337.622	5.04
337.993	4.99
338.365	4.68
338.736	4.18
339.108	4.3
339.479	4.06
339.851	4.26
340.222	4.2
340.593	4.39
340.964	4.31
341.336	4.45
341.707	4.08
342.078	4.33
342.449	4.33
342.82	4.16
343.191	4.47
343.562	4.15
343.933	4.75
344.303	4.74
344.674	4.7
345.045	4.17
345.416	4.72
345.786	4.33
346.157	4.43
346.527	4.17
346.898	4.33
347.268	4.29
347.639	4.47
348.009	4.59
348.38	4.61
348.75	4.86
349.12	4.36
349.49	5.27
349.861	4.59
350.231	4.59
350.601	4.51
350.971	4.85
351.341	4.1
351.711	4.04
352.081	4.16
352.45	4.21
352.82	4.74
353.19	5.03
353.56	4.58
353.929	4.67
354.299	4.46
354.669	4.09
355.038	4.23
355.408	4.08
355.777	4.77
356.147	4.32
356.516	4.4
356.885	4.72
357.254	4.78
357.624	4.07
357.993	4.58
358.362	4.55
358.731	4.59
359.1	4.49
359.469	4.43
359.838	4.15
360.207	4.3
360.576	4.5
360.945	4.06
361.314	4.54
361.682	4.98
362.051	4.42
362.42	4.29
362.788	4.08
363.157	4.45
363.525	4.45
363.894	4.25
364.262	4.26
364.631	4.43
364.999	4.14
365.367	4.63
365.735	4.77
366.104	4.51
366.472	4.61
366.84	4.03
367.208	4.86
367.576	4.76
367.944	4.4
368.312	4.52
368.68	4.48
369.048	4.66
369.416	4.07
369.783	4.2
370.151	4.33
370.519	4.56
370.886	4.55
371.254	4.68
371.621	4.35
371.989	4.72
372.356	4.58
372.724	4.69
373.091	4.74
373.458	4.65
373.826	4.71
374.193	4.7
374.56	4.75
374.927	4.66
375.294	4.4
375.661	4.72
376.028	4.43
376.395	4.75
376.762	4.45
377.129	4.62
377.496	4.9
377.863	4.76
378.229	4.48
378.596	4.52
378.963	4.87
379.329	4.32
379.696	4.81
380.062	4.25
380.429	4.71
380.795	4.83
381.161	4.37
381.528	4.3
381.894	4.45
382.26	4.67
382.626	4.67
382.993	4.7
383.359	4.39
383.725	4.65
384.091	4.84
384.457	4.71
384.823	4.93
385.188	4.94
385.554	4.42
385.92	5.1
386.286	4.78
386.651	4.76
387.017	4.68
387.383	4.56
387.748	4.64
388.114	4.41
388.479	4.73
388.845	4.36
389.21	4.33
389.575	4.98
389.94	4.37
390.306	4.78
390.671	4.9
391.036	4.25
391.401	4.64
391.766	4.82
392.131	4.42
392.496	4.77
392.861	4.41
393.226	4.89
393.591	4.75
393.956	4.87
394.32	4.66
394.685	4.62
395.05	4.95
395.414	4.89
395.779	4.62
396.143	4.96
396.508	4.81
396.872	4.64
397.236	4.79
397.601	4.49
397.965	4.91
398.329	4.91
398.694	4.67
399.058	4.65
399.422	4.66
399.786	4.63
400.15	4.63
400.514	4.82
400.878	4.68
401.242	4.79
401.605	4.66
401.969	4.6
402.333	4.91
402.697	4.69
403.06	4.77
403.424	4.88
403.787	4.96
404.151	4.73
404.514	5.13
404.878	4.89
405.241	5.17
405.604	4.76
405.968	4.8
406.331	4.97
406.694	4.83
407.057	4.56
407.42	4.98
407.783	4.87
408.146	4.79
408.509	4.64
408.872	4.63
409.235	4.78
409.598	4.76
409.961	5.16
410.323	4.98
410.686	4.88
411.049	4.89
411.411	5.01
411.774	4.78
412.136	4.8
412.499	5
412.861	4.99
413.223	5.04
413.586	4.85
413.948	4.83
414.31	5.03
414.672	4.73
415.035	4.75
415.397	5.04
415.759	5.27
416.121	4.88
416.483	4.78
416.845	4.83
417.206	4.67
417.568	4.8
417.93	5.1
418.292	5.02
418.653	4.84
419.015	4.75
419.377	4.72
419.738	5
420.1	4.88
420.461	4.88
420.822	4.9
421.184	4.86
421.545	4.91
421.906	4.99
422.267	4.75
422.629	4.89
422.99	4.8
423.351	4.71
423.712	4.82
424.073	4.78
424.434	4.83
424.795	4.9
425.155	4.93
425.516	4.85
425.877	4.81
426.238	4.73
426.598	4.86
426.959	4.88
427.32	4.86
427.68	4.8
428.041	4.76
428.401	5.08
428.761	5.05
429.122	4.96
429.482	5.08
429.842	4.93
430.202	4.96
430.563	5.1
430.923	5.17
431.283	5.21
431.643	5.16
432.003	5.07
432.363	5.25
432.722	5.11
433.082	5.12
433.442	5.03
433.802	5.34
434.161	5.15
434.521	5.14
434.881	4.96
435.24	4.96
435.6	5.02
435.959	5.06
436.319	4.95
436.678	5.18
437.037	5.04
437.396	5.03
437.756	5.2
438.115	5.08
438.474	5.02
438.833	5.14
439.192	5.06
439.551	5.09
439.91	5.22
440.269	5.21
440.628	5.02
440.987	5.05
441.345	5.12
441.704	5.14
442.063	5.08
442.421	5.16
442.78	5.24
443.138	5.11
443.497	5.06
443.855	5.15
444.214	5.14
444.572	5.21
444.93	5.1
445.288	5.04
445.647	5.3
446.005	5.23
446.363	5.09
446.721	5.26
447.079	5.12
447.437	5.17
447.795	5.12
448.153	4.97
448.51	5.09
448.868	5.14
449.226	5.12
449.584	5.08
449.941	5.02
450.299	5.18
450.656	5.2
451.014	5.31
451.371	5.18
451.729	5.36
452.086	5.25
452.443	5.41
452.801	5.3
453.158	5.14
453.515	5.57
453.872	5.42
454.229	5.46
454.586	5.32
454.943	5.25
455.3	5.24
455.657	5.2
456.014	5.33
456.371	5.31
456.727	5.62
457.084	5.38
457.441	5.18
457.797	5.27
458.154	5.32
458.51	5.25
458.867	5.36
459.223	5.41
459.58	5.56
459.936	5.48
460.292	5.44
460.648	5.46
461.005	5.36
461.361	5.29
461.717	5.16
462.073	5.34
462.429	5.16
462.785	5.29
463.141	5.27
463.496	5.46
463.852	5.59
464.208	5.44
464.564	5.51
464.919	5.44
465.275	5.7
465.631	5.72
465.986	5.64
466.342	5.4
466.697	5.59
467.052	5.55
467.408	5.33
467.763	5.35
468.118	5.56
468.473	5.52
468.829	5.48
469.184	5.56
469.539	5.53
469.894	5.58
470.249	5.65
470.603	5.44
470.958	5.63
471.313	5.63
471.668	5.73
472.023	5.62
472.377	5.66
472.732	5.62
473.086	5.78
473.441	5.46
473.795	5.79
474.15	5.46
474.504	5.57
474.859	5.75
475.213	5.67
475.567	5.58
475.921	5.72
476.275	5.7
476.63	5.63
476.984	5.7
477.338	5.91
477.692	5.75
478.045	5.73
478.399	5.74
478.753	5.61
479.107	5.69
479.461	5.8
479.814	5.75
480.168	5.73
480.521	5.74
480.875	5.78
481.228	5.68
481.582	5.79
481.935	5.75
482.289	5.6
482.642	5.59
482.995	5.75
483.348	5.76
483.701	5.61
484.055	5.63
484.408	5.58
484.761	5.73
485.114	5.49
485.466	5.43
485.819	5.44
486.172	5.39
486.525	5.38
486.878	5.42
487.23	5.43
487.583	5.6
487.936	5.6
488.288	5.65
488.641	5.58
488.993	5.58
489.345	5.54
489.698	5.51
490.05	5.54
490.402	5.57
490.754	5.59
491.107	5.57
491.459	5.69
491.811	5.73
492.163	5.78
492.515	5.8
492.866	5.72
493.218	5.85
493.57	5.71
493.922	5.63
494.274	5.67
494.625	5.68
494.977	5.84
495.328	5.93
495.68	5.96
496.031	5.91
496.383	6.03
496.734	5.97
497.086	6.12
497.437	6.05
497.788	6.05
498.139	6.03
498.49	6.22
498.842	5.97
499.193	5.95
499.544	6.05
499.894	6.03
500.245	6.06
500.596	6.02
500.947	6.14
501.298	6.05
501.648	6.16
501.999	6.12
502.35	6.06
502.7	6.11
503.051	6.23
503.401	6.26
503.752	6.17
504.102	6.07
504.452	6.21
504.803	6.18
505.153	6.22
505.503	6.27
505.853	6.39
506.203	6.11
506.553	6.25
506.903	6.23
507.253	6.21
507.603	6.28
507.953	6.36
508.303	6.38
508.652	6.18
509.002	6.41
509.352	6.23
509.701	6.39
510.051	6.32
510.4	6.36
510.75	6.32
511.099	6.24
511.449	6.33
511.798	6.35
512.147	6.33
512.496	6.37
512.846	6.4
513.195	6.33
513.544	6.33
513.893	6.47
514.242	6.39
514.591	6.5
514.939	6.43
515.288	6.46
515.637	6.5
515.986	6.38
516.334	6.6
516.683	6.45
517.032	6.61
517.38	6.6
517.729	6.61
518.077	6.65
518.426	6.52
518.774	6.64
519.122	6.6
519.47	6.44
519.819	6.59
520.167	6.65
520.515	6.57
520.863	6.46
521.211	6.46
521.559	6.52
521.907	6.72
522.255	6.63
522.602	6.59
522.95	6.72
523.298	6.79
523.645	6.85
523.993	6.79
524.341	6.73
524.688	6.81
525.036	6.68
525.383	6.74
525.73	6.88
526.078	6.86
526.425	6.83
526.772	6.93
527.119	6.86
527.466	6.77
527.814	6.78
528.161	6.68
528.508	6.78
528.854	6.8
529.201	6.8
529.548	6.84
529.895	6.74
530.242	6.72
530.588	6.61
530.935	6.54
531.282	6.65
531.628	6.7
531.975	6.71
532.321	6.78
532.667	6.81
533.014	6.9
533.36	7.02
533.706	7.02
534.052	7.08
534.399	7.08
534.745	7.07
535.091	6.87
535.437	6.95
535.783	6.84
536.129	6.98
536.474	7.09
536.82	6.99
537.166	7.19
537.512	7.11
537.857	7.21
538.203	7.26
538.549	7.12
538.894	7.18
539.239	7.14
539.585	7.18
539.93	7.4
540.276	7.37
540.621	7.3
540.966	7.33
541.311	7.41
541.656	7.37
542.001	7.39
542.346	7.49
542.691	7.56
543.036	7.36
543.381	7.25
543.726	7.24
544.071	7.28
544.415	7.22
544.76	7.36
545.105	7.34
545.449	7.34
545.794	7.43
546.138	7.54
546.483	7.59
546.827	7.59
547.171	7.68
547.516	7.68
547.86	7.77
548.204	7.67
548.548	7.77
548.892	7.79
549.236	7.74
549.58	7.68
549.924	7.79
550.268	7.95
550.612	7.72
550.956	7.93
551.3	8.02
551.643	8.03
551.987	8.03
552.33	8.03
552.674	8.06
553.017	8.12
553.361	8.16
553.704	8.12
554.048	8.14
554.391	8.12
554.734	8.22
555.077	8.13
555.42	8.22
555.764	8.11
556.107	8.25
556.45	8.25
556.793	8.15
557.135	8.41
557.478	8.2
557.821	8.38
558.164	8.54
558.507	8.6
558.849	8.36
559.192	8.35
559.534	8.65
559.877	8.45
560.219	8.44
560.562	8.47
560.904	8.63
561.246	8.86
561.589	8.73
561.931	8.58
562.273	8.46
562.615	8.58
562.957	8.38
563.299	8.59
563.641	8.7
563.983	8.74
564.325	8.87
564.667	8.8
565.008	8.73
565.35	8.86
565.692	8.72
566.033	8.78
566.375	8.83
566.716	8.92
567.058	8.75
567.399	8.99
567.741	9.25
568.082	8.89
568.423	8.97
568.764	9.02
569.105	8.91
569.447	9.07
569.788	8.87
570.129	9.29
570.47	9.23
570.811	9.11
571.151	9.21
571.492	8.94
571.833	9.18
572.174	9.22
572.514	9.37
572.855	9.29
573.195	9.16
573.536	9.25
573.876	9.25
574.217	9.33
574.557	9.32
574.898	9.46
575.238	9.44
575.578	9.44
575.918	9.56
576.258	9.43
576.598	9.59
576.938	9.54
577.278	9.71
577.618	9.48
577.958	9.73
578.298	9.73
578.638	9.42
578.977	9.86
579.317	9.75
579.657	9.72
579.996	9.92
580.336	9.97
580.675	10.06
581.014	9.86
581.354	9.84
581.693	9.98
582.032	10.07
582.372	10.1
582.711	10.03
583.05	10.18
583.389	10.25
583.728	10.15
584.067	10.18
584.406	10.04
584.745	10.03
585.083	10.55
585.422	10.46
585.761	10.36
586.1	10.39
586.438	10.23
586.777	10.44
587.115	10.46
587.454	10.18
587.792	10.81
588.13	10.45
588.469	10.5
588.807	10.73
589.145	10.53
589.483	10.5
589.821	10.56
590.159	10.45
590.497	10.77
590.835	10.79
591.173	10.54
591.511	10.85
591.849	11.03
592.187	10.87
592.524	10.89
592.862	10.81
593.2	10.83
593.537	10.84
593.875	10.88
594.212	11.03
594.55	11.04
594.887	10.84
595.224	11.19
595.561	11.17
595.899	11.29
596.236	11.57
596.573	11.31
596.91	11.2
597.247	11.2
597.584	11.15
597.921	11.62
598.258	11.61
598.594	11.41
598.931	11.3
599.268	11.37
599.604	11.36
599.941	11.36
600.277	11.32
600.614	11.48
600.95	11.72
601.287	11.47
601.623	11.57
601.959	11.75
602.296	11.7
602.632	11.59
602.968	11.67
603.304	11.62
603.64	11.85
603.976	11.78
604.312	11.86
604.648	11.93
604.984	12.05
605.319	11.93
605.655	11.97
605.991	11.99
606.326	12.06
606.662	11.9
606.998	11.69
607.333	12.01
607.668	12.01
608.004	12.14
608.339	11.92
608.674	12.03
609.01	12.26
609.345	12.11
609.68	12.51
610.015	12.26
610.35	12.29
610.685	12.76
611.02	12.41
611.355	12.59
611.689	12.39
612.024	12.44
612.359	12.25
612.694	12.32
613.028	12.57
613.363	12.2
613.697	12.68
614.032	12.5
614.366	12.64
614.7	12.78
615.035	12.63
615.369	12.72
615.703	12.67
616.037	12.82
616.371	13.02
616.705	13.13
617.039	12.87
617.373	12.8
617.707	12.81
618.041	13.43
618.375	12.95
618.709	12.86
619.042	13.02
619.376	13.49
619.71	13.2
620.043	12.75
620.377	12.84
620.71	13.06
621.043	13.33
621.377	12.93
621.71	13.28
622.043	13.62
622.376	13.39
622.709	13.58
623.043	13.75
623.376	13.75
623.709	13.56
624.041	13.59
624.374	13.52
624.707	13.66
625.04	13.92
625.373	13.63
625.705	13.66
626.038	13.58
626.37	14.01
626.703	13.77
627.035	13.63
627.368	13.84
627.7	13.83
628.032	13.97
628.365	13.99
628.697	13.98
629.029	13.97
629.361	14
629.693	14.02
630.025	13.99
630.357	13.83
630.689	13.91
631.021	13.83
631.353	14.18
631.684	13.81
632.016	14.36
632.348	14.38
632.679	14.22
633.011	14.41
633.342	14.32
633.674	14.49
634.005	14.41
634.336	14.71
634.668	14.55
634.999	14.47
635.33	14.69
635.661	14.77
635.992	14.53
636.323	14.65
636.654	14.56
636.985	14.46
637.316	14.29
637.647	14.78
637.977	14.49
638.308	15.04
638.639	14.55
638.969	14.75
639.3	14.61
639.63	15.24
639.961	14.78
640.291	14.74
640.622	14.63
640.952	15.14
641.282	15.43
641.612	15.28
641.943	15.14
642.273	15.69
642.603	15.03
642.933	15.22
643.263	15.06
643.592	15.24
643.922	15.61
644.252	15.42
644.582	15.78
644.911	15.43
645.241	15.48
645.571	15.28
645.9	15.57
646.23	15.84
646.559	15.72
646.888	16.13
647.218	15.63
647.547	15.21
647.876	15.71
648.205	15.71
648.534	16.06
648.863	15.82
649.192	15.57
649.521	15.81
649.85	15.94
650.179	15.6
650.508	15.84
650.837	16.02
651.165	15.6
651.494	16.12
651.822	15.75
652.151	16.04
652.479	16.15
652.808	15.91
653.136	16.43
653.465	16.12
653.793	15.95
654.121	16.71
654.449	16.14
654.777	16.33
655.105	16.18
655.433	16.25
655.761	16.76
656.089	16.15
656.417	16.7
656.745	16.35
657.073	16.76
657.4	17.34
657.728	16.64
658.056	16.85
658.383	17.07
658.711	16.91
659.038	16.21
659.365	17.37
659.693	16.73
660.02	16.64
660.347	16.79
660.674	16.86
661.001	16.67
661.329	16.64
661.656	16.81
661.982	16.86
662.309	17.4
662.636	17.13
662.963	17.06
663.29	16.54
663.616	17.07
663.943	17.25
664.27	16.93
664.596	17.01
664.923	17.52
665.249	17.24
665.576	16.9
665.902	17.59
666.228	17.45
666.554	16.95
666.881	17.78
667.207	17.67
667.533	17.48
667.859	17.42
668.185	17.68
668.511	18.18
668.837	17.74
669.162	18.14
669.488	17.57
669.814	17.43
670.139	17.51
670.465	18.7
670.791	18
671.116	17.84
671.442	17.98
671.767	17.53
672.092	18.2
672.418	18.65
672.743	17.87
673.068	18.08
673.393	17.89
673.718	18.29
674.043	18.49
674.368	17.92
674.693	18.27
675.018	17.87
675.343	18.66
675.667	18.13
675.992	18.35
676.317	18.03
676.641	18.2
676.966	18.35
677.29	18.03
677.615	18.35
677.939	18.29
678.264	18.7
678.588	18.8
678.912	18.23
679.236	18.7
679.56	18.54
679.885	18.55
680.209	19.26
680.532	18.8
680.856	18.92
681.18	18.65
681.504	18.61
681.828	18.91
682.152	18.57
682.475	19.14
682.799	18.57
683.122	19.25
683.446	18.5
683.769	18.6
684.093	19.06
684.416	19.17
684.739	19.08
685.062	19.84
685.386	19.21
