Data from 0189_forehead_Reflection__0__121.txt Node

Date: Fri Sep 22 21:17:37 CDT 2023
User: ToomeyLab
Spectrometer: FLMS14357
Trigger mode: 0
Integration Time (sec): 1.000000E-2
Scans to average: 100
Electric dark correction enabled: true
Nonlinearity correction enabled: false
Boxcar width: 0
XAxis mode: Wavelengths
Number of Pixels in Spectrum: 2048
>>>>>Begin Spectral Data<<<<<
189.047	51.08
189.435	51.08
189.823	51.08
190.211	196.22
190.599	-244.82
190.987	-2426.13
191.375	-327.91
191.763	1429.41
192.151	92.02
192.538	15.5
192.926	219.55
193.314	-84.67
193.702	-33.94
194.089	134.53
194.477	408.47
194.864	-218.6
195.252	136.24
195.639	12.47
196.027	547.34
196.414	1252.89
196.801	74
197.189	113.82
197.576	68.38
197.963	15.05
198.351	25.99
198.738	53.52
199.125	31.17
199.512	8.82
199.899	42.64
200.286	17.94
200.673	35.87
201.06	33.15
201.447	29.48
201.833	-18.08
202.22	56.17
202.607	33.32
202.994	55.81
203.38	11.76
203.767	9.78
204.154	47.62
204.54	32.46
204.927	17.57
205.313	31.94
205.699	76.76
206.086	35.86
206.472	49.32
206.858	21.09
207.245	13.46
207.631	21.59
208.017	27.74
208.403	40.6
208.789	26.4
209.175	46.72
209.561	61.14
209.947	32.56
210.333	35.29
210.719	21.97
211.105	46.37
211.491	15.73
211.876	41.39
212.262	32.44
212.648	21.6
213.034	20.95
213.419	29.49
213.805	19.94
214.19	1.5
214.576	60.09
214.961	19.72
215.346	2.29
215.732	21.26
216.117	27.45
216.502	19.76
216.888	21.35
217.273	13.9
217.658	-5.13
218.043	24.61
218.428	44.36
218.813	-3.93
219.198	18.76
219.583	21.92
219.968	4.53
220.353	39.3
220.738	12.6
221.122	24.28
221.507	6.91
221.892	-8.41
222.276	-5.01
222.661	-20.86
223.046	6.54
223.43	20.4
223.815	5.99
224.199	-2.72
224.583	10.25
224.968	18.95
225.352	12.38
225.736	10.5
226.121	14.62
226.505	5.96
226.889	9.2
227.273	16.95
227.657	2.55
228.041	11.1
228.425	15.62
228.809	5.64
229.193	11.54
229.577	7.51
229.961	8.71
230.344	7.83
230.728	3.69
231.112	4.91
231.495	3.46
231.879	4.22
232.263	2.72
232.646	4.56
233.03	5.4
233.413	5.16
233.797	4.36
234.18	5.29
234.563	7.61
234.946	3.87
235.33	0.19
235.713	2.79
236.096	3.42
236.479	4.32
236.862	7.08
237.245	4.41
237.628	6.24
238.011	5.52
238.394	4.86
238.777	6.84
239.16	6.95
239.543	9.89
239.925	5.88
240.308	7.55
240.691	4.76
241.073	6.71
241.456	3.76
241.838	4.85
242.221	6.07
242.603	5.12
242.986	4.26
243.368	4.25
243.75	4.26
244.133	4.77
244.515	4.26
244.897	3.71
245.279	4.14
245.661	4.37
246.043	4.69
246.425	3.99
246.807	5.8
247.189	3.68
247.571	5.19
247.953	4.72
248.335	4.58
248.717	4.61
249.098	4.39
249.48	4.14
249.862	4.21
250.243	4.3
250.625	4.6
251.006	3.85
251.388	4.64
251.769	4.52
252.151	4.14
252.532	5.22
252.913	5.17
253.295	5.36
253.676	5.61
254.057	4.96
254.438	5.02
254.819	3.87
255.2	4.62
255.581	4.46
255.962	6
256.343	5.01
256.724	5.22
257.105	5.31
257.486	5.64
257.867	4.55
258.247	4.7
258.628	5.07
259.009	5.33
259.389	5.4
259.77	5.43
260.15	4.66
260.531	4.77
260.911	4.57
261.292	4.61
261.672	3.92
262.052	4.13
262.432	4.26
262.813	4.39
263.193	4.01
263.573	4.74
263.953	4.65
264.333	4.67
264.713	4.48
265.093	4.34
265.473	4.3
265.853	3.68
266.233	3.88
266.612	5.23
266.992	4.39
267.372	5.06
267.752	5.3
268.131	3.97
268.511	4.05
268.89	4.79
269.27	4.43
269.649	4.3
270.029	4.73
270.408	4.5
270.787	3.86
271.167	4.13
271.546	4.05
271.925	3.76
272.304	4.04
272.683	5.05
273.062	4.79
273.441	4.54
273.82	4.67
274.199	4.1
274.578	4.62
274.957	4.02
275.336	4.09
275.715	4.55
276.093	4.11
276.472	4.39
276.851	4.38
277.229	4.19
277.608	4.57
277.986	4.37
278.365	3.99
278.743	4.6
279.122	4
279.5	4.83
279.878	3.94
280.257	5.08
280.635	4.63
281.013	4.86
281.391	3.79
281.769	3.8
282.147	4.72
282.525	4.14
282.903	4.05
283.281	3.96
283.659	4.57
284.037	4.36
284.415	4.3
284.792	4.19
285.17	4.34
285.548	4.59
285.925	4.54
286.303	4.61
286.68	4.34
287.058	4.17
287.435	3.92
287.813	4.06
288.19	3.93
288.567	4.45
288.945	3.94
289.322	4.43
289.699	4.32
290.076	4.62
290.453	4.07
290.83	3.88
291.207	4.56
291.584	4.41
291.961	3.91
292.338	4.74
292.715	4.85
293.092	4.37
293.469	4.82
293.845	4.82
294.222	5.08
294.599	4.88
294.975	4.86
295.352	4.72
295.728	4.55
296.105	5.52
296.481	5.1
296.858	5
297.234	5.31
297.61	5.33
297.986	5.3
298.363	5.17
298.739	5.02
299.115	4.89
299.491	5.31
299.867	5.36
300.243	5.27
300.619	5.43
300.995	5.27
301.371	5.53
301.746	6.09
302.122	5.31
302.498	5.17
302.874	5.21
303.249	5.59
303.625	5.58
304	6.25
304.376	6.01
304.751	5.87
305.127	5.91
305.502	6.4
305.878	6.23
306.253	5.88
306.628	6.01
307.003	6.06
307.378	6.32
307.754	6.25
308.129	6.21
308.504	6.32
308.879	6.92
309.254	6.99
309.629	7.07
310.003	7.02
310.378	7.38
310.753	6.49
311.128	6.71
311.502	7.12
311.877	6.32
312.252	6.76
312.626	7.14
313.001	7.1
313.375	7.31
313.75	7.44
314.124	8.01
314.498	7.2
314.873	7.2
315.247	7.36
315.621	7.83
315.995	7.52
316.369	7.92
316.743	7.96
317.117	7.82
317.491	8.37
317.865	7.12
318.239	7.78
318.613	8.42
318.987	7.79
319.361	8.5
319.734	7.85
320.108	8.36
320.482	8.07
320.855	8.64
321.229	8.84
321.602	8.18
321.976	8.34
322.349	8.49
322.723	8.97
323.096	8.65
323.469	9.02
323.843	8.21
324.216	8.55
324.589	8.95
324.962	8.83
325.335	9.53
325.708	8.99
326.081	8.95
326.454	9.1
326.827	9.1
327.2	9.73
327.573	9.63
327.945	9.34
328.318	9.35
328.691	10.08
329.063	9.25
329.436	9.28
329.809	9.35
330.181	9.69
330.553	9.86
330.926	9.68
331.298	9.65
331.671	10.1
332.043	9.83
332.415	10.12
332.787	10.06
333.159	9.78
333.532	9.49
333.904	10.08
334.276	10.24
334.648	9.72
335.02	9.97
335.391	10.01
335.763	10.72
336.135	10.68
336.507	10.67
336.879	9.89
337.25	10.28
337.622	10.77
337.993	10.81
338.365	10.83
338.736	11.12
339.108	10.82
339.479	10.07
339.851	10.24
340.222	10.79
340.593	10.44
340.964	10.34
341.336	10.47
341.707	10.31
342.078	11.12
342.449	11.21
342.82	10.85
343.191	10.64
343.562	10.77
343.933	10.63
344.303	10.82
344.674	11.22
345.045	11.1
345.416	11.31
345.786	10.47
346.157	10.94
346.527	11.34
346.898	11.1
347.268	11.12
347.639	11.49
348.009	11.7
348.38	11.68
348.75	11.6
349.12	11.1
349.49	11.42
349.861	11.66
350.231	11.57
350.601	11.53
350.971	12.2
351.341	11.8
351.711	11.28
352.081	11.71
352.45	11.9
352.82	12.12
353.19	11.99
353.56	12.05
353.929	12.25
354.299	11.98
354.669	11.83
355.038	12.15
355.408	12.29
355.777	12.05
356.147	12.3
356.516	12.46
356.885	12.43
357.254	12.57
357.624	12.12
357.993	12.45
358.362	12.5
358.731	12.31
359.1	12.39
359.469	12.7
359.838	12.37
360.207	12.35
360.576	12.62
360.945	12.55
361.314	12.59
361.682	13.21
362.051	12.79
362.42	13.02
362.788	12.71
363.157	12.86
363.525	12.79
363.894	12.83
364.262	12.8
364.631	12.79
364.999	12.8
365.367	13.09
365.735	12.91
366.104	12.82
366.472	13.42
366.84	13.22
367.208	13.62
367.576	13.49
367.944	13.07
368.312	13.55
368.68	12.99
369.048	13.68
369.416	13.29
369.783	13.56
370.151	13.46
370.519	13.64
370.886	13.55
371.254	13.99
371.621	13.5
371.989	13.76
372.356	13.78
372.724	13.94
373.091	13.91
373.458	13.78
373.826	14.12
374.193	14.18
374.56	14.11
374.927	14.07
375.294	14.04
375.661	14.35
376.028	14.15
376.395	14.31
376.762	14.23
377.129	14.5
377.496	14.79
377.863	14.23
378.229	14.07
378.596	14.35
378.963	14.79
379.329	14.57
379.696	14.95
380.062	14.42
380.429	14.7
380.795	14.83
381.161	14.57
381.528	14.64
381.894	14.48
382.26	14.81
382.626	15.04
382.993	14.87
383.359	14.48
383.725	14.9
384.091	15.22
384.457	14.64
384.823	14.97
385.188	15.16
385.554	14.88
385.92	15.37
386.286	15.19
386.651	14.92
387.017	15.36
387.383	15.08
387.748	15.04
388.114	15.21
388.479	15.35
388.845	15.36
389.21	15.08
389.575	16.01
389.94	15.32
390.306	15.55
390.671	15.72
391.036	15.44
391.401	15.97
391.766	15.87
392.131	15.75
392.496	15.83
392.861	15.66
393.226	16.09
393.591	16.09
393.956	15.88
394.32	16.07
394.685	15.82
395.05	16.2
395.414	16.04
395.779	15.97
396.143	16.3
396.508	16.03
396.872	16.2
397.236	16.06
397.601	16.31
397.965	16.34
398.329	16.2
398.694	16.36
399.058	16.31
399.422	16.27
399.786	16.53
400.15	16.69
400.514	16.55
400.878	16.58
401.242	16.76
401.605	16.55
401.969	16.59
402.333	16.89
402.697	16.6
403.06	16.67
403.424	16.82
403.787	16.95
404.151	16.85
404.514	17.01
404.878	17.25
405.241	17.07
405.604	17.13
405.968	17.01
406.331	16.83
406.694	16.94
407.057	16.89
407.42	17.03
407.783	16.93
408.146	17.27
408.509	17.33
408.872	17.25
409.235	17.11
409.598	17.16
409.961	17.5
410.323	17.61
410.686	17.59
411.049	17.55
411.411	17.48
411.774	17.58
412.136	17.74
412.499	17.78
412.861	17.49
413.223	17.78
413.586	17.67
413.948	17.8
414.31	17.78
414.672	17.83
415.035	17.67
415.397	17.75
415.759	18.06
416.121	17.81
416.483	17.88
416.845	17.94
417.206	17.99
417.568	18.04
417.93	17.8
418.292	17.94
418.653	17.91
419.015	17.98
419.377	18.05
419.738	18.12
420.1	18.11
420.461	18.2
420.822	18.15
421.184	17.94
421.545	17.98
421.906	18.09
422.267	17.91
422.629	18.12
422.99	17.91
423.351	17.97
423.712	17.94
424.073	18.12
424.434	18.29
424.795	18.21
425.155	18.37
425.516	18.26
425.877	18.35
426.238	18.26
426.598	18.21
426.959	18.27
427.32	18.37
427.68	18.27
428.041	18.38
428.401	18.48
428.761	18.63
429.122	18.81
429.482	18.92
429.842	18.86
430.202	18.84
430.563	19.1
430.923	19.15
431.283	19.08
431.643	19.27
432.003	19.11
432.363	19.27
432.722	19.23
433.082	19.27
433.442	19.09
433.802	19.35
434.161	19.36
434.521	19.24
434.881	19.29
435.24	19.27
435.6	19.35
435.959	19.22
436.319	19.25
436.678	19.54
437.037	19.25
437.396	19.44
437.756	19.46
438.115	19.52
438.474	19.62
438.833	19.54
439.192	19.59
439.551	19.76
439.91	19.75
440.269	19.79
440.628	19.65
440.987	19.59
441.345	19.81
441.704	19.83
442.063	19.82
442.421	19.6
442.78	19.67
443.138	19.73
443.497	19.76
443.855	19.8
444.214	19.77
444.572	20.07
444.93	20.05
445.288	19.99
445.647	20.15
446.005	20.21
446.363	20.22
446.721	20.34
447.079	20.09
447.437	20.11
447.795	20.02
448.153	19.99
448.51	20.1
448.868	20.01
449.226	20.04
449.584	20.03
449.941	19.97
450.299	20.28
450.656	20.34
451.014	20.57
451.371	20.56
451.729	20.64
452.086	20.56
452.443	20.69
452.801	20.79
453.158	20.65
453.515	20.82
453.872	20.83
454.229	21.08
454.586	20.96
454.943	20.74
455.3	20.79
455.657	20.87
456.014	21.02
456.371	21.17
456.727	21.36
457.084	21.01
457.441	21.3
457.797	21.15
458.154	21.23
458.51	21.05
458.867	21.39
459.223	21.44
459.58	21.29
459.936	21.48
460.292	21.49
460.648	21.46
461.005	21.47
461.361	21.33
461.717	21.02
462.073	21.01
462.429	20.98
462.785	21.13
463.141	21.24
463.496	21.46
463.852	21.41
464.208	21.47
464.564	21.81
464.919	21.63
465.275	21.66
465.631	21.87
465.986	21.92
466.342	22.07
466.697	22.05
467.052	21.96
467.408	21.9
467.763	21.92
468.118	22.18
468.473	22
468.829	21.94
469.184	22.13
469.539	22.12
469.894	22.09
470.249	22.07
470.603	22.36
470.958	22.03
471.313	22.25
471.668	22.08
472.023	22.35
472.377	22.43
472.732	22.46
473.086	22.6
473.441	22.27
473.795	22.95
474.15	22.6
474.504	22.58
474.859	22.71
475.213	22.42
475.567	22.59
475.921	22.83
476.275	22.81
476.63	22.8
476.984	22.69
477.338	22.71
477.692	22.75
478.045	22.85
478.399	22.97
478.753	22.8
479.107	22.95
479.461	23.03
479.814	22.93
480.168	22.99
480.521	23.01
480.875	23.01
481.228	22.84
481.582	22.78
481.935	23.05
482.289	23.13
482.642	22.88
482.995	23.24
483.348	23.05
483.701	23.02
484.055	22.97
484.408	22.93
484.761	22.92
485.114	22.76
485.466	22.52
485.819	22.24
486.172	22.27
486.525	22.3
486.878	22.37
487.23	22.54
487.583	22.61
487.936	22.81
488.288	22.91
488.641	22.94
488.993	22.99
489.345	22.79
489.698	22.76
490.05	22.69
490.402	22.79
490.754	22.81
491.107	22.87
491.459	23.05
491.811	23.2
492.163	23.41
492.515	23.38
492.866	23.55
493.218	23.35
493.57	23.26
493.922	23.01
494.274	23.18
494.625	23.28
494.977	23.38
495.328	23.68
495.68	23.93
496.031	23.97
496.383	24.13
496.734	24.35
497.086	24.22
497.437	24.42
497.788	24.23
498.139	24.22
498.49	24.28
498.842	24.08
499.193	24.11
499.544	24.31
499.894	24.32
500.245	24.5
500.596	24.51
500.947	24.62
501.298	24.61
501.648	24.67
501.999	24.51
502.35	24.78
502.7	24.73
503.051	24.83
503.401	24.87
503.752	24.96
504.102	24.86
504.452	24.91
504.803	24.87
505.153	24.91
505.503	24.99
505.853	25.13
506.203	25.1
506.553	25.14
506.903	24.95
507.253	25.09
507.603	25.22
507.953	25.31
508.303	25.35
508.652	25.22
509.002	25.32
509.352	25.3
509.701	25.23
510.051	25.3
510.4	25.3
510.75	25.24
511.099	25.18
511.449	25.38
511.798	25.41
512.147	25.37
512.496	25.45
512.846	25.41
513.195	25.41
513.544	25.64
513.893	25.69
514.242	25.5
514.591	25.8
514.939	25.77
515.288	25.71
515.637	25.77
515.986	25.43
516.334	25.69
516.683	25.86
517.032	25.91
517.38	25.99
517.729	26.03
518.077	25.97
518.426	25.91
518.774	26.08
519.122	25.98
519.47	25.77
519.819	25.89
520.167	26.11
520.515	25.74
520.863	25.86
521.211	25.79
521.559	25.79
521.907	25.95
522.255	26.12
522.602	26.08
522.95	26.26
523.298	26.3
523.645	26.22
523.993	26.44
524.341	26.41
524.688	26.57
525.036	26.53
525.383	26.54
525.73	26.66
526.078	26.44
526.425	26.49
526.772	26.64
527.119	26.62
527.466	26.37
527.814	26.34
528.161	26.13
528.508	26.28
528.854	26.38
529.201	26.38
529.548	26.62
529.895	26.41
530.242	26.26
530.588	26
530.935	25.78
531.282	25.96
531.628	26.13
531.975	26.16
532.321	26.16
532.667	26.35
533.014	26.65
533.36	26.76
533.706	26.74
534.052	26.89
534.399	26.85
534.745	26.9
535.091	26.8
535.437	26.56
535.783	26.49
536.129	26.68
536.474	26.82
536.82	26.88
537.166	26.96
537.512	27.06
537.857	27.12
538.203	27.42
538.549	27.21
538.894	27.13
539.239	27.11
539.585	27.25
539.93	27.4
540.276	27.35
540.621	27.59
540.966	27.81
541.311	27.93
541.656	27.76
542.001	27.73
542.346	27.64
542.691	27.76
543.036	27.51
543.381	27.2
543.726	27.12
544.071	27.21
544.415	27.22
544.76	27.31
545.105	27.33
545.449	27.52
545.794	27.78
546.138	27.78
546.483	27.91
546.827	27.92
547.171	28.14
547.516	28.04
547.86	28.17
548.204	28.14
548.548	28.11
548.892	28.27
549.236	28.14
549.58	28.18
549.924	28.36
550.268	28.64
550.612	28.47
550.956	28.63
551.3	28.61
551.643	28.64
551.987	28.78
552.33	28.9
552.674	28.83
553.017	29.01
553.361	28.89
553.704	29.01
554.048	29.12
554.391	28.87
554.734	28.86
555.077	28.87
555.42	28.83
555.764	28.88
556.107	29.01
556.45	29.16
556.793	29
557.135	29.33
557.478	28.96
557.821	29.41
558.164	29.52
558.507	29.48
558.849	29.32
559.192	29.52
559.534	29.45
559.877	29.46
560.219	29.52
560.562	29.63
560.904	29.51
561.246	29.68
561.589	29.78
561.931	29.61
562.273	29.65
562.615	29.68
562.957	29.61
563.299	29.71
563.641	30
563.983	29.78
564.325	29.75
564.667	29.91
565.008	29.75
565.35	29.96
565.692	30.04
566.033	30.02
566.375	29.92
566.716	30.15
567.058	29.86
567.399	29.79
567.741	29.98
568.082	29.77
568.423	29.95
568.764	30.05
569.105	29.76
569.447	30.03
569.788	30.12
570.129	30
570.47	30.29
570.811	30.15
571.151	30.12
571.492	30.25
571.833	30.14
572.174	30.36
572.514	30.34
572.855	30.18
573.195	30.34
573.536	30.41
573.876	30.18
574.217	30.37
574.557	30.27
574.898	30.66
575.238	30.36
575.578	30.47
575.918	30.61
576.258	30.51
576.598	30.72
576.938	30.52
577.278	30.79
577.618	30.58
577.958	30.66
578.298	30.73
578.638	30.73
578.977	30.75
579.317	30.82
579.657	30.78
579.996	30.82
580.336	31.14
580.675	31.16
581.014	30.87
581.354	31.29
581.693	31.29
582.032	31.13
582.372	31.01
582.711	31.12
583.05	31.39
583.389	31.53
583.728	31.55
584.067	31.37
584.406	31.38
584.745	31.27
585.083	31.6
585.422	31.34
585.761	31.52
586.1	31.65
586.438	31.27
586.777	31.44
587.115	31.62
587.454	31.41
587.792	31.86
588.13	31.98
588.469	31.44
588.807	31.96
589.145	31.73
589.483	31.61
589.821	31.87
590.159	31.64
590.497	31.77
590.835	31.95
591.173	31.88
591.511	31.83
591.849	31.94
592.187	31.75
592.524	31.84
592.862	31.82
593.2	31.96
593.537	31.82
593.875	32.02
594.212	32.01
594.55	32.28
594.887	31.97
595.224	32.08
595.561	32.31
595.899	32.57
596.236	32.35
596.573	32.34
596.91	32.21
597.247	32.11
597.584	32.38
597.921	32.54
598.258	32.51
598.594	32.18
598.931	32.36
599.268	32.18
599.604	32.31
599.941	32.41
600.277	32.2
600.614	32.49
600.95	32.68
601.287	32.47
601.623	32.41
601.959	32.62
602.296	32.48
602.632	32.73
602.968	32.84
603.304	32.5
603.64	32.72
603.976	32.92
604.312	32.86
604.648	32.76
604.984	33.08
605.319	32.49
605.655	32.86
605.991	32.72
606.326	32.77
606.662	32.8
606.998	32.31
607.333	32.82
607.668	32.78
608.004	32.78
608.339	32.6
608.674	32.96
609.01	32.93
609.345	33.05
609.68	33.36
610.015	33.27
610.35	33.19
610.685	33.33
611.02	33.26
611.355	33.26
611.689	32.9
612.024	32.99
612.359	32.94
612.694	32.76
613.028	33.13
613.363	33.25
613.697	33.58
614.032	33.17
614.366	33.31
614.7	33.3
615.035	33.6
615.369	33.63
615.703	33.57
616.037	33.68
616.371	33.53
616.705	33.89
617.039	33.54
617.373	33.33
617.707	33.53
618.041	33.67
618.375	33.28
618.709	33.48
619.042	33.9
619.376	33.95
619.71	33.65
620.043	33.59
620.377	33.71
620.71	33.72
621.043	34.12
621.377	33.94
621.71	34.2
622.043	33.87
622.376	33.79
622.709	33.63
623.043	34.27
623.376	34.22
623.709	34.33
624.041	33.91
624.374	34.09
624.707	34.29
625.04	34.24
625.373	33.95
625.705	34.12
626.038	34.4
626.37	34.74
626.703	34.38
627.035	34.19
627.368	34.24
627.7	34.35
628.032	34.33
628.365	34.72
628.697	34.29
629.029	34.63
629.361	34.44
629.693	34.6
630.025	34.48
630.357	34.4
630.689	34.42
631.021	34.38
631.353	34.24
631.684	34.4
632.016	34.7
632.348	34.62
632.679	34.76
633.011	34.82
633.342	34.94
633.674	34.64
634.005	34.7
634.336	35.25
634.668	34.78
634.999	34.79
635.33	35.1
635.661	34.75
635.992	34.73
636.323	35.13
636.654	34.94
636.985	34.69
637.316	35.02
637.647	34.78
637.977	34.87
638.308	35.23
638.639	35.26
638.969	35.18
639.3	34.78
639.63	35.13
639.961	34.69
640.291	34.88
640.622	34.81
640.952	34.82
641.282	35.58
641.612	35.25
641.943	35.71
642.273	35.28
642.603	35.04
642.933	35.05
643.263	35.25
643.592	35.21
643.922	35.78
644.252	35.42
644.582	36.3
644.911	35.11
645.241	35.15
645.571	35.45
645.9	35.69
646.23	36.35
646.559	35.69
646.888	35.66
647.218	35.27
647.547	35.33
647.876	34.98
648.205	35.09
648.534	35.58
648.863	35.88
649.192	35.33
649.521	35.13
649.85	35.7
650.179	35.75
650.508	35.27
650.837	36.23
651.165	35.6
651.494	36.04
651.822	35.64
652.151	35.58
652.479	36.01
652.808	36.07
653.136	36.05
653.465	35.62
653.793	35.84
654.121	35.83
654.449	35.72
654.777	36.42
655.105	36.36
655.433	35.55
655.761	36.57
656.089	36.1
656.417	35.99
656.745	36
657.073	36.45
657.4	36.45
657.728	36.46
658.056	36.29
658.383	36.47
658.711	35.67
659.038	36.22
659.365	36.35
659.693	36.16
660.02	36.18
660.347	36.37
660.674	36.33
661.001	36.26
661.329	36.46
661.656	36.23
661.982	36.12
662.309	36.52
662.636	36.41
662.963	37.08
663.29	36.68
663.616	36.61
663.943	36.38
664.27	36.7
664.596	36.58
664.923	36.78
665.249	36.5
665.576	36.49
665.902	36.26
666.228	36.88
666.554	36.29
666.881	36.57
667.207	36.9
667.533	36.59
667.859	36.97
668.185	36.17
668.511	36.99
668.837	36.75
669.162	36.81
669.488	36.62
669.814	36.89
