Data from 0189_crown_Reflection__3__119.txt Node

Date: Fri Sep 22 21:14:46 CDT 2023
User: ToomeyLab
Spectrometer: FLMS14357
Trigger mode: 0
Integration Time (sec): 1.000000E-2
Scans to average: 100
Electric dark correction enabled: true
Nonlinearity correction enabled: false
Boxcar width: 0
XAxis mode: Wavelengths
Number of Pixels in Spectrum: 2048
>>>>>Begin Spectral Data<<<<<
189.047	157.74
189.435	157.74
189.823	157.74
190.211	106.95
190.599	107.37
190.987	-498.61
191.375	238.63
191.763	13.49
192.151	208.35
192.538	33.14
192.926	77.5
193.314	-5.73
193.702	-184.8
194.089	82.89
194.477	-276.27
194.864	-1059.12
195.252	62.7
195.639	-36.45
196.027	1612.08
196.414	-437.78
196.801	262.41
197.189	67.75
197.576	125.72
197.963	-108.76
198.351	-2.18
198.738	21.19
199.125	-9.64
199.512	6.49
199.899	30.05
200.286	21.91
200.673	-6.32
201.06	43.9
201.447	39.65
201.833	4.52
202.22	37.68
202.607	24.34
202.994	25.79
203.38	10.93
203.767	32.57
204.154	21.4
204.54	6.88
204.927	-11.76
205.313	15.67
205.699	51.23
206.086	37.74
206.472	36.99
206.858	51.47
207.245	11.16
207.631	39.47
208.017	7.23
208.403	28.14
208.789	8.45
209.175	52.23
209.561	43.32
209.947	37.69
210.333	9.66
210.719	-7.07
211.105	41.23
211.491	21.13
211.876	28.43
212.262	36.53
212.648	7.97
213.034	37.16
213.419	39.95
213.805	36.88
214.19	16.74
214.576	11.99
214.961	29.8
215.346	-20.9
215.732	27.09
216.117	23.54
216.502	26.56
216.888	25.1
217.273	9.97
217.658	-14.33
218.043	5.92
218.428	15.97
218.813	3.57
219.198	24.97
219.583	13.77
219.968	14.78
220.353	20.06
220.738	12.49
221.122	19.22
221.507	13.94
221.892	16.03
222.276	-3.32
222.661	-23.77
223.046	26.23
223.43	23.24
223.815	-1.62
224.199	0.4
224.583	12.94
224.968	15.61
225.352	0.93
225.736	22.83
226.121	13.74
226.505	15.65
226.889	6.37
227.273	1.35
227.657	9.32
228.041	2.62
228.425	7.33
228.809	1.67
229.193	5.04
229.577	8.56
229.961	6.92
230.344	7.59
230.728	4.82
231.112	6.62
231.495	5.21
231.879	6.33
232.263	5.15
232.646	5.11
233.03	5.65
233.413	3.62
233.797	5.15
234.18	5.91
234.563	9.04
234.946	8.54
235.33	0.19
235.713	4.65
236.096	5.99
236.479	5.23
236.862	6.16
237.245	4.37
237.628	5.5
238.011	7.31
238.394	5.85
238.777	7.2
239.16	6.06
239.543	6.29
239.925	7.32
240.308	7.65
240.691	5.79
241.073	6.62
241.456	5.02
241.838	4.93
242.221	6
242.603	4.68
242.986	6.07
243.368	4.51
243.75	5.18
244.133	6.27
244.515	5.81
244.897	4.93
245.279	4.98
245.661	5.58
246.043	5.8
246.425	5.52
246.807	5.74
247.189	4.35
247.571	4.83
247.953	5.21
248.335	5.68
248.717	5.52
249.098	4.84
249.48	4.81
249.862	4.89
250.243	5.14
250.625	4.97
251.006	4.43
251.388	5.36
251.769	5.05
252.151	5.64
252.532	5.67
252.913	4.6
253.295	6.44
253.676	5.65
254.057	5.5
254.438	5.81
254.819	4.87
255.2	4.48
255.581	5.81
255.962	5.63
256.343	4.85
256.724	4.33
257.105	5.46
257.486	4.82
257.867	4.66
258.247	4.32
258.628	4.66
259.009	5.83
259.389	4.59
259.77	4.73
260.15	5.54
260.531	4.38
260.911	4.97
261.292	4.72
261.672	4.39
262.052	4.68
262.432	4.74
262.813	5
263.193	4.48
263.573	5.09
263.953	4.54
264.333	5.53
264.713	4.97
265.093	4.94
265.473	4.8
265.853	4.7
266.233	4.49
266.612	4.83
266.992	5
267.372	5.11
267.752	5.12
268.131	4.52
268.511	3.82
268.89	4.92
269.27	4.41
269.649	4.62
270.029	4.37
270.408	4.43
270.787	4.88
271.167	4.84
271.546	4
271.925	4.23
272.304	4.18
272.683	5.13
273.062	5.23
273.441	4.46
273.82	4.56
274.199	4.48
274.578	4.91
274.957	4.29
275.336	4.16
275.715	4.68
276.093	4.58
276.472	4.85
276.851	4.52
277.229	3.85
277.608	4.99
277.986	4.15
278.365	5.34
278.743	4.96
279.122	4.93
279.5	5.16
279.878	4.25
280.257	5.08
280.635	3.82
281.013	4.27
281.391	4.48
281.769	4.88
282.147	4.52
282.525	4.04
282.903	4.09
283.281	4.69
283.659	4.64
284.037	4.37
284.415	4.86
284.792	4.69
285.17	4.36
285.548	4.66
285.925	4.72
286.303	4.53
286.68	4.19
287.058	4.29
287.435	4.43
287.813	4.01
288.19	4.36
288.567	4.71
288.945	4.14
289.322	4.43
289.699	4.42
290.076	4.4
290.453	4.2
290.83	4.48
291.207	4.32
291.584	3.92
291.961	4.39
292.338	4.37
292.715	4.72
293.092	4.19
293.469	4.32
293.845	4.43
294.222	4.64
294.599	4.23
294.975	4.55
295.352	4.76
295.728	4.65
296.105	4.58
296.481	4.44
296.858	3.93
297.234	4.4
297.61	4.51
297.986	4.77
298.363	4.58
298.739	4.42
299.115	4.5
299.491	4.31
299.867	4.29
300.243	4.2
300.619	4.38
300.995	4.39
301.371	5.05
301.746	4.73
302.122	4.21
302.498	4.05
302.874	3.7
303.249	3.98
303.625	4.25
304	4.6
304.376	4.36
304.751	4.07
305.127	4.15
305.502	4.61
305.878	4.41
306.253	4.52
306.628	3.94
307.003	3.96
307.378	4.21
307.754	3.92
308.129	4.88
308.504	4.38
308.879	4.66
309.254	3.97
309.629	4.02
310.003	5.01
310.378	4.6
310.753	4.11
311.128	4.06
311.502	4.37
311.877	3.76
312.252	3.85
312.626	3.56
313.001	4.28
313.375	4.39
313.75	4.93
314.124	4.6
314.498	3.91
314.873	4.16
315.247	4.38
315.621	4.31
315.995	4.11
316.369	3.98
316.743	4.18
317.117	4.42
317.491	4.56
317.865	3.69
318.239	4.34
318.613	4.55
318.987	4.15
319.361	3.82
319.734	4.29
320.108	4.84
320.482	3.59
320.855	3.54
321.229	4.81
321.602	4.19
321.976	4.4
322.349	4.25
322.723	4.45
323.096	4.15
323.469	4.35
323.843	3.7
324.216	4.61
324.589	3.98
324.962	3.96
325.335	4.23
325.708	4.21
326.081	4.23
326.454	3.55
326.827	3.98
327.2	3.93
327.573	4.3
327.945	4.16
328.318	4.05
328.691	4.48
329.063	3.84
329.436	4.32
329.809	4.39
330.181	4.1
330.553	4.11
330.926	3.95
331.298	4.28
331.671	4.3
332.043	3.31
332.415	4.29
332.787	3.73
333.159	4.24
333.532	3.76
333.904	4.07
334.276	3.95
334.648	3.43
335.02	3.69
335.391	4.5
335.763	4.61
336.135	4.14
336.507	4.27
336.879	3.5
337.25	4.57
337.622	4.35
337.993	3.44
338.365	4.27
338.736	4.4
339.108	4.32
339.479	3.77
339.851	3.86
340.222	4.25
340.593	3.71
340.964	4.14
341.336	4.05
341.707	3.61
342.078	3.94
342.449	4.37
342.82	3.78
343.191	3.7
343.562	4.31
343.933	3.97
344.303	3.74
344.674	3.81
345.045	4.23
345.416	4.03
345.786	3.83
346.157	4.07
346.527	3.68
346.898	3.5
347.268	3.64
347.639	3.77
348.009	3.89
348.38	4.02
348.75	3.89
349.12	3.92
349.49	4.37
349.861	3.71
350.231	4.09
350.601	4.4
350.971	4.51
351.341	4.13
351.711	3.68
352.081	3.9
352.45	3.99
352.82	4.05
353.19	4.36
353.56	3.79
353.929	4.14
354.299	4.08
354.669	4.29
355.038	3.71
355.408	3.94
355.777	4.4
356.147	4.16
356.516	4.36
356.885	3.89
357.254	4.3
357.624	3.76
357.993	4.17
358.362	3.67
358.731	3.89
359.1	4.03
359.469	4.32
359.838	3.58
360.207	3.72
360.576	4.12
360.945	4.03
361.314	3.85
361.682	4.38
362.051	3.97
362.42	3.87
362.788	3.74
363.157	4.09
363.525	3.91
363.894	3.9
364.262	3.65
364.631	3.84
364.999	3.85
365.367	4.21
365.735	3.87
366.104	3.95
366.472	4.33
366.84	3.9
367.208	3.85
367.576	4.23
367.944	4.13
368.312	4.14
368.68	4.14
369.048	4.32
369.416	3.81
369.783	3.96
370.151	3.55
370.519	4.25
370.886	4.01
371.254	4.11
371.621	3.91
371.989	3.99
372.356	4.05
372.724	4.15
373.091	3.89
373.458	4.21
373.826	4.22
374.193	4.27
374.56	4.11
374.927	4.22
375.294	3.8
375.661	3.76
376.028	4.14
376.395	3.98
376.762	4.02
377.129	4.24
377.496	4.21
377.863	4.45
378.229	4.24
378.596	4.02
378.963	4.52
379.329	4.31
379.696	4.39
380.062	3.94
380.429	4.02
380.795	3.95
381.161	4.27
381.528	4.16
381.894	3.91
382.26	4.31
382.626	4.18
382.993	4.35
383.359	3.78
383.725	4.13
384.091	4.52
384.457	4.52
384.823	3.86
385.188	4.08
385.554	4.27
385.92	4.39
386.286	4.25
386.651	4.16
387.017	3.89
387.383	4.07
387.748	4.04
388.114	3.92
388.479	4.24
388.845	3.99
389.21	3.87
389.575	4.46
389.94	4.33
390.306	4.09
390.671	4.41
391.036	4.05
391.401	4.27
391.766	4.24
392.131	4.13
392.496	4.15
392.861	4.36
393.226	4.33
393.591	4.4
393.956	4.12
394.32	4.08
394.685	4.14
395.05	4.46
395.414	4.37
395.779	4.3
396.143	4.36
396.508	4.22
396.872	4.23
397.236	4.31
397.601	4.08
397.965	4.34
398.329	4.28
398.694	4
399.058	4.19
399.422	4.15
399.786	4.49
400.15	4.39
400.514	4.29
400.878	3.91
401.242	4.25
401.605	4.19
401.969	4.02
402.333	4.53
402.697	4.26
403.06	4.09
403.424	4.04
403.787	4.49
404.151	4.37
404.514	4.43
404.878	4.51
405.241	4.39
405.604	4.48
405.968	4.35
406.331	4.16
406.694	4.37
407.057	4.19
407.42	4.45
407.783	4.26
408.146	4.22
408.509	4.28
408.872	4.1
409.235	4.45
409.598	4.26
409.961	4.42
410.323	4.51
410.686	4.67
411.049	4.73
411.411	4.66
411.774	4.4
412.136	4.37
412.499	4.44
412.861	4.42
413.223	4.48
413.586	4.29
413.948	4.51
414.31	4.26
414.672	4.41
415.035	4.49
415.397	4.57
415.759	4.59
416.121	4.12
416.483	4.31
416.845	4.37
417.206	4.31
417.568	4.43
417.93	4.4
418.292	4.23
418.653	4.26
419.015	4.47
419.377	4.26
419.738	4.44
420.1	4.19
420.461	4.35
420.822	4.33
421.184	4.29
421.545	4.28
421.906	4.25
422.267	4.21
422.629	4.29
422.99	4.28
423.351	4.18
423.712	4.26
424.073	4.21
424.434	4.37
424.795	4.28
425.155	4.36
425.516	4.37
425.877	4.2
426.238	4.16
426.598	4.23
426.959	4.32
427.32	4.28
427.68	4.26
428.041	4.19
428.401	4.32
428.761	4.48
429.122	4.39
429.482	4.3
429.842	4.17
430.202	4.28
430.563	4.41
430.923	4.53
431.283	4.52
431.643	4.59
432.003	4.56
432.363	4.62
432.722	4.46
433.082	4.45
433.442	4.34
433.802	4.39
434.161	4.42
434.521	4.39
434.881	4.42
435.24	4.36
435.6	4.44
435.959	4.31
436.319	4.35
436.678	4.56
437.037	4.38
437.396	4.37
437.756	4.4
438.115	4.3
438.474	4.4
438.833	4.55
439.192	4.36
439.551	4.42
439.91	4.56
440.269	4.54
440.628	4.43
440.987	4.37
441.345	4.51
441.704	4.39
442.063	4.37
442.421	4.22
442.78	4.45
443.138	4.38
443.497	4.37
443.855	4.47
444.214	4.32
444.572	4.5
444.93	4.35
445.288	4.44
445.647	4.52
446.005	4.33
446.363	4.33
446.721	4.39
447.079	4.3
447.437	4.36
447.795	4.44
448.153	4.28
448.51	4.35
448.868	4.41
449.226	4.34
449.584	4.32
449.941	4.31
450.299	4.37
450.656	4.53
451.014	4.54
451.371	4.41
451.729	4.57
452.086	4.41
452.443	4.52
452.801	4.55
453.158	4.51
453.515	4.46
453.872	4.45
454.229	4.53
454.586	4.5
454.943	4.37
455.3	4.42
455.657	4.32
456.014	4.47
456.371	4.52
456.727	4.64
457.084	4.6
457.441	4.49
457.797	4.45
458.154	4.54
458.51	4.36
458.867	4.4
459.223	4.43
459.58	4.59
459.936	4.54
460.292	4.57
460.648	4.63
461.005	4.54
461.361	4.58
461.717	4.22
462.073	4.36
462.429	4.29
462.785	4.35
463.141	4.51
463.496	4.55
463.852	4.44
464.208	4.45
464.564	4.61
464.919	4.59
465.275	4.55
465.631	4.65
465.986	4.59
466.342	4.77
466.697	4.5
467.052	4.45
467.408	4.71
467.763	4.63
468.118	4.58
468.473	4.6
468.829	4.43
469.184	4.47
469.539	4.47
469.894	4.55
470.249	4.61
470.603	4.42
470.958	4.72
471.313	4.57
471.668	4.62
472.023	4.48
472.377	4.66
472.732	4.44
473.086	4.7
473.441	4.41
473.795	4.78
474.15	4.61
474.504	4.41
474.859	4.77
475.213	4.32
475.567	4.62
475.921	4.62
476.275	4.51
476.63	4.6
476.984	4.61
477.338	4.74
477.692	4.67
478.045	4.74
478.399	4.66
478.753	4.56
479.107	4.6
479.461	4.51
479.814	4.6
480.168	4.69
480.521	4.59
480.875	4.71
481.228	4.58
481.582	4.52
481.935	4.68
482.289	4.54
482.642	4.5
482.995	4.56
483.348	4.6
483.701	4.51
484.055	4.47
484.408	4.45
484.761	4.52
485.114	4.36
485.466	4.33
485.819	4.25
486.172	4.23
486.525	4.24
486.878	4.27
487.23	4.35
487.583	4.42
487.936	4.48
488.288	4.49
488.641	4.48
488.993	4.43
489.345	4.37
489.698	4.41
490.05	4.35
490.402	4.36
490.754	4.32
491.107	4.36
491.459	4.46
491.811	4.52
492.163	4.6
492.515	4.55
492.866	4.51
493.218	4.48
493.57	4.49
493.922	4.34
494.274	4.39
494.625	4.42
494.977	4.51
495.328	4.65
495.68	4.51
496.031	4.61
496.383	4.65
496.734	4.68
497.086	4.5
497.437	4.62
497.788	4.72
498.139	4.69
498.49	4.75
498.842	4.56
499.193	4.56
499.544	4.56
499.894	4.54
500.245	4.56
500.596	4.62
500.947	4.73
501.298	4.62
501.648	4.56
501.999	4.75
502.35	4.71
502.7	4.84
503.051	4.7
503.401	4.62
503.752	4.65
504.102	4.67
504.452	4.62
504.803	4.69
505.153	4.73
505.503	4.68
505.853	4.8
506.203	4.58
506.553	4.76
506.903	4.74
507.253	4.67
507.603	4.66
507.953	4.87
508.303	4.75
508.652	4.71
509.002	4.83
509.352	4.77
509.701	4.71
510.051	4.68
510.4	4.77
510.75	4.69
511.099	4.65
511.449	4.78
511.798	4.72
512.147	4.8
512.496	4.6
512.846	4.7
513.195	4.72
513.544	4.68
513.893	4.79
514.242	4.68
514.591	4.72
514.939	4.78
515.288	4.73
515.637	4.76
515.986	4.56
516.334	4.81
516.683	4.83
517.032	4.89
517.38	4.82
517.729	4.79
518.077	4.79
518.426	4.68
518.774	4.82
519.122	4.78
519.47	4.68
519.819	4.74
520.167	4.84
520.515	4.7
520.863	4.67
521.211	4.71
521.559	4.7
521.907	4.8
522.255	4.83
522.602	4.81
522.95	4.73
523.298	4.8
523.645	4.92
523.993	4.7
524.341	4.78
524.688	4.91
525.036	4.86
525.383	4.85
525.73	4.97
526.078	4.83
526.425	4.8
526.772	4.79
527.119	4.73
527.466	4.71
527.814	4.65
528.161	4.66
528.508	4.74
528.854	4.77
529.201	4.78
529.548	4.8
529.895	4.66
530.242	4.66
530.588	4.55
530.935	4.49
531.282	4.52
531.628	4.59
531.975	4.66
532.321	4.67
532.667	4.74
533.014	4.68
533.36	4.77
533.706	4.84
534.052	4.82
534.399	4.78
534.745	4.75
535.091	4.78
535.437	4.66
535.783	4.63
536.129	4.74
536.474	4.82
536.82	4.68
537.166	4.88
537.512	4.79
537.857	4.79
538.203	4.95
538.549	4.79
538.894	4.74
539.239	4.78
539.585	4.8
539.93	4.95
540.276	4.81
540.621	4.83
540.966	4.89
541.311	4.88
541.656	4.92
542.001	5.01
542.346	4.78
542.691	4.97
543.036	4.77
543.381	4.73
543.726	4.65
544.071	4.67
544.415	4.73
544.76	4.73
545.105	4.78
545.449	4.74
545.794	4.79
546.138	4.8
546.483	4.89
546.827	4.93
547.171	4.87
547.516	4.94
547.86	4.97
548.204	4.94
548.548	4.91
548.892	4.89
549.236	4.89
549.58	4.85
549.924	4.98
550.268	5.11
550.612	4.96
550.956	5.11
551.3	5.15
551.643	5.04
551.987	4.93
552.33	5.2
552.674	5.02
553.017	5.04
553.361	5.01
553.704	5.16
554.048	5.11
554.391	5.03
554.734	4.95
555.077	4.87
555.42	4.99
555.764	5.03
556.107	5.02
556.45	5.17
556.793	5.02
557.135	5.1
557.478	4.99
557.821	5.26
558.164	5.3
558.507	5.22
558.849	5.02
559.192	5.22
559.534	5.21
559.877	5.11
560.219	4.98
560.562	5.2
560.904	5.12
561.246	5.36
561.589	5.21
561.931	5.26
562.273	5.15
562.615	5.02
562.957	5.08
563.299	5.11
563.641	5.23
563.983	5.16
564.325	5.25
564.667	5.33
565.008	5.1
565.35	5.2
565.692	5.21
566.033	5.13
566.375	5.12
566.716	4.99
567.058	5.23
567.399	5.15
567.741	5.33
568.082	5.03
568.423	5.14
568.764	5.39
569.105	5.01
569.447	5.23
569.788	5.06
570.129	5.17
570.47	5.21
570.811	5.25
571.151	5.39
571.492	5.09
571.833	5.23
572.174	5.14
572.514	5.26
572.855	5.19
573.195	5.14
573.536	5.16
573.876	5.14
574.217	5.11
574.557	5.15
574.898	5.26
575.238	5.16
575.578	5.21
575.918	5.02
576.258	5.04
576.598	5.27
576.938	5.25
577.278	5.35
577.618	5.05
577.958	5.23
578.298	5.4
578.638	5.11
578.977	5.19
579.317	5.23
579.657	5.22
579.996	5.31
580.336	5.3
580.675	5.25
581.014	5.1
581.354	5.1
581.693	5.5
582.032	5.36
582.372	5.25
582.711	5.16
583.05	5.4
583.389	5.28
583.728	5.55
584.067	5.28
584.406	5.37
584.745	4.89
585.083	5.63
585.422	5.5
585.761	5.33
586.1	5.36
586.438	5.28
586.777	5.35
587.115	5.51
587.454	5.08
587.792	5.5
588.13	5.25
588.469	5.19
588.807	5.21
589.145	5.19
589.483	5.34
589.821	5.16
590.159	5.25
590.497	5.37
590.835	5.43
591.173	5.08
591.511	5.26
591.849	5.42
592.187	5.24
592.524	5.3
592.862	5.36
593.2	5.23
593.537	5.35
593.875	5.46
594.212	5.21
594.55	5.54
594.887	5.43
595.224	5.29
595.561	5.66
595.899	5.66
596.236	5.59
596.573	5.54
596.91	5.5
597.247	5.24
597.584	5.36
597.921	5.58
598.258	5.53
598.594	5.45
598.931	5.34
599.268	5.54
599.604	5.49
599.941	5.33
600.277	5.23
600.614	5.51
600.95	5.54
601.287	5.29
601.623	5.45
601.959	5.44
602.296	5.49
602.632	4.99
602.968	5.69
603.304	5.52
603.64	5.59
603.976	5.4
604.312	5.68
604.648	5.49
604.984	5.48
605.319	5.49
605.655	5.39
605.991	5.46
606.326	5.45
606.662	5.41
606.998	5.33
607.333	5.48
607.668	5.33
608.004	5.48
608.339	5.39
608.674	5.65
609.01	5.43
609.345	5.6
609.68	5.68
610.015	5.36
610.35	5.38
610.685	5.85
611.02	5.65
611.355	5.45
611.689	5.46
612.024	5.66
612.359	5.57
612.694	5.49
613.028	5.5
613.363	5.54
613.697	5.63
614.032	5.58
614.366	5.31
614.7	5.65
615.035	5.36
615.369	5.39
615.703	5.72
616.037	5.64
616.371	5.92
616.705	5.97
617.039	5.64
617.373	5.45
617.707	5.48
618.041	5.82
618.375	5.71
618.709	5.5
619.042	6.01
619.376	5.8
619.71	5.85
620.043	5.48
620.377	5.41
620.71	5.67
621.043	5.42
621.377	5.27
621.71	5.43
622.043	5.49
622.376	5.73
622.709	5.64
623.043	5.47
623.376	5.52
623.709	5.89
624.041	5.41
624.374	5.56
624.707	5.93
625.04	5.73
625.373	5.65
625.705	5.84
626.038	5.33
626.37	5.97
626.703	5.63
627.035	5.74
627.368	5.88
627.7	6.06
628.032	5.81
628.365	5.61
628.697	5.7
629.029	5.4
629.361	5.37
629.693	5.72
630.025	5.7
630.357	5.43
630.689	5.67
631.021	5.64
631.353	5.17
631.684	5.57
632.016	5.65
632.348	5.52
632.679	5.22
633.011	5.61
633.342	5.6
633.674	5.77
634.005	5.39
634.336	5.78
634.668	5.67
634.999	5.73
635.33	5.89
635.661	5.72
635.992	5.62
636.323	5.74
636.654	5.53
636.985	5.55
637.316	5.74
637.647	5.53
637.977	5.38
638.308	5.78
638.639	5.6
638.969	5.63
639.3	5.48
639.63	5.81
639.961	5.61
640.291	5.95
640.622	5.77
640.952	5.61
641.282	5.84
641.612	5.68
641.943	5.73
642.273	5.79
642.603	5.78
642.933	5.83
643.263	5.07
643.592	5.79
643.922	5.57
644.252	5.59
644.582	6.1
644.911	6.05
645.241	5.68
645.571	5.61
645.9	5.81
646.23	6.3
646.559	5.84
646.888	6.03
647.218	5.63
647.547	5.81
647.876	5.77
648.205	5.34
648.534	5.89
648.863	5.68
649.192	5.55
649.521	5.88
649.85	6.02
650.179	5.71
650.508	5.83
650.837	6.2
651.165	6.03
651.494	5.74
651.822	5.55
652.151	5.82
652.479	5.63
652.808	5.53
653.136	6.5
653.465	5.77
653.793	5.66
654.121	6.34
654.449	5.06
654.777	5.91
655.105	6.4
655.433	6.11
655.761	6.2
656.089	5.91
656.417	5.71
656.745	6.17
657.073	5.65
657.4	6.6
657.728	6.43
658.056	6.36
658.383	6.21
658.711	5.62
659.038	5.88
659.365	5.98
659.693	5.85
660.02	6.32
660.347	6.17
660.674	5.62
661.001	5.64
661.329	5.79
661.656	6.22
661.982	5.55
662.309	6.39
662.636	5.92
662.963	5.97
663.29	5.94
663.616	6.05
663.943	5.89
664.27	6.18
664.596	5.58
664.923	5.94
665.249	6.44
665.576	5.91
665.902	6.12
666.228	5.92
666.554	5.29
666.881	6.27
667.207	5.9
667.533	5.82
667.859	5.92
668.185	6.01
668.511	6.36
668.837	6.11
669.162	6.62
669.488	6.27
669.814	6.06
670.139	6.2
670.465	6.74
670.791	6.09
671.116	5.91
671.442	6.88
671.767	5.95
672.092	6.85
672.418	7.32
672.743	6.37
673.068	6.28
673.393	6.09
673.718	6.74
674.043	6.32
674.368	7.09
674.693	6.1
675.018	6.08
675.343	6.21
675.667	6.16
675.992	6.14
676.317	6.54
676.641	6.41
676.966	6.25
677.29	5.9
677.615	6.34
677.939	6.63
678.264	6.33
678.588	6.72
678.912	6.43
679.236	6.54
679.56	6.22
679.885	5.81
680.209	7.09
680.532	6.55
680.856	5.6
681.18	6.15
681.504	6.32
681.828	6.27
682.152	6.05
682.475	6.97
682.799	6.45
683.122	5.97
683.446	6.23
683.769	6.73
684.093	6.75
684.416	6.4
684.739	6.47
685.062	6.79
685.386	6.63
685.709	6.35
686.032	6.08
686.355	6.27
686.678	6.65
687.001	6.6
687.324	6.73
687.646	6.89
687.969	6.91
688.292	5.93
688.614	7.3
688.937	5.89
689.26	6.22
689.582	5.97
689.904	6.31
690.227	7.46
690.549	6.76
690.871	6.38
691.194	6.81
691.516	7.02
691.838	6.54
692.16	6.23
