Data from 0189_forehead_Reflection__3__124.txt Node

Date: Fri Sep 22 21:18:10 CDT 2023
User: ToomeyLab
Spectrometer: FLMS14357
Trigger mode: 0
Integration Time (sec): 1.000000E-2
Scans to average: 100
Electric dark correction enabled: true
Nonlinearity correction enabled: false
Boxcar width: 0
XAxis mode: Wavelengths
Number of Pixels in Spectrum: 2048
>>>>>Begin Spectral Data<<<<<
189.047	36.34
189.435	36.34
189.823	36.34
190.211	208.03
190.599	-134.12
190.987	-9.06
191.375	599.07
191.763	-472.66
192.151	241.14
192.538	94.17
192.926	139.66
193.314	101.94
193.702	-250.29
194.089	74.06
194.477	136.38
194.864	-629.47
195.252	112
195.639	10.77
196.027	1927.54
196.414	1775.11
196.801	53.69
197.189	90.98
197.576	104.91
197.963	113.35
198.351	-0.04
198.738	75.06
199.125	10.38
199.512	31.31
199.899	59.63
200.286	8.32
200.673	25.78
201.06	21.52
201.447	65.23
201.833	-4.15
202.22	38.74
202.607	31.01
202.994	30.18
203.38	52.46
203.767	22.72
204.154	22.63
204.54	35.18
204.927	3.97
205.313	30.2
205.699	43.66
206.086	34.12
206.472	43.49
206.858	45.16
207.245	9.51
207.631	20.43
208.017	19.29
208.403	16.9
208.789	29.3
209.175	35.04
209.561	40.44
209.947	39.24
210.333	21.53
210.719	20.69
211.105	35.16
211.491	56.79
211.876	39.03
212.262	59.82
212.648	33.66
213.034	17.79
213.419	34.49
213.805	34.24
214.19	14.78
214.576	19.56
214.961	13.56
215.346	11.83
215.732	11
216.117	51.29
216.502	37.69
216.888	19.41
217.273	25.84
217.658	19.31
218.043	33.03
218.428	32.96
218.813	-2.05
219.198	24.06
219.583	8.97
219.968	12.66
220.353	26.23
220.738	3.39
221.122	7.54
221.507	8.3
221.892	32.53
222.276	16.35
222.661	0.82
223.046	13.59
223.43	22.21
223.815	18.54
224.199	2.84
224.583	5.11
224.968	23.13
225.352	7.98
225.736	20.09
226.121	5.72
226.505	11.14
226.889	13.02
227.273	9.57
227.657	2.14
228.041	3.65
228.425	8.52
228.809	0.59
229.193	2.35
229.577	6.94
229.961	5.56
230.344	6.36
230.728	1.45
231.112	3.32
231.495	2.88
231.879	3.66
232.263	3.09
232.646	2.96
233.03	3.53
233.413	5.02
233.797	3.01
234.18	2.67
234.563	5.44
234.946	8.07
235.33	2.95
235.713	1.99
236.096	2.7
236.479	2.36
236.862	4.28
237.245	2.54
237.628	4.75
238.011	4.29
238.394	3.44
238.777	4.2
239.16	3.14
239.543	6.47
239.925	4.33
240.308	4.96
240.691	4.49
241.073	4.16
241.456	4.22
241.838	4.38
242.221	1.92
242.603	3.81
242.986	3.58
243.368	2.52
243.75	3.22
244.133	3.85
244.515	2.8
244.897	2.56
245.279	2.71
245.661	3.07
246.043	3.61
246.425	3.05
246.807	3.32
247.189	2.16
247.571	3.94
247.953	3.14
248.335	2.85
248.717	3.48
249.098	3.06
249.48	2.42
249.862	2.45
250.243	2.6
250.625	3.14
251.006	2.58
251.388	4.04
251.769	3.7
252.151	3.18
252.532	3.18
252.913	3.96
253.295	4.66
253.676	3.39
254.057	3.8
254.438	3.7
254.819	2.61
255.2	3.41
255.581	3.81
255.962	4.18
256.343	3.34
256.724	2.79
257.105	4.08
257.486	3.17
257.867	3.96
258.247	3.61
258.628	3.33
259.009	3.92
259.389	2.56
259.77	4.01
260.15	2.98
260.531	3.52
260.911	3.08
261.292	2.73
261.672	2.69
262.052	2.59
262.432	2.81
262.813	2.9
263.193	2.43
263.573	3.2
263.953	2.94
264.333	2.79
264.713	3.36
265.093	3.1
265.473	2.92
265.853	2.21
266.233	3.31
266.612	2.49
266.992	3.21
267.372	3.64
267.752	3.54
268.131	2.91
268.511	3.11
268.89	3.03
269.27	2.76
269.649	2.88
270.029	2.65
270.408	2.67
270.787	3.2
271.167	2.92
271.546	2.5
271.925	3.23
272.304	1.81
272.683	2.21
273.062	3.48
273.441	2.37
273.82	3.05
274.199	2.89
274.578	3.33
274.957	2.84
275.336	2.84
275.715	2.88
276.093	2.26
276.472	2.37
276.851	2.97
277.229	2.76
277.608	3.21
277.986	2.73
278.365	3.07
278.743	2.58
279.122	3.27
279.5	2.87
279.878	3
280.257	3.67
280.635	2.6
281.013	3.43
281.391	2.7
281.769	2.92
282.147	3.07
282.525	2.6
282.903	3.15
283.281	2.64
283.659	2.94
284.037	3.01
284.415	2.79
284.792	2.46
285.17	2.9
285.548	3.51
285.925	3.55
286.303	3
286.68	2.47
287.058	2.69
287.435	2.91
287.813	2.65
288.19	2.37
288.567	2.95
288.945	2.79
289.322	2.96
289.699	2.86
290.076	2.87
290.453	2.37
290.83	2.71
291.207	2.76
291.584	2.73
291.961	2.6
292.338	3.07
292.715	3.35
293.092	2.8
293.469	3.32
293.845	2.74
294.222	3.56
294.599	3.12
294.975	3.17
295.352	3.22
295.728	3.48
296.105	3.53
296.481	3.63
296.858	3.53
297.234	3.31
297.61	2.71
297.986	3.59
298.363	3.33
298.739	3.32
299.115	3.17
299.491	3.48
299.867	3.64
300.243	3.51
300.619	3.44
300.995	3.46
301.371	3.77
301.746	3.82
302.122	3.45
302.498	3.52
302.874	3.43
303.249	3.57
303.625	3.39
304	3.5
304.376	4.17
304.751	3.9
305.127	4.19
305.502	3.98
305.878	3.9
306.253	3.93
306.628	4.21
307.003	4.28
307.378	3.87
307.754	4.12
308.129	3.62
308.504	4.27
308.879	4.94
309.254	4.37
309.629	4.77
310.003	5
310.378	5.12
310.753	4.3
311.128	4.52
311.502	4.66
311.877	3.97
312.252	4.37
312.626	4.71
313.001	4.53
313.375	4.81
313.75	4.78
314.124	4.89
314.498	4.54
314.873	5.15
315.247	4.84
315.621	5.42
315.995	4.65
316.369	5.01
316.743	4.76
317.117	5.84
317.491	5.34
317.865	4.84
318.239	5.44
318.613	5.12
318.987	5.32
319.361	5.06
319.734	4.98
320.108	5.01
320.482	5.36
320.855	5.19
321.229	6.12
321.602	5.87
321.976	5.49
322.349	6.02
322.723	6.08
323.096	6.02
323.469	6.06
323.843	5.81
324.216	5.98
324.589	5.42
324.962	5.55
325.335	6
325.708	5.65
326.081	6.12
326.454	5.57
326.827	5.62
327.2	5.64
327.573	6.25
327.945	5.84
328.318	6.75
328.691	6.58
329.063	5.97
329.436	6.63
329.809	6.26
330.181	6.33
330.553	6.27
330.926	6.71
331.298	6.38
331.671	6.54
332.043	6.25
332.415	6.44
332.787	6.85
333.159	6.56
333.532	6.72
333.904	6.31
334.276	6.36
334.648	6.24
335.02	6.11
335.391	6.67
335.763	6.73
336.135	7.03
336.507	6.83
336.879	6.16
337.25	6.97
337.622	7.2
337.993	6.7
338.365	7.32
338.736	7.08
339.108	7.03
339.479	6.79
339.851	6.77
340.222	6.96
340.593	7.16
340.964	6.64
341.336	7.09
341.707	6.73
342.078	7.27
342.449	7.04
342.82	6.94
343.191	6.64
343.562	7.32
343.933	7.35
344.303	7.1
344.674	7.2
345.045	7.44
345.416	7.4
345.786	6.55
346.157	7.29
346.527	6.78
346.898	7.06
347.268	7.35
347.639	7.12
348.009	7.19
348.38	7.62
348.75	7.46
349.12	7.4
349.49	7.96
349.861	7.44
350.231	7.93
350.601	7.31
350.971	8.14
351.341	7.26
351.711	7.44
352.081	7.72
352.45	7.33
352.82	8.19
353.19	7.95
353.56	7.3
353.929	7.87
354.299	7.7
354.669	7.78
355.038	7.69
355.408	8.14
355.777	8.22
356.147	8.12
356.516	8.34
356.885	8.12
357.254	8.42
357.624	7.55
357.993	8.22
358.362	8.25
358.731	7.92
359.1	8.2
359.469	7.83
359.838	7.77
360.207	8.42
360.576	8.21
360.945	7.98
361.314	8.49
361.682	8.59
362.051	8.32
362.42	8.26
362.788	8.14
363.157	8.49
363.525	8.36
363.894	8.29
364.262	8.18
364.631	8.25
364.999	8.41
365.367	8.68
365.735	8.53
366.104	8.35
366.472	9.03
366.84	8.4
367.208	8.89
367.576	8.87
367.944	8.62
368.312	8.83
368.68	8.88
369.048	8.95
369.416	8.47
369.783	8.87
370.151	8.87
370.519	9.14
370.886	9.11
371.254	9.24
371.621	8.64
371.989	9.17
372.356	8.77
372.724	9.3
373.091	9.04
373.458	9.03
373.826	9.17
374.193	9.62
374.56	9.41
374.927	8.98
375.294	9.18
375.661	9.47
376.028	9.27
376.395	9.74
376.762	9.43
377.129	9.77
377.496	9.69
377.863	9.56
378.229	9.54
378.596	9.44
378.963	9.91
379.329	9.62
379.696	9.75
380.062	9.24
380.429	9.24
380.795	9.92
381.161	9.54
381.528	9.66
381.894	9.22
382.26	9.63
382.626	9.79
382.993	10.03
383.359	9.61
383.725	9.89
384.091	9.87
384.457	9.79
384.823	9.86
385.188	10.06
385.554	9.74
385.92	10.32
386.286	9.93
386.651	9.99
387.017	10.29
387.383	10.18
387.748	10.34
388.114	10.04
388.479	10.06
388.845	9.97
389.21	10.02
389.575	10.5
389.94	10.09
390.306	10.44
390.671	10.64
391.036	9.99
391.401	10.34
391.766	10.38
392.131	10.36
392.496	10.57
392.861	10.52
393.226	10.87
393.591	10.4
393.956	10.59
394.32	10.33
394.685	10.49
395.05	10.54
395.414	10.59
395.779	10.89
396.143	10.8
396.508	10.5
396.872	10.52
397.236	10.69
397.601	10.92
397.965	11.04
398.329	10.86
398.694	10.78
399.058	10.66
399.422	10.77
399.786	11.02
400.15	10.85
400.514	11.02
400.878	11.03
401.242	11.07
401.605	10.88
401.969	10.74
402.333	11.21
402.697	11
403.06	11.08
403.424	11.08
403.787	11.25
404.151	11.17
404.514	11.26
404.878	11.07
405.241	11.49
405.604	11.44
405.968	11.33
406.331	11.28
406.694	11.23
407.057	11.24
407.42	11.63
407.783	11.36
408.146	11.53
408.509	11.47
408.872	11.38
409.235	11.24
409.598	11.52
409.961	11.8
410.323	11.83
410.686	11.7
411.049	11.9
411.411	11.72
411.774	11.67
412.136	11.81
412.499	11.58
412.861	11.75
413.223	11.81
413.586	11.77
413.948	11.92
414.31	11.78
414.672	12.2
415.035	11.89
415.397	12.23
415.759	12.21
416.121	11.97
416.483	12.07
416.845	12.08
417.206	11.94
417.568	12.15
417.93	12.05
418.292	12.08
418.653	11.99
419.015	12.18
419.377	11.92
419.738	12.23
420.1	11.97
420.461	11.88
420.822	11.91
421.184	11.96
421.545	12.09
421.906	12.01
422.267	12.05
422.629	12.16
422.99	12.15
423.351	11.91
423.712	11.9
424.073	12.07
424.434	12.15
424.795	12.13
425.155	12.16
425.516	12.2
425.877	12.16
426.238	12.1
426.598	12.22
426.959	12.1
427.32	12.26
427.68	12.19
428.041	12.34
428.401	12.39
428.761	12.56
429.122	12.57
429.482	12.52
429.842	12.67
430.202	12.56
430.563	12.78
430.923	12.86
431.283	12.91
431.643	12.84
432.003	13.08
432.363	13.01
432.722	13.05
433.082	12.95
433.442	12.99
433.802	13.12
434.161	13.08
434.521	12.94
434.881	12.94
435.24	12.84
435.6	12.78
435.959	12.85
436.319	12.91
436.678	13.14
437.037	13.04
437.396	13.12
437.756	13.26
438.115	13.32
438.474	13.16
438.833	13.39
439.192	13.09
439.551	13.3
439.91	13.37
440.269	13.34
440.628	13.13
440.987	13.23
441.345	13.38
441.704	13.43
442.063	13.18
442.421	13.28
442.78	13.33
443.138	13.19
443.497	13.39
443.855	13.51
444.214	13.37
444.572	13.57
444.93	13.59
445.288	13.55
445.647	13.62
446.005	13.64
446.363	13.59
446.721	13.69
447.079	13.53
447.437	13.65
447.795	13.75
448.153	13.56
448.51	13.51
448.868	13.42
449.226	13.57
449.584	13.62
449.941	13.64
450.299	13.76
450.656	13.76
451.014	13.82
451.371	13.88
451.729	14.07
452.086	13.91
452.443	14.02
452.801	14.07
453.158	14.01
453.515	14.11
453.872	14.08
454.229	14.42
454.586	14.21
454.943	14.13
455.3	14.2
455.657	14.06
456.014	14.23
456.371	14.29
456.727	14.52
457.084	14.44
457.441	14.48
457.797	14.46
458.154	14.42
458.51	14.37
458.867	14.4
459.223	14.55
459.58	14.55
459.936	14.54
460.292	14.56
460.648	14.67
461.005	14.4
461.361	14.44
461.717	14.26
462.073	14.2
462.429	14.18
462.785	14.43
463.141	14.6
463.496	14.69
463.852	14.7
464.208	14.84
464.564	15.03
464.919	14.89
465.275	15.1
465.631	15.05
465.986	15.25
466.342	15.15
466.697	15.08
467.052	15.12
467.408	15.05
467.763	15.1
468.118	15.36
468.473	15.12
468.829	15.16
469.184	15.1
469.539	15.29
469.894	15.21
470.249	15.35
470.603	15.23
470.958	15.09
471.313	15.31
471.668	15.35
472.023	15.42
472.377	15.5
472.732	15.37
473.086	15.61
473.441	15.27
473.795	15.74
474.15	15.54
474.504	15.47
474.859	15.56
475.213	15.5
475.567	15.49
475.921	15.68
476.275	15.66
476.63	15.56
476.984	15.82
477.338	15.91
477.692	15.86
478.045	15.78
478.399	15.89
478.753	15.73
479.107	15.74
479.461	15.76
479.814	15.87
480.168	15.88
480.521	15.77
480.875	15.93
481.228	15.91
481.582	15.86
481.935	15.9
482.289	16.05
482.642	15.97
482.995	16
483.348	16.01
483.701	15.91
484.055	15.92
484.408	15.76
484.761	15.76
485.114	15.72
485.466	15.51
485.819	15.17
486.172	15.06
486.525	15.16
486.878	15.33
487.23	15.48
487.583	15.66
487.936	15.78
488.288	15.87
488.641	15.78
488.993	15.77
489.345	15.55
489.698	15.59
490.05	15.56
490.402	15.56
490.754	15.68
491.107	15.77
491.459	15.99
491.811	16.2
492.163	16.25
492.515	16.26
492.866	16.31
493.218	16.2
493.57	16.05
493.922	15.79
494.274	15.88
494.625	16.06
494.977	16.26
495.328	16.37
495.68	16.59
496.031	16.67
496.383	16.82
496.734	16.82
497.086	16.93
497.437	16.92
497.788	17.05
498.139	17.09
498.49	17.06
498.842	16.82
499.193	16.69
499.544	16.8
499.894	16.97
500.245	16.98
500.596	17.01
500.947	17.18
501.298	17.15
501.648	17.19
501.999	17.22
502.35	17.45
502.7	17.32
503.051	17.33
503.401	17.44
503.752	17.35
504.102	17.32
504.452	17.45
504.803	17.39
505.153	17.53
505.503	17.5
505.853	17.74
506.203	17.54
506.553	17.59
506.903	17.66
507.253	17.61
507.603	17.82
507.953	17.87
508.303	17.84
508.652	17.78
509.002	17.93
509.352	17.72
509.701	17.73
510.051	17.87
510.4	17.81
510.75	17.65
511.099	17.56
511.449	17.76
511.798	17.78
512.147	17.8
512.496	17.69
512.846	17.86
513.195	17.91
513.544	17.83
513.893	17.95
514.242	17.8
514.591	18.09
514.939	18.08
515.288	17.98
515.637	18.11
515.986	18.03
516.334	18.24
516.683	18.24
517.032	18.38
517.38	18.26
517.729	18.29
518.077	18.41
518.426	18.36
518.774	18.46
519.122	18.32
519.47	18.11
519.819	18.23
520.167	18.38
520.515	18.12
520.863	17.99
521.211	18.04
521.559	18.23
521.907	18.28
522.255	18.47
522.602	18.4
522.95	18.44
523.298	18.5
523.645	18.57
523.993	18.57
524.341	18.66
524.688	18.87
525.036	18.71
525.383	18.81
525.73	18.88
526.078	18.78
526.425	18.78
526.772	18.91
527.119	18.77
527.466	18.68
527.814	18.63
528.161	18.33
528.508	18.54
528.854	18.73
529.201	18.65
529.548	18.73
529.895	18.5
530.242	18.35
530.588	18.14
530.935	17.98
531.282	18.11
531.628	18.28
531.975	18.35
532.321	18.48
532.667	18.58
533.014	18.74
533.36	18.94
533.706	18.96
534.052	19.02
534.399	19.02
534.745	18.96
535.091	18.77
535.437	18.66
535.783	18.53
536.129	18.72
536.474	18.94
536.82	18.9
537.166	19.25
537.512	19.24
537.857	19.3
538.203	19.51
538.549	19.24
538.894	19.09
539.239	19.25
539.585	19.19
539.93	19.42
540.276	19.6
540.621	19.71
540.966	19.78
541.311	19.76
541.656	19.7
542.001	19.76
542.346	19.76
542.691	19.55
543.036	19.33
543.381	19.15
543.726	19
544.071	19.09
544.415	19.24
544.76	19.42
545.105	19.41
545.449	19.56
545.794	19.57
546.138	19.68
546.483	19.82
546.827	19.94
547.171	19.91
547.516	19.95
547.86	20.08
548.204	20
548.548	19.99
548.892	20.05
549.236	19.9
549.58	19.91
549.924	20.41
550.268	20.42
550.612	20.41
550.956	20.44
551.3	20.52
551.643	20.64
551.987	20.62
552.33	20.83
552.674	20.62
553.017	20.77
553.361	20.68
553.704	20.8
554.048	20.85
554.391	20.88
554.734	20.81
555.077	20.64
555.42	20.56
555.764	20.73
556.107	20.78
556.45	20.94
556.793	20.97
557.135	21.06
557.478	20.85
557.821	21.2
558.164	21.2
558.507	21.37
558.849	20.91
559.192	21.28
559.534	21.26
559.877	21.25
560.219	21.18
560.562	21.25
560.904	21.12
561.246	21.59
561.589	21.3
561.931	21.35
562.273	21.31
562.615	21.25
562.957	21.31
563.299	21.42
563.641	21.48
563.983	21.42
564.325	21.41
564.667	21.43
565.008	21.56
565.35	21.59
565.692	21.69
566.033	21.42
566.375	21.71
566.716	21.48
567.058	21.72
567.399	21.74
567.741	21.64
568.082	21.46
568.423	21.45
568.764	21.68
569.105	21.46
569.447	21.55
569.788	21.62
570.129	21.91
570.47	22.1
570.811	21.75
571.151	21.89
571.492	21.81
571.833	21.74
572.174	22.04
572.514	21.93
572.855	21.8
573.195	21.81
573.536	22.02
573.876	21.92
574.217	21.77
574.557	21.66
574.898	22.08
575.238	22
575.578	22.02
575.918	22.25
576.258	21.99
576.598	22.14
576.938	22.33
577.278	22.22
577.618	22.23
577.958	22.19
578.298	22.14
578.638	22.25
578.977	22.43
579.317	22.31
579.657	22.19
579.996	22.34
580.336	22.66
580.675	22.62
581.014	22.47
581.354	22.5
581.693	22.57
582.032	22.58
582.372	22.92
582.711	22.6
583.05	22.73
583.389	22.9
583.728	22.92
584.067	22.86
584.406	22.8
584.745	22.8
585.083	22.74
585.422	23.03
585.761	23.15
586.1	23.12
586.438	23.03
586.777	23.01
587.115	23.14
587.454	23.12
587.792	23.29
588.13	23.08
588.469	23.01
588.807	23.26
589.145	23.33
589.483	23.27
589.821	23.17
590.159	23.34
590.497	23.4
590.835	23.13
591.173	23.23
591.511	23.48
591.849	23.22
592.187	23.13
592.524	23.36
592.862	23.42
593.2	23.36
593.537	22.85
593.875	23.59
594.212	23.56
594.55	23.68
594.887	23.44
595.224	23.32
595.561	23.6
595.899	23.83
596.236	23.76
596.573	23.67
596.91	23.42
597.247	23.58
597.584	23.81
597.921	23.94
598.258	23.78
598.594	23.73
598.931	23.58
599.268	23.29
599.604	23.76
599.941	23.6
600.277	23.49
600.614	23.59
600.95	24.05
601.287	23.7
601.623	23.82
601.959	23.92
602.296	24.11
602.632	23.97
602.968	24.01
603.304	23.94
603.64	23.91
603.976	24.08
604.312	24.16
604.648	23.76
604.984	24.17
605.319	23.97
605.655	23.76
605.991	24.01
606.326	23.94
606.662	24.04
606.998	23.74
607.333	23.93
607.668	23.99
608.004	23.91
608.339	24.15
608.674	24.19
609.01	24.43
609.345	24.18
609.68	24.57
610.015	24.47
610.35	24.3
610.685	24.44
611.02	24.45
611.355	24.49
611.689	24.32
612.024	24.44
612.359	24.19
612.694	24.32
613.028	24.57
613.363	24.46
613.697	24.34
614.032	24.57
614.366	24.65
614.7	24.62
615.035	24.62
615.369	24.84
615.703	24.49
616.037	24.76
616.371	25.12
616.705	25.08
617.039	24.66
617.373	24.66
617.707	25.02
618.041	25.19
618.375	24.84
618.709	24.88
619.042	25.24
619.376	25.3
619.71	25.11
620.043	24.86
620.377	25.08
620.71	25.04
621.043	25.2
621.377	24.5
621.71	24.79
622.043	25.14
622.376	25.3
622.709	25
623.043	25.41
623.376	25.43
623.709	25
624.041	25.07
624.374	25.06
624.707	25.37
625.04	25.4
625.373	25.13
625.705	25.34
626.038	25.04
626.37	25.72
626.703	25.15
627.035	25.37
627.368	25.53
627.7	25.5
628.032	25.52
628.365	25.76
628.697	25.56
629.029	25.45
629.361	25.27
629.693	25.52
630.025	25.56
630.357	25.49
630.689	25.26
631.021	25.77
631.353	25.39
631.684	25.61
632.016	25.88
632.348	25.69
632.679	25.44
633.011	25.64
633.342	25.97
633.674	26.05
634.005	25.64
634.336	26.27
634.668	25.92
634.999	26.09
635.33	25.84
635.661	25.97
635.992	25.77
636.323	26.11
636.654	25.51
636.985	25.75
637.316	26.03
637.647	25.94
637.977	26.1
638.308	26.15
638.639	26.16
638.969	25.96
639.3	25.85
639.63	26.3
639.961	26.25
640.291	26.28
640.622	27.05
640.952	26.19
641.282	26.42
641.612	26.31
641.943	26.61
642.273	26.28
642.603	26.44
642.933	26.23
643.263	26.14
643.592	26.22
643.922	26.55
644.252	26.46
644.582	26.9
644.911	26.5
645.241	26.46
645.571	26.48
645.9	27.03
646.23	26.83
646.559	26.86
646.888	26.66
647.218	26.27
647.547	26.73
647.876	26.61
648.205	26.01
648.534	27.04
648.863	27
649.192	26.3
649.521	27.25
649.85	26.75
650.179	26.94
650.508	26.84
650.837	27.48
651.165	26.68
651.494	27.07
651.822	26.3
652.151	27.09
652.479	26.84
652.808	26.91
653.136	26.93
653.465	27.28
653.793	27.01
654.121	27.17
654.449	26.77
654.777	26.64
655.105	27.21
655.433	27.13
655.761	27.32
656.089	26.53
656.417	27.23
656.745	27.75
657.073	27.52
657.4	27.82
657.728	27.16
658.056	27.22
658.383	27.6
658.711	27.1
659.038	27.19
659.365	27.23
659.693	26.92
660.02	27.4
660.347	27.34
660.674	27.23
661.001	27.34
661.329	27.1
661.656	27.13
661.982	27.2
662.309	27.51
662.636	27.07
662.963	27.5
663.29	27.63
663.616	27.67
663.943	27.6
664.27	27.96
664.596	27.53
664.923	27.52
665.249	27.8
665.576	26.9
665.902	27.64
666.228	27.78
666.554	27.37
666.881	28.05
667.207	27.7
667.533	27.64
667.859	27.77
668.185	27.45
668.511	28.12
668.837	28.11
669.162	28.01
669.488	28.05
669.814	28.16
670.139	27.6
670.465	28.19
670.791	28.47
671.116	28.2
671.442	28.29
671.767	27.3
672.092	27.93
672.418	29.02
672.743	28.08
673.068	27.92
673.393	28.13
