Data from 0189_crown_Reflection__1__117.txt Node

Date: Fri Sep 22 21:14:18 CDT 2023
User: ToomeyLab
Spectrometer: FLMS14357
Trigger mode: 0
Integration Time (sec): 1.000000E-2
Scans to average: 100
Electric dark correction enabled: true
Nonlinearity correction enabled: false
Boxcar width: 0
XAxis mode: Wavelengths
Number of Pixels in Spectrum: 2048
>>>>>Begin Spectral Data<<<<<
189.047	-13.84
189.435	-13.84
189.823	-13.84
190.211	155.91
190.599	-181.03
190.987	658.89
191.375	446.34
191.763	126.3
192.151	69.23
192.538	-145.23
192.926	99.9
193.314	18.79
193.702	-424.9
194.089	55.02
194.477	79.66
194.864	-176.24
195.252	19.07
195.639	71.79
196.027	1825.6
196.414	1072.44
196.801	-27.18
197.189	-10.74
197.576	69.79
197.963	-54.65
198.351	10.01
198.738	79.92
199.125	12.46
199.512	-3.17
199.899	47.29
200.286	50.87
200.673	8.24
201.06	8.65
201.447	31.88
201.833	25.54
202.22	9.6
202.607	46.13
202.994	45.05
203.38	41.49
203.767	13.8
204.154	53.14
204.54	23.64
204.927	-4.33
205.313	31.34
205.699	54.58
206.086	51.8
206.472	42.56
206.858	29.07
207.245	12.76
207.631	53.03
208.017	36.95
208.403	33.76
208.789	27.37
209.175	31.1
209.561	38.25
209.947	21.77
210.333	25.42
210.719	-0.93
211.105	30.34
211.491	18.43
211.876	40.14
212.262	26.71
212.648	19.44
213.034	35.01
213.419	35.37
213.805	13.14
214.19	3.19
214.576	35.51
214.961	12.78
215.346	25.78
215.732	31.46
216.117	-1.49
216.502	40
216.888	28.58
217.273	23.2
217.658	3.44
218.043	17.88
218.428	29.77
218.813	-20.18
219.198	17.88
219.583	13.17
219.968	-28.09
220.353	49.35
220.738	21.29
221.122	23.43
221.507	17.76
221.892	-2.54
222.276	7.63
222.661	-28.52
223.046	17.59
223.43	30.92
223.815	13.47
224.199	8.74
224.583	22.22
224.968	23.8
225.352	7.06
225.736	15.76
226.121	9.38
226.505	19.22
226.889	5.51
227.273	6.55
227.657	10.85
228.041	7.7
228.425	14
228.809	5.48
229.193	7.22
229.577	9.95
229.961	9.09
230.344	9.16
230.728	6.48
231.112	8.3
231.495	7.47
231.879	7.54
232.263	7.59
232.646	7.61
233.03	7.8
233.413	6.79
233.797	8.73
234.18	6.23
234.563	10.25
234.946	6.72
235.33	5.81
235.713	5.95
236.096	6.83
236.479	7.44
236.862	9.37
237.245	7.05
237.628	7.2
238.011	8.01
238.394	8.37
238.777	8.45
239.16	7.87
239.543	9.03
239.925	9.28
240.308	9.06
240.691	9.21
241.073	8.92
241.456	8.32
241.838	6.76
242.221	6.89
242.603	6.43
242.986	6.78
243.368	6.45
243.75	7.13
244.133	7.43
244.515	6.82
244.897	6.6
245.279	6.74
245.661	6.58
246.043	6.62
246.425	5.48
246.807	7.35
247.189	5.47
247.571	6.97
247.953	6.48
248.335	7.12
248.717	6.63
249.098	6.61
249.48	6.43
249.862	6.22
250.243	6.41
250.625	6.35
251.006	5.86
251.388	6.56
251.769	7.34
252.151	5.6
252.532	5.75
252.913	6.63
253.295	6.83
253.676	5.85
254.057	6.63
254.438	6.58
254.819	6.03
255.2	6.23
255.581	6.07
255.962	6.75
256.343	5.7
256.724	6.8
257.105	7.67
257.486	6.47
257.867	6.34
258.247	7.31
258.628	6.88
259.009	7.42
259.389	6.96
259.77	6.28
260.15	6.28
260.531	5.88
260.911	5.84
261.292	6.27
261.672	5.64
262.052	5.7
262.432	5.69
262.813	5.74
263.193	5.81
263.573	6.36
263.953	5.88
264.333	5.52
264.713	5.97
265.093	5.44
265.473	5.65
265.853	5.38
266.233	6.19
266.612	5.36
266.992	6.1
267.372	6
267.752	6.79
268.131	5.83
268.511	5.26
268.89	6.05
269.27	5.7
269.649	5.55
270.029	5.69
270.408	4.98
270.787	5.15
271.167	5.42
271.546	5.32
271.925	5.57
272.304	4.83
272.683	5.7
273.062	6.03
273.441	5.59
273.82	5.83
274.199	5.92
274.578	5.9
274.957	5.39
275.336	5.6
275.715	5.37
276.093	5.2
276.472	4.83
276.851	5.88
277.229	5.08
277.608	5.98
277.986	5.52
278.365	5.65
278.743	5.49
279.122	5.48
279.5	6.19
279.878	5.27
280.257	6.24
280.635	5.01
281.013	6.19
281.391	5.53
281.769	5.46
282.147	5.63
282.525	5.57
282.903	5.93
283.281	5.85
283.659	5.43
284.037	5.31
284.415	5
284.792	5.06
285.17	4.75
285.548	5.76
285.925	5.13
286.303	4.79
286.68	5.13
287.058	4.71
287.435	4.91
287.813	5.09
288.19	4.45
288.567	5.16
288.945	5.02
289.322	5.3
289.699	5.32
290.076	5.48
290.453	4.95
290.83	5.32
291.207	5.17
291.584	4.82
291.961	4.67
292.338	5.39
292.715	5.23
293.092	5.13
293.469	5.13
293.845	4.53
294.222	5.04
294.599	4.83
294.975	5.08
295.352	5.88
295.728	5.31
296.105	5.13
296.481	4.95
296.858	4.84
297.234	4.91
297.61	5.17
297.986	4.72
298.363	4.84
298.739	4.75
299.115	5.19
299.491	5.22
299.867	4.84
300.243	4.57
300.619	4.8
300.995	4.91
301.371	5.53
301.746	5.23
302.122	5.12
302.498	4.61
302.874	4.5
303.249	4.61
303.625	4.08
304	4.99
304.376	5.22
304.751	5.3
305.127	4.35
305.502	4.56
305.878	4.52
306.253	4.7
306.628	4.47
307.003	5.24
307.378	4.94
307.754	4.62
308.129	4.7
308.504	4.87
308.879	5.21
309.254	4.73
309.629	5.01
310.003	5.24
310.378	5.18
310.753	4.57
311.128	4.61
311.502	5.42
311.877	4.92
312.252	4.65
312.626	4.63
313.001	4.55
313.375	5.4
313.75	5.14
314.124	5.09
314.498	4.28
314.873	4.55
315.247	5.25
315.621	4.58
315.995	4.83
316.369	4.53
316.743	4.95
317.117	5.14
317.491	5.16
317.865	3.7
318.239	4.81
318.613	4.64
318.987	4.65
319.361	4.65
319.734	4.46
320.108	4.63
320.482	4.32
320.855	5
321.229	5.21
321.602	5.4
321.976	4.28
322.349	4.99
322.723	4.88
323.096	5
323.469	3.98
323.843	4.36
324.216	5.1
324.589	4.7
324.962	4.76
325.335	4.52
325.708	5.12
326.081	4.87
326.454	4.3
326.827	4.64
327.2	4.54
327.573	5.18
327.945	4.4
328.318	4.66
328.691	4.98
329.063	4.67
329.436	4.54
329.809	4.94
330.181	4.24
330.553	4.36
330.926	4.23
331.298	4.93
331.671	4.75
332.043	4.34
332.415	5.09
332.787	5.09
333.159	4.65
333.532	4.41
333.904	4.43
334.276	4.22
334.648	3.99
335.02	3.99
335.391	4.67
335.763	4.69
336.135	4.4
336.507	5.23
336.879	3.95
337.25	4.5
337.622	5.06
337.993	4.59
338.365	4.91
338.736	4.89
339.108	4.9
339.479	4.58
339.851	4.03
340.222	4.37
340.593	4.62
340.964	4.43
341.336	4.29
341.707	4.1
342.078	4.66
342.449	4.58
342.82	4.18
343.191	4.42
343.562	4.47
343.933	4.62
344.303	4.29
344.674	4.67
345.045	4.13
345.416	4.79
345.786	4.48
346.157	4.57
346.527	4.59
346.898	4.4
347.268	4.5
347.639	4.63
348.009	4.2
348.38	4.59
348.75	4.47
349.12	4.7
349.49	4.92
349.861	4.79
350.231	4.71
350.601	4.75
350.971	4.77
351.341	4.49
351.711	4.41
352.081	4.23
352.45	4.65
352.82	4.87
353.19	5.02
353.56	4.66
353.929	4.66
354.299	4.89
354.669	4.18
355.038	4.1
355.408	4.62
355.777	4.83
356.147	4.93
356.516	4.89
356.885	4.44
357.254	4.82
357.624	4.31
357.993	4.65
358.362	4.68
358.731	4.58
359.1	4.27
359.469	4.8
359.838	4.17
360.207	4.23
360.576	4.8
360.945	4.76
361.314	4.79
361.682	5.11
362.051	4.84
362.42	4.75
362.788	4.03
363.157	4.61
363.525	4.46
363.894	4.38
364.262	4.44
364.631	4.34
364.999	4.35
365.367	4.84
365.735	4.5
366.104	4.4
366.472	4.82
366.84	4.47
367.208	4.78
367.576	4.66
367.944	4.65
368.312	4.75
368.68	4.44
369.048	4.77
369.416	4.8
369.783	4.7
370.151	4.4
370.519	4.9
370.886	4.6
371.254	4.76
371.621	4.64
371.989	4.97
372.356	4.68
372.724	4.93
373.091	4.88
373.458	4.92
373.826	4.95
374.193	4.99
374.56	5.04
374.927	4.9
375.294	4.64
375.661	4.77
376.028	5.1
376.395	4.7
376.762	4.56
377.129	5.03
377.496	5.23
377.863	4.96
378.229	4.81
378.596	4.89
378.963	5.22
379.329	5
379.696	4.89
380.062	4.57
380.429	4.69
380.795	4.93
381.161	4.8
381.528	4.98
381.894	4.51
382.26	4.96
382.626	4.88
382.993	4.84
383.359	4.72
383.725	4.89
384.091	5.07
384.457	4.4
384.823	4.94
385.188	4.97
385.554	4.85
385.92	5.23
386.286	4.83
386.651	4.91
387.017	4.95
387.383	4.84
387.748	4.91
388.114	4.73
388.479	5.1
388.845	4.79
389.21	4.78
389.575	5.13
389.94	4.71
390.306	5.1
390.671	5.26
391.036	4.4
391.401	4.98
391.766	4.93
392.131	4.93
392.496	5.02
392.861	4.95
393.226	4.86
393.591	4.99
393.956	4.89
394.32	4.88
394.685	4.91
395.05	5.14
395.414	4.93
395.779	4.92
396.143	5.06
396.508	4.92
396.872	5
397.236	4.98
397.601	4.64
397.965	5.35
398.329	4.99
398.694	5.11
399.058	4.93
399.422	4.93
399.786	5.04
400.15	5.01
400.514	5.01
400.878	4.83
401.242	5.08
401.605	5.07
401.969	4.6
402.333	5.09
402.697	4.75
403.06	5.16
403.424	4.97
403.787	5.18
404.151	5.02
404.514	5.38
404.878	5.07
405.241	5.22
405.604	4.97
405.968	5.12
406.331	5.07
406.694	4.94
407.057	5.05
407.42	5.08
407.783	4.99
408.146	5.12
408.509	5.05
408.872	5.12
409.235	4.99
409.598	5.05
409.961	5.29
410.323	5.18
410.686	5.21
411.049	5.4
411.411	5.34
411.774	5.19
412.136	5.01
412.499	5.1
412.861	5.13
413.223	5.04
413.586	4.96
413.948	5.18
414.31	5.14
414.672	5.15
415.035	4.99
415.397	5.39
415.759	5.39
416.121	5.14
416.483	4.98
416.845	5.07
417.206	5.14
417.568	5.22
417.93	5.03
418.292	5.3
418.653	4.98
419.015	5.06
419.377	4.99
419.738	5.2
420.1	4.84
420.461	5.02
420.822	5.08
421.184	5.02
421.545	5.07
421.906	4.96
422.267	4.92
422.629	5.03
422.99	5.04
423.351	4.92
423.712	4.9
424.073	4.91
424.434	4.99
424.795	4.96
425.155	5.12
425.516	4.98
425.877	5
426.238	4.94
426.598	4.91
426.959	4.9
427.32	4.99
427.68	4.83
428.041	4.95
428.401	5.11
428.761	5.08
429.122	5.04
429.482	5.25
429.842	5.12
430.202	5.12
430.563	5.06
430.923	5.09
431.283	5.28
431.643	5.12
432.003	5.24
432.363	5.23
432.722	5.27
433.082	5.24
433.442	5.02
433.802	5.34
434.161	5.07
434.521	5.13
434.881	5.11
435.24	5.01
435.6	5
435.959	5.04
436.319	5.03
436.678	5.13
437.037	5.15
437.396	5.03
437.756	5.12
438.115	5.06
438.474	5.05
438.833	5.18
439.192	5.14
439.551	5.24
439.91	5.34
440.269	5.19
440.628	5.08
440.987	5.05
441.345	5.13
441.704	5.24
442.063	5.16
442.421	5.1
442.78	5.21
443.138	5.08
443.497	5.02
443.855	5.1
444.214	4.97
444.572	5.2
444.93	5.18
445.288	5.14
445.647	5.19
446.005	5.1
446.363	5.09
446.721	5.25
447.079	5.01
447.437	5.16
447.795	5.16
448.153	4.98
448.51	5.06
448.868	5.04
449.226	5.03
449.584	4.99
449.941	4.98
450.299	5.15
450.656	5.16
451.014	5.22
451.371	5.02
451.729	5.17
452.086	5.12
452.443	5.18
452.801	5.23
453.158	5.26
453.515	5.19
453.872	5.21
454.229	5.45
454.586	5.18
454.943	5.17
455.3	5.18
455.657	4.95
456.014	5.23
456.371	5.16
456.727	5.36
457.084	5.31
457.441	5.4
457.797	5.31
458.154	5.23
458.51	5.21
458.867	5.14
459.223	5.23
459.58	5.23
459.936	5.17
460.292	5.31
460.648	5.23
461.005	5.13
461.361	5.16
461.717	4.93
462.073	5.07
462.429	5.02
462.785	5.08
463.141	5.11
463.496	5.2
463.852	5.2
464.208	5.19
464.564	5.4
464.919	5.1
465.275	5.26
465.631	5.32
465.986	5.43
466.342	5.33
466.697	5.35
467.052	5.06
467.408	5.25
467.763	5.17
468.118	5.32
468.473	5.18
468.829	5.19
469.184	5.16
469.539	5.26
469.894	5.19
470.249	5.24
470.603	4.97
470.958	5.31
471.313	5.17
471.668	5.19
472.023	5.26
472.377	5.31
472.732	5.28
473.086	5.48
473.441	4.96
473.795	5.45
474.15	5.11
474.504	5.13
474.859	5.35
475.213	5.17
475.567	5.12
475.921	5.19
476.275	5.22
476.63	5.13
476.984	5.1
477.338	5.27
477.692	5.33
478.045	5.3
478.399	5.31
478.753	5.23
479.107	5.24
479.461	5.11
479.814	5.32
480.168	5.36
480.521	5.3
480.875	5.32
481.228	5.13
481.582	5.17
481.935	5.21
482.289	5.11
482.642	5.01
482.995	5.23
483.348	5.15
483.701	5.11
484.055	5.02
484.408	5.07
484.761	5.1
485.114	4.99
485.466	4.94
485.819	4.82
486.172	4.81
486.525	4.81
486.878	4.79
487.23	4.77
487.583	4.93
487.936	4.99
488.288	5.01
488.641	5.05
488.993	4.9
489.345	4.95
489.698	4.88
490.05	4.84
490.402	4.89
490.754	4.87
491.107	4.87
491.459	4.97
491.811	5.02
492.163	5.01
492.515	4.99
492.866	5
493.218	5.03
493.57	5.04
493.922	4.9
494.274	4.89
494.625	4.88
494.977	5
495.328	5.1
495.68	5.12
496.031	5.08
496.383	5.2
496.734	5.24
497.086	5.14
497.437	5.17
497.788	5.26
498.139	5.22
498.49	5.3
498.842	5.03
499.193	4.97
499.544	5.11
499.894	5.1
500.245	5.18
500.596	5.15
500.947	5.13
501.298	5.09
501.648	5.3
501.999	5.16
502.35	5.22
502.7	5.28
503.051	5.31
503.401	5.29
503.752	5.33
504.102	5.21
504.452	5.15
504.803	5.22
505.153	5.13
505.503	5.21
505.853	5.33
506.203	5.13
506.553	5.2
506.903	5.15
507.253	5.11
507.603	5.19
507.953	5.26
508.303	5.13
508.652	5.13
509.002	5.35
509.352	5.27
509.701	5.27
510.051	5.32
510.4	5.15
510.75	5.19
511.099	5.1
511.449	5.15
511.798	5.24
512.147	5.16
512.496	5.09
512.846	5.17
513.195	5.14
513.544	5.23
513.893	5.25
514.242	5.11
514.591	5.18
514.939	5.25
515.288	5
515.637	5.21
515.986	5.03
516.334	5.26
516.683	5.23
517.032	5.36
517.38	5.21
517.729	5.11
518.077	5.09
518.426	5.19
518.774	5.21
519.122	5.18
519.47	5.16
519.819	5.2
520.167	5.24
520.515	5.1
520.863	5.07
521.211	5.06
521.559	5.15
521.907	5.13
522.255	5.19
522.602	5.21
522.95	5.25
523.298	5.37
523.645	5.32
523.993	5.17
524.341	5.16
524.688	5.31
525.036	5.2
525.383	5.3
525.73	5.42
526.078	5.17
526.425	5.17
526.772	5.21
527.119	5.19
527.466	5.13
527.814	5.09
528.161	5.01
528.508	5.08
528.854	5.11
529.201	5.15
529.548	5.09
529.895	5.05
530.242	5.03
530.588	5
530.935	4.89
531.282	4.89
531.628	4.95
531.975	4.98
532.321	4.98
532.667	5.05
533.014	5.07
533.36	5.16
533.706	5.2
534.052	5.29
534.399	5.23
534.745	5.16
535.091	5.09
535.437	5.07
535.783	4.95
536.129	5.03
536.474	5.15
536.82	5.05
537.166	5.19
537.512	5.17
537.857	5.04
538.203	5.27
538.549	5.12
538.894	5.16
539.239	5.13
539.585	5.05
539.93	5.33
540.276	5.19
540.621	5.24
540.966	5.27
541.311	5.26
541.656	5.16
542.001	5.27
542.346	5.3
542.691	5.34
543.036	5.17
543.381	5.08
543.726	5.02
544.071	5.03
544.415	5.07
544.76	5.07
545.105	5.04
545.449	5.06
545.794	5.12
546.138	5.16
546.483	5.08
546.827	5.13
547.171	5.22
547.516	5.24
547.86	5.29
548.204	5.26
548.548	5.28
548.892	5.26
549.236	5.12
549.58	5.18
549.924	5.28
550.268	5.35
550.612	5.2
550.956	5.25
551.3	5.3
551.643	5.46
551.987	5.26
552.33	5.51
552.674	5.37
553.017	5.3
553.361	5.17
553.704	5.44
554.048	5.5
554.391	5.4
554.734	5.29
555.077	5.43
555.42	5.2
555.764	5.16
556.107	5.36
556.45	5.39
556.793	5.33
557.135	5.31
557.478	5.28
557.821	5.41
558.164	5.57
558.507	5.52
558.849	5.43
559.192	5.46
559.534	5.6
559.877	5.57
560.219	5.47
560.562	5.42
560.904	5.4
561.246	5.54
561.589	5.47
561.931	5.32
562.273	5.26
562.615	5.38
562.957	5.25
563.299	5.32
563.641	5.61
563.983	5.35
564.325	5.41
564.667	5.47
565.008	5.29
565.35	5.42
565.692	5.61
566.033	5.39
566.375	5.5
566.716	5.29
567.058	5.3
567.399	5.39
567.741	5.47
568.082	5.41
568.423	5.45
568.764	5.5
569.105	5.17
569.447	5.29
569.788	5.19
570.129	5.49
570.47	5.4
570.811	5.43
571.151	5.32
571.492	5.33
571.833	5.2
572.174	5.39
572.514	5.5
572.855	5.49
573.195	5.29
573.536	5.38
573.876	5.49
574.217	5.39
574.557	5.22
574.898	5.53
575.238	5.41
575.578	5.46
575.918	5.49
576.258	5.24
576.598	5.44
576.938	5.53
577.278	5.56
577.618	5.45
577.958	5.41
578.298	5.65
578.638	5.39
578.977	5.55
579.317	5.48
579.657	5.59
579.996	5.56
580.336	5.54
580.675	5.46
581.014	5.32
581.354	5.32
581.693	5.62
582.032	5.42
582.372	5.63
582.711	5.46
583.05	5.5
583.389	5.49
583.728	5.61
584.067	5.68
584.406	5.63
584.745	5.33
585.083	5.49
585.422	5.61
585.761	5.57
586.1	5.62
586.438	5.55
586.777	5.54
587.115	5.67
587.454	5.3
587.792	5.79
588.13	5.76
588.469	5.47
588.807	5.81
589.145	5.49
589.483	5.47
589.821	5.29
590.159	5.51
590.497	5.59
590.835	5.58
591.173	5.39
591.511	5.34
591.849	5.68
592.187	5.25
592.524	5.69
592.862	5.62
593.2	5.48
593.537	5.43
593.875	5.66
594.212	5.44
594.55	5.72
594.887	5.69
595.224	5.37
595.561	5.86
595.899	5.79
596.236	5.85
596.573	5.71
596.91	5.48
597.247	5.5
597.584	5.74
597.921	5.71
598.258	5.6
598.594	5.64
598.931	5.58
599.268	5.36
599.604	5.47
599.941	5.55
600.277	5.5
600.614	5.46
600.95	5.68
601.287	5.5
601.623	5.66
601.959	5.65
602.296	5.35
602.632	5.5
602.968	5.32
603.304	5.61
603.64	5.48
603.976	5.5
604.312	5.51
604.648	5.67
604.984	5.63
605.319	5.35
605.655	5.29
605.991	5.54
606.326	5.51
606.662	5.41
606.998	5.35
607.333	5.41
607.668	5.43
608.004	5.66
608.339	5.36
608.674	5.43
609.01	5.33
609.345	5.4
609.68	5.63
610.015	5.47
610.35	5.64
610.685	5.63
611.02	5.51
611.355	5.47
611.689	5.4
612.024	5.43
612.359	5.36
612.694	5.56
613.028	5.48
613.363	5.48
613.697	5.38
614.032	5.41
614.366	5.41
614.7	5.53
615.035	5.67
615.369	5.59
615.703	5.5
616.037	5.35
616.371	5.88
616.705	6.1
617.039	5.59
617.373	5.44
617.707	5.45
618.041	5.94
618.375	5.76
618.709	5.51
619.042	5.74
619.376	5.8
619.71	5.66
620.043	5.33
620.377	5.38
620.71	5.72
621.043	5.72
621.377	5.44
621.71	5.45
622.043	5.54
622.376	5.55
622.709	5.55
623.043	5.61
623.376	5.99
623.709	5.67
624.041	5.28
624.374	5.52
624.707	5.82
625.04	5.64
625.373	5.39
625.705	5.58
626.038	5.67
626.37	5.97
626.703	5.7
627.035	5.62
627.368	5.58
627.7	5.89
628.032	5.89
628.365	5.62
628.697	5.48
629.029	5.48
629.361	5.44
629.693	5.49
630.025	5.66
630.357	5.25
630.689	5.8
631.021	5.77
631.353	5.53
631.684	5.43
632.016	5.75
632.348	5.64
632.679	5.82
633.011	5.6
633.342	5.47
633.674	5.6
634.005	5.6
634.336	5.98
634.668	5.97
634.999	5.55
635.33	6.12
635.661	5.68
635.992	5.45
636.323	5.53
636.654	5.46
636.985	5.55
637.316	5.75
637.647	5.82
637.977	5.26
638.308	5.94
638.639	5.36
638.969	5.8
639.3	5.49
639.63	5.88
639.961	5.16
640.291	5.52
640.622	5.55
640.952	5.79
641.282	5.51
641.612	5.5
641.943	5.94
642.273	6.21
642.603	5.36
642.933	5.56
643.263	5.16
643.592	5.59
643.922	5.96
644.252	5.86
644.582	6.03
644.911	5.55
645.241	5.94
645.571	5.67
645.9	6.07
646.23	6.32
646.559	6.08
646.888	6.17
647.218	5.61
647.547	5.5
647.876	5.58
648.205	5.2
648.534	5.81
648.863	5.95
649.192	5.28
649.521	5.54
649.85	5.89
650.179	5.53
650.508	5.35
650.837	6.15
651.165	5.66
651.494	5.81
651.822	5.43
652.151	5.47
652.479	5.83
652.808	5.62
653.136	5.95
653.465	5.61
653.793	5.31
654.121	5.66
654.449	5.73
654.777	6.01
655.105	5.92
655.433	5.51
655.761	5.62
656.089	5.65
656.417	5.63
656.745	5.91
657.073	5.83
657.4	6.14
657.728	6.07
658.056	5.84
658.383	6.12
658.711	5.64
659.038	5.41
659.365	5.92
659.693	5.43
660.02	5.78
660.347	5.82
660.674	5.63
661.001	5.66
661.329	5.8
661.656	6.23
661.982	5.6
662.309	5.52
662.636	5.78
662.963	5.91
663.29	5.77
663.616	5.88
663.943	6.08
664.27	5.87
664.596	5.65
664.923	5.84
665.249	6.52
665.576	5.52
665.902	5.95
666.228	6.06
666.554	5.47
666.881	5.5
667.207	5.92
667.533	5.52
667.859	6.3
668.185	5.51
668.511	6.71
668.837	5.75
669.162	5.92
669.488	6.32
669.814	5.76
670.139	6.14
670.465	6.66
670.791	5.98
671.116	5.86
671.442	6.74
671.767	5.82
672.092	6.3
672.418	6.6
672.743	6.32
673.068	5.84
673.393	5.56
673.718	5.72
674.043	6.47
674.368	5.91
674.693	6.2
675.018	6.19
675.343	5.62
675.667	5.48
675.992	5.79
676.317	6.56
676.641	5.83
676.966	5.84
677.29	5.86
677.615	6.47
677.939	6.34
678.264	6.52
678.588	6.78
678.912	6.15
679.236	6.18
679.56	6.03
679.885	5.93
680.209	7.14
680.532	5.85
680.856	5.7
681.18	6.25
681.504	5.95
681.828	5.94
682.152	5.95
682.475	6.38
682.799	6.29
683.122	6.08
683.446	5.67
683.769	6.22
684.093	6.06
684.416	5.82
684.739	6.35
685.062	7.13
685.386	5.67
685.709	6.17
686.032	5.83
686.355	6.32
686.678	5.88
687.001	6.2
687.324	7.34
687.646	6.34
687.969	6.67
688.292	6.44
688.614	6.66
688.937	6.35
689.26	5.56
689.582	6.33
689.904	6.13
690.227	6.93
690.549	7.35
690.871	6.25
691.194	6.59
691.516	6.71
691.838	6.08
692.16	5.86
692.482	6.04
692.804	5.11
693.126	5.56
