Data from 0189_chest_Reflection__2__113.txt Node

Date: Fri Sep 22 21:13:02 CDT 2023
User: ToomeyLab
Spectrometer: FLMS14357
Trigger mode: 0
Integration Time (sec): 1.000000E-2
Scans to average: 100
Electric dark correction enabled: true
Nonlinearity correction enabled: false
Boxcar width: 0
XAxis mode: Wavelengths
Number of Pixels in Spectrum: 2048
>>>>>Begin Spectral Data<<<<<
189.047	38.59
189.435	38.59
189.823	38.59
190.211	-220
190.599	247.88
190.987	-1070.73
191.375	141.94
191.763	1218.34
192.151	359.98
192.538	4.41
192.926	41.42
193.314	14.43
193.702	-5.18
194.089	91.78
194.477	-129.47
194.864	-562.98
195.252	70.88
195.639	68.58
196.027	223.67
196.414	526.67
196.801	-44.96
197.189	-9.33
197.576	113.82
197.963	13.67
198.351	36.91
198.738	45.09
199.125	1.83
199.512	40.95
199.899	32.31
200.286	11.24
200.673	11.33
201.06	28.44
201.447	60.2
201.833	-22.19
202.22	15.41
202.607	34.62
202.994	43.44
203.38	19.86
203.767	33.8
204.154	38.41
204.54	33.37
204.927	-7.28
205.313	24.22
205.699	46.6
206.086	27.39
206.472	56.3
206.858	19.15
207.245	22.01
207.631	38.32
208.017	25.16
208.403	47.61
208.789	15.85
209.175	41.07
209.561	39.71
209.947	62.84
210.333	25.23
210.719	-13.41
211.105	31.29
211.491	17.21
211.876	19.11
212.262	32.83
212.648	15.05
213.034	40.25
213.419	4.79
213.805	6.68
214.19	20
214.576	32.69
214.961	3.76
215.346	0.32
215.732	41.25
216.117	13.38
216.502	27.98
216.888	28.59
217.273	8.2
217.658	20.06
218.043	31.45
218.428	42.13
218.813	2.53
219.198	8.99
219.583	30.63
219.968	-2.45
220.353	41.84
220.738	14.54
221.122	4.36
221.507	28.12
221.892	-0.21
222.276	12.66
222.661	11.25
223.046	25.04
223.43	11.73
223.815	-2.41
224.199	-1.7
224.583	8.77
224.968	14.96
225.352	12.37
225.736	7.51
226.121	8.84
226.505	8.36
226.889	2.98
227.273	2.81
227.657	4.66
228.041	3.19
228.425	9.3
228.809	4.24
229.193	4.84
229.577	2.08
229.961	5.05
230.344	4.28
230.728	0.82
231.112	2.86
231.495	2.5
231.879	2.07
232.263	1.98
232.646	2.36
233.03	1.12
233.413	1.78
233.797	1.86
234.18	3.85
234.563	6.69
234.946	0.37
235.33	0.63
235.713	0.57
236.096	1.85
236.479	2.42
236.862	2.58
237.245	3.43
237.628	2.86
238.011	3.57
238.394	2.26
238.777	3.69
239.16	3.85
239.543	5.15
239.925	4.98
240.308	5.09
240.691	2.14
241.073	5.44
241.456	2.93
241.838	2.82
242.221	2.06
242.603	2.43
242.986	2.2
243.368	1.59
243.75	2.56
244.133	3.01
244.515	2.13
244.897	1.86
245.279	2.4
245.661	2.26
246.043	2.22
246.425	2.14
246.807	1.99
247.189	1.85
247.571	3.41
247.953	2.18
248.335	2.13
248.717	2.07
249.098	2.03
249.48	1.95
249.862	2.21
250.243	2.04
250.625	2.13
251.006	2.36
251.388	2.21
251.769	2.8
252.151	1.99
252.532	2.68
252.913	3.09
253.295	2.95
253.676	2.16
254.057	2.06
254.438	2.1
254.819	1.7
255.2	2.42
255.581	2.94
255.962	3.2
256.343	2.98
256.724	2.03
257.105	3
257.486	3.27
257.867	2.99
258.247	3.61
258.628	3.41
259.009	2.38
259.389	2.36
259.77	2.81
260.15	2.89
260.531	2.26
260.911	1.71
261.292	1.86
261.672	1.51
262.052	1.93
262.432	2.01
262.813	2.1
263.193	1.71
263.573	2.68
263.953	2.15
264.333	2.13
264.713	2.29
265.093	1.91
265.473	1.51
265.853	1.83
266.233	2.18
266.612	2.57
266.992	1.91
267.372	2.5
267.752	2.57
268.131	1.69
268.511	2.13
268.89	2.38
269.27	1.77
269.649	2.09
270.029	1.67
270.408	2.21
270.787	1.57
271.167	2.21
271.546	1.38
271.925	1.72
272.304	1.71
272.683	1.93
273.062	2.36
273.441	1.99
273.82	2.34
274.199	2.2
274.578	2.34
274.957	1.8
275.336	1.81
275.715	1.76
276.093	1.79
276.472	1.73
276.851	1.85
277.229	1.46
277.608	2.8
277.986	1.91
278.365	2.51
278.743	2.03
279.122	1.91
279.5	2.3
279.878	2.01
280.257	2.4
280.635	2.1
281.013	2.58
281.391	2.27
281.769	1.91
282.147	2.06
282.525	2.19
282.903	2.01
283.281	2.46
283.659	2.36
284.037	1.96
284.415	2.31
284.792	2.15
285.17	1.86
285.548	2.76
285.925	2.43
286.303	1.92
286.68	1.73
287.058	1.96
287.435	1.89
287.813	2.11
288.19	1.76
288.567	2.61
288.945	2.01
289.322	2.25
289.699	2.32
290.076	2.23
290.453	1.87
290.83	1.75
291.207	1.86
291.584	1.57
291.961	2.25
292.338	2.24
292.715	2.2
293.092	2.17
293.469	2.17
293.845	1.78
294.222	2.28
294.599	2.33
294.975	2.21
295.352	2.47
295.728	2.31
296.105	2.44
296.481	2.34
296.858	2.36
297.234	2.3
297.61	2.21
297.986	2.13
298.363	2.18
298.739	2.4
299.115	2.52
299.491	2.31
299.867	2.25
300.243	2.06
300.619	2.31
300.995	2.1
301.371	2.56
301.746	2.7
302.122	2.62
302.498	2.34
302.874	2.37
303.249	2.43
303.625	2.26
304	2.82
304.376	2.55
304.751	2.75
305.127	2.24
305.502	3.26
305.878	2.26
306.253	2.8
306.628	2.34
307.003	2.44
307.378	3
307.754	1.81
308.129	2.61
308.504	2.81
308.879	2.61
309.254	2.54
309.629	2.42
310.003	2.8
310.378	2.9
310.753	3.09
311.128	2.37
311.502	2.68
311.877	2.24
312.252	2.69
312.626	2.81
313.001	2.69
313.375	2.84
313.75	2.92
314.124	3.02
314.498	2.41
314.873	2.51
315.247	2.76
315.621	3.09
315.995	2.96
316.369	2.55
316.743	2.78
317.117	3.02
317.491	3.47
317.865	2.38
318.239	2.14
318.613	2.75
318.987	2.75
319.361	2.24
319.734	2.55
320.108	3.29
320.482	2.87
320.855	2.64
321.229	2.95
321.602	2.96
321.976	2.55
322.349	2.93
322.723	2.82
323.096	3.19
323.469	2.8
323.843	3.06
324.216	2.99
324.589	3.3
324.962	2.4
325.335	3.15
325.708	3
326.081	3.23
326.454	2.69
326.827	3.08
327.2	2.72
327.573	3.34
327.945	2.61
328.318	3.16
328.691	2.96
329.063	2.68
329.436	2.99
329.809	3.55
330.181	2.88
330.553	2.59
330.926	3.21
331.298	3.46
331.671	3.18
332.043	2.63
332.415	2.91
332.787	3.1
333.159	3.3
333.532	3.06
333.904	2.61
334.276	2.43
334.648	2.73
335.02	2.87
335.391	3.41
335.763	3.29
336.135	3.37
336.507	3.16
336.879	2.66
337.25	3.25
337.622	3.6
337.993	3.11
338.365	3.11
338.736	3.41
339.108	2.74
339.479	2.85
339.851	2.9
340.222	2.89
340.593	2.79
340.964	2.94
341.336	3
341.707	2.99
342.078	3.15
342.449	3.43
342.82	2.37
343.191	2.35
343.562	2.81
343.933	3.45
344.303	2.73
344.674	3.33
345.045	2.45
345.416	2.9
345.786	3.2
346.157	2.91
346.527	3.23
346.898	2.83
347.268	2.83
347.639	3.12
348.009	3.01
348.38	3.18
348.75	3.47
349.12	2.9
349.49	3.17
349.861	2.88
350.231	3.24
350.601	3.35
350.971	3.28
351.341	3.05
351.711	2.84
352.081	2.84
352.45	3
352.82	3.56
353.19	3.55
353.56	3.04
353.929	3.29
354.299	3.16
354.669	2.62
355.038	2.88
355.408	3.09
355.777	3.36
356.147	3.02
356.516	3.23
356.885	3.18
357.254	3.57
357.624	2.76
357.993	3.03
358.362	3.02
358.731	2.92
359.1	3.04
359.469	2.97
359.838	3.05
360.207	2.91
360.576	3.3
360.945	2.99
361.314	3.06
361.682	3.18
362.051	3.31
362.42	2.87
362.788	2.97
363.157	3.18
363.525	3.2
363.894	2.92
364.262	2.98
364.631	2.97
364.999	2.88
365.367	3.31
365.735	2.92
366.104	3.05
366.472	3.39
366.84	2.93
367.208	3.37
367.576	3.18
367.944	3.21
368.312	3.24
368.68	3.17
369.048	3.2
369.416	3
369.783	3.14
370.151	3.06
370.519	3.13
370.886	2.94
371.254	3.29
371.621	2.89
371.989	2.84
372.356	2.89
372.724	3.33
373.091	3.2
373.458	3.45
373.826	3.34
374.193	3.48
374.56	3.55
374.927	3.25
375.294	2.96
375.661	3.34
376.028	3.32
376.395	3.15
376.762	3.11
377.129	3.41
377.496	3.2
377.863	3.24
378.229	3.53
378.596	3.43
378.963	3.31
379.329	3.55
379.696	3.57
380.062	3.17
380.429	2.94
380.795	3.21
381.161	2.98
381.528	3.21
381.894	2.97
382.26	3.22
382.626	3.33
382.993	3.3
383.359	2.94
383.725	3.27
384.091	3.45
384.457	3.14
384.823	3.42
385.188	3.24
385.554	3.18
385.92	3.5
386.286	3.41
386.651	3.08
387.017	3.45
387.383	3.14
387.748	3.27
388.114	3.32
388.479	3.14
388.845	2.98
389.21	3.11
389.575	3.65
389.94	2.99
390.306	3.41
390.671	3.7
391.036	3.11
391.401	3.15
391.766	3.23
392.131	3.21
392.496	3.16
392.861	3.02
393.226	3.46
393.591	3.24
393.956	3.44
394.32	3.31
394.685	3.22
395.05	3.62
395.414	3.39
395.779	3.32
396.143	3.25
396.508	3.4
396.872	3.33
397.236	3.46
397.601	3.08
397.965	3.49
398.329	3.34
398.694	3.38
399.058	3.25
399.422	3.35
399.786	3.36
400.15	3.23
400.514	3.35
400.878	3.41
401.242	3.49
401.605	3.34
401.969	3.18
402.333	3.44
402.697	3.35
403.06	3.31
403.424	3.25
403.787	3.46
404.151	3.51
404.514	3.52
404.878	3.51
405.241	3.64
405.604	3.58
405.968	3.54
406.331	3.36
406.694	3.56
407.057	3.23
407.42	3.52
407.783	3.38
408.146	3.42
408.509	3.4
408.872	3.36
409.235	3.34
409.598	3.51
409.961	3.55
410.323	3.37
410.686	3.42
411.049	3.97
411.411	3.48
411.774	3.34
412.136	3.11
412.499	3.53
412.861	3.51
413.223	3.53
413.586	3.6
413.948	3.55
414.31	3.57
414.672	3.44
415.035	3.58
415.397	3.74
415.759	3.71
416.121	3.41
416.483	3.23
416.845	3.43
417.206	3.43
417.568	3.41
417.93	3.53
418.292	3.55
418.653	3.28
419.015	3.57
419.377	3.38
419.738	3.5
420.1	3.36
420.461	3.55
420.822	3.38
421.184	3.52
421.545	3.56
421.906	3.45
422.267	3.34
422.629	3.43
422.99	3.39
423.351	3.39
423.712	3.35
424.073	3.44
424.434	3.42
424.795	3.54
425.155	3.43
425.516	3.57
425.877	3.47
426.238	3.32
426.598	3.42
426.959	3.46
427.32	3.5
427.68	3.4
428.041	3.46
428.401	3.58
428.761	3.58
429.122	3.6
429.482	3.6
429.842	3.62
430.202	3.55
430.563	3.76
430.923	3.75
431.283	3.64
431.643	3.7
432.003	3.67
432.363	3.85
432.722	3.68
433.082	3.51
433.442	3.8
433.802	3.81
434.161	3.77
434.521	3.7
434.881	3.54
435.24	3.52
435.6	3.52
435.959	3.47
436.319	3.57
436.678	3.86
437.037	3.7
437.396	3.53
437.756	3.69
438.115	3.78
438.474	3.72
438.833	3.77
439.192	3.58
439.551	3.66
439.91	3.65
440.269	4.02
440.628	3.67
440.987	3.62
441.345	3.79
441.704	3.72
442.063	3.76
442.421	3.69
442.78	3.77
443.138	3.63
443.497	3.66
443.855	3.75
444.214	3.54
444.572	3.84
444.93	3.77
445.288	3.73
445.647	3.91
446.005	3.81
446.363	3.66
446.721	3.78
447.079	3.64
447.437	3.85
447.795	3.82
448.153	3.7
448.51	3.78
448.868	3.61
449.226	3.71
449.584	3.66
449.941	3.65
450.299	3.87
450.656	3.75
451.014	3.99
451.371	3.81
451.729	3.88
452.086	3.77
452.443	3.85
452.801	3.78
453.158	3.9
453.515	3.97
453.872	3.8
454.229	4.05
454.586	3.86
454.943	3.95
455.3	3.76
455.657	3.98
456.014	3.81
456.371	3.87
456.727	4.07
457.084	4.1
457.441	3.85
457.797	3.77
458.154	3.78
458.51	3.75
458.867	3.97
459.223	4.04
459.58	4.1
459.936	3.97
460.292	3.86
460.648	4.03
461.005	4
461.361	4.06
461.717	3.75
462.073	3.8
462.429	3.81
462.785	3.85
463.141	3.89
463.496	4.07
463.852	3.89
464.208	3.91
464.564	4.12
464.919	3.94
465.275	4.25
465.631	4.24
465.986	4.07
466.342	4.07
466.697	4.16
467.052	3.89
467.408	4.12
467.763	4.02
468.118	4.26
468.473	4.07
468.829	3.91
469.184	4.14
469.539	3.98
469.894	4.03
470.249	4.08
470.603	4.01
470.958	4.04
471.313	4.14
471.668	4.2
472.023	4.05
472.377	4.18
472.732	4.15
473.086	4.35
473.441	3.86
473.795	4.33
474.15	4.04
474.504	4.08
474.859	4.15
475.213	3.88
475.567	4.05
475.921	4.03
476.275	4.31
476.63	4.12
476.984	4.05
477.338	4.29
477.692	4.3
478.045	4.35
478.399	4.25
478.753	4.26
479.107	4.25
479.461	4.28
479.814	4.24
480.168	4.31
480.521	4.23
480.875	4.23
481.228	4.41
481.582	4.17
481.935	4.18
482.289	4.15
482.642	4.15
482.995	4.12
483.348	4.25
483.701	4.17
484.055	4.23
484.408	4.19
484.761	4.3
485.114	4.06
485.466	4
485.819	3.99
486.172	3.98
486.525	3.97
486.878	3.96
487.23	4.04
487.583	4.1
487.936	4.17
488.288	4.19
488.641	4.17
488.993	4.13
489.345	4.15
489.698	4.1
490.05	4.08
490.402	4.1
490.754	4.09
491.107	4.12
491.459	4.17
491.811	4.22
492.163	4.33
492.515	4.28
492.866	4.29
493.218	4.35
493.57	4.29
493.922	4.2
494.274	4.19
494.625	4.24
494.977	4.32
495.328	4.37
495.68	4.35
496.031	4.32
496.383	4.38
496.734	4.47
497.086	4.29
497.437	4.45
497.788	4.52
498.139	4.61
498.49	4.65
498.842	4.41
499.193	4.41
499.544	4.5
499.894	4.47
500.245	4.46
500.596	4.56
500.947	4.6
501.298	4.6
501.648	4.51
501.999	4.66
502.35	4.54
502.7	4.72
503.051	4.54
503.401	4.63
503.752	4.61
504.102	4.63
504.452	4.63
504.803	4.49
505.153	4.73
505.503	4.72
505.853	4.77
506.203	4.51
506.553	4.76
506.903	4.62
507.253	4.65
507.603	4.79
507.953	4.83
508.303	4.75
508.652	4.79
509.002	4.8
509.352	4.69
509.701	4.78
510.051	4.84
510.4	4.8
510.75	4.72
511.099	4.59
511.449	4.72
511.798	4.82
512.147	4.78
512.496	4.73
512.846	4.82
513.195	4.79
513.544	4.76
513.893	4.95
514.242	4.75
514.591	4.88
514.939	4.86
515.288	4.79
515.637	4.83
515.986	4.73
516.334	4.84
516.683	4.97
517.032	4.97
517.38	4.95
517.729	4.93
518.077	4.93
518.426	5.02
518.774	4.96
519.122	4.93
519.47	4.96
519.819	4.96
520.167	5.04
520.515	4.96
520.863	4.9
521.211	4.85
521.559	5.02
521.907	5.04
522.255	4.97
522.602	5.06
522.95	4.99
523.298	5.17
523.645	5.03
523.993	5.03
524.341	5.09
524.688	5.06
525.036	5.02
525.383	5.1
525.73	5.23
526.078	5.11
526.425	5.1
526.772	5.19
527.119	5.06
527.466	5.01
527.814	5
528.161	5.05
528.508	5.14
528.854	5.13
529.201	5.15
529.548	5.14
529.895	5.06
530.242	5.09
530.588	4.95
530.935	4.93
531.282	4.95
531.628	5.01
531.975	5.04
532.321	5.04
532.667	5.08
533.014	5.2
533.36	5.26
533.706	5.22
534.052	5.32
534.399	5.33
534.745	5.32
535.091	5.16
535.437	5.26
535.783	5.15
536.129	5.28
536.474	5.29
536.82	5.17
537.166	5.43
537.512	5.43
537.857	5.39
538.203	5.48
538.549	5.4
538.894	5.37
539.239	5.38
539.585	5.33
539.93	5.49
540.276	5.48
540.621	5.56
540.966	5.54
541.311	5.54
541.656	5.54
542.001	5.5
542.346	5.63
542.691	5.71
543.036	5.55
543.381	5.44
543.726	5.44
544.071	5.45
544.415	5.45
544.76	5.45
545.105	5.39
545.449	5.47
545.794	5.54
546.138	5.61
546.483	5.73
546.827	5.74
547.171	5.69
547.516	5.81
547.86	5.79
548.204	5.65
548.548	5.81
548.892	5.81
549.236	5.73
549.58	5.79
549.924	5.96
550.268	5.97
550.612	5.92
550.956	5.95
551.3	5.93
551.643	6.05
551.987	6.09
552.33	6.16
552.674	6.11
553.017	6.02
553.361	6
553.704	6.13
554.048	6.08
554.391	6.25
554.734	6.21
555.077	6.12
555.42	6.08
555.764	6.06
556.107	6.15
556.45	6.09
556.793	6.07
557.135	6.36
557.478	5.94
557.821	6.18
558.164	6.44
558.507	6.52
558.849	6.16
559.192	6.19
559.534	6.44
559.877	6.37
560.219	6.44
560.562	6.6
560.904	6.52
561.246	6.47
561.589	6.46
561.931	6.35
562.273	6.37
562.615	6.18
562.957	6.28
563.299	6.45
563.641	6.66
563.983	6.61
564.325	6.52
564.667	6.52
565.008	6.56
565.35	6.64
565.692	6.57
566.033	6.73
566.375	6.61
566.716	6.49
567.058	6.74
567.399	6.81
567.741	6.85
568.082	6.78
568.423	6.72
568.764	6.85
569.105	6.56
569.447	6.63
569.788	6.63
570.129	6.86
570.47	6.88
570.811	6.97
571.151	6.82
571.492	6.8
571.833	6.84
572.174	6.94
572.514	6.84
572.855	6.97
573.195	6.69
573.536	7.11
573.876	7.06
574.217	6.83
574.557	6.99
574.898	6.99
575.238	6.98
575.578	7.07
575.918	7.15
576.258	7.03
576.598	6.99
576.938	7.16
577.278	7.28
577.618	7.04
577.958	7.09
578.298	7.21
578.638	7.11
578.977	7.11
579.317	7.21
579.657	7.31
579.996	7.19
580.336	7.35
580.675	7.35
581.014	7.41
581.354	7.6
581.693	7.57
582.032	7.48
582.372	7.67
582.711	7.53
583.05	7.2
583.389	7.34
583.728	7.39
584.067	7.62
584.406	7.46
584.745	7.46
585.083	7.82
585.422	7.82
585.761	7.78
586.1	7.65
586.438	7.51
586.777	7.75
587.115	7.9
587.454	7.53
587.792	7.94
588.13	7.74
588.469	7.77
588.807	8.09
589.145	8.08
589.483	8.05
589.821	7.92
590.159	7.78
590.497	8
590.835	8.09
591.173	7.93
591.511	8.03
591.849	8.13
592.187	7.79
592.524	8.18
592.862	7.99
593.2	8.03
593.537	7.97
593.875	8.13
594.212	8.16
594.55	8.31
594.887	8.37
595.224	8.09
595.561	8.3
595.899	8.25
596.236	8.46
596.573	8.33
596.91	8.36
597.247	8.43
597.584	8.6
597.921	8.56
598.258	8.38
598.594	8.45
598.931	8.3
599.268	8.41
599.604	8.55
599.941	8.41
600.277	8.22
600.614	8.49
600.95	8.59
601.287	8.47
601.623	8.46
601.959	8.64
602.296	8.64
602.632	8.27
602.968	8.66
603.304	8.65
603.64	8.62
603.976	8.73
604.312	8.73
604.648	8.77
604.984	8.98
605.319	8.56
605.655	8.79
605.991	8.75
606.326	8.78
606.662	8.82
606.998	8.78
607.333	8.83
607.668	8.94
608.004	8.85
608.339	8.65
608.674	9.14
609.01	8.8
609.345	8.89
609.68	9.19
610.015	9.06
610.35	9.19
610.685	9.45
611.02	9.46
611.355	9.27
611.689	9.15
612.024	9.16
612.359	9.08
612.694	9.19
613.028	9.07
613.363	9.21
613.697	9.29
614.032	9.03
614.366	9.15
614.7	9.02
615.035	9.52
615.369	9.5
615.703	9.42
616.037	9.4
616.371	9.58
616.705	9.52
617.039	9.77
617.373	9.39
617.707	9.52
618.041	10.18
618.375	9.5
618.709	9.49
619.042	9.65
619.376	9.8
619.71	9.91
620.043	9.51
620.377	9.8
620.71	9.54
621.043	9.93
621.377	9.67
621.71	9.56
622.043	9.86
622.376	10.32
622.709	10.11
623.043	9.88
623.376	10.08
623.709	10.13
624.041	9.91
624.374	10.01
624.707	10.05
625.04	10.18
625.373	9.92
625.705	10.17
626.038	10.21
626.37	10.33
626.703	10.23
627.035	10.27
627.368	10.04
627.7	10.51
628.032	10.49
628.365	10.4
628.697	10.48
629.029	10.06
629.361	10.3
629.693	10.32
630.025	10.36
630.357	10.3
630.689	10.41
631.021	10.49
631.353	10.08
631.684	10.43
632.016	10.77
632.348	10.48
632.679	10.16
633.011	10.68
633.342	10.77
633.674	11.04
634.005	10.56
634.336	11.31
634.668	10.79
634.999	11.05
635.33	10.7
635.661	10.85
635.992	10.93
636.323	10.71
636.654	10.64
636.985	10.6
637.316	10.63
637.647	10.88
637.977	10.64
638.308	11.27
638.639	10.9
638.969	11.04
639.3	10.93
639.63	11.47
639.961	11
640.291	10.93
640.622	11.03
640.952	11.12
641.282	11.34
641.612	11.33
641.943	11.29
642.273	11.3
642.603	11.22
642.933	11.11
643.263	11.01
643.592	11.05
643.922	11.6
644.252	11.64
644.582	11.72
644.911	11.25
645.241	11.66
645.571	11.19
645.9	11.67
646.23	12.2
646.559	12.03
646.888	11.69
647.218	11.75
647.547	11.12
647.876	11.93
648.205	11.43
648.534	12.18
648.863	11.22
649.192	11.18
649.521	11.76
649.85	11.77
650.179	12.01
650.508	11.7
650.837	11.91
651.165	12.1
651.494	11.58
651.822	11.97
652.151	11.94
652.479	11.91
652.808	11.7
653.136	12.44
653.465	12.05
653.793	12.01
654.121	12.38
654.449	11.85
654.777	12.09
655.105	12.11
655.433	11.69
655.761	12.21
656.089	12.1
656.417	12.13
656.745	11.97
657.073	12.14
657.4	13.1
657.728	12.42
658.056	12.42
658.383	12.54
658.711	12.29
659.038	12.28
659.365	12.48
659.693	12.19
660.02	12.89
660.347	12.64
660.674	12.68
661.001	12.39
661.329	12.38
661.656	12.87
661.982	12.17
662.309	12.62
662.636	12.69
662.963	13.16
663.29	12.79
663.616	13.18
663.943	12.94
664.27	13.48
664.596	12.86
664.923	12.88
665.249	12.58
665.576	12.38
665.902	12.92
666.228	12.94
666.554	12.37
666.881	12.95
667.207	12.6
667.533	13.09
667.859	13.4
668.185	13.08
668.511	13.7
668.837	13.26
669.162	13.47
669.488	13.33
669.814	13.14
670.139	13.43
670.465	13.71
670.791	13.65
671.116	13.54
671.442	13.81
671.767	12.63
672.092	14.04
672.418	14.13
672.743	13.84
673.068	13.7
673.393	13.08
673.718	14.3
674.043	14.25
674.368	14.36
674.693	13.52
675.018	13.59
675.343	14.08
675.667	13.79
675.992	13.08
676.317	13.4
676.641	13.54
676.966	13.82
677.29	13.49
677.615	14.16
677.939	14.03
678.264	14.15
678.588	14.34
678.912	13.99
679.236	14.46
679.56	14.25
679.885	14.14
680.209	14.69
680.532	13.99
680.856	13.91
681.18	13.54
681.504	14.08
681.828	14.65
682.152	14.15
682.475	14.53
682.799	14.45
683.122	14.27
683.446	13.82
683.769	14.15
684.093	14.63
684.416	14.07
684.739	14.62
685.062	14.87
685.386	14.29
685.709	14.77
686.032	15.06
686.355	14.31
686.678	14.98
687.001	14.1
687.324	14.54
687.646	14.88
687.969	14.68
688.292	14.86
