Data from 0189_forehead_Reflection__4__125.txt Node

Date: Fri Sep 22 21:18:20 CDT 2023
User: ToomeyLab
Spectrometer: FLMS14357
Trigger mode: 0
Integration Time (sec): 1.000000E-2
Scans to average: 100
Electric dark correction enabled: true
Nonlinearity correction enabled: false
Boxcar width: 0
XAxis mode: Wavelengths
Number of Pixels in Spectrum: 2048
>>>>>Begin Spectral Data<<<<<
189.047	267.25
189.435	267.25
189.823	267.25
190.211	-263.24
190.599	124.46
190.987	-1639.37
191.375	270.24
191.763	-259.86
192.151	193.46
192.538	268.42
192.926	68.76
193.314	171.18
193.702	88.17
194.089	114.73
194.477	-25.16
194.864	-67.96
195.252	54.84
195.639	51.44
196.027	2426.57
196.414	3776.44
196.801	-314.18
197.189	-21.2
197.576	202.5
197.963	159.72
198.351	35.46
198.738	57.97
199.125	0.13
199.512	14.84
199.899	47.84
200.286	38.59
200.673	4.65
201.06	32.17
201.447	71.51
201.833	44.77
202.22	50.37
202.607	53.76
202.994	56.14
203.38	42.48
203.767	40.07
204.154	60.99
204.54	45.94
204.927	21.05
205.313	53.46
205.699	71.04
206.086	47.93
206.472	60.39
206.858	30.13
207.245	19.12
207.631	48.29
208.017	39.32
208.403	18.96
208.789	21.71
209.175	43.12
209.561	43.68
209.947	41.14
210.333	53.5
210.719	32.12
211.105	37.7
211.491	45.99
211.876	52.36
212.262	64.43
212.648	17.83
213.034	39.91
213.419	44.87
213.805	33
214.19	20.83
214.576	53.99
214.961	22.56
215.346	26.84
215.732	49.63
216.117	9.45
216.502	38.75
216.888	27.61
217.273	36.95
217.658	15.27
218.043	38.96
218.428	39.19
218.813	6.14
219.198	12.63
219.583	23.35
219.968	30.3
220.353	35.9
220.738	20.9
221.122	26.37
221.507	33.42
221.892	8.71
222.276	25.37
222.661	-11.4
223.046	30.75
223.43	32.12
223.815	22.25
224.199	14.73
224.583	15.67
224.968	21.34
225.352	7.74
225.736	14.79
226.121	13.54
226.505	17.13
226.889	15.23
227.273	16.2
227.657	16.35
228.041	7.28
228.425	13.95
228.809	6.3
229.193	7.98
229.577	8.93
229.961	7.14
230.344	4.64
230.728	5.24
231.112	4.97
231.495	3.68
231.879	3.78
232.263	3.74
232.646	3.32
233.03	3.53
233.413	7.52
233.797	5.35
234.18	5.64
234.563	7.33
234.946	6.44
235.33	2.68
235.713	1.93
236.096	5.04
236.479	3.8
236.862	7.77
237.245	5.97
237.628	6.58
238.011	4.96
238.394	5.07
238.777	7.04
239.16	5.93
239.543	8.28
239.925	6.9
240.308	6.2
240.691	6.51
241.073	5.15
241.456	5.14
241.838	5.06
242.221	5.14
242.603	4.38
242.986	4.47
243.368	4.17
243.75	5.39
244.133	4.5
244.515	4.03
244.897	3.66
245.279	4.4
245.661	4.33
246.043	4.82
246.425	4.15
246.807	5.72
247.189	3.85
247.571	4.74
247.953	4.51
248.335	4.52
248.717	4.56
249.098	4.19
249.48	3.83
249.862	3.79
250.243	4.21
250.625	4.36
251.006	4.05
251.388	4.18
251.769	4.4
252.151	4.22
252.532	6.18
252.913	5.68
253.295	6.05
253.676	4.48
254.057	4.7
254.438	4.86
254.819	4.14
255.2	5.3
255.581	4.59
255.962	5.45
256.343	6.04
256.724	4.16
257.105	5.45
257.486	4.56
257.867	5.25
258.247	5.66
258.628	5.73
259.009	4.78
259.389	5.18
259.77	5.25
260.15	6
260.531	4.54
260.911	4.74
261.292	4.13
261.672	3.89
262.052	4.15
262.432	4.12
262.813	4.34
263.193	3.73
263.573	4.79
263.953	4.18
264.333	4.64
264.713	4.39
265.093	4.27
265.473	4.96
265.853	4.07
266.233	5.1
266.612	5.25
266.992	5.01
267.372	4.88
267.752	4.93
268.131	4.34
268.511	4.3
268.89	4.15
269.27	4.68
269.649	4.68
270.029	4.35
270.408	4.37
270.787	4.31
271.167	3.99
271.546	4.14
271.925	4.99
272.304	4.41
272.683	4.42
273.062	4.72
273.441	3.69
273.82	4.68
274.199	4.38
274.578	4.74
274.957	4.16
275.336	4.29
275.715	4.02
276.093	4.17
276.472	3.62
276.851	4.48
277.229	4.26
277.608	4.86
277.986	3.95
278.365	4.51
278.743	4.34
279.122	4.64
279.5	4.57
279.878	4.37
280.257	4.45
280.635	4.45
281.013	5.23
281.391	4.05
281.769	4.74
282.147	4.47
282.525	4.28
282.903	4.93
283.281	4.43
283.659	4.58
284.037	4.01
284.415	4.59
284.792	4.23
285.17	4.37
285.548	4.62
285.925	4.87
286.303	4.6
286.68	3.96
287.058	4.04
287.435	4.06
287.813	3.93
288.19	3.87
288.567	4.37
288.945	4.1
289.322	4.29
289.699	4.81
290.076	4.93
290.453	4.46
290.83	4.55
291.207	4.18
291.584	4.37
291.961	4.46
292.338	4.7
292.715	4.61
293.092	4.85
293.469	4.79
293.845	4.54
294.222	4.97
294.599	5.49
294.975	5.09
295.352	5.13
295.728	4.82
296.105	5.03
296.481	4.64
296.858	4.6
297.234	5
297.61	5.23
297.986	5.54
298.363	4.85
298.739	5
299.115	5.26
299.491	5.37
299.867	5.19
300.243	5.56
300.619	5.36
300.995	5.42
301.371	5.86
301.746	5.11
302.122	5.37
302.498	5.59
302.874	5.29
303.249	5.79
303.625	5.3
304	6.31
304.376	5.51
304.751	6.58
305.127	6
305.502	6.67
305.878	6.23
306.253	6.08
306.628	5.57
307.003	6.05
307.378	6.18
307.754	6.45
308.129	6.45
308.504	6.06
308.879	6.66
309.254	6.52
309.629	6.96
310.003	7.1
310.378	6.83
310.753	7.08
311.128	6.93
311.502	7.08
311.877	6.67
312.252	7.14
312.626	6.72
313.001	7.25
313.375	7.52
313.75	7.4
314.124	7.6
314.498	7
314.873	7.42
315.247	7.74
315.621	7.46
315.995	7.88
316.369	7.85
316.743	7.81
317.117	7.76
317.491	8.01
317.865	7.65
318.239	8.11
318.613	8.1
318.987	8.11
319.361	8.1
319.734	8.21
320.108	8.87
320.482	8.34
320.855	8.23
321.229	9.3
321.602	8.71
321.976	8.55
322.349	9.23
322.723	9.15
323.096	9.08
323.469	9.6
323.843	9.34
324.216	9.65
324.589	8.68
324.962	8.97
325.335	9.2
325.708	8.93
326.081	9.07
326.454	8.43
326.827	9.41
327.2	9.07
327.573	9.63
327.945	9.46
328.318	9.6
328.691	9.46
329.063	9.42
329.436	9.75
329.809	9.56
330.181	9.91
330.553	9.58
330.926	9.17
331.298	9.56
331.671	9.79
332.043	9.24
332.415	10.06
332.787	10.1
333.159	9.61
333.532	9.73
333.904	9.74
334.276	9.71
334.648	9.61
335.02	9.7
335.391	10.57
335.763	10.26
336.135	10.25
336.507	10.41
336.879	9.88
337.25	10.54
337.622	10.66
337.993	10.57
338.365	10.53
338.736	10.36
339.108	10.92
339.479	10.55
339.851	10.1
340.222	10.49
340.593	10.52
340.964	10.3
341.336	10.35
341.707	10.4
342.078	10.84
342.449	11.12
342.82	10.69
343.191	10.53
343.562	10.81
343.933	10.93
344.303	11.04
344.674	10.88
345.045	10.88
345.416	11.44
345.786	10.71
346.157	11.45
346.527	11.17
346.898	11.07
347.268	10.94
347.639	11.29
348.009	11.34
348.38	11.55
348.75	11.75
349.12	11.09
349.49	11.37
349.861	11.39
350.231	11.7
350.601	11.37
350.971	12.11
351.341	11.51
351.711	11.71
352.081	11.7
352.45	11.7
352.82	12.05
353.19	12.19
353.56	11.72
353.929	12.29
354.299	12.02
354.669	11.71
355.038	11.74
355.408	12
355.777	12.37
356.147	12.11
356.516	12.58
356.885	11.9
357.254	12.53
357.624	12.07
357.993	12.18
358.362	12.16
358.731	12.23
359.1	12.23
359.469	12.53
359.838	12.07
360.207	11.9
360.576	12.53
360.945	12.43
361.314	12.84
361.682	12.82
362.051	12.63
362.42	12.31
362.788	12.55
363.157	12.36
363.525	12.51
363.894	12.52
364.262	12.77
364.631	12.49
364.999	12.57
365.367	12.9
365.735	12.66
366.104	12.78
366.472	13.29
366.84	13.15
367.208	13.55
367.576	13.09
367.944	13.12
368.312	13.18
368.68	13.07
369.048	13.7
369.416	13.3
369.783	13.16
370.151	13.07
370.519	13.54
370.886	13.56
371.254	13.7
371.621	13.65
371.989	13.77
372.356	13.05
372.724	13.59
373.091	13.69
373.458	13.48
373.826	13.83
374.193	13.84
374.56	13.63
374.927	13.84
375.294	13.77
375.661	13.97
376.028	14.18
376.395	13.56
376.762	13.79
377.129	14.03
377.496	14.34
377.863	14.34
378.229	14.47
378.596	14.44
378.963	14.26
379.329	14.47
379.696	14.4
380.062	14.24
380.429	14.4
380.795	14.25
381.161	14.03
381.528	14.22
381.894	14.05
382.26	14.34
382.626	14.63
382.993	14.99
383.359	14.49
383.725	14.38
384.091	14.65
384.457	14.48
384.823	14.71
385.188	14.73
385.554	15.02
385.92	14.98
386.286	14.89
386.651	14.92
387.017	15.22
387.383	15.01
387.748	14.8
388.114	15.04
388.479	15.19
388.845	14.79
389.21	14.8
389.575	15.29
389.94	14.93
390.306	15.43
390.671	15.76
391.036	14.73
391.401	15.43
391.766	15.06
392.131	15.15
392.496	15.33
392.861	15.47
393.226	15.59
393.591	15.32
393.956	15.54
394.32	15.46
394.685	15.39
395.05	15.78
395.414	15.84
395.779	15.63
396.143	15.69
396.508	15.67
396.872	15.48
397.236	15.9
397.601	15.58
397.965	15.87
398.329	15.96
398.694	15.93
399.058	15.91
399.422	15.92
399.786	15.97
400.15	16.12
400.514	16.15
400.878	16.09
401.242	16.25
401.605	16.1
401.969	15.86
402.333	16.46
402.697	16.06
403.06	16.26
403.424	16.38
403.787	16.42
404.151	16.45
404.514	16.42
404.878	16.38
405.241	16.63
405.604	16.72
405.968	16.51
406.331	16.48
406.694	16.44
407.057	16.53
407.42	16.51
407.783	16.64
408.146	16.65
408.509	16.66
408.872	16.61
409.235	16.65
409.598	16.8
409.961	17.16
410.323	16.97
410.686	16.96
411.049	17.08
411.411	16.98
411.774	17.12
412.136	17.08
412.499	17.23
412.861	17
413.223	17.33
413.586	16.99
413.948	17.26
414.31	17.23
414.672	17.37
415.035	16.99
415.397	17.6
415.759	17.58
416.121	17.18
416.483	17.27
416.845	17.49
417.206	17.25
417.568	17.32
417.93	17.47
418.292	17.35
418.653	17.38
419.015	17.26
419.377	17.34
419.738	17.51
420.1	17.48
420.461	17.58
420.822	17.28
421.184	17.43
421.545	17.51
421.906	17.52
422.267	17.36
422.629	17.48
422.99	17.37
423.351	17.45
423.712	17.35
424.073	17.48
424.434	17.55
424.795	17.63
425.155	17.74
425.516	17.7
425.877	17.68
426.238	17.64
426.598	17.62
426.959	17.56
427.32	17.67
427.68	17.72
428.041	17.75
428.401	17.86
428.761	18.07
429.122	18.18
429.482	18.25
429.842	18.04
430.202	18.22
430.563	18.37
430.923	18.5
431.283	18.45
431.643	18.52
432.003	18.47
432.363	18.48
432.722	18.61
433.082	18.54
433.442	18.62
433.802	18.67
434.161	18.68
434.521	18.65
434.881	18.67
435.24	18.61
435.6	18.56
435.959	18.52
436.319	18.62
436.678	18.84
437.037	18.79
437.396	18.77
437.756	18.8
438.115	19.02
438.474	19.05
438.833	18.91
439.192	19.01
439.551	18.84
439.91	19.06
440.269	19.15
440.628	18.89
440.987	19.12
441.345	19.16
441.704	19.11
442.063	19.12
442.421	18.98
442.78	19.14
443.138	19.16
443.497	19.17
443.855	19.15
444.214	19.14
444.572	19.4
444.93	19.43
445.288	19.39
445.647	19.37
446.005	19.49
446.363	19.32
446.721	19.54
447.079	19.43
447.437	19.58
447.795	19.4
448.153	19.4
448.51	19.45
448.868	19.41
449.226	19.26
449.584	19.34
449.941	19.47
450.299	19.58
450.656	19.75
451.014	19.88
451.371	19.91
451.729	20
452.086	19.93
452.443	20.13
452.801	20.07
453.158	20.01
453.515	20.3
453.872	20.16
454.229	20.26
454.586	20.37
454.943	20.11
455.3	20.12
455.657	20.34
456.014	20.39
456.371	20.25
456.727	20.61
457.084	20.43
457.441	20.38
457.797	20.39
458.154	20.65
458.51	20.49
458.867	20.62
459.223	20.76
459.58	20.81
459.936	20.95
460.292	20.76
460.648	20.82
461.005	20.59
461.361	20.72
461.717	20.34
462.073	20.28
462.429	20.29
462.785	20.46
463.141	20.54
463.496	20.94
463.852	20.82
464.208	20.79
464.564	20.95
464.919	20.95
465.275	21.15
465.631	21.13
465.986	21.07
466.342	21.13
466.697	21.23
467.052	21.18
467.408	21.34
467.763	21.34
468.118	21.46
468.473	21.29
468.829	21.33
469.184	21.29
469.539	21.5
469.894	21.36
470.249	21.54
470.603	21.54
470.958	21.53
471.313	21.61
471.668	21.45
472.023	21.71
472.377	21.71
472.732	21.53
473.086	21.92
473.441	21.65
473.795	22.01
474.15	21.66
474.504	21.77
474.859	22.04
475.213	21.58
475.567	21.56
475.921	21.98
476.275	22.06
476.63	21.94
476.984	21.94
477.338	22.06
477.692	22.17
478.045	22.21
478.399	22.23
478.753	22.03
479.107	22.11
479.461	22.18
479.814	22.23
480.168	22.25
480.521	22.24
480.875	22.32
481.228	22.17
481.582	22.16
481.935	22.47
482.289	22.2
482.642	22.38
482.995	22.56
483.348	22.3
483.701	22.35
484.055	22.24
484.408	22.2
484.761	22.17
485.114	22.02
485.466	21.82
485.819	21.57
486.172	21.5
486.525	21.54
486.878	21.57
487.23	21.78
487.583	21.86
487.936	22.06
488.288	22.17
488.641	22.24
488.993	22.02
489.345	22.01
489.698	22.01
490.05	21.97
490.402	21.98
490.754	22.07
491.107	22.09
491.459	22.36
491.811	22.53
492.163	22.66
492.515	22.7
492.866	22.79
493.218	22.67
493.57	22.66
493.922	22.27
494.274	22.37
494.625	22.49
494.977	22.65
495.328	22.94
495.68	23.02
496.031	23.23
496.383	23.41
496.734	23.41
497.086	23.57
497.437	23.61
497.788	23.56
498.139	23.57
498.49	23.73
498.842	23.5
499.193	23.36
499.544	23.51
499.894	23.6
500.245	23.66
500.596	23.63
500.947	23.88
501.298	23.77
501.648	24
501.999	23.91
502.35	24.11
502.7	24.19
503.051	24.15
503.401	24.06
503.752	24.21
504.102	24.19
504.452	24.08
504.803	24.39
505.153	24.11
505.503	24.16
505.853	24.34
506.203	24.27
506.553	24.32
506.903	24.36
507.253	24.35
507.603	24.49
507.953	24.67
508.303	24.55
508.652	24.53
509.002	24.54
509.352	24.51
509.701	24.5
510.051	24.6
510.4	24.51
510.75	24.56
511.099	24.42
511.449	24.55
511.798	24.58
512.147	24.56
512.496	24.66
512.846	24.56
513.195	24.74
513.544	24.62
513.893	24.95
514.242	24.84
514.591	24.87
514.939	24.96
515.288	24.85
515.637	24.85
515.986	24.82
516.334	25.02
516.683	25.13
517.032	25.1
517.38	25.18
517.729	25.15
518.077	25.49
518.426	25.08
518.774	25.27
519.122	25.24
519.47	25.06
519.819	25.1
520.167	25.25
520.515	25.03
520.863	25.15
521.211	25.08
521.559	25.11
521.907	25.19
522.255	25.18
522.602	25.41
522.95	25.52
523.298	25.6
523.645	25.61
523.993	25.49
524.341	25.7
524.688	25.77
525.036	25.7
525.383	25.74
525.73	25.88
526.078	25.76
526.425	25.73
526.772	25.91
527.119	25.71
527.466	25.67
527.814	25.49
528.161	25.38
528.508	25.58
528.854	25.74
529.201	25.69
529.548	25.72
529.895	25.61
530.242	25.39
530.588	25.23
530.935	25.11
531.282	25.25
531.628	25.37
531.975	25.43
532.321	25.4
532.667	25.6
533.014	25.72
533.36	25.97
533.706	26.11
534.052	26.21
534.399	26.03
534.745	26.16
535.091	26.03
535.437	25.79
535.783	25.6
536.129	25.85
536.474	26.05
536.82	25.97
537.166	26.39
537.512	26.35
537.857	26.51
538.203	26.57
538.549	26.48
538.894	26.38
539.239	26.33
539.585	26.27
539.93	26.68
540.276	26.82
540.621	26.85
540.966	26.99
541.311	26.96
541.656	27.01
542.001	27.05
542.346	26.94
542.691	26.94
543.036	26.89
543.381	26.5
543.726	26.34
544.071	26.42
544.415	26.51
544.76	26.5
545.105	26.64
545.449	26.59
545.794	26.93
546.138	27.09
546.483	27.11
546.827	27.16
547.171	27.19
547.516	27.35
547.86	27.4
548.204	27.45
548.548	27.46
548.892	27.39
549.236	27.37
549.58	27.49
549.924	27.54
550.268	27.75
550.612	27.64
550.956	27.88
551.3	28.01
551.643	27.94
551.987	28.13
552.33	27.91
552.674	28.25
553.017	28.04
553.361	28.09
553.704	28.13
554.048	28.29
554.391	28.14
554.734	28.25
555.077	28.26
555.42	28.04
555.764	28.32
556.107	28.23
556.45	28.53
556.793	28.43
557.135	28.38
557.478	28.16
557.821	28.68
558.164	28.6
558.507	28.87
558.849	28.62
559.192	28.8
559.534	28.68
559.877	28.76
560.219	28.77
560.562	28.92
560.904	28.9
561.246	29.22
561.589	28.93
561.931	29.08
562.273	28.93
562.615	28.87
562.957	29.22
563.299	29.23
563.641	29.41
563.983	29.11
564.325	28.89
564.667	29.29
565.008	28.91
565.35	29.39
565.692	29.55
566.033	29.33
566.375	29.41
566.716	29.28
567.058	29.18
567.399	29.36
567.741	29.18
568.082	29.4
568.423	29.21
568.764	29.3
569.105	29.13
569.447	29.29
569.788	29.12
570.129	29.55
570.47	29.71
570.811	29.78
571.151	29.56
571.492	29.51
571.833	29.38
572.174	29.64
572.514	29.72
572.855	29.4
573.195	29.75
573.536	29.62
573.876	29.58
574.217	29.52
574.557	29.6
574.898	29.87
575.238	29.71
575.578	29.79
575.918	29.96
576.258	29.76
576.598	29.88
576.938	30.16
577.278	30.01
577.618	29.94
577.958	30.03
578.298	29.97
578.638	29.9
578.977	30.06
579.317	30.21
579.657	30.26
579.996	30.1
580.336	30.56
580.675	30.28
581.014	30.3
581.354	30.77
581.693	30.72
582.032	30.7
582.372	30.51
582.711	30.73
583.05	30.73
583.389	30.87
583.728	30.79
584.067	30.91
584.406	30.86
584.745	30.39
585.083	30.86
585.422	30.88
585.761	30.78
586.1	31.03
586.438	30.98
586.777	30.96
587.115	30.97
587.454	30.82
587.792	31.15
588.13	31.15
588.469	30.94
588.807	31.24
589.145	31.1
589.483	31.05
589.821	31.22
590.159	31.22
590.497	31.31
590.835	31.37
591.173	30.99
591.511	31.43
591.849	31.26
592.187	31.26
592.524	31.28
592.862	31.38
593.2	31.27
593.537	31.29
593.875	31.41
594.212	31.82
594.55	31.57
594.887	31.43
595.224	31.65
595.561	31.72
595.899	31.82
596.236	31.93
596.573	31.71
596.91	31.78
597.247	31.89
597.584	31.8
597.921	31.99
598.258	32.03
598.594	31.46
598.931	31.8
599.268	31.65
599.604	31.73
599.941	31.83
600.277	31.94
600.614	31.71
600.95	31.82
601.287	31.88
601.623	31.9
601.959	32.29
602.296	32.15
602.632	32.02
602.968	32.48
603.304	32.14
603.64	32.04
603.976	32.03
604.312	32.51
604.648	32.26
604.984	32.57
605.319	31.96
605.655	32.36
605.991	32.46
606.326	32.2
606.662	32.29
606.998	31.75
607.333	32.25
607.668	32.06
608.004	32.13
608.339	32.24
608.674	32.43
609.01	32.58
609.345	32.15
609.68	32.98
610.015	32.83
610.35	32.39
610.685	32.58
611.02	32.63
611.355	32.67
611.689	32.66
612.024	32.49
612.359	32.31
612.694	32.48
613.028	32.41
613.363	32.34
613.697	32.97
614.032	32.73
614.366	32.93
614.7	32.75
615.035	32.94
615.369	32.85
615.703	32.78
616.037	33.25
616.371	33.53
616.705	33.44
617.039	33.19
617.373	33.11
617.707	33.49
618.041	33.27
618.375	33.34
618.709	33.46
619.042	33
619.376	33.57
619.71	33.33
620.043	33.31
620.377	33.39
620.71	33.19
621.043	33.58
621.377	33.04
621.71	33.68
622.043	33.4
622.376	33.64
622.709	33.49
623.043	34.09
623.376	33.92
623.709	34.03
624.041	33.5
624.374	33.75
624.707	33.84
625.04	33.79
625.373	33.68
625.705	34.14
626.038	33.81
626.37	34.11
626.703	33.95
627.035	33.93
627.368	33.79
627.7	33.95
628.032	34.11
628.365	34.34
628.697	33.76
629.029	34.25
629.361	33.65
629.693	33.93
630.025	34.08
630.357	34.12
630.689	33.81
631.021	34.26
631.353	33.87
631.684	34.31
632.016	34.43
632.348	34.26
632.679	34.18
633.011	34.42
633.342	34.36
633.674	34.6
634.005	34.37
634.336	34.57
634.668	34.32
634.999	34.67
635.33	34.9
635.661	34.3
635.992	34.37
636.323	34.34
636.654	34.33
636.985	33.94
637.316	34.53
637.647	34.4
637.977	34.32
638.308	34.72
638.639	34.69
638.969	34.84
639.3	34.69
639.63	35.11
639.961	34.62
640.291	34.51
640.622	35.18
640.952	34.69
641.282	35.06
641.612	34.68
641.943	34.64
642.273	34.85
642.603	34.97
642.933	34.86
643.263	34.75
643.592	34.96
643.922	35.57
644.252	35.31
644.582	35.34
644.911	35.3
645.241	34.8
645.571	34.55
645.9	35.58
646.23	36.33
646.559	35.63
646.888	35.36
647.218	34.79
647.547	35.03
647.876	35.45
648.205	35.31
648.534	35.53
648.863	35.72
649.192	35.05
649.521	35.23
649.85	35.74
650.179	35.78
650.508	35.27
650.837	35.47
651.165	35.78
651.494	35.78
651.822	35.45
652.151	35.61
652.479	35.89
652.808	35.53
653.136	35.7
653.465	36.02
653.793	35.57
654.121	35.28
654.449	35.39
654.777	36.16
655.105	36.05
655.433	35.58
655.761	36.24
656.089	35.67
656.417	35.57
656.745	35.73
657.073	36.36
657.4	36.6
657.728	36.36
658.056	36.09
658.383	36.25
658.711	35.78
659.038	36.09
659.365	36.2
659.693	36.15
660.02	36.1
660.347	36.52
660.674	36.5
661.001	36.29
661.329	36.28
661.656	36.08
661.982	36.04
662.309	36.31
662.636	36.47
662.963	36.07
663.29	36.15
663.616	36.26
663.943	36.81
664.27	36.41
664.596	36.38
664.923	36.48
665.249	36.51
665.576	36.04
665.902	35.95
666.228	37.03
666.554	35.76
666.881	36.87
667.207	35.9
667.533	36.79
667.859	36.64
668.185	36.41
668.511	37.12
668.837	36.95
669.162	37.41
669.488	36.6
669.814	36.74
