Data from 0189_crown_Reflection__0__116.txt Node

Date: Fri Sep 22 21:14:07 CDT 2023
User: ToomeyLab
Spectrometer: FLMS14357
Trigger mode: 0
Integration Time (sec): 1.000000E-2
Scans to average: 100
Electric dark correction enabled: true
Nonlinearity correction enabled: false
Boxcar width: 0
XAxis mode: Wavelengths
Number of Pixels in Spectrum: 2048
>>>>>Begin Spectral Data<<<<<
189.047	145.37
189.435	145.37
189.823	145.37
190.211	126.64
190.599	-128.42
190.987	-86.41
191.375	207.86
191.763	35.99
192.151	148.42
192.538	372.12
192.926	111.11
193.314	-23.85
193.702	-713.23
194.089	63.89
194.477	-706.13
194.864	-708.66
195.252	48.32
195.639	-16.9
196.027	483.09
196.414	736
196.801	219.25
197.189	110.89
197.576	70.97
197.963	-74.97
198.351	21.35
198.738	43.73
199.125	3.82
199.512	19.62
199.899	37.99
200.286	-17.38
200.673	14.88
201.06	43.55
201.447	32.14
201.833	-43.78
202.22	15.56
202.607	48.17
202.994	21.24
203.38	29.93
203.767	23.98
204.154	11.22
204.54	18.71
204.927	15.76
205.313	25.95
205.699	38.8
206.086	39.09
206.472	40.08
206.858	43.71
207.245	12.83
207.631	46.91
208.017	30.42
208.403	26.92
208.789	17.75
209.175	20.53
209.561	45.77
209.947	36.15
210.333	41.61
210.719	4.73
211.105	38.06
211.491	17
211.876	25.02
212.262	17.12
212.648	20.4
213.034	13.52
213.419	29.78
213.805	17.41
214.19	-8.52
214.576	11.91
214.961	11.25
215.346	16.46
215.732	32.09
216.117	16.47
216.502	28.99
216.888	22.36
217.273	32.13
217.658	5.01
218.043	11.52
218.428	34.85
218.813	2.14
219.198	11.89
219.583	16.65
219.968	-15.98
220.353	23.78
220.738	1.37
221.122	7.14
221.507	9.72
221.892	1.23
222.276	-4.99
222.661	-13.21
223.046	15.94
223.43	20.05
223.815	6.74
224.199	10.9
224.583	5.92
224.968	8.94
225.352	0.94
225.736	15.98
226.121	9.59
226.505	13.28
226.889	8.69
227.273	8.26
227.657	4.8
228.041	7.76
228.425	13.84
228.809	3.2
229.193	6.13
229.577	8.23
229.961	7.34
230.344	5.87
230.728	4.93
231.112	5.69
231.495	5.12
231.879	5.18
232.263	4.28
232.646	4.93
233.03	5.34
233.413	6.29
233.797	5.45
234.18	6.65
234.563	6.69
234.946	8.12
235.33	4.32
235.713	3.68
236.096	4.9
236.479	4.28
236.862	7.25
237.245	6.22
237.628	7.17
238.011	5.99
238.394	5.54
238.777	6.39
239.16	5.27
239.543	8.6
239.925	6.24
240.308	6.41
240.691	6.2
241.073	6.62
241.456	5.37
241.838	4.98
242.221	5.17
242.603	6.01
242.986	4.74
243.368	4.59
243.75	5.03
244.133	5.71
244.515	4.65
244.897	4.9
245.279	4.52
245.661	5.03
246.043	4.43
246.425	4.86
246.807	5.54
247.189	3.66
247.571	5.7
247.953	4.84
248.335	4.38
248.717	4.74
249.098	4.6
249.48	4.59
249.862	4.3
250.243	4.66
250.625	4.99
251.006	4.69
251.388	4.82
251.769	5.29
252.151	4.98
252.532	4.79
252.913	4.43
253.295	5.88
253.676	4.94
254.057	4.71
254.438	4.77
254.819	4.24
255.2	4.72
255.581	4.64
255.962	4.88
256.343	4.56
256.724	4.01
257.105	4.37
257.486	5.93
257.867	5.46
258.247	4.57
258.628	5.08
259.009	3.83
259.389	3.69
259.77	5.7
260.15	5.18
260.531	4.76
260.911	4.3
261.292	4.35
261.672	3.87
262.052	4.18
262.432	4.27
262.813	4.55
263.193	3.87
263.573	4.86
263.953	4.31
264.333	4.37
264.713	4.21
265.093	4.91
265.473	4.38
265.853	3.74
266.233	4.38
266.612	4.26
266.992	4.26
267.372	4.71
267.752	4.87
268.131	3.52
268.511	3.21
268.89	4.39
269.27	4.19
269.649	3.95
270.029	4.38
270.408	4.33
270.787	3.7
271.167	4.41
271.546	3.86
271.925	4.05
272.304	3.66
272.683	4.1
273.062	4.88
273.441	3.81
273.82	4.76
274.199	4.47
274.578	4.14
274.957	4.33
275.336	4.33
275.715	4.09
276.093	3.99
276.472	4.35
276.851	4.25
277.229	3.38
277.608	4.78
277.986	3.53
278.365	3.85
278.743	4.31
279.122	4.35
279.5	4.68
279.878	4.4
280.257	4.55
280.635	3.97
281.013	4.95
281.391	3.9
281.769	4.62
282.147	3.76
282.525	3.77
282.903	4.34
283.281	4.15
283.659	4.32
284.037	4.06
284.415	3.66
284.792	3.82
285.17	3.92
285.548	4.19
285.925	4.26
286.303	3.92
286.68	3.24
287.058	3.65
287.435	3.85
287.813	3.65
288.19	3.71
288.567	3.79
288.945	3.74
289.322	4.17
289.699	3.57
290.076	3.57
290.453	3.77
290.83	3.16
291.207	3.41
291.584	3.41
291.961	3.35
292.338	3.67
292.715	4.03
293.092	3.84
293.469	4.2
293.845	3.2
294.222	3.64
294.599	4.03
294.975	3.79
295.352	3.56
295.728	4.02
296.105	4.29
296.481	3.64
296.858	3.78
297.234	3.62
297.61	3.84
297.986	3.88
298.363	3.68
298.739	3.43
299.115	3.69
299.491	4.01
299.867	3.61
300.243	3.43
300.619	3.53
300.995	3.62
301.371	4.09
301.746	4
302.122	3.27
302.498	3.64
302.874	3.6
303.249	4.03
303.625	2.81
304	3.92
304.376	3.95
304.751	3.85
305.127	3.66
305.502	4.22
305.878	3.41
306.253	3.69
306.628	3.86
307.003	3.84
307.378	3.33
307.754	3.56
308.129	3.44
308.504	3.82
308.879	3.25
309.254	4.52
309.629	3.93
310.003	4.05
310.378	4.16
310.753	4.24
311.128	3.39
311.502	3.78
311.877	3.39
312.252	3.46
312.626	3.47
313.001	3.9
313.375	3.53
313.75	3.75
314.124	4.12
314.498	3.86
314.873	3.69
315.247	4.02
315.621	3.64
315.995	3.36
316.369	3.8
316.743	3.74
317.117	4.12
317.491	4.06
317.865	3.15
318.239	3.81
318.613	4.2
318.987	3.23
319.361	3.59
319.734	3.71
320.108	4.35
320.482	3.48
320.855	3.49
321.229	3.92
321.602	3.59
321.976	3.75
322.349	3.73
322.723	3.96
323.096	3.54
323.469	3.45
323.843	3.42
324.216	4.52
324.589	3.56
324.962	3.32
325.335	3.8
325.708	3.81
326.081	3.99
326.454	3.24
326.827	3.87
327.2	3.43
327.573	3.85
327.945	3.84
328.318	3.7
328.691	4.02
329.063	3.34
329.436	3.57
329.809	3.86
330.181	3.69
330.553	3.47
330.926	3.44
331.298	3.59
331.671	3.58
332.043	3.46
332.415	3.52
332.787	4.14
333.159	3.59
333.532	3.25
333.904	3.55
334.276	3.57
334.648	3.05
335.02	3.31
335.391	3.85
335.763	3.47
336.135	3.86
336.507	3.84
336.879	3.58
337.25	3.34
337.622	4.19
337.993	3.95
338.365	4.44
338.736	3.31
339.108	3.64
339.479	3.53
339.851	3.38
340.222	3.45
340.593	3.41
340.964	3.02
341.336	3.63
341.707	3.77
342.078	3.37
342.449	3.77
342.82	3.63
343.191	3.65
343.562	3.6
343.933	3.76
344.303	3.69
344.674	3.75
345.045	3.54
345.416	3.98
345.786	3.1
346.157	3.47
346.527	3.37
346.898	3.31
347.268	3.65
347.639	3.67
348.009	3.3
348.38	3.4
348.75	3.99
349.12	3.55
349.49	3.83
349.861	3.37
350.231	3.92
350.601	3.8
350.971	3.73
351.341	3.41
351.711	3.74
352.081	2.86
352.45	3.49
352.82	3.39
353.19	3.71
353.56	3.54
353.929	3.39
354.299	3.73
354.669	3.67
355.038	3.54
355.408	3.85
355.777	3.81
356.147	3.63
356.516	3.55
356.885	3.56
357.254	3.78
357.624	3.47
357.993	3.66
358.362	3.72
358.731	3.31
359.1	3.71
359.469	3.85
359.838	3.23
360.207	3.5
360.576	3.45
360.945	3.43
361.314	3.84
361.682	3.61
362.051	3.66
362.42	3.53
362.788	3.22
363.157	3.65
363.525	3.58
363.894	3.55
364.262	3.49
364.631	3.66
364.999	3.28
365.367	4.07
365.735	3.75
366.104	3.6
366.472	3.66
366.84	3.77
367.208	3.68
367.576	3.84
367.944	3.53
368.312	3.76
368.68	3.86
369.048	3.96
369.416	3.67
369.783	3.43
370.151	3.21
370.519	3.65
370.886	3.33
371.254	3.64
371.621	3.57
371.989	3.82
372.356	3.44
372.724	4.03
373.091	3.98
373.458	3.77
373.826	3.47
374.193	4.31
374.56	3.73
374.927	3.94
375.294	3.87
375.661	3.45
376.028	3.64
376.395	3.72
376.762	3.77
377.129	4.02
377.496	4.32
377.863	3.94
378.229	4.12
378.596	3.88
378.963	4.06
379.329	3.9
379.696	4.27
380.062	3.56
380.429	3.63
380.795	3.88
381.161	3.8
381.528	3.95
381.894	3.57
382.26	3.87
382.626	3.97
382.993	4.19
383.359	3.69
383.725	3.69
384.091	3.95
384.457	3.62
384.823	4
385.188	4.2
385.554	3.95
385.92	4.09
386.286	3.87
386.651	3.98
387.017	3.77
387.383	3.66
387.748	3.68
388.114	3.92
388.479	4.21
388.845	3.98
389.21	3.29
389.575	4.18
389.94	3.74
390.306	3.85
390.671	4.35
391.036	3.46
391.401	3.8
391.766	3.62
392.131	3.91
392.496	4.12
392.861	3.65
393.226	4.15
393.591	3.95
393.956	3.93
394.32	4
394.685	3.88
395.05	4.09
395.414	3.98
395.779	4.01
396.143	3.89
396.508	3.87
396.872	3.74
397.236	3.95
397.601	3.79
397.965	4.1
398.329	4.04
398.694	3.83
399.058	3.77
399.422	3.75
399.786	3.86
400.15	4.04
400.514	4.04
400.878	3.95
401.242	4.09
401.605	3.77
401.969	3.75
402.333	4.08
402.697	3.76
403.06	3.98
403.424	4.09
403.787	4.14
404.151	3.95
404.514	4.01
404.878	4.06
405.241	4.24
405.604	4.08
405.968	4.11
406.331	3.89
406.694	4.01
407.057	3.7
407.42	4.03
407.783	4.05
408.146	4.05
408.509	3.88
408.872	3.71
409.235	3.88
409.598	3.83
409.961	4.28
410.323	3.91
410.686	3.99
411.049	4.19
411.411	4.11
411.774	3.94
412.136	4
412.499	4.09
412.861	3.85
413.223	4.09
413.586	3.95
413.948	4.09
414.31	3.9
414.672	3.93
415.035	3.85
415.397	4.22
415.759	4.32
416.121	3.99
416.483	3.81
416.845	4
417.206	3.96
417.568	4.06
417.93	4.05
418.292	4.14
418.653	3.93
419.015	4.19
419.377	3.77
419.738	4.07
420.1	3.81
420.461	4.03
420.822	3.93
421.184	3.98
421.545	3.87
421.906	3.95
422.267	3.85
422.629	3.98
422.99	3.83
423.351	3.84
423.712	3.81
424.073	3.74
424.434	3.94
424.795	3.86
425.155	3.98
425.516	3.87
425.877	3.94
426.238	3.66
426.598	3.85
426.959	3.89
427.32	3.99
427.68	3.93
428.041	3.81
428.401	3.98
428.761	4.02
429.122	4
429.482	3.87
429.842	3.96
430.202	3.79
430.563	4.03
430.923	4.06
431.283	3.96
431.643	3.97
432.003	4.02
432.363	4.12
432.722	4.07
433.082	4.12
433.442	4.09
433.802	4.16
434.161	4.03
434.521	3.81
434.881	3.92
435.24	3.91
435.6	3.8
435.959	3.96
436.319	3.89
436.678	3.93
437.037	3.95
437.396	3.94
437.756	3.99
438.115	3.99
438.474	3.9
438.833	4.06
439.192	4.06
439.551	3.96
439.91	4.02
440.269	4.03
440.628	3.88
440.987	3.94
441.345	4.07
441.704	4.04
442.063	3.97
442.421	4.04
442.78	3.97
443.138	3.91
443.497	3.95
443.855	3.85
444.214	3.73
444.572	4
444.93	4.02
445.288	3.97
445.647	4.03
446.005	3.96
446.363	3.8
446.721	3.99
447.079	3.9
447.437	3.97
447.795	4.03
448.153	3.83
448.51	3.95
448.868	3.79
449.226	3.85
449.584	3.93
449.941	3.84
450.299	3.97
450.656	3.89
451.014	3.96
451.371	3.92
451.729	4.08
452.086	3.9
452.443	3.9
452.801	3.97
453.158	4
453.515	4.12
453.872	3.93
454.229	4.06
454.586	4.09
454.943	4.1
455.3	4.02
455.657	3.9
456.014	3.93
456.371	4.17
456.727	4.2
457.084	4.09
457.441	4.03
457.797	4.02
458.154	4.16
458.51	3.93
458.867	3.97
459.223	4
459.58	4.07
459.936	4.04
460.292	4.11
460.648	4.12
461.005	4.04
461.361	4.07
461.717	3.87
462.073	3.83
462.429	3.72
462.785	3.83
463.141	4.01
463.496	4.09
463.852	4.13
464.208	4.01
464.564	4.11
464.919	4.03
465.275	4.3
465.631	4.17
465.986	3.94
466.342	4.21
466.697	4.08
467.052	3.96
467.408	4.21
467.763	4.15
468.118	3.98
468.473	4.17
468.829	3.94
469.184	3.93
469.539	4.13
469.894	4.16
470.249	4.08
470.603	3.9
470.958	4.08
471.313	4.12
471.668	4.05
472.023	4.11
472.377	3.93
472.732	3.93
473.086	4.16
473.441	3.82
473.795	4.36
474.15	4.09
474.504	3.87
474.859	4.07
475.213	3.85
475.567	3.87
475.921	4.15
476.275	4.02
476.63	3.92
476.984	3.94
477.338	4.12
477.692	4.21
478.045	4.24
478.399	4.19
478.753	4.07
479.107	4.05
479.461	4.01
479.814	4.01
480.168	3.99
480.521	4.25
480.875	4.14
481.228	4.12
481.582	3.88
481.935	4.01
482.289	3.93
482.642	3.84
482.995	4.06
483.348	3.97
483.701	3.98
484.055	3.89
484.408	3.77
484.761	3.95
485.114	3.77
485.466	3.79
485.819	3.69
486.172	3.67
486.525	3.67
486.878	3.7
487.23	3.75
487.583	3.85
487.936	3.84
488.288	3.86
488.641	3.84
488.993	3.79
489.345	3.74
489.698	3.69
490.05	3.78
490.402	3.75
490.754	3.75
491.107	3.74
491.459	3.8
491.811	3.84
492.163	3.94
492.515	3.85
492.866	3.93
493.218	3.96
493.57	3.86
493.922	3.76
494.274	3.75
494.625	3.81
494.977	3.88
495.328	3.99
495.68	3.97
496.031	3.94
496.383	4.1
496.734	3.98
497.086	4.05
497.437	4.11
497.788	3.94
498.139	3.98
498.49	3.99
498.842	3.88
499.193	3.81
499.544	4.01
499.894	3.94
500.245	3.93
500.596	3.97
500.947	4.02
501.298	3.99
501.648	4.04
501.999	4.03
502.35	4.02
502.7	4.07
503.051	4.07
503.401	4.1
503.752	4.07
504.102	4.02
504.452	3.95
504.803	3.99
505.153	4.03
505.503	3.97
505.853	4
506.203	3.95
506.553	3.99
506.903	3.99
507.253	3.96
507.603	4.15
507.953	4.03
508.303	4.04
508.652	3.93
509.002	4.14
509.352	3.93
509.701	4
510.051	4.01
510.4	4.01
510.75	3.88
511.099	3.87
511.449	4.01
511.798	3.93
512.147	3.95
512.496	3.93
512.846	3.94
513.195	3.94
513.544	3.97
513.893	4.01
514.242	3.86
514.591	3.94
514.939	4.06
515.288	3.86
515.637	3.98
515.986	3.91
516.334	3.98
516.683	4.01
517.032	4.04
517.38	4.1
517.729	3.97
518.077	4.05
518.426	4.06
518.774	4.03
519.122	4.06
519.47	3.92
519.819	3.91
520.167	3.96
520.515	3.93
520.863	3.85
521.211	3.92
521.559	4.03
521.907	3.99
522.255	4
522.602	3.96
522.95	3.94
523.298	4.09
523.645	4.03
523.993	3.95
524.341	4.02
524.688	4.1
525.036	4.07
525.383	4.03
525.73	4
526.078	4.02
526.425	3.99
526.772	4.01
527.119	3.96
527.466	3.87
527.814	3.91
528.161	3.84
528.508	3.9
528.854	3.93
529.201	3.9
529.548	3.95
529.895	3.92
530.242	3.82
530.588	3.7
530.935	3.66
531.282	3.69
531.628	3.76
531.975	3.78
532.321	3.83
532.667	3.89
533.014	3.91
533.36	3.92
533.706	3.96
534.052	3.99
534.399	4.03
534.745	3.94
535.091	3.87
535.437	3.9
535.783	3.71
536.129	3.82
536.474	3.91
536.82	3.82
537.166	4.04
537.512	4.03
537.857	4.02
538.203	3.98
538.549	3.92
538.894	3.86
539.239	3.92
539.585	3.84
539.93	4.01
540.276	3.9
540.621	4.02
540.966	3.89
541.311	4.02
541.656	3.95
542.001	3.94
542.346	4.03
542.691	4.02
543.036	3.92
543.381	3.83
543.726	3.74
544.071	3.81
544.415	3.82
544.76	3.86
545.105	3.83
545.449	3.82
545.794	3.95
546.138	3.9
546.483	3.95
546.827	3.88
547.171	4.01
547.516	4.04
547.86	3.94
548.204	4.02
548.548	3.98
548.892	4.02
549.236	3.98
549.58	4.02
549.924	4.05
550.268	4.08
550.612	3.97
550.956	4.03
551.3	4.11
551.643	4.18
551.987	4.05
552.33	4.14
552.674	3.97
553.017	3.99
553.361	4
553.704	4.08
554.048	4.23
554.391	4.23
554.734	4.26
555.077	4.13
555.42	4.05
555.764	4.03
556.107	4.09
556.45	4.15
556.793	4.1
557.135	4.14
557.478	4
557.821	4.22
558.164	4.2
558.507	4.35
558.849	4.02
559.192	4.22
559.534	4.26
559.877	4.04
560.219	4.18
560.562	4.21
560.904	4.26
561.246	4.4
561.589	4.34
561.931	3.99
562.273	3.95
562.615	3.97
562.957	3.96
563.299	4.22
563.641	4.14
563.983	4.21
564.325	4.12
564.667	4.17
565.008	4.08
565.35	4.1
565.692	4.09
566.033	4.22
566.375	4.06
566.716	4.16
567.058	4.17
567.399	4.21
567.741	4.27
568.082	4.13
568.423	4.19
568.764	4.34
569.105	3.85
569.447	4.11
569.788	3.96
570.129	4.11
570.47	4.23
570.811	4.17
571.151	4.19
571.492	4
571.833	4.09
572.174	4.11
572.514	3.98
572.855	3.98
573.195	3.88
573.536	4.07
573.876	3.99
574.217	3.99
574.557	4
574.898	4.14
575.238	4.01
575.578	4.15
575.918	4.21
576.258	3.96
576.598	4.1
576.938	4.1
577.278	4.21
577.618	4.1
577.958	4.12
578.298	4.24
578.638	4.07
578.977	4.18
579.317	4.16
579.657	4.17
579.996	4.1
580.336	4.15
580.675	4.43
581.014	4.06
581.354	3.98
581.693	4.21
582.032	4.12
582.372	4.17
582.711	4.2
583.05	4.45
583.389	4.29
583.728	4.17
584.067	4.15
584.406	4.2
584.745	4.09
585.083	4.28
585.422	4.38
585.761	4.07
586.1	4.04
586.438	4.01
586.777	3.95
587.115	4.16
587.454	3.99
587.792	4.37
588.13	4.19
588.469	4.12
588.807	4.3
589.145	4.21
589.483	4.39
589.821	4.19
590.159	4.27
590.497	4.22
590.835	4.2
591.173	4.22
591.511	4.22
591.849	4.46
592.187	4.13
592.524	4.21
592.862	4.24
593.2	4.05
593.537	4.18
593.875	4.28
594.212	4.14
594.55	4.6
594.887	3.99
595.224	4.21
595.561	4.26
595.899	4.35
596.236	4.59
596.573	4.42
596.91	4.21
597.247	4.22
597.584	4.31
597.921	4.29
598.258	4.22
598.594	4.27
598.931	4.06
599.268	4.15
599.604	4.21
599.941	4.37
600.277	4.08
600.614	4.21
600.95	4.29
601.287	3.99
601.623	4.37
601.959	4.47
602.296	4.35
602.632	4.11
602.968	4.33
603.304	4.45
603.64	4.02
603.976	4.13
604.312	4.28
604.648	4.4
604.984	4.31
605.319	4.17
605.655	4.17
605.991	4.15
606.326	4.07
606.662	4.05
606.998	4.08
607.333	4.23
607.668	4.12
608.004	4.41
608.339	4.03
608.674	4.25
609.01	4.12
609.345	4.38
609.68	4.22
610.015	4.28
610.35	4.08
610.685	4.39
611.02	4.25
611.355	4.46
611.689	4.25
612.024	4.19
612.359	4.1
612.694	3.94
613.028	4.36
613.363	4.02
613.697	4.2
614.032	4.19
614.366	4.19
614.7	4.05
615.035	4.24
615.369	3.88
615.703	4.3
616.037	4.37
616.371	4.42
616.705	4.49
617.039	4.26
617.373	4.41
617.707	4.21
618.041	4.3
618.375	4.45
618.709	4.3
619.042	4.56
619.376	4.45
619.71	4.28
620.043	3.92
620.377	4
620.71	4.54
621.043	4.41
621.377	4.19
621.71	4.38
622.043	4.52
622.376	4.43
622.709	4.31
623.043	4.37
623.376	4.54
623.709	4.45
624.041	4.15
624.374	4.47
624.707	4.62
625.04	4.32
625.373	4.19
625.705	4.24
626.038	4.26
626.37	4.59
626.703	4.41
627.035	4.28
627.368	4.2
627.7	4.77
628.032	4.57
628.365	4.37
628.697	4.39
629.029	4.43
629.361	4.08
629.693	4.38
630.025	4.37
630.357	3.71
630.689	4.21
631.021	4.11
631.353	4
631.684	4.26
632.016	4.67
632.348	4.35
632.679	4.2
633.011	4.26
633.342	4.53
633.674	4.68
634.005	3.68
634.336	4.35
634.668	4.1
634.999	4.56
635.33	4.38
635.661	4.38
635.992	4.37
636.323	4.3
636.654	4.28
636.985	4.2
637.316	4.4
637.647	4.34
637.977	4.06
638.308	4.64
638.639	4.38
638.969	4.16
639.3	4.21
639.63	4.59
639.961	4.11
640.291	4.4
640.622	4.64
640.952	4.13
641.282	4.6
641.612	4.22
641.943	4.81
642.273	4.77
642.603	3.97
642.933	4.51
643.263	3.91
643.592	4.37
643.922	4.45
644.252	4.42
644.582	5.06
644.911	4.83
645.241	4.7
645.571	4.22
645.9	4.48
646.23	4.64
646.559	4.6
646.888	4.74
647.218	4.7
647.547	3.83
647.876	4.26
648.205	4.02
648.534	4.53
648.863	4.41
649.192	4.1
649.521	4.28
649.85	4.24
650.179	4.58
650.508	4.4
650.837	4.32
651.165	4.56
651.494	4.21
651.822	4.45
652.151	4.03
652.479	4.37
652.808	4.65
653.136	4.9
653.465	4.42
653.793	4.23
654.121	4.54
654.449	4.19
654.777	4.36
655.105	4.39
655.433	4.91
655.761	4.47
656.089	4.32
656.417	4.33
656.745	4.77
657.073	4.28
657.4	5.31
657.728	4.75
658.056	4.4
658.383	4.55
658.711	4.75
659.038	4.42
659.365	4.2
659.693	4.33
660.02	4.55
660.347	4.87
660.674	4.62
661.001	4.34
661.329	4.32
661.656	4.13
661.982	4.18
662.309	4.62
662.636	4.49
662.963	4.81
663.29	4.44
663.616	4.4
663.943	4.67
664.27	4.05
664.596	4.78
664.923	4.34
665.249	4.24
665.576	4.13
665.902	4.76
666.228	4.29
666.554	4.07
666.881	3.86
667.207	4.32
667.533	4.37
667.859	4.86
668.185	4.44
668.511	4.92
668.837	4.33
669.162	4.66
669.488	4.79
669.814	4.76
670.139	4.69
670.465	5.51
670.791	4.2
671.116	4.47
671.442	5
671.767	3.94
672.092	5.18
672.418	5.27
672.743	4.8
673.068	4.91
673.393	4.22
673.718	4.6
674.043	5.05
674.368	4.29
674.693	4.71
675.018	3.84
675.343	4.98
675.667	4.38
675.992	4.33
676.317	4.84
676.641	4.59
676.966	4.81
677.29	4.45
677.615	4.48
677.939	4.64
678.264	4.65
678.588	5
678.912	4.68
679.236	4.76
679.56	4.93
679.885	4.59
680.209	5.02
680.532	4.67
680.856	4.47
681.18	4.82
681.504	4.37
681.828	4.33
682.152	4.18
682.475	4.73
682.799	4.96
683.122	4.42
683.446	4.3
683.769	4.8
684.093	4.65
684.416	4.69
684.739	5.08
685.062	5.02
685.386	4.47
685.709	5.15
686.032	4.64
686.355	4.78
686.678	4.43
687.001	4.86
687.324	5.43
687.646	4.48
687.969	5.05
688.292	5.28
688.614	5.6
688.937	4.69
689.26	4.45
689.582	4.8
689.904	4.49
690.227	5.05
690.549	5.2
690.871	4.35
691.194	5.41
691.516	4.56
691.838	5.01
692.16	4.62
692.482	4.57
692.804	4.41
693.126	3.66
