Data from 0189_chest_Reflection__3__114.txt Node

Date: Fri Sep 22 21:13:14 CDT 2023
User: ToomeyLab
Spectrometer: FLMS14357
Trigger mode: 0
Integration Time (sec): 1.000000E-2
Scans to average: 100
Electric dark correction enabled: true
Nonlinearity correction enabled: false
Boxcar width: 0
XAxis mode: Wavelengths
Number of Pixels in Spectrum: 2048
>>>>>Begin Spectral Data<<<<<
189.047	0.33
189.435	0.33
189.823	0.33
190.211	-214.36
190.599	-377.48
190.987	-448.78
191.375	184.43
191.763	-130.1
192.151	135.25
192.538	73.97
192.926	167.73
193.314	79.89
193.702	-435.83
194.089	129.34
194.477	63.62
194.864	-988.58
195.252	84.62
195.639	10.71
196.027	3.86
196.414	1660.44
196.801	-67.98
197.189	-42.17
197.576	138.29
197.963	67.83
198.351	43.09
198.738	42.84
199.125	24.3
199.512	41.66
199.899	28.64
200.286	37.69
200.673	15.17
201.06	26.08
201.447	47.17
201.833	-22.82
202.22	68.4
202.607	39.82
202.994	71.8
203.38	37.51
203.767	9.58
204.154	28.86
204.54	39.05
204.927	-8.98
205.313	66.35
205.699	59.41
206.086	21.26
206.472	47.51
206.858	24.24
207.245	-14.5
207.631	16.26
208.017	16.32
208.403	54.12
208.789	29.16
209.175	42.42
209.561	42.72
209.947	22.23
210.333	42.79
210.719	9.91
211.105	30.52
211.491	16
211.876	27.79
212.262	20.78
212.648	43.46
213.034	31.4
213.419	9.78
213.805	37.79
214.19	11.65
214.576	18.01
214.961	21.62
215.346	20.38
215.732	39.45
216.117	-2.51
216.502	23.69
216.888	21.72
217.273	17.41
217.658	35
218.043	17.34
218.428	24.79
218.813	-1.47
219.198	11.89
219.583	9.72
219.968	16.22
220.353	42.71
220.738	16.98
221.122	9.73
221.507	17.09
221.892	12.53
222.276	10.8
222.661	-24
223.046	26.19
223.43	31.34
223.815	13.78
224.199	9.45
224.583	10.94
224.968	7.35
225.352	-4.51
225.736	18.8
226.121	6.83
226.505	9.07
226.889	14.07
227.273	4.94
227.657	5.9
228.041	5.03
228.425	6.13
228.809	4.33
229.193	4.96
229.577	8.47
229.961	6.74
230.344	7.62
230.728	3.59
231.112	5.8
231.495	4.68
231.879	4.91
232.263	4.79
232.646	5.06
233.03	4.04
233.413	4.98
233.797	5.68
234.18	4.73
234.563	7.92
234.946	6.64
235.33	1.77
235.713	4.99
236.096	4.79
236.479	3.91
236.862	5.68
237.245	6.63
237.628	5.63
238.011	4.94
238.394	6.47
238.777	8.1
239.16	6.08
239.543	7.27
239.925	7.38
240.308	5.22
240.691	4.79
241.073	4.71
241.456	5.65
241.838	3.94
242.221	5.25
242.603	4.64
242.986	4.54
243.368	4.21
243.75	4.92
244.133	5.15
244.515	4.73
244.897	4.04
245.279	4.26
245.661	3.59
246.043	3.79
246.425	4.07
246.807	4.36
247.189	3.62
247.571	4.74
247.953	4.82
248.335	4.15
248.717	3.94
249.098	4.36
249.48	3.89
249.862	4.09
250.243	3.96
250.625	4
251.006	4.07
251.388	4.68
251.769	4.55
252.151	4.64
252.532	5.09
252.913	5.67
253.295	5.11
253.676	4.41
254.057	4.76
254.438	4.61
254.819	3.85
255.2	4.45
255.581	3.69
255.962	4.58
256.343	4.99
256.724	3.69
257.105	3.82
257.486	5.96
257.867	4.75
258.247	4.14
258.628	3.76
259.009	4.79
259.389	4.25
259.77	4.97
260.15	4.56
260.531	4.03
260.911	3.88
261.292	4.22
261.672	3.24
262.052	3.8
262.432	3.93
262.813	3.98
263.193	3.31
263.573	4.4
263.953	3.78
264.333	3.6
264.713	4.16
265.093	3.49
265.473	4.35
265.853	3.85
266.233	4.3
266.612	4.38
266.992	4.41
267.372	4.72
267.752	3.9
268.131	3.84
268.511	4.45
268.89	4.52
269.27	3.57
269.649	3.88
270.029	3.92
270.408	4.86
270.787	4.64
271.167	3.79
271.546	3.44
271.925	3.95
272.304	3.39
272.683	4.51
273.062	4.4
273.441	4.01
273.82	4.49
274.199	3.86
274.578	4.27
274.957	4.23
275.336	3.86
275.715	3.47
276.093	3.65
276.472	3.77
276.851	3.95
277.229	3.24
277.608	4.01
277.986	3.83
278.365	3.67
278.743	3.76
279.122	4.23
279.5	4.53
279.878	3.3
280.257	4.19
280.635	3.95
281.013	3.9
281.391	3.76
281.769	3.98
282.147	3.68
282.525	4.07
282.903	3.7
283.281	3.47
283.659	3.94
284.037	3.39
284.415	4.31
284.792	3.58
285.17	3.99
285.548	4.32
285.925	3.86
286.303	3.92
286.68	3.47
287.058	3.88
287.435	3.8
287.813	3.36
288.19	3.46
288.567	4.04
288.945	3.52
289.322	3.62
289.699	4.28
290.076	3.98
290.453	3.89
290.83	3.53
291.207	3.93
291.584	3.81
291.961	3.45
292.338	4.23
292.715	4.28
293.092	3.97
293.469	4.16
293.845	3.81
294.222	3.98
294.599	3.68
294.975	4.7
295.352	4.23
295.728	4.38
296.105	4.28
296.481	4.46
296.858	4.37
297.234	3.91
297.61	3.85
297.986	4.12
298.363	3.96
298.739	4.01
299.115	3.9
299.491	4.24
299.867	3.96
300.243	3.98
300.619	3.96
300.995	4.18
301.371	4.16
301.746	4.06
302.122	3.84
302.498	3.6
302.874	4.05
303.249	3.72
303.625	3.8
304	4.32
304.376	4.4
304.751	4.27
305.127	4.28
305.502	4.67
305.878	4.16
306.253	4.14
306.628	4.15
307.003	4.22
307.378	3.96
307.754	3.74
308.129	4.21
308.504	4.21
308.879	4.04
309.254	4.72
309.629	4.58
310.003	5.07
310.378	4.97
310.753	4.5
311.128	4.23
311.502	4.75
311.877	4.23
312.252	3.94
312.626	4.35
313.001	4.62
313.375	4.23
313.75	4.73
314.124	4.81
314.498	3.94
314.873	4.21
315.247	4.19
315.621	4.8
315.995	4.47
316.369	4.29
316.743	4.03
317.117	5.3
317.491	5.2
317.865	3.86
318.239	4.31
318.613	4.58
318.987	4.07
319.361	4.51
319.734	4.25
320.108	4.84
320.482	5.08
320.855	4.59
321.229	4.99
321.602	4.61
321.976	4.92
322.349	5.28
322.723	4.05
323.096	4.79
323.469	4.57
323.843	4.5
324.216	4.82
324.589	4.51
324.962	4.25
325.335	4.96
325.708	4.04
326.081	4.63
326.454	4.15
326.827	4.31
327.2	4.59
327.573	4.64
327.945	4.85
328.318	4.68
328.691	4.8
329.063	4.49
329.436	4.77
329.809	4.65
330.181	4.6
330.553	4.6
330.926	4.59
331.298	4.15
331.671	4.85
332.043	4.13
332.415	4.58
332.787	4.88
333.159	4.48
333.532	4.15
333.904	4.44
334.276	4.16
334.648	4.12
335.02	4.39
335.391	4.58
335.763	4.84
336.135	5.01
336.507	4.89
336.879	3.99
337.25	4.57
337.622	4.98
337.993	4.5
338.365	4.8
338.736	4.75
339.108	4.62
339.479	4.13
339.851	4.52
340.222	4.17
340.593	4.49
340.964	4.84
341.336	4.71
341.707	4.39
342.078	4.47
342.449	4.65
342.82	4.44
343.191	4.41
343.562	4.65
343.933	4.71
344.303	4.64
344.674	4.34
345.045	4.4
345.416	5.06
345.786	4.67
346.157	4.74
346.527	4.05
346.898	4.53
347.268	4.75
347.639	4.86
348.009	4.42
348.38	4.44
348.75	4.68
349.12	4.69
349.49	5.01
349.861	4.6
350.231	5.28
350.601	4.6
350.971	4.94
351.341	4.29
351.711	4.35
352.081	4.38
352.45	4.55
352.82	4.84
353.19	4.9
353.56	4.33
353.929	4.69
354.299	4.72
354.669	4.59
355.038	4.3
355.408	4.44
355.777	4.74
356.147	4.64
356.516	4.81
356.885	4.46
357.254	4.95
357.624	4.1
357.993	4.65
358.362	4.59
358.731	4.3
359.1	4.49
359.469	4.88
359.838	4.21
360.207	4.76
360.576	4.64
360.945	4.71
361.314	4.81
361.682	4.61
362.051	4.57
362.42	4.51
362.788	4.33
363.157	4.47
363.525	4.28
363.894	4.52
364.262	4.43
364.631	4.36
364.999	4.37
365.367	4.43
365.735	4.76
366.104	4.62
366.472	4.6
366.84	4.18
367.208	4.98
367.576	4.87
367.944	4.38
368.312	4.8
368.68	4.7
369.048	4.9
369.416	4.69
369.783	4.69
370.151	4.48
370.519	4.76
370.886	4.79
371.254	4.73
371.621	4.75
371.989	4.76
372.356	4.57
372.724	4.9
373.091	4.72
373.458	4.63
373.826	4.72
374.193	4.66
374.56	4.77
374.927	4.65
375.294	4.83
375.661	4.67
376.028	4.98
376.395	4.67
376.762	4.73
377.129	4.83
377.496	4.96
377.863	4.83
378.229	4.81
378.596	4.86
378.963	4.92
379.329	4.91
379.696	4.99
380.062	4.23
380.429	4.7
380.795	4.78
381.161	4.47
381.528	4.68
381.894	4.65
382.26	4.68
382.626	5.12
382.993	4.84
383.359	4.64
383.725	5
384.091	4.94
384.457	4.64
384.823	4.61
385.188	4.89
385.554	4.99
385.92	5.05
386.286	4.98
386.651	4.77
387.017	4.97
387.383	4.74
387.748	4.57
388.114	4.75
388.479	4.96
388.845	4.88
389.21	4.7
389.575	5.05
389.94	4.62
390.306	4.99
390.671	5.12
391.036	4.67
391.401	4.64
391.766	4.59
392.131	4.92
392.496	4.59
392.861	4.78
393.226	4.95
393.591	4.71
393.956	4.8
394.32	4.77
394.685	4.79
395.05	4.94
395.414	4.89
395.779	4.93
396.143	4.9
396.508	4.77
396.872	4.78
397.236	4.84
397.601	4.76
397.965	5.13
398.329	4.91
398.694	4.84
399.058	4.82
399.422	4.96
399.786	4.95
400.15	5.05
400.514	4.87
400.878	4.73
401.242	4.93
401.605	4.88
401.969	4.56
402.333	5.03
402.697	4.73
403.06	4.9
403.424	4.88
403.787	4.94
404.151	4.92
404.514	5.03
404.878	5.12
405.241	5.14
405.604	5.11
405.968	5.08
406.331	4.98
406.694	4.93
407.057	5.01
407.42	5.06
407.783	4.98
408.146	4.87
408.509	4.9
408.872	4.93
409.235	5.04
409.598	4.9
409.961	5.17
410.323	5.06
410.686	5.2
411.049	5.13
411.411	5.09
411.774	4.93
412.136	4.84
412.499	4.9
412.861	5.01
413.223	5.02
413.586	5
413.948	4.93
414.31	4.82
414.672	5.18
415.035	5.04
415.397	5.15
415.759	5.28
416.121	4.91
416.483	4.87
416.845	5.03
417.206	4.95
417.568	5.02
417.93	5.08
418.292	5.04
418.653	5.06
419.015	5.12
419.377	5.04
419.738	5.07
420.1	4.94
420.461	5.2
420.822	5
421.184	5
421.545	4.94
421.906	4.92
422.267	4.91
422.629	5.01
422.99	4.89
423.351	4.93
423.712	4.89
424.073	4.88
424.434	4.99
424.795	4.92
425.155	5.1
425.516	4.95
425.877	5
426.238	4.9
426.598	4.91
426.959	5
427.32	5.03
427.68	4.84
428.041	4.94
428.401	5.17
428.761	5.11
429.122	5.16
429.482	5.12
429.842	5.1
430.202	5.05
430.563	5.08
430.923	5.26
431.283	5.23
431.643	5.21
432.003	5.02
432.363	5.26
432.722	5.4
433.082	5.19
433.442	5.09
433.802	5.42
434.161	5.16
434.521	5.04
434.881	5.27
435.24	5.06
435.6	5.18
435.959	5.08
436.319	5.12
436.678	5.26
437.037	5.22
437.396	5.14
437.756	5.27
438.115	5.22
438.474	5.09
438.833	5.34
439.192	5.28
439.551	5.15
439.91	5.28
440.269	5.16
440.628	5.04
440.987	5.22
441.345	5.22
441.704	5.29
442.063	5.17
442.421	5.21
442.78	5.19
443.138	5.09
443.497	5.16
443.855	5.3
444.214	5.05
444.572	5.4
444.93	5.34
445.288	5.28
445.647	5.24
446.005	5.24
446.363	5.09
446.721	5.32
447.079	5.26
447.437	5.33
447.795	5.35
448.153	5.14
448.51	5.14
448.868	5.17
449.226	5.19
449.584	5.14
449.941	5.2
450.299	5.26
450.656	5.46
451.014	5.42
451.371	5.3
451.729	5.38
452.086	5.36
452.443	5.51
452.801	5.32
453.158	5.53
453.515	5.37
453.872	5.48
454.229	5.44
454.586	5.44
454.943	5.38
455.3	5.37
455.657	5.44
456.014	5.39
456.371	5.44
456.727	5.71
457.084	5.45
457.441	5.29
457.797	5.47
458.154	5.45
458.51	5.28
458.867	5.62
459.223	5.6
459.58	5.56
459.936	5.38
460.292	5.63
460.648	5.51
461.005	5.41
461.361	5.42
461.717	5.24
462.073	5.37
462.429	5.27
462.785	5.35
463.141	5.46
463.496	5.63
463.852	5.48
464.208	5.62
464.564	5.59
464.919	5.57
465.275	5.84
465.631	5.65
465.986	5.53
466.342	5.65
466.697	5.63
467.052	5.51
467.408	5.56
467.763	5.62
468.118	5.77
468.473	5.5
468.829	5.51
469.184	5.52
469.539	5.54
469.894	5.58
470.249	5.65
470.603	5.64
470.958	5.6
471.313	5.65
471.668	5.66
472.023	5.66
472.377	5.64
472.732	5.68
473.086	5.85
473.441	5.5
473.795	5.9
474.15	5.6
474.504	5.54
474.859	5.8
475.213	5.56
475.567	5.53
475.921	5.74
476.275	5.67
476.63	5.65
476.984	5.68
477.338	5.82
477.692	5.81
478.045	5.85
478.399	5.89
478.753	5.58
479.107	5.86
479.461	5.66
479.814	5.79
480.168	5.73
480.521	5.67
480.875	5.9
481.228	5.7
481.582	5.66
481.935	5.77
482.289	5.77
482.642	5.69
482.995	5.73
483.348	5.74
483.701	5.64
484.055	5.81
484.408	5.79
484.761	5.64
485.114	5.55
485.466	5.51
485.819	5.41
486.172	5.4
486.525	5.41
486.878	5.46
487.23	5.52
487.583	5.55
487.936	5.72
488.288	5.67
488.641	5.67
488.993	5.67
489.345	5.63
489.698	5.57
490.05	5.54
490.402	5.6
490.754	5.55
491.107	5.6
491.459	5.77
491.811	5.76
492.163	5.74
492.515	5.76
492.866	5.8
493.218	5.81
493.57	5.82
493.922	5.66
494.274	5.6
494.625	5.71
494.977	5.79
495.328	5.9
495.68	5.97
496.031	5.9
496.383	6.06
496.734	6.07
497.086	5.99
497.437	6.25
497.788	6.11
498.139	6.05
498.49	6.21
498.842	5.95
499.193	5.9
499.544	6
499.894	5.99
500.245	6.09
500.596	6.09
500.947	6.14
501.298	6.12
501.648	6.11
501.999	6.18
502.35	6.16
502.7	6.19
503.051	6.16
503.401	6.25
503.752	6.17
504.102	6.15
504.452	6.16
504.803	6.14
505.153	6.16
505.503	6.18
505.853	6.19
506.203	6.11
506.553	6.28
506.903	6.21
507.253	6.19
507.603	6.31
507.953	6.33
508.303	6.37
508.652	6.34
509.002	6.55
509.352	6.31
509.701	6.3
510.051	6.46
510.4	6.38
510.75	6.29
511.099	6.29
511.449	6.38
511.798	6.31
512.147	6.39
512.496	6.38
512.846	6.22
513.195	6.3
513.544	6.46
513.893	6.44
514.242	6.26
514.591	6.45
514.939	6.49
515.288	6.33
515.637	6.45
515.986	6.37
516.334	6.58
516.683	6.49
517.032	6.66
517.38	6.57
517.729	6.49
518.077	6.74
518.426	6.53
518.774	6.66
519.122	6.57
519.47	6.4
519.819	6.45
520.167	6.6
520.515	6.55
520.863	6.49
521.211	6.5
521.559	6.51
521.907	6.54
522.255	6.5
522.602	6.57
522.95	6.67
523.298	6.76
523.645	6.73
523.993	6.73
524.341	6.65
524.688	6.67
525.036	6.74
525.383	6.77
525.73	6.8
526.078	6.72
526.425	6.73
526.772	6.83
527.119	6.66
527.466	6.65
527.814	6.68
528.161	6.59
528.508	6.67
528.854	6.74
529.201	6.63
529.548	6.74
529.895	6.73
530.242	6.67
530.588	6.55
530.935	6.49
531.282	6.53
531.628	6.62
531.975	6.63
532.321	6.66
532.667	6.76
533.014	6.87
533.36	6.92
533.706	6.93
534.052	7.01
534.399	6.92
534.745	6.93
535.091	6.93
535.437	6.84
535.783	6.74
536.129	6.9
536.474	6.92
536.82	6.9
537.166	7.12
537.512	7.1
537.857	7.06
538.203	7.17
538.549	7.15
538.894	7.03
539.239	7.06
539.585	7.06
539.93	7.24
540.276	7.17
540.621	7.25
540.966	7.29
541.311	7.36
541.656	7.16
542.001	7.31
542.346	7.31
542.691	7.3
543.036	7.18
543.381	7.16
543.726	7.08
544.071	7.17
544.415	7.21
544.76	7.2
545.105	7.16
545.449	7.26
545.794	7.4
546.138	7.45
546.483	7.48
546.827	7.44
547.171	7.44
547.516	7.52
547.86	7.59
548.204	7.62
548.548	7.61
548.892	7.65
549.236	7.51
549.58	7.6
549.924	7.63
550.268	7.85
550.612	7.8
550.956	7.76
551.3	7.89
551.643	7.88
551.987	7.8
552.33	7.92
552.674	7.86
553.017	7.95
553.361	7.99
553.704	8.13
554.048	7.99
554.391	7.9
554.734	8.15
555.077	8
555.42	7.92
555.764	7.94
556.107	8.1
556.45	8.07
556.793	8.11
557.135	8.04
557.478	8.12
557.821	8.26
558.164	8.13
558.507	8.48
558.849	8.13
559.192	8.18
559.534	8.43
559.877	8.27
560.219	8.4
560.562	8.41
560.904	8.56
561.246	8.68
561.589	8.45
561.931	8.43
562.273	8.2
562.615	8.3
562.957	8.36
563.299	8.55
563.641	8.5
563.983	8.66
564.325	8.56
564.667	8.59
565.008	8.6
565.35	8.55
565.692	8.8
566.033	8.93
566.375	8.75
566.716	8.58
567.058	8.55
567.399	8.75
567.741	8.89
568.082	8.74
568.423	8.76
568.764	9.1
569.105	8.67
569.447	8.82
569.788	8.75
570.129	9.04
570.47	9.03
570.811	9.12
571.151	9.04
571.492	8.84
571.833	8.98
572.174	9.13
572.514	9.03
572.855	8.96
573.195	8.97
573.536	9.24
573.876	9.03
574.217	9.1
574.557	9.06
574.898	9.15
575.238	9.13
575.578	9.19
575.918	9.19
576.258	9.16
576.598	9.34
576.938	9.26
577.278	9.61
577.618	9.1
577.958	9.4
578.298	9.65
578.638	9.23
578.977	9.45
579.317	9.57
579.657	9.64
579.996	9.6
580.336	9.91
580.675	9.69
581.014	9.55
581.354	9.81
581.693	9.84
582.032	9.79
582.372	9.92
582.711	9.73
583.05	9.81
583.389	9.67
583.728	9.93
584.067	10.12
584.406	10.14
584.745	9.91
585.083	10.23
585.422	10.04
585.761	9.84
586.1	10.14
586.438	10.02
586.777	10.19
587.115	10.27
587.454	9.95
587.792	10.35
588.13	10.51
588.469	10.2
588.807	10.26
589.145	10.34
589.483	10.32
589.821	10.35
590.159	10.3
590.497	10.57
590.835	10.43
591.173	10.55
591.511	10.29
591.849	10.67
592.187	10.4
592.524	10.69
592.862	10.5
593.2	10.56
593.537	10.66
593.875	10.59
594.212	10.84
594.55	11.01
594.887	10.73
595.224	10.89
595.561	11.24
595.899	10.96
596.236	11
596.573	11.04
596.91	10.83
597.247	10.84
597.584	11.16
597.921	11.21
598.258	11.08
598.594	11.16
598.931	10.97
599.268	11.06
599.604	11.24
599.941	11.05
600.277	11.02
600.614	10.94
600.95	11.2
601.287	11.11
601.623	11.18
601.959	11.16
602.296	11.26
602.632	11.31
602.968	11.46
603.304	11.46
603.64	11.3
603.976	11.57
604.312	11.61
604.648	11.67
604.984	11.62
605.319	11.28
605.655	11.46
605.991	11.65
606.326	11.68
606.662	11.59
606.998	11.39
607.333	11.78
607.668	11.77
608.004	11.73
608.339	11.63
608.674	11.68
609.01	11.9
609.345	11.78
609.68	12.08
610.015	12.07
610.35	11.91
610.685	12.29
611.02	11.93
611.355	12.25
611.689	12.15
612.024	12.09
612.359	11.87
612.694	12.12
613.028	12.08
613.363	12.04
613.697	12.06
614.032	12.26
614.366	12.23
614.7	12.46
615.035	12.25
615.369	12.65
615.703	12.5
616.037	12.54
616.371	12.95
616.705	13
617.039	12.46
617.373	12.75
617.707	12.52
618.041	12.67
618.375	12.85
618.709	12.95
619.042	12.6
619.376	13.04
619.71	12.99
620.043	12.49
620.377	12.7
620.71	12.97
621.043	12.92
621.377	12.81
621.71	13.11
622.043	13.11
622.376	13.35
622.709	13.01
623.043	13.1
623.376	13.12
623.709	13.26
624.041	13.09
624.374	13.59
624.707	13.49
625.04	13.53
625.373	12.97
625.705	13.22
626.038	13.3
626.37	13.78
626.703	13.45
627.035	13.5
627.368	13.28
627.7	13.61
628.032	14.03
628.365	13.62
628.697	13.87
629.029	13.57
629.361	13.78
629.693	13.83
630.025	13.88
630.357	13.72
630.689	13.67
631.021	13.66
631.353	13.87
631.684	13.67
632.016	14.22
632.348	14.07
632.679	13.75
633.011	14.1
633.342	14.1
633.674	14.43
634.005	13.87
634.336	14.2
634.668	14.4
634.999	14.28
635.33	14.36
635.661	14.26
635.992	14.33
636.323	14.09
636.654	14.19
636.985	14.36
637.316	14.17
637.647	14.72
637.977	14.09
638.308	14.76
638.639	14.18
638.969	14.5
639.3	14.64
639.63	14.72
639.961	14.21
640.291	14.69
640.622	14.75
640.952	14.95
641.282	14.96
641.612	14.66
641.943	15.1
642.273	15.31
642.603	15.03
642.933	14.44
643.263	14.8
643.592	14.99
643.922	15.2
644.252	14.9
644.582	15.68
644.911	14.92
645.241	15.69
645.571	15.17
645.9	15.62
646.23	15.67
646.559	15.78
646.888	15.48
647.218	15.11
647.547	14.98
647.876	15.09
648.205	15.01
648.534	15.7
648.863	15.78
649.192	15.36
649.521	15.42
649.85	15.78
650.179	15.58
650.508	15.43
650.837	16.16
651.165	16.03
651.494	15.72
651.822	15.66
652.151	15.74
652.479	15.77
652.808	15.65
653.136	16.05
653.465	15.82
653.793	15.71
654.121	16.55
654.449	16.28
654.777	16.28
655.105	16.39
655.433	16.19
655.761	16.33
656.089	16.17
656.417	16.04
656.745	16.28
657.073	16.44
657.4	16.91
657.728	16.63
658.056	16.27
658.383	16.71
658.711	16.45
659.038	16.48
659.365	16.5
659.693	16.08
660.02	16.96
660.347	16.95
660.674	16.3
661.001	16.28
661.329	16.2
661.656	16.6
661.982	16.47
662.309	16.79
662.636	16.53
662.963	17.02
663.29	16.82
663.616	17.37
663.943	17.48
664.27	16.82
664.596	17.03
664.923	16.91
665.249	17.48
665.576	16.78
665.902	17.1
666.228	17.25
666.554	16.58
666.881	17.48
667.207	16.65
667.533	16.81
667.859	17.37
668.185	17.33
668.511	18.15
668.837	17.41
669.162	17.57
669.488	17.72
669.814	17.61
670.139	17.32
670.465	18.16
670.791	17.77
671.116	17.22
671.442	18.16
671.767	17.64
672.092	18.94
672.418	18.4
672.743	18.28
673.068	18.07
673.393	17.93
673.718	18.64
674.043	17.74
674.368	18.34
674.693	18.21
675.018	17.96
675.343	17.61
675.667	18.03
675.992	18.46
676.317	18.42
676.641	18.11
676.966	18.54
677.29	18.39
677.615	17.93
677.939	18.34
678.264	18.43
678.588	19.28
678.912	18.67
679.236	18.65
679.56	17.99
679.885	18.3
680.209	19.66
680.532	18.4
680.856	18.72
681.18	18.48
681.504	18.49
681.828	18.7
682.152	19.1
682.475	19.12
682.799	19.5
683.122	18.54
683.446	18.36
683.769	18.82
684.093	18.85
684.416	19.11
684.739	19.28
685.062	19.13
685.386	19.26
685.709	18.78
686.032	19.27
686.355	18.93
