Data from 0189_crown_Reflection__2__118.txt Node

Date: Fri Sep 22 21:14:37 CDT 2023
User: ToomeyLab
Spectrometer: FLMS14357
Trigger mode: 0
Integration Time (sec): 1.000000E-2
Scans to average: 100
Electric dark correction enabled: true
Nonlinearity correction enabled: false
Boxcar width: 0
XAxis mode: Wavelengths
Number of Pixels in Spectrum: 2048
>>>>>Begin Spectral Data<<<<<
189.047	-0
189.435	-0
189.823	-0
190.211	259.46
190.599	-48.92
190.987	629.97
191.375	334.31
191.763	-226.99
192.151	121.1
192.538	-421.05
192.926	209.71
193.314	163.56
193.702	-78.88
194.089	151.58
194.477	-356.71
194.864	-533.33
195.252	151.52
195.639	56.65
196.027	3161.35
196.414	-28.44
196.801	22.51
197.189	183.05
197.576	68.58
197.963	122.03
198.351	-3.01
198.738	109.11
199.125	7.27
199.512	29.39
199.899	46.86
200.286	36.91
200.673	12.92
201.06	15.66
201.447	57.36
201.833	-38.01
202.22	22.23
202.607	5.07
202.994	45.92
203.38	15.47
203.767	8.13
204.154	32.39
204.54	31.42
204.927	-6.26
205.313	27.9
205.699	27.77
206.086	48.43
206.472	40.11
206.858	29.49
207.245	2.56
207.631	29.91
208.017	14.47
208.403	37.34
208.789	23.77
209.175	26.43
209.561	25.84
209.947	19.03
210.333	29.31
210.719	7.62
211.105	39.95
211.491	21.75
211.876	34.21
212.262	29.88
212.648	18.07
213.034	31.77
213.419	18.52
213.805	13.16
214.19	18.11
214.576	20
214.961	18.5
215.346	21.88
215.732	29.56
216.117	13.08
216.502	36.67
216.888	32.11
217.273	28.3
217.658	30.7
218.043	29.01
218.428	45.85
218.813	17.98
219.198	9.91
219.583	28.23
219.968	29.82
220.353	35.15
220.738	-2.68
221.122	19.86
221.507	20.63
221.892	2.88
222.276	1.73
222.661	-7.16
223.046	17.55
223.43	16.56
223.815	8.44
224.199	8.45
224.583	8.3
224.968	7.87
225.352	15.2
225.736	-3.41
226.121	12.08
226.505	3.39
226.889	7.17
227.273	-0.64
227.657	1.41
228.041	5.62
228.425	11.73
228.809	7.02
229.193	2.15
229.577	4.91
229.961	6.55
230.344	5.3
230.728	1.59
231.112	3.67
231.495	2.03
231.879	3.65
232.263	3.45
232.646	4.04
233.03	1.59
233.413	4.11
233.797	1.81
234.18	3.39
234.563	5.35
234.946	5.47
235.33	2.92
235.713	1.92
236.096	3.7
236.479	2.39
236.862	4.37
237.245	2.81
237.628	3.59
238.011	4.86
238.394	2.01
238.777	6.08
239.16	2.72
239.543	6.32
239.925	4.09
240.308	3.5
240.691	4.65
241.073	4.45
241.456	4.46
241.838	3.78
242.221	2.56
242.603	3.58
242.986	2.49
243.368	2.05
243.75	2.66
244.133	3.42
244.515	3.16
244.897	2.68
245.279	2.25
245.661	2.71
246.043	2.63
246.425	3.1
246.807	3.42
247.189	2.43
247.571	3.71
247.953	3.64
248.335	3.23
248.717	2.94
249.098	2.2
249.48	2.47
249.862	2.39
250.243	2.48
250.625	3.04
251.006	1.99
251.388	2.9
251.769	3.29
252.151	2.79
252.532	3.25
252.913	3.53
253.295	3.89
253.676	2.97
254.057	2.49
254.438	2.9
254.819	2.52
255.2	2.7
255.581	2.05
255.962	2.82
256.343	2.82
256.724	2.18
257.105	3.14
257.486	2.45
257.867	3.46
258.247	3.27
258.628	3.54
259.009	1.86
259.389	2.98
259.77	3.03
260.15	2.36
260.531	2.2
260.911	2.81
261.292	2.56
261.672	2.2
262.052	2.4
262.432	2.41
262.813	2.57
263.193	2.37
263.573	3
263.953	2.88
264.333	2.78
264.713	2.84
265.093	2.94
265.473	2.29
265.853	2.18
266.233	1.74
266.612	2.44
266.992	2.3
267.372	3.13
267.752	3.22
268.131	2.35
268.511	2.08
268.89	2.35
269.27	2.55
269.649	2.76
270.029	2.08
270.408	1.99
270.787	2.34
271.167	2.95
271.546	1.62
271.925	2.67
272.304	2.69
272.683	3.19
273.062	2.77
273.441	2.51
273.82	2.96
274.199	2.57
274.578	2.5
274.957	2.08
275.336	2.77
275.715	2.76
276.093	2.32
276.472	2.26
276.851	2.27
277.229	1.65
277.608	2.49
277.986	2.1
278.365	2.6
278.743	2.47
279.122	2.6
279.5	2.5
279.878	2.48
280.257	2.69
280.635	2.1
281.013	2.63
281.391	2.7
281.769	2.79
282.147	3.18
282.525	2.51
282.903	2.55
283.281	2.54
283.659	2.08
284.037	2.06
284.415	2.81
284.792	2.17
285.17	2.41
285.548	2.94
285.925	2.7
286.303	2.11
286.68	1.74
287.058	2.26
287.435	2.5
287.813	2.2
288.19	1.95
288.567	2.56
288.945	2.08
289.322	2.21
289.699	2.24
290.076	2.48
290.453	1.94
290.83	1.69
291.207	2.25
291.584	2.04
291.961	1.94
292.338	2.37
292.715	2.64
293.092	2.34
293.469	2.64
293.845	2.54
294.222	2.53
294.599	2.86
294.975	2.86
295.352	2.31
295.728	2.28
296.105	2.94
296.481	2.16
296.858	2.42
297.234	2.5
297.61	2.29
297.986	1.88
298.363	2.18
298.739	2.54
299.115	2.33
299.491	2.35
299.867	2.2
300.243	2.16
300.619	2.37
300.995	2.29
301.371	2.76
301.746	2.62
302.122	2.19
302.498	2.41
302.874	2.29
303.249	1.99
303.625	2.27
304	2.65
304.376	2.87
304.751	2.61
305.127	2.52
305.502	2.42
305.878	2.62
306.253	2.76
306.628	2.73
307.003	2.3
307.378	2.21
307.754	2.36
308.129	2.6
308.504	2.6
308.879	2.12
309.254	2.72
309.629	2.5
310.003	2.66
310.378	2.88
310.753	2.51
311.128	2.51
311.502	2.09
311.877	2.06
312.252	2.3
312.626	2.54
313.001	2.76
313.375	2.48
313.75	2.84
314.124	3.08
314.498	2.4
314.873	2.51
315.247	2.68
315.621	2.46
315.995	2.79
316.369	2.38
316.743	2.46
317.117	2.56
317.491	2.69
317.865	2.66
318.239	2.29
318.613	3.08
318.987	2.52
319.361	2.09
319.734	2.13
320.108	2.83
320.482	2.21
320.855	2.68
321.229	3.1
321.602	2.32
321.976	1.7
322.349	2.49
322.723	2.8
323.096	2.66
323.469	2.69
323.843	2.36
324.216	2.78
324.589	2.91
324.962	2.21
325.335	2.52
325.708	2.4
326.081	2.82
326.454	1.79
326.827	2.9
327.2	2.28
327.573	3.07
327.945	2.81
328.318	2.54
328.691	2.93
329.063	2.48
329.436	2.73
329.809	2.93
330.181	3.28
330.553	2.21
330.926	3.2
331.298	2.92
331.671	2.63
332.043	1.94
332.415	2.3
332.787	3.12
333.159	2.57
333.532	1.96
333.904	2.74
334.276	2.53
334.648	1.81
335.02	2.43
335.391	2.61
335.763	2.68
336.135	2.63
336.507	2.59
336.879	2.63
337.25	2.68
337.622	2.66
337.993	2.4
338.365	2.99
338.736	2.58
339.108	2.73
339.479	2.79
339.851	2.55
340.222	2.8
340.593	2.39
340.964	2.23
341.336	2.34
341.707	2.79
342.078	2.26
342.449	2.52
342.82	2.18
343.191	2.25
343.562	2.47
343.933	2.57
344.303	2.83
344.674	2.82
345.045	2.67
345.416	3.07
345.786	2.33
346.157	2.5
346.527	2.28
346.898	2.26
347.268	2.47
347.639	2.55
348.009	2.69
348.38	2.5
348.75	2.71
349.12	2.47
349.49	3.02
349.861	2.7
350.231	2.53
350.601	2.86
350.971	2.95
351.341	2.4
351.711	2.62
352.081	2.52
352.45	2.59
352.82	2.76
353.19	2.61
353.56	2.43
353.929	2.71
354.299	2.63
354.669	2.66
355.038	2.34
355.408	2.48
355.777	3.27
356.147	2.92
356.516	3.05
356.885	2.45
357.254	3.11
357.624	2.33
357.993	2.44
358.362	2.6
358.731	2.21
359.1	2.24
359.469	2.71
359.838	2.6
360.207	2.54
360.576	3.1
360.945	2.76
361.314	2.43
361.682	2.81
362.051	2.75
362.42	2.28
362.788	2.35
363.157	2.66
363.525	2.4
363.894	2.53
364.262	2.46
364.631	2.42
364.999	2.32
365.367	2.86
365.735	2.56
366.104	2.52
366.472	2.75
366.84	2.56
367.208	2.85
367.576	2.82
367.944	2.38
368.312	2.59
368.68	2.73
369.048	2.77
369.416	2.49
369.783	2.56
370.151	2.52
370.519	2.35
370.886	2.9
371.254	2.83
371.621	2.83
371.989	2.64
372.356	2.56
372.724	2.81
373.091	2.52
373.458	2.43
373.826	2.65
374.193	2.9
374.56	2.51
374.927	2.62
375.294	2.71
375.661	2.52
376.028	2.68
376.395	2.92
376.762	2.15
377.129	2.49
377.496	2.62
377.863	2.65
378.229	2.7
378.596	2.42
378.963	2.91
379.329	2.77
379.696	2.97
380.062	2.44
380.429	2.81
380.795	2.69
381.161	2.4
381.528	2.99
381.894	2.39
382.26	2.51
382.626	2.7
382.993	2.86
383.359	2.38
383.725	2.6
384.091	2.76
384.457	2.84
384.823	2.65
385.188	2.64
385.554	2.8
385.92	2.8
386.286	2.5
386.651	2.64
387.017	2.93
387.383	2.58
387.748	2.65
388.114	2.6
388.479	2.86
388.845	2.52
389.21	2.49
389.575	2.89
389.94	2.5
390.306	2.86
390.671	3.07
391.036	2.4
391.401	2.85
391.766	2.46
392.131	2.68
392.496	2.63
392.861	2.83
393.226	3.03
393.591	2.7
393.956	2.65
394.32	2.61
394.685	2.67
395.05	2.83
395.414	2.86
395.779	2.87
396.143	2.78
396.508	2.63
396.872	2.68
397.236	2.73
397.601	2.81
397.965	2.96
398.329	2.66
398.694	2.72
399.058	2.65
399.422	2.73
399.786	2.85
400.15	2.71
400.514	2.88
400.878	2.78
401.242	2.82
401.605	2.69
401.969	2.46
402.333	2.87
402.697	2.8
403.06	2.89
403.424	2.64
403.787	2.7
404.151	2.58
404.514	2.72
404.878	2.66
405.241	2.79
405.604	2.68
405.968	2.7
406.331	2.88
406.694	2.78
407.057	2.53
407.42	2.82
407.783	2.77
408.146	2.68
408.509	2.63
408.872	2.74
409.235	2.65
409.598	2.52
409.961	2.89
410.323	2.78
410.686	2.83
411.049	2.87
411.411	2.8
411.774	2.77
412.136	2.87
412.499	2.89
412.861	2.76
413.223	2.75
413.586	2.71
413.948	2.95
414.31	2.61
414.672	2.86
415.035	2.62
415.397	2.72
415.759	3.17
416.121	2.76
416.483	2.68
416.845	2.7
417.206	2.62
417.568	2.66
417.93	2.74
418.292	2.76
418.653	2.65
419.015	2.78
419.377	2.57
419.738	2.88
420.1	2.66
420.461	2.69
420.822	2.64
421.184	2.65
421.545	2.66
421.906	2.7
422.267	2.7
422.629	2.79
422.99	2.63
423.351	2.62
423.712	2.57
424.073	2.57
424.434	2.77
424.795	2.68
425.155	2.83
425.516	2.72
425.877	2.67
426.238	2.52
426.598	2.6
426.959	2.66
427.32	2.74
427.68	2.6
428.041	2.55
428.401	2.69
428.761	2.77
429.122	2.83
429.482	2.76
429.842	2.74
430.202	2.65
430.563	2.91
430.923	2.84
431.283	2.74
431.643	2.84
432.003	2.84
432.363	2.88
432.722	2.84
433.082	2.73
433.442	2.66
433.802	2.77
434.161	2.86
434.521	2.67
434.881	2.75
435.24	2.72
435.6	2.68
435.959	2.62
436.319	2.63
436.678	2.76
437.037	2.73
437.396	2.69
437.756	2.74
438.115	2.74
438.474	2.62
438.833	2.77
439.192	2.79
439.551	2.72
439.91	2.76
440.269	2.94
440.628	2.58
440.987	2.73
441.345	2.72
441.704	2.81
442.063	2.68
442.421	2.71
442.78	2.77
443.138	2.69
443.497	2.78
443.855	2.78
444.214	2.65
444.572	2.86
444.93	2.79
445.288	2.76
445.647	2.78
446.005	2.8
446.363	2.61
446.721	2.75
447.079	2.72
447.437	2.73
447.795	2.86
448.153	2.7
448.51	2.75
448.868	2.67
449.226	2.75
449.584	2.68
449.941	2.73
450.299	2.77
450.656	2.77
451.014	2.77
451.371	2.77
451.729	2.76
452.086	2.75
452.443	2.81
452.801	2.74
453.158	2.81
453.515	2.99
453.872	2.87
454.229	2.81
454.586	2.86
454.943	2.86
455.3	2.74
455.657	2.85
456.014	2.81
456.371	2.78
456.727	2.99
457.084	2.82
457.441	2.82
457.797	2.86
458.154	2.88
458.51	2.92
458.867	2.76
459.223	2.78
459.58	2.93
459.936	2.79
460.292	2.81
460.648	2.94
461.005	2.83
461.361	2.85
461.717	2.63
462.073	2.74
462.429	2.63
462.785	2.76
463.141	2.81
463.496	2.85
463.852	2.67
464.208	2.75
464.564	2.86
464.919	2.82
465.275	2.95
465.631	2.84
465.986	2.91
466.342	3.03
466.697	2.91
467.052	2.73
467.408	2.95
467.763	2.86
468.118	2.98
468.473	2.77
468.829	2.87
469.184	2.83
469.539	2.85
469.894	2.85
470.249	2.91
470.603	2.81
470.958	2.68
471.313	2.9
471.668	2.97
472.023	2.83
472.377	2.75
472.732	2.84
473.086	2.97
473.441	2.74
473.795	3.07
474.15	2.78
474.504	2.78
474.859	2.89
475.213	2.78
475.567	2.68
475.921	2.79
476.275	2.79
476.63	2.83
476.984	2.74
477.338	2.97
477.692	2.85
478.045	3.07
478.399	3.02
478.753	2.84
479.107	2.84
479.461	2.83
479.814	2.87
480.168	3
480.521	2.92
480.875	3.03
481.228	2.81
481.582	2.68
481.935	2.9
482.289	2.87
482.642	2.79
482.995	2.85
483.348	2.9
483.701	2.75
484.055	2.77
484.408	2.8
484.761	2.86
485.114	2.7
485.466	2.68
485.819	2.62
486.172	2.58
486.525	2.62
486.878	2.63
487.23	2.68
487.583	2.75
487.936	2.79
488.288	2.78
488.641	2.74
488.993	2.65
489.345	2.72
489.698	2.68
490.05	2.64
490.402	2.68
490.754	2.7
491.107	2.65
491.459	2.74
491.811	2.77
492.163	2.8
492.515	2.79
492.866	2.72
493.218	2.77
493.57	2.79
493.922	2.67
494.274	2.73
494.625	2.76
494.977	2.85
495.328	2.84
495.68	2.83
496.031	2.8
496.383	2.86
496.734	2.88
497.086	2.91
497.437	2.9
497.788	2.96
498.139	2.97
498.49	3.04
498.842	2.9
499.193	2.85
499.544	2.96
499.894	2.86
500.245	2.89
500.596	2.91
500.947	2.91
501.298	3.03
501.648	3.01
501.999	3.04
502.35	2.87
502.7	2.86
503.051	2.98
503.401	2.91
503.752	3
504.102	2.96
504.452	2.9
504.803	2.95
505.153	2.83
505.503	3
505.853	3.03
506.203	2.84
506.553	3.02
506.903	2.95
507.253	2.85
507.603	2.94
507.953	2.98
508.303	2.96
508.652	2.95
509.002	3.01
509.352	2.87
509.701	3.02
510.051	2.98
510.4	3.01
510.75	2.88
511.099	2.73
511.449	2.97
511.798	2.9
512.147	2.95
512.496	2.93
512.846	2.87
513.195	2.93
513.544	2.92
513.893	3
514.242	3.04
514.591	2.96
514.939	2.9
515.288	2.83
515.637	2.93
515.986	2.91
516.334	2.97
516.683	2.92
517.032	3.05
517.38	2.98
517.729	2.93
518.077	3.06
518.426	2.99
518.774	3.05
519.122	2.91
519.47	2.88
519.819	3
520.167	2.92
520.515	2.94
520.863	2.84
521.211	2.93
521.559	2.93
521.907	3.04
522.255	2.88
522.602	2.93
522.95	2.94
523.298	3.06
523.645	3.01
523.993	3.02
524.341	2.95
524.688	3.1
525.036	2.95
525.383	2.96
525.73	2.99
526.078	2.98
526.425	2.94
526.772	3.07
527.119	2.99
527.466	2.9
527.814	2.88
528.161	2.86
528.508	2.99
528.854	2.95
529.201	2.98
529.548	2.97
529.895	2.87
530.242	2.83
530.588	2.76
530.935	2.72
531.282	2.78
531.628	2.87
531.975	2.86
532.321	2.85
532.667	2.9
533.014	2.93
533.36	2.98
533.706	2.95
534.052	3.01
534.399	3.05
534.745	3.01
535.091	2.94
535.437	2.89
535.783	2.81
536.129	2.9
536.474	2.96
536.82	2.88
537.166	3.13
537.512	3.05
537.857	3.04
538.203	3.11
538.549	2.95
538.894	2.89
539.239	2.92
539.585	2.98
539.93	3.08
540.276	3.08
540.621	3.07
540.966	3.01
541.311	3.06
541.656	2.97
542.001	3.06
542.346	3.08
542.691	3.11
543.036	2.93
543.381	2.86
543.726	2.86
544.071	2.9
544.415	2.93
544.76	2.89
545.105	2.89
545.449	2.9
545.794	2.99
546.138	2.96
546.483	3
546.827	3
547.171	3.02
547.516	3.09
547.86	3.12
548.204	3.1
548.548	3.12
548.892	3.12
549.236	3.05
549.58	3.1
549.924	3.11
550.268	3.18
550.612	3.09
550.956	3.04
551.3	3.15
551.643	3.23
551.987	3.11
552.33	3.1
552.674	3.12
553.017	3.1
553.361	3.05
553.704	3.15
554.048	3.3
554.391	3.27
554.734	3.26
555.077	3.13
555.42	2.97
555.764	3.02
556.107	3.18
556.45	3.03
556.793	3.2
557.135	3.2
557.478	3.08
557.821	3.29
558.164	3.31
558.507	3.51
558.849	3.19
559.192	3.36
559.534	3.29
559.877	3.15
560.219	3.31
560.562	3.2
560.904	3.53
561.246	3.33
561.589	3.31
561.931	3.17
562.273	3.09
562.615	3.19
562.957	3.27
563.299	3.25
563.641	3.05
563.983	3.17
564.325	3.31
564.667	3.26
565.008	3.15
565.35	3.29
565.692	3.32
566.033	3.18
566.375	3.4
566.716	3.33
567.058	3.07
567.399	3.3
567.741	3.42
568.082	3.06
568.423	3.19
568.764	3.47
569.105	3.01
569.447	3.25
569.788	2.94
570.129	3.24
570.47	3.46
570.811	3.21
571.151	3.3
571.492	3.19
571.833	3.2
572.174	3.32
572.514	3.29
572.855	3.3
573.195	3.25
573.536	3.34
573.876	3.18
574.217	3.22
574.557	2.94
574.898	3.22
575.238	3.28
575.578	3.41
575.918	3.24
576.258	3.18
576.598	3.26
576.938	3.12
577.278	3.31
577.618	3.21
577.958	3.35
578.298	3.41
578.638	3.28
578.977	3.36
579.317	3.24
579.657	3.29
579.996	3.32
580.336	3.46
580.675	3.42
581.014	3.38
581.354	3.3
581.693	3.53
582.032	3.37
582.372	3.23
582.711	3.22
583.05	3.34
583.389	3.21
583.728	3.4
584.067	3.42
584.406	3.52
584.745	3.21
585.083	3.56
585.422	3.5
585.761	3.52
586.1	3.23
586.438	3.26
586.777	3.23
587.115	3.36
587.454	3.3
587.792	3.59
588.13	3.54
588.469	3.31
588.807	3.54
589.145	3.41
589.483	3.29
589.821	3.38
590.159	3.5
590.497	3.71
590.835	3.63
591.173	3.45
591.511	3.44
591.849	3.48
592.187	3.32
592.524	3.5
592.862	3.47
593.2	3.22
593.537	3.37
593.875	3.41
594.212	3.41
594.55	3.79
594.887	3.54
595.224	3.43
595.561	3.68
595.899	3.54
596.236	3.77
596.573	3.57
596.91	3.41
597.247	3.52
597.584	3.68
597.921	3.79
598.258	3.49
598.594	3.47
598.931	3.37
599.268	3.54
599.604	3.68
599.941	3.47
600.277	3.32
600.614	3.46
600.95	3.46
601.287	3.42
601.623	3.55
601.959	3.53
602.296	3.42
602.632	3.49
602.968	3.75
603.304	3.53
603.64	3.49
603.976	3.79
604.312	3.45
604.648	3.67
604.984	3.42
605.319	3.32
605.655	3.29
605.991	3.51
606.326	3.57
606.662	3.49
606.998	3.4
607.333	3.54
607.668	3.33
608.004	3.72
608.339	3.49
608.674	3.63
609.01	3.46
609.345	3.42
609.68	3.69
610.015	3.63
610.35	3.74
610.685	3.82
611.02	3.46
611.355	3.75
611.689	3.54
612.024	3.72
612.359	3.48
612.694	3.42
613.028	3.4
613.363	3.38
613.697	3.72
614.032	3.63
614.366	3.41
614.7	3.58
615.035	3.42
615.369	3.52
615.703	3.55
616.037	3.65
616.371	3.67
616.705	3.86
617.039	3.88
617.373	3.44
617.707	3.69
618.041	3.65
618.375	3.57
618.709	3.31
619.042	3.6
619.376	3.9
619.71	3.87
620.043	3.44
620.377	3.74
620.71	3.6
621.043	4.01
621.377	3.77
621.71	3.78
622.043	3.8
622.376	3.91
622.709	3.69
623.043	3.57
623.376	4.03
623.709	3.75
624.041	3.49
624.374	3.82
624.707	3.71
625.04	3.63
625.373	3.51
625.705	3.64
626.038	3.64
626.37	4.02
626.703	3.45
627.035	3.76
627.368	3.87
627.7	3.94
628.032	4.01
628.365	3.57
628.697	3.86
629.029	3.74
629.361	3.76
629.693	3.94
630.025	3.86
630.357	3.76
630.689	3.57
631.021	3.8
631.353	3.79
631.684	3.83
632.016	4.11
632.348	3.98
632.679	3.67
633.011	3.9
633.342	3.98
633.674	4.24
634.005	3.74
634.336	4.01
634.668	3.81
634.999	4.11
635.33	4.26
635.661	3.98
635.992	3.55
636.323	4.01
636.654	3.72
636.985	3.49
637.316	3.51
637.647	3.77
637.977	3.14
638.308	4.05
638.639	3.56
638.969	3.88
639.3	3.79
639.63	3.97
639.961	3.62
640.291	3.89
640.622	3.98
640.952	3.5
641.282	3.95
641.612	3.7
641.943	4.22
642.273	3.99
642.603	3.5
642.933	3.81
643.263	3.57
643.592	4.09
643.922	4.35
644.252	3.75
644.582	4.27
644.911	3.81
645.241	4.12
645.571	3.8
645.9	4.07
646.23	4.5
646.559	4.24
646.888	4.09
647.218	3.97
647.547	4.11
647.876	4.09
648.205	3.69
648.534	4.03
648.863	4.05
649.192	3.84
649.521	4.15
649.85	4
650.179	4.44
650.508	3.77
650.837	4.23
651.165	3.87
651.494	4.38
651.822	4.2
652.151	3.87
652.479	4.25
652.808	4.23
653.136	4.62
653.465	3.84
653.793	3.84
654.121	4.45
654.449	3.49
654.777	4.04
655.105	4.27
655.433	4.23
655.761	4.46
656.089	4.12
656.417	4.18
656.745	4.08
657.073	3.97
657.4	4.57
657.728	4.04
658.056	4.3
658.383	4.53
658.711	3.77
659.038	3.79
659.365	3.74
659.693	4.03
660.02	3.78
660.347	4.48
660.674	4.02
661.001	3.86
661.329	3.93
661.656	3.96
661.982	3.88
662.309	4.32
662.636	4.29
662.963	4.26
663.29	4.12
663.616	4.16
663.943	4.26
664.27	4.07
664.596	3.93
664.923	3.68
665.249	4.54
665.576	3.75
665.902	4.41
666.228	3.95
666.554	3.39
666.881	4.07
667.207	4.27
667.533	3.74
667.859	4.41
668.185	4.16
668.511	4.78
668.837	4.17
669.162	5.05
669.488	4.66
669.814	4.03
670.139	4.68
670.465	4.8
670.791	4.36
671.116	3.97
671.442	4.62
671.767	3.4
672.092	4.78
672.418	4.75
672.743	4.35
673.068	4.35
673.393	4.22
673.718	4.75
674.043	4.83
674.368	4.65
674.693	4.3
675.018	3.86
675.343	4.25
675.667	4.37
675.992	4.56
676.317	4.67
676.641	4.43
676.966	4.13
677.29	3.89
677.615	4.5
677.939	4.56
678.264	4.42
678.588	4.93
678.912	5.03
679.236	3.89
679.56	4.44
679.885	4.67
680.209	4.8
680.532	4.81
680.856	4.45
681.18	4.63
681.504	4.1
681.828	4.73
682.152	4.52
682.475	4.78
682.799	4.39
683.122	4.17
683.446	4.27
683.769	4.5
684.093	5.32
684.416	4.65
684.739	4.32
685.062	5.14
685.386	4.63
685.709	4.4
686.032	4.4
686.355	4.93
686.678	4.73
687.001	4.63
687.324	4.78
687.646	4.83
687.969	5.36
688.292	4.15
688.614	5.35
688.937	4.59
689.26	4.24
689.582	5.3
689.904	4.38
690.227	5.27
690.549	5.72
690.871	4.45
691.194	4.82
691.516	4.73
691.838	4.52
692.16	4.61
692.482	4.74
692.804	3.99
693.126	3.83
