Data from 0189_chest_Reflection__1__112.txt Node

Date: Fri Sep 22 21:12:45 CDT 2023
User: ToomeyLab
Spectrometer: FLMS14357
Trigger mode: 0
Integration Time (sec): 1.000000E-2
Scans to average: 100
Electric dark correction enabled: true
Nonlinearity correction enabled: false
Boxcar width: 0
XAxis mode: Wavelengths
Number of Pixels in Spectrum: 2048
>>>>>Begin Spectral Data<<<<<
189.047	20.01
189.435	20.01
189.823	20.01
190.211	258.69
190.599	211.67
190.987	-1536.59
191.375	257.36
191.763	64.36
192.151	223.36
192.538	-395.16
192.926	55.31
193.314	-162.33
193.702	-288.41
194.089	71.22
194.477	301.17
194.864	-184.53
195.252	-6.59
195.639	90.75
196.027	435.75
196.414	495.11
196.801	68.09
197.189	6.01
197.576	104.16
197.963	-162.52
198.351	11.44
198.738	22.83
199.125	0.56
199.512	3.76
199.899	30.86
200.286	10.71
200.673	-4.84
201.06	33.33
201.447	56.55
201.833	-34.7
202.22	44.53
202.607	49.59
202.994	51.47
203.38	20.24
203.767	12.38
204.154	33.81
204.54	20.76
204.927	-4.15
205.313	59.66
205.699	62.49
206.086	41.98
206.472	42.92
206.858	30.18
207.245	-3.49
207.631	26.09
208.017	19.67
208.403	23.81
208.789	24.74
209.175	64.98
209.561	29.47
209.947	44.66
210.333	50.56
210.719	-4.51
211.105	27.55
211.491	17.42
211.876	35.55
212.262	15
212.648	33.25
213.034	36.49
213.419	11.36
213.805	49.51
214.19	29.68
214.576	32.89
214.961	16.05
215.346	15.13
215.732	26.29
216.117	8.32
216.502	31.7
216.888	17.09
217.273	3.92
217.658	15.05
218.043	28.76
218.428	16.63
218.813	-2.22
219.198	27.16
219.583	12.68
219.968	-8.51
220.353	19.97
220.738	2.05
221.122	15.2
221.507	6.76
221.892	6.36
222.276	11.64
222.661	-17.29
223.046	17.22
223.43	28.76
223.815	0.89
224.199	-4.24
224.583	17.03
224.968	10.29
225.352	-4.15
225.736	10.71
226.121	8.51
226.505	1.51
226.889	8.99
227.273	6.79
227.657	3.81
228.041	4.78
228.425	12.74
228.809	3.19
229.193	10.54
229.577	9.36
229.961	8.77
230.344	7.77
230.728	5.31
231.112	6.07
231.495	4.61
231.879	5.65
232.263	5.18
232.646	5.97
233.03	4.29
233.413	6.44
233.797	5.87
234.18	6.21
234.563	8.76
234.946	6.72
235.33	4.19
235.713	4.88
236.096	6.17
236.479	5.41
236.862	6.68
237.245	5.76
237.628	6.98
238.011	6.57
238.394	5.7
238.777	6.52
239.16	6.57
239.543	8.41
239.925	7.13
240.308	6.11
240.691	5.37
241.073	6.44
241.456	4.3
241.838	5.22
242.221	4.5
242.603	5.67
242.986	5.52
243.368	4.98
243.75	5.44
244.133	6.28
244.515	4.84
244.897	4.58
245.279	5.25
245.661	5.38
246.043	5.32
246.425	4.99
246.807	6.44
247.189	3.52
247.571	5.42
247.953	4.87
248.335	4.9
248.717	5.37
249.098	4.71
249.48	4.93
249.862	4.58
250.243	4.56
250.625	5.28
251.006	4.43
251.388	5.25
251.769	4.92
252.151	5.01
252.532	4.13
252.913	6.16
253.295	6.27
253.676	5.38
254.057	5.2
254.438	5.16
254.819	4.3
255.2	4.9
255.581	5.34
255.962	4.7
256.343	4.43
256.724	5.31
257.105	5.5
257.486	5.47
257.867	5.02
258.247	5.11
258.628	5.43
259.009	5.14
259.389	4.98
259.77	4.98
260.15	5.91
260.531	5.2
260.911	5.24
261.292	5.05
261.672	4.3
262.052	4.57
262.432	4.52
262.813	4.81
263.193	4.4
263.573	5.36
263.953	5.26
264.333	4.14
264.713	4.6
265.093	4.26
265.473	3.99
265.853	3.59
266.233	4.36
266.612	4.88
266.992	5.14
267.372	3.97
267.752	4.57
268.131	3.64
268.511	4.61
268.89	4.98
269.27	4.67
269.649	4.81
270.029	4.36
270.408	4.52
270.787	4.34
271.167	4.42
271.546	4.26
271.925	4.72
272.304	3.37
272.683	4.46
273.062	5.05
273.441	4.34
273.82	4.73
274.199	4.5
274.578	4.46
274.957	4.42
275.336	4.18
275.715	4.37
276.093	4.5
276.472	4.15
276.851	4.25
277.229	4.06
277.608	4.87
277.986	4.38
278.365	4.28
278.743	3.99
279.122	5.12
279.5	4.44
279.878	4.06
280.257	4.64
280.635	4.59
281.013	4.52
281.391	4.06
281.769	4.84
282.147	4.27
282.525	3.92
282.903	4.43
283.281	4.26
283.659	4.72
284.037	4.51
284.415	4.64
284.792	4.52
285.17	4.43
285.548	4.56
285.925	4.63
286.303	4.2
286.68	4.21
287.058	3.97
287.435	4
287.813	4.28
288.19	4.21
288.567	4.28
288.945	4.59
289.322	4.51
289.699	4.61
290.076	4.2
290.453	4.01
290.83	3.99
291.207	4.34
291.584	4.07
291.961	3.93
292.338	4.16
292.715	4.82
293.092	4.13
293.469	4.02
293.845	4.13
294.222	4.37
294.599	4.45
294.975	4.69
295.352	4.73
295.728	4.22
296.105	4.13
296.481	4.35
296.858	4.45
297.234	4.54
297.61	4.44
297.986	4.57
298.363	3.89
298.739	4.37
299.115	4.39
299.491	4.54
299.867	4.46
300.243	3.95
300.619	4.31
300.995	4.33
301.371	4.75
301.746	4.51
302.122	4.65
302.498	3.87
302.874	4.54
303.249	4.42
303.625	4.63
304	5.06
304.376	4.33
304.751	4.31
305.127	4.41
305.502	4.72
305.878	4.25
306.253	4.48
306.628	4.49
307.003	4.65
307.378	4.5
307.754	4.47
308.129	4.5
308.504	4.6
308.879	4.54
309.254	4.86
309.629	5.14
310.003	5.31
310.378	4.99
310.753	4.16
311.128	4.95
311.502	4.73
311.877	4.11
312.252	4.52
312.626	4.64
313.001	4.65
313.375	4.68
313.75	4.97
314.124	4.8
314.498	4.13
314.873	4.75
315.247	4.61
315.621	4.45
315.995	4.32
316.369	4.21
316.743	4.41
317.117	4.53
317.491	5.13
317.865	3.91
318.239	5.16
318.613	4.72
318.987	4.24
319.361	4.42
319.734	4.54
320.108	5.05
320.482	4.08
320.855	4.51
321.229	4.91
321.602	4.83
321.976	4.8
322.349	4.25
322.723	4.88
323.096	4.41
323.469	4.74
323.843	4.31
324.216	5.02
324.589	4.82
324.962	4.14
325.335	4.7
325.708	4.5
326.081	4.94
326.454	3.88
326.827	4.62
327.2	4.34
327.573	4.77
327.945	4.42
328.318	4.86
328.691	4.87
329.063	4.52
329.436	4.99
329.809	4.82
330.181	4.29
330.553	4.56
330.926	4.18
331.298	4.95
331.671	4.67
332.043	3.84
332.415	4.47
332.787	5.01
333.159	4.79
333.532	4.37
333.904	4.53
334.276	4.58
334.648	4.09
335.02	4.22
335.391	3.93
335.763	4.55
336.135	4.72
336.507	4.57
336.879	4.16
337.25	4.87
337.622	4.64
337.993	4.72
338.365	4.47
338.736	4.44
339.108	4.92
339.479	4.59
339.851	4.3
340.222	4.26
340.593	4.65
340.964	4.36
341.336	4.4
341.707	4.19
342.078	4.67
342.449	4.53
342.82	4.16
343.191	4.04
343.562	4.32
343.933	4.79
344.303	4.74
344.674	4.66
345.045	4.32
345.416	4.58
345.786	4.34
346.157	4.99
346.527	4.26
346.898	4.2
347.268	4.46
347.639	4.42
348.009	4.31
348.38	4.64
348.75	4.72
349.12	4.23
349.49	4.79
349.861	4.7
350.231	4.43
350.601	4.42
350.971	4.52
351.341	4.5
351.711	4.64
352.081	4.4
352.45	4.15
352.82	4.56
353.19	4.7
353.56	4.25
353.929	4.49
354.299	4.31
354.669	4.66
355.038	4.56
355.408	4.73
355.777	5.03
356.147	4.48
356.516	4.92
356.885	4.62
357.254	4.77
357.624	4.12
357.993	4.6
358.362	4.77
358.731	4.52
359.1	4.28
359.469	4.83
359.838	4.15
360.207	4.16
360.576	4.71
360.945	4.53
361.314	4.77
361.682	4.81
362.051	4.59
362.42	4.39
362.788	4.18
363.157	4.72
363.525	4.44
363.894	4.37
364.262	4.49
364.631	4.5
364.999	4.34
365.367	4.38
365.735	4.37
366.104	4.4
366.472	4.66
366.84	4
367.208	4.61
367.576	4.63
367.944	4.27
368.312	4.42
368.68	4.48
369.048	4.77
369.416	4.77
369.783	4.56
370.151	4.53
370.519	4.62
370.886	4.49
371.254	4.75
371.621	4.37
371.989	4.6
372.356	4.7
372.724	4.83
373.091	4.68
373.458	4.72
373.826	4.89
374.193	4.7
374.56	4.75
374.927	4.55
375.294	4.64
375.661	4.41
376.028	4.8
376.395	4.88
376.762	4.39
377.129	4.7
377.496	4.91
377.863	4.8
378.229	4.82
378.596	4.54
378.963	5.1
379.329	4.55
379.696	4.77
380.062	4.39
380.429	4.84
380.795	4.53
381.161	4.58
381.528	4.61
381.894	4.3
382.26	4.67
382.626	4.57
382.993	4.85
383.359	4.22
383.725	4.31
384.091	4.95
384.457	4.7
384.823	4.39
385.188	4.74
385.554	4.95
385.92	4.79
386.286	4.77
386.651	4.86
387.017	4.61
387.383	4.74
387.748	4.63
388.114	4.63
388.479	4.71
388.845	4.59
389.21	4.6
389.575	4.97
389.94	4.35
390.306	4.81
390.671	4.95
391.036	4.48
391.401	4.65
391.766	4.65
392.131	4.45
392.496	4.78
392.861	4.69
393.226	4.73
393.591	4.78
393.956	4.68
394.32	4.56
394.685	4.49
395.05	4.96
395.414	4.94
395.779	4.76
396.143	4.75
396.508	4.66
396.872	4.81
397.236	4.7
397.601	4.49
397.965	4.9
398.329	4.97
398.694	4.85
399.058	4.75
399.422	4.75
399.786	4.73
400.15	4.75
400.514	4.8
400.878	4.72
401.242	4.95
401.605	4.6
401.969	4.56
402.333	4.86
402.697	4.87
403.06	4.79
403.424	4.54
403.787	4.81
404.151	4.72
404.514	4.85
404.878	4.98
405.241	5.05
405.604	4.78
405.968	4.87
406.331	4.82
406.694	4.62
407.057	4.72
407.42	4.93
407.783	4.73
408.146	4.82
408.509	4.92
408.872	4.71
409.235	4.71
409.598	4.79
409.961	5.04
410.323	5.03
410.686	4.88
411.049	5.16
411.411	5.06
411.774	4.89
412.136	4.84
412.499	4.92
412.861	4.88
413.223	4.95
413.586	4.85
413.948	4.87
414.31	5.03
414.672	4.62
415.035	4.86
415.397	4.96
415.759	5.26
416.121	4.93
416.483	4.94
416.845	4.92
417.206	4.92
417.568	4.74
417.93	4.81
418.292	5.07
418.653	4.68
419.015	5
419.377	4.69
419.738	5.1
420.1	4.69
420.461	4.89
420.822	4.73
421.184	4.84
421.545	4.93
421.906	4.73
422.267	4.76
422.629	4.85
422.99	4.79
423.351	4.6
423.712	4.74
424.073	4.75
424.434	4.89
424.795	4.76
425.155	4.77
425.516	4.78
425.877	4.79
426.238	4.62
426.598	4.81
426.959	4.74
427.32	4.81
427.68	4.85
428.041	4.74
428.401	4.97
428.761	5.04
429.122	4.94
429.482	4.98
429.842	4.89
430.202	4.9
430.563	5.02
430.923	5.03
431.283	4.97
431.643	5.01
432.003	5.09
432.363	5.16
432.722	5.14
433.082	5.15
433.442	4.97
433.802	5.19
434.161	4.92
434.521	5.02
434.881	5.04
435.24	4.96
435.6	4.95
435.959	4.83
436.319	4.92
436.678	5.11
437.037	4.88
437.396	4.87
437.756	4.98
438.115	5.09
438.474	4.94
438.833	5.22
439.192	4.94
439.551	4.96
439.91	5.08
440.269	5.12
440.628	5
440.987	5.04
441.345	5.07
441.704	5.15
442.063	5.02
442.421	4.9
442.78	5.05
443.138	4.94
443.497	4.96
443.855	5.01
444.214	4.88
444.572	5.22
444.93	5.08
445.288	5.04
445.647	5.09
446.005	4.96
446.363	5
446.721	5.04
447.079	4.91
447.437	5.16
447.795	4.95
448.153	4.96
448.51	4.97
448.868	4.91
449.226	4.97
449.584	4.91
449.941	4.95
450.299	5.12
450.656	5.18
451.014	5.11
451.371	5.05
451.729	5.03
452.086	5.01
452.443	5.2
452.801	5.09
453.158	5.01
453.515	5.19
453.872	5.2
454.229	5.15
454.586	5.19
454.943	5.15
455.3	5.14
455.657	5.14
456.014	5.21
456.371	5.14
456.727	5.42
457.084	5.26
457.441	5.15
457.797	5.22
458.154	5.17
458.51	5.21
458.867	5.19
459.223	5.22
459.58	5.21
459.936	5.29
460.292	5.13
460.648	5.36
461.005	5.13
461.361	5.14
461.717	4.95
462.073	5.2
462.429	4.98
462.785	5.08
463.141	5.12
463.496	5.2
463.852	5.09
464.208	5.15
464.564	5.31
464.919	5.22
465.275	5.33
465.631	5.29
465.986	5.38
466.342	5.26
466.697	5.36
467.052	5.28
467.408	5.36
467.763	5.26
468.118	5.4
468.473	5.19
468.829	5.26
469.184	5.27
469.539	5.27
469.894	5.35
470.249	5.34
470.603	5.17
470.958	5.19
471.313	5.42
471.668	5.44
472.023	5.3
472.377	5.28
472.732	5.26
473.086	5.65
473.441	5.34
473.795	5.6
474.15	5.37
474.504	5.39
474.859	5.39
475.213	5.23
475.567	5.23
475.921	5.42
476.275	5.32
476.63	5.23
476.984	5.28
477.338	5.39
477.692	5.32
478.045	5.5
478.399	5.43
478.753	5.36
479.107	5.38
479.461	5.27
479.814	5.33
480.168	5.4
480.521	5.4
480.875	5.4
481.228	5.31
481.582	5.18
481.935	5.43
482.289	5.31
482.642	5.23
482.995	5.45
483.348	5.39
483.701	5.27
484.055	5.29
484.408	5.26
484.761	5.36
485.114	5.16
485.466	5.15
485.819	5.15
486.172	5.11
486.525	5.05
486.878	5.09
487.23	5.1
487.583	5.17
487.936	5.19
488.288	5.31
488.641	5.3
488.993	5.18
489.345	5.23
489.698	5.18
490.05	5.15
490.402	5.2
490.754	5.17
491.107	5.25
491.459	5.28
491.811	5.33
492.163	5.35
492.515	5.38
492.866	5.33
493.218	5.38
493.57	5.36
493.922	5.27
494.274	5.27
494.625	5.22
494.977	5.36
495.328	5.41
495.68	5.49
496.031	5.39
496.383	5.46
496.734	5.51
497.086	5.65
497.437	5.56
497.788	5.6
498.139	5.64
498.49	5.62
498.842	5.46
499.193	5.4
499.544	5.6
499.894	5.6
500.245	5.53
500.596	5.51
500.947	5.66
501.298	5.59
501.648	5.62
501.999	5.57
502.35	5.67
502.7	5.8
503.051	5.59
503.401	5.73
503.752	5.63
504.102	5.52
504.452	5.61
504.803	5.68
505.153	5.69
505.503	5.66
505.853	5.82
506.203	5.66
506.553	5.73
506.903	5.73
507.253	5.69
507.603	5.61
507.953	5.83
508.303	5.78
508.652	5.74
509.002	5.87
509.352	5.73
509.701	5.74
510.051	5.76
510.4	5.83
510.75	5.77
511.099	5.65
511.449	5.79
511.798	5.8
512.147	5.72
512.496	5.74
512.846	5.71
513.195	5.82
513.544	5.84
513.893	5.96
514.242	5.76
514.591	5.94
514.939	5.9
515.288	5.69
515.637	5.84
515.986	5.74
516.334	5.89
516.683	5.79
517.032	6.01
517.38	5.93
517.729	5.95
518.077	5.95
518.426	5.87
518.774	5.92
519.122	5.88
519.47	5.82
519.819	5.95
520.167	5.95
520.515	5.87
520.863	5.82
521.211	5.86
521.559	5.92
521.907	5.89
522.255	5.95
522.602	5.96
522.95	6.01
523.298	5.97
523.645	6.01
523.993	5.98
524.341	5.97
524.688	6.1
525.036	6.03
525.383	6.08
525.73	6.17
526.078	6.11
526.425	6.16
526.772	6.16
527.119	6.07
527.466	5.92
527.814	5.95
528.161	5.96
528.508	6.05
528.854	6.02
529.201	5.97
529.548	6.16
529.895	5.98
530.242	5.95
530.588	5.9
530.935	5.82
531.282	5.84
531.628	5.95
531.975	5.81
532.321	6
532.667	5.97
533.014	6.06
533.36	6.13
533.706	6.14
534.052	6.25
534.399	6.23
534.745	6.17
535.091	6.11
535.437	6.08
535.783	5.99
536.129	6.01
536.474	6.18
536.82	6.12
537.166	6.27
537.512	6.29
537.857	6.28
538.203	6.31
538.549	6.29
538.894	6.18
539.239	6.24
539.585	6.31
539.93	6.36
540.276	6.37
540.621	6.44
540.966	6.43
541.311	6.54
541.656	6.38
542.001	6.55
542.346	6.46
542.691	6.48
543.036	6.39
543.381	6.28
543.726	6.31
544.071	6.29
544.415	6.3
544.76	6.31
545.105	6.31
545.449	6.35
545.794	6.47
546.138	6.5
546.483	6.52
546.827	6.54
547.171	6.66
547.516	6.73
547.86	6.73
548.204	6.69
548.548	6.51
548.892	6.76
549.236	6.69
549.58	6.66
549.924	6.75
550.268	6.86
550.612	6.71
550.956	6.87
551.3	6.82
551.643	6.91
551.987	6.88
552.33	7.1
552.674	6.95
553.017	6.88
553.361	6.85
553.704	6.97
554.048	7.1
554.391	7.15
554.734	7.01
555.077	7
555.42	6.87
555.764	6.98
556.107	7.08
556.45	6.96
556.793	6.95
557.135	7.19
557.478	6.85
557.821	7.28
558.164	7.39
558.507	7.39
558.849	7.21
559.192	7.5
559.534	7.49
559.877	7.34
560.219	7.21
560.562	7.3
560.904	7.32
561.246	7.7
561.589	7.4
561.931	7.23
562.273	7.36
562.615	7.37
562.957	7.28
563.299	7.38
563.641	7.47
563.983	7.58
564.325	7.51
564.667	7.51
565.008	7.5
565.35	7.45
565.692	7.68
566.033	7.46
566.375	7.5
566.716	7.62
567.058	7.6
567.399	7.58
567.741	7.75
568.082	7.58
568.423	7.7
568.764	7.87
569.105	7.34
569.447	7.61
569.788	7.58
570.129	7.9
570.47	7.81
570.811	7.84
571.151	7.75
571.492	7.78
571.833	7.77
572.174	7.77
572.514	7.93
572.855	7.91
573.195	7.69
573.536	8.08
573.876	7.95
574.217	7.87
574.557	7.88
574.898	8.21
575.238	7.91
575.578	8.13
575.918	8.04
576.258	8.07
576.598	8.15
576.938	8.14
577.278	8.27
577.618	8.05
577.958	8.19
578.298	8.29
578.638	8.17
578.977	8.35
579.317	8.2
579.657	8.37
579.996	8.32
580.336	8.5
580.675	8.44
581.014	8.25
581.354	8.37
581.693	8.52
582.032	8.48
582.372	8.57
582.711	8.61
583.05	8.55
583.389	8.72
583.728	8.57
584.067	8.75
584.406	8.89
584.745	8.39
585.083	8.74
585.422	8.75
585.761	8.6
586.1	8.77
586.438	8.73
586.777	8.88
587.115	8.93
587.454	8.74
587.792	8.96
588.13	9.05
588.469	8.82
588.807	9.22
589.145	8.99
589.483	9
589.821	8.96
590.159	8.74
590.497	9.14
590.835	9.12
591.173	9.16
591.511	9.19
591.849	9.27
592.187	9.2
592.524	9.42
592.862	9.17
593.2	9.09
593.537	9.03
593.875	9.12
594.212	9.29
594.55	9.64
594.887	9.48
595.224	9.4
595.561	9.52
595.899	9.54
596.236	9.72
596.573	9.49
596.91	9.37
597.247	9.47
597.584	9.51
597.921	9.79
598.258	10.06
598.594	9.56
598.931	9.6
599.268	9.62
599.604	9.65
599.941	9.8
600.277	9.61
600.614	9.78
600.95	9.97
601.287	9.66
601.623	9.39
601.959	9.88
602.296	9.87
602.632	9.8
602.968	9.92
603.304	10.07
603.64	9.93
603.976	10.08
604.312	10.13
604.648	10.11
604.984	10.39
605.319	10.12
605.655	10.18
605.991	10.18
606.326	10.37
606.662	10.03
606.998	10.02
607.333	10.33
607.668	10.2
608.004	10.51
608.339	9.9
608.674	10.45
609.01	10.34
609.345	10.31
609.68	10.52
610.015	10.72
610.35	10.64
610.685	10.72
611.02	10.77
611.355	10.84
611.689	10.51
612.024	10.79
612.359	10.57
612.694	10.48
613.028	10.71
613.363	10.45
613.697	10.69
614.032	10.66
614.366	10.63
614.7	10.67
615.035	11.09
615.369	10.92
615.703	11.03
616.037	11.24
616.371	11.13
616.705	11.25
617.039	11.1
617.373	10.98
617.707	10.87
618.041	11.31
618.375	11.17
618.709	11.15
619.042	11.12
619.376	11.23
619.71	11.37
620.043	10.79
620.377	11.23
620.71	11.23
621.043	11.69
621.377	11.24
621.71	11.57
622.043	11.62
622.376	11.71
622.709	11.62
623.043	11.72
623.376	11.79
623.709	11.78
624.041	11.48
624.374	11.73
624.707	11.91
625.04	11.88
625.373	11.44
625.705	11.76
626.038	11.5
626.37	11.91
626.703	11.45
627.035	12.07
627.368	11.64
627.7	12.25
628.032	12.06
628.365	12.33
628.697	12.12
629.029	11.97
629.361	12.34
629.693	12.19
630.025	12.01
630.357	11.84
630.689	12.14
631.021	12.24
631.353	12.04
631.684	12.15
632.016	12.3
632.348	12.57
632.679	12.06
633.011	12.52
633.342	12.39
633.674	12.63
634.005	12.49
634.336	12.82
634.668	12.9
634.999	12.45
635.33	12.51
635.661	12.62
635.992	12.85
636.323	12.44
636.654	12.49
636.985	12.61
637.316	12.68
637.647	12.53
637.977	12.5
638.308	13.18
638.639	13.2
638.969	13.1
639.3	12.85
639.63	13.27
639.961	12.9
640.291	12.76
640.622	13.54
640.952	13.03
641.282	13.19
641.612	13.11
641.943	13.25
642.273	13.01
642.603	13.05
642.933	13.14
643.263	12.96
643.592	13.16
643.922	13.47
644.252	13.59
644.582	14.47
644.911	13.5
645.241	13.84
645.571	13.16
645.9	13.44
646.23	14.3
646.559	13.74
646.888	13.7
647.218	13.47
647.547	13.97
647.876	13.5
648.205	13.56
648.534	14.34
648.863	14.39
649.192	13.57
649.521	13.6
649.85	14.16
650.179	14.07
650.508	13.71
650.837	14.33
651.165	13.78
651.494	14.13
651.822	13.9
652.151	13.85
652.479	14.62
652.808	14.37
653.136	14.63
653.465	13.92
653.793	14.12
654.121	14.34
654.449	13.99
654.777	14.53
655.105	14.68
655.433	14.51
655.761	14.93
656.089	14.77
656.417	14.47
656.745	14.71
657.073	14.41
657.4	15.07
657.728	15.22
658.056	14.91
658.383	14.97
658.711	15.03
659.038	14.78
659.365	14.93
659.693	14.64
660.02	15.24
660.347	15.07
660.674	14.98
661.001	14.88
661.329	14.68
661.656	15.05
661.982	14.62
662.309	15.47
662.636	15.36
662.963	15.14
663.29	15.21
663.616	15.06
663.943	15.29
664.27	15.23
664.596	15.17
664.923	15.32
665.249	15.66
665.576	15.19
665.902	15.08
666.228	14.78
666.554	15.36
666.881	16.32
667.207	15.71
667.533	15.54
667.859	15.57
668.185	15.37
668.511	16.21
668.837	15.81
669.162	15.86
669.488	15.89
669.814	15.9
670.139	15.55
670.465	16.21
670.791	15.89
671.116	15.82
671.442	16.79
671.767	15.98
672.092	16.48
672.418	16.55
672.743	16.07
673.068	16.29
673.393	15.82
673.718	16.81
674.043	16.41
674.368	16.47
674.693	16.22
675.018	16.14
675.343	16.65
675.667	16.41
675.992	16.33
676.317	16.61
676.641	16.44
676.966	16.48
677.29	16.44
677.615	16.07
677.939	16.84
678.264	16.06
678.588	16.75
678.912	16.42
679.236	16.52
679.56	16.87
679.885	15.93
680.209	17.12
680.532	16.83
680.856	17.16
681.18	17.57
681.504	16.61
681.828	16.89
682.152	16.73
682.475	18.01
682.799	17.54
683.122	16.88
683.446	17.19
683.769	17.07
684.093	17.18
684.416	17.13
684.739	17.74
685.062	18.14
685.386	17.44
685.709	17.23
686.032	17.12
686.355	17.39
