Data from 0189_forehead_Reflection__2__123.txt Node

Date: Fri Sep 22 21:17:59 CDT 2023
User: ToomeyLab
Spectrometer: FLMS14357
Trigger mode: 0
Integration Time (sec): 1.000000E-2
Scans to average: 100
Electric dark correction enabled: true
Nonlinearity correction enabled: false
Boxcar width: 0
XAxis mode: Wavelengths
Number of Pixels in Spectrum: 2048
>>>>>Begin Spectral Data<<<<<
189.047	86.28
189.435	86.28
189.823	86.28
190.211	-30.97
190.599	-54.55
190.987	-1410.8
191.375	27.22
191.763	72.32
192.151	148.05
192.538	-32.01
192.926	90.63
193.314	150.73
193.702	-322.02
194.089	93.77
194.477	252.28
194.864	-153.41
195.252	131.65
195.639	153.79
196.027	-1414.98
196.414	-653.78
196.801	30.67
197.189	128.74
197.576	116.83
197.963	5.88
198.351	45.15
198.738	107.69
199.125	28.98
199.512	81.1
199.899	51.9
200.286	32.14
200.673	6.54
201.06	37.47
201.447	32.59
201.833	-21.48
202.22	23.38
202.607	33.02
202.994	46.1
203.38	40.13
203.767	52.73
204.154	20.76
204.54	38.82
204.927	23.52
205.313	40.18
205.699	47.7
206.086	62.05
206.472	47.11
206.858	39.11
207.245	31.56
207.631	41.74
208.017	24.25
208.403	22.41
208.789	17.66
209.175	54.03
209.561	71.65
209.947	34.17
210.333	27.38
210.719	12.4
211.105	25.07
211.491	28.37
211.876	46.16
212.262	62.5
212.648	48
213.034	40.31
213.419	22.44
213.805	19.75
214.19	1.57
214.576	34.31
214.961	32.81
215.346	31.89
215.732	38.02
216.117	12.39
216.502	51.64
216.888	28.59
217.273	22.84
217.658	3.11
218.043	22.39
218.428	30.57
218.813	12.27
219.198	29.83
219.583	9.07
219.968	7.38
220.353	39.77
220.738	12.39
221.122	31.5
221.507	8.98
221.892	17.69
222.276	2.62
222.661	-7.01
223.046	25.53
223.43	17.48
223.815	10.2
224.199	7.09
224.583	20.86
224.968	16.76
225.352	10.61
225.736	10.36
226.121	4.28
226.505	10.02
226.889	13.41
227.273	11.89
227.657	9.23
228.041	3.52
228.425	13.61
228.809	6.39
229.193	7.33
229.577	8.69
229.961	5.28
230.344	8.18
230.728	3.15
231.112	5.07
231.495	3.79
231.879	4.21
232.263	3.94
232.646	3.61
233.03	4.48
233.413	4.91
233.797	5.91
234.18	5.87
234.563	6.18
234.946	6.08
235.33	2.85
235.713	3.75
236.096	5.03
236.479	4.38
236.862	6.27
237.245	4.1
237.628	6.16
238.011	6.66
238.394	5.04
238.777	6.95
239.16	4.99
239.543	6.19
239.925	7.16
240.308	6.16
240.691	5.88
241.073	6.83
241.456	5.59
241.838	4.98
242.221	6.35
242.603	4.98
242.986	4.28
243.368	4.33
243.75	4.51
244.133	4.77
244.515	3.9
244.897	3.79
245.279	4.26
245.661	3.86
246.043	4.64
246.425	4.51
246.807	3.97
247.189	3.42
247.571	4.86
247.953	5.06
248.335	4.77
248.717	3.96
249.098	4.09
249.48	3.88
249.862	4.1
250.243	4.09
250.625	4.36
251.006	3.94
251.388	4.43
251.769	4.3
252.151	4.42
252.532	5.18
252.913	5.24
253.295	5.18
253.676	4.8
254.057	4.6
254.438	4.29
254.819	3.92
255.2	4.73
255.581	3.26
255.962	4.58
256.343	4.37
256.724	3.46
257.105	4.19
257.486	4.67
257.867	5.14
258.247	4.97
258.628	4.25
259.009	4.7
259.389	4.58
259.77	4.7
260.15	4.65
260.531	3.57
260.911	4.41
261.292	3.94
261.672	3.75
262.052	3.97
262.432	3.9
262.813	4
263.193	3.49
263.573	4.74
263.953	4.28
264.333	4.32
264.713	3.65
265.093	4.28
265.473	4.04
265.853	4.23
266.233	3.94
266.612	3.88
266.992	4.62
267.372	4.29
267.752	4.64
268.131	4.44
268.511	3.57
268.89	4.08
269.27	4.17
269.649	3.95
270.029	3.97
270.408	4.29
270.787	3.26
271.167	3.59
271.546	3.39
271.925	4.18
272.304	3.49
272.683	4.44
273.062	4.17
273.441	4.01
273.82	4.19
274.199	4.04
274.578	3.91
274.957	3.57
275.336	3.64
275.715	3.65
276.093	3.57
276.472	3.92
276.851	4.08
277.229	3.5
277.608	4.06
277.986	3.64
278.365	4.05
278.743	3.99
279.122	4.19
279.5	4.53
279.878	3.77
280.257	4.55
280.635	4
281.013	4.13
281.391	3.36
281.769	3.97
282.147	3.54
282.525	3.98
282.903	4.48
283.281	3.82
283.659	4.5
284.037	3.69
284.415	4.34
284.792	3.93
285.17	4.15
285.548	4.09
285.925	4.46
286.303	3.84
286.68	3.52
287.058	3.67
287.435	3.59
287.813	3.49
288.19	3.52
288.567	4.03
288.945	3.65
289.322	3.98
289.699	4.1
290.076	4.01
290.453	3.26
290.83	3.87
291.207	3.56
291.584	3.6
291.961	3.56
292.338	4.4
292.715	4.08
293.092	3.98
293.469	4.02
293.845	4.16
294.222	4.35
294.599	4.15
294.975	4.95
295.352	4.57
295.728	4.19
296.105	4.56
296.481	3.82
296.858	4.39
297.234	4.45
297.61	4.29
297.986	4.24
298.363	4.44
298.739	4.4
299.115	4.24
299.491	4.23
299.867	4.27
300.243	4.31
300.619	4.01
300.995	4.25
301.371	4.81
301.746	4.87
302.122	4.47
302.498	4.57
302.874	4.21
303.249	4.5
303.625	4.88
304	5.09
304.376	4.83
304.751	5.14
305.127	4.46
305.502	4.89
305.878	5.28
306.253	4.84
306.628	4.51
307.003	5.15
307.378	5.21
307.754	4.52
308.129	4.98
308.504	5.51
308.879	4.98
309.254	5.12
309.629	5.19
310.003	5.44
310.378	5.38
310.753	5.07
311.128	5.13
311.502	5.21
311.877	4.92
312.252	5.27
312.626	4.92
313.001	5.65
313.375	5.21
313.75	5.99
314.124	5.77
314.498	5.1
314.873	5.44
315.247	6.05
315.621	5.82
315.995	5.83
316.369	5.72
316.743	6.18
317.117	6.13
317.491	6.31
317.865	4.98
318.239	6.34
318.613	5.7
318.987	5.81
319.361	6.45
319.734	5.84
320.108	6.94
320.482	6
320.855	6.22
321.229	6.78
321.602	6.22
321.976	6.59
322.349	6.52
322.723	6.42
323.096	6.64
323.469	6.32
323.843	6.64
324.216	6.89
324.589	6.18
324.962	6.52
325.335	6.42
325.708	6.5
326.081	6.9
326.454	6.75
326.827	7.13
327.2	6.8
327.573	6.97
327.945	6.06
328.318	6.26
328.691	6.84
329.063	6.5
329.436	6.96
329.809	6.89
330.181	6.65
330.553	7.06
330.926	6.28
331.298	7.21
331.671	6.99
332.043	6.62
332.415	7.01
332.787	7.79
333.159	6.99
333.532	6.38
333.904	7.19
334.276	6.48
334.648	6.4
335.02	6.73
335.391	7.42
335.763	7.45
336.135	7.35
336.507	6.89
336.879	6.99
337.25	7
337.622	7.79
337.993	7.46
338.365	7.21
338.736	7.59
339.108	7.93
339.479	7.12
339.851	6.81
340.222	7.45
340.593	6.94
340.964	6.83
341.336	7.53
341.707	7.39
342.078	7.47
342.449	7.46
342.82	7.31
343.191	7.18
343.562	7.64
343.933	7.92
344.303	7.58
344.674	7.5
345.045	7.84
345.416	8
345.786	7.32
346.157	7.8
346.527	7.41
346.898	7.71
347.268	7.37
347.639	7.84
348.009	7.86
348.38	8.29
348.75	8.27
349.12	7.98
349.49	8.09
349.861	7.96
350.231	8.04
350.601	7.99
350.971	8.39
351.341	7.81
351.711	8.05
352.081	7.82
352.45	8.23
352.82	8.69
353.19	8.25
353.56	8.25
353.929	8.38
354.299	8.38
354.669	7.94
355.038	8.04
355.408	8.61
355.777	8.28
356.147	8.71
356.516	8.75
356.885	8.03
357.254	8.55
357.624	8.23
357.993	8.45
358.362	8.86
358.731	8.35
359.1	8.24
359.469	8.53
359.838	8.26
360.207	8.3
360.576	8.58
360.945	8.61
361.314	8.8
361.682	8.71
362.051	8.93
362.42	8.77
362.788	8.59
363.157	8.83
363.525	8.59
363.894	8.64
364.262	8.46
364.631	8.56
364.999	8.57
365.367	9.03
365.735	9.08
366.104	9.02
366.472	9.02
366.84	8.89
367.208	9
367.576	9.14
367.944	8.99
368.312	9.13
368.68	9.16
369.048	9.24
369.416	9.13
369.783	9.28
370.151	8.98
370.519	9.47
370.886	8.94
371.254	9.49
371.621	9.31
371.989	9.45
372.356	9.56
372.724	9.8
373.091	9.39
373.458	9.51
373.826	9.49
374.193	9.67
374.56	9.32
374.927	9.65
375.294	9.47
375.661	9.8
376.028	9.72
376.395	9.83
376.762	9.4
377.129	9.8
377.496	9.86
377.863	9.86
378.229	9.81
378.596	10.04
378.963	9.94
379.329	9.74
379.696	10.03
380.062	9.51
380.429	9.94
380.795	9.87
381.161	9.98
381.528	10.16
381.894	9.79
382.26	10.15
382.626	10.21
382.993	10.2
383.359	9.88
383.725	10.03
384.091	10.37
384.457	10.16
384.823	10.12
385.188	10.16
385.554	10.27
385.92	10.51
386.286	10.54
386.651	10.08
387.017	10.47
387.383	10.04
387.748	10.27
388.114	10.47
388.479	10.5
388.845	10.48
389.21	10.49
389.575	10.61
389.94	10.48
390.306	10.7
390.671	10.78
391.036	10.47
391.401	10.51
391.766	10.47
392.131	10.5
392.496	10.79
392.861	10.59
393.226	10.74
393.591	10.8
393.956	10.69
394.32	10.62
394.685	10.79
395.05	11.1
395.414	11.12
395.779	10.84
396.143	10.87
396.508	10.94
396.872	11
397.236	10.9
397.601	10.96
397.965	11.21
398.329	11
398.694	11.3
399.058	11.24
399.422	10.91
399.786	11.27
400.15	11.07
400.514	11.44
400.878	11.09
401.242	11.35
401.605	11.3
401.969	11.09
402.333	11.49
402.697	11.2
403.06	11.31
403.424	11.49
403.787	11.5
404.151	11.6
404.514	11.64
404.878	11.48
405.241	11.86
405.604	11.55
405.968	11.57
406.331	11.51
406.694	11.48
407.057	11.42
407.42	11.72
407.783	11.65
408.146	11.62
408.509	11.58
408.872	11.59
409.235	11.72
409.598	11.68
409.961	12.02
410.323	11.78
410.686	11.96
411.049	11.97
411.411	11.65
411.774	11.96
412.136	11.94
412.499	11.88
412.861	12.02
413.223	12.12
413.586	11.96
413.948	12
414.31	12.28
414.672	12.13
415.035	12.1
415.397	12.61
415.759	12.44
416.121	12.19
416.483	12.13
416.845	12.23
417.206	12.24
417.568	12.35
417.93	12.37
418.292	12.13
418.653	12.29
419.015	12.23
419.377	12.11
419.738	12.29
420.1	12.19
420.461	12.24
420.822	12.34
421.184	12.24
421.545	12.23
421.906	12.21
422.267	12.28
422.629	12.17
422.99	12.26
423.351	12.17
423.712	12.29
424.073	12.31
424.434	12.45
424.795	12.39
425.155	12.45
425.516	12.36
425.877	12.47
426.238	12.38
426.598	12.31
426.959	12.44
427.32	12.56
427.68	12.56
428.041	12.61
428.401	12.79
428.761	12.82
429.122	12.77
429.482	12.76
429.842	12.79
430.202	12.91
430.563	13.06
430.923	13
431.283	13.29
431.643	13.02
432.003	13.2
432.363	13.36
432.722	13.2
433.082	13.25
433.442	13.28
433.802	13.38
434.161	13.15
434.521	13.34
434.881	13.25
435.24	13.07
435.6	13.17
435.959	13.1
436.319	13.17
436.678	13.32
437.037	13.22
437.396	13.16
437.756	13.45
438.115	13.53
438.474	13.52
438.833	13.69
439.192	13.4
439.551	13.58
439.91	13.57
440.269	13.71
440.628	13.39
440.987	13.56
441.345	13.57
441.704	13.58
442.063	13.51
442.421	13.44
442.78	13.64
443.138	13.53
443.497	13.61
443.855	13.61
444.214	13.63
444.572	13.87
444.93	13.74
445.288	13.98
445.647	13.93
446.005	13.93
446.363	13.92
446.721	14.13
447.079	13.77
447.437	14
447.795	13.95
448.153	13.83
448.51	13.75
448.868	13.72
449.226	13.84
449.584	13.91
449.941	13.84
450.299	14.06
450.656	14.19
451.014	14.2
451.371	14.25
451.729	14.33
452.086	14.23
452.443	14.25
452.801	14.44
453.158	14.37
453.515	14.69
453.872	14.52
454.229	14.55
454.586	14.5
454.943	14.44
455.3	14.59
455.657	14.6
456.014	14.51
456.371	14.66
456.727	14.76
457.084	14.63
457.441	14.78
457.797	14.73
458.154	14.78
458.51	14.71
458.867	14.79
459.223	15.03
459.58	15
459.936	14.98
460.292	14.89
460.648	14.95
461.005	14.97
461.361	14.91
461.717	14.69
462.073	14.68
462.429	14.48
462.785	14.78
463.141	14.84
463.496	15.12
463.852	15.16
464.208	15.13
464.564	15.3
464.919	15.32
465.275	15.44
465.631	15.28
465.986	15.33
466.342	15.56
466.697	15.35
467.052	15.35
467.408	15.37
467.763	15.6
468.118	15.62
468.473	15.4
468.829	15.48
469.184	15.45
469.539	15.49
469.894	15.61
470.249	15.62
470.603	15.7
470.958	15.68
471.313	15.68
471.668	15.84
472.023	15.71
472.377	15.96
472.732	15.86
473.086	16
473.441	15.7
473.795	16.22
474.15	15.88
474.504	16.03
474.859	16.24
475.213	16.07
475.567	15.99
475.921	16.23
476.275	16.13
476.63	15.99
476.984	16
477.338	16.38
477.692	16.26
478.045	16.32
478.399	16.29
478.753	16.12
479.107	16.13
479.461	16.11
479.814	16.44
480.168	16.21
480.521	16.28
480.875	16.38
481.228	16.31
481.582	16.35
481.935	16.35
482.289	16.51
482.642	16.46
482.995	16.4
483.348	16.47
483.701	16.36
484.055	16.38
484.408	16.31
484.761	16.21
485.114	16.07
485.466	15.88
485.819	15.68
486.172	15.64
486.525	15.71
486.878	15.79
487.23	15.95
487.583	16.13
487.936	16.31
488.288	16.36
488.641	16.36
488.993	16.26
489.345	16.16
489.698	16.14
490.05	16.11
490.402	16.14
490.754	16.18
491.107	16.37
491.459	16.53
491.811	16.72
492.163	16.81
492.515	16.82
492.866	16.81
493.218	16.78
493.57	16.61
493.922	16.41
494.274	16.52
494.625	16.68
494.977	16.83
495.328	17.07
495.68	17.19
496.031	17.15
496.383	17.33
496.734	17.35
497.086	17.56
497.437	17.57
497.788	17.56
498.139	17.68
498.49	17.78
498.842	17.51
499.193	17.41
499.544	17.58
499.894	17.66
500.245	17.53
500.596	17.66
500.947	17.72
501.298	17.88
501.648	17.89
501.999	17.85
502.35	17.92
502.7	18.04
503.051	17.93
503.401	17.94
503.752	17.91
504.102	18.09
504.452	18.18
504.803	18.14
505.153	18.25
505.503	18.18
505.853	18.29
506.203	18.18
506.553	18.23
506.903	18.2
507.253	18.2
507.603	18.39
507.953	18.56
508.303	18.51
508.652	18.45
509.002	18.59
509.352	18.5
509.701	18.41
510.051	18.43
510.4	18.56
510.75	18.52
511.099	18.33
511.449	18.54
511.798	18.56
512.147	18.58
512.496	18.48
512.846	18.53
513.195	18.57
513.544	18.63
513.893	18.77
514.242	18.62
514.591	18.86
514.939	18.73
515.288	18.81
515.637	18.87
515.986	18.75
516.334	18.95
516.683	18.95
517.032	19.02
517.38	19.14
517.729	19.2
518.077	19.13
518.426	19.02
518.774	19.1
519.122	19.14
519.47	19.01
519.819	19.17
520.167	19.05
520.515	18.98
520.863	18.87
521.211	18.92
521.559	19.05
521.907	19.07
522.255	19.27
522.602	19.31
522.95	19.49
523.298	19.44
523.645	19.57
523.993	19.45
524.341	19.66
524.688	19.52
525.036	19.63
525.383	19.67
525.73	19.83
526.078	19.71
526.425	19.66
526.772	19.75
527.119	19.62
527.466	19.43
527.814	19.36
528.161	19.36
528.508	19.39
528.854	19.55
529.201	19.53
529.548	19.48
529.895	19.44
530.242	19.35
530.588	19.12
530.935	18.92
531.282	19.06
531.628	19.22
531.975	19.34
532.321	19.42
532.667	19.6
533.014	19.86
533.36	19.96
533.706	19.92
534.052	20.08
534.399	19.96
534.745	19.93
535.091	19.81
535.437	19.72
535.783	19.57
536.129	19.8
536.474	19.89
536.82	20
537.166	20.23
537.512	20.33
537.857	20.24
538.203	20.35
538.549	20.29
538.894	20.27
539.239	20.24
539.585	20.31
539.93	20.55
540.276	20.62
540.621	20.76
540.966	20.78
541.311	20.81
541.656	20.71
542.001	20.8
542.346	20.73
542.691	20.79
543.036	20.47
543.381	20.2
543.726	20.19
544.071	20.23
544.415	20.34
544.76	20.37
545.105	20.5
545.449	20.55
545.794	20.73
546.138	20.94
546.483	20.95
546.827	20.96
547.171	21.01
547.516	21.2
547.86	21.22
548.204	21.16
548.548	21.11
548.892	21.16
549.236	20.99
549.58	21.33
549.924	21.31
550.268	21.48
550.612	21.4
550.956	21.63
551.3	21.76
551.643	21.61
551.987	21.73
552.33	21.86
552.674	21.82
553.017	21.89
553.361	22.06
553.704	22.11
554.048	21.95
554.391	22.07
554.734	21.82
555.077	21.85
555.42	21.88
555.764	21.92
556.107	22.12
556.45	22.1
556.793	22.22
557.135	22.2
557.478	22.15
557.821	22.23
558.164	22.2
558.507	22.6
558.849	22.27
559.192	22.42
559.534	22.63
559.877	22.55
560.219	22.46
560.562	22.51
560.904	22.54
561.246	22.69
561.589	22.68
561.931	22.75
562.273	22.51
562.615	22.55
562.957	22.59
563.299	22.81
563.641	22.87
563.983	22.85
564.325	22.97
564.667	22.79
565.008	22.82
565.35	23.13
565.692	23.16
566.033	22.93
566.375	23.04
566.716	22.73
567.058	22.85
567.399	22.97
567.741	23.17
568.082	23.08
568.423	22.98
568.764	23.03
569.105	22.78
569.447	23.04
569.788	23.06
570.129	23.36
570.47	23.23
570.811	23.36
571.151	23.31
571.492	23.25
571.833	23.26
572.174	23.47
572.514	23.29
572.855	23.3
573.195	23.21
573.536	23.43
573.876	23.22
574.217	23.49
574.557	23.32
574.898	23.46
575.238	23.39
575.578	23.65
575.918	23.76
576.258	23.57
576.598	23.61
576.938	23.74
577.278	23.76
577.618	23.53
577.958	23.82
578.298	23.86
578.638	23.83
578.977	24.08
579.317	23.81
579.657	24.01
579.996	24.12
580.336	24.33
580.675	24.18
581.014	24.13
581.354	24.18
581.693	24.35
582.032	24.15
582.372	24.38
582.711	24.19
583.05	24.52
583.389	24.27
583.728	24.45
584.067	24.7
584.406	24.58
584.745	24.3
585.083	24.6
585.422	24.63
585.761	24.51
586.1	24.69
586.438	24.5
586.777	24.84
587.115	24.81
587.454	24.75
587.792	24.89
588.13	24.87
588.469	24.86
588.807	25.16
589.145	24.72
589.483	24.85
589.821	24.7
590.159	24.85
590.497	25.15
590.835	25.08
591.173	24.99
591.511	25.06
591.849	25.07
592.187	24.78
592.524	24.99
592.862	25.05
593.2	24.89
593.537	24.76
593.875	25.24
594.212	25.25
594.55	25.38
594.887	25.47
595.224	25.36
595.561	25.55
595.899	25.4
596.236	25.38
596.573	25.31
596.91	25.58
597.247	25.48
597.584	25.57
597.921	25.77
598.258	25.55
598.594	25.41
598.931	25.44
599.268	25.25
599.604	25.3
599.941	25.5
600.277	25.32
600.614	25.49
600.95	25.74
601.287	25.56
601.623	25.74
601.959	25.64
602.296	25.89
602.632	25.69
602.968	26.23
603.304	25.8
603.64	25.83
603.976	25.89
604.312	26.03
604.648	25.71
604.984	26.17
605.319	25.78
605.655	25.87
605.991	25.85
606.326	26.15
606.662	25.83
606.998	25.81
607.333	26.08
607.668	26
608.004	26.19
608.339	25.99
608.674	26.29
609.01	26.36
609.345	26.07
609.68	26.5
610.015	26.15
610.35	26.23
610.685	26.39
611.02	26.47
611.355	26.45
611.689	26.16
612.024	26.24
612.359	26.09
612.694	26.51
613.028	26.44
613.363	26.31
613.697	26.43
614.032	26.51
614.366	26.68
614.7	26.62
615.035	26.88
615.369	26.69
615.703	26.85
616.037	26.84
616.371	26.74
616.705	26.92
617.039	26.92
617.373	26.69
617.707	27.03
618.041	27.17
618.375	26.85
618.709	26.83
619.042	27.16
619.376	27.23
619.71	26.85
620.043	26.56
620.377	26.83
620.71	27.05
621.043	27.1
621.377	26.92
621.71	27.42
622.043	27.01
622.376	27.51
622.709	27.65
623.043	27.45
623.376	27.71
623.709	27.13
624.041	27.58
624.374	27.34
624.707	27.67
625.04	27.43
625.373	27.43
625.705	27.74
626.038	27.82
626.37	27.77
626.703	27.46
627.035	27.21
627.368	27.86
627.7	27.48
628.032	27.58
628.365	27.64
628.697	27.79
629.029	27.82
629.361	27.54
629.693	27.69
630.025	27.56
630.357	27.6
630.689	27.7
631.021	27.92
631.353	27.82
631.684	27.89
632.016	27.92
632.348	28.4
632.679	27.69
633.011	27.8
633.342	28.14
633.674	28.6
634.005	28.15
634.336	28.19
634.668	28.08
634.999	28.16
635.33	28.28
635.661	28.15
635.992	28.45
636.323	28.37
636.654	27.87
636.985	28.06
637.316	27.74
637.647	28.25
637.977	28.33
638.308	28.83
638.639	28.77
638.969	28.51
639.3	28.56
639.63	28.87
639.961	28.5
640.291	28.64
640.622	28.29
640.952	28.49
641.282	28.62
641.612	28.55
641.943	28.93
642.273	29.11
642.603	28.33
642.933	28.79
643.263	28.43
643.592	28.68
643.922	29.1
644.252	28.87
644.582	29.25
644.911	29.12
645.241	29.14
645.571	28.91
645.9	29.52
646.23	29.53
646.559	29.35
646.888	29.51
647.218	28.76
647.547	29.19
647.876	29.12
648.205	28.74
648.534	29.16
648.863	28.98
649.192	29.46
649.521	29.69
649.85	29.4
650.179	29.21
650.508	29.12
650.837	28.73
651.165	29.71
651.494	29.62
651.822	29.47
652.151	29.79
652.479	29.14
652.808	29.2
653.136	29.54
653.465	29.43
653.793	29.23
654.121	29.63
654.449	28.58
654.777	29.46
655.105	29.9
655.433	29.66
655.761	29.7
656.089	29.74
656.417	29.95
656.745	29.57
657.073	29.66
657.4	30.72
657.728	30.08
658.056	30.26
658.383	29.79
658.711	29.61
659.038	30.29
659.365	29.71
659.693	30
660.02	30.16
660.347	30.07
660.674	30.01
661.001	30.17
661.329	29.55
661.656	30.33
661.982	29.71
662.309	30.1
662.636	29.54
662.963	30.07
663.29	30.36
663.616	30.45
663.943	30.52
664.27	30.31
664.596	30.81
664.923	30.04
665.249	30.55
665.576	30.2
665.902	30.5
666.228	30.4
666.554	29.99
666.881	31.39
667.207	30.34
667.533	30.1
667.859	30.25
668.185	30.63
668.511	31.09
668.837	30.1
669.162	30.34
669.488	30.92
669.814	30.48
670.139	30.64
670.465	30.77
670.791	31.24
671.116	30.92
671.442	30.86
671.767	30.37
672.092	31.44
672.418	31.26
672.743	31.02
673.068	31.06
