Data from 0189_chest_Reflection__0__111.txt Node

Date: Fri Sep 22 21:12:35 CDT 2023
User: ToomeyLab
Spectrometer: FLMS14357
Trigger mode: 0
Integration Time (sec): 1.000000E-2
Scans to average: 100
Electric dark correction enabled: true
Nonlinearity correction enabled: false
Boxcar width: 0
XAxis mode: Wavelengths
Number of Pixels in Spectrum: 2048
>>>>>Begin Spectral Data<<<<<
189.047	-58.76
189.435	-58.76
189.823	-58.76
190.211	-7.49
190.599	62.2
190.987	-680.49
191.375	302.31
191.763	315.92
192.151	-12.55
192.538	543.81
192.926	103.12
193.314	153.76
193.702	-226.05
194.089	101.98
194.477	152.15
194.864	-26.7
195.252	22.76
195.639	0.51
196.027	3207.25
196.414	1600.44
196.801	150.42
197.189	-53.07
197.576	66.09
197.963	-107.71
198.351	-7.68
198.738	34.71
199.125	21.1
199.512	56.3
199.899	47.4
200.286	35.25
200.673	25.12
201.06	7.72
201.447	37.96
201.833	2.14
202.22	28.86
202.607	32.27
202.994	49.62
203.38	6.94
203.767	16.73
204.154	17.04
204.54	26.44
204.927	24.13
205.313	71.88
205.699	43.78
206.086	44.8
206.472	32.94
206.858	27.25
207.245	12.12
207.631	28.28
208.017	21.52
208.403	11.93
208.789	19.9
209.175	40.71
209.561	45.05
209.947	22.35
210.333	18.65
210.719	-2.94
211.105	35.39
211.491	15.06
211.876	29.83
212.262	33.13
212.648	4.75
213.034	33.13
213.419	-4.6
213.805	17.19
214.19	17.29
214.576	23.01
214.961	6.49
215.346	21.88
215.732	28.75
216.117	-17.2
216.502	30.28
216.888	19.16
217.273	23.9
217.658	14.73
218.043	13.55
218.428	34.03
218.813	-0.08
219.198	6.82
219.583	10.79
219.968	6.75
220.353	41.94
220.738	-9.04
221.122	19.31
221.507	9.93
221.892	1.34
222.276	6.59
222.661	-34.43
223.046	18.51
223.43	16.64
223.815	10.74
224.199	1.97
224.583	5.37
224.968	18.27
225.352	2.79
225.736	9.77
226.121	9.07
226.505	10.56
226.889	13.09
227.273	14.64
227.657	8.74
228.041	2.03
228.425	11.6
228.809	5.5
229.193	2.22
229.577	6.78
229.961	6.79
230.344	8.05
230.728	3.84
231.112	5.98
231.495	4.87
231.879	4.72
232.263	3.94
232.646	5.2
233.03	4.39
233.413	5.09
233.797	6.26
234.18	5.02
234.563	8.28
234.946	6.99
235.33	1.75
235.713	5.1
236.096	4.64
236.479	4.22
236.862	7.21
237.245	8.28
237.628	6.8
238.011	5.42
238.394	6.08
238.777	5.36
239.16	5.02
239.543	7.67
239.925	5.96
240.308	5.46
240.691	7.62
241.073	6.48
241.456	7.35
241.838	3.79
242.221	4.9
242.603	5.65
242.986	4.86
243.368	3.71
243.75	5.97
244.133	5.76
244.515	5.17
244.897	4.68
245.279	4.73
245.661	4.58
246.043	4.92
246.425	3.92
246.807	4.94
247.189	3.94
247.571	4.92
247.953	4.86
248.335	4.94
248.717	4.75
249.098	4.76
249.48	4.42
249.862	4.58
250.243	4.59
250.625	4.89
251.006	4.52
251.388	4.92
251.769	5.11
252.151	4.93
252.532	5.61
252.913	5.22
253.295	5.58
253.676	4.32
254.057	4.93
254.438	5.19
254.819	4.77
255.2	4.55
255.581	4.55
255.962	5.11
256.343	3.88
256.724	3.79
257.105	3.86
257.486	3.66
257.867	5.06
258.247	5.95
258.628	5.13
259.009	4.13
259.389	4.38
259.77	5.77
260.15	4.99
260.531	4.58
260.911	4.32
261.292	4.48
261.672	4.12
262.052	4.45
262.432	4.23
262.813	4.45
263.193	3.92
263.573	5
263.953	4
264.333	4.27
264.713	3.94
265.093	4.16
265.473	4
265.853	4.31
266.233	4.35
266.612	4.8
266.992	5.07
267.372	4.36
267.752	5.52
268.131	4.07
268.511	4.01
268.89	5.04
269.27	4.12
269.649	3.9
270.029	4.07
270.408	3.95
270.787	4.6
271.167	4.77
271.546	4
271.925	4.22
272.304	4.3
272.683	4.02
273.062	5.02
273.441	4.01
273.82	4.53
274.199	4.13
274.578	4.58
274.957	3.91
275.336	4.37
275.715	3.99
276.093	3.61
276.472	4.09
276.851	4.39
277.229	4.71
277.608	5.02
277.986	4.1
278.365	4.64
278.743	4.21
279.122	4.19
279.5	4.87
279.878	3.85
280.257	4.55
280.635	3.28
281.013	5.13
281.391	3.78
281.769	3.73
282.147	3.83
282.525	4.11
282.903	4.16
283.281	4.23
283.659	4.77
284.037	4.34
284.415	4.5
284.792	3.87
285.17	4.05
285.548	4.34
285.925	4.44
286.303	4.29
286.68	3.93
287.058	3.86
287.435	4.33
287.813	4.02
288.19	3.94
288.567	4.4
288.945	4.03
289.322	4.15
289.699	4.15
290.076	4.58
290.453	4.55
290.83	3.99
291.207	3.71
291.584	3.82
291.961	3.98
292.338	4.51
292.715	4.58
293.092	4.11
293.469	4.32
293.845	4.33
294.222	3.87
294.599	4.93
294.975	4.78
295.352	4.43
295.728	4.27
296.105	4.59
296.481	4.03
296.858	4.44
297.234	4.24
297.61	4.18
297.986	4.59
298.363	4.08
298.739	4.34
299.115	4.39
299.491	4.34
299.867	4.35
300.243	3.99
300.619	4.38
300.995	4.15
301.371	4.77
301.746	4.29
302.122	4.3
302.498	4.24
302.874	3.95
303.249	3.91
303.625	4.56
304	4.81
304.376	4.63
304.751	4.43
305.127	4.09
305.502	4.78
305.878	3.97
306.253	4.39
306.628	4.22
307.003	4.63
307.378	4.76
307.754	4.16
308.129	4.28
308.504	4.36
308.879	4.34
309.254	4.49
309.629	4.32
310.003	4.79
310.378	4.97
310.753	4.91
311.128	4.14
311.502	4.58
311.877	4.3
312.252	4.08
312.626	4.27
313.001	4.75
313.375	5.07
313.75	4.46
314.124	4.78
314.498	3.76
314.873	4.32
315.247	4.73
315.621	4.44
315.995	4.41
316.369	4.71
316.743	4.34
317.117	4.86
317.491	4.85
317.865	4.44
318.239	4.72
318.613	4.43
318.987	4.42
319.361	4.74
319.734	4.38
320.108	5.16
320.482	4.02
320.855	4.46
321.229	4.82
321.602	4.47
321.976	4.57
322.349	4.58
322.723	4.78
323.096	4.41
323.469	4.71
323.843	4.41
324.216	4.79
324.589	4.76
324.962	4.9
325.335	4.69
325.708	4.64
326.081	4.95
326.454	3.94
326.827	4.62
327.2	4.37
327.573	4.57
327.945	4.44
328.318	4.74
328.691	4.87
329.063	4.23
329.436	4.73
329.809	5
330.181	4.63
330.553	4.4
330.926	4.21
331.298	4.82
331.671	4.19
332.043	4.28
332.415	4.46
332.787	5.02
333.159	4.08
333.532	4.22
333.904	3.96
334.276	4.07
334.648	4.57
335.02	3.96
335.391	4.72
335.763	5.02
336.135	4.53
336.507	5.05
336.879	4.32
337.25	4.6
337.622	4.49
337.993	4.36
338.365	5.03
338.736	4.71
339.108	4.63
339.479	4.63
339.851	3.95
340.222	4.66
340.593	4.48
340.964	4.29
341.336	4.71
341.707	4.43
342.078	4.73
342.449	4.52
342.82	4.2
343.191	4.19
343.562	4.12
343.933	4.53
344.303	4.35
344.674	4.67
345.045	4.17
345.416	5.05
345.786	4.34
346.157	4.42
346.527	4.06
346.898	4.6
347.268	4.59
347.639	4.64
348.009	4.49
348.38	4.68
348.75	4.8
349.12	4.16
349.49	4.72
349.861	4.82
350.231	4.37
350.601	4.61
350.971	4.91
351.341	4.53
351.711	4.43
352.081	4.15
352.45	4.56
352.82	4.62
353.19	4.85
353.56	4.44
353.929	4.67
354.299	4.46
354.669	4.54
355.038	4.53
355.408	4.4
355.777	4.88
356.147	4.69
356.516	4.75
356.885	4.19
357.254	4.69
357.624	4.29
357.993	4.69
358.362	4.29
358.731	4.61
359.1	4.46
359.469	4.77
359.838	4.24
360.207	4.33
360.576	4.69
360.945	4.22
361.314	4.68
361.682	5
362.051	4.66
362.42	4.49
362.788	4.51
363.157	4.81
363.525	4.57
363.894	4.46
364.262	4.33
364.631	4.52
364.999	4.57
365.367	4.49
365.735	4.62
366.104	4.6
366.472	4.99
366.84	4.47
367.208	4.99
367.576	4.76
367.944	4.76
368.312	4.59
368.68	4.64
369.048	4.8
369.416	4.32
369.783	4.43
370.151	4.41
370.519	4.57
370.886	4.55
371.254	4.99
371.621	4.57
371.989	4.86
372.356	4.6
372.724	4.99
373.091	4.74
373.458	4.76
373.826	4.52
374.193	4.75
374.56	4.63
374.927	4.83
375.294	4.39
375.661	4.42
376.028	4.77
376.395	4.63
376.762	4.47
377.129	4.86
377.496	5.01
377.863	4.82
378.229	4.82
378.596	4.65
378.963	4.79
379.329	4.54
379.696	4.91
380.062	4.27
380.429	4.65
380.795	4.75
381.161	4.73
381.528	4.75
381.894	4.38
382.26	4.7
382.626	4.71
382.993	4.58
383.359	4.57
383.725	4.6
384.091	4.6
384.457	4.35
384.823	4.53
385.188	4.78
385.554	4.68
385.92	5.15
386.286	4.62
386.651	4.5
387.017	4.67
387.383	4.64
387.748	4.82
388.114	4.68
388.479	4.67
388.845	4.49
389.21	4.61
389.575	5.12
389.94	4.66
390.306	4.83
390.671	5.13
391.036	4.23
391.401	4.72
391.766	4.59
392.131	4.73
392.496	4.69
392.861	4.85
393.226	4.65
393.591	4.7
393.956	4.79
394.32	4.75
394.685	4.63
395.05	4.91
395.414	4.78
395.779	4.87
396.143	4.94
396.508	4.74
396.872	4.63
397.236	4.98
397.601	4.49
397.965	4.8
398.329	4.8
398.694	4.77
399.058	4.81
399.422	4.71
399.786	4.97
400.15	4.92
400.514	4.81
400.878	4.58
401.242	4.75
401.605	4.79
401.969	4.66
402.333	5
402.697	4.77
403.06	4.69
403.424	4.61
403.787	4.86
404.151	4.77
404.514	4.87
404.878	4.92
405.241	5.21
405.604	4.92
405.968	4.8
406.331	4.96
406.694	4.9
407.057	4.63
407.42	4.78
407.783	4.98
408.146	4.74
408.509	4.65
408.872	4.92
409.235	4.78
409.598	4.45
409.961	4.72
410.323	5.03
410.686	5.03
411.049	4.97
411.411	5.16
411.774	4.82
412.136	4.77
412.499	4.81
412.861	4.9
413.223	4.82
413.586	4.7
413.948	5.07
414.31	4.64
414.672	4.87
415.035	5.09
415.397	5.21
415.759	5.17
416.121	4.9
416.483	4.86
416.845	4.87
417.206	4.7
417.568	4.79
417.93	4.73
418.292	4.96
418.653	4.85
419.015	4.98
419.377	4.86
419.738	4.98
420.1	4.7
420.461	4.84
420.822	4.85
421.184	4.81
421.545	4.72
421.906	4.75
422.267	4.88
422.629	4.88
422.99	4.82
423.351	4.72
423.712	4.76
424.073	4.78
424.434	4.82
424.795	4.72
425.155	4.98
425.516	4.78
425.877	4.88
426.238	4.68
426.598	4.83
426.959	4.79
427.32	4.83
427.68	4.8
428.041	4.78
428.401	4.82
428.761	4.84
429.122	4.85
429.482	4.92
429.842	4.84
430.202	4.74
430.563	4.95
430.923	4.89
431.283	5.02
431.643	5.31
432.003	4.94
432.363	5.13
432.722	5.09
433.082	5.12
433.442	4.8
433.802	5.12
434.161	4.95
434.521	5.1
434.881	5.03
435.24	4.9
435.6	4.77
435.959	4.96
436.319	4.96
436.678	5.06
437.037	4.86
437.396	4.91
437.756	5.07
438.115	5.07
438.474	4.99
438.833	4.89
439.192	5.04
439.551	5.01
439.91	5.13
440.269	5.2
440.628	4.81
440.987	4.95
441.345	5.03
441.704	5.08
442.063	4.99
442.421	4.97
442.78	5.07
443.138	4.97
443.497	4.98
443.855	5.08
444.214	4.76
444.572	5.08
444.93	5.04
445.288	5.01
445.647	5.19
446.005	4.93
446.363	5.02
446.721	4.95
447.079	4.98
447.437	5.06
447.795	5.12
448.153	4.91
448.51	5
448.868	4.9
449.226	5
449.584	5.02
449.941	4.92
450.299	5.01
450.656	5.09
451.014	5.07
451.371	5.09
451.729	5.12
452.086	5.04
452.443	5.13
452.801	5.16
453.158	5.07
453.515	5.24
453.872	5.13
454.229	5.24
454.586	5.17
454.943	5.05
455.3	4.98
455.657	5.13
456.014	5.03
456.371	5.16
456.727	5.28
457.084	5.1
457.441	5
457.797	5.07
458.154	5.33
458.51	5.07
458.867	5.03
459.223	5.14
459.58	5.49
459.936	5.4
460.292	5.17
460.648	5.28
461.005	5.18
461.361	5.19
461.717	4.91
462.073	5.03
462.429	4.95
462.785	5
463.141	5.05
463.496	5.2
463.852	5.12
464.208	5.18
464.564	5.32
464.919	5.22
465.275	5.4
465.631	5.32
465.986	5.41
466.342	5.31
466.697	5.27
467.052	5.32
467.408	5.24
467.763	5.12
468.118	5.3
468.473	5.29
468.829	5.3
469.184	5.28
469.539	5.27
469.894	5.22
470.249	5.22
470.603	5.2
470.958	5.34
471.313	5.34
471.668	5.35
472.023	5.39
472.377	5.24
472.732	5.16
473.086	5.62
473.441	5.09
473.795	5.47
474.15	5.17
474.504	5.32
474.859	5.33
475.213	5.23
475.567	5.18
475.921	5.34
476.275	5.32
476.63	5.25
476.984	5.25
477.338	5.45
477.692	5.31
478.045	5.51
478.399	5.47
478.753	5.37
479.107	5.3
479.461	5.24
479.814	5.51
480.168	5.22
480.521	5.4
480.875	5.49
481.228	5.28
481.582	5.25
481.935	5.45
482.289	5.26
482.642	5.39
482.995	5.38
483.348	5.49
483.701	5.23
484.055	5.28
484.408	5.2
484.761	5.41
485.114	5.16
485.466	5.14
485.819	5.13
486.172	5.05
486.525	5.03
486.878	5.07
487.23	5.12
487.583	5.19
487.936	5.17
488.288	5.3
488.641	5.28
488.993	5.19
489.345	5.18
489.698	5.19
490.05	5.17
490.402	5.16
490.754	5.14
491.107	5.21
491.459	5.3
491.811	5.25
492.163	5.26
492.515	5.45
492.866	5.4
493.218	5.37
493.57	5.38
493.922	5.21
494.274	5.3
494.625	5.25
494.977	5.33
495.328	5.42
495.68	5.47
496.031	5.41
496.383	5.56
496.734	5.48
497.086	5.54
497.437	5.6
497.788	5.44
498.139	5.61
498.49	5.62
498.842	5.43
499.193	5.41
499.544	5.53
499.894	5.48
500.245	5.52
500.596	5.59
500.947	5.64
501.298	5.61
501.648	5.66
501.999	5.57
502.35	5.6
502.7	5.71
503.051	5.64
503.401	5.68
503.752	5.56
504.102	5.65
504.452	5.63
504.803	5.46
505.153	5.49
505.503	5.69
505.853	5.75
506.203	5.51
506.553	5.84
506.903	5.72
507.253	5.64
507.603	5.81
507.953	5.78
508.303	5.78
508.652	5.82
509.002	5.8
509.352	5.71
509.701	5.82
510.051	5.69
510.4	5.72
510.75	5.72
511.099	5.59
511.449	5.81
511.798	5.8
512.147	5.64
512.496	5.7
512.846	5.74
513.195	5.76
513.544	5.87
513.893	5.77
514.242	5.79
514.591	5.71
514.939	5.84
515.288	5.8
515.637	5.89
515.986	5.76
516.334	5.86
516.683	5.76
517.032	5.97
517.38	5.84
517.729	5.87
518.077	5.91
518.426	5.9
518.774	5.92
519.122	5.98
519.47	5.87
519.819	5.96
520.167	5.97
520.515	5.81
520.863	5.79
521.211	5.88
521.559	5.98
521.907	5.91
522.255	5.91
522.602	5.93
522.95	5.9
523.298	6.03
523.645	6.19
523.993	5.97
524.341	5.89
524.688	5.95
525.036	6.05
525.383	6.1
525.73	6.06
526.078	6.11
526.425	5.88
526.772	6.22
527.119	6.05
527.466	5.9
527.814	5.89
528.161	5.88
528.508	6.02
528.854	5.98
529.201	6.09
529.548	6.09
529.895	5.99
530.242	5.93
530.588	5.87
530.935	5.79
531.282	5.82
531.628	5.88
531.975	5.84
532.321	5.9
532.667	5.99
533.014	6.07
533.36	6.09
533.706	6.16
534.052	6.19
534.399	6.11
534.745	6.12
535.091	6.07
535.437	6.05
535.783	6
536.129	6.06
536.474	6.1
536.82	6.02
537.166	6.28
537.512	6.31
537.857	6.29
538.203	6.3
538.549	6.28
538.894	6.25
539.239	6.2
539.585	6.34
539.93	6.41
540.276	6.38
540.621	6.36
540.966	6.41
541.311	6.42
541.656	6.52
542.001	6.42
542.346	6.52
542.691	6.48
543.036	6.39
543.381	6.31
543.726	6.3
544.071	6.3
544.415	6.31
544.76	6.32
545.105	6.31
545.449	6.29
545.794	6.44
546.138	6.52
546.483	6.56
546.827	6.54
547.171	6.51
547.516	6.71
547.86	6.75
548.204	6.64
548.548	6.65
548.892	6.7
549.236	6.58
549.58	6.69
549.924	6.76
550.268	6.8
550.612	6.74
550.956	6.76
551.3	6.85
551.643	6.86
551.987	6.8
552.33	6.85
552.674	6.81
553.017	7.01
553.361	6.83
553.704	7.07
554.048	7.04
554.391	7.08
554.734	6.89
555.077	6.98
555.42	6.88
555.764	6.91
556.107	7.09
556.45	7.09
556.793	6.93
557.135	7.13
557.478	6.92
557.821	7.3
558.164	7.09
558.507	7.22
558.849	7.08
559.192	7.29
559.534	7.43
559.877	7.22
560.219	7.18
560.562	7.28
560.904	7.54
561.246	7.4
561.589	7.35
561.931	7.25
562.273	7.04
562.615	7.38
562.957	7.19
563.299	7.45
563.641	7.44
563.983	7.42
564.325	7.42
564.667	7.49
565.008	7.35
565.35	7.43
565.692	7.33
566.033	7.62
566.375	7.43
566.716	7.46
567.058	7.52
567.399	7.57
567.741	7.69
568.082	7.33
568.423	7.69
568.764	7.74
569.105	7.49
569.447	7.59
569.788	7.55
570.129	7.63
570.47	7.69
570.811	7.87
571.151	7.78
571.492	7.72
571.833	7.89
572.174	7.79
572.514	7.82
572.855	7.71
573.195	7.82
573.536	7.77
573.876	7.85
574.217	7.88
574.557	7.63
574.898	8.01
575.238	8.05
575.578	7.9
575.918	7.99
576.258	7.8
576.598	8.02
576.938	8.02
577.278	8.13
577.618	7.92
577.958	8.32
578.298	8.12
578.638	8.03
578.977	8.16
579.317	8.13
579.657	8.03
579.996	8.33
580.336	8.36
580.675	8.6
581.014	8.17
581.354	8.24
581.693	8.37
582.032	8.37
582.372	8.23
582.711	8.26
583.05	8.44
583.389	8.43
583.728	8.33
584.067	8.44
584.406	8.66
584.745	8.38
585.083	8.71
585.422	8.64
585.761	8.59
586.1	8.61
586.438	8.54
586.777	8.39
587.115	8.58
587.454	8.51
587.792	8.79
588.13	8.92
588.469	8.57
588.807	8.91
589.145	8.87
589.483	8.82
589.821	8.8
590.159	8.76
590.497	9.2
590.835	9.01
591.173	8.62
591.511	8.63
591.849	9.03
592.187	8.94
592.524	8.91
592.862	9.12
593.2	9
593.537	9.13
593.875	9.28
594.212	9.38
594.55	9.48
594.887	9
595.224	9.06
595.561	9.5
595.899	9.27
596.236	9.66
596.573	9.66
596.91	9.27
597.247	9.41
597.584	9.71
597.921	9.37
598.258	9.49
598.594	9.21
598.931	9.18
599.268	9.31
599.604	9.48
599.941	9.49
600.277	9.29
600.614	9.45
600.95	9.5
601.287	9.51
601.623	9.44
601.959	9.85
602.296	9.71
602.632	9.7
602.968	9.98
603.304	9.79
603.64	9.88
603.976	9.83
604.312	9.76
604.648	9.84
604.984	10.11
605.319	9.72
605.655	9.76
605.991	9.87
606.326	10.15
606.662	9.77
606.998	9.7
607.333	9.99
607.668	9.95
608.004	9.96
608.339	10.05
608.674	9.86
609.01	10.19
609.345	10.17
609.68	10.42
610.015	10.32
610.35	10.02
610.685	10.41
611.02	10.31
611.355	10.43
611.689	10.18
612.024	10.17
612.359	10.15
612.694	10.14
613.028	10.24
613.363	10.15
613.697	10.21
614.032	10.38
614.366	10.29
614.7	10.33
615.035	10.85
615.369	10.49
615.703	10.7
616.037	10.81
616.371	10.98
616.705	11.01
617.039	10.82
617.373	10.72
617.707	10.52
618.041	10.95
618.375	10.57
618.709	11.04
619.042	11.16
619.376	11.13
619.71	11
620.043	11.06
620.377	10.79
620.71	10.8
621.043	11.08
621.377	10.79
621.71	11.23
622.043	11.09
622.376	10.98
622.709	10.77
623.043	11.15
623.376	11.16
623.709	11.14
624.041	11.16
624.374	11.44
624.707	11.54
625.04	11.46
625.373	11.36
625.705	11.53
626.038	11.1
626.37	11.56
626.703	11.33
627.035	11.01
627.368	11.56
627.7	11.68
628.032	11.5
628.365	11.45
628.697	11.5
629.029	11.37
629.361	11.44
629.693	11.61
630.025	11.61
630.357	11.49
630.689	11.92
631.021	11.78
631.353	11.78
631.684	12
632.016	11.92
632.348	11.96
632.679	11.66
633.011	11.89
633.342	11.66
633.674	12.1
634.005	11.79
634.336	12.09
634.668	12.34
634.999	12.16
635.33	12.01
635.661	12.2
635.992	12.04
636.323	11.92
636.654	11.87
636.985	12.02
637.316	12.04
637.647	12.52
637.977	11.92
638.308	12.46
638.639	12.18
638.969	12.4
639.3	12.3
639.63	12.68
639.961	12.39
640.291	12.07
640.622	12.36
640.952	12.48
641.282	12.79
641.612	12.23
641.943	12.73
642.273	12.76
642.603	12.19
642.933	12.7
643.263	12.49
643.592	12.45
643.922	12.88
644.252	12.25
644.582	13.34
644.911	12.85
645.241	12.67
645.571	12.47
645.9	13.03
646.23	13.01
646.559	13.42
646.888	13.32
647.218	12.6
647.547	12.9
647.876	12.71
648.205	13.05
648.534	13.28
648.863	12.93
649.192	12.78
649.521	13.19
649.85	13.45
650.179	13.43
650.508	13.44
650.837	13.45
651.165	13.33
651.494	13.47
651.822	13.34
652.151	13.86
652.479	13.38
652.808	13.45
653.136	13.66
653.465	13.73
653.793	13.41
654.121	13.69
654.449	13.03
654.777	13.46
655.105	13.96
655.433	13.67
655.761	14.37
656.089	13.59
656.417	13.47
656.745	14.1
657.073	13.98
657.4	14.48
657.728	14.07
658.056	13.53
658.383	13.95
658.711	13.43
659.038	13.85
659.365	14.4
659.693	13.54
660.02	14.08
660.347	14.27
660.674	14.06
661.001	13.9
661.329	13.89
661.656	14.4
661.982	13.73
662.309	14.28
662.636	14.08
662.963	14.23
663.29	14.56
663.616	14.13
663.943	14.25
664.27	14.3
664.596	14.31
664.923	14.04
665.249	14.62
665.576	13.61
665.902	14.11
666.228	14.08
666.554	14.31
666.881	14.45
667.207	14.52
667.533	14.44
667.859	15.06
668.185	14.85
668.511	15.03
668.837	14.33
669.162	14.78
669.488	15.21
669.814	14.58
670.139	14.65
670.465	15.54
670.791	15.29
671.116	14.73
671.442	15.27
671.767	14.33
672.092	15.36
672.418	15.69
672.743	15.15
673.068	15.42
673.393	14.85
673.718	15.6
674.043	15.4
674.368	15.72
674.693	14.75
675.018	15.18
675.343	15.44
675.667	15.26
675.992	14.88
676.317	15.35
676.641	15.78
676.966	15.74
677.29	15.57
677.615	15.28
677.939	15.69
678.264	15.73
678.588	16.32
678.912	15.53
679.236	15.74
679.56	15.97
679.885	15.7
680.209	16.19
680.532	15.91
680.856	15.83
681.18	16
681.504	16.05
681.828	15.99
682.152	15.94
682.475	16.9
682.799	15.84
683.122	15.58
683.446	16.25
683.769	16.04
684.093	15.95
684.416	16.03
684.739	16.75
685.062	17.02
685.386	16.23
685.709	16.18
686.032	15.63
686.355	15.85
686.678	16.3
687.001	15.92
687.324	16.87
