Data from 22-3_crown_Reflection__3__189.txt Node

Date: Thu Dec 15 17:57:53 CST 2022
User: ToomeyLab
Spectrometer: FLMS14357
Trigger mode: 0
Integration Time (sec): 1.000000E-2
Scans to average: 100
Electric dark correction enabled: true
Nonlinearity correction enabled: false
Boxcar width: 0
XAxis mode: Wavelengths
Number of Pixels in Spectrum: 2048
>>>>>Begin Spectral Data<<<<<
189.047	-83.51
189.435	-83.51
189.823	-83.51
190.211	280.48
190.599	65.05
190.987	94.66
191.375	29
191.763	91.35
192.151	-48.26
192.538	393.84
192.926	95.41
193.314	356.92
193.702	-28.26
194.089	-8.15
194.477	109.9
194.864	144.94
195.252	474.59
195.639	47.13
196.027	-7.13
196.414	104.61
196.801	-207.68
197.189	60.53
197.576	-61.03
197.963	-2871.73
198.351	-13.13
198.738	-24.25
199.125	-35.75
199.512	8.31
199.899	-29.57
200.286	-21.6
200.673	34.92
201.06	-4.75
201.447	1.49
201.833	-24.37
202.22	-14.32
202.607	-96.48
202.994	-10.69
203.38	4.87
203.767	-1.73
204.154	-7.62
204.54	10.39
204.927	7.58
205.313	9.34
205.699	21.73
206.086	19.64
206.472	5.04
206.858	-19.28
207.245	3.15
207.631	-34.27
208.017	15.05
208.403	-67.2
208.789	8.39
209.175	-10.37
209.561	-50.86
209.947	-20.46
210.333	-89.54
210.719	-1.46
211.105	26.97
211.491	6.66
211.876	-37
212.262	-5.64
212.648	0.14
213.034	16.29
213.419	-8.71
213.805	-51.74
214.19	-50.12
214.576	-25.16
214.961	-6.41
215.346	-23.65
215.732	-8.12
216.117	23.65
216.502	-22.42
216.888	6.97
217.273	-22.27
217.658	-0.46
218.043	-46.68
218.428	-3.33
218.813	-7.32
219.198	-37.01
219.583	-11.22
219.968	2.77
220.353	-22.02
220.738	-9.47
221.122	-23.13
221.507	-8.49
221.892	-18.63
222.276	-15.48
222.661	-16.95
223.046	-13.46
223.43	15.47
223.815	-0.32
224.199	-11.42
224.583	-14.23
224.968	2.48
225.352	-6.59
225.736	4.04
226.121	2.45
226.505	-6.75
226.889	-3.81
227.273	-8.41
227.657	2.93
228.041	2.45
228.425	-2.01
228.809	0.37
229.193	3.73
229.577	1.66
229.961	1.37
230.344	3.1
230.728	2.77
231.112	3.02
231.495	1.2
231.879	1.07
232.263	3.74
232.646	1.18
233.03	3.13
233.413	2.39
233.797	1.14
234.18	2.64
234.563	0.22
234.946	-0.1
235.33	1.91
235.713	2.87
236.096	3.33
236.479	3.74
236.862	1.04
237.245	1.21
237.628	3.13
238.011	1.64
238.394	1.77
238.777	0.96
239.16	3.2
239.543	1.94
239.925	1.47
240.308	0.12
240.691	1.8
241.073	0.85
241.456	2.77
241.838	1.6
242.221	3.17
242.603	2.38
242.986	2.6
243.368	2.76
243.75	2.51
244.133	2.79
244.515	2.96
244.897	2.69
245.279	2.27
245.661	2.99
246.043	2.21
246.425	2.31
246.807	3.36
247.189	2.72
247.571	2.21
247.953	2.67
248.335	2.61
248.717	2.65
249.098	2.92
249.48	2.37
249.862	2.71
250.243	3.14
250.625	2.58
251.006	3.67
251.388	2.26
251.769	2.45
252.151	3.01
252.532	2.11
252.913	2.45
253.295	2.26
253.676	2.48
254.057	2.91
254.438	2.87
254.819	2.69
255.2	2.92
255.581	3.33
255.962	3.5
256.343	3.26
256.724	3.58
257.105	2.57
257.486	2.7
257.867	2.4
258.247	2.84
258.628	3.1
259.009	2.4
259.389	2.36
259.77	2.81
260.15	3.32
260.531	2.27
260.911	2.65
261.292	2.68
261.672	2.84
262.052	2.84
262.432	2.9
262.813	2.47
263.193	2.7
263.573	2.44
263.953	2.37
264.333	2.92
264.713	2.64
265.093	2.45
265.473	2.57
265.853	2.4
266.233	2.74
266.612	1.96
266.992	2.75
267.372	3.04
267.752	3.22
268.131	2.57
268.511	2.35
268.89	2.74
269.27	2.01
269.649	2.43
270.029	2.1
270.408	1.89
270.787	2.64
271.167	2.72
271.546	3.13
271.925	3.17
272.304	2.29
272.683	2.21
273.062	2.37
273.441	2.21
273.82	2.63
274.199	2.25
274.578	2.53
274.957	2.47
275.336	2.87
275.715	2.84
276.093	2.65
276.472	1.8
276.851	2.31
277.229	2.37
277.608	2.02
277.986	2.19
278.365	2.69
278.743	2.5
279.122	2.35
279.5	2.23
279.878	2.15
280.257	2.25
280.635	2.67
281.013	2.1
281.391	2.53
281.769	2.81
282.147	2.18
282.525	2.09
282.903	2.21
283.281	2.32
283.659	2.89
284.037	1.82
284.415	2.05
284.792	2.54
285.17	2.24
285.548	2.31
285.925	2.18
286.303	2.86
286.68	2.77
287.058	2.55
287.435	2.25
287.813	2.51
288.19	1.98
288.567	2.39
288.945	2.06
289.322	2.46
289.699	2.47
290.076	2.44
290.453	2.25
290.83	2.72
291.207	2.24
291.584	2.86
291.961	2.61
292.338	2.23
292.715	2.13
293.092	2.77
293.469	2.6
293.845	2.35
294.222	3.29
294.599	1.81
294.975	2.36
295.352	2.58
295.728	2.92
296.105	2.42
296.481	2.38
296.858	2.68
297.234	2.24
297.61	2.65
297.986	2.99
298.363	2.4
298.739	2.8
299.115	2.69
299.491	2.79
299.867	2.69
300.243	2.76
300.619	2.43
300.995	2.54
301.371	2.77
301.746	3.15
302.122	2.46
302.498	2.5
302.874	2.62
303.249	2.91
303.625	2.31
304	2.81
304.376	3.18
304.751	2.65
305.127	2.77
305.502	2.49
305.878	2.72
306.253	2.8
306.628	2.58
307.003	2.37
307.378	3.04
307.754	3.01
308.129	2.58
308.504	2.71
308.879	2.63
309.254	2.84
309.629	3.02
310.003	3.1
310.378	2.96
310.753	3.12
311.128	2.52
311.502	2.82
311.877	2.66
312.252	2.97
312.626	3.18
313.001	2.86
313.375	2.83
313.75	2.97
314.124	3.24
314.498	2.99
314.873	2.38
315.247	2.6
315.621	2.53
315.995	2.79
316.369	2.34
316.743	2.52
317.117	2.57
317.491	2.81
317.865	2.23
318.239	3.16
318.613	2.34
318.987	2.88
319.361	2.64
319.734	2.75
320.108	2.44
320.482	3.28
320.855	2.88
321.229	2.93
321.602	2.79
321.976	2.46
322.349	3.5
322.723	3.82
323.096	2.96
323.469	2.91
323.843	2.64
324.216	3.22
324.589	3.51
324.962	2.79
325.335	2.79
325.708	3.12
326.081	3.04
326.454	3.43
326.827	3.32
327.2	2.79
327.573	3.55
327.945	2.79
328.318	2.62
328.691	3.32
329.063	2.93
329.436	2.64
329.809	3.06
330.181	3.03
330.553	3.22
330.926	3.38
331.298	2.89
331.671	2.94
332.043	2.86
332.415	3.2
332.787	3.25
333.159	2.76
333.532	3.18
333.904	3.02
334.276	3.26
334.648	2.88
335.02	2.95
335.391	3.23
335.763	3.17
336.135	2.91
336.507	2.79
336.879	2.68
337.25	2.83
337.622	3.01
337.993	2.62
338.365	3.37
338.736	3.34
339.108	3.38
339.479	3.13
339.851	3.6
340.222	3.35
340.593	3.1
340.964	3.17
341.336	2.65
341.707	3.29
342.078	2.85
342.449	3.2
342.82	3.24
343.191	2.75
343.562	3.19
343.933	2.89
344.303	3.13
344.674	3.07
345.045	3.38
345.416	3.42
345.786	2.93
346.157	3.32
346.527	3.08
346.898	2.95
347.268	3.35
347.639	2.84
348.009	3.3
348.38	3.06
348.75	3.11
349.12	3.11
349.49	3.2
349.861	3.24
350.231	3.22
350.601	3.33
350.971	3.08
351.341	3.34
351.711	3.16
352.081	3.07
352.45	2.8
352.82	3.11
353.19	3.23
353.56	3.02
353.929	3.24
354.299	3.44
354.669	3.19
355.038	3.46
355.408	3.29
355.777	3.3
356.147	3.12
356.516	2.93
356.885	3.27
357.254	2.92
357.624	2.77
357.993	3.24
358.362	3.31
358.731	3.61
359.1	3.18
359.469	3.39
359.838	3.42
360.207	3.31
360.576	3.21
360.945	3.42
361.314	2.96
361.682	2.86
362.051	3.32
362.42	3.23
362.788	2.98
363.157	3.22
363.525	3.28
363.894	3.12
364.262	3.19
364.631	3.37
364.999	3.07
365.367	3.32
365.735	2.99
366.104	3.19
366.472	3.21
366.84	3.31
367.208	3.56
367.576	3.2
367.944	3.4
368.312	3.25
368.68	3.37
369.048	3.19
369.416	3
369.783	2.93
370.151	3.55
370.519	3.71
370.886	3.38
371.254	3.49
371.621	3.61
371.989	3.41
372.356	3.21
372.724	3.19
373.091	3.39
373.458	3.25
373.826	3.39
374.193	3.49
374.56	3.31
374.927	3.44
375.294	3.47
375.661	3.44
376.028	3.3
376.395	3.33
376.762	3.29
377.129	2.8
377.496	3.24
377.863	3.27
378.229	3.59
378.596	3.59
378.963	3.35
379.329	3.34
379.696	3.44
380.062	3.4
380.429	3.21
380.795	3.34
381.161	3.25
381.528	3.23
381.894	3.44
382.26	3.52
382.626	3.53
382.993	3.63
383.359	3.25
383.725	3.22
384.091	3.43
384.457	3.34
384.823	3.47
385.188	3.52
385.554	3.43
385.92	3.31
386.286	3.3
386.651	3.31
387.017	3.46
387.383	3.39
387.748	3.39
388.114	3.42
388.479	3.41
388.845	3.3
389.21	3.64
389.575	3.84
389.94	3.52
390.306	3.59
390.671	3.44
391.036	3.24
391.401	3.46
391.766	3.47
392.131	3.4
392.496	3.47
392.861	3.53
393.226	3.4
393.591	3.55
393.956	3.35
394.32	3.66
394.685	3.63
395.05	3.56
395.414	3.61
395.779	3.49
396.143	3.32
396.508	3.49
396.872	3.42
397.236	3.77
397.601	3.61
397.965	3.29
398.329	3.61
398.694	3.35
399.058	3.46
399.422	3.41
399.786	3.33
400.15	3.54
400.514	3.61
400.878	3.5
401.242	3.55
401.605	3.55
401.969	3.32
402.333	3.35
402.697	3.76
403.06	3.5
403.424	3.74
403.787	3.51
404.151	3.45
404.514	3.56
404.878	3.26
405.241	3.53
405.604	3.59
405.968	3.45
406.331	3.47
406.694	3.51
407.057	3.57
407.42	3.54
407.783	3.71
408.146	3.76
408.509	3.64
408.872	3.53
409.235	3.61
409.598	3.67
409.961	3.64
410.323	3.5
410.686	3.47
411.049	3.5
411.411	3.62
411.774	3.51
412.136	3.41
412.499	3.75
412.861	3.4
413.223	3.44
413.586	3.68
413.948	3.73
414.31	3.66
414.672	3.55
415.035	3.66
415.397	3.63
415.759	3.33
416.121	3.61
416.483	3.52
416.845	3.69
417.206	3.51
417.568	3.58
417.93	3.61
418.292	3.47
418.653	3.45
419.015	3.64
419.377	3.65
419.738	3.67
420.1	3.61
420.461	3.47
420.822	3.63
421.184	3.54
421.545	3.64
421.906	3.58
422.267	3.51
422.629	3.56
422.99	3.59
423.351	3.43
423.712	3.57
424.073	3.69
424.434	3.66
424.795	3.53
425.155	3.51
425.516	3.55
425.877	3.67
426.238	3.57
426.598	3.58
426.959	3.62
427.32	3.52
427.68	3.57
428.041	3.72
428.401	3.61
428.761	3.8
429.122	3.55
429.482	3.62
429.842	3.61
430.202	3.79
430.563	3.79
430.923	3.69
431.283	3.79
431.643	3.74
432.003	3.81
432.363	3.71
432.722	3.68
433.082	3.8
433.442	3.72
433.802	3.75
434.161	3.59
434.521	3.54
434.881	3.75
435.24	3.58
435.6	3.7
435.959	3.67
436.319	3.72
436.678	3.67
437.037	3.58
437.396	3.75
437.756	3.64
438.115	3.79
438.474	3.78
438.833	3.9
439.192	3.75
439.551	3.72
439.91	3.83
440.269	3.65
440.628	3.75
440.987	3.76
441.345	3.69
441.704	3.66
442.063	3.71
442.421	3.73
442.78	3.75
443.138	3.8
443.497	3.66
443.855	3.69
444.214	3.66
444.572	3.86
444.93	3.82
445.288	3.67
445.647	3.62
446.005	3.7
446.363	3.81
446.721	3.71
447.079	3.7
447.437	3.72
447.795	3.7
448.153	3.75
448.51	3.83
448.868	3.71
449.226	3.76
449.584	3.73
449.941	3.78
450.299	3.69
450.656	3.77
451.014	3.86
451.371	3.87
451.729	3.81
452.086	3.78
452.443	3.74
452.801	3.86
453.158	3.95
453.515	3.77
453.872	3.81
454.229	3.74
454.586	3.82
454.943	3.89
455.3	3.93
455.657	3.69
456.014	3.84
456.371	3.97
456.727	3.94
457.084	3.93
457.441	4
457.797	3.91
458.154	3.87
458.51	3.74
458.867	3.84
459.223	3.72
459.58	3.96
459.936	3.84
460.292	3.83
460.648	3.84
461.005	3.86
461.361	3.8
461.717	3.76
462.073	3.82
462.429	3.91
462.785	3.97
463.141	3.84
463.496	3.87
463.852	3.92
464.208	3.9
464.564	3.8
464.919	3.87
465.275	3.98
465.631	4.23
465.986	4.04
466.342	3.85
466.697	3.98
467.052	4.21
467.408	4.01
467.763	4.01
468.118	3.85
468.473	3.97
468.829	3.92
469.184	4.08
469.539	3.84
469.894	4.06
470.249	3.96
470.603	4.07
470.958	4.04
471.313	4.01
471.668	4.03
472.023	3.96
472.377	3.89
472.732	4.2
473.086	3.99
473.441	3.99
473.795	4.16
474.15	3.86
474.504	3.84
474.859	3.85
475.213	4.04
475.567	3.94
475.921	3.91
476.275	3.99
476.63	4.1
476.984	4.03
477.338	4.09
477.692	3.9
478.045	3.97
478.399	3.91
478.753	3.86
479.107	4.1
479.461	4.03
479.814	4.09
480.168	3.96
480.521	4.06
480.875	4.05
481.228	3.98
481.582	4.08
481.935	4.16
482.289	4
482.642	4.15
482.995	3.98
483.348	3.93
483.701	4.01
484.055	3.95
484.408	3.91
484.761	3.87
485.114	3.77
485.466	3.73
485.819	3.74
486.172	3.82
486.525	3.83
486.878	3.92
487.23	3.94
487.583	3.95
487.936	3.96
488.288	3.9
488.641	3.88
488.993	3.81
489.345	3.85
489.698	3.87
490.05	3.84
490.402	3.93
490.754	3.87
491.107	3.94
491.459	4.11
491.811	3.96
492.163	4.05
492.515	3.93
492.866	3.84
493.218	3.91
493.57	3.95
493.922	3.92
494.274	4.01
494.625	4.12
494.977	4.04
495.328	4.06
495.68	4
496.031	4.08
496.383	4.09
496.734	4
497.086	4.14
497.437	4.17
497.788	4.13
498.139	4.05
498.49	4.13
498.842	4.15
499.193	4.04
499.544	4.06
499.894	4.04
500.245	4.17
500.596	4.14
500.947	4.06
501.298	4.13
501.648	4.11
501.999	4.22
502.35	4
502.7	4.26
503.051	4.06
503.401	4.1
503.752	4.09
504.102	4.1
504.452	4.01
504.803	4.11
505.153	4.16
505.503	4.17
505.853	4.21
506.203	4.18
506.553	4.14
506.903	4.18
507.253	4.07
507.603	4.07
507.953	4.22
508.303	4.07
508.652	4.14
509.002	4.23
509.352	4.16
509.701	4.12
510.051	4.19
510.4	4.29
510.75	4.14
511.099	4.01
511.449	4.24
511.798	4.05
512.147	4.15
512.496	4.18
512.846	4.08
513.195	4.25
513.544	4.15
513.893	4.09
514.242	4.13
514.591	4.15
514.939	4.26
515.288	4.22
515.637	4.2
515.986	4.21
516.334	4.25
516.683	4.21
517.032	4.24
517.38	4.22
517.729	4.17
518.077	4.21
518.426	4.29
518.774	4.13
519.122	4.12
519.47	4.11
519.819	4.23
520.167	4.1
520.515	4.17
520.863	4.15
521.211	4.12
521.559	4.18
521.907	4.31
522.255	4.13
522.602	4.22
522.95	4.24
523.298	4.28
523.645	4.21
523.993	4.28
524.341	4.37
524.688	4.24
525.036	4.21
525.383	4.19
525.73	4.11
526.078	4.35
526.425	4.15
526.772	4.14
527.119	4.21
527.466	4.23
527.814	4.16
528.161	4.21
528.508	4.28
528.854	4.22
529.201	4.1
529.548	4.09
529.895	4.04
530.242	4.06
530.588	4.02
530.935	4.13
531.282	4.06
531.628	4.11
531.975	4.13
532.321	4.2
532.667	4.21
533.014	4.24
533.36	4.24
533.706	4.22
534.052	4.29
534.399	4.18
534.745	4.1
535.091	4.1
535.437	4.17
535.783	4.22
536.129	4.17
536.474	4.25
536.82	4.29
537.166	4.2
537.512	4.26
537.857	4.16
538.203	4.23
538.549	4.2
538.894	4.15
539.239	4.32
539.585	4.31
539.93	4.29
540.276	4.29
540.621	4.33
540.966	4.23
541.311	4.3
541.656	4.2
542.001	4.25
542.346	4.2
542.691	4.11
543.036	4.14
543.381	4.19
543.726	4.25
544.071	4.24
544.415	4.2
544.76	4.25
545.105	4.19
545.449	4.25
545.794	4.3
546.138	4.17
546.483	4.39
546.827	4.28
547.171	4.4
547.516	4.42
547.86	4.34
548.204	4.36
548.548	4.26
548.892	4.35
549.236	4.27
549.58	4.41
549.924	4.42
550.268	4.47
550.612	4.41
550.956	4.52
551.3	4.61
551.643	4.44
551.987	4.52
552.33	4.72
552.674	4.35
553.017	4.44
553.361	4.46
553.704	4.43
554.048	4.28
554.391	4.55
554.734	4.31
555.077	4.44
555.42	4.49
555.764	4.49
556.107	4.39
556.45	4.51
556.793	4.59
557.135	4.46
557.478	4.43
557.821	4.45
558.164	4.52
558.507	4.31
558.849	4.56
559.192	4.34
559.534	4.38
559.877	4.39
560.219	4.5
560.562	4.44
560.904	4.63
561.246	4.4
561.589	4.56
561.931	4.53
562.273	4.53
562.615	4.38
562.957	4.5
563.299	4.45
563.641	4.46
563.983	4.25
564.325	4.54
564.667	4.35
565.008	4.26
565.35	4.38
565.692	4.61
566.033	4.64
566.375	4.4
566.716	4.43
567.058	4.42
567.399	4.51
567.741	4.4
568.082	4.43
568.423	4.44
568.764	4.47
569.105	4.49
569.447	4.47
569.788	4.52
570.129	4.49
570.47	4.52
570.811	4.39
571.151	4.5
571.492	4.49
571.833	4.41
572.174	4.61
572.514	4.52
572.855	4.58
573.195	4.44
573.536	4.64
573.876	4.48
574.217	4.49
574.557	4.42
574.898	4.54
575.238	4.48
575.578	4.57
575.918	4.63
576.258	4.68
576.598	4.51
576.938	4.42
577.278	4.45
577.618	4.38
577.958	4.6
578.298	4.46
578.638	4.53
578.977	4.55
579.317	4.57
579.657	4.27
579.996	4.64
580.336	4.38
580.675	4.59
581.014	4.61
581.354	4.52
581.693	4.66
582.032	4.72
582.372	4.46
582.711	4.81
583.05	4.64
583.389	4.68
583.728	4.76
584.067	4.43
584.406	4.72
584.745	4.51
585.083	4.59
585.422	4.83
585.761	4.57
586.1	4.74
586.438	4.63
586.777	4.7
587.115	4.65
587.454	4.39
587.792	4.52
588.13	4.7
588.469	4.44
588.807	4.66
589.145	4.78
589.483	4.48
589.821	4.73
590.159	4.72
590.497	4.7
590.835	4.61
591.173	4.66
591.511	4.72
591.849	4.7
592.187	4.54
592.524	4.67
592.862	4.59
593.2	4.64
593.537	4.69
593.875	4.69
594.212	4.61
594.55	4.74
594.887	4.74
595.224	4.63
595.561	4.75
595.899	4.97
596.236	4.68
596.573	4.59
596.91	4.61
597.247	4.75
597.584	4.67
597.921	4.58
598.258	4.85
598.594	4.53
598.931	4.47
599.268	4.46
599.604	4.65
599.941	4.54
600.277	4.51
600.614	4.58
600.95	4.6
601.287	4.5
601.623	4.49
601.959	4.92
602.296	4.57
602.632	4.47
602.968	4.69
603.304	4.85
603.64	4.77
603.976	4.47
604.312	4.69
604.648	4.74
604.984	4.72
605.319	4.53
605.655	4.54
605.991	4.55
606.326	4.58
606.662	4.46
606.998	4.78
607.333	4.55
607.668	4.54
608.004	4.55
608.339	4.62
608.674	4.71
609.01	4.83
609.345	4.72
609.68	4.47
610.015	4.76
610.35	4.72
610.685	4.24
611.02	4.61
611.355	4.68
611.689	4.68
612.024	4.84
612.359	4.62
612.694	4.82
613.028	4.58
613.363	4.73
613.697	4.53
614.032	4.9
614.366	4.62
614.7	4.86
615.035	4.8
615.369	4.78
615.703	4.83
616.037	4.74
616.371	4.56
616.705	4.81
617.039	4.96
617.373	4.77
617.707	4.81
618.041	4.72
618.375	4.44
618.709	4.96
619.042	4.68
619.376	4.44
619.71	4.88
620.043	4.73
620.377	4.72
620.71	4.71
621.043	4.79
621.377	4.9
621.71	4.89
622.043	4.94
622.376	4.61
622.709	5.2
623.043	4.87
623.376	4.66
623.709	5.13
624.041	4.78
624.374	4.75
624.707	4.63
625.04	4.82
625.373	4.53
625.705	4.97
626.038	4.63
626.37	4.74
626.703	4.78
627.035	4.85
627.368	4.89
627.7	4.79
628.032	4.72
628.365	5.06
628.697	5.14
629.029	4.71
629.361	4.79
629.693	4.67
630.025	4.82
630.357	4.86
630.689	4.86
631.021	5.1
631.353	4.75
631.684	5.03
632.016	4.67
632.348	4.72
632.679	4.83
633.011	4.68
633.342	4.74
633.674	4.99
634.005	4.98
634.336	4.97
634.668	4.9
634.999	4.71
635.33	4.8
635.661	4.66
635.992	4.88
636.323	4.78
636.654	4.88
636.985	4.7
637.316	4.73
637.647	5.09
637.977	4.76
638.308	5.05
638.639	4.8
638.969	4.67
639.3	4.79
639.63	5.07
639.961	4.79
640.291	5.13
640.622	5
640.952	5.48
641.282	4.57
641.612	4.79
641.943	4.57
642.273	4.96
642.603	4.95
642.933	5.21
643.263	5.1
643.592	4.81
643.922	5.32
644.252	4.98
644.582	4.76
644.911	4.82
645.241	4.82
645.571	5.05
645.9	5.3
646.23	5.35
646.559	4.94
646.888	5.17
647.218	4.92
647.547	5.29
647.876	5.05
648.205	4.89
648.534	4.99
648.863	4.71
649.192	5.09
649.521	4.95
649.85	4.79
650.179	5.04
650.508	5.08
650.837	5.08
651.165	5.04
651.494	5.12
651.822	5.05
652.151	4.69
652.479	4.97
652.808	5.02
653.136	4.88
653.465	4.83
653.793	5.12
654.121	5.1
654.449	4.59
654.777	5.02
655.105	4.76
655.433	5.22
655.761	4.77
656.089	5.08
656.417	5.57
656.745	5.18
657.073	5.27
657.4	4.62
657.728	4.63
658.056	5.09
658.383	4.65
658.711	4.95
659.038	4.81
659.365	5.17
659.693	4.95
660.02	4.87
660.347	5.18
660.674	4.62
661.001	4.98
661.329	4.8
661.656	4.83
661.982	4.95
662.309	4.67
662.636	4.66
662.963	5.25
663.29	5.53
663.616	4.81
663.943	5.39
664.27	4.81
664.596	5.4
664.923	5.37
665.249	5.3
665.576	4.82
665.902	5.02
666.228	5.39
666.554	5.63
666.881	4.81
667.207	5.63
667.533	5.21
667.859	5.18
668.185	5.36
668.511	6.04
668.837	4.71
669.162	5.06
669.488	4.64
669.814	5.03
670.139	4.25
670.465	5.57
670.791	4.73
671.116	4.96
671.442	4.29
671.767	5.16
672.092	5.12
672.418	4.99
672.743	4.73
673.068	4.82
673.393	5.08
673.718	4.67
674.043	5.52
674.368	5.19
674.693	5.09
675.018	5.06
675.343	5.3
675.667	5.33
675.992	5.01
676.317	4.97
676.641	5.41
676.966	5.34
677.29	5.29
677.615	4.51
677.939	5.52
678.264	4.65
678.588	5.21
678.912	5.16
679.236	4.99
679.56	4.92
679.885	4.68
680.209	5.05
680.532	5.38
680.856	5.54
681.18	5.77
681.504	5.26
681.828	4.8
682.152	4.27
682.475	5
682.799	4.93
683.122	5.15
683.446	4.71
683.769	5.7
684.093	5.46
684.416	4.9
684.739	5.1
685.062	5.39
685.386	5.41
685.709	5.48
686.032	5.26
686.355	5.17
686.678	5.76
687.001	4.69
687.324	5.09
687.646	5.5
687.969	5.25
688.292	5.08
688.614	5.44
688.937	5.54
689.26	5.28
689.582	5.38
689.904	5.29
690.227	5.57
690.549	5.52
690.871	5.6
691.194	5.18
691.516	4.87
691.838	5.68
