Data from 22-3_forehead_Reflection__4__195.txt Node

Date: Thu Dec 15 18:00:01 CST 2022
User: ToomeyLab
Spectrometer: FLMS14357
Trigger mode: 0
Integration Time (sec): 1.000000E-2
Scans to average: 100
Electric dark correction enabled: true
Nonlinearity correction enabled: false
Boxcar width: 0
XAxis mode: Wavelengths
Number of Pixels in Spectrum: 2048
>>>>>Begin Spectral Data<<<<<
189.047	85.02
189.435	85.02
189.823	85.02
190.211	40.94
190.599	90.21
190.987	238.32
191.375	21.11
191.763	-0.58
192.151	-201.49
192.538	-49.39
192.926	95.03
193.314	264.24
193.702	-38.11
194.089	65.76
194.477	36.58
194.864	83.58
195.252	359.19
195.639	81.36
196.027	118.93
196.414	-3.34
196.801	-271.69
197.189	271.5
197.576	258.78
197.963	587.76
198.351	28.22
198.738	29.46
199.125	-17.18
199.512	37.17
199.899	-44.7
200.286	-13
200.673	55.33
201.06	-33.85
201.447	-4.75
201.833	-5.95
202.22	9.89
202.607	-59.17
202.994	26.46
203.38	37.35
203.767	-1.67
204.154	47.36
204.54	3.23
204.927	6.68
205.313	79.89
205.699	11.34
206.086	83.52
206.472	21.9
206.858	-0.17
207.245	22.01
207.631	-31.86
208.017	47.36
208.403	-26.04
208.789	-5.21
209.175	4.25
209.561	-106.75
209.947	-0.91
210.333	-16.29
210.719	16.65
211.105	31.22
211.491	16.36
211.876	-0.69
212.262	5.07
212.648	1.43
213.034	-0.82
213.419	5.45
213.805	-24.29
214.19	-26.34
214.576	0.57
214.961	-7.46
215.346	-2.43
215.732	2.48
216.117	27.83
216.502	1.94
216.888	20.85
217.273	6.21
217.658	19.72
218.043	-7.84
218.428	-4.39
218.813	5.53
219.198	-12.51
219.583	-12.72
219.968	-12.08
220.353	-18.78
220.738	-11.3
221.122	0.52
221.507	-11.01
221.892	-27.44
222.276	-23.93
222.661	-2.19
223.046	0.45
223.43	11
223.815	2.56
224.199	-0.72
224.583	7.18
224.968	8.67
225.352	-5.77
225.736	8.85
226.121	5.3
226.505	-3.48
226.889	5.65
227.273	1.31
227.657	1.58
228.041	3.25
228.425	-1.18
228.809	0.86
229.193	1.16
229.577	2.08
229.961	1.42
230.344	2.59
230.728	2.91
231.112	2.82
231.495	2.36
231.879	1.71
232.263	1.5
232.646	2.94
233.03	3.29
233.413	3.37
233.797	2.67
234.18	2.19
234.563	2.27
234.946	3.05
235.33	2.14
235.713	2.85
236.096	2.42
236.479	3.92
236.862	2.01
237.245	1.98
237.628	2.62
238.011	2.08
238.394	2.51
238.777	2.1
239.16	4.83
239.543	3.88
239.925	2.07
240.308	-0.25
240.691	1.35
241.073	2.52
241.456	2.88
241.838	2.71
242.221	3.33
242.603	3.11
242.986	2.99
243.368	2.93
243.75	3.05
244.133	2.81
244.515	2.85
244.897	3.06
245.279	2.54
245.661	2.56
246.043	3.17
246.425	3.33
246.807	2.39
247.189	2.69
247.571	2.62
247.953	3.13
248.335	3.13
248.717	2.95
249.098	3.12
249.48	2.91
249.862	3.08
250.243	3.25
250.625	3.43
251.006	3.5
251.388	3.5
251.769	3.74
252.151	3.17
252.532	2.31
252.913	3.03
253.295	2.9
253.676	3.39
254.057	2.85
254.438	3
254.819	3.09
255.2	3.63
255.581	4.09
255.962	3.64
256.343	4.05
256.724	2.93
257.105	3.35
257.486	2.48
257.867	3.47
258.247	3.18
258.628	3.23
259.009	2.37
259.389	2.51
259.77	2.91
260.15	4.01
260.531	3.12
260.911	3.13
261.292	3.14
261.672	2.97
262.052	3.07
262.432	2.95
262.813	3.75
263.193	3.05
263.573	2.59
263.953	2.64
264.333	3.74
264.713	2.63
265.093	3.02
265.473	2.66
265.853	3.24
266.233	3.59
266.612	2.65
266.992	2.79
267.372	3.09
267.752	3.34
268.131	2.95
268.511	3.14
268.89	3.23
269.27	2.34
269.649	3.03
270.029	2.64
270.408	2.52
270.787	3.13
271.167	3.09
271.546	3.47
271.925	3.22
272.304	3.17
272.683	2.76
273.062	2.92
273.441	2.6
273.82	2.92
274.199	2.76
274.578	2.89
274.957	2.73
275.336	2.84
275.715	3.12
276.093	2.45
276.472	2.7
276.851	3.03
277.229	2.43
277.608	2.69
277.986	2.68
278.365	3.11
278.743	3.05
279.122	2.9
279.5	2.96
279.878	2.83
280.257	2.72
280.635	3.19
281.013	2.26
281.391	2.98
281.769	3.47
282.147	2.68
282.525	2.23
282.903	2.54
283.281	2.79
283.659	3.02
284.037	2.88
284.415	2.79
284.792	3.14
285.17	2.58
285.548	2.72
285.925	2.61
286.303	3.17
286.68	3.03
287.058	3.02
287.435	2.64
287.813	3.05
288.19	2.77
288.567	2.89
288.945	2.84
289.322	3.36
289.699	3.24
290.076	3.01
290.453	2.92
290.83	3.6
291.207	2.56
291.584	3.26
291.961	3.05
292.338	2.76
292.715	3.16
293.092	3.65
293.469	2.98
293.845	2.93
294.222	3.84
294.599	3.18
294.975	3.12
295.352	3.56
295.728	3.63
296.105	3.41
296.481	3.57
296.858	3.57
297.234	3.46
297.61	3.5
297.986	3.99
298.363	3.44
298.739	3.61
299.115	3.75
299.491	4.08
299.867	3.73
300.243	4.41
300.619	3.88
300.995	4.04
301.371	4.06
301.746	4.31
302.122	3.49
302.498	4.11
302.874	4.54
303.249	4.39
303.625	3.83
304	4.54
304.376	5.1
304.751	3.95
305.127	4
305.502	4.49
305.878	4.24
306.253	4
306.628	4.64
307.003	4.49
307.378	4.17
307.754	4.89
308.129	4.77
308.504	4.7
308.879	4.83
309.254	4.93
309.629	4.89
310.003	4.67
310.378	5.04
310.753	5.21
311.128	4.97
311.502	4.97
311.877	4.85
312.252	5.23
312.626	5.54
313.001	5.21
313.375	5.34
313.75	5.38
314.124	5.53
314.498	5.66
314.873	5.2
315.247	5.6
315.621	5.86
315.995	5.86
316.369	5.2
316.743	5.49
317.117	5.29
317.491	6.03
317.865	5.71
318.239	6.14
318.613	5.8
318.987	5.57
319.361	5.87
319.734	6.07
320.108	6.07
320.482	6.74
320.855	6.22
321.229	6.07
321.602	6.07
321.976	6.62
322.349	6.64
322.723	6.72
323.096	6.61
323.469	6.63
323.843	6
324.216	6.92
324.589	6.88
324.962	6.38
325.335	6.42
325.708	6.59
326.081	6.74
326.454	6.96
326.827	7.25
327.2	6.79
327.573	7.19
327.945	6.66
328.318	6.69
328.691	6.82
329.063	6.77
329.436	6.65
329.809	7.71
330.181	7.84
330.553	7.61
330.926	7.23
331.298	7.09
331.671	7.41
332.043	6.98
332.415	7.81
332.787	7.78
333.159	7.29
333.532	7.67
333.904	7.65
334.276	7.48
334.648	7.66
335.02	7.87
335.391	7.6
335.763	7.29
336.135	7.82
336.507	7.42
336.879	7.77
337.25	7.69
337.622	7.8
337.993	7.39
338.365	7.93
338.736	7.94
339.108	8.21
339.479	7.45
339.851	8.14
340.222	8.04
340.593	7.97
340.964	8.16
341.336	7.82
341.707	7.93
342.078	7.54
342.449	8.01
342.82	7.8
343.191	7.92
343.562	8.16
343.933	8.19
344.303	8.07
344.674	8.42
345.045	8.32
345.416	8.63
345.786	8.12
346.157	8.41
346.527	8.51
346.898	7.7
347.268	8.52
347.639	8.36
348.009	8.49
348.38	8
348.75	8.46
349.12	8.68
349.49	8.56
349.861	8.39
350.231	8.78
350.601	8.67
350.971	8.35
351.341	8.76
351.711	8.53
352.081	8.24
352.45	8.58
352.82	8.37
353.19	8.68
353.56	8.73
353.929	9.1
354.299	8.91
354.669	8.5
355.038	8.94
355.408	8.61
355.777	9.02
356.147	8.95
356.516	8.59
356.885	8.9
357.254	8.8
357.624	8.51
357.993	8.8
358.362	8.98
358.731	9.11
359.1	8.81
359.469	8.98
359.838	9.23
360.207	9.23
360.576	9.15
360.945	9.13
361.314	9.32
361.682	8.86
362.051	8.89
362.42	9.02
362.788	9.23
363.157	9.05
363.525	9.01
363.894	9.08
364.262	9.07
364.631	9.48
364.999	9.33
365.367	9.38
365.735	9
366.104	9.44
366.472	9.58
366.84	9.55
367.208	9.78
367.576	9.5
367.944	9.47
368.312	9.24
368.68	9.78
369.048	9.43
369.416	9.28
369.783	9.49
370.151	9.98
370.519	10
370.886	9.94
371.254	9.86
371.621	10.05
371.989	10.02
372.356	9.79
372.724	9.81
373.091	9.92
373.458	9.69
373.826	10
374.193	10.19
374.56	10.02
374.927	9.81
375.294	9.99
375.661	10.44
376.028	9.85
376.395	10.41
376.762	9.95
377.129	10.07
377.496	10.09
377.863	10.39
378.229	10.63
378.596	10
378.963	10.32
379.329	10.32
379.696	10.26
380.062	10.24
380.429	10.02
380.795	10.56
381.161	10.42
381.528	10.23
381.894	10.41
382.26	10.41
382.626	10.48
382.993	10.73
383.359	10.77
383.725	10.42
384.091	10.31
384.457	10.38
384.823	10.74
385.188	10.57
385.554	10.73
385.92	10.46
386.286	10.64
386.651	10.42
387.017	10.9
387.383	10.85
387.748	10.92
388.114	10.89
388.479	10.92
388.845	10.72
389.21	11.08
389.575	11.14
389.94	11.11
390.306	11.2
390.671	11.25
391.036	10.76
391.401	10.99
391.766	11.03
392.131	11.01
392.496	11.39
392.861	11.21
393.226	10.89
393.591	11.04
393.956	11.06
394.32	11.32
394.685	11.19
395.05	11.23
395.414	11.31
395.779	11.42
396.143	11.09
396.508	11.29
396.872	11.34
397.236	11.59
397.601	11.44
397.965	11.51
398.329	11.52
398.694	11.42
399.058	11.58
399.422	11.54
399.786	11.44
400.15	11.39
400.514	11.66
400.878	11.72
401.242	11.67
401.605	11.87
401.969	11.57
402.333	11.7
402.697	11.96
403.06	11.81
403.424	11.68
403.787	11.92
404.151	11.84
404.514	11.8
404.878	11.82
405.241	11.67
405.604	11.67
405.968	11.91
406.331	11.89
406.694	11.77
407.057	11.88
407.42	11.97
407.783	12.23
408.146	12.02
408.509	12.02
408.872	12
409.235	12.31
409.598	11.97
409.961	12.18
410.323	12.12
410.686	12.16
411.049	12.09
411.411	12.05
411.774	12.19
412.136	12.32
412.499	12.54
412.861	11.99
413.223	12.14
413.586	12.52
413.948	12.49
414.31	12.45
414.672	12.48
415.035	12.51
415.397	12.36
415.759	12.15
416.121	12.44
416.483	12.4
416.845	12.57
417.206	12.7
417.568	12.37
417.93	12.72
418.292	12.33
418.653	12.49
419.015	12.62
419.377	12.48
419.738	12.55
420.1	12.5
420.461	12.39
420.822	12.56
421.184	12.42
421.545	12.56
421.906	12.54
422.267	12.47
422.629	12.36
422.99	12.52
423.351	12.49
423.712	12.67
424.073	12.77
424.434	12.88
424.795	12.63
425.155	12.52
425.516	12.64
425.877	12.78
426.238	12.73
426.598	12.78
426.959	12.94
427.32	12.95
427.68	13.13
428.041	13.1
428.401	13.03
428.761	13.25
429.122	13.35
429.482	13.31
429.842	13.29
430.202	13.52
430.563	13.43
430.923	13.39
431.283	13.56
431.643	13.57
432.003	13.71
432.363	13.72
432.722	13.64
433.082	13.6
433.442	13.67
433.802	13.61
434.161	13.71
434.521	13.67
434.881	13.72
435.24	13.62
435.6	13.65
435.959	13.77
436.319	13.77
436.678	13.93
437.037	13.9
437.396	14.05
437.756	13.9
438.115	14.07
438.474	14.14
438.833	13.97
439.192	13.86
439.551	13.87
439.91	14.15
440.269	13.93
440.628	14.08
440.987	14.15
441.345	14.06
441.704	13.87
442.063	13.95
442.421	13.98
442.78	14.14
443.138	14.1
443.497	14.2
443.855	14.42
444.214	14.29
444.572	14.54
444.93	14.45
445.288	14.32
445.647	14.43
446.005	14.47
446.363	14.41
446.721	14.44
447.079	14.31
447.437	14.31
447.795	14.4
448.153	14.34
448.51	14.36
448.868	14.42
449.226	14.56
449.584	14.4
449.941	14.62
450.299	14.52
450.656	14.77
451.014	14.75
451.371	14.93
451.729	14.87
452.086	14.99
452.443	14.97
452.801	14.98
453.158	15.18
453.515	15.05
453.872	15.05
454.229	15
454.586	14.97
454.943	15.1
455.3	15.14
455.657	15.07
456.014	15.32
456.371	15.15
456.727	15.27
457.084	15.22
457.441	15.41
457.797	15.32
458.154	15.53
458.51	15.35
458.867	15.48
459.223	15.35
459.58	15.53
459.936	15.43
460.292	15.56
460.648	15.35
461.005	15.28
461.361	15.22
461.717	15.26
462.073	15.39
462.429	15.52
462.785	15.8
463.141	15.87
463.496	15.92
463.852	15.91
464.208	15.99
464.564	15.97
464.919	15.92
465.275	15.99
465.631	16.21
465.986	16.18
466.342	16.04
466.697	16.04
467.052	16.35
467.408	16.29
467.763	16.2
468.118	16.06
468.473	16.25
468.829	16.1
469.184	16.31
469.539	16.29
469.894	16.27
470.249	16.43
470.603	16.55
470.958	16.54
471.313	16.59
471.668	16.4
472.023	16.57
472.377	16.72
472.732	16.82
473.086	16.56
473.441	16.82
473.795	16.88
474.15	16.78
474.504	16.73
474.859	16.57
475.213	16.77
475.567	16.78
475.921	16.93
476.275	17.08
476.63	17
476.984	16.82
477.338	17.02
477.692	17.04
478.045	17.02
478.399	17.11
478.753	16.98
479.107	17.11
479.461	17.02
479.814	17.07
480.168	17.07
480.521	17.23
480.875	17.19
481.228	17.41
481.582	17.17
481.935	17.23
482.289	17.36
482.642	17.37
482.995	17.17
483.348	17.07
483.701	17.12
484.055	17.01
484.408	16.83
484.761	16.62
485.114	16.4
485.466	16.29
485.819	16.39
486.172	16.69
486.525	16.99
486.878	17.17
487.23	17.28
487.583	17.46
487.936	17.24
488.288	17.07
488.641	16.99
488.993	16.85
489.345	16.97
489.698	16.98
490.05	17.15
490.402	17.31
490.754	17.49
491.107	17.71
491.459	17.74
491.811	17.79
492.163	17.76
492.515	17.56
492.866	17.29
493.218	17.22
493.57	17.39
493.922	17.72
494.274	17.88
494.625	18.21
494.977	18.24
495.328	18.5
495.68	18.52
496.031	18.28
496.383	18.53
496.734	18.52
497.086	18.78
497.437	18.76
497.788	18.6
498.139	18.4
498.49	18.47
498.842	18.56
499.193	18.56
499.544	18.66
499.894	18.68
500.245	19
500.596	18.78
500.947	18.92
501.298	19.07
501.648	19.12
501.999	19.39
502.35	19.2
502.7	19.16
503.051	19.18
503.401	19.28
503.752	19.32
504.102	19.32
504.452	19.29
504.803	19.3
505.153	19.34
505.503	19.47
505.853	19.53
506.203	19.49
506.553	19.52
506.903	19.63
507.253	19.6
507.603	19.58
507.953	19.58
508.303	19.71
508.652	19.64
509.002	19.86
509.352	19.75
509.701	19.59
510.051	19.75
510.4	19.73
510.75	19.64
511.099	19.69
511.449	19.97
511.798	19.88
512.147	19.91
512.496	19.94
512.846	19.99
513.195	19.93
513.544	20.07
513.893	20.04
514.242	20
514.591	20.07
514.939	20.29
515.288	20.42
515.637	20.38
515.986	20.46
516.334	20.39
516.683	20.54
517.032	20.65
517.38	20.44
517.729	20.76
518.077	20.61
518.426	20.82
518.774	20.67
519.122	20.43
519.47	20.54
519.819	20.35
520.167	20.25
520.515	20.4
520.863	20.53
521.211	20.53
521.559	20.72
521.907	20.96
522.255	21.04
522.602	20.9
522.95	20.98
523.298	21.13
523.645	21.24
523.993	21.34
524.341	21.35
524.688	21.19
525.036	21.2
525.383	21.35
525.73	21.25
526.078	21.52
526.425	21.33
526.772	21.01
527.119	20.96
527.466	21.05
527.814	20.95
528.161	21.24
528.508	21.39
528.854	21.27
529.201	20.97
529.548	20.92
529.895	20.65
530.242	20.52
530.588	20.68
530.935	21.06
531.282	21.22
531.628	21.36
531.975	21.59
532.321	21.73
532.667	21.79
533.014	21.9
533.36	21.8
533.706	21.85
534.052	21.87
534.399	21.53
534.745	21.34
535.091	21.38
535.437	21.58
535.783	21.9
536.129	22.12
536.474	22.3
536.82	22.43
537.166	22.38
537.512	22.37
537.857	22.16
538.203	22.11
538.549	22.08
538.894	22.36
539.239	22.52
539.585	22.87
539.93	22.94
540.276	22.97
540.621	23.04
540.966	23.06
541.311	23.08
541.656	22.79
542.001	22.78
542.346	22.41
542.691	22.16
543.036	22.11
543.381	22.27
543.726	22.6
544.071	22.74
544.415	22.91
544.76	22.99
545.105	23.01
545.449	23.15
545.794	23.41
546.138	23.49
546.483	23.63
546.827	23.52
547.171	23.66
547.516	23.48
547.86	23.56
548.204	23.44
548.548	23.53
548.892	23.56
549.236	23.76
549.58	24.07
549.924	24.22
550.268	24.44
550.612	24.25
550.956	24.52
551.3	24.57
551.643	24.4
551.987	24.86
552.33	24.68
552.674	24.56
553.017	24.81
553.361	24.71
553.704	24.7
554.048	24.61
554.391	24.46
554.734	24.48
555.077	24.68
555.42	24.81
555.764	25
556.107	25.12
556.45	25.16
556.793	25.16
557.135	25.2
557.478	25.2
557.821	25.15
558.164	25.41
558.507	25.39
558.849	25.52
559.192	25.47
559.534	25.52
559.877	25.48
560.219	25.6
560.562	25.64
560.904	25.6
561.246	25.73
561.589	25.9
561.931	25.97
562.273	25.8
562.615	25.78
562.957	25.89
563.299	26.04
563.641	25.98
563.983	26
564.325	26.09
564.667	26.09
565.008	26.04
565.35	26.23
565.692	26.28
566.033	26.15
566.375	26.32
566.716	26.34
567.058	26.08
567.399	26.24
567.741	26.17
568.082	26.18
568.423	26.08
568.764	26.29
569.105	26.45
569.447	26.49
569.788	26.62
570.129	26.73
570.47	26.78
570.811	26.68
571.151	26.85
571.492	26.77
571.833	26.88
572.174	26.87
572.514	26.96
572.855	27.08
573.195	27
573.536	26.93
573.876	26.83
574.217	26.99
574.557	27
574.898	27.07
575.238	27.39
575.578	27.18
575.918	27.27
576.258	27.45
576.598	27.15
576.938	27.34
577.278	27.42
577.618	27.39
577.958	27.7
578.298	27.56
578.638	27.64
578.977	27.9
579.317	28.04
579.657	27.91
579.996	28.27
580.336	28.38
580.675	28.19
581.014	28.24
581.354	28.59
581.693	28.4
582.032	28.49
582.372	28.39
582.711	28.39
583.05	28.4
583.389	28.69
583.728	28.8
584.067	28.59
584.406	28.82
584.745	28.69
585.083	28.88
585.422	29.06
585.761	28.8
586.1	29.07
586.438	28.99
586.777	28.83
587.115	28.95
587.454	28.75
587.792	29.16
588.13	29.24
588.469	29.32
588.807	29.21
589.145	29.4
589.483	28.92
589.821	29.42
590.159	29.43
590.497	29.43
590.835	29.23
591.173	29.52
591.511	29.67
591.849	29.56
592.187	29.44
592.524	29.73
592.862	29.52
593.2	29.72
593.537	29.42
593.875	29.75
594.212	30.08
594.55	29.77
594.887	29.85
595.224	29.82
595.561	29.58
595.899	29.86
596.236	30.04
596.573	29.83
596.91	29.99
597.247	30.13
597.584	30.15
597.921	29.97
598.258	29.99
598.594	29.63
598.931	29.72
599.268	30.02
599.604	30.18
599.941	30.61
600.277	30.72
600.614	30.67
600.95	30.57
601.287	30.36
601.623	30.65
601.959	30.87
602.296	30.97
602.632	30.81
602.968	30.82
603.304	30.96
603.64	31.15
603.976	30.68
604.312	30.72
604.648	30.76
604.984	30.79
605.319	30.87
605.655	30.93
605.991	30.76
606.326	30.8
606.662	30.55
606.998	30.99
607.333	30.96
607.668	31.3
608.004	31.45
608.339	31.84
608.674	31.47
609.01	31.56
609.345	31.64
609.68	31.67
610.015	31.56
610.35	31.38
610.685	31.16
611.02	31.2
611.355	31.52
611.689	31.51
612.024	31.73
612.359	31.72
612.694	32.1
613.028	31.93
613.363	32.22
613.697	32.48
614.032	32.1
614.366	32.22
614.7	32.46
615.035	32.42
615.369	32.52
615.703	32.68
616.037	32.44
616.371	32.29
616.705	32.62
617.039	32.5
617.373	32.68
617.707	32.83
618.041	32.19
618.375	32.5
618.709	32.9
619.042	32.77
619.376	32.66
619.71	32.78
620.043	32.91
620.377	33.09
620.71	32.78
621.043	33.41
621.377	33.03
621.71	33.42
622.043	33.11
622.376	33.04
622.709	33.67
623.043	33.51
623.376	33.32
623.709	33.45
624.041	33.25
624.374	33.21
624.707	33.17
625.04	33.36
625.373	33.59
625.705	33.49
626.038	33.86
626.37	33.76
626.703	33.45
627.035	33.8
627.368	33.56
627.7	33.59
628.032	33.41
628.365	33.29
628.697	33.46
629.029	33.59
629.361	33.63
629.693	33.54
630.025	33.84
630.357	33.82
630.689	34.02
631.021	34.12
631.353	33.73
631.684	33.8
632.016	33.67
632.348	33.94
632.679	34.46
633.011	34.25
633.342	34.18
633.674	34.39
634.005	34.2
634.336	34.76
634.668	34.84
634.999	34.41
635.33	34.79
635.661	34.4
635.992	34.23
636.323	34.77
636.654	34.73
636.985	34.8
637.316	34.45
637.647	34.6
637.977	35.18
638.308	34.77
638.639	34.76
638.969	34.59
639.3	35.06
639.63	34.93
639.961	35.12
640.291	34.96
640.622	35.27
640.952	35.27
641.282	35.24
641.612	34.92
641.943	35.07
642.273	35.42
642.603	35.71
642.933	35.92
643.263	35.52
643.592	35.88
643.922	35.74
644.252	35.46
644.582	35.98
644.911	35.47
645.241	35.62
645.571	35.6
645.9	35.55
646.23	36.26
646.559	35.51
646.888	35.96
647.218	35.84
647.547	35.95
647.876	36.23
648.205	36.27
648.534	37.07
648.863	36.48
649.192	35.6
649.521	36.32
649.85	36.05
650.179	36.4
650.508	36.28
650.837	36.48
651.165	36.41
651.494	36.47
651.822	36.68
652.151	36.4
652.479	36.54
652.808	36.49
653.136	36.35
653.465	36.48
653.793	36.59
654.121	36.69
654.449	36.54
654.777	36.66
655.105	36.49
655.433	36.74
655.761	37.03
656.089	36.12
656.417	36.92
656.745	36.93
657.073	36.9
657.4	37.26
657.728	36.42
658.056	37.24
658.383	36.95
658.711	36.85
659.038	37.05
659.365	37.07
659.693	36.76
660.02	36.59
660.347	36.59
660.674	36.85
661.001	36.58
661.329	36.83
661.656	36.69
661.982	36.69
662.309	37.27
662.636	37.51
662.963	37.47
663.29	37.36
663.616	37.41
663.943	37.75
664.27	37.67
664.596	37.69
664.923	37.95
665.249	38.33
665.576	37.68
665.902	38.08
666.228	37.61
666.554	38.62
666.881	37.54
667.207	38.04
667.533	38.13
667.859	37.86
668.185	37.81
668.511	38.27
668.837	38.32
669.162	38.35
669.488	37.53
669.814	37.85
670.139	37.9
670.465	38.63
670.791	38.44
671.116	38.58
671.442	37.75
671.767	38.29
672.092	38.62
672.418	38.78
672.743	38.12
