Data from 22-3_chest_Reflection__3__184.txt Node

Date: Thu Dec 15 17:55:55 CST 2022
User: ToomeyLab
Spectrometer: FLMS14357
Trigger mode: 0
Integration Time (sec): 1.000000E-2
Scans to average: 100
Electric dark correction enabled: true
Nonlinearity correction enabled: false
Boxcar width: 0
XAxis mode: Wavelengths
Number of Pixels in Spectrum: 2048
>>>>>Begin Spectral Data<<<<<
189.047	187.53
189.435	187.53
189.823	187.53
190.211	72.52
190.599	85.81
190.987	-25.16
191.375	19.05
191.763	53.15
192.151	-65.27
192.538	440.79
192.926	79.15
193.314	-116.89
193.702	61.4
194.089	-75.78
194.477	59.14
194.864	15.28
195.252	346.2
195.639	60
196.027	42.64
196.414	7.23
196.801	-49.04
197.189	179.2
197.576	191.92
197.963	-3890.72
198.351	-18.03
198.738	-23.46
199.125	-29.36
199.512	10.3
199.899	-9.92
200.286	-36.84
200.673	32.84
201.06	45.16
201.447	17.44
201.833	-10.46
202.22	12.4
202.607	-0.87
202.994	-1.36
203.38	-2.73
203.767	13.25
204.154	45.91
204.54	-2.46
204.927	15.09
205.313	43.78
205.699	-4.53
206.086	7.73
206.472	30.12
206.858	31.01
207.245	9.17
207.631	-17.7
208.017	49.35
208.403	-74.02
208.789	-5.24
209.175	-7.25
209.561	-148.9
209.947	-23.64
210.333	-18.21
210.719	12.24
211.105	27.97
211.491	5.32
211.876	-16.34
212.262	11.09
212.648	-14.6
213.034	-6.3
213.419	-14.27
213.805	-20.85
214.19	-29.36
214.576	7.51
214.961	32.22
215.346	14.32
215.732	-41.46
216.117	-23.62
216.502	-23.21
216.888	-13.52
217.273	-20.82
217.658	-6.34
218.043	-5.04
218.428	0.8
218.813	14.16
219.198	-14.84
219.583	2.47
219.968	6.91
220.353	-23.74
220.738	3.61
221.122	-11.46
221.507	-2.5
221.892	-13.21
222.276	-5.02
222.661	-9.68
223.046	-7.28
223.43	17.24
223.815	-5.69
224.199	-8.67
224.583	-2.82
224.968	-8.47
225.352	-14.66
225.736	8.42
226.121	-3.58
226.505	3.66
226.889	2.86
227.273	-0.76
227.657	3.56
228.041	5.38
228.425	1.95
228.809	1.29
229.193	0.49
229.577	1.65
229.961	2.39
230.344	3.96
230.728	3.54
231.112	4.87
231.495	2.78
231.879	3.7
232.263	4.45
232.646	2.47
233.03	5.71
233.413	2.85
233.797	1.7
234.18	0.43
234.563	2.38
234.946	0.88
235.33	2.42
235.713	4.25
236.096	3.73
236.479	4.83
236.862	2.94
237.245	3.08
237.628	3.87
238.011	2.95
238.394	2.53
238.777	4.15
239.16	6.39
239.543	4.3
239.925	3.39
240.308	2.85
240.691	2.73
241.073	2.85
241.456	4.2
241.838	3.59
242.221	3.27
242.603	4.11
242.986	3.88
243.368	4.41
243.75	3.98
244.133	4.52
244.515	4.47
244.897	3.67
245.279	3.97
245.661	4.1
246.043	3.89
246.425	3.2
246.807	4.05
247.189	3.94
247.571	4.04
247.953	3.82
248.335	4.16
248.717	4.1
249.098	4.35
249.48	4.35
249.862	4.29
250.243	4.63
250.625	4.37
251.006	4.95
251.388	3.79
251.769	3.71
252.151	4.49
252.532	3.69
252.913	3.63
253.295	4.21
253.676	3.96
254.057	3.79
254.438	3.83
254.819	3.76
255.2	4.25
255.581	4.52
255.962	3.57
256.343	4.68
256.724	4.67
257.105	4.62
257.486	2.99
257.867	3.67
258.247	4.5
258.628	3.71
259.009	3.11
259.389	3.2
259.77	4.22
260.15	4.93
260.531	4.35
260.911	4.18
261.292	4.21
261.672	4.45
262.052	4.23
262.432	3.85
262.813	4.27
263.193	3.97
263.573	3.75
263.953	3.61
264.333	4.44
264.713	3.88
265.093	3.79
265.473	3.21
265.853	3.93
266.233	4.14
266.612	3.02
266.992	3.29
267.372	4.56
267.752	4.62
268.131	3.9
268.511	4.07
268.89	4.54
269.27	3.79
269.649	3.68
270.029	3.95
270.408	3.81
270.787	4.42
271.167	3.89
271.546	5.45
271.925	3.9
272.304	3.87
272.683	3.77
273.062	4
273.441	3.78
273.82	4.18
274.199	3.84
274.578	4.16
274.957	3.93
275.336	4.52
275.715	4.06
276.093	3.81
276.472	3.7
276.851	3.7
277.229	3.56
277.608	3.66
277.986	3.85
278.365	4.31
278.743	3.81
279.122	3.54
279.5	3.65
279.878	3.49
280.257	3.44
280.635	4.04
281.013	3.06
281.391	3.67
281.769	4.03
282.147	3.65
282.525	3.74
282.903	3.62
283.281	3.93
283.659	4.19
284.037	3.95
284.415	3.42
284.792	4.34
285.17	3.95
285.548	4.17
285.925	3.78
286.303	4.1
286.68	3.98
287.058	3.85
287.435	3.72
287.813	3.85
288.19	3.55
288.567	3.71
288.945	3.44
289.322	4
289.699	3.77
290.076	4
290.453	3.83
290.83	3.7
291.207	4.06
291.584	4.07
291.961	4
292.338	3.93
292.715	3.53
293.092	4.2
293.469	4.12
293.845	4.03
294.222	4.53
294.599	3.86
294.975	3.46
295.352	4.16
295.728	4.29
296.105	4.35
296.481	4.34
296.858	4.3
297.234	4.14
297.61	4.11
297.986	4.32
298.363	4.47
298.739	4.47
299.115	4.55
299.491	4.43
299.867	4.15
300.243	4.58
300.619	4.39
300.995	4.34
301.371	4.39
301.746	4.68
302.122	3.97
302.498	4.26
302.874	4.22
303.249	4.08
303.625	4.03
304	4.61
304.376	5.04
304.751	4.67
305.127	4.3
305.502	5.06
305.878	4.78
306.253	4.7
306.628	4.57
307.003	4.62
307.378	4.66
307.754	5.22
308.129	4.46
308.504	5.03
308.879	5.31
309.254	4.82
309.629	5.51
310.003	4.93
310.378	5.01
310.753	4.88
311.128	4.87
311.502	5.27
311.877	5.04
312.252	5.28
312.626	5.35
313.001	5.21
313.375	5.32
313.75	5.35
314.124	5.63
314.498	5.34
314.873	5.31
315.247	4.99
315.621	5.21
315.995	5.03
316.369	4.71
316.743	5.2
317.117	5.21
317.491	5.29
317.865	5.26
318.239	5.66
318.613	4.74
318.987	4.86
319.361	5.16
319.734	5.34
320.108	5.02
320.482	5.84
320.855	5.35
321.229	5.14
321.602	5.68
321.976	4.72
322.349	5.81
322.723	5.75
323.096	5.54
323.469	5.4
323.843	5.26
324.216	5.48
324.589	5.53
324.962	5.67
325.335	5.33
325.708	5.66
326.081	5.75
326.454	5.79
326.827	5.79
327.2	5.43
327.573	5.67
327.945	5.41
328.318	5.34
328.691	5.26
329.063	5.5
329.436	5.54
329.809	6.07
330.181	6.09
330.553	5.96
330.926	5.65
331.298	5.7
331.671	5.82
332.043	5.79
332.415	5.61
332.787	6.16
333.159	5.89
333.532	6.47
333.904	5.85
334.276	5.79
334.648	5.96
335.02	5.77
335.391	5.95
335.763	5.65
336.135	5.64
336.507	6
336.879	5.43
337.25	5.81
337.622	6.32
337.993	6.04
338.365	6.02
338.736	5.9
339.108	5.84
339.479	5.61
339.851	6.17
340.222	6.22
340.593	5.4
340.964	5.85
341.336	5.85
341.707	6.24
342.078	5.94
342.449	6.16
342.82	5.88
343.191	5.91
343.562	6.01
343.933	5.78
344.303	6
344.674	5.82
345.045	5.86
345.416	6.12
345.786	6.03
346.157	6.23
346.527	5.88
346.898	5.45
347.268	6.14
347.639	5.73
348.009	6.09
348.38	5.8
348.75	6.01
349.12	6.15
349.49	5.92
349.861	5.86
350.231	5.92
350.601	5.9
350.971	5.76
351.341	6.16
351.711	6.03
352.081	5.87
352.45	5.59
352.82	5.71
353.19	5.79
353.56	5.81
353.929	5.82
354.299	6.12
354.669	6.25
355.038	6.45
355.408	6.02
355.777	6.11
356.147	6.32
356.516	5.76
356.885	6.03
357.254	5.76
357.624	5.75
357.993	6.14
358.362	6.16
358.731	6.49
359.1	6.19
359.469	6.12
359.838	6.28
360.207	6.14
360.576	6.38
360.945	6.19
361.314	6.26
361.682	6.02
362.051	6.19
362.42	6.11
362.788	6.24
363.157	6.18
363.525	6.29
363.894	6.15
364.262	6.18
364.631	6.36
364.999	6.41
365.367	6.04
365.735	6.11
366.104	6.27
366.472	6.43
366.84	6.31
367.208	6.53
367.576	6.1
367.944	6.25
368.312	6.39
368.68	6.54
369.048	6.37
369.416	6.27
369.783	6.06
370.151	6.52
370.519	6.7
370.886	6.55
371.254	6.71
371.621	6.71
371.989	6.65
372.356	6.16
372.724	6.27
373.091	6.14
373.458	6.38
373.826	6.35
374.193	6.24
374.56	6.55
374.927	6.2
375.294	6.47
375.661	6.54
376.028	5.89
376.395	6.64
376.762	6.33
377.129	6.13
377.496	6.24
377.863	6.44
378.229	6.94
378.596	6.78
378.963	6.47
379.329	6.59
379.696	6.31
380.062	6.41
380.429	6.19
380.795	6.48
381.161	6.13
381.528	6.31
381.894	6.56
382.26	6.5
382.626	6.74
382.993	6.36
383.359	6.4
383.725	6.37
384.091	6.7
384.457	6.49
384.823	6.43
385.188	6.49
385.554	6.38
385.92	6.49
386.286	6.45
386.651	6.34
387.017	6.82
387.383	6.47
387.748	6.89
388.114	6.71
388.479	6.54
388.845	6.46
389.21	6.88
389.575	6.75
389.94	6.75
390.306	6.68
390.671	6.67
391.036	6.78
391.401	6.64
391.766	6.46
392.131	6.93
392.496	6.49
392.861	6.52
393.226	6.39
393.591	6.74
393.956	6.8
394.32	6.89
394.685	6.6
395.05	6.48
395.414	6.64
395.779	6.68
396.143	6.47
396.508	6.65
396.872	6.65
397.236	6.84
397.601	6.8
397.965	6.69
398.329	6.9
398.694	6.53
399.058	6.75
399.422	6.55
399.786	6.63
400.15	6.57
400.514	6.65
400.878	6.67
401.242	6.7
401.605	6.99
401.969	6.55
402.333	6.57
402.697	6.91
403.06	6.72
403.424	6.94
403.787	6.76
404.151	6.86
404.514	6.81
404.878	6.63
405.241	6.66
405.604	6.75
405.968	6.73
406.331	6.81
406.694	6.84
407.057	6.57
407.42	6.81
407.783	6.78
408.146	6.7
408.509	6.7
408.872	6.96
409.235	7.04
409.598	7.05
409.961	7.05
410.323	6.79
410.686	6.82
411.049	7.02
411.411	6.76
411.774	6.71
412.136	6.85
412.499	7.07
412.861	6.6
413.223	6.69
413.586	6.84
413.948	7.18
414.31	7.01
414.672	6.9
415.035	7.01
415.397	6.9
415.759	6.73
416.121	6.96
416.483	6.84
416.845	6.71
417.206	6.83
417.568	6.91
417.93	6.94
418.292	6.77
418.653	6.75
419.015	6.91
419.377	6.81
419.738	6.99
420.1	6.89
420.461	6.75
420.822	6.99
421.184	6.8
421.545	6.78
421.906	6.83
422.267	6.71
422.629	6.75
422.99	6.67
423.351	6.75
423.712	6.73
424.073	6.92
424.434	6.93
424.795	6.77
425.155	6.77
425.516	6.75
425.877	6.83
426.238	6.81
426.598	6.84
426.959	6.91
427.32	6.87
427.68	6.77
428.041	6.98
428.401	6.91
428.761	7.06
429.122	7.01
429.482	7.2
429.842	7.06
430.202	7.12
430.563	7.08
430.923	7.01
431.283	7.13
431.643	7.15
432.003	7.1
432.363	7.2
432.722	7.2
433.082	7.07
433.442	7.1
433.802	6.88
434.161	7.14
434.521	7.06
434.881	7.07
435.24	7
435.6	7.22
435.959	7.14
436.319	7.22
436.678	7.14
437.037	7.18
437.396	7.22
437.756	6.96
438.115	7.19
438.474	7.12
438.833	7.15
439.192	7.15
439.551	6.89
439.91	7.07
440.269	7.09
440.628	7.08
440.987	7.17
441.345	7.12
441.704	7.07
442.063	6.99
442.421	7.13
442.78	7.14
443.138	7.07
443.497	6.98
443.855	7.32
444.214	7.11
444.572	7.33
444.93	7.25
445.288	7.33
445.647	7.05
446.005	7.24
446.363	7.1
446.721	7.26
447.079	7.08
447.437	7.19
447.795	7.08
448.153	7.1
448.51	7.11
448.868	7.06
449.226	7.1
449.584	7.12
449.941	7.15
450.299	7.14
450.656	7.24
451.014	7.3
451.371	7.47
451.729	7.42
452.086	7.37
452.443	7.41
452.801	7.51
453.158	7.31
453.515	7.21
453.872	7.36
454.229	7.2
454.586	7.21
454.943	7.38
455.3	7.33
455.657	7.3
456.014	7.36
456.371	7.3
456.727	7.48
457.084	7.39
457.441	7.38
457.797	7.31
458.154	7.25
458.51	7.26
458.867	7.38
459.223	7.22
459.58	7.5
459.936	7.41
460.292	7.33
460.648	7.29
461.005	7.25
461.361	7.21
461.717	7.29
462.073	7.41
462.429	7.39
462.785	7.58
463.141	7.53
463.496	7.52
463.852	7.62
464.208	7.42
464.564	7.4
464.919	7.4
465.275	7.5
465.631	7.73
465.986	7.71
466.342	7.34
466.697	7.34
467.052	7.63
467.408	7.46
467.763	7.59
468.118	7.46
468.473	7.59
468.829	7.48
469.184	7.77
469.539	7.43
469.894	7.53
470.249	7.55
470.603	7.67
470.958	7.74
471.313	7.67
471.668	7.7
472.023	7.63
472.377	7.54
472.732	7.65
473.086	7.6
473.441	7.58
473.795	7.78
474.15	7.77
474.504	7.51
474.859	7.46
475.213	7.71
475.567	7.66
475.921	7.66
476.275	7.81
476.63	7.64
476.984	7.58
477.338	7.72
477.692	7.62
478.045	7.65
478.399	7.62
478.753	7.66
479.107	7.6
479.461	7.57
479.814	7.76
480.168	7.71
480.521	7.9
480.875	7.77
481.228	7.8
481.582	7.75
481.935	7.9
482.289	7.72
482.642	7.77
482.995	7.69
483.348	7.64
483.701	7.71
484.055	7.63
484.408	7.65
484.761	7.44
485.114	7.27
485.466	7.24
485.819	7.29
486.172	7.36
486.525	7.44
486.878	7.55
487.23	7.63
487.583	7.71
487.936	7.61
488.288	7.59
488.641	7.53
488.993	7.39
489.345	7.52
489.698	7.47
490.05	7.49
490.402	7.66
490.754	7.62
491.107	7.69
491.459	7.82
491.811	7.81
492.163	7.73
492.515	7.72
492.866	7.54
493.218	7.57
493.57	7.6
493.922	7.72
494.274	7.85
494.625	7.9
494.977	7.91
495.328	8.02
495.68	7.88
496.031	7.98
496.383	7.87
496.734	7.9
497.086	8.12
497.437	8.15
497.788	8.04
498.139	7.94
498.49	8.01
498.842	8
499.193	8.02
499.544	8.03
499.894	8.05
500.245	8.1
500.596	8.06
500.947	8.12
501.298	8.18
501.648	8.12
501.999	8.35
502.35	8.07
502.7	8.22
503.051	8.18
503.401	8.34
503.752	8.19
504.102	8.17
504.452	8.13
504.803	8.21
505.153	8.32
505.503	8.17
505.853	8.26
506.203	8.3
506.553	8.31
506.903	8.29
507.253	8.17
507.603	8.33
507.953	8.37
508.303	8.2
508.652	8.19
509.002	8.37
509.352	8.34
509.701	8.2
510.051	8.35
510.4	8.36
510.75	8.22
511.099	8.27
511.449	8.49
511.798	8.32
512.147	8.37
512.496	8.45
512.846	8.37
513.195	8.3
513.544	8.42
513.893	8.38
514.242	8.29
514.591	8.37
514.939	8.49
515.288	8.58
515.637	8.53
515.986	8.44
516.334	8.52
516.683	8.5
517.032	8.55
517.38	8.42
517.729	8.56
518.077	8.61
518.426	8.71
518.774	8.52
519.122	8.57
519.47	8.37
519.819	8.45
520.167	8.49
520.515	8.5
520.863	8.4
521.211	8.56
521.559	8.54
521.907	8.61
522.255	8.62
522.602	8.63
522.95	8.79
523.298	8.65
523.645	8.92
523.993	8.74
524.341	8.72
524.688	8.82
525.036	8.78
525.383	8.8
525.73	8.75
526.078	8.82
526.425	8.68
526.772	8.69
527.119	8.71
527.466	8.68
527.814	8.72
528.161	8.79
528.508	8.83
528.854	8.73
529.201	8.71
529.548	8.6
529.895	8.52
530.242	8.45
530.588	8.53
530.935	8.6
531.282	8.67
531.628	8.74
531.975	8.81
532.321	8.96
532.667	8.94
533.014	9.1
533.36	8.91
533.706	9.03
534.052	8.94
534.399	8.91
534.745	8.79
535.091	8.82
535.437	8.86
535.783	8.96
536.129	8.98
536.474	9.18
536.82	9.2
537.166	9.18
537.512	9.15
537.857	9.14
538.203	9.04
538.549	8.99
538.894	9.28
539.239	9.33
539.585	9.44
539.93	9.38
540.276	9.43
540.621	9.49
540.966	9.31
541.311	9.41
541.656	9.33
542.001	9.33
542.346	9.12
542.691	9.09
543.036	9.14
543.381	9.17
543.726	9.33
544.071	9.32
544.415	9.4
544.76	9.4
545.105	9.4
545.449	9.44
545.794	9.59
546.138	9.59
546.483	9.68
546.827	9.55
547.171	9.65
547.516	9.71
547.86	9.72
548.204	9.66
548.548	9.67
548.892	9.72
549.236	9.74
549.58	9.86
549.924	9.97
550.268	9.91
550.612	9.94
550.956	10.12
551.3	10.12
551.643	9.98
551.987	10.13
552.33	10.3
552.674	10.14
553.017	10.25
553.361	10.21
553.704	10.26
554.048	10.19
554.391	10.29
554.734	10
555.077	10.23
555.42	10.19
555.764	10.22
556.107	10.3
556.45	10.49
556.793	10.53
557.135	10.45
557.478	10.57
557.821	10.39
558.164	10.55
558.507	10.37
558.849	10.57
559.192	10.38
559.534	10.54
559.877	10.38
560.219	10.53
560.562	10.69
560.904	10.75
561.246	10.54
561.589	10.85
561.931	10.7
562.273	10.53
562.615	10.78
562.957	10.73
563.299	10.89
563.641	10.96
563.983	10.73
564.325	10.96
564.667	10.84
565.008	10.63
565.35	10.9
565.692	10.99
566.033	10.88
566.375	11.01
566.716	10.85
567.058	11.03
567.399	10.94
567.741	11.18
568.082	11.07
568.423	10.98
568.764	11.04
569.105	11.09
569.447	11.11
569.788	11.19
570.129	11.06
570.47	11.25
570.811	11.14
571.151	11.42
571.492	11.27
571.833	11.23
572.174	11.4
572.514	11.39
572.855	11.52
573.195	11.38
573.536	11.63
573.876	11.31
574.217	11.5
574.557	11.57
574.898	11.46
575.238	11.71
575.578	11.43
575.918	11.67
576.258	11.82
576.598	11.49
576.938	11.58
577.278	11.72
577.618	11.7
577.958	11.88
578.298	11.84
578.638	11.89
578.977	11.98
579.317	11.92
579.657	11.88
579.996	12.29
580.336	11.98
580.675	11.82
581.014	12.17
581.354	12.13
581.693	12.36
582.032	12.3
582.372	12.2
582.711	12.47
583.05	12.2
583.389	12.4
583.728	12.52
584.067	12.43
584.406	12.45
584.745	12.41
585.083	12.63
585.422	12.73
585.761	12.54
586.1	12.76
586.438	12.7
586.777	12.59
587.115	12.64
587.454	12.51
587.792	12.73
588.13	12.94
588.469	12.72
588.807	12.79
589.145	12.89
589.483	12.74
589.821	12.72
590.159	13.02
590.497	12.97
590.835	13.07
591.173	12.96
591.511	13.05
591.849	13.04
592.187	12.99
592.524	13.27
592.862	13.11
593.2	13.23
593.537	13.27
593.875	13.28
594.212	13.32
594.55	13.18
594.887	13.22
595.224	13.59
595.561	13.22
595.899	13.43
596.236	13.18
596.573	13.32
596.91	13.36
597.247	13.7
597.584	13.45
597.921	13.45
598.258	13.53
598.594	13.42
598.931	13.56
599.268	13.4
599.604	13.82
599.941	13.67
600.277	13.62
600.614	13.76
600.95	13.76
601.287	13.79
601.623	13.77
601.959	14.26
602.296	14.11
602.632	14
602.968	14.03
603.304	14.33
603.64	14.2
603.976	14.09
604.312	14.1
604.648	13.93
604.984	14.11
605.319	14.13
605.655	14.18
605.991	14.19
606.326	14.26
606.662	14.05
606.998	14.35
607.333	14.33
607.668	14.35
608.004	14.34
608.339	14.57
608.674	14.59
609.01	14.84
609.345	14.62
609.68	14.69
610.015	14.79
610.35	14.92
610.685	14.54
611.02	14.7
611.355	14.71
611.689	14.77
612.024	14.95
612.359	14.96
612.694	15.04
613.028	14.87
613.363	15.13
613.697	14.97
614.032	15.18
614.366	15.25
614.7	15.18
615.035	15.12
615.369	15.67
615.703	15.65
616.037	15.36
616.371	15.29
616.705	15.27
617.039	15.43
617.373	15.68
617.707	15.28
618.041	15.19
618.375	15.23
618.709	15.61
619.042	15.78
619.376	15.45
619.71	15.79
620.043	16.01
620.377	15.94
620.71	15.9
621.043	15.79
621.377	15.79
621.71	16.31
622.043	15.95
622.376	16.14
622.709	16.28
623.043	16.02
623.376	16.13
623.709	16.35
624.041	15.97
624.374	16.42
624.707	16.29
625.04	16.1
625.373	16.4
625.705	16.51
626.038	16.49
626.37	16.36
626.703	16.41
627.035	16.86
627.368	16.71
627.7	16.67
628.032	16.72
628.365	16.82
628.697	16.89
629.029	16.6
629.361	16.93
629.693	16.76
630.025	17.03
630.357	16.68
630.689	16.73
631.021	17.1
631.353	17.39
631.684	16.93
632.016	17.04
632.348	17.04
632.679	17.09
633.011	16.88
633.342	17.41
633.674	16.86
634.005	17.29
634.336	17.46
634.668	17.39
634.999	17.29
635.33	17.56
635.661	17.29
635.992	17.46
636.323	17.62
636.654	17.77
636.985	17.93
637.316	17.49
637.647	17.68
637.977	17.81
638.308	18.11
638.639	17.81
638.969	17.85
639.3	18
639.63	18.19
639.961	18.04
640.291	17.75
640.622	18.25
640.952	18.22
641.282	17.82
641.612	18.36
641.943	18.22
642.273	18.01
642.603	18.43
642.933	18.38
643.263	18.65
643.592	18.81
643.922	18.86
644.252	18.62
644.582	18.93
644.911	18.51
645.241	18.54
645.571	18.26
645.9	19.15
646.23	19.18
646.559	18.77
646.888	19.16
647.218	18.49
647.547	19.59
647.876	18.92
648.205	18.7
648.534	19.27
648.863	19.04
649.192	19.47
649.521	19.34
649.85	19.17
650.179	19.29
650.508	19.15
650.837	19.53
651.165	19.26
651.494	19.29
651.822	19.72
652.151	19.06
652.479	19.69
652.808	19.36
653.136	19.28
653.465	19.16
653.793	19.97
654.121	19.7
654.449	19.52
654.777	19.34
655.105	19.33
655.433	19.95
655.761	20.02
656.089	19.44
656.417	20.79
656.745	20.58
657.073	19.69
657.4	20.07
657.728	19.47
658.056	20.09
658.383	19.76
658.711	20.38
659.038	20.5
659.365	20.57
659.693	20.6
660.02	20.39
660.347	20.18
660.674	20.23
661.001	20.23
661.329	20.37
661.656	20.25
661.982	20.12
662.309	20.33
662.636	20.6
662.963	20.65
663.29	20.97
663.616	20.45
663.943	20.55
664.27	20.85
664.596	20.81
664.923	21.12
665.249	20.86
665.576	20.37
665.902	21.2
666.228	21.53
666.554	21.86
666.881	20.94
667.207	21.04
667.533	21.29
667.859	21.19
668.185	21.88
668.511	21.85
668.837	21.49
669.162	21.29
669.488	21.29
669.814	21.01
670.139	20.71
670.465	21.79
670.791	21.16
671.116	21.24
671.442	21.05
671.767	21.94
672.092	22.53
672.418	22.08
672.743	21.16
673.068	21.5
673.393	21.27
673.718	21.72
674.043	22.4
674.368	21.65
674.693	22.46
675.018	21.8
675.343	21.96
675.667	21.9
675.992	22.32
676.317	21.85
676.641	22.75
676.966	22.46
677.29	22.17
677.615	22.11
677.939	22.15
678.264	22.28
678.588	22.44
678.912	22.51
679.236	22.09
679.56	22.99
679.885	22.62
680.209	22.92
680.532	22.9
680.856	23.18
681.18	23.2
681.504	22.6
681.828	22.64
682.152	23.02
682.475	22.74
682.799	22.94
683.122	23.3
683.446	22.59
