Data from 22-3_forehead_Reflection__3__194.txt Node

Date: Thu Dec 15 17:59:49 CST 2022
User: ToomeyLab
Spectrometer: FLMS14357
Trigger mode: 0
Integration Time (sec): 1.000000E-2
Scans to average: 100
Electric dark correction enabled: true
Nonlinearity correction enabled: false
Boxcar width: 0
XAxis mode: Wavelengths
Number of Pixels in Spectrum: 2048
>>>>>Begin Spectral Data<<<<<
189.047	219.84
189.435	219.84
189.823	219.84
190.211	130.55
190.599	66.76
190.987	24.6
191.375	-36.88
191.763	-9.49
192.151	-160.78
192.538	161.94
192.926	38.49
193.314	52.7
193.702	-25.34
194.089	143.07
194.477	60.95
194.864	78.48
195.252	626.29
195.639	94.62
196.027	96.89
196.414	-27.19
196.801	-163.7
197.189	45.6
197.576	73.2
197.963	-1425.74
198.351	40.72
198.738	-16.61
199.125	-46.03
199.512	32.35
199.899	16.97
200.286	-0.45
200.673	17.96
201.06	24.51
201.447	38.17
201.833	-0.89
202.22	35.96
202.607	-10
202.994	-13.45
203.38	-1.52
203.767	-9.45
204.154	53.35
204.54	19.43
204.927	14.27
205.313	42.43
205.699	45.85
206.086	54.09
206.472	69.46
206.858	-12.78
207.245	20.95
207.631	48.26
208.017	50.12
208.403	-25.94
208.789	19.07
209.175	23.85
209.561	-54.3
209.947	7.82
210.333	-96.36
210.719	20.69
211.105	36.88
211.491	18.63
211.876	-14.92
212.262	21.78
212.648	42.12
213.034	9.02
213.419	-20.7
213.805	-47.97
214.19	6.53
214.576	10.68
214.961	53
215.346	-27.89
215.732	10.53
216.117	-2.13
216.502	10.7
216.888	14.67
217.273	25.45
217.658	0.84
218.043	-8.75
218.428	-26.79
218.813	3.6
219.198	-17.98
219.583	6.02
219.968	4.88
220.353	-15.93
220.738	-1.63
221.122	15.93
221.507	-18.46
221.892	-17.69
222.276	-15.66
222.661	-12.51
223.046	5.31
223.43	9.05
223.815	1.41
224.199	-2.75
224.583	1.82
224.968	9.4
225.352	-6.24
225.736	6.62
226.121	2.17
226.505	8.77
226.889	3.74
227.273	-0.1
227.657	4.42
228.041	6.47
228.425	2.18
228.809	3.71
229.193	2.96
229.577	1.9
229.961	1.4
230.344	2.17
230.728	2.82
231.112	2.22
231.495	1.75
231.879	0.97
232.263	2.17
232.646	1.56
233.03	4.91
233.413	2.42
233.797	2.98
234.18	1.59
234.563	2.11
234.946	1.97
235.33	2.78
235.713	3.84
236.096	2.7
236.479	3
236.862	2.76
237.245	1.79
237.628	1.27
238.011	3.2
238.394	2.28
238.777	1.31
239.16	3.86
239.543	3.95
239.925	1.72
240.308	0.14
240.691	2.53
241.073	3.16
241.456	3.27
241.838	2.48
242.221	2.88
242.603	2.69
242.986	2.58
243.368	3.06
243.75	3.11
244.133	3.08
244.515	3.16
244.897	2.94
245.279	3.22
245.661	3.5
246.043	3.4
246.425	3.28
246.807	3.66
247.189	3.43
247.571	3.17
247.953	3.21
248.335	3.19
248.717	3.44
249.098	3.27
249.48	3.31
249.862	3.74
250.243	3.44
250.625	4.07
251.006	4.21
251.388	2.78
251.769	3.55
252.151	3.83
252.532	3.7
252.913	3.42
253.295	3.26
253.676	3.52
254.057	3.54
254.438	3.44
254.819	3.5
255.2	3.92
255.581	4.58
255.962	4.49
256.343	4.34
256.724	3.81
257.105	4.13
257.486	2.97
257.867	4.4
258.247	3.96
258.628	4.4
259.009	3.25
259.389	3.06
259.77	3.24
260.15	3.96
260.531	3.34
260.911	3.48
261.292	3.3
261.672	3.37
262.052	3.5
262.432	3.18
262.813	3.37
263.193	3.59
263.573	2.98
263.953	3.19
264.333	3.61
264.713	3.17
265.093	3
265.473	2.85
265.853	4.09
266.233	3.52
266.612	3.31
266.992	3.46
267.372	3.09
267.752	3.1
268.131	3.47
268.511	3.05
268.89	3.58
269.27	2.91
269.649	2.82
270.029	3.25
270.408	3.69
270.787	3.71
271.167	3.84
271.546	3.85
271.925	3.6
272.304	3.42
272.683	3.14
273.062	3.3
273.441	2.98
273.82	3.3
274.199	3.03
274.578	3.35
274.957	3.06
275.336	3.59
275.715	3.68
276.093	2.77
276.472	2.62
276.851	3.59
277.229	2.82
277.608	2.6
277.986	3.29
278.365	3.41
278.743	3.29
279.122	3.35
279.5	2.94
279.878	3.13
280.257	3.42
280.635	3.39
281.013	3.09
281.391	2.99
281.769	3.56
282.147	3.14
282.525	2.89
282.903	3.1
283.281	3.47
283.659	3.16
284.037	3.34
284.415	3.37
284.792	3.12
285.17	2.94
285.548	3.5
285.925	3.21
286.303	3.56
286.68	3.28
287.058	3.52
287.435	3.3
287.813	3.42
288.19	3.12
288.567	3.56
288.945	3.39
289.322	3.38
289.699	3.8
290.076	3.19
290.453	3.09
290.83	3.89
291.207	3.58
291.584	4.02
291.961	3.73
292.338	3.73
292.715	3.84
293.092	4.41
293.469	3.63
293.845	3.75
294.222	4.72
294.599	3.64
294.975	3.88
295.352	4.37
295.728	4.41
296.105	4.12
296.481	4.15
296.858	4.54
297.234	3.96
297.61	4.47
297.986	4.88
298.363	4.48
298.739	4.81
299.115	4.46
299.491	4.95
299.867	4.73
300.243	4.83
300.619	4.52
300.995	4.89
301.371	5.3
301.746	5.01
302.122	4.89
302.498	5.09
302.874	5.26
303.249	5.47
303.625	5.03
304	5.41
304.376	5.68
304.751	5.46
305.127	4.77
305.502	5.34
305.878	5.69
306.253	5.19
306.628	5.36
307.003	5.4
307.378	5.79
307.754	5.57
308.129	5.68
308.504	5.7
308.879	6.34
309.254	5.95
309.629	6.14
310.003	6.19
310.378	6.31
310.753	6.25
311.128	5.87
311.502	5.98
311.877	5.98
312.252	6.45
312.626	6.61
313.001	6.23
313.375	6.63
313.75	6.57
314.124	6.78
314.498	6.83
314.873	6.51
315.247	6.72
315.621	6.28
315.995	7.08
316.369	6.69
316.743	6.57
317.117	6.76
317.491	7.09
317.865	6.51
318.239	7.18
318.613	6.87
318.987	6.77
319.361	7.08
319.734	7.27
320.108	7.01
320.482	7.83
320.855	7.58
321.229	7.38
321.602	7.83
321.976	7.4
322.349	8.1
322.723	7.69
323.096	7.64
323.469	7.41
323.843	7.44
324.216	7.81
324.589	7.98
324.962	7.51
325.335	7.5
325.708	7.77
326.081	7.89
326.454	8.18
326.827	7.93
327.2	7.66
327.573	8.29
327.945	7.71
328.318	7.35
328.691	8.13
329.063	7.64
329.436	7.92
329.809	8.3
330.181	8.82
330.553	8.46
330.926	8.29
331.298	8.22
331.671	8.32
332.043	8.49
332.415	8.54
332.787	8.99
333.159	8.31
333.532	8.85
333.904	8.9
334.276	8.07
334.648	8.48
335.02	8.26
335.391	8.32
335.763	8.46
336.135	8.61
336.507	8.43
336.879	8.39
337.25	8.94
337.622	8.69
337.993	8.93
338.365	8.82
338.736	9.13
339.108	8.73
339.479	8.42
339.851	8.96
340.222	9.14
340.593	8.64
340.964	9.03
341.336	8.72
341.707	9.14
342.078	8.45
342.449	9.08
342.82	9.56
343.191	9.14
343.562	9.34
343.933	8.9
344.303	9.44
344.674	8.97
345.045	9.21
345.416	9.39
345.786	9.23
346.157	9.4
346.527	8.69
346.898	9.3
347.268	9.11
347.639	9.13
348.009	9.41
348.38	9.19
348.75	9.51
349.12	9.56
349.49	9.21
349.861	9.6
350.231	9.55
350.601	9.58
350.971	9.69
351.341	9.98
351.711	9.36
352.081	9.48
352.45	9.55
352.82	9.25
353.19	9.36
353.56	9.65
353.929	9.59
354.299	9.65
354.669	9.69
355.038	10.25
355.408	9.68
355.777	9.71
356.147	9.62
356.516	9.29
356.885	9.81
357.254	9.5
357.624	9.14
357.993	9.93
358.362	10
358.731	10.04
359.1	9.25
359.469	10.09
359.838	9.89
360.207	9.78
360.576	10.1
360.945	10.23
361.314	9.94
361.682	9.89
362.051	9.91
362.42	9.92
362.788	9.95
363.157	9.95
363.525	9.85
363.894	10.03
364.262	10.02
364.631	10.28
364.999	10.3
365.367	10.14
365.735	10.03
366.104	10.04
366.472	9.93
366.84	10.28
367.208	10.39
367.576	10.31
367.944	10.35
368.312	10.34
368.68	10.55
369.048	10.1
369.416	9.95
369.783	10.14
370.151	10.75
370.519	10.85
370.886	10.49
371.254	10.7
371.621	10.55
371.989	10.77
372.356	10.66
372.724	10.37
373.091	10.5
373.458	10.59
373.826	10.9
374.193	10.88
374.56	10.4
374.927	10.79
375.294	11.26
375.661	10.81
376.028	10.6
376.395	11.25
376.762	10.75
377.129	11.09
377.496	10.98
377.863	10.95
378.229	11.24
378.596	11.14
378.963	11.03
379.329	10.79
379.696	10.82
380.062	11.04
380.429	10.75
380.795	11.05
381.161	10.71
381.528	10.96
381.894	10.9
382.26	11.13
382.626	11.06
382.993	11.48
383.359	11.24
383.725	11.11
384.091	11.37
384.457	11.11
384.823	11.3
385.188	11.12
385.554	11.28
385.92	11.19
386.286	11.29
386.651	11.27
387.017	11.55
387.383	11.3
387.748	11.55
388.114	11.57
388.479	11.24
388.845	11.1
389.21	11.64
389.575	11.48
389.94	11.77
390.306	11.41
390.671	11.54
391.036	11.41
391.401	11.8
391.766	11.63
392.131	11.77
392.496	11.74
392.861	11.53
393.226	11.33
393.591	11.59
393.956	11.71
394.32	11.74
394.685	11.76
395.05	11.79
395.414	11.92
395.779	11.85
396.143	11.68
396.508	11.51
396.872	11.86
397.236	12.1
397.601	11.86
397.965	11.88
398.329	12.04
398.694	11.79
399.058	12.14
399.422	11.86
399.786	11.98
400.15	11.82
400.514	12.05
400.878	11.94
401.242	12
401.605	12.05
401.969	11.78
402.333	12.05
402.697	11.94
403.06	12.16
403.424	12.22
403.787	12.08
404.151	12.29
404.514	12.3
404.878	12.21
405.241	12.27
405.604	12.25
405.968	12.15
406.331	12.48
406.694	12.08
407.057	12.18
407.42	12.25
407.783	12.37
408.146	12.27
408.509	12.35
408.872	12.26
409.235	12.48
409.598	12.39
409.961	12.75
410.323	12.6
410.686	12.69
411.049	12.62
411.411	12.58
411.774	12.44
412.136	12.41
412.499	12.65
412.861	12.28
413.223	12.49
413.586	12.8
413.948	12.88
414.31	12.93
414.672	12.72
415.035	12.8
415.397	12.68
415.759	12.69
416.121	12.83
416.483	12.73
416.845	12.84
417.206	12.65
417.568	12.67
417.93	12.8
418.292	12.55
418.653	12.51
419.015	12.57
419.377	12.7
419.738	12.79
420.1	12.68
420.461	12.57
420.822	12.65
421.184	12.74
421.545	12.78
421.906	12.8
422.267	12.61
422.629	12.68
422.99	12.52
423.351	12.61
423.712	12.79
424.073	13.02
424.434	13.04
424.795	12.92
425.155	12.73
425.516	12.7
425.877	12.77
426.238	12.79
426.598	12.89
426.959	13.02
427.32	13.12
427.68	13.04
428.041	13.26
428.401	13.21
428.761	13.17
429.122	13.22
429.482	13.49
429.842	13.45
430.202	13.4
430.563	13.45
430.923	13.44
431.283	13.48
431.643	13.57
432.003	13.55
432.363	13.74
432.722	13.66
433.082	13.71
433.442	13.74
433.802	13.56
434.161	13.62
434.521	13.5
434.881	13.49
435.24	13.51
435.6	13.5
435.959	13.52
436.319	13.62
436.678	13.84
437.037	13.48
437.396	13.73
437.756	13.66
438.115	13.83
438.474	13.97
438.833	13.83
439.192	13.77
439.551	13.9
439.91	13.98
440.269	13.85
440.628	13.85
440.987	13.85
441.345	13.84
441.704	13.75
442.063	13.72
442.421	13.87
442.78	13.93
443.138	13.82
443.497	13.98
443.855	14.01
444.214	13.87
444.572	14.22
444.93	14.35
445.288	14.18
445.647	14.12
446.005	14.08
446.363	14.16
446.721	14.24
447.079	14.1
447.437	14.06
447.795	14.09
448.153	13.99
448.51	14.1
448.868	14.16
449.226	14.2
449.584	14.22
449.941	14.26
450.299	14.38
450.656	14.42
451.014	14.59
451.371	14.65
451.729	14.55
452.086	14.52
452.443	14.7
452.801	14.55
453.158	14.68
453.515	14.5
453.872	14.69
454.229	14.38
454.586	14.48
454.943	14.81
455.3	14.78
455.657	14.85
456.014	14.8
456.371	14.71
456.727	14.95
457.084	14.9
457.441	14.97
457.797	15.04
458.154	15.03
458.51	14.9
458.867	14.92
459.223	14.89
459.58	14.96
459.936	14.8
460.292	14.93
460.648	14.72
461.005	14.84
461.361	14.66
461.717	14.67
462.073	14.92
462.429	15.11
462.785	15.27
463.141	15.37
463.496	15.36
463.852	15.22
464.208	15.42
464.564	15.41
464.919	15.41
465.275	15.45
465.631	15.66
465.986	15.46
466.342	15.41
466.697	15.43
467.052	15.51
467.408	15.62
467.763	15.45
468.118	15.36
468.473	15.64
468.829	15.6
469.184	15.7
469.539	15.68
469.894	15.53
470.249	15.64
470.603	15.77
470.958	15.85
471.313	15.92
471.668	15.75
472.023	16
472.377	16.01
472.732	15.94
473.086	15.79
473.441	15.88
473.795	16.04
474.15	15.77
474.504	15.86
474.859	15.8
475.213	15.97
475.567	16.04
475.921	16.16
476.275	16.16
476.63	16.01
476.984	16.11
477.338	16.14
477.692	15.99
478.045	16.04
478.399	16.13
478.753	16.15
479.107	16.16
479.461	16.11
479.814	16.25
480.168	16.17
480.521	16.28
480.875	16.23
481.228	16.35
481.582	16.32
481.935	16.38
482.289	16.46
482.642	16.43
482.995	16.32
483.348	16.13
483.701	16.19
484.055	16.12
484.408	16
484.761	15.73
485.114	15.53
485.466	15.42
485.819	15.49
486.172	15.73
486.525	15.93
486.878	16.03
487.23	16.14
487.583	16.28
487.936	16.28
488.288	16.1
488.641	15.91
488.993	15.86
489.345	15.88
489.698	15.98
490.05	16.04
490.402	16.24
490.754	16.36
491.107	16.56
491.459	16.65
491.811	16.61
492.163	16.63
492.515	16.43
492.866	16.3
493.218	16.1
493.57	16.2
493.922	16.45
494.274	16.69
494.625	16.9
494.977	16.98
495.328	17.2
495.68	17.23
496.031	17.11
496.383	17.19
496.734	17.34
497.086	17.42
497.437	17.26
497.788	17.33
498.139	17.02
498.49	17.17
498.842	17.28
499.193	17.12
499.544	17.34
499.894	17.31
500.245	17.41
500.596	17.57
500.947	17.54
501.298	17.47
501.648	17.75
501.999	17.82
502.35	17.54
502.7	17.83
503.051	17.84
503.401	17.86
503.752	17.79
504.102	17.67
504.452	17.86
504.803	17.88
505.153	17.84
505.503	17.87
505.853	17.93
506.203	17.79
506.553	17.93
506.903	18.09
507.253	17.97
507.603	18.1
507.953	18.03
508.303	18.11
508.652	17.89
509.002	18.13
509.352	18.15
509.701	17.97
510.051	18.1
510.4	18.12
510.75	17.9
511.099	18
511.449	18.18
511.798	18.25
512.147	18.15
512.496	18.26
512.846	18.24
513.195	18.21
513.544	18.36
513.893	18.31
514.242	18.2
514.591	18.2
514.939	18.47
515.288	18.56
515.637	18.47
515.986	18.59
516.334	18.69
516.683	18.57
517.032	18.63
517.38	18.6
517.729	18.86
518.077	18.64
518.426	18.77
518.774	18.58
519.122	18.52
519.47	18.46
519.819	18.45
520.167	18.39
520.515	18.47
520.863	18.47
521.211	18.6
521.559	18.74
521.907	18.85
522.255	18.9
522.602	18.96
522.95	19.04
523.298	19.04
523.645	19.12
523.993	19.19
524.341	19.17
524.688	19.15
525.036	19.13
525.383	19.27
525.73	19.16
526.078	19.35
526.425	19.06
526.772	18.78
527.119	18.85
527.466	18.88
527.814	18.83
528.161	19.02
528.508	19.18
528.854	19.19
529.201	18.93
529.548	18.78
529.895	18.51
530.242	18.45
530.588	18.5
530.935	18.8
531.282	18.91
531.628	19.14
531.975	19.23
532.321	19.35
532.667	19.43
533.014	19.63
533.36	19.56
533.706	19.5
534.052	19.39
534.399	19.24
534.745	19.05
535.091	18.97
535.437	19.24
535.783	19.5
536.129	19.68
536.474	19.84
536.82	19.96
537.166	19.73
537.512	19.82
537.857	19.76
538.203	19.64
538.549	19.62
538.894	19.84
539.239	20.05
539.585	20.15
539.93	20.25
540.276	20.28
540.621	20.42
540.966	20.36
541.311	20.41
541.656	20.22
542.001	20.22
542.346	19.93
542.691	19.6
543.036	19.55
543.381	19.62
543.726	19.98
544.071	20.08
544.415	20.16
544.76	20.23
545.105	20.26
545.449	20.34
545.794	20.44
546.138	20.57
546.483	20.71
546.827	20.66
547.171	20.58
547.516	20.72
547.86	20.63
548.204	20.59
548.548	20.69
548.892	20.7
549.236	20.85
549.58	21.07
549.924	21.22
550.268	21.38
550.612	21.34
550.956	21.48
551.3	21.48
551.643	21.47
551.987	21.57
552.33	21.71
552.674	21.53
553.017	21.75
553.361	21.58
553.704	21.71
554.048	21.4
554.391	21.46
554.734	21.44
555.077	21.44
555.42	21.56
555.764	21.78
556.107	21.96
556.45	22.04
556.793	21.96
557.135	22.09
557.478	21.81
557.821	21.8
558.164	22.11
558.507	21.97
558.849	22.08
559.192	22.1
559.534	22.2
559.877	22.25
560.219	22.26
560.562	22.3
560.904	22.3
561.246	22.43
561.589	22.5
561.931	22.51
562.273	22.24
562.615	22.26
562.957	22.31
563.299	22.38
563.641	22.48
563.983	22.53
564.325	22.49
564.667	22.62
565.008	22.47
565.35	22.47
565.692	22.58
566.033	22.72
566.375	22.7
566.716	22.57
567.058	22.6
567.399	22.54
567.741	22.67
568.082	22.57
568.423	22.42
568.764	22.82
569.105	22.66
569.447	22.71
569.788	22.8
570.129	22.94
570.47	22.94
570.811	23.01
571.151	22.95
571.492	22.98
571.833	23.03
572.174	23.13
572.514	23
572.855	22.97
573.195	22.89
573.536	23
573.876	23.09
574.217	22.87
574.557	22.93
574.898	23.15
575.238	23.22
575.578	23.35
575.918	23.13
576.258	23.52
576.598	23.25
576.938	23.31
577.278	23.43
577.618	23.29
577.958	23.63
578.298	23.63
578.638	23.51
578.977	23.55
579.317	23.69
579.657	23.49
579.996	23.66
580.336	23.82
580.675	24.02
581.014	23.92
581.354	23.92
581.693	24.09
582.032	24.13
582.372	23.87
582.711	24.15
583.05	24.11
583.389	24.24
583.728	24.28
584.067	24.26
584.406	24.25
584.745	24.25
585.083	24.33
585.422	24.47
585.761	24.4
586.1	24.34
586.438	24.17
586.777	24.36
587.115	24.39
587.454	24.33
587.792	24.64
588.13	24.65
588.469	24.79
588.807	24.39
589.145	24.59
589.483	24.64
589.821	24.52
590.159	24.68
590.497	24.77
590.835	24.71
591.173	24.38
591.511	25.01
591.849	24.68
592.187	24.5
592.524	24.8
592.862	24.8
593.2	24.94
593.537	25.09
593.875	25.06
594.212	25.14
594.55	25.06
594.887	25.1
595.224	24.95
595.561	24.79
595.899	25.29
596.236	25.21
596.573	24.88
596.91	24.99
597.247	25.29
597.584	24.94
597.921	24.88
598.258	24.97
598.594	24.65
598.931	24.87
599.268	24.95
599.604	25.3
599.941	25.24
600.277	25.45
600.614	25.39
600.95	25.28
601.287	25.27
601.623	25.26
601.959	25.71
602.296	25.37
602.632	25.36
602.968	25.54
603.304	25.69
603.64	25.76
603.976	25.53
604.312	25.79
604.648	25.54
604.984	25.35
605.319	25.55
605.655	25.61
605.991	25.42
606.326	25.36
606.662	25.52
606.998	25.52
607.333	25.82
607.668	25.7
608.004	25.89
608.339	25.88
608.674	26.21
609.01	26.41
609.345	25.96
609.68	26.09
610.015	26.11
610.35	25.99
610.685	25.49
611.02	25.92
611.355	25.78
611.689	25.75
612.024	26.14
612.359	26.21
612.694	26.23
613.028	26.32
613.363	26.28
613.697	26.6
614.032	26.16
614.366	26.58
614.7	26.46
615.035	26.54
615.369	26.69
615.703	26.61
616.037	26.7
616.371	26.5
616.705	26.88
617.039	26.73
617.373	27.07
617.707	27.15
618.041	26.6
618.375	26.86
618.709	26.68
619.042	26.53
619.376	26.92
619.71	26.87
620.043	27.14
620.377	27.03
620.71	27.18
621.043	27.08
621.377	27.11
621.71	27.3
622.043	27.02
622.376	27.02
622.709	27.28
623.043	26.86
623.376	27.14
623.709	27.16
624.041	27.1
624.374	27.32
624.707	27.07
625.04	27.13
625.373	27.24
625.705	27.34
626.038	26.93
626.37	27.37
626.703	27.43
627.035	27.46
627.368	27.68
627.7	27.31
628.032	27.22
628.365	27.54
628.697	27.58
629.029	27.17
629.361	27.46
629.693	27.59
630.025	27.4
630.357	27.42
630.689	27.4
631.021	27.73
631.353	27.62
631.684	27.42
632.016	27.65
632.348	27.78
632.679	27.49
633.011	27.29
633.342	27.92
633.674	27.92
634.005	27.97
634.336	28.34
634.668	28.27
634.999	27.9
635.33	28.07
635.661	27.62
635.992	27.74
636.323	28.17
636.654	28.01
636.985	28.13
637.316	28.34
637.647	28.03
637.977	27.99
638.308	28.63
638.639	27.66
638.969	27.45
639.3	28.25
639.63	28.47
639.961	28.21
640.291	28.14
640.622	28.13
640.952	28.57
641.282	28.44
641.612	28.54
641.943	28.35
642.273	28.64
642.603	28.69
642.933	28.54
643.263	28.64
643.592	28.91
643.922	29.05
644.252	28.74
644.582	28.86
644.911	28.33
645.241	28.63
645.571	29.03
645.9	28.9
646.23	29.11
646.559	28.38
646.888	28.71
647.218	28.47
647.547	29.05
647.876	29.13
648.205	28.76
648.534	28.8
648.863	29.18
649.192	28.93
649.521	28.71
649.85	28.94
650.179	28.78
650.508	29.13
650.837	29.21
651.165	29.02
651.494	28.91
651.822	29.09
652.151	28.74
652.479	29.25
652.808	29.36
653.136	28.78
653.465	28.89
653.793	29.34
654.121	29.05
654.449	29.03
654.777	29.01
655.105	29.29
655.433	29.43
655.761	29.38
656.089	29.13
656.417	29.9
656.745	29.8
657.073	29.83
657.4	29.53
657.728	29.59
658.056	29.44
658.383	29.82
658.711	29.56
659.038	29.73
659.365	29.16
659.693	28.67
660.02	29.02
660.347	29.08
660.674	29.28
661.001	28.99
661.329	29.12
661.656	28.95
661.982	29.15
662.309	29.78
662.636	29.2
662.963	29.97
663.29	29.86
663.616	29.55
663.943	30
664.27	29.78
664.596	29.95
664.923	30.07
665.249	30
665.576	29.6
665.902	29.87
666.228	30.19
666.554	30.48
666.881	29.58
667.207	30.32
667.533	30.09
667.859	29.98
668.185	30.3
668.511	30.38
668.837	30.15
669.162	30.91
669.488	29.87
669.814	29.67
670.139	29.69
670.465	30.81
670.791	29.48
671.116	30.32
671.442	29.69
671.767	29.81
672.092	29.93
