Data from 22-3_crown_Reflection__4__190.txt Node

Date: Thu Dec 15 17:58:03 CST 2022
User: ToomeyLab
Spectrometer: FLMS14357
Trigger mode: 0
Integration Time (sec): 1.000000E-2
Scans to average: 100
Electric dark correction enabled: true
Nonlinearity correction enabled: false
Boxcar width: 0
XAxis mode: Wavelengths
Number of Pixels in Spectrum: 2048
>>>>>Begin Spectral Data<<<<<
189.047	111.46
189.435	111.46
189.823	111.46
190.211	103.87
190.599	75.58
190.987	62.51
191.375	189.65
191.763	18.35
192.151	-418.36
192.538	140.36
192.926	102.11
193.314	82.87
193.702	10.37
194.089	-36.26
194.477	33.94
194.864	25.05
195.252	210.56
195.639	5.29
196.027	76.2
196.414	45.75
196.801	-307.99
197.189	49.64
197.576	151.06
197.963	-900.42
198.351	-8.91
198.738	-8.65
199.125	-75.37
199.512	-7.14
199.899	-33.31
200.286	-14.74
200.673	34.43
201.06	6.88
201.447	32.4
201.833	2.31
202.22	28.25
202.607	-68.72
202.994	42.03
203.38	-18.66
203.767	5.5
204.154	32.03
204.54	30.5
204.927	15.67
205.313	38.19
205.699	-2.91
206.086	2.8
206.472	24.51
206.858	24.18
207.245	11.46
207.631	-11.5
208.017	48.08
208.403	-27.64
208.789	2.62
209.175	-0.48
209.561	-89.44
209.947	-18.18
210.333	-1.92
210.719	1.16
211.105	27.74
211.491	14.4
211.876	-27.31
212.262	-2.11
212.648	-8.16
213.034	-12.57
213.419	-18.99
213.805	-32.1
214.19	-33.43
214.576	11.9
214.961	6.71
215.346	-40.81
215.732	-8.64
216.117	-18.7
216.502	-35.86
216.888	-3.79
217.273	-0.19
217.658	-13.34
218.043	-12.56
218.428	-2.05
218.813	-3.23
219.198	-41.88
219.583	11.97
219.968	-0.72
220.353	-19.97
220.738	5.86
221.122	-2.98
221.507	-4.16
221.892	-18.99
222.276	-31.26
222.661	-12.67
223.046	-17.75
223.43	8.08
223.815	-5.9
224.199	3.35
224.583	-5.99
224.968	-0.11
225.352	-10.59
225.736	11.51
226.121	-3.4
226.505	2.48
226.889	6.78
227.273	-3.33
227.657	-0.02
228.041	-0.66
228.425	0.07
228.809	0.9
229.193	3.09
229.577	2.82
229.961	2.53
230.344	3.01
230.728	3.24
231.112	3.65
231.495	2.09
231.879	2.18
232.263	3.29
232.646	1.88
233.03	3.37
233.413	1.74
233.797	0.95
234.18	1.26
234.563	0.8
234.946	1.6
235.33	1.09
235.713	3.33
236.096	2.97
236.479	2.3
236.862	3
237.245	1.57
237.628	4.03
238.011	1.53
238.394	2.73
238.777	3.18
239.16	2.94
239.543	4.79
239.925	2.59
240.308	1.89
240.691	2.28
241.073	2.75
241.456	3.61
241.838	2.15
242.221	2.04
242.603	3.14
242.986	2.92
243.368	3.22
243.75	3.12
244.133	3.24
244.515	2.87
244.897	3.1
245.279	2.65
245.661	3.44
246.043	2.64
246.425	3.32
246.807	2.83
247.189	2.72
247.571	3.12
247.953	2.64
248.335	3.06
248.717	2.97
249.098	3.3
249.48	3.04
249.862	3.32
250.243	3.08
250.625	3.17
251.006	3.52
251.388	2.63
251.769	3.01
252.151	3.18
252.532	2.43
252.913	3.09
253.295	2.84
253.676	3.16
254.057	3.01
254.438	3.13
254.819	3.58
255.2	3.44
255.581	3.98
255.962	3.05
256.343	3.33
256.724	3.12
257.105	2.18
257.486	1.34
257.867	2.59
258.247	3.36
258.628	2.88
259.009	3.19
259.389	2.54
259.77	2.27
260.15	3.74
260.531	3.13
260.911	2.97
261.292	3.09
261.672	2.98
262.052	3.06
262.432	2.97
262.813	2.91
263.193	2.72
263.573	2.75
263.953	2.4
264.333	3.02
264.713	2.57
265.093	2.33
265.473	2.09
265.853	2.76
266.233	2.75
266.612	2.45
266.992	3.36
267.372	2.93
267.752	3.32
268.131	2.71
268.511	3.01
268.89	3.14
269.27	2.55
269.649	2.29
270.029	3.23
270.408	2.42
270.787	2.27
271.167	2.97
271.546	3.27
271.925	2.36
272.304	3
272.683	2.48
273.062	2.84
273.441	2.69
273.82	3.12
274.199	2.95
274.578	2.99
274.957	2.77
275.336	2.99
275.715	3.08
276.093	2.85
276.472	2.33
276.851	3.04
277.229	2.91
277.608	1.8
277.986	2.88
278.365	3.4
278.743	2.79
279.122	2.76
279.5	2.25
279.878	2.75
280.257	2.55
280.635	2.82
281.013	2.69
281.391	2.58
281.769	2.94
282.147	2.98
282.525	2.18
282.903	2.43
283.281	3.17
283.659	3.15
284.037	2.46
284.415	3.06
284.792	2.6
285.17	2.64
285.548	2.64
285.925	2.5
286.303	2.95
286.68	2.73
287.058	3.08
287.435	2.63
287.813	2.92
288.19	2.81
288.567	3.14
288.945	2.84
289.322	2.95
289.699	3.11
290.076	2.35
290.453	2.65
290.83	2.78
291.207	2.66
291.584	3.24
291.961	2.45
292.338	2.81
292.715	2.67
293.092	3.3
293.469	2.74
293.845	2.78
294.222	2.88
294.599	2.71
294.975	2.12
295.352	2.84
295.728	3.09
296.105	2.72
296.481	3.08
296.858	2.68
297.234	2.28
297.61	2.64
297.986	3.12
298.363	2.86
298.739	2.97
299.115	2.87
299.491	3.07
299.867	2.57
300.243	2.72
300.619	2.39
300.995	2.47
301.371	2.83
301.746	2.71
302.122	2.21
302.498	2.75
302.874	3.15
303.249	3.21
303.625	2.62
304	2.94
304.376	3.05
304.751	3.05
305.127	2.83
305.502	3.07
305.878	3.13
306.253	2.77
306.628	3.02
307.003	2.76
307.378	2.38
307.754	2.59
308.129	2.88
308.504	3.23
308.879	3.53
309.254	2.89
309.629	2.83
310.003	2.94
310.378	2.94
310.753	3.06
311.128	2.43
311.502	2.9
311.877	2.85
312.252	3.02
312.626	3.47
313.001	3.03
313.375	3.02
313.75	2.79
314.124	3.21
314.498	2.98
314.873	2.84
315.247	2.9
315.621	2.83
315.995	2.59
316.369	2.44
316.743	2.75
317.117	2.96
317.491	3.88
317.865	2.64
318.239	3.39
318.613	2.85
318.987	2.66
319.361	3.1
319.734	2.78
320.108	3.14
320.482	3.28
320.855	3.29
321.229	2.95
321.602	3.42
321.976	2.58
322.349	3.99
322.723	2.86
323.096	3.02
323.469	3.02
323.843	2.88
324.216	2.99
324.589	3.34
324.962	2.82
325.335	2.87
325.708	3.07
326.081	3.01
326.454	3.08
326.827	2.99
327.2	2.41
327.573	3.58
327.945	2.84
328.318	2.89
328.691	2.61
329.063	2.74
329.436	2.56
329.809	3.15
330.181	3.88
330.553	3.46
330.926	3.38
331.298	2.9
331.671	3.6
332.043	2.84
332.415	3.34
332.787	2.93
333.159	3.13
333.532	3.17
333.904	3.38
334.276	3.29
334.648	2.77
335.02	2.72
335.391	2.73
335.763	3.2
336.135	3.75
336.507	3.28
336.879	3.34
337.25	3.16
337.622	3
337.993	3.11
338.365	3.41
338.736	3.07
339.108	3.09
339.479	3.04
339.851	3.24
340.222	3.48
340.593	3.22
340.964	3.06
341.336	2.94
341.707	3.03
342.078	2.99
342.449	3.23
342.82	3.09
343.191	3.04
343.562	3.2
343.933	2.72
344.303	3.1
344.674	3.11
345.045	3.18
345.416	3.16
345.786	3.15
346.157	3.14
346.527	3.06
346.898	2.54
347.268	3.04
347.639	2.92
348.009	3.47
348.38	2.93
348.75	3.1
349.12	3.68
349.49	3.04
349.861	3.04
350.231	3.07
350.601	3.46
350.971	2.93
351.341	3
351.711	3.29
352.081	2.87
352.45	2.6
352.82	2.69
353.19	3.18
353.56	2.91
353.929	3.31
354.299	3.41
354.669	3.35
355.038	3.55
355.408	3.13
355.777	3.3
356.147	3.01
356.516	3.02
356.885	3.16
357.254	3.18
357.624	2.81
357.993	3.34
358.362	3.25
358.731	3.23
359.1	3.24
359.469	3.26
359.838	3.22
360.207	2.98
360.576	3.17
360.945	3.15
361.314	3.05
361.682	2.95
362.051	3.1
362.42	3.06
362.788	3.3
363.157	2.87
363.525	3.25
363.894	3.06
364.262	3.05
364.631	3.49
364.999	3.2
365.367	3.13
365.735	3.05
366.104	3.21
366.472	3.42
366.84	2.96
367.208	3.5
367.576	3.2
367.944	3.16
368.312	2.95
368.68	3.54
369.048	3.08
369.416	2.95
369.783	3.02
370.151	3.27
370.519	3.37
370.886	3.21
371.254	3.52
371.621	3.1
371.989	3.33
372.356	2.96
372.724	3.08
373.091	2.82
373.458	3.15
373.826	3.29
374.193	3.47
374.56	3.23
374.927	3.1
375.294	3.56
375.661	3.23
376.028	2.97
376.395	3.26
376.762	3.17
377.129	3.09
377.496	3.56
377.863	3.06
378.229	3.45
378.596	3.27
378.963	3.41
379.329	3.28
379.696	3.03
380.062	3.41
380.429	3.23
380.795	3.3
381.161	2.95
381.528	3.06
381.894	3.15
382.26	3.35
382.626	3.58
382.993	3.52
383.359	3.26
383.725	2.95
384.091	3.39
384.457	3.27
384.823	3.4
385.188	3.74
385.554	3.28
385.92	3.27
386.286	3.42
386.651	3.37
387.017	3.49
387.383	3.01
387.748	3.33
388.114	3.31
388.479	3.36
388.845	2.95
389.21	3.35
389.575	3.5
389.94	3.39
390.306	3.62
390.671	3.62
391.036	3.08
391.401	3.36
391.766	3.14
392.131	3.5
392.496	3.51
392.861	3.4
393.226	3.18
393.591	3.43
393.956	3.33
394.32	3.4
394.685	3.47
395.05	3.45
395.414	3.39
395.779	3.57
396.143	3.25
396.508	3.42
396.872	3.43
397.236	3.67
397.601	3.37
397.965	3.47
398.329	3.48
398.694	3.35
399.058	3.54
399.422	3.23
399.786	3.4
400.15	3.38
400.514	3.47
400.878	3.42
401.242	3.51
401.605	3.39
401.969	3.44
402.333	3.37
402.697	3.51
403.06	3.39
403.424	3.55
403.787	3.35
404.151	3.54
404.514	3.46
404.878	3.07
405.241	3.46
405.604	3.38
405.968	3.33
406.331	3.47
406.694	3.58
407.057	3.39
407.42	3.51
407.783	3.56
408.146	3.61
408.509	3.53
408.872	3.46
409.235	3.69
409.598	3.4
409.961	3.68
410.323	3.4
410.686	3.43
411.049	3.6
411.411	3.36
411.774	3.48
412.136	3.4
412.499	3.74
412.861	3.14
413.223	3.35
413.586	3.48
413.948	3.68
414.31	3.78
414.672	3.25
415.035	3.64
415.397	3.37
415.759	3.28
416.121	3.6
416.483	3.69
416.845	3.48
417.206	3.54
417.568	3.57
417.93	3.49
418.292	3.42
418.653	3.46
419.015	3.42
419.377	3.53
419.738	3.53
420.1	3.47
420.461	3.43
420.822	3.53
421.184	3.42
421.545	3.59
421.906	3.55
422.267	3.43
422.629	3.44
422.99	3.46
423.351	3.44
423.712	3.54
424.073	3.64
424.434	3.61
424.795	3.46
425.155	3.42
425.516	3.5
425.877	3.56
426.238	3.42
426.598	3.51
426.959	3.53
427.32	3.41
427.68	3.6
428.041	3.69
428.401	3.48
428.761	3.65
429.122	3.62
429.482	3.54
429.842	3.69
430.202	3.66
430.563	3.43
430.923	3.75
431.283	3.8
431.643	3.68
432.003	3.67
432.363	3.68
432.722	3.68
433.082	3.64
433.442	3.76
433.802	3.64
434.161	3.61
434.521	3.63
434.881	3.66
435.24	3.63
435.6	3.65
435.959	3.7
436.319	3.75
436.678	3.71
437.037	3.64
437.396	3.77
437.756	3.62
438.115	3.65
438.474	3.54
438.833	3.6
439.192	3.75
439.551	3.58
439.91	3.58
440.269	3.65
440.628	3.6
440.987	3.69
441.345	3.63
441.704	3.54
442.063	3.64
442.421	3.73
442.78	3.73
443.138	3.66
443.497	3.65
443.855	3.8
444.214	3.53
444.572	3.67
444.93	3.7
445.288	3.68
445.647	3.58
446.005	3.65
446.363	3.64
446.721	3.57
447.079	3.56
447.437	3.7
447.795	3.66
448.153	3.65
448.51	3.68
448.868	3.62
449.226	3.78
449.584	3.76
449.941	3.83
450.299	3.58
450.656	3.64
451.014	3.74
451.371	3.72
451.729	3.79
452.086	3.78
452.443	3.78
452.801	3.71
453.158	3.86
453.515	3.73
453.872	3.76
454.229	3.5
454.586	3.71
454.943	3.92
455.3	3.78
455.657	3.71
456.014	3.71
456.371	3.74
456.727	3.75
457.084	4
457.441	3.86
457.797	3.86
458.154	3.88
458.51	3.81
458.867	3.84
459.223	3.7
459.58	3.69
459.936	3.79
460.292	3.8
460.648	3.83
461.005	3.72
461.361	3.72
461.717	3.75
462.073	3.84
462.429	3.83
462.785	3.99
463.141	3.81
463.496	3.87
463.852	3.93
464.208	3.85
464.564	3.67
464.919	3.78
465.275	3.89
465.631	4.07
465.986	4.01
466.342	3.62
466.697	3.92
467.052	3.97
467.408	3.87
467.763	3.78
468.118	3.74
468.473	3.98
468.829	3.73
469.184	3.85
469.539	3.75
469.894	3.98
470.249	3.77
470.603	3.95
470.958	4.02
471.313	3.89
471.668	3.88
472.023	3.89
472.377	4
472.732	4.01
473.086	3.78
473.441	3.99
473.795	4.04
474.15	3.89
474.504	3.92
474.859	3.8
475.213	3.95
475.567	3.72
475.921	4.02
476.275	4.14
476.63	3.95
476.984	3.83
477.338	4.08
477.692	3.88
478.045	4.09
478.399	3.95
478.753	3.87
479.107	3.97
479.461	3.99
479.814	4.02
480.168	3.89
480.521	4.03
480.875	3.91
481.228	3.95
481.582	4
481.935	4.03
482.289	3.94
482.642	4.08
482.995	3.88
483.348	3.83
483.701	4.02
484.055	3.92
484.408	3.88
484.761	3.8
485.114	3.68
485.466	3.62
485.819	3.64
486.172	3.72
486.525	3.8
486.878	3.82
487.23	3.83
487.583	3.93
487.936	3.84
488.288	3.81
488.641	3.76
488.993	3.79
489.345	3.76
489.698	3.76
490.05	3.81
490.402	3.86
490.754	3.84
491.107	3.87
491.459	3.98
491.811	3.91
492.163	3.94
492.515	3.8
492.866	3.73
493.218	3.74
493.57	3.83
493.922	3.89
494.274	4.03
494.625	4.04
494.977	4
495.328	4.06
495.68	3.96
496.031	4
496.383	3.85
496.734	3.85
497.086	4.04
497.437	4.07
497.788	4.1
498.139	4.02
498.49	3.99
498.842	4.01
499.193	3.92
499.544	4.06
499.894	3.91
500.245	4.1
500.596	4
500.947	3.93
501.298	4.03
501.648	4.1
501.999	4.11
502.35	3.97
502.7	4.07
503.051	4.07
503.401	4.12
503.752	3.98
504.102	4
504.452	3.98
504.803	4.02
505.153	4.18
505.503	4.01
505.853	4.11
506.203	4.07
506.553	3.98
506.903	4.04
507.253	3.99
507.603	4.07
507.953	4.02
508.303	4.03
508.652	3.93
509.002	4.11
509.352	3.96
509.701	3.91
510.051	4.15
510.4	4.06
510.75	4.02
511.099	3.97
511.449	4.16
511.798	4.07
512.147	3.99
512.496	4.08
512.846	3.98
513.195	4.07
513.544	4.12
513.893	3.98
514.242	3.98
514.591	3.99
514.939	4.08
515.288	4.16
515.637	4.12
515.986	4.06
516.334	4.08
516.683	4.08
517.032	4.07
517.38	4.02
517.729	4.04
518.077	4.11
518.426	4.09
518.774	4
519.122	4.08
519.47	4.01
519.819	3.99
520.167	3.94
520.515	3.99
520.863	4.09
521.211	4.05
521.559	4.07
521.907	4.16
522.255	4.11
522.602	4.22
522.95	4.19
523.298	4.16
523.645	4.12
523.993	4.08
524.341	4.12
524.688	3.9
525.036	4.01
525.383	4.07
525.73	4.07
526.078	4.11
526.425	4.09
526.772	4.01
527.119	4.06
527.466	4.03
527.814	4.05
528.161	4.13
528.508	4.1
528.854	4.03
529.201	4.01
529.548	3.96
529.895	3.89
530.242	3.79
530.588	3.86
530.935	3.92
531.282	3.9
531.628	4
531.975	4.02
532.321	4.04
532.667	4.07
533.014	4.16
533.36	4.12
533.706	4.05
534.052	4.11
534.399	3.99
534.745	3.92
535.091	3.94
535.437	3.98
535.783	4.03
536.129	4.09
536.474	4.08
536.82	4.16
537.166	4.04
537.512	4.07
537.857	4.05
538.203	4.06
538.549	3.98
538.894	4.08
539.239	4.12
539.585	4.16
539.93	4.2
540.276	4.18
540.621	4.2
540.966	4.21
541.311	4.11
541.656	3.94
542.001	4.04
542.346	4.02
542.691	3.9
543.036	3.94
543.381	3.91
543.726	4.03
544.071	4.04
544.415	4.08
544.76	4.07
545.105	4.1
545.449	4.13
545.794	4.1
546.138	4.06
546.483	4.24
546.827	4.15
547.171	4.18
547.516	4.18
547.86	4.17
548.204	4.19
548.548	4.1
548.892	4.16
549.236	4.13
549.58	4.24
549.924	4.2
550.268	4.26
550.612	4.3
550.956	4.31
551.3	4.39
551.643	4.22
551.987	4.27
552.33	4.45
552.674	4.19
553.017	4.21
553.361	4.27
553.704	4.27
554.048	4.12
554.391	4.21
554.734	4.01
555.077	4.13
555.42	4.18
555.764	4.17
556.107	4.23
556.45	4.33
556.793	4.32
557.135	4.23
557.478	4.34
557.821	4.14
558.164	4.35
558.507	4.25
558.849	4.32
559.192	4.27
559.534	4.12
559.877	4.16
560.219	4.11
560.562	4.25
560.904	4.45
561.246	4.18
561.589	4.54
561.931	4.2
562.273	4.18
562.615	4.28
562.957	4.22
563.299	4.4
563.641	4.13
563.983	4.1
564.325	4.27
564.667	4.27
565.008	4.25
565.35	4.24
565.692	4.18
566.033	4.13
566.375	4.29
566.716	3.97
567.058	4.2
567.399	4.18
567.741	4.27
568.082	4.18
568.423	4.09
568.764	4.21
569.105	4.25
569.447	4.24
569.788	4.19
570.129	4.29
570.47	4.12
570.811	4.15
571.151	4.29
571.492	4.3
571.833	4.25
572.174	4.17
572.514	4.24
572.855	4.28
573.195	4.18
573.536	4.35
573.876	4.27
574.217	4.1
574.557	4.26
574.898	4.16
575.238	4.39
575.578	4.27
575.918	4.32
576.258	4.46
576.598	4.1
576.938	4.09
577.278	4.19
577.618	4.14
577.958	4.32
578.298	4.18
578.638	4.32
578.977	4.5
579.317	4.25
579.657	4.18
579.996	4.57
580.336	4.29
580.675	4.21
581.014	4.38
581.354	4.25
581.693	4.35
582.032	4.37
582.372	4.32
582.711	4.44
583.05	4.19
583.389	4.37
583.728	4.42
584.067	4.21
584.406	4.5
584.745	4.12
585.083	4.45
585.422	4.53
585.761	4.26
586.1	4.34
586.438	4.33
586.777	4.24
587.115	4.3
587.454	4.07
587.792	4.5
588.13	4.44
588.469	4.32
588.807	4.36
589.145	4.32
589.483	4.05
589.821	4.37
590.159	4.36
590.497	4.24
590.835	4.24
591.173	4.53
591.511	4.31
591.849	4.29
592.187	4.22
592.524	4.44
592.862	4.23
593.2	4.42
593.537	4.38
593.875	4.25
594.212	4.36
594.55	4.29
594.887	4.23
595.224	4.51
595.561	4.23
595.899	4.32
596.236	4.36
596.573	4.21
596.91	4.3
597.247	4.39
597.584	4.43
597.921	4.19
598.258	4.43
598.594	4.09
598.931	3.99
599.268	4.12
599.604	4.3
599.941	4.21
600.277	4.41
600.614	4.4
600.95	4.1
601.287	4.05
601.623	4.21
601.959	4.73
602.296	4.36
602.632	4.28
602.968	4.28
603.304	4.37
603.64	4.25
603.976	4.08
604.312	4.14
604.648	4.41
604.984	4.27
605.319	4.29
605.655	4.31
605.991	4.15
606.326	4.33
606.662	4.14
606.998	4.51
607.333	4.28
607.668	4.16
608.004	4.14
608.339	4.15
608.674	4.39
609.01	4.59
609.345	4.39
609.68	4.28
610.015	4.54
610.35	4.57
610.685	4.09
611.02	4.24
611.355	4.24
611.689	4.26
612.024	4.38
612.359	4.58
612.694	4.47
613.028	4.29
613.363	4.17
613.697	4.38
614.032	4.4
614.366	4.41
614.7	4.32
615.035	4.41
615.369	4.49
615.703	4.52
616.037	4.26
616.371	4.29
616.705	4.37
617.039	4.45
617.373	4.76
617.707	4.39
618.041	3.98
618.375	3.83
618.709	4.33
619.042	4.32
619.376	4.25
619.71	4.45
620.043	4.66
620.377	4.24
620.71	4.36
621.043	4.47
621.377	4.62
621.71	4.56
622.043	4.52
622.376	4.32
622.709	4.72
623.043	4.52
623.376	4.13
623.709	4.75
624.041	4.06
624.374	4.42
624.707	4.38
625.04	4.34
625.373	4.13
625.705	4.25
626.038	4.56
626.37	4.29
626.703	4.66
627.035	4.44
627.368	4.62
627.7	4.4
628.032	4.2
628.365	4.57
628.697	4.54
629.029	4.22
629.361	4.42
629.693	4.4
630.025	4.45
630.357	4.42
630.689	4.13
631.021	4.56
631.353	4.46
631.684	4.14
632.016	4.06
632.348	4.35
632.679	4.81
633.011	4.3
633.342	4.41
633.674	4.05
634.005	4.49
634.336	4.53
634.668	4.37
634.999	4.38
635.33	4.33
635.661	4.21
635.992	4.48
636.323	4.39
636.654	4.23
636.985	4.35
637.316	4.38
637.647	4.29
637.977	4.42
638.308	4.35
638.639	4.29
638.969	3.99
639.3	4.42
639.63	4.53
639.961	4.45
640.291	4.53
640.622	4.52
640.952	4.52
641.282	3.73
641.612	4.03
641.943	4.03
642.273	4.09
642.603	4.37
642.933	4.99
643.263	4.25
643.592	4.51
643.922	5.11
644.252	4.12
644.582	4.25
644.911	4.63
645.241	4.52
645.571	4.43
645.9	4.35
646.23	4.67
646.559	4.1
646.888	4.63
647.218	4.09
647.547	4.35
647.876	4.38
648.205	4.3
648.534	4.71
648.863	4.21
649.192	3.95
649.521	4.81
649.85	4.52
650.179	4.35
650.508	4.06
650.837	4.48
651.165	4.65
651.494	4.68
651.822	4.55
652.151	4.36
652.479	4.57
652.808	4.8
653.136	4.21
653.465	4.29
653.793	4.4
654.121	4.18
654.449	4.06
654.777	4.05
655.105	4.13
655.433	4.96
655.761	4.07
656.089	4.82
656.417	4.8
656.745	4.68
657.073	4.46
657.4	4.5
657.728	4.16
658.056	4.14
658.383	4.45
658.711	4.7
659.038	4.82
659.365	4.37
659.693	4.47
660.02	4.42
660.347	4.4
660.674	4.13
661.001	4.08
661.329	4.26
661.656	4.22
661.982	3.82
662.309	4.74
662.636	4.35
662.963	4.18
663.29	4.84
663.616	4.35
663.943	4.02
664.27	4.65
664.596	4.15
664.923	4.76
665.249	4.77
665.576	4.25
665.902	4.12
666.228	4.33
666.554	4.91
666.881	4.46
667.207	4.25
667.533	4.45
667.859	4.4
668.185	4.46
668.511	4.73
668.837	4.59
669.162	4.75
669.488	4.24
669.814	4.35
670.139	4.13
670.465	4.47
670.791	3.93
671.116	4.21
671.442	3.92
671.767	4.78
672.092	4.28
672.418	4.95
672.743	4.81
673.068	4.51
673.393	4.23
673.718	3.85
674.043	4.48
674.368	4.17
674.693	4.6
675.018	4.9
675.343	4.98
675.667	4.64
675.992	4.63
676.317	3.77
676.641	4.67
676.966	4.75
677.29	4.65
677.615	4.17
677.939	4.56
678.264	4.28
678.588	4.47
678.912	4.82
679.236	4.09
679.56	3.52
679.885	3.93
680.209	4.74
680.532	4.81
680.856	4.58
681.18	5.21
681.504	4.73
681.828	4.15
682.152	4.05
682.475	4.66
682.799	3.85
683.122	4.5
683.446	3.59
683.769	4.87
684.093	4.99
684.416	3.99
684.739	4.05
685.062	4.22
685.386	4.86
685.709	4.22
686.032	4.53
686.355	4.19
686.678	5.49
687.001	4.64
687.324	4.44
687.646	4.75
687.969	4.26
688.292	4.42
688.614	4.99
688.937	4.98
689.26	4.92
689.582	4.1
689.904	4.78
690.227	4.55
690.549	4.7
690.871	4.13
691.194	4.46
691.516	4.55
691.838	4.91
692.16	3.75
