Data from 22-3_crown_Reflection__2__188.txt Node

Date: Thu Dec 15 17:57:44 CST 2022
User: ToomeyLab
Spectrometer: FLMS14357
Trigger mode: 0
Integration Time (sec): 1.000000E-2
Scans to average: 100
Electric dark correction enabled: true
Nonlinearity correction enabled: false
Boxcar width: 0
XAxis mode: Wavelengths
Number of Pixels in Spectrum: 2048
>>>>>Begin Spectral Data<<<<<
189.047	6.37
189.435	6.37
189.823	6.37
190.211	64
190.599	59.62
190.987	104.09
191.375	-16.82
191.763	-17.44
192.151	-77.3
192.538	238.42
192.926	58.19
193.314	201.13
193.702	-25.16
194.089	-31.78
194.477	58.7
194.864	48.1
195.252	165.68
195.639	92.59
196.027	22.09
196.414	-55.39
196.801	-155.11
197.189	223
197.576	-313.33
197.963	-1983.97
198.351	-38
198.738	-32.93
199.125	-35.01
199.512	31.96
199.899	-28.91
200.286	-19.99
200.673	31.4
201.06	-62.01
201.447	15.27
201.833	0.26
202.22	-17.67
202.607	-11.49
202.994	-34.07
203.38	17.13
203.767	3.5
204.154	25.37
204.54	-9.63
204.927	25.02
205.313	23.42
205.699	-5.3
206.086	10.18
206.472	40.23
206.858	-23.68
207.245	11.27
207.631	-28.13
208.017	0.77
208.403	-75.91
208.789	7.31
209.175	-4.22
209.561	-29.83
209.947	-12.57
210.333	-86.3
210.719	23.18
211.105	28.77
211.491	7.76
211.876	19.69
212.262	-22.33
212.648	-0.83
213.034	-41.37
213.419	15.24
213.805	-28.29
214.19	-26.09
214.576	-46.05
214.961	27.16
215.346	-39.77
215.732	-20.17
216.117	8.82
216.502	-11.67
216.888	-15.96
217.273	-15.71
217.658	-4.68
218.043	-31.44
218.428	-11.26
218.813	7.78
219.198	-58.16
219.583	-30.99
219.968	3
220.353	-28.95
220.738	-10.65
221.122	-3.9
221.507	1.18
221.892	-31.78
222.276	-34.51
222.661	-20.91
223.046	-2.07
223.43	6.26
223.815	3.97
224.199	-2.74
224.583	-2.26
224.968	-3.23
225.352	-15.86
225.736	4.23
226.121	-2.38
226.505	-9.04
226.889	2.53
227.273	-1.71
227.657	2.06
228.041	5.56
228.425	3.91
228.809	3.51
229.193	6.78
229.577	4.62
229.961	5.73
230.344	6.57
230.728	6.59
231.112	7.25
231.495	5.91
231.879	5.52
232.263	5.37
232.646	6.3
233.03	7.35
233.413	7
233.797	5.27
234.18	7.08
234.563	6.61
234.946	5.34
235.33	5.67
235.713	6.13
236.096	6.36
236.479	7.24
236.862	5.21
237.245	4.28
237.628	5.84
238.011	6.04
238.394	4.37
238.777	5.92
239.16	7.48
239.543	6.3
239.925	6.53
240.308	5.19
240.691	6.11
241.073	5.18
241.456	6.01
241.838	5.61
242.221	5.6
242.603	6.56
242.986	6.23
243.368	6.56
243.75	6.52
244.133	6.97
244.515	6.77
244.897	6.75
245.279	6.23
245.661	6.39
246.043	6.37
246.425	6.82
246.807	6.3
247.189	6.32
247.571	6.7
247.953	6.57
248.335	6.64
248.717	6.64
249.098	6.68
249.48	6.54
249.862	6.58
250.243	6.33
250.625	6.57
251.006	6.52
251.388	4.97
251.769	6.12
252.151	6.47
252.532	5.74
252.913	6.4
253.295	6.42
253.676	6.6
254.057	6.15
254.438	6.59
254.819	6.71
255.2	5.91
255.581	6.52
255.962	6.99
256.343	6.33
256.724	6.74
257.105	5.58
257.486	5.76
257.867	6.16
258.247	6.38
258.628	6.6
259.009	5.75
259.389	5.6
259.77	5.51
260.15	7.06
260.531	6.29
260.911	6.55
261.292	6.49
261.672	6.46
262.052	6.29
262.432	6
262.813	6.3
263.193	6.11
263.573	5.8
263.953	5.87
264.333	6.3
264.713	6.29
265.093	6.44
265.473	5.43
265.853	5.95
266.233	6.27
266.612	6.01
266.992	5.87
267.372	5.77
267.752	6.15
268.131	5.65
268.511	5.68
268.89	6.64
269.27	5.85
269.649	5.52
270.029	5.96
270.408	5.81
270.787	6.15
271.167	6.08
271.546	6.64
271.925	6.06
272.304	6.24
272.683	5.81
273.062	5.84
273.441	5.81
273.82	6.06
274.199	6.19
274.578	6.05
274.957	5.92
275.336	6.27
275.715	6.45
276.093	5.31
276.472	5.64
276.851	5.64
277.229	5.58
277.608	5.96
277.986	5.96
278.365	6.01
278.743	5.8
279.122	5.9
279.5	5.97
279.878	5.7
280.257	5.68
280.635	5.88
281.013	5.21
281.391	5.17
281.769	5.87
282.147	5.96
282.525	6
282.903	5
283.281	5.82
283.659	6
284.037	5.6
284.415	5.6
284.792	6.19
285.17	5.56
285.548	5.62
285.925	5.59
286.303	6.02
286.68	5.58
287.058	5.82
287.435	5.56
287.813	5.69
288.19	5.33
288.567	5.4
288.945	5.45
289.322	5.19
289.699	5.42
290.076	5.41
290.453	5.49
290.83	5.49
291.207	5.63
291.584	5.54
291.961	5.69
292.338	5.69
292.715	5.42
293.092	5.97
293.469	5.19
293.845	5.11
294.222	6.16
294.599	5.51
294.975	4.56
295.352	5.76
295.728	5.57
296.105	5.77
296.481	5.55
296.858	5.93
297.234	5.01
297.61	5.69
297.986	5.95
298.363	5.78
298.739	5.74
299.115	5.69
299.491	5.91
299.867	5.64
300.243	5.31
300.619	5.12
300.995	5.62
301.371	5.78
301.746	5.62
302.122	5.15
302.498	5.73
302.874	5.66
303.249	5.65
303.625	5.1
304	5.63
304.376	5.94
304.751	5.53
305.127	5.17
305.502	5.63
305.878	5.37
306.253	5.25
306.628	5.66
307.003	5.68
307.378	5.31
307.754	5.66
308.129	5.35
308.504	6.01
308.879	5.98
309.254	5.32
309.629	5.6
310.003	5.33
310.378	5.61
310.753	5.52
311.128	5.34
311.502	5.28
311.877	5.09
312.252	5.42
312.626	5.63
313.001	5.72
313.375	5.74
313.75	5.7
314.124	5.47
314.498	5.55
314.873	5.18
315.247	5.3
315.621	5.4
315.995	5.25
316.369	5.21
316.743	5.44
317.117	5.39
317.491	5.3
317.865	5.16
318.239	5.65
318.613	5.13
318.987	4.9
319.361	5.29
319.734	5.29
320.108	5.3
320.482	5.51
320.855	5.33
321.229	5.07
321.602	5.31
321.976	5.21
322.349	6.02
322.723	5.23
323.096	6.25
323.469	5.59
323.843	5.19
324.216	5.2
324.589	5.82
324.962	5.32
325.335	5.1
325.708	5.82
326.081	5.52
326.454	5.73
326.827	5.69
327.2	5.41
327.573	6.08
327.945	5.15
328.318	5.12
328.691	5.59
329.063	5.03
329.436	5.25
329.809	5.47
330.181	5.78
330.553	5.58
330.926	6
331.298	5.38
331.671	5.87
332.043	5.34
332.415	5.65
332.787	5.44
333.159	4.91
333.532	5.44
333.904	5.87
334.276	5.88
334.648	5.71
335.02	5.19
335.391	5.16
335.763	5.23
336.135	5.2
336.507	5.3
336.879	5.61
337.25	5.32
337.622	5.39
337.993	5.65
338.365	5.64
338.736	5.51
339.108	5.77
339.479	5.12
339.851	5.73
340.222	5.52
340.593	5.33
340.964	5.28
341.336	5.05
341.707	5.46
342.078	5.36
342.449	5.58
342.82	5.77
343.191	5.37
343.562	5.5
343.933	5.23
344.303	5.6
344.674	5.55
345.045	5.83
345.416	5.36
345.786	5.3
346.157	5.51
346.527	5.34
346.898	5.21
347.268	5.68
347.639	5.29
348.009	5.41
348.38	5.35
348.75	5.81
349.12	5.47
349.49	5.38
349.861	5.7
350.231	5.42
350.601	5.46
350.971	5.43
351.341	5.39
351.711	5.42
352.081	5.35
352.45	5.14
352.82	5.06
353.19	5.36
353.56	5.28
353.929	5.38
354.299	5.66
354.669	5.56
355.038	5.93
355.408	5.6
355.777	5.49
356.147	5.52
356.516	5.34
356.885	5.43
357.254	5.4
357.624	5.43
357.993	5.42
358.362	5.68
358.731	5.9
359.1	5.83
359.469	5.52
359.838	5.56
360.207	5.46
360.576	5.88
360.945	5.75
361.314	5.61
361.682	5.36
362.051	5.59
362.42	5.58
362.788	5.7
363.157	5.55
363.525	5.64
363.894	5.42
364.262	5.56
364.631	5.82
364.999	5.74
365.367	5.69
365.735	5.46
366.104	5.75
366.472	5.43
366.84	5.57
367.208	5.79
367.576	5.45
367.944	5.78
368.312	5.79
368.68	5.9
369.048	5.71
369.416	5.22
369.783	5.62
370.151	5.94
370.519	5.93
370.886	5.78
371.254	5.89
371.621	5.97
371.989	5.68
372.356	5.58
372.724	5.73
373.091	5.69
373.458	5.57
373.826	5.87
374.193	5.76
374.56	5.33
374.927	5.47
375.294	6.01
375.661	5.58
376.028	5.22
376.395	5.8
376.762	5.66
377.129	5.48
377.496	5.97
377.863	5.66
378.229	6.07
378.596	5.83
378.963	5.77
379.329	5.94
379.696	5.57
380.062	5.65
380.429	5.61
380.795	6.14
381.161	5.58
381.528	5.55
381.894	5.78
382.26	6.01
382.626	5.91
382.993	6.18
383.359	5.78
383.725	5.5
384.091	5.81
384.457	5.64
384.823	5.91
385.188	5.94
385.554	5.76
385.92	5.86
386.286	6.18
386.651	6
387.017	6.1
387.383	5.92
387.748	6.08
388.114	5.9
388.479	5.53
388.845	5.62
389.21	5.96
389.575	5.99
389.94	6.08
390.306	6.27
390.671	6.1
391.036	5.94
391.401	6.09
391.766	5.72
392.131	6
392.496	5.9
392.861	5.96
393.226	5.88
393.591	5.89
393.956	6.05
394.32	6.18
394.685	6.07
395.05	6.09
395.414	5.96
395.779	6.05
396.143	5.83
396.508	5.96
396.872	5.88
397.236	6.2
397.601	6.01
397.965	5.92
398.329	5.96
398.694	6
399.058	6.05
399.422	6.14
399.786	5.91
400.15	5.87
400.514	6.08
400.878	6.12
401.242	6.01
401.605	5.97
401.969	5.93
402.333	5.95
402.697	5.93
403.06	6.06
403.424	6.1
403.787	6.22
404.151	6.09
404.514	6.16
404.878	6.1
405.241	5.94
405.604	5.99
405.968	6.14
406.331	6.31
406.694	6.07
407.057	6.01
407.42	6.11
407.783	6.24
408.146	6.18
408.509	6.23
408.872	6.26
409.235	6.19
409.598	6.1
409.961	6.25
410.323	6.12
410.686	6.14
411.049	6.41
411.411	6.37
411.774	6.13
412.136	6.24
412.499	6.44
412.861	5.86
413.223	6.11
413.586	6.23
413.948	6.34
414.31	6.34
414.672	6.32
415.035	6.3
415.397	6.14
415.759	6.04
416.121	6.31
416.483	6.07
416.845	6.25
417.206	6.12
417.568	6.19
417.93	6.4
418.292	6.33
418.653	6.19
419.015	6.35
419.377	6.24
419.738	6.27
420.1	6.31
420.461	6.21
420.822	6.21
421.184	6.21
421.545	6.3
421.906	6.31
422.267	6.19
422.629	6.22
422.99	6.19
423.351	6.19
423.712	6.23
424.073	6.35
424.434	6.45
424.795	6.19
425.155	6.17
425.516	6.13
425.877	6.29
426.238	6.2
426.598	6.19
426.959	6.4
427.32	6.29
427.68	6.38
428.041	6.45
428.401	6.37
428.761	6.49
429.122	6.33
429.482	6.39
429.842	6.47
430.202	6.6
430.563	6.31
430.923	6.41
431.283	6.5
431.643	6.51
432.003	6.53
432.363	6.62
432.722	6.63
433.082	6.39
433.442	6.53
433.802	6.49
434.161	6.48
434.521	6.44
434.881	6.38
435.24	6.41
435.6	6.56
435.959	6.47
436.319	6.56
436.678	6.69
437.037	6.61
437.396	6.49
437.756	6.55
438.115	6.67
438.474	6.57
438.833	6.52
439.192	6.47
439.551	6.53
439.91	6.6
440.269	6.47
440.628	6.53
440.987	6.57
441.345	6.52
441.704	6.38
442.063	6.48
442.421	6.48
442.78	6.52
443.138	6.62
443.497	6.5
443.855	6.57
444.214	6.5
444.572	6.75
444.93	6.56
445.288	6.51
445.647	6.63
446.005	6.66
446.363	6.56
446.721	6.64
447.079	6.54
447.437	6.48
447.795	6.65
448.153	6.61
448.51	6.65
448.868	6.47
449.226	6.67
449.584	6.53
449.941	6.67
450.299	6.5
450.656	6.67
451.014	6.71
451.371	6.69
451.729	6.77
452.086	6.84
452.443	6.8
452.801	6.65
453.158	6.78
453.515	6.74
453.872	6.6
454.229	6.67
454.586	6.61
454.943	6.76
455.3	6.68
455.657	6.68
456.014	6.81
456.371	6.85
456.727	6.8
457.084	6.74
457.441	6.88
457.797	6.78
458.154	6.79
458.51	6.75
458.867	6.72
459.223	6.74
459.58	6.86
459.936	6.72
460.292	6.65
460.648	6.64
461.005	6.63
461.361	6.63
461.717	6.68
462.073	6.82
462.429	6.82
462.785	6.85
463.141	6.85
463.496	6.79
463.852	6.88
464.208	6.8
464.564	6.71
464.919	6.84
465.275	6.86
465.631	6.94
465.986	6.81
466.342	6.87
466.697	6.77
467.052	6.98
467.408	6.93
467.763	6.79
468.118	6.67
468.473	6.9
468.829	6.81
469.184	6.97
469.539	6.8
469.894	6.84
470.249	6.91
470.603	7.06
470.958	7.16
471.313	6.91
471.668	6.91
472.023	7.04
472.377	6.85
472.732	6.94
473.086	6.86
473.441	6.95
473.795	7.22
474.15	7.04
474.504	6.87
474.859	6.72
475.213	6.97
475.567	6.84
475.921	6.99
476.275	7.03
476.63	6.97
476.984	6.98
477.338	6.98
477.692	6.97
478.045	6.89
478.399	6.89
478.753	6.97
479.107	6.92
479.461	6.91
479.814	6.91
480.168	6.93
480.521	6.97
480.875	6.9
481.228	6.96
481.582	6.92
481.935	7.05
482.289	6.92
482.642	7.07
482.995	6.89
483.348	6.83
483.701	6.89
484.055	6.9
484.408	6.85
484.761	6.72
485.114	6.54
485.466	6.53
485.819	6.6
486.172	6.65
486.525	6.7
486.878	6.78
487.23	6.76
487.583	6.83
487.936	6.85
488.288	6.74
488.641	6.72
488.993	6.69
489.345	6.74
489.698	6.68
490.05	6.75
490.402	6.78
490.754	6.79
491.107	6.85
491.459	6.96
491.811	6.87
492.163	6.9
492.515	6.78
492.866	6.78
493.218	6.72
493.57	6.79
493.922	6.81
494.274	6.99
494.625	7.03
494.977	6.99
495.328	7.04
495.68	7.07
496.031	6.95
496.383	6.99
496.734	6.99
497.086	7.14
497.437	7.13
497.788	7.18
498.139	6.95
498.49	7.08
498.842	7.07
499.193	6.92
499.544	6.95
499.894	6.86
500.245	7.13
500.596	7.11
500.947	6.98
501.298	7.02
501.648	7.1
501.999	7.1
502.35	7.03
502.7	7.32
503.051	6.96
503.401	7.25
503.752	6.89
504.102	7
504.452	7.01
504.803	7.02
505.153	7.17
505.503	7.1
505.853	7.08
506.203	7.25
506.553	7.16
506.903	7.17
507.253	7.17
507.603	7.13
507.953	7.1
508.303	7.2
508.652	7.1
509.002	7.27
509.352	7.13
509.701	6.99
510.051	7.07
510.4	7.15
510.75	6.98
511.099	7
511.449	7.18
511.798	7
512.147	7.05
512.496	7.15
512.846	7.17
513.195	7.09
513.544	7.16
513.893	7.02
514.242	7.01
514.591	7.07
514.939	7.15
515.288	7.12
515.637	7.12
515.986	7.12
516.334	7.1
516.683	7.13
517.032	7.06
517.38	7.05
517.729	7.08
518.077	7.11
518.426	7.14
518.774	7.06
519.122	6.93
519.47	6.99
519.819	7.1
520.167	6.97
520.515	6.94
520.863	7.05
521.211	7.02
521.559	7.01
521.907	6.98
522.255	6.97
522.602	7.07
522.95	7.06
523.298	7.24
523.645	7.15
523.993	7.17
524.341	7.07
524.688	7.05
525.036	7.08
525.383	7.12
525.73	6.94
526.078	7.06
526.425	6.96
526.772	6.96
527.119	6.98
527.466	7.04
527.814	7.04
528.161	7.05
528.508	7.14
528.854	7.01
529.201	6.91
529.548	6.87
529.895	6.73
530.242	6.79
530.588	6.76
530.935	6.82
531.282	6.81
531.628	6.89
531.975	6.97
532.321	6.97
532.667	6.95
533.014	7.05
533.36	7.05
533.706	7.03
534.052	7.03
534.399	6.96
534.745	6.83
535.091	6.81
535.437	6.89
535.783	6.94
536.129	6.98
536.474	7.06
536.82	7.1
537.166	6.9
537.512	6.95
537.857	7.01
538.203	6.95
538.549	6.84
538.894	7
539.239	6.99
539.585	7.07
539.93	7.21
540.276	7.15
540.621	7.19
540.966	7
541.311	7.18
541.656	6.98
542.001	6.98
542.346	7
542.691	6.79
543.036	6.85
543.381	6.83
543.726	6.89
544.071	6.87
544.415	6.98
544.76	6.96
545.105	6.97
545.449	6.96
545.794	6.99
546.138	6.98
546.483	7.13
546.827	7.01
547.171	7.05
547.516	7.09
547.86	7.03
548.204	6.99
548.548	6.95
548.892	7.02
549.236	7.01
549.58	7.15
549.924	7.22
550.268	7.17
550.612	7.1
550.956	7.29
551.3	7.23
551.643	7.12
551.987	7.25
552.33	7.21
552.674	6.94
553.017	7.17
553.361	7.14
553.704	7.2
554.048	7.17
554.391	7.2
554.734	6.93
555.077	7.07
555.42	7
555.764	7.05
556.107	7.22
556.45	7.07
556.793	7.32
557.135	7.17
557.478	7.16
557.821	7.16
558.164	7.18
558.507	7.11
558.849	7.17
559.192	7.13
559.534	7.13
559.877	7.02
560.219	7.08
560.562	6.99
560.904	7.17
561.246	6.99
561.589	7.18
561.931	7.18
562.273	7.03
562.615	7
562.957	6.93
563.299	7.05
563.641	7.02
563.983	6.95
564.325	7.1
564.667	7.15
565.008	7.01
565.35	6.9
565.692	6.97
566.033	7.04
566.375	7.03
566.716	6.92
567.058	6.9
567.399	7.08
567.741	7.06
568.082	7.05
568.423	7.01
568.764	7.12
569.105	6.93
569.447	6.92
569.788	7.03
570.129	7.03
570.47	6.99
570.811	7.06
571.151	7.09
571.492	7.08
571.833	6.96
572.174	7
572.514	6.94
572.855	7.08
573.195	7.06
573.536	7.19
573.876	7
574.217	6.97
574.557	6.93
574.898	6.89
575.238	7.17
575.578	7.09
575.918	7.07
576.258	7.3
576.598	6.95
576.938	6.8
577.278	7.03
577.618	7.02
577.958	7.06
578.298	6.83
578.638	6.97
578.977	7.08
579.317	7.11
579.657	6.85
579.996	7.1
580.336	6.99
580.675	7.04
581.014	7.13
581.354	6.99
581.693	7.09
582.032	7.06
582.372	6.93
582.711	7.07
583.05	6.97
583.389	7.16
583.728	7.17
584.067	6.93
584.406	6.96
584.745	6.76
585.083	7.2
585.422	7.12
585.761	7
586.1	6.96
586.438	6.87
586.777	6.96
587.115	7.13
587.454	6.89
587.792	6.93
588.13	6.86
588.469	6.94
588.807	6.98
589.145	6.93
589.483	6.74
589.821	6.88
590.159	7.02
590.497	7.11
590.835	7
591.173	7.12
591.511	7.08
591.849	6.89
592.187	6.82
592.524	7.1
592.862	7.06
593.2	7.02
593.537	6.92
593.875	6.76
594.212	6.67
594.55	6.84
594.887	6.95
595.224	6.95
595.561	7
595.899	7.09
596.236	7.09
596.573	6.8
596.91	7.03
597.247	6.9
597.584	7.04
597.921	6.84
598.258	7.1
598.594	6.99
598.931	6.8
599.268	6.64
599.604	6.83
599.941	6.99
600.277	6.86
600.614	6.96
600.95	6.74
601.287	6.54
601.623	6.57
601.959	7.01
602.296	6.88
602.632	7.03
602.968	6.89
603.304	6.78
603.64	6.79
603.976	6.63
604.312	6.95
604.648	6.87
604.984	6.78
605.319	7.01
605.655	7.07
605.991	6.88
606.326	6.77
606.662	6.58
606.998	6.81
607.333	6.68
607.668	6.81
608.004	6.84
608.339	6.77
608.674	6.66
609.01	7.03
609.345	6.62
609.68	6.72
610.015	6.96
610.35	6.9
610.685	6.74
611.02	6.68
611.355	6.76
611.689	6.66
612.024	6.77
612.359	6.9
612.694	6.95
613.028	6.73
613.363	6.75
613.697	6.79
614.032	6.55
614.366	6.75
614.7	6.77
615.035	6.76
615.369	6.8
615.703	6.94
616.037	6.75
616.371	6.73
616.705	6.9
617.039	6.9
617.373	6.73
617.707	6.99
618.041	6.4
618.375	6.46
618.709	6.75
619.042	6.94
619.376	6.99
619.71	6.64
620.043	7.08
620.377	6.6
620.71	6.63
621.043	7.02
621.377	6.78
621.71	6.92
622.043	6.88
622.376	6.75
622.709	7.15
623.043	6.81
623.376	6.82
623.709	6.76
624.041	6.35
624.374	6.82
624.707	6.57
625.04	6.73
625.373	6.8
625.705	6.91
626.038	6.92
626.37	6.6
626.703	6.91
627.035	6.84
627.368	6.95
627.7	6.82
628.032	6.8
628.365	6.69
628.697	7.01
629.029	6.63
629.361	6.89
629.693	6.72
630.025	6.83
630.357	7.09
630.689	6.83
631.021	7.06
631.353	6.84
631.684	6.72
632.016	6.42
632.348	6.72
632.679	6.83
633.011	6.76
633.342	7.1
633.674	6.56
634.005	6.66
634.336	6.68
634.668	6.64
634.999	6.69
635.33	6.96
635.661	6.5
635.992	6.58
636.323	6.53
636.654	6.72
636.985	6.54
637.316	6.66
637.647	6.87
637.977	6.82
638.308	6.92
638.639	6.42
638.969	6.35
639.3	6.75
639.63	6.49
639.961	6.79
640.291	6.43
640.622	6.93
640.952	6.72
641.282	6.89
641.612	6.56
641.943	6.42
642.273	6.69
642.603	7
642.933	6.97
643.263	6.99
643.592	7.37
643.922	7.26
644.252	6.51
644.582	6.63
644.911	6.93
645.241	6.72
645.571	6.79
645.9	6.53
646.23	7.08
646.559	6.08
646.888	6.39
647.218	6.57
647.547	6.45
647.876	6.61
648.205	6.58
648.534	6.73
648.863	6.44
649.192	6.99
649.521	6.64
649.85	6.51
650.179	6.58
650.508	6.47
650.837	6.65
651.165	6.67
651.494	6.34
651.822	6.92
652.151	6.44
652.479	6.96
652.808	7
653.136	6.74
653.465	6.52
653.793	6.92
654.121	6.69
654.449	6.39
654.777	6.32
655.105	6.37
655.433	6.65
655.761	6.73
656.089	6.43
656.417	7.58
656.745	7.03
657.073	6.63
657.4	6.57
657.728	6.51
658.056	6.84
658.383	6.84
658.711	7
659.038	6.94
659.365	6.91
659.693	6.77
660.02	6.29
660.347	6.85
660.674	6.54
661.001	6.6
661.329	6.31
661.656	6.36
661.982	6.77
662.309	6.48
662.636	6.53
662.963	6.26
663.29	6.69
663.616	6.92
663.943	6.39
664.27	6.23
664.596	6.23
664.923	6.76
665.249	7.09
665.576	7.01
665.902	6.24
666.228	6.69
666.554	6.89
666.881	6.48
667.207	6.95
667.533	6.56
667.859	6.58
668.185	6.44
668.511	7.28
668.837	6.41
669.162	6.61
669.488	5.94
669.814	6.3
670.139	6.14
670.465	7.02
670.791	6.52
671.116	6.41
671.442	5.41
671.767	6.71
672.092	6.44
672.418	6.55
672.743	6.54
673.068	6.37
673.393	6.54
673.718	6.33
674.043	6.12
674.368	6.5
674.693	6.4
675.018	6.42
675.343	6.86
675.667	6.5
675.992	6.72
676.317	5.87
676.641	7.14
676.966	6.76
677.29	6.25
677.615	6.56
677.939	6.79
678.264	6.53
678.588	6.68
678.912	6.42
679.236	6.61
679.56	6.41
679.885	6.85
680.209	6.56
680.532	6.96
680.856	6.52
681.18	7.44
681.504	6.65
681.828	6.31
682.152	6.34
682.475	6.42
682.799	6.24
683.122	6.54
683.446	6.46
683.769	6.83
684.093	6.88
684.416	6.4
684.739	6.11
685.062	6.71
685.386	6.7
685.709	6.69
686.032	6.39
686.355	6.61
686.678	6.34
687.001	6.74
687.324	6.96
687.646	6.66
687.969	6.5
688.292	5.96
688.614	6.59
688.937	6.93
689.26	6.48
689.582	7.08
689.904	6.88
690.227	6.8
690.549	6.44
690.871	6.41
691.194	5.99
691.516	6.39
691.838	7.09
692.16	6.45
692.482	6.2
692.804	6.55
693.126	6.31
693.448	6.62
