Data from 22-3_forehead_Reflection__2__193.txt Node

Date: Thu Dec 15 17:59:37 CST 2022
User: ToomeyLab
Spectrometer: FLMS14357
Trigger mode: 0
Integration Time (sec): 1.000000E-2
Scans to average: 100
Electric dark correction enabled: true
Nonlinearity correction enabled: false
Boxcar width: 0
XAxis mode: Wavelengths
Number of Pixels in Spectrum: 2048
>>>>>Begin Spectral Data<<<<<
189.047	-45.89
189.435	-45.89
189.823	-45.89
190.211	1.72
190.599	-2.08
190.987	288.63
191.375	78.1
191.763	88.81
192.151	-115.37
192.538	188.46
192.926	-1.51
193.314	22.76
193.702	-38.54
194.089	-26.73
194.477	60.68
194.864	82.92
195.252	349.72
195.639	83.84
196.027	21.55
196.414	22.11
196.801	-225.38
197.189	184.64
197.576	84.71
197.963	-1602.11
198.351	-25.8
198.738	-2.01
199.125	-14.29
199.512	42.98
199.899	-31.49
200.286	-1.02
200.673	46.06
201.06	-25.16
201.447	-8.86
201.833	-1.78
202.22	-2.97
202.607	32.92
202.994	21.55
203.38	-3.94
203.767	-15.92
204.154	33.72
204.54	2.2
204.927	34.61
205.313	45.82
205.699	17.06
206.086	50.36
206.472	38.52
206.858	22.39
207.245	3.03
207.631	-37.98
208.017	34.52
208.403	-40.44
208.789	-1.07
209.175	27.51
209.561	-40.15
209.947	11.37
210.333	-29.88
210.719	39.31
211.105	16.08
211.491	-0.32
211.876	-34.88
212.262	28.55
212.648	21.25
213.034	-14.61
213.419	17.17
213.805	-23.43
214.19	-18.99
214.576	13.82
214.961	-6.86
215.346	-12.45
215.732	3.87
216.117	11.68
216.502	-2.31
216.888	-14.63
217.273	4.57
217.658	-3.95
218.043	-1.97
218.428	0.25
218.813	9.05
219.198	-28.69
219.583	-3.41
219.968	4.37
220.353	-30.14
220.738	-22.55
221.122	-6.37
221.507	-13.99
221.892	-31.1
222.276	-28.03
222.661	-8.78
223.046	-6.01
223.43	12.93
223.815	-5.12
224.199	0.88
224.583	-2.45
224.968	-5.1
225.352	-9.82
225.736	5.9
226.121	-3.16
226.505	-5.95
226.889	0.58
227.273	-5.59
227.657	3.42
228.041	0.37
228.425	-4.23
228.809	-1.27
229.193	1.82
229.577	1.44
229.961	1.26
230.344	2.55
230.728	2.25
231.112	2.58
231.495	1.22
231.879	2.92
232.263	1.39
232.646	1.32
233.03	4.05
233.413	2.29
233.797	-1.4
234.18	2.38
234.563	1.38
234.946	1.42
235.33	1.88
235.713	2.15
236.096	2.73
236.479	3.41
236.862	0.85
237.245	2.36
237.628	3.17
238.011	1.36
238.394	2.12
238.777	1.43
239.16	1.1
239.543	2.22
239.925	2.02
240.308	1.43
240.691	0.82
241.073	1.9
241.456	3.08
241.838	2.87
242.221	2.4
242.603	2.21
242.986	2.21
243.368	2.33
243.75	3.12
244.133	2.79
244.515	2.52
244.897	2.37
245.279	2.39
245.661	4.03
246.043	2.34
246.425	2.68
246.807	3.06
247.189	2.47
247.571	2.75
247.953	2.77
248.335	2.77
248.717	2.83
249.098	2.96
249.48	2.86
249.862	2.84
250.243	3.15
250.625	3.18
251.006	3.53
251.388	2.76
251.769	2.04
252.151	2.08
252.532	2.29
252.913	2.78
253.295	2.81
253.676	3.42
254.057	2.89
254.438	2.82
254.819	2.65
255.2	3.28
255.581	3.99
255.962	3.42
256.343	3.59
256.724	3.39
257.105	3.03
257.486	2
257.867	2.88
258.247	3.64
258.628	3.41
259.009	2.85
259.389	2.62
259.77	2.83
260.15	3.48
260.531	3.27
260.911	3.04
261.292	2.89
261.672	2.98
262.052	2.96
262.432	2.67
262.813	2.73
263.193	3
263.573	2.84
263.953	2.35
264.333	3.09
264.713	2.9
265.093	3.03
265.473	1.87
265.853	2.31
266.233	2.88
266.612	2.23
266.992	2.91
267.372	3.41
267.752	3.32
268.131	2.64
268.511	2.38
268.89	3.12
269.27	2
269.649	2.29
270.029	2.5
270.408	2.38
270.787	2.8
271.167	2.76
271.546	3.67
271.925	3.2
272.304	3.14
272.683	2.44
273.062	2.92
273.441	2.58
273.82	2.78
274.199	2.57
274.578	2.96
274.957	2.55
275.336	3.08
275.715	2.81
276.093	2.29
276.472	2.33
276.851	2.67
277.229	2.18
277.608	2.52
277.986	2.13
278.365	3.14
278.743	2.72
279.122	2.63
279.5	2.71
279.878	2.38
280.257	2.58
280.635	2.6
281.013	2.56
281.391	2.75
281.769	3.13
282.147	2.9
282.525	2.38
282.903	2.58
283.281	3.28
283.659	3.28
284.037	2.68
284.415	2.4
284.792	2.77
285.17	3
285.548	2.65
285.925	2.56
286.303	3.22
286.68	2.68
287.058	2.9
287.435	2.73
287.813	3.29
288.19	2.86
288.567	3.13
288.945	2.54
289.322	3.19
289.699	3.24
290.076	3.08
290.453	2.67
290.83	3.26
291.207	3.37
291.584	3.54
291.961	3.26
292.338	2.98
292.715	3.02
293.092	3.92
293.469	3.09
293.845	3.25
294.222	3.91
294.599	3.3
294.975	3.05
295.352	3.58
295.728	3.47
296.105	3.89
296.481	3.71
296.858	3.42
297.234	3.14
297.61	3.77
297.986	4.35
298.363	4.02
298.739	4
299.115	3.7
299.491	4.07
299.867	3.92
300.243	3.95
300.619	3.91
300.995	4.08
301.371	4.38
301.746	3.9
302.122	3.8
302.498	4.57
302.874	4.55
303.249	4.46
303.625	4.01
304	4.47
304.376	4.99
304.751	4.64
305.127	4.53
305.502	4.61
305.878	4.87
306.253	4.47
306.628	4.77
307.003	4.87
307.378	4.37
307.754	5.34
308.129	5.2
308.504	4.87
308.879	5.23
309.254	5.79
309.629	4.71
310.003	5.12
310.378	5.65
310.753	5.43
311.128	5.28
311.502	5.27
311.877	5.38
312.252	5.38
312.626	6.08
313.001	5.53
313.375	5.88
313.75	6.12
314.124	6.02
314.498	5.84
314.873	6.11
315.247	5.84
315.621	5.68
315.995	6.01
316.369	5.72
316.743	6.06
317.117	5.92
317.491	6.4
317.865	5.87
318.239	6.78
318.613	6.33
318.987	5.99
319.361	6.74
319.734	6.21
320.108	6.78
320.482	6.94
320.855	6.8
321.229	6.31
321.602	6.71
321.976	6.27
322.349	7.25
322.723	7.09
323.096	7.41
323.469	6.6
323.843	6.6
324.216	6.91
324.589	6.88
324.962	6.71
325.335	7.08
325.708	6.95
326.081	7.53
326.454	7.42
326.827	7.4
327.2	7.02
327.573	7.7
327.945	7.11
328.318	7.5
328.691	7.51
329.063	7.59
329.436	7.36
329.809	7.96
330.181	7.97
330.553	8.51
330.926	8
331.298	7.34
331.671	7.53
332.043	7.49
332.415	8.12
332.787	7.82
333.159	7.69
333.532	7.98
333.904	8.47
334.276	8.06
334.648	7.81
335.02	8.07
335.391	8.2
335.763	8.45
336.135	8.27
336.507	8.01
336.879	8.02
337.25	8.43
337.622	8.22
337.993	8.03
338.365	8.36
338.736	8.14
339.108	8.32
339.479	8.41
339.851	8.34
340.222	9.3
340.593	8.37
340.964	7.94
341.336	8.36
341.707	8.36
342.078	8.55
342.449	8.37
342.82	8.58
343.191	8.71
343.562	8.48
343.933	8.57
344.303	9.01
344.674	8.77
345.045	8.79
345.416	9.29
345.786	8.7
346.157	8.84
346.527	8.62
346.898	8.67
347.268	9.28
347.639	9
348.009	9
348.38	8.84
348.75	9.06
349.12	9.26
349.49	8.7
349.861	9.03
350.231	8.8
350.601	9.14
350.971	8.42
351.341	9.48
351.711	9
352.081	9.21
352.45	9.33
352.82	9.2
353.19	9.01
353.56	9.41
353.929	9.65
354.299	9.28
354.669	9.79
355.038	9.46
355.408	9.49
355.777	9.61
356.147	9.55
356.516	9.36
356.885	9.76
357.254	9.24
357.624	9.29
357.993	9.76
358.362	9.77
358.731	9.95
359.1	9.74
359.469	9.58
359.838	9.8
360.207	9.88
360.576	9.63
360.945	9.76
361.314	9.63
361.682	9.5
362.051	9.74
362.42	9.81
362.788	9.72
363.157	9.57
363.525	9.95
363.894	9.65
364.262	9.77
364.631	10.1
364.999	9.92
365.367	10.19
365.735	9.79
366.104	9.89
366.472	10.31
366.84	10.19
367.208	10.11
367.576	9.99
367.944	10.17
368.312	10.23
368.68	10.42
369.048	10.27
369.416	10
369.783	10.23
370.151	10.4
370.519	10.83
370.886	10.55
371.254	10.67
371.621	10.37
371.989	10.38
372.356	10.39
372.724	10.42
373.091	10.5
373.458	10.59
373.826	10.74
374.193	10.75
374.56	10.86
374.927	10.51
375.294	10.95
375.661	11.14
376.028	10.87
376.395	10.66
376.762	10.57
377.129	10.75
377.496	10.92
377.863	10.87
378.229	11.2
378.596	11.08
378.963	11.12
379.329	11.32
379.696	10.91
380.062	11.17
380.429	10.69
380.795	11.29
381.161	10.95
381.528	11.09
381.894	11.07
382.26	11.19
382.626	11.43
382.993	11.62
383.359	11.05
383.725	11.16
384.091	11.5
384.457	11.27
384.823	11.59
385.188	11.65
385.554	11.53
385.92	11.34
386.286	11.51
386.651	11.64
387.017	11.97
387.383	11.61
387.748	11.96
388.114	11.85
388.479	11.85
388.845	11.43
389.21	11.89
389.575	11.91
389.94	11.92
390.306	11.88
390.671	12.04
391.036	11.94
391.401	12.07
391.766	11.96
392.131	12.22
392.496	12.05
392.861	11.96
393.226	11.85
393.591	12.08
393.956	11.98
394.32	12.28
394.685	12.09
395.05	12.29
395.414	12.33
395.779	12.22
396.143	12.16
396.508	12.29
396.872	12.19
397.236	12.59
397.601	12.38
397.965	12.51
398.329	12.37
398.694	12.04
399.058	12.49
399.422	12.4
399.786	12.44
400.15	12.48
400.514	12.45
400.878	12.32
401.242	12.53
401.605	12.61
401.969	12.59
402.333	12.7
402.697	12.88
403.06	12.6
403.424	12.74
403.787	12.53
404.151	12.81
404.514	12.88
404.878	12.57
405.241	12.59
405.604	12.8
405.968	12.74
406.331	12.96
406.694	13.03
407.057	12.77
407.42	12.91
407.783	12.96
408.146	12.93
408.509	12.99
408.872	13.05
409.235	13.25
409.598	13.15
409.961	13.28
410.323	13.11
410.686	13.1
411.049	13.2
411.411	13.21
411.774	13.16
412.136	13.11
412.499	13.5
412.861	12.96
413.223	13.21
413.586	13.38
413.948	13.47
414.31	13.58
414.672	13.51
415.035	13.6
415.397	13.39
415.759	13.33
416.121	13.68
416.483	13.39
416.845	13.51
417.206	13.69
417.568	13.47
417.93	13.81
418.292	13.65
418.653	13.42
419.015	13.71
419.377	13.37
419.738	13.58
420.1	13.57
420.461	13.52
420.822	13.68
421.184	13.67
421.545	13.66
421.906	13.55
422.267	13.55
422.629	13.62
422.99	13.54
423.351	13.64
423.712	13.71
424.073	13.83
424.434	13.88
424.795	13.83
425.155	13.86
425.516	13.67
425.877	13.9
426.238	13.81
426.598	13.86
426.959	14.11
427.32	14.09
427.68	14.08
428.041	14.27
428.401	14.09
428.761	14.37
429.122	14.38
429.482	14.48
429.842	14.63
430.202	14.55
430.563	14.62
430.923	14.57
431.283	14.66
431.643	14.76
432.003	14.64
432.363	14.99
432.722	14.73
433.082	14.7
433.442	14.9
433.802	14.88
434.161	14.8
434.521	14.93
434.881	14.81
435.24	14.74
435.6	14.89
435.959	14.9
436.319	14.93
436.678	15.2
437.037	15.06
437.396	15.08
437.756	14.91
438.115	15.11
438.474	15.37
438.833	15.08
439.192	15.06
439.551	15.11
439.91	15.31
440.269	15.22
440.628	15.25
440.987	15.2
441.345	15.28
441.704	15.16
442.063	15.23
442.421	15.27
442.78	15.37
443.138	15.31
443.497	15.52
443.855	15.62
444.214	15.39
444.572	15.73
444.93	15.53
445.288	15.63
445.647	15.48
446.005	15.71
446.363	15.64
446.721	15.72
447.079	15.54
447.437	15.51
447.795	15.61
448.153	15.61
448.51	15.55
448.868	15.6
449.226	15.74
449.584	15.78
449.941	15.92
450.299	15.98
450.656	16.09
451.014	15.96
451.371	16.13
451.729	16.17
452.086	16.16
452.443	16.27
452.801	16.28
453.158	16.23
453.515	16.15
453.872	16.32
454.229	16.23
454.586	16.21
454.943	16.53
455.3	16.55
455.657	16.27
456.014	16.65
456.371	16.68
456.727	16.63
457.084	16.42
457.441	16.8
457.797	16.77
458.154	16.87
458.51	16.72
458.867	16.85
459.223	16.58
459.58	16.74
459.936	16.64
460.292	16.72
460.648	16.68
461.005	16.65
461.361	16.49
461.717	16.49
462.073	16.78
462.429	16.94
462.785	17.2
463.141	17.04
463.496	17.28
463.852	17.28
464.208	17.15
464.564	17.29
464.919	17.23
465.275	17.23
465.631	17.58
465.986	17.55
466.342	17.4
466.697	17.64
467.052	17.71
467.408	17.59
467.763	17.54
468.118	17.38
468.473	17.6
468.829	17.46
469.184	17.71
469.539	17.59
469.894	17.61
470.249	17.82
470.603	17.92
470.958	17.79
471.313	17.99
471.668	18.03
472.023	17.93
472.377	18.06
472.732	17.81
473.086	17.83
473.441	17.96
473.795	18.11
474.15	18.09
474.504	18.16
474.859	18.04
475.213	18.28
475.567	18.17
475.921	18.29
476.275	18.3
476.63	18.46
476.984	18.17
477.338	18.32
477.692	18.33
478.045	18.33
478.399	18.28
478.753	18.46
479.107	18.52
479.461	18.53
479.814	18.49
480.168	18.64
480.521	18.67
480.875	18.58
481.228	18.6
481.582	18.73
481.935	18.69
482.289	18.67
482.642	18.74
482.995	18.65
483.348	18.61
483.701	18.55
484.055	18.56
484.408	18.37
484.761	18.15
485.114	17.91
485.466	17.8
485.819	17.91
486.172	18.16
486.525	18.41
486.878	18.62
487.23	18.72
487.583	18.86
487.936	18.77
488.288	18.52
488.641	18.48
488.993	18.29
489.345	18.32
489.698	18.44
490.05	18.68
490.402	18.85
490.754	18.93
491.107	19.24
491.459	19.18
491.811	19.3
492.163	19.15
492.515	19.04
492.866	18.73
493.218	18.72
493.57	18.93
493.922	19.08
494.274	19.44
494.625	19.68
494.977	19.68
495.328	19.77
495.68	19.87
496.031	19.86
496.383	19.84
496.734	19.98
497.086	20.14
497.437	20.24
497.788	20.12
498.139	19.9
498.49	19.99
498.842	20.01
499.193	20.04
499.544	20.16
499.894	20.07
500.245	20.29
500.596	20.42
500.947	20.38
501.298	20.5
501.648	20.57
501.999	20.69
502.35	20.63
502.7	20.65
503.051	20.63
503.401	20.88
503.752	20.72
504.102	20.8
504.452	20.91
504.803	20.76
505.153	20.97
505.503	20.94
505.853	20.93
506.203	21.1
506.553	21.03
506.903	21.16
507.253	21.13
507.603	21.26
507.953	21.22
508.303	21.29
508.652	21.1
509.002	21.37
509.352	21.27
509.701	21.17
510.051	21.35
510.4	21.16
510.75	21.21
511.099	21.27
511.449	21.51
511.798	21.34
512.147	21.45
512.496	21.5
512.846	21.59
513.195	21.52
513.544	21.62
513.893	21.58
514.242	21.62
514.591	21.66
514.939	21.87
515.288	21.92
515.637	21.82
515.986	22.02
516.334	22
516.683	22.2
517.032	22.13
517.38	22.26
517.729	22.1
518.077	22.19
518.426	22.2
518.774	22.21
519.122	22.1
519.47	22.01
519.819	21.93
520.167	21.84
520.515	21.98
520.863	22.01
521.211	22.09
521.559	22.31
521.907	22.43
522.255	22.55
522.602	22.56
522.95	22.63
523.298	22.68
523.645	22.79
523.993	22.77
524.341	22.96
524.688	22.91
525.036	22.77
525.383	22.87
525.73	22.84
526.078	22.92
526.425	22.79
526.772	22.58
527.119	22.55
527.466	22.59
527.814	22.67
528.161	22.9
528.508	23.05
528.854	23.01
529.201	22.88
529.548	22.7
529.895	22.33
530.242	22.28
530.588	22.43
530.935	22.68
531.282	22.9
531.628	23.07
531.975	23.11
532.321	23.4
532.667	23.42
533.014	23.64
533.36	23.56
533.706	23.48
534.052	23.45
534.399	23.18
534.745	23.06
535.091	23.06
535.437	23.29
535.783	23.45
536.129	23.69
536.474	23.93
536.82	24.11
537.166	24.11
537.512	24.09
537.857	23.84
538.203	23.78
538.549	23.75
538.894	24.14
539.239	24.22
539.585	24.47
539.93	24.54
540.276	24.52
540.621	24.85
540.966	24.72
541.311	24.63
541.656	24.68
542.001	24.38
542.346	24.16
542.691	23.88
543.036	23.82
543.381	23.96
543.726	24.26
544.071	24.42
544.415	24.62
544.76	24.71
545.105	24.63
545.449	24.86
545.794	25.12
546.138	25.16
546.483	25.17
546.827	25.24
547.171	25.2
547.516	25.28
547.86	25.3
548.204	25.26
548.548	25.24
548.892	25.38
549.236	25.4
549.58	25.73
549.924	25.93
550.268	26.04
550.612	25.98
550.956	26.22
551.3	26.03
551.643	26.17
551.987	26.42
552.33	26.29
552.674	26.42
553.017	26.37
553.361	26.5
553.704	26.42
554.048	26.23
554.391	26.22
554.734	26.34
555.077	26.24
555.42	26.41
555.764	26.6
556.107	26.87
556.45	26.81
556.793	27.01
557.135	26.74
557.478	26.96
557.821	26.88
558.164	27.01
558.507	27
558.849	27.05
559.192	27.09
559.534	27.24
559.877	27.25
560.219	27.42
560.562	27.4
560.904	27.56
561.246	27.51
561.589	27.71
561.931	27.55
562.273	27.54
562.615	27.32
562.957	27.47
563.299	27.63
563.641	27.76
563.983	27.62
564.325	27.82
564.667	27.89
565.008	27.98
565.35	27.75
565.692	27.8
566.033	27.99
566.375	27.81
566.716	28.1
567.058	27.68
567.399	28.06
567.741	28.06
568.082	27.92
568.423	27.77
568.764	28.15
569.105	28.14
569.447	28.14
569.788	28.36
570.129	28.41
570.47	28.49
570.811	28.42
571.151	28.61
571.492	28.46
571.833	28.62
572.174	28.58
572.514	28.88
572.855	28.69
573.195	28.79
573.536	28.7
573.876	28.75
574.217	28.75
574.557	28.6
574.898	28.69
575.238	28.92
575.578	28.97
575.918	29.11
576.258	29.11
576.598	29.04
576.938	28.97
577.278	29.33
577.618	29.09
577.958	29.47
578.298	29.7
578.638	29.49
578.977	29.79
579.317	29.92
579.657	29.7
579.996	30
580.336	29.72
580.675	29.87
581.014	30.08
581.354	29.97
581.693	30.08
582.032	29.99
582.372	30.01
582.711	30.17
583.05	30.33
583.389	30.24
583.728	30.36
584.067	30.53
584.406	30.52
584.745	30.48
585.083	30.57
585.422	30.68
585.761	30.73
586.1	30.9
586.438	30.9
586.777	30.87
587.115	30.78
587.454	30.71
587.792	30.9
588.13	30.93
588.469	31.01
588.807	31
589.145	31.17
589.483	31.03
589.821	31.15
590.159	31.14
590.497	31.34
590.835	30.98
591.173	30.89
591.511	31.5
591.849	31.21
592.187	31.2
592.524	31.56
592.862	31.41
593.2	31.44
593.537	31.63
593.875	31.69
594.212	31.84
594.55	31.51
594.887	31.67
595.224	31.66
595.561	31.43
595.899	31.89
596.236	31.62
596.573	31.63
596.91	31.81
597.247	32.03
597.584	32.22
597.921	31.69
598.258	31.64
598.594	31.36
598.931	31.64
599.268	31.75
599.604	31.95
599.941	32.16
600.277	32.38
600.614	32.51
600.95	32.39
601.287	32.28
601.623	32.51
601.959	32.72
602.296	32.67
602.632	32.61
602.968	32.89
603.304	32.88
603.64	32.69
603.976	32.64
604.312	32.59
604.648	32.75
604.984	32.5
605.319	32.52
605.655	32.76
605.991	32.72
606.326	32.59
606.662	32.57
606.998	33.02
607.333	32.88
607.668	33.05
608.004	33.16
608.339	33.38
608.674	33.67
609.01	33.68
609.345	33.28
609.68	33.29
610.015	33.51
610.35	33.35
610.685	33.19
611.02	32.92
611.355	33.24
611.689	33.44
612.024	33.68
612.359	33.63
612.694	34.03
613.028	33.84
613.363	33.73
613.697	34.06
614.032	34
614.366	34.19
614.7	34.18
615.035	34.25
615.369	34
615.703	34.28
616.037	34.11
616.371	34.29
616.705	34.39
617.039	34.68
617.373	34.7
617.707	34.58
618.041	34.59
618.375	35
618.709	34.51
619.042	34.48
619.376	34.62
619.71	34.56
620.043	34.69
620.377	35.01
620.71	34.32
621.043	35.18
621.377	34.88
621.71	35.14
622.043	34.94
622.376	34.96
622.709	35.4
623.043	35.56
623.376	35.25
623.709	35.13
624.041	34.66
624.374	35.08
624.707	35.44
625.04	35.14
625.373	35.14
625.705	35.49
626.038	35.17
626.37	35.44
626.703	35.37
627.035	35.44
627.368	35.69
627.7	35.68
628.032	35.54
628.365	35.64
628.697	35.76
629.029	35.52
629.361	35.75
629.693	35.91
630.025	35.83
630.357	35.99
630.689	35.52
631.021	36.07
631.353	36.15
631.684	35.94
632.016	36.18
632.348	35.9
632.679	36.29
633.011	36.04
633.342	36.03
633.674	36.37
634.005	36.38
634.336	36.75
634.668	36.46
634.999	36.31
635.33	36.42
635.661	36.29
635.992	36.35
636.323	36.89
636.654	36.66
636.985	36.79
637.316	36.91
637.647	36.54
637.977	36.55
638.308	36.7
638.639	36.37
638.969	36.55
639.3	36.77
639.63	36.88
639.961	36.94
640.291	36.62
640.622	37.28
640.952	37.31
641.282	37.44
641.612	37.15
641.943	37.34
642.273	37.13
642.603	37.71
642.933	37.96
643.263	37.62
643.592	38.08
643.922	38.12
644.252	37.54
644.582	37.57
644.911	37.72
645.241	38.03
645.571	37.89
645.9	37.55
646.23	38.23
646.559	37.69
646.888	37.83
647.218	37.79
647.547	37.77
647.876	38.23
648.205	37.67
648.534	38.31
648.863	38.21
649.192	38.7
649.521	38.47
649.85	38.39
650.179	38.47
650.508	38.6
650.837	38.7
651.165	38.38
651.494	38.61
651.822	38.25
652.151	38.39
652.479	38.91
652.808	38.56
653.136	38.06
653.465	38.06
653.793	38.6
654.121	38.64
654.449	38.77
654.777	38.66
655.105	38.86
655.433	38.76
655.761	38.65
656.089	38.71
656.417	39.06
656.745	38.47
657.073	39
657.4	38.7
657.728	39
658.056	39.2
658.383	39.25
658.711	39.22
659.038	39.31
659.365	38.99
659.693	39.41
660.02	39.02
660.347	39.18
660.674	38.7
661.001	38.84
661.329	39.02
661.656	39.03
661.982	38.86
662.309	39.41
662.636	39.54
662.963	39.76
663.29	40.1
663.616	39.23
663.943	39.73
664.27	39.79
664.596	39.67
664.923	39.93
665.249	39.91
665.576	39.92
665.902	39.44
666.228	40.06
666.554	40.55
666.881	39.73
667.207	40.08
667.533	40.26
667.859	40.5
668.185	40.05
668.511	39.5
668.837	40.3
669.162	40.1
669.488	39.12
669.814	39.88
670.139	39.84
670.465	40.2
670.791	40.03
671.116	40.42
671.442	40.02
671.767	40.06
672.092	40.66
