Data from 22-3_chest_Reflection__1__182.txt Node

Date: Thu Dec 15 17:55:30 CST 2022
User: ToomeyLab
Spectrometer: FLMS14357
Trigger mode: 0
Integration Time (sec): 1.000000E-2
Scans to average: 100
Electric dark correction enabled: true
Nonlinearity correction enabled: false
Boxcar width: 0
XAxis mode: Wavelengths
Number of Pixels in Spectrum: 2048
>>>>>Begin Spectral Data<<<<<
189.047	322.02
189.435	322.02
189.823	322.02
190.211	-21.66
190.599	47.75
190.987	98.61
191.375	-16.08
191.763	36.2
192.151	-2.21
192.538	-14.98
192.926	52.43
193.314	164.38
193.702	9.44
194.089	74.73
194.477	67.33
194.864	88.05
195.252	179.65
195.639	91.64
196.027	45.28
196.414	135.35
196.801	-405.97
197.189	122.13
197.576	67.66
197.963	-539.66
198.351	-0.4
198.738	17.37
199.125	-4.9
199.512	26.84
199.899	-49.52
200.286	4.77
200.673	39.24
201.06	48.88
201.447	24.07
201.833	-7.56
202.22	-21.7
202.607	-78.03
202.994	-27.93
203.38	-7
203.767	-2.19
204.154	33.77
204.54	-13.5
204.927	14.06
205.313	51.31
205.699	12.96
206.086	42.2
206.472	17.19
206.858	-23.7
207.245	-43.61
207.631	-33.66
208.017	43.15
208.403	-61.29
208.789	-8.02
209.175	-42.09
209.561	-177.68
209.947	-35
210.333	-35.56
210.719	20.47
211.105	1.54
211.491	-14.62
211.876	0.01
212.262	5.52
212.648	2.6
213.034	-35.93
213.419	-9.52
213.805	-46.77
214.19	-29.8
214.576	-10.81
214.961	-4.73
215.346	-31.39
215.732	-26.95
216.117	14.18
216.502	-28.09
216.888	9.83
217.273	-2.41
217.658	7.17
218.043	-33.79
218.428	-18.88
218.813	-5.04
219.198	-35.82
219.583	-1.77
219.968	6.81
220.353	-7.46
220.738	9.93
221.122	4.58
221.507	-11.15
221.892	-43.19
222.276	-32.28
222.661	-8.76
223.046	-16.37
223.43	8.43
223.815	0.2
224.199	-3.19
224.583	-2.44
224.968	-2.16
225.352	-5.29
225.736	3.73
226.121	-6.99
226.505	-8.48
226.889	-5.13
227.273	-4.19
227.657	4.23
228.041	-1.9
228.425	-0.83
228.809	-1.49
229.193	0.75
229.577	1.46
229.961	0.34
230.344	1.16
230.728	2.08
231.112	1.89
231.495	0.35
231.879	1.13
232.263	2.3
232.646	0.09
233.03	1.68
233.413	1.11
233.797	0.17
234.18	2.51
234.563	0.04
234.946	0.35
235.33	2.14
235.713	1.79
236.096	3.25
236.479	2.78
236.862	-0.3
237.245	1.03
237.628	2.25
238.011	2.58
238.394	1.71
238.777	0.91
239.16	1.35
239.543	0.42
239.925	1.11
240.308	0.49
240.691	0.91
241.073	1.41
241.456	2.95
241.838	2.28
242.221	1.72
242.603	1.48
242.986	1.44
243.368	1.89
243.75	1.57
244.133	1.88
244.515	1.83
244.897	1.5
245.279	1.56
245.661	2.55
246.043	1.86
246.425	2.19
246.807	1.61
247.189	1.6
247.571	1.86
247.953	1.6
248.335	1.71
248.717	1.82
249.098	1.92
249.48	1.86
249.862	1.71
250.243	2.06
250.625	1.49
251.006	2.19
251.388	1.35
251.769	0.87
252.151	2.14
252.532	1.53
252.913	1.38
253.295	1.85
253.676	1.91
254.057	2.07
254.438	1.48
254.819	1.49
255.2	1.88
255.581	2.38
255.962	2.42
256.343	1.96
256.724	2.4
257.105	1.34
257.486	1.06
257.867	1.1
258.247	1.92
258.628	1.93
259.009	1
259.389	1.37
259.77	1.18
260.15	2.34
260.531	1.94
260.911	2.04
261.292	2.09
261.672	1.92
262.052	1.94
262.432	2.01
262.813	1.91
263.193	1.75
263.573	1.91
263.953	2.26
264.333	1.74
264.713	1.76
265.093	1.19
265.473	1.46
265.853	1.96
266.233	2.19
266.612	1.11
266.992	1.95
267.372	1.9
267.752	2.15
268.131	1.74
268.511	1.38
268.89	2.26
269.27	1.67
269.649	1.68
270.029	1.91
270.408	1.6
270.787	1.66
271.167	1.52
271.546	2.12
271.925	1.81
272.304	1.91
272.683	1.73
273.062	1.5
273.441	1.12
273.82	1.67
274.199	1.78
274.578	1.77
274.957	1.64
275.336	1.88
275.715	2.27
276.093	1.22
276.472	1.26
276.851	2.14
277.229	1.6
277.608	1.78
277.986	1.56
278.365	2.21
278.743	1.24
279.122	1.58
279.5	1.72
279.878	1.62
280.257	1.61
280.635	1.86
281.013	1.18
281.391	1.24
281.769	2.3
282.147	1.35
282.525	1.43
282.903	1.39
283.281	2.32
283.659	2.18
284.037	1.6
284.415	1.57
284.792	1.8
285.17	1.74
285.548	1.5
285.925	1.53
286.303	2.05
286.68	1.64
287.058	1.68
287.435	1.76
287.813	1.79
288.19	1.42
288.567	1.9
288.945	1.35
289.322	1.92
289.699	2.4
290.076	1.79
290.453	1.67
290.83	1.98
291.207	1.94
291.584	2.01
291.961	1.79
292.338	1.51
292.715	1.69
293.092	2.05
293.469	1.53
293.845	2.13
294.222	2.35
294.599	1.87
294.975	1.74
295.352	2.5
295.728	2.1
296.105	1.99
296.481	2.23
296.858	2
297.234	1.54
297.61	2.15
297.986	2.45
298.363	2.18
298.739	2.2
299.115	2.22
299.491	2.24
299.867	2.16
300.243	1.83
300.619	1.79
300.995	2.21
301.371	2.11
301.746	2.53
302.122	1.76
302.498	1.85
302.874	2.57
303.249	2.36
303.625	1.85
304	2.2
304.376	2.43
304.751	2.3
305.127	2.28
305.502	2.35
305.878	2.4
306.253	2.09
306.628	2.23
307.003	2.04
307.378	2.49
307.754	2.63
308.129	2.41
308.504	2.24
308.879	2.47
309.254	2.78
309.629	2.63
310.003	2.2
310.378	2.74
310.753	2.74
311.128	2.28
311.502	2.74
311.877	2.43
312.252	2.6
312.626	2.63
313.001	2.6
313.375	2.81
313.75	2.59
314.124	2.39
314.498	2.96
314.873	1.94
315.247	2.4
315.621	2.7
315.995	2.43
316.369	1.99
316.743	2.66
317.117	2.57
317.491	2.81
317.865	1.62
318.239	3.33
318.613	2.07
318.987	2.33
319.361	2.91
319.734	2.74
320.108	3.03
320.482	2.67
320.855	2.55
321.229	2.59
321.602	2.81
321.976	2.54
322.349	3.47
322.723	2.71
323.096	2.6
323.469	3.12
323.843	2.79
324.216	2.59
324.589	2.87
324.962	2.4
325.335	2.99
325.708	2.77
326.081	2.75
326.454	2.74
326.827	3
327.2	2.55
327.573	3.27
327.945	2.76
328.318	2.82
328.691	2.96
329.063	2.58
329.436	2.56
329.809	3.56
330.181	2.8
330.553	3.49
330.926	3.36
331.298	2.94
331.671	3.19
332.043	2.51
332.415	3.13
332.787	3.17
333.159	2.69
333.532	3.41
333.904	2.99
334.276	3.13
334.648	3.1
335.02	3.16
335.391	2.77
335.763	2.79
336.135	3.32
336.507	2.97
336.879	3.27
337.25	3.03
337.622	3.44
337.993	2.95
338.365	2.49
338.736	2.81
339.108	2.92
339.479	3.31
339.851	2.99
340.222	3.18
340.593	2.44
340.964	2.97
341.336	3.11
341.707	3.26
342.078	2.85
342.449	3.14
342.82	3.48
343.191	3.05
343.562	3.09
343.933	3.3
344.303	3.42
344.674	2.99
345.045	3.14
345.416	3.06
345.786	3.22
346.157	3.46
346.527	3.09
346.898	2.67
347.268	3.07
347.639	2.96
348.009	3.39
348.38	2.98
348.75	3.11
349.12	3.32
349.49	3.11
349.861	3.15
350.231	2.73
350.601	2.87
350.971	2.92
351.341	3.08
351.711	3.16
352.081	2.91
352.45	2.98
352.82	2.68
353.19	3.04
353.56	2.97
353.929	3.25
354.299	3.08
354.669	3
355.038	3.36
355.408	3.14
355.777	3.32
356.147	3.4
356.516	2.87
356.885	3.34
357.254	2.99
357.624	2.92
357.993	3.13
358.362	3.14
358.731	3.28
359.1	3.18
359.469	3.31
359.838	3.26
360.207	3.25
360.576	3.46
360.945	3.27
361.314	3.14
361.682	3.12
362.051	3.28
362.42	3.31
362.788	3.34
363.157	3.11
363.525	3.21
363.894	2.96
364.262	3.07
364.631	3.25
364.999	3.26
365.367	3.23
365.735	3.13
366.104	3.2
366.472	3.07
366.84	3.19
367.208	3.36
367.576	3.21
367.944	3.26
368.312	3.06
368.68	3.56
369.048	3.27
369.416	3.21
369.783	3.02
370.151	3.44
370.519	3.63
370.886	3.45
371.254	3.19
371.621	3.18
371.989	3.49
372.356	3.1
372.724	3.22
373.091	3.33
373.458	3.25
373.826	3.51
374.193	3.46
374.56	3.15
374.927	2.99
375.294	3.45
375.661	3.33
376.028	3.21
376.395	3.34
376.762	2.91
377.129	3.28
377.496	3.63
377.863	3.21
378.229	3.59
378.596	3.48
378.963	3.18
379.329	3.66
379.696	3.17
380.062	3.22
380.429	3.16
380.795	3.77
381.161	3.14
381.528	3
381.894	3.24
382.26	3.37
382.626	3.38
382.993	3.72
383.359	3.34
383.725	3.26
384.091	3.43
384.457	3.13
384.823	3.57
385.188	3.46
385.554	3.43
385.92	3.24
386.286	3.23
386.651	3.31
387.017	3.45
387.383	3.43
387.748	3.63
388.114	3.51
388.479	3.33
388.845	3.17
389.21	3.57
389.575	3.63
389.94	3.7
390.306	3.61
390.671	3.53
391.036	3.1
391.401	3.45
391.766	3.3
392.131	3.57
392.496	3.58
392.861	3.49
393.226	3.3
393.591	3.46
393.956	3.47
394.32	3.88
394.685	3.56
395.05	3.29
395.414	3.58
395.779	3.48
396.143	3.4
396.508	3.36
396.872	3.36
397.236	3.56
397.601	3.58
397.965	3.51
398.329	3.41
398.694	3.31
399.058	3.54
399.422	3.32
399.786	3.39
400.15	3.44
400.514	3.59
400.878	3.47
401.242	3.54
401.605	3.35
401.969	3.25
402.333	3.41
402.697	3.87
403.06	3.47
403.424	3.61
403.787	3.42
404.151	3.51
404.514	3.5
404.878	3.45
405.241	3.42
405.604	3.64
405.968	3.55
406.331	3.56
406.694	3.68
407.057	3.41
407.42	3.56
407.783	3.55
408.146	3.37
408.509	3.57
408.872	3.6
409.235	3.64
409.598	3.59
409.961	3.7
410.323	3.05
410.686	3.53
411.049	3.54
411.411	3.56
411.774	3.6
412.136	3.62
412.499	3.81
412.861	3.35
413.223	3.38
413.586	3.67
413.948	3.72
414.31	3.75
414.672	3.44
415.035	3.72
415.397	3.51
415.759	3.32
416.121	3.73
416.483	3.59
416.845	3.54
417.206	3.58
417.568	3.39
417.93	3.7
418.292	3.52
418.653	3.38
419.015	3.64
419.377	3.42
419.738	3.63
420.1	3.6
420.461	3.46
420.822	3.64
421.184	3.57
421.545	3.62
421.906	3.61
422.267	3.54
422.629	3.46
422.99	3.54
423.351	3.53
423.712	3.63
424.073	3.59
424.434	3.76
424.795	3.48
425.155	3.56
425.516	3.48
425.877	3.62
426.238	3.58
426.598	3.64
426.959	3.66
427.32	3.6
427.68	3.69
428.041	3.72
428.401	3.59
428.761	3.78
429.122	3.65
429.482	3.63
429.842	3.63
430.202	3.67
430.563	3.58
430.923	3.64
431.283	3.79
431.643	3.73
432.003	3.78
432.363	3.79
432.722	3.79
433.082	3.67
433.442	3.66
433.802	3.72
434.161	3.64
434.521	3.53
434.881	3.69
435.24	3.63
435.6	3.63
435.959	3.75
436.319	3.75
436.678	3.76
437.037	3.79
437.396	3.66
437.756	3.52
438.115	3.78
438.474	3.8
438.833	3.74
439.192	3.59
439.551	3.64
439.91	3.75
440.269	3.62
440.628	3.67
440.987	3.69
441.345	3.71
441.704	3.73
442.063	3.74
442.421	3.76
442.78	3.73
443.138	3.69
443.497	3.65
443.855	3.86
444.214	3.64
444.572	3.79
444.93	3.75
445.288	3.77
445.647	3.63
446.005	3.75
446.363	3.78
446.721	3.84
447.079	3.73
447.437	3.76
447.795	3.83
448.153	3.73
448.51	3.76
448.868	3.72
449.226	3.73
449.584	3.75
449.941	3.79
450.299	3.77
450.656	3.86
451.014	3.78
451.371	3.96
451.729	3.84
452.086	3.98
452.443	3.89
452.801	3.66
453.158	3.95
453.515	3.73
453.872	3.86
454.229	3.8
454.586	3.84
454.943	3.93
455.3	3.88
455.657	3.88
456.014	3.87
456.371	3.96
456.727	4.01
457.084	3.96
457.441	3.94
457.797	3.85
458.154	3.9
458.51	3.82
458.867	3.89
459.223	3.97
459.58	3.9
459.936	3.9
460.292	3.9
460.648	3.76
461.005	3.81
461.361	3.81
461.717	3.85
462.073	3.91
462.429	3.96
462.785	4.08
463.141	3.88
463.496	4.05
463.852	4.04
464.208	4.04
464.564	3.84
464.919	4.02
465.275	3.84
465.631	4.09
465.986	4.12
466.342	3.83
466.697	3.89
467.052	4.19
467.408	3.99
467.763	3.98
468.118	3.86
468.473	4.09
468.829	3.86
469.184	4.17
469.539	3.75
469.894	4.02
470.249	4.02
470.603	4.24
470.958	4.09
471.313	4.07
471.668	4.02
472.023	4.07
472.377	3.99
472.732	4.04
473.086	4.16
473.441	4.03
473.795	4.18
474.15	4.11
474.504	4.08
474.859	3.82
475.213	4.11
475.567	4.01
475.921	4.07
476.275	4.15
476.63	4.06
476.984	4.05
477.338	4.3
477.692	4.04
478.045	4.12
478.399	4.09
478.753	4.06
479.107	4.1
479.461	4.12
479.814	4.19
480.168	4.09
480.521	4.28
480.875	4.03
481.228	4.13
481.582	4.24
481.935	4.28
482.289	4.11
482.642	4.22
482.995	4.15
483.348	4.04
483.701	4.1
484.055	4.06
484.408	4.06
484.761	3.97
485.114	3.83
485.466	3.86
485.819	3.87
486.172	3.94
486.525	3.95
486.878	4.06
487.23	4.05
487.583	4.06
487.936	4.06
488.288	4.05
488.641	4
488.993	3.97
489.345	3.98
489.698	4
490.05	4.01
490.402	4.03
490.754	4.06
491.107	4.12
491.459	4.19
491.811	4.09
492.163	4.14
492.515	4.14
492.866	4.1
493.218	4.05
493.57	4.08
493.922	4.08
494.274	4.22
494.625	4.27
494.977	4.18
495.328	4.36
495.68	4.29
496.031	4.22
496.383	4.24
496.734	4.3
497.086	4.38
497.437	4.35
497.788	4.39
498.139	4.26
498.49	4.27
498.842	4.31
499.193	4.31
499.544	4.31
499.894	4.24
500.245	4.46
500.596	4.41
500.947	4.24
501.298	4.41
501.648	4.29
501.999	4.38
502.35	4.27
502.7	4.51
503.051	4.41
503.401	4.51
503.752	4.33
504.102	4.4
504.452	4.4
504.803	4.43
505.153	4.44
505.503	4.36
505.853	4.38
506.203	4.41
506.553	4.37
506.903	4.52
507.253	4.52
507.603	4.53
507.953	4.49
508.303	4.62
508.652	4.38
509.002	4.55
509.352	4.46
509.701	4.41
510.051	4.54
510.4	4.56
510.75	4.46
511.099	4.45
511.449	4.57
511.798	4.46
512.147	4.42
512.496	4.57
512.846	4.53
513.195	4.55
513.544	4.59
513.893	4.56
514.242	4.52
514.591	4.6
514.939	4.58
515.288	4.63
515.637	4.64
515.986	4.63
516.334	4.69
516.683	4.66
517.032	4.68
517.38	4.49
517.729	4.61
518.077	4.66
518.426	4.69
518.774	4.61
519.122	4.62
519.47	4.56
519.819	4.59
520.167	4.56
520.515	4.66
520.863	4.57
521.211	4.57
521.559	4.62
521.907	4.67
522.255	4.68
522.602	4.76
522.95	4.76
523.298	4.78
523.645	4.86
523.993	4.8
524.341	4.85
524.688	4.77
525.036	4.73
525.383	4.84
525.73	4.74
526.078	4.85
526.425	4.76
526.772	4.69
527.119	4.75
527.466	4.82
527.814	4.78
528.161	4.81
528.508	4.81
528.854	4.86
529.201	4.72
529.548	4.75
529.895	4.6
530.242	4.58
530.588	4.61
530.935	4.65
531.282	4.67
531.628	4.78
531.975	4.75
532.321	4.82
532.667	4.91
533.014	5.03
533.36	4.94
533.706	4.93
534.052	4.88
534.399	4.87
534.745	4.82
535.091	4.77
535.437	4.83
535.783	4.87
536.129	4.96
536.474	5.05
536.82	5.04
537.166	5.01
537.512	5.09
537.857	5.01
538.203	4.97
538.549	4.94
538.894	4.99
539.239	5.06
539.585	5.16
539.93	5.21
540.276	5.1
540.621	5.17
540.966	5.26
541.311	5.12
541.656	5.14
542.001	5.15
542.346	5.03
542.691	4.98
543.036	5
543.381	4.99
543.726	5.13
544.071	5.13
544.415	5.12
544.76	5.23
545.105	5.24
545.449	5.16
545.794	5.26
546.138	5.23
546.483	5.3
546.827	5.19
547.171	5.23
547.516	5.36
547.86	5.37
548.204	5.37
548.548	5.32
548.892	5.37
549.236	5.34
549.58	5.49
549.924	5.53
550.268	5.6
550.612	5.67
550.956	5.72
551.3	5.69
551.643	5.54
551.987	5.72
552.33	5.75
552.674	5.72
553.017	5.88
553.361	5.84
553.704	5.7
554.048	5.58
554.391	5.72
554.734	5.62
555.077	5.71
555.42	5.56
555.764	5.67
556.107	5.76
556.45	5.75
556.793	5.96
557.135	5.92
557.478	5.89
557.821	5.9
558.164	5.81
558.507	5.73
558.849	6.07
559.192	5.97
559.534	5.96
559.877	5.95
560.219	5.8
560.562	5.88
560.904	6.2
561.246	5.86
561.589	6.19
561.931	5.91
562.273	5.89
562.615	5.9
562.957	6.09
563.299	6.07
563.641	6.09
563.983	6.01
564.325	6.03
564.667	6.12
565.008	6.24
565.35	6.1
565.692	6.03
566.033	6.31
566.375	6.24
566.716	6.18
567.058	6.16
567.399	6.33
567.741	6.36
568.082	6.24
568.423	6.1
568.764	6.33
569.105	6.2
569.447	6.23
569.788	6.41
570.129	6.35
570.47	6.36
570.811	6.38
571.151	6.54
571.492	6.38
571.833	6.46
572.174	6.72
572.514	6.47
572.855	6.61
573.195	6.44
573.536	6.63
573.876	6.55
574.217	6.47
574.557	6.52
574.898	6.56
575.238	6.67
575.578	6.64
575.918	6.68
576.258	6.69
576.598	6.64
576.938	6.64
577.278	6.77
577.618	6.72
577.958	6.84
578.298	6.83
578.638	6.71
578.977	6.85
579.317	6.86
579.657	6.7
579.996	6.92
580.336	7.04
580.675	6.93
581.014	7.01
581.354	6.89
581.693	7.17
582.032	7.24
582.372	7.16
582.711	7.16
583.05	7.16
583.389	7.28
583.728	7.27
584.067	7.05
584.406	7.24
584.745	7
585.083	7.37
585.422	7.42
585.761	7.3
586.1	7.18
586.438	7.09
586.777	7.42
587.115	7.28
587.454	7.23
587.792	7.35
588.13	7.35
588.469	7.45
588.807	7.33
589.145	7.53
589.483	7.14
589.821	7.48
590.159	7.46
590.497	7.57
590.835	7.65
591.173	7.74
591.511	7.83
591.849	7.87
592.187	7.55
592.524	7.73
592.862	7.73
593.2	7.71
593.537	7.58
593.875	7.77
594.212	7.83
594.55	7.64
594.887	7.95
595.224	7.98
595.561	7.78
595.899	7.94
596.236	7.99
596.573	7.97
596.91	7.88
597.247	8.28
597.584	8.03
597.921	8.16
598.258	8.02
598.594	7.82
598.931	7.93
599.268	7.83
599.604	8.28
599.941	7.87
600.277	8.17
600.614	8.39
600.95	8.32
601.287	7.78
601.623	8.1
601.959	8.5
602.296	8.5
602.632	8.26
602.968	8.48
603.304	8.44
603.64	8.38
603.976	7.99
604.312	8.49
604.648	8.56
604.984	8.45
605.319	8.42
605.655	8.54
605.991	8.32
606.326	8.57
606.662	8.37
606.998	8.75
607.333	8.64
607.668	8.54
608.004	8.66
608.339	8.61
608.674	8.8
609.01	8.91
609.345	8.83
609.68	8.69
610.015	8.81
610.35	8.99
610.685	8.7
611.02	8.75
611.355	8.88
611.689	8.89
612.024	9.19
612.359	9.12
612.694	9.13
613.028	9.17
613.363	9.13
613.697	9.35
614.032	9.08
614.366	8.99
614.7	9.39
615.035	9.09
615.369	9.38
615.703	9.37
616.037	9.41
616.371	9.26
616.705	9.6
617.039	9.37
617.373	9.33
617.707	9.5
618.041	9.37
618.375	9.23
618.709	9.64
619.042	9.61
619.376	9.65
619.71	9.48
620.043	9.85
620.377	9.7
620.71	9.77
621.043	10.1
621.377	9.68
621.71	10.25
622.043	9.69
622.376	9.76
622.709	10.18
623.043	9.89
623.376	9.57
623.709	10.12
624.041	9.9
624.374	10.21
624.707	10.1
625.04	9.99
625.373	10.27
625.705	10.36
626.038	10.01
626.37	10.16
626.703	10.02
627.035	9.93
627.368	10.29
627.7	9.98
628.032	10.15
628.365	10.51
628.697	10.52
629.029	10.31
629.361	10.61
629.693	10.59
630.025	10.38
630.357	10.48
630.689	10.64
631.021	10.52
631.353	10.75
631.684	10.55
632.016	10.23
632.348	10.41
632.679	11.11
633.011	10.43
633.342	10.56
633.674	10.45
634.005	11.12
634.336	10.89
634.668	11.09
634.999	10.79
635.33	10.59
635.661	10.84
635.992	10.86
636.323	11.02
636.654	10.99
636.985	11
637.316	11.04
637.647	11.02
637.977	11.08
638.308	11.3
638.639	11.07
638.969	11.38
639.3	11.29
639.63	11.44
639.961	11.03
640.291	10.98
640.622	11.36
640.952	11.26
641.282	11.08
641.612	11.25
641.943	11.35
642.273	11.41
642.603	12.07
642.933	11.59
643.263	11.94
643.592	11.94
643.922	11.77
644.252	11.63
644.582	11.73
644.911	11.89
645.241	11.91
645.571	11.93
645.9	11.51
646.23	12.27
646.559	11.69
646.888	12.16
647.218	12.11
647.547	11.94
647.876	12.2
648.205	11.79
648.534	12.34
648.863	11.58
649.192	12.24
649.521	12.01
649.85	12.49
650.179	12.34
650.508	12.19
650.837	12.58
651.165	12.18
651.494	12.21
651.822	12.62
652.151	12.11
652.479	12.55
652.808	12.55
653.136	12.18
653.465	12.24
653.793	12.5
654.121	12.79
654.449	12.29
654.777	12.02
655.105	12.12
655.433	13.72
655.761	12.41
656.089	12.86
656.417	13.91
656.745	13.03
657.073	12.66
657.4	12.93
657.728	12.63
658.056	12.9
658.383	13.42
658.711	13.3
659.038	13.62
659.365	13.11
659.693	13.2
660.02	12.86
660.347	12.62
660.674	13.03
661.001	13.39
661.329	12.9
661.656	13.15
661.982	13.23
662.309	13.72
662.636	13.49
662.963	13.46
663.29	13.78
663.616	13.32
663.943	13.57
664.27	13.61
664.596	13.72
664.923	13.7
665.249	13.58
665.576	13.36
665.902	13.6
666.228	13.83
666.554	14.09
666.881	13.54
667.207	13.64
667.533	13.85
667.859	13.97
668.185	13.9
668.511	14.19
668.837	13.94
669.162	14.09
669.488	13.11
669.814	14
670.139	13.48
670.465	14.47
670.791	14.08
671.116	13.81
671.442	13.58
671.767	14.34
672.092	13.71
672.418	13.96
672.743	13.69
673.068	14.32
673.393	14.62
673.718	13.97
674.043	14.53
674.368	14.32
674.693	15
675.018	14.77
675.343	14.55
675.667	14.3
675.992	14.83
676.317	14.33
676.641	14.95
676.966	14.78
677.29	14.79
677.615	14.73
677.939	15.08
678.264	14.47
678.588	15.4
678.912	15.29
679.236	14.98
679.56	14.56
679.885	14.91
680.209	14.99
680.532	15.61
680.856	15.41
681.18	15.87
681.504	15.2
681.828	15.25
682.152	15.41
682.475	15.03
682.799	15.24
683.122	15.05
683.446	15.29
683.769	15.42
684.093	15.55
684.416	14.7
684.739	15.04
685.062	15.57
685.386	15.48
685.709	15.91
686.032	16.2
686.355	15.67
686.678	16.16
687.001	16.08
687.324	15.7
687.646	15.88
