Data from 22-3_chest_Reflection__4__185.txt Node

Date: Thu Dec 15 17:56:10 CST 2022
User: ToomeyLab
Spectrometer: FLMS14357
Trigger mode: 0
Integration Time (sec): 1.000000E-2
Scans to average: 100
Electric dark correction enabled: true
Nonlinearity correction enabled: false
Boxcar width: 0
XAxis mode: Wavelengths
Number of Pixels in Spectrum: 2048
>>>>>Begin Spectral Data<<<<<
189.047	-22.69
189.435	-22.69
189.823	-22.69
190.211	45.74
190.599	2.84
190.987	198.89
191.375	-52.29
191.763	71.42
192.151	-298.79
192.538	214.91
192.926	27.91
193.314	117.41
193.702	-45.28
194.089	39.7
194.477	43.78
194.864	57.75
195.252	455.23
195.639	88.04
196.027	3.93
196.414	153.32
196.801	70.58
197.189	116.91
197.576	-235.83
197.963	-2709.7
198.351	-20.76
198.738	-25.23
199.125	-44.59
199.512	31.28
199.899	-55.24
200.286	-25.79
200.673	20.62
201.06	-42.49
201.447	-11.24
201.833	-8.11
202.22	23.62
202.607	-81.29
202.994	15.02
203.38	-8.05
203.767	-20.44
204.154	19.56
204.54	16.5
204.927	47.94
205.313	25.81
205.699	23.53
206.086	42.15
206.472	-9.72
206.858	13.04
207.245	-16.93
207.631	4.09
208.017	29.54
208.403	-42.68
208.789	10.16
209.175	-38.06
209.561	-163.6
209.947	-10.52
210.333	-24.15
210.719	30.47
211.105	13.85
211.491	-5.87
211.876	-7.22
212.262	-4.83
212.648	34.31
213.034	-15.44
213.419	-19.61
213.805	-18.27
214.19	-39.62
214.576	-44.87
214.961	-3.4
215.346	-14.89
215.732	13.63
216.117	8.86
216.502	-16.45
216.888	3.64
217.273	0.13
217.658	-17.01
218.043	-25.26
218.428	-5.63
218.813	6.66
219.198	-19.81
219.583	-13.16
219.968	-6.89
220.353	-24.89
220.738	1.18
221.122	-4.46
221.507	-8.84
221.892	-25.69
222.276	-15.94
222.661	-19.29
223.046	-21.44
223.43	16.61
223.815	14.41
224.199	-12.24
224.583	0.53
224.968	2.08
225.352	-7.7
225.736	8.2
226.121	-3.32
226.505	2.72
226.889	3.91
227.273	-1.22
227.657	1.87
228.041	3.03
228.425	2.83
228.809	0.05
229.193	5.61
229.577	5.23
229.961	4.46
230.344	4.52
230.728	5.39
231.112	4.81
231.495	2.72
231.879	4.45
232.263	5.26
232.646	4.82
233.03	5.44
233.413	4.69
233.797	1.3
234.18	2.89
234.563	3.79
234.946	4.22
235.33	4.4
235.713	4.48
236.096	4.9
236.479	5.28
236.862	3.86
237.245	3.81
237.628	4.79
238.011	5.35
238.394	3.85
238.777	4.42
239.16	4.54
239.543	4.62
239.925	5.21
240.308	4.17
240.691	4.73
241.073	4.26
241.456	5.22
241.838	5.48
242.221	5.13
242.603	5.39
242.986	5.37
243.368	5.61
243.75	5.35
244.133	5.86
244.515	5.45
244.897	5.25
245.279	5.56
245.661	6.04
246.043	5.63
246.425	5.73
246.807	5.18
247.189	5.98
247.571	5.32
247.953	5.77
248.335	5.73
248.717	5.77
249.098	5.73
249.48	5.51
249.862	5.46
250.243	5.68
250.625	5.99
251.006	6.13
251.388	5.69
251.769	4.39
252.151	5.66
252.532	5.59
252.913	5.07
253.295	5.03
253.676	5.22
254.057	5.15
254.438	5.13
254.819	5.52
255.2	6.25
255.581	6.68
255.962	6.06
256.343	5.95
256.724	5.22
257.105	5.71
257.486	4.14
257.867	5.38
258.247	5.64
258.628	4.71
259.009	4.67
259.389	4.95
259.77	4.94
260.15	5.9
260.531	5.61
260.911	5.36
261.292	5.39
261.672	5.49
262.052	5.41
262.432	5.41
262.813	5.61
263.193	6.08
263.573	5.36
263.953	4.66
264.333	5.22
264.713	5.3
265.093	5.22
265.473	4.75
265.853	5.33
266.233	4.81
266.612	4.82
266.992	4.47
267.372	5.43
267.752	5.67
268.131	5.06
268.511	5.07
268.89	5.51
269.27	4.61
269.649	5.21
270.029	5.38
270.408	4.7
270.787	5.09
271.167	5.3
271.546	5.51
271.925	4.98
272.304	5.21
272.683	4.92
273.062	5.04
273.441	5.11
273.82	4.97
274.199	5.11
274.578	5.23
274.957	5.13
275.336	5.61
275.715	5.16
276.093	4.92
276.472	5.2
276.851	4.95
277.229	5.45
277.608	4.72
277.986	4.97
278.365	5.08
278.743	4.96
279.122	4.64
279.5	5
279.878	4.28
280.257	4.86
280.635	4.59
281.013	4.72
281.391	4.76
281.769	5.44
282.147	5.51
282.525	4.77
282.903	5.04
283.281	5.14
283.659	5.51
284.037	5
284.415	4.62
284.792	5.16
285.17	4.7
285.548	4.91
285.925	5.03
286.303	5.45
286.68	5.18
287.058	5.31
287.435	4.96
287.813	5.02
288.19	4.98
288.567	4.72
288.945	5.22
289.322	5.38
289.699	5.15
290.076	5.23
290.453	4.68
290.83	5.01
291.207	5.29
291.584	5.36
291.961	5.09
292.338	4.91
292.715	5.19
293.092	5.12
293.469	4.98
293.845	5.47
294.222	5.66
294.599	4.72
294.975	4.8
295.352	5.65
295.728	5.61
296.105	5.29
296.481	5.9
296.858	5.53
297.234	4.92
297.61	5.55
297.986	5.78
298.363	5.83
298.739	5.64
299.115	5.49
299.491	5.86
299.867	5.6
300.243	5.11
300.619	5.31
300.995	5.81
301.371	5.72
301.746	5.79
302.122	5.25
302.498	5.57
302.874	5.94
303.249	5.77
303.625	5.57
304	6.05
304.376	6.18
304.751	5.18
305.127	5.83
305.502	5.78
305.878	5.83
306.253	5.45
306.628	5.36
307.003	5.54
307.378	5.95
307.754	5.9
308.129	5.44
308.504	5.81
308.879	5.98
309.254	5.75
309.629	5.89
310.003	5.76
310.378	5.62
310.753	6.05
311.128	5.56
311.502	5.89
311.877	5.95
312.252	6.06
312.626	6.51
313.001	6.07
313.375	6.1
313.75	6.01
314.124	6.21
314.498	6.23
314.873	6.16
315.247	6.11
315.621	5.55
315.995	5.89
316.369	5.65
316.743	6.18
317.117	5.43
317.491	6.08
317.865	5.92
318.239	6.22
318.613	5.99
318.987	5.72
319.361	6.05
319.734	6.31
320.108	5.92
320.482	6.68
320.855	5.88
321.229	5.91
321.602	6.03
321.976	5.12
322.349	6.68
322.723	6.12
323.096	5.87
323.469	6.05
323.843	5.54
324.216	6
324.589	6.27
324.962	5.93
325.335	6.16
325.708	6.01
326.081	5.91
326.454	6.28
326.827	6.06
327.2	5.89
327.573	6.55
327.945	6.09
328.318	5.91
328.691	5.89
329.063	5.58
329.436	5.75
329.809	6.64
330.181	6.9
330.553	6.47
330.926	6.21
331.298	6.08
331.671	6.29
332.043	5.88
332.415	6.48
332.787	5.98
333.159	5.86
333.532	6.2
333.904	6.23
334.276	6.27
334.648	5.72
335.02	6.25
335.391	5.98
335.763	6.63
336.135	6.21
336.507	6.66
336.879	5.8
337.25	6.04
337.622	6.37
337.993	5.98
338.365	6.21
338.736	6.45
339.108	6.38
339.479	5.98
339.851	6
340.222	6.58
340.593	5.78
340.964	6.35
341.336	6.2
341.707	5.94
342.078	5.99
342.449	6.32
342.82	6.35
343.191	6
343.562	6.57
343.933	6.07
344.303	6.49
344.674	6.38
345.045	6.37
345.416	6.56
345.786	6.06
346.157	6.18
346.527	5.99
346.898	6.07
347.268	5.96
347.639	6.18
348.009	6.09
348.38	5.82
348.75	6.36
349.12	6.35
349.49	6.18
349.861	6.54
350.231	6.41
350.601	6.54
350.971	6.11
351.341	5.93
351.711	6.13
352.081	5.96
352.45	5.71
352.82	6.18
353.19	6.21
353.56	6.01
353.929	6.28
354.299	6.65
354.669	6.69
355.038	6.64
355.408	6.26
355.777	6.33
356.147	6.25
356.516	6.02
356.885	6.11
357.254	5.85
357.624	5.84
357.993	6.04
358.362	6.24
358.731	6.49
359.1	6.27
359.469	6.2
359.838	6.37
360.207	6.33
360.576	6.34
360.945	6.16
361.314	6.1
361.682	6.3
362.051	6.28
362.42	6.07
362.788	6.33
363.157	6.03
363.525	6.39
363.894	6.15
364.262	6.12
364.631	6.36
364.999	6.45
365.367	6.43
365.735	6.14
366.104	6.23
366.472	5.92
366.84	6.21
367.208	6.49
367.576	6.42
367.944	6.16
368.312	6.35
368.68	6.52
369.048	6.19
369.416	6.28
369.783	6.22
370.151	6.81
370.519	6.88
370.886	6.43
371.254	6.42
371.621	6.56
371.989	6.66
372.356	6.24
372.724	6.3
373.091	6.09
373.458	6.15
373.826	6.42
374.193	6.28
374.56	6.3
374.927	6.35
375.294	6.47
375.661	6.42
376.028	6.59
376.395	6.47
376.762	5.82
377.129	6.2
377.496	6.46
377.863	6.28
378.229	6.49
378.596	6.56
378.963	6.45
379.329	6.21
379.696	6.14
380.062	6.45
380.429	6.12
380.795	6.36
381.161	5.94
381.528	6
381.894	6.18
382.26	6.5
382.626	6.48
382.993	6.49
383.359	6.48
383.725	6.23
384.091	6.65
384.457	6.01
384.823	6.59
385.188	6.39
385.554	6.41
385.92	6.31
386.286	6.46
386.651	6.31
387.017	6.57
387.383	6.29
387.748	6.55
388.114	6.63
388.479	6.27
388.845	6.35
389.21	6.81
389.575	6.66
389.94	6.65
390.306	6.4
390.671	6.54
391.036	6.33
391.401	6.51
391.766	6.35
392.131	6.6
392.496	6.55
392.861	6.41
393.226	6.2
393.591	6.47
393.956	6.6
394.32	6.61
394.685	6.45
395.05	6.61
395.414	6.27
395.779	6.61
396.143	6.47
396.508	6.28
396.872	6.57
397.236	6.7
397.601	6.51
397.965	6.45
398.329	6.64
398.694	6.41
399.058	6.66
399.422	6.53
399.786	6.43
400.15	6.55
400.514	6.68
400.878	6.36
401.242	6.48
401.605	6.55
401.969	6.51
402.333	6.56
402.697	6.72
403.06	6.47
403.424	6.57
403.787	6.53
404.151	6.81
404.514	6.65
404.878	6.41
405.241	6.49
405.604	6.39
405.968	6.68
406.331	6.68
406.694	6.57
407.057	6.47
407.42	6.53
407.783	6.62
408.146	6.43
408.509	6.58
408.872	6.47
409.235	6.47
409.598	6.43
409.961	6.9
410.323	6.37
410.686	6.6
411.049	6.74
411.411	6.44
411.774	6.68
412.136	6.53
412.499	6.95
412.861	6.34
413.223	6.58
413.586	6.61
413.948	6.71
414.31	6.73
414.672	6.68
415.035	6.69
415.397	6.62
415.759	6.27
416.121	6.62
416.483	6.58
416.845	6.72
417.206	6.55
417.568	6.55
417.93	6.78
418.292	6.52
418.653	6.52
419.015	6.6
419.377	6.63
419.738	6.71
420.1	6.56
420.461	6.44
420.822	6.71
421.184	6.64
421.545	6.5
421.906	6.6
422.267	6.48
422.629	6.59
422.99	6.47
423.351	6.46
423.712	6.51
424.073	6.58
424.434	6.74
424.795	6.53
425.155	6.36
425.516	6.47
425.877	6.54
426.238	6.6
426.598	6.54
426.959	6.59
427.32	6.52
427.68	6.57
428.041	6.61
428.401	6.59
428.761	6.72
429.122	6.87
429.482	6.67
429.842	6.63
430.202	6.68
430.563	6.79
430.923	6.64
431.283	6.81
431.643	6.73
432.003	6.76
432.363	6.83
432.722	6.92
433.082	6.57
433.442	6.91
433.802	6.66
434.161	6.8
434.521	6.72
434.881	6.76
435.24	6.64
435.6	6.66
435.959	6.73
436.319	6.75
436.678	6.83
437.037	6.72
437.396	6.77
437.756	6.69
438.115	6.69
438.474	6.8
438.833	6.85
439.192	6.76
439.551	6.71
439.91	6.65
440.269	6.77
440.628	6.73
440.987	6.73
441.345	6.73
441.704	6.7
442.063	6.74
442.421	6.73
442.78	6.75
443.138	6.83
443.497	6.75
443.855	6.78
444.214	6.61
444.572	6.8
444.93	6.87
445.288	6.75
445.647	6.55
446.005	6.85
446.363	6.77
446.721	6.83
447.079	6.8
447.437	6.77
447.795	6.7
448.153	6.66
448.51	6.81
448.868	6.71
449.226	6.73
449.584	6.77
449.941	6.73
450.299	6.72
450.656	6.78
451.014	6.91
451.371	7.02
451.729	6.84
452.086	6.91
452.443	6.95
452.801	6.85
453.158	7.07
453.515	6.79
453.872	6.92
454.229	6.71
454.586	6.71
454.943	6.94
455.3	6.91
455.657	6.88
456.014	7.02
456.371	6.94
456.727	7.02
457.084	6.94
457.441	7
457.797	6.95
458.154	6.92
458.51	6.92
458.867	6.91
459.223	6.87
459.58	6.96
459.936	6.97
460.292	6.93
460.648	6.83
461.005	6.86
461.361	6.77
461.717	6.74
462.073	6.99
462.429	6.97
462.785	7.04
463.141	6.95
463.496	6.88
463.852	7.09
464.208	7.02
464.564	6.93
464.919	7.06
465.275	6.94
465.631	7.09
465.986	7.12
466.342	7.01
466.697	6.99
467.052	7.2
467.408	7.02
467.763	7.09
468.118	6.86
468.473	7.02
468.829	7
469.184	7.12
469.539	6.88
469.894	7.01
470.249	7.13
470.603	7.05
470.958	7.24
471.313	7.27
471.668	7.15
472.023	7.22
472.377	7.07
472.732	7.37
473.086	7.12
473.441	7.03
473.795	7.39
474.15	7.19
474.504	7.11
474.859	7.08
475.213	7.21
475.567	7.01
475.921	7.22
476.275	7.25
476.63	7.2
476.984	6.85
477.338	7.27
477.692	7.18
478.045	7.07
478.399	7.22
478.753	7.1
479.107	7.19
479.461	7.19
479.814	7.26
480.168	7.09
480.521	7.22
480.875	7.11
481.228	7.16
481.582	7.09
481.935	7.25
482.289	7.22
482.642	7.23
482.995	7.16
483.348	7.04
483.701	7.13
484.055	7
484.408	7.03
484.761	6.88
485.114	6.78
485.466	6.75
485.819	6.77
486.172	6.83
486.525	6.91
486.878	7.01
487.23	7
487.583	7.02
487.936	7.02
488.288	6.95
488.641	6.96
488.993	6.94
489.345	6.88
489.698	6.94
490.05	6.93
490.402	7.01
490.754	7.03
491.107	7.05
491.459	7.24
491.811	7.21
492.163	7.15
492.515	7.05
492.866	6.98
493.218	7
493.57	7.08
493.922	7.03
494.274	7.15
494.625	7.27
494.977	7.23
495.328	7.26
495.68	7.36
496.031	7.23
496.383	7.22
496.734	7.21
497.086	7.39
497.437	7.52
497.788	7.39
498.139	7.21
498.49	7.28
498.842	7.26
499.193	7.29
499.544	7.34
499.894	7.19
500.245	7.37
500.596	7.31
500.947	7.34
501.298	7.38
501.648	7.32
501.999	7.53
502.35	7.29
502.7	7.46
503.051	7.35
503.401	7.55
503.752	7.44
504.102	7.45
504.452	7.48
504.803	7.4
505.153	7.43
505.503	7.46
505.853	7.57
506.203	7.37
506.553	7.32
506.903	7.5
507.253	7.43
507.603	7.5
507.953	7.58
508.303	7.59
508.652	7.33
509.002	7.55
509.352	7.57
509.701	7.46
510.051	7.53
510.4	7.66
510.75	7.41
511.099	7.39
511.449	7.56
511.798	7.37
512.147	7.63
512.496	7.62
512.846	7.49
513.195	7.56
513.544	7.51
513.893	7.53
514.242	7.64
514.591	7.59
514.939	7.58
515.288	7.66
515.637	7.64
515.986	7.66
516.334	7.73
516.683	7.71
517.032	7.69
517.38	7.57
517.729	7.7
518.077	7.68
518.426	7.75
518.774	7.67
519.122	7.65
519.47	7.66
519.819	7.63
520.167	7.55
520.515	7.69
520.863	7.68
521.211	7.65
521.559	7.64
521.907	7.7
522.255	7.8
522.602	7.74
522.95	7.86
523.298	7.96
523.645	7.94
523.993	7.8
524.341	7.79
524.688	7.65
525.036	7.84
525.383	7.84
525.73	7.75
526.078	7.94
526.425	7.8
526.772	7.7
527.119	7.76
527.466	7.84
527.814	7.67
528.161	7.9
528.508	7.95
528.854	7.81
529.201	7.76
529.548	7.67
529.895	7.66
530.242	7.57
530.588	7.61
530.935	7.67
531.282	7.67
531.628	7.74
531.975	7.83
532.321	7.89
532.667	7.87
533.014	8.04
533.36	7.9
533.706	7.99
534.052	8.04
534.399	7.88
534.745	7.78
535.091	7.8
535.437	7.88
535.783	7.9
536.129	7.99
536.474	8.05
536.82	8.17
537.166	7.98
537.512	8.09
537.857	8.1
538.203	8.02
538.549	8.08
538.894	8.03
539.239	8.16
539.585	8.25
539.93	8.2
540.276	8.18
540.621	8.34
540.966	8.22
541.311	8.33
541.656	8.17
542.001	8.24
542.346	8.13
542.691	8.04
543.036	8
543.381	8.03
543.726	8.2
544.071	8.16
544.415	8.21
544.76	8.24
545.105	8.22
545.449	8.35
545.794	8.32
546.138	8.35
546.483	8.42
546.827	8.48
547.171	8.43
547.516	8.5
547.86	8.36
548.204	8.49
548.548	8.35
548.892	8.51
549.236	8.47
549.58	8.59
549.924	8.61
550.268	8.73
550.612	8.77
550.956	8.83
551.3	8.89
551.643	8.67
551.987	8.89
552.33	8.99
552.674	8.82
553.017	8.84
553.361	8.74
553.704	8.88
554.048	8.73
554.391	8.86
554.734	8.69
555.077	8.85
555.42	8.91
555.764	8.88
556.107	8.93
556.45	9.17
556.793	9.07
557.135	9.05
557.478	9.02
557.821	9.13
558.164	9.22
558.507	9.02
558.849	9.18
559.192	9.17
559.534	9.05
559.877	8.97
560.219	9.04
560.562	9.08
560.904	9.32
561.246	9.15
561.589	9.19
561.931	9.18
562.273	9.23
562.615	9.09
562.957	9.28
563.299	9.34
563.641	9.34
563.983	9.33
564.325	9.37
564.667	9.41
565.008	9.26
565.35	9.21
565.692	9.49
566.033	9.42
566.375	9.45
566.716	9.26
567.058	9.25
567.399	9.47
567.741	9.49
568.082	9.5
568.423	9.42
568.764	9.47
569.105	9.54
569.447	9.38
569.788	9.49
570.129	9.72
570.47	9.71
570.811	9.76
571.151	9.69
571.492	9.59
571.833	9.67
572.174	9.64
572.514	9.71
572.855	9.89
573.195	9.67
573.536	9.88
573.876	9.82
574.217	9.68
574.557	9.77
574.898	9.85
575.238	9.85
575.578	10.12
575.918	9.87
576.258	10.2
576.598	9.96
576.938	9.92
577.278	10.05
577.618	9.94
577.958	10.01
578.298	9.92
578.638	10.07
578.977	10.12
579.317	10.32
579.657	10.34
579.996	10.46
580.336	10.41
580.675	10.17
581.014	10.34
581.354	10.24
581.693	10.37
582.032	10.73
582.372	10.44
582.711	10.56
583.05	10.37
583.389	10.54
583.728	10.6
584.067	10.39
584.406	10.63
584.745	10.36
585.083	10.56
585.422	10.69
585.761	10.67
586.1	10.92
586.438	10.71
586.777	10.69
587.115	10.81
587.454	10.81
587.792	10.82
588.13	10.77
588.469	10.65
588.807	10.92
589.145	10.78
589.483	10.66
589.821	11.02
590.159	11.03
590.497	11.1
590.835	10.97
591.173	11
591.511	11.26
591.849	11.1
592.187	10.94
592.524	11.21
592.862	11.11
593.2	11.21
593.537	11.26
593.875	11.17
594.212	11.25
594.55	11.46
594.887	11.26
595.224	11.49
595.561	11.21
595.899	11.35
596.236	11.32
596.573	11.24
596.91	11.26
597.247	11.7
597.584	11.31
597.921	11.41
598.258	11.56
598.594	11.32
598.931	11.29
599.268	11.47
599.604	11.6
599.941	11.51
600.277	11.57
600.614	11.52
600.95	11.53
601.287	11.55
601.623	11.56
601.959	12.22
602.296	11.97
602.632	12.06
602.968	11.74
603.304	11.86
603.64	11.69
603.976	11.85
604.312	12.01
604.648	12
604.984	12
605.319	12
605.655	12
605.991	12
606.326	11.94
606.662	11.89
606.998	12.08
607.333	12.14
607.668	12.11
608.004	12.09
608.339	12.21
608.674	12.41
609.01	12.58
609.345	12.16
609.68	12.22
610.015	12.55
610.35	12.41
610.685	12.31
611.02	12.36
611.355	12.38
611.689	12.36
612.024	12.5
612.359	12.61
612.694	12.73
613.028	12.75
613.363	12.41
613.697	12.86
614.032	12.2
614.366	12.93
614.7	12.89
615.035	12.78
615.369	13.19
615.703	12.86
616.037	12.99
616.371	12.92
616.705	12.84
617.039	12.66
617.373	13
617.707	12.91
618.041	12.78
618.375	12.69
618.709	13.02
619.042	12.93
619.376	13.13
619.71	13.15
620.043	13.48
620.377	13.11
620.71	13.02
621.043	13.79
621.377	13.34
621.71	13.54
622.043	13.45
622.376	13.26
622.709	13.67
623.043	13.24
623.376	13.26
623.709	13.54
624.041	13.31
624.374	13.6
624.707	13.44
625.04	13.42
625.373	13.44
625.705	13.94
626.038	13.69
626.37	13.44
626.703	13.92
627.035	13.88
627.368	13.83
627.7	13.71
628.032	13.82
628.365	14.24
628.697	14.12
629.029	13.84
629.361	13.89
629.693	13.95
630.025	14.02
630.357	14.06
630.689	13.87
631.021	14.2
631.353	14.3
631.684	14.19
632.016	13.98
632.348	13.86
632.679	14.26
633.011	14.14
633.342	14.34
633.674	14.04
634.005	14.34
634.336	14.47
634.668	14.31
634.999	13.99
635.33	14.46
635.661	14.41
635.992	14.58
636.323	14.5
636.654	14.42
636.985	14.51
637.316	14.26
637.647	14.4
637.977	14.57
638.308	14.81
638.639	14.7
638.969	14.63
639.3	14.96
639.63	14.77
639.961	14.73
640.291	14.73
640.622	15
640.952	14.8
641.282	14.73
641.612	14.75
641.943	14.71
642.273	14.95
642.603	15.47
642.933	15.03
643.263	15.14
643.592	15.25
643.922	15.72
644.252	15.17
644.582	15.11
644.911	14.98
645.241	15.12
645.571	15.16
645.9	15.54
646.23	15.3
646.559	15.03
646.888	15.68
647.218	15.49
647.547	15.51
647.876	15.85
648.205	15.24
648.534	15.56
648.863	15.31
649.192	15.59
649.521	15.78
649.85	15.59
650.179	15.72
650.508	15.41
650.837	15.97
651.165	15.52
651.494	15.75
651.822	16.27
652.151	15.61
652.479	15.75
652.808	16.01
653.136	15.57
653.465	15.9
653.793	15.97
654.121	15.83
654.449	15.39
654.777	15.59
655.105	15.44
655.433	16.58
655.761	16.27
656.089	16.22
656.417	16.71
656.745	16.31
657.073	16.51
657.4	16.31
657.728	15.92
658.056	15.95
658.383	16.15
658.711	16.13
659.038	16.78
659.365	17.02
659.693	16.72
660.02	16.18
660.347	16.48
660.674	16.24
661.001	16.59
661.329	16.22
661.656	16.22
661.982	16.43
662.309	17.08
662.636	16.42
662.963	16.83
663.29	16.54
663.616	16.41
663.943	16.87
664.27	16.73
664.596	17.13
664.923	17.19
665.249	16.78
665.576	16.87
665.902	16.67
666.228	17.56
666.554	17.66
666.881	16.81
667.207	16.9
667.533	17.72
667.859	17.43
668.185	17.4
668.511	17.18
668.837	17.16
669.162	16.99
669.488	16.75
669.814	16.86
670.139	16.83
670.465	17.69
670.791	16.77
671.116	17.04
671.442	16.79
671.767	17.22
672.092	18.04
672.418	17.17
672.743	17.53
673.068	16.96
673.393	17.45
673.718	16.53
674.043	17.7
674.368	17.14
674.693	17.32
675.018	17.51
675.343	17.43
675.667	18.7
675.992	17.58
676.317	17.03
676.641	17.73
676.966	17.92
677.29	18.1
677.615	17.66
677.939	18.2
678.264	17.27
678.588	18.01
678.912	18.06
679.236	17.66
679.56	17.58
679.885	17.94
680.209	18.4
680.532	18.47
680.856	18.31
681.18	18.76
681.504	18.5
681.828	18.02
682.152	18.07
682.475	18.25
682.799	18.85
683.122	18.99
683.446	18.2
683.769	18.48
684.093	18.63
684.416	18.08
