Data from 22-3_chest_Reflection__2__183.txt Node

Date: Thu Dec 15 17:55:45 CST 2022
User: ToomeyLab
Spectrometer: FLMS14357
Trigger mode: 0
Integration Time (sec): 1.000000E-2
Scans to average: 100
Electric dark correction enabled: true
Nonlinearity correction enabled: false
Boxcar width: 0
XAxis mode: Wavelengths
Number of Pixels in Spectrum: 2048
>>>>>Begin Spectral Data<<<<<
189.047	-138.9
189.435	-138.9
189.823	-138.9
190.211	-93.67
190.599	104.57
190.987	-210.33
191.375	70.05
191.763	10.76
192.151	-102.85
192.538	307.74
192.926	106.19
193.314	119.62
193.702	-83.12
194.089	98.88
194.477	78.82
194.864	-9.87
195.252	219.47
195.639	45.51
196.027	102.12
196.414	9.94
196.801	-241.56
197.189	177.22
197.576	151.13
197.963	-1575.11
198.351	41.11
198.738	-4.74
199.125	-15.11
199.512	12.08
199.899	-1.24
200.286	-9.42
200.673	22.52
201.06	-51.27
201.447	41.79
201.833	-8.97
202.22	26.92
202.607	-88.61
202.994	-1.55
203.38	7.58
203.767	38.03
204.154	43.95
204.54	-44.6
204.927	0.08
205.313	10.71
205.699	4.65
206.086	29.26
206.472	10.01
206.858	6.59
207.245	-10.66
207.631	-16.32
208.017	30.22
208.403	-28.05
208.789	5.91
209.175	-24.34
209.561	-71.5
209.947	9.73
210.333	2.17
210.719	13.83
211.105	33.72
211.491	9.82
211.876	-45.28
212.262	1.78
212.648	36.58
213.034	13.32
213.419	-4.37
213.805	-5.21
214.19	0.2
214.576	-8.37
214.961	7.71
215.346	-36.06
215.732	-6.81
216.117	-13.94
216.502	-19.43
216.888	-15.83
217.273	7.95
217.658	-2.59
218.043	-39.56
218.428	-34.32
218.813	8.09
219.198	-12.26
219.583	-5.82
219.968	1.63
220.353	-16.35
220.738	14.59
221.122	11.71
221.507	-2.84
221.892	-31.25
222.276	-20.01
222.661	-4.15
223.046	-7.77
223.43	8.88
223.815	5.4
224.199	-7.81
224.583	6.92
224.968	-2.57
225.352	-9.06
225.736	11.61
226.121	-4.3
226.505	-2.71
226.889	-3.57
227.273	-5.41
227.657	4.73
228.041	6.23
228.425	-2.88
228.809	1.26
229.193	3.02
229.577	1.67
229.961	2.19
230.344	3.9
230.728	3.27
231.112	3.27
231.495	1.45
231.879	3.22
232.263	3.43
232.646	1.78
233.03	4.13
233.413	2.92
233.797	0.97
234.18	3.3
234.563	2.49
234.946	1.69
235.33	2.91
235.713	3.37
236.096	3.67
236.479	4.41
236.862	3.16
237.245	1.83
237.628	3.44
238.011	2.73
238.394	1.74
238.777	3.04
239.16	4.71
239.543	4.61
239.925	3
240.308	1.67
240.691	3.06
241.073	2.72
241.456	2.74
241.838	1.78
242.221	4.15
242.603	3.87
242.986	3.34
243.368	3.51
243.75	3.86
244.133	3.96
244.515	3.6
244.897	3.55
245.279	2.99
245.661	2.95
246.043	3.28
246.425	3.92
246.807	3.26
247.189	3.96
247.571	3.61
247.953	3.49
248.335	3.84
248.717	3.78
249.098	3.86
249.48	3.64
249.862	3.67
250.243	3.56
250.625	3.72
251.006	4.18
251.388	3.52
251.769	3.57
252.151	3.58
252.532	3.05
252.913	3.64
253.295	3.54
253.676	3.71
254.057	4.07
254.438	4.33
254.819	3.79
255.2	3.73
255.581	4.92
255.962	3.45
256.343	4.68
256.724	3.66
257.105	3.9
257.486	2.52
257.867	3.44
258.247	3.16
258.628	3.7
259.009	3.13
259.389	3.4
259.77	3.49
260.15	4.7
260.531	3.64
260.911	3.82
261.292	3.8
261.672	3.8
262.052	3.8
262.432	3.52
262.813	4.05
263.193	3.81
263.573	3.84
263.953	3.68
264.333	3.43
264.713	3.86
265.093	2.83
265.473	2.65
265.853	3.48
266.233	3.61
266.612	3.32
266.992	3.57
267.372	3.49
267.752	4.21
268.131	3.22
268.511	3.63
268.89	4.18
269.27	3.54
269.649	3.54
270.029	2.9
270.408	3.35
270.787	3.72
271.167	3.07
271.546	3.57
271.925	3.47
272.304	3.84
272.683	3.55
273.062	3.66
273.441	3.51
273.82	3.42
274.199	3.53
274.578	3.71
274.957	3.74
275.336	3.68
275.715	3.61
276.093	3.71
276.472	3.5
276.851	3.98
277.229	3.44
277.608	3.43
277.986	3.82
278.365	3.8
278.743	3.11
279.122	3.27
279.5	3.37
279.878	2.54
280.257	3.55
280.635	3.86
281.013	3.33
281.391	3.43
281.769	3.89
282.147	3.56
282.525	3.22
282.903	3.3
283.281	3.69
283.659	3.78
284.037	3.17
284.415	3.13
284.792	3.77
285.17	3.35
285.548	3.5
285.925	3.02
286.303	3.8
286.68	3.78
287.058	3.89
287.435	3.46
287.813	3.68
288.19	3.26
288.567	3.19
288.945	3.56
289.322	3.74
289.699	3.64
290.076	3.82
290.453	3.43
290.83	3.86
291.207	3.56
291.584	3.69
291.961	3.34
292.338	3.58
292.715	3.48
293.092	3.88
293.469	3.66
293.845	3.49
294.222	4.21
294.599	3.53
294.975	3.56
295.352	3.79
295.728	3.78
296.105	3.62
296.481	4.01
296.858	3.67
297.234	3.56
297.61	3.69
297.986	4
298.363	4.1
298.739	4.07
299.115	3.97
299.491	4.27
299.867	3.8
300.243	3.92
300.619	3.97
300.995	4.22
301.371	4.26
301.746	4.62
302.122	3.6
302.498	4.22
302.874	4.11
303.249	4.11
303.625	3.93
304	4.42
304.376	5.13
304.751	4.22
305.127	4.32
305.502	4.52
305.878	4.76
306.253	4.07
306.628	4.44
307.003	4.39
307.378	4.41
307.754	4.24
308.129	4.5
308.504	4.83
308.879	4.48
309.254	4.86
309.629	5.01
310.003	4.1
310.378	4.64
310.753	4.56
311.128	4.17
311.502	4.71
311.877	4.45
312.252	4.71
312.626	4.99
313.001	5.1
313.375	4.84
313.75	4.92
314.124	4.96
314.498	4.61
314.873	4.74
315.247	4.97
315.621	4.48
315.995	5.11
316.369	4.56
316.743	4.5
317.117	5.22
317.491	5.25
317.865	4.42
318.239	5.52
318.613	5.11
318.987	4.31
319.361	5.08
319.734	4.54
320.108	4.6
320.482	4.86
320.855	4.89
321.229	4.93
321.602	5.52
321.976	5
322.349	6.1
322.723	5.32
323.096	5.42
323.469	5.04
323.843	4.67
324.216	4.87
324.589	5.37
324.962	4.79
325.335	4.82
325.708	5.2
326.081	5.19
326.454	5.58
326.827	5.34
327.2	4.97
327.573	5.7
327.945	4.88
328.318	4.74
328.691	5.38
329.063	4.9
329.436	4.85
329.809	5.97
330.181	5.5
330.553	5.33
330.926	5.64
331.298	5.01
331.671	5.32
332.043	4.91
332.415	5.55
332.787	5.47
333.159	5.42
333.532	5.2
333.904	5.72
334.276	5.59
334.648	5.46
335.02	5.31
335.391	5.5
335.763	5.37
336.135	5.44
336.507	5.36
336.879	5.62
337.25	5.36
337.622	5
337.993	5.29
338.365	5.57
338.736	5.37
339.108	5.46
339.479	5.06
339.851	5.36
340.222	5.98
340.593	5.25
340.964	5.56
341.336	5.09
341.707	5.41
342.078	5.18
342.449	5.61
342.82	5.77
343.191	5.38
343.562	5.31
343.933	5.24
344.303	5.36
344.674	5.47
345.045	5.74
345.416	5.31
345.786	5.26
346.157	5.87
346.527	5.69
346.898	5.39
347.268	5.45
347.639	5.61
348.009	5.54
348.38	5.54
348.75	5.49
349.12	5.78
349.49	5.44
349.861	5.58
350.231	5.63
350.601	5.59
350.971	5.3
351.341	6.02
351.711	5.33
352.081	5.02
352.45	5.34
352.82	4.73
353.19	5.6
353.56	5.76
353.929	6.05
354.299	5.9
354.669	6.31
355.038	5.78
355.408	5.6
355.777	5.56
356.147	5.52
356.516	5.47
356.885	5.75
357.254	5.52
357.624	5.14
357.993	5.8
358.362	5.85
358.731	6.05
359.1	5.72
359.469	5.63
359.838	5.84
360.207	5.56
360.576	5.85
360.945	5.81
361.314	5.85
361.682	5.51
362.051	5.69
362.42	5.58
362.788	5.65
363.157	5.61
363.525	5.69
363.894	5.52
364.262	5.58
364.631	5.74
364.999	5.89
365.367	5.36
365.735	5.65
366.104	5.87
366.472	5.68
366.84	5.74
367.208	6.04
367.576	5.57
367.944	5.78
368.312	5.76
368.68	6.13
369.048	5.62
369.416	5.65
369.783	5.69
370.151	6.04
370.519	6.13
370.886	6.18
371.254	6.09
371.621	5.94
371.989	5.87
372.356	5.89
372.724	5.81
373.091	5.55
373.458	5.69
373.826	5.82
374.193	5.78
374.56	6.01
374.927	5.52
375.294	6.27
375.661	5.86
376.028	5.82
376.395	5.87
376.762	5.57
377.129	5.81
377.496	5.82
377.863	5.74
378.229	5.99
378.596	6.05
378.963	6.02
379.329	6.14
379.696	5.77
380.062	6.06
380.429	5.52
380.795	6.16
381.161	5.52
381.528	5.38
381.894	5.96
382.26	5.88
382.626	5.95
382.993	6.12
383.359	6
383.725	5.81
384.091	6.1
384.457	5.66
384.823	6.14
385.188	5.92
385.554	6.14
385.92	5.94
386.286	5.88
386.651	5.98
387.017	6.21
387.383	5.8
387.748	6.4
388.114	6.01
388.479	5.89
388.845	5.88
389.21	6.06
389.575	6.27
389.94	6.27
390.306	5.97
390.671	5.94
391.036	6.1
391.401	6.04
391.766	5.91
392.131	6.27
392.496	6.17
392.861	6.06
393.226	6.03
393.591	5.9
393.956	6.13
394.32	6.11
394.685	5.91
395.05	6.3
395.414	6.05
395.779	6.2
396.143	6.04
396.508	6.17
396.872	5.97
397.236	6.25
397.601	6.27
397.965	6.17
398.329	6.06
398.694	5.91
399.058	6.08
399.422	6
399.786	6.1
400.15	5.95
400.514	6.03
400.878	6.22
401.242	6.16
401.605	6.18
401.969	6.18
402.333	5.86
402.697	6.43
403.06	6.07
403.424	6.27
403.787	6.25
404.151	6.32
404.514	6.33
404.878	6.14
405.241	6.09
405.604	6.11
405.968	6.12
406.331	6.24
406.694	6.2
407.057	6.22
407.42	6.04
407.783	6.13
408.146	6.29
408.509	6.07
408.872	6.31
409.235	6.33
409.598	6.27
409.961	6.29
410.323	6.11
410.686	6.26
411.049	6.13
411.411	6.18
411.774	6.18
412.136	6.2
412.499	6.55
412.861	6.13
413.223	6.32
413.586	6.48
413.948	6.47
414.31	6.15
414.672	6.2
415.035	6.45
415.397	6.31
415.759	6.01
416.121	6.28
416.483	6.3
416.845	6.19
417.206	6.2
417.568	6.17
417.93	6.26
418.292	6.04
418.653	6.07
419.015	6.19
419.377	6.21
419.738	6.19
420.1	6.15
420.461	6.07
420.822	6.28
421.184	6.24
421.545	6.21
421.906	6.16
422.267	6.14
422.629	6.19
422.99	6.08
423.351	6.19
423.712	6.23
424.073	6.24
424.434	6.36
424.795	6.12
425.155	6.1
425.516	6.1
425.877	6.19
426.238	6.16
426.598	6.2
426.959	6.22
427.32	6.28
427.68	6.22
428.041	6.46
428.401	6.24
428.761	6.42
429.122	6.33
429.482	6.38
429.842	6.41
430.202	6.42
430.563	6.41
430.923	6.53
431.283	6.55
431.643	6.4
432.003	6.3
432.363	6.59
432.722	6.5
433.082	6.41
433.442	6.52
433.802	6.54
434.161	6.51
434.521	6.43
434.881	6.38
435.24	6.33
435.6	6.41
435.959	6.45
436.319	6.47
436.678	6.54
437.037	6.46
437.396	6.72
437.756	6.35
438.115	6.55
438.474	6.61
438.833	6.58
439.192	6.46
439.551	6.37
439.91	6.56
440.269	6.56
440.628	6.53
440.987	6.5
441.345	6.45
441.704	6.58
442.063	6.5
442.421	6.58
442.78	6.49
443.138	6.53
443.497	6.44
443.855	6.57
444.214	6.44
444.572	6.75
444.93	6.66
445.288	6.55
445.647	6.46
446.005	6.58
446.363	6.47
446.721	6.62
447.079	6.57
447.437	6.5
447.795	6.49
448.153	6.45
448.51	6.53
448.868	6.48
449.226	6.54
449.584	6.54
449.941	6.63
450.299	6.47
450.656	6.68
451.014	6.67
451.371	6.71
451.729	6.64
452.086	6.61
452.443	6.56
452.801	6.75
453.158	6.87
453.515	6.52
453.872	6.72
454.229	6.66
454.586	6.62
454.943	6.71
455.3	6.79
455.657	6.71
456.014	6.73
456.371	6.78
456.727	6.91
457.084	6.87
457.441	6.91
457.797	6.89
458.154	6.72
458.51	6.82
458.867	6.73
459.223	6.77
459.58	6.78
459.936	6.79
460.292	6.75
460.648	6.57
461.005	6.68
461.361	6.65
461.717	6.63
462.073	6.71
462.429	6.82
462.785	6.82
463.141	6.84
463.496	6.86
463.852	7
464.208	6.97
464.564	6.83
464.919	6.92
465.275	6.99
465.631	7.1
465.986	7.01
466.342	6.86
466.697	6.95
467.052	7.06
467.408	7.03
467.763	7.02
468.118	6.78
468.473	7.01
468.829	6.83
469.184	7.12
469.539	6.88
469.894	6.93
470.249	6.95
470.603	7.13
470.958	7.13
471.313	6.91
471.668	7.03
472.023	7.08
472.377	7
472.732	7.19
473.086	6.96
473.441	7.13
473.795	7.17
474.15	7.05
474.504	7
474.859	6.95
475.213	7.04
475.567	6.94
475.921	7.2
476.275	7.04
476.63	7.05
476.984	7.07
477.338	7.09
477.692	7.07
478.045	7.02
478.399	7.04
478.753	6.95
479.107	7.21
479.461	7.03
479.814	7.02
480.168	7.14
480.521	7.2
480.875	7
481.228	7.13
481.582	7.14
481.935	7.2
482.289	7.1
482.642	7.22
482.995	7
483.348	7.06
483.701	7.11
484.055	6.98
484.408	7.04
484.761	6.9
485.114	6.68
485.466	6.66
485.819	6.68
486.172	6.76
486.525	6.89
486.878	6.92
487.23	7.01
487.583	7.02
487.936	7.03
488.288	6.99
488.641	6.93
488.993	6.89
489.345	6.9
489.698	6.88
490.05	6.94
490.402	7
490.754	7.08
491.107	7.05
491.459	7.28
491.811	7.15
492.163	7.24
492.515	7.05
492.866	7.01
493.218	7
493.57	7.1
493.922	7.05
494.274	7.25
494.625	7.29
494.977	7.34
495.328	7.48
495.68	7.43
496.031	7.35
496.383	7.31
496.734	7.38
497.086	7.44
497.437	7.46
497.788	7.5
498.139	7.39
498.49	7.38
498.842	7.5
499.193	7.28
499.544	7.35
499.894	7.4
500.245	7.5
500.596	7.56
500.947	7.46
501.298	7.44
501.648	7.55
501.999	7.58
502.35	7.48
502.7	7.71
503.051	7.58
503.401	7.63
503.752	7.49
504.102	7.59
504.452	7.54
504.803	7.56
505.153	7.66
505.503	7.64
505.853	7.69
506.203	7.72
506.553	7.65
506.903	7.72
507.253	7.64
507.603	7.7
507.953	7.64
508.303	7.72
508.652	7.6
509.002	7.69
509.352	7.73
509.701	7.6
510.051	7.73
510.4	7.76
510.75	7.61
511.099	7.62
511.449	7.81
511.798	7.66
512.147	7.7
512.496	7.73
512.846	7.77
513.195	7.75
513.544	7.82
513.893	7.8
514.242	7.72
514.591	7.75
514.939	7.85
515.288	7.97
515.637	7.87
515.986	7.84
516.334	7.91
516.683	7.87
517.032	7.85
517.38	7.86
517.729	7.92
518.077	7.98
518.426	7.94
518.774	7.78
519.122	7.74
519.47	7.87
519.819	7.85
520.167	7.74
520.515	7.84
520.863	7.82
521.211	7.92
521.559	7.85
521.907	8.04
522.255	8.06
522.602	8.02
522.95	8.16
523.298	8.11
523.645	8.1
523.993	8.15
524.341	7.97
524.688	8.06
525.036	8.14
525.383	8.11
525.73	8.14
526.078	8.12
526.425	8.09
526.772	8.01
527.119	7.99
527.466	8.06
527.814	8.12
528.161	8.08
528.508	8.15
528.854	8.06
529.201	7.94
529.548	8
529.895	7.83
530.242	7.77
530.588	7.79
530.935	7.9
531.282	7.96
531.628	8.02
531.975	8.05
532.321	8.14
532.667	8.2
533.014	8.27
533.36	8.33
533.706	8.27
534.052	8.21
534.399	8.2
534.745	8.11
535.091	8.12
535.437	8.23
535.783	8.25
536.129	8.25
536.474	8.45
536.82	8.51
537.166	8.35
537.512	8.45
537.857	8.38
538.203	8.33
538.549	8.28
538.894	8.46
539.239	8.48
539.585	8.54
539.93	8.73
540.276	8.64
540.621	8.72
540.966	8.63
541.311	8.75
541.656	8.62
542.001	8.61
542.346	8.5
542.691	8.32
543.036	8.42
543.381	8.39
543.726	8.54
544.071	8.57
544.415	8.49
544.76	8.64
545.105	8.63
545.449	8.63
545.794	8.72
546.138	8.71
546.483	8.75
546.827	8.78
547.171	8.91
547.516	8.86
547.86	8.93
548.204	8.92
548.548	8.83
548.892	8.84
549.236	8.96
549.58	9.04
549.924	9.11
550.268	9.19
550.612	9.24
550.956	9.36
551.3	9.44
551.643	9.34
551.987	9.55
552.33	9.43
552.674	9.33
553.017	9.3
553.361	9.36
553.704	9.34
554.048	9.35
554.391	9.3
554.734	9.26
555.077	9.3
555.42	9.18
555.764	9.52
556.107	9.66
556.45	9.53
556.793	9.68
557.135	9.63
557.478	9.56
557.821	9.51
558.164	9.67
558.507	9.46
558.849	9.75
559.192	9.7
559.534	9.48
559.877	9.56
560.219	9.7
560.562	9.71
560.904	9.9
561.246	9.69
561.589	9.9
561.931	9.96
562.273	9.81
562.615	9.68
562.957	9.66
563.299	9.82
563.641	9.72
563.983	9.67
564.325	9.83
564.667	9.91
565.008	9.95
565.35	9.74
565.692	10.04
566.033	9.86
566.375	10.17
566.716	10.07
567.058	10.05
567.399	10.14
567.741	10
568.082	10.16
568.423	10
568.764	10.19
569.105	10.21
569.447	10.17
569.788	10.17
570.129	10.18
570.47	10.24
570.811	10.31
571.151	10.36
571.492	10.28
571.833	10.38
572.174	10.48
572.514	10.37
572.855	10.35
573.195	10.35
573.536	10.34
573.876	10.36
574.217	10.24
574.557	10.34
574.898	10.39
575.238	10.56
575.578	10.59
575.918	10.59
576.258	10.6
576.598	10.55
576.938	10.61
577.278	10.67
577.618	10.63
577.958	10.69
578.298	10.65
578.638	10.71
578.977	10.66
579.317	10.85
579.657	10.82
579.996	11.05
580.336	10.86
580.675	11
581.014	10.97
581.354	10.79
581.693	10.98
582.032	11.33
582.372	11.05
582.711	11.39
583.05	11.21
583.389	11.15
583.728	11.3
584.067	11.08
584.406	11.56
584.745	11.4
585.083	11.21
585.422	11.34
585.761	11.33
586.1	11.27
586.438	11.38
586.777	11.55
587.115	11.51
587.454	11.45
587.792	11.49
588.13	11.36
588.469	11.67
588.807	11.68
589.145	11.61
589.483	11.24
589.821	11.64
590.159	11.78
590.497	11.69
590.835	11.77
591.173	11.85
591.511	11.83
591.849	11.79
592.187	11.75
592.524	12.06
592.862	11.7
593.2	11.83
593.537	11.67
593.875	11.88
594.212	12.04
594.55	11.89
594.887	11.9
595.224	12.24
595.561	12.12
595.899	12.22
596.236	12.27
596.573	11.96
596.91	12.04
597.247	12.1
597.584	12.15
597.921	11.99
598.258	12.2
598.594	12.01
598.931	11.88
599.268	11.95
599.604	12.26
599.941	12.42
600.277	12.6
600.614	12.37
600.95	12.35
601.287	12.12
601.623	12.38
601.959	12.86
602.296	12.66
602.632	12.74
602.968	12.74
603.304	12.44
603.64	12.78
603.976	12.68
604.312	12.87
604.648	12.79
604.984	12.53
605.319	12.79
605.655	12.91
605.991	12.62
606.326	12.69
606.662	12.54
606.998	12.9
607.333	12.97
607.668	12.67
608.004	12.87
608.339	12.96
608.674	12.94
609.01	13.43
609.345	13.05
609.68	12.95
610.015	13.4
610.35	13.29
610.685	12.93
611.02	13.11
611.355	13.11
611.689	13.19
612.024	13.38
612.359	13.36
612.694	13.54
613.028	13.24
613.363	13.52
613.697	13.59
614.032	13.44
614.366	13.43
614.7	13.51
615.035	13.56
615.369	13.76
615.703	13.85
616.037	13.53
616.371	13.53
616.705	13.78
617.039	13.71
617.373	14.19
617.707	13.84
618.041	13.6
618.375	13.51
618.709	13.93
619.042	13.98
619.376	13.85
619.71	13.99
620.043	14.56
620.377	14.15
620.71	13.95
621.043	14.3
621.377	13.95
621.71	14.3
622.043	14.21
622.376	14.41
622.709	14.94
623.043	14.56
623.376	14.48
623.709	14.86
624.041	14.56
624.374	14.21
624.707	14.32
625.04	14.52
625.373	14.67
625.705	14.46
626.038	14.55
626.37	14.26
626.703	14.53
627.035	14.51
627.368	14.77
627.7	14.84
628.032	14.81
628.365	14.65
628.697	14.95
629.029	14.79
629.361	14.74
629.693	14.8
630.025	14.87
630.357	14.77
630.689	15.13
631.021	15.2
631.353	15.03
631.684	14.86
632.016	14.82
632.348	15.33
632.679	15.15
633.011	15.31
633.342	15.1
633.674	15.08
634.005	15.15
634.336	15.82
634.668	15.37
634.999	14.92
635.33	15.37
635.661	15.13
635.992	15.58
636.323	15.38
636.654	15.71
636.985	15.57
637.316	15.71
637.647	15.52
637.977	15.32
638.308	15.87
638.639	15.53
638.969	15.52
639.3	16.02
639.63	16.08
639.961	16.06
640.291	15.81
640.622	15.73
640.952	15.75
641.282	15.7
641.612	15.6
641.943	15.91
642.273	15.87
642.603	16.43
642.933	16
643.263	16.16
643.592	16.66
643.922	16.49
644.252	16.55
644.582	16.06
644.911	15.91
645.241	16.47
645.571	16.07
645.9	16.23
646.23	16.45
646.559	16.19
646.888	16.58
647.218	16.71
647.547	16.55
647.876	16.72
648.205	16.14
648.534	16.7
648.863	16.53
649.192	16.72
649.521	16.9
649.85	16.75
650.179	16.91
650.508	16.62
650.837	16.67
651.165	17.1
651.494	16.75
651.822	17.13
652.151	17.03
652.479	16.79
652.808	17.01
653.136	16.84
653.465	16.62
653.793	17.19
654.121	16.93
654.449	16.99
654.777	16.61
655.105	16.66
655.433	17.69
655.761	17.37
656.089	17.29
656.417	18.02
656.745	18.01
657.073	17.05
657.4	17.35
657.728	17.22
658.056	17.27
658.383	17.33
658.711	18.03
659.038	18.04
659.365	17.8
659.693	17.15
660.02	17.47
660.347	17.87
660.674	17.35
661.001	17.79
661.329	17.52
661.656	17.51
661.982	17.65
662.309	17.37
662.636	17.84
662.963	17.85
663.29	17.64
663.616	17.99
663.943	17.81
664.27	17.93
664.596	17.65
664.923	18.23
665.249	18.51
665.576	18.34
665.902	18.09
666.228	17.76
666.554	18.1
666.881	17.91
667.207	17.87
667.533	17.95
667.859	18.21
668.185	17.88
668.511	18.6
668.837	18.48
669.162	18.57
669.488	17.74
669.814	18.35
670.139	17.99
670.465	18.86
670.791	18.46
671.116	18.39
671.442	18.13
671.767	18.61
672.092	18.96
672.418	18.47
672.743	18.52
673.068	18.31
673.393	18.8
673.718	18.6
674.043	18.32
674.368	18.67
674.693	19.03
675.018	19.41
675.343	19.28
675.667	18.42
675.992	19.54
676.317	18.83
676.641	19.67
676.966	19.3
677.29	18.35
677.615	18.72
677.939	19.62
678.264	19.4
678.588	19.45
678.912	19.26
679.236	19.35
679.56	19.04
679.885	18.97
680.209	19.63
680.532	20.06
680.856	19.45
681.18	20.02
681.504	19.43
681.828	19.52
682.152	19.29
682.475	19.57
682.799	19.22
683.122	19.45
683.446	19.36
683.769	20.09
684.093	19.83
684.416	19.74
