Data from 0089_crown_Reflection__5__136.txt Node

Date: Mon Aug 28 19:52:15 CDT 2023
User: ToomeyLab
Spectrometer: FLMS14357
Trigger mode: 0
Integration Time (sec): 1.000000E-2
Scans to average: 100
Electric dark correction enabled: true
Nonlinearity correction enabled: false
Boxcar width: 0
XAxis mode: Wavelengths
Number of Pixels in Spectrum: 2048
>>>>>Begin Spectral Data<<<<<
189.047	-143.02
189.435	-143.02
189.823	-143.02
190.211	1379.07
190.599	112.7
190.987	289.65
191.375	46.61
191.763	67.95
192.151	-46.7
192.538	26.57
192.926	381.53
193.314	260.27
193.702	241.93
194.089	134.19
194.477	5307.06
194.864	-299.77
195.252	4.22
195.639	108.55
196.027	114.05
196.414	262.96
196.801	70.09
197.189	27.07
197.576	-459.95
197.963	-12.9
198.351	19.43
198.738	66.55
199.125	5.14
199.512	-29.07
199.899	70.29
200.286	-133.15
200.673	20.35
201.06	18.78
201.447	-34.58
201.833	-51.75
202.22	-7.18
202.607	30.91
202.994	40.05
203.38	24.97
203.767	6.53
204.154	9.94
204.54	-16.21
204.927	-34.49
205.313	4.26
205.699	-42.09
206.086	16.04
206.472	28.05
206.858	-66.76
207.245	-8.77
207.631	14.35
208.017	-12.23
208.403	-9.12
208.789	-15.31
209.175	-40.75
209.561	-19.81
209.947	-7.72
210.333	8.09
210.719	-15.73
211.105	9.25
211.491	-14.53
211.876	-6.31
212.262	-60.15
212.648	-19.9
213.034	-32.24
213.419	12.7
213.805	-5.59
214.19	-17.9
214.576	-1.25
214.961	34.14
215.346	-22.28
215.732	14.96
216.117	-39.08
216.502	-4.98
216.888	-74.34
217.273	-4.62
217.658	31.44
218.043	-22.79
218.428	6.91
218.813	23.76
219.198	-4.31
219.583	13.9
219.968	24.2
220.353	-3.79
220.738	5.75
221.122	8.22
221.507	-39.62
221.892	-0.14
222.276	2.41
222.661	-11.36
223.046	-8.08
223.43	7.04
223.815	9.89
224.199	6.93
224.583	9.28
224.968	9.71
225.352	3.95
225.736	0.64
226.121	-5.38
226.505	-0.88
226.889	2.75
227.273	5.74
227.657	11.3
228.041	6.68
228.425	1.17
228.809	1.35
229.193	2.23
229.577	4.04
229.961	4.19
230.344	5.06
230.728	4.6
231.112	3.25
231.495	4.01
231.879	3.45
232.263	2.41
232.646	3.03
233.03	3.7
233.413	5.02
233.797	3.77
234.18	3.41
234.563	5.74
234.946	7.11
235.33	3.64
235.713	3.36
236.096	4.88
236.479	3.76
236.862	4.37
237.245	4.54
237.628	4.91
238.011	6.94
238.394	6.35
238.777	6.01
239.16	2.94
239.543	3.31
239.925	5.99
240.308	3.17
240.691	2.29
241.073	3.43
241.456	3.88
241.838	4.15
242.221	3.75
242.603	3.69
242.986	4.81
243.368	3.58
243.75	3.9
244.133	4.5
244.515	3.47
244.897	4.08
245.279	4.02
245.661	3.46
246.043	4.08
246.425	4.78
246.807	5.38
247.189	2.87
247.571	4.29
247.953	3.94
248.335	3.85
248.717	3.85
249.098	3.72
249.48	4.11
249.862	3.82
250.243	3.83
250.625	4.11
251.006	3.91
251.388	4.4
251.769	4
252.151	4.48
252.532	2.55
252.913	4.13
253.295	2.96
253.676	4.06
254.057	3.96
254.438	3.59
254.819	4
255.2	3.98
255.581	4.1
255.962	3.71
256.343	4.37
256.724	3.12
257.105	3.66
257.486	4.74
257.867	3.46
258.247	3.91
258.628	5.04
259.009	2.74
259.389	3.92
259.77	4.01
260.15	2.69
260.531	3.35
260.911	3.67
261.292	3.89
261.672	3.58
262.052	3.46
262.432	3.43
262.813	3.35
263.193	3.5
263.573	3.3
263.953	3.69
264.333	2.9
264.713	3.39
265.093	3.84
265.473	3.51
265.853	3.6
266.233	3.26
266.612	3.71
266.992	4.11
267.372	3.02
267.752	3.68
268.131	3.69
268.511	2.57
268.89	3.7
269.27	3.11
269.649	3.3
270.029	3.75
270.408	3.06
270.787	3.98
271.167	3.69
271.546	2.95
271.925	3.68
272.304	3.43
272.683	3.34
273.062	2.79
273.441	2.93
273.82	2.95
274.199	2.92
274.578	3.02
274.957	3.27
275.336	3.6
275.715	3.84
276.093	3.06
276.472	3.48
276.851	3.02
277.229	3.4
277.608	3.29
277.986	2.9
278.365	3.2
278.743	3
279.122	3.23
279.5	3.1
279.878	3.18
280.257	3.35
280.635	3.17
281.013	3.89
281.391	3.37
281.769	3.07
282.147	3.5
282.525	3.25
282.903	3.59
283.281	3.06
283.659	3.66
284.037	3.48
284.415	2.91
284.792	3
285.17	2.8
285.548	2.86
285.925	3.19
286.303	3.1
286.68	3.56
287.058	3.42
287.435	2.97
287.813	2.96
288.19	3.66
288.567	3.17
288.945	3.05
289.322	3.06
289.699	3.31
290.076	3.76
290.453	3.55
290.83	2.63
291.207	2.96
291.584	2.93
291.961	3.05
292.338	3.09
292.715	2.7
293.092	2.99
293.469	3.07
293.845	2.52
294.222	2.48
294.599	3.07
294.975	3.12
295.352	3.07
295.728	3.52
296.105	3.53
296.481	3.56
296.858	3.14
297.234	3.35
297.61	3.29
297.986	2.91
298.363	3.18
298.739	3.12
299.115	2.89
299.491	3.24
299.867	3.15
300.243	3.46
300.619	3.55
300.995	3.17
301.371	2.88
301.746	3.26
302.122	3.08
302.498	3.07
302.874	3.21
303.249	2.9
303.625	3.47
304	3.37
304.376	2.72
304.751	2.71
305.127	3.6
305.502	3.09
305.878	2.88
306.253	2.91
306.628	3.03
307.003	3.23
307.378	3.24
307.754	2.69
308.129	2.7
308.504	3.65
308.879	3
309.254	3.15
309.629	3
310.003	3.12
310.378	2.65
310.753	2.86
311.128	3.12
311.502	3.22
311.877	2.91
312.252	3.53
312.626	3.05
313.001	3.12
313.375	3.18
313.75	3.15
314.124	2.8
314.498	3.12
314.873	3.35
315.247	3.47
315.621	2.73
315.995	3.47
316.369	3.16
316.743	2.91
317.117	3.07
317.491	2.33
317.865	2.41
318.239	2.79
318.613	2.77
318.987	3.31
319.361	3.22
319.734	2.99
320.108	3.51
320.482	3.35
320.855	3.63
321.229	2.62
321.602	3.4
321.976	2.79
322.349	2.98
322.723	2.69
323.096	3.43
323.469	3.23
323.843	2.7
324.216	3.29
324.589	3.46
324.962	3.68
325.335	3.14
325.708	2.94
326.081	3.1
326.454	3.21
326.827	3.13
327.2	3.08
327.573	3.22
327.945	3.2
328.318	3.63
328.691	2.29
329.063	2.73
329.436	2.19
329.809	3.21
330.181	2.7
330.553	2.86
330.926	3.29
331.298	2.71
331.671	2.8
332.043	3.02
332.415	4.13
332.787	2.84
333.159	2.66
333.532	3.51
333.904	3.9
334.276	3.01
334.648	2.86
335.02	3.39
335.391	2.83
335.763	3.09
336.135	3.32
336.507	2.72
336.879	2.4
337.25	3.74
337.622	3.4
337.993	3.32
338.365	3.18
338.736	3.44
339.108	2.79
339.479	2.53
339.851	3.55
340.222	3.36
340.593	3.15
340.964	3.48
341.336	2.56
341.707	3.01
342.078	3.24
342.449	3.35
342.82	3.12
343.191	2.88
343.562	2.77
343.933	2.85
344.303	3.11
344.674	3.05
345.045	2.92
345.416	3.21
345.786	3.05
346.157	3.45
346.527	2.87
346.898	2.93
347.268	2.75
347.639	2.87
348.009	2.67
348.38	3.31
348.75	2.96
349.12	3.2
349.49	3.11
349.861	2.64
350.231	2.77
350.601	3.28
350.971	3.53
351.341	3.09
351.711	3.04
352.081	2.87
352.45	3.34
352.82	3.17
353.19	3.53
353.56	3.12
353.929	3.04
354.299	2.53
354.669	3.44
355.038	3.1
355.408	3.28
355.777	3.25
356.147	3.05
356.516	3.22
356.885	3.14
357.254	3.1
357.624	2.98
357.993	3.57
358.362	2.99
358.731	3.56
359.1	3.29
359.469	3.31
359.838	2.94
360.207	3.26
360.576	3.4
360.945	3.33
361.314	3.31
361.682	2.88
362.051	3.56
362.42	3.21
362.788	3.27
363.157	3.3
363.525	3.16
363.894	3.03
364.262	3.31
364.631	3.01
364.999	3.09
365.367	3.27
365.735	3.36
366.104	3.03
366.472	3.01
366.84	3.22
367.208	3.3
367.576	2.91
367.944	3.32
368.312	3.26
368.68	3.01
369.048	3.34
369.416	2.96
369.783	3.36
370.151	3.42
370.519	3.03
370.886	3.31
371.254	3.05
371.621	3.11
371.989	3.46
372.356	3.02
372.724	3.97
373.091	3.43
373.458	3.27
373.826	3.53
374.193	3.24
374.56	3.25
374.927	3.38
375.294	3.19
375.661	3.57
376.028	3.04
376.395	3.3
376.762	3.68
377.129	3.12
377.496	3.15
377.863	3.53
378.229	3.15
378.596	3.48
378.963	3.14
379.329	3.78
379.696	3.19
380.062	3.45
380.429	2.97
380.795	3.53
381.161	3.54
381.528	3.62
381.894	3.3
382.26	3.41
382.626	3.4
382.993	3.35
383.359	3.2
383.725	3.39
384.091	3.42
384.457	3.29
384.823	3.33
385.188	3.21
385.554	3.31
385.92	3.31
386.286	3.61
386.651	3.38
387.017	3.52
387.383	3.33
387.748	3.48
388.114	3.28
388.479	3.26
388.845	3.41
389.21	3.26
389.575	3.65
389.94	3.24
390.306	3.31
390.671	3.17
391.036	3.38
391.401	3.79
391.766	3.67
392.131	3.69
392.496	3.29
392.861	3.31
393.226	3.43
393.591	3.16
393.956	3.48
394.32	3.28
394.685	3.31
395.05	3.63
395.414	3.28
395.779	3.49
396.143	3.33
396.508	3.26
396.872	3.56
397.236	3.26
397.601	3.51
397.965	3.51
398.329	3.55
398.694	3.47
399.058	3.49
399.422	3.68
399.786	3.7
400.15	3.55
400.514	3.42
400.878	3.46
401.242	3.55
401.605	3.53
401.969	3.39
402.333	3.46
402.697	3.59
403.06	3.73
403.424	3.63
403.787	3.33
404.151	3.34
404.514	3.69
404.878	3.36
405.241	3.68
405.604	3.56
405.968	3.4
406.331	3.69
406.694	3.52
407.057	3.52
407.42	3.27
407.783	3.53
408.146	3.38
408.509	3.57
408.872	3.54
409.235	3.46
409.598	3.61
409.961	3.46
410.323	3.6
410.686	3.44
411.049	3.75
411.411	3.7
411.774	3.63
412.136	3.35
412.499	3.57
412.861	3.47
413.223	3.72
413.586	3.4
413.948	3.58
414.31	3.73
414.672	3.51
415.035	3.39
415.397	3.39
415.759	3.83
416.121	3.8
416.483	3.42
416.845	3.66
417.206	3.65
417.568	3.66
417.93	3.6
418.292	3.58
418.653	3.59
419.015	3.48
419.377	3.37
419.738	3.8
420.1	3.67
420.461	3.69
420.822	3.59
421.184	3.67
421.545	3.62
421.906	3.56
422.267	3.69
422.629	3.44
422.99	3.58
423.351	3.63
423.712	3.44
424.073	3.56
424.434	3.63
424.795	3.6
425.155	3.58
425.516	3.58
425.877	3.53
426.238	3.54
426.598	3.49
426.959	3.57
427.32	3.62
427.68	3.58
428.041	3.5
428.401	3.73
428.761	3.63
429.122	3.58
429.482	3.66
429.842	3.77
430.202	3.66
430.563	3.74
430.923	3.84
431.283	3.64
431.643	3.69
432.003	3.68
432.363	3.52
432.722	3.65
433.082	3.58
433.442	3.59
433.802	3.59
434.161	3.65
434.521	3.65
434.881	3.64
435.24	3.58
435.6	3.71
435.959	3.76
436.319	3.82
436.678	3.57
437.037	3.62
437.396	3.78
437.756	3.63
438.115	3.8
438.474	3.88
438.833	3.8
439.192	3.72
439.551	3.62
439.91	3.77
440.269	3.86
440.628	3.73
440.987	3.65
441.345	3.66
441.704	3.67
442.063	3.72
442.421	3.65
442.78	3.65
443.138	3.76
443.497	3.58
443.855	3.85
444.214	3.85
444.572	3.76
444.93	3.88
445.288	3.71
445.647	3.76
446.005	3.76
446.363	3.87
446.721	3.83
447.079	3.83
447.437	3.74
447.795	3.7
448.153	3.69
448.51	3.67
448.868	3.74
449.226	3.69
449.584	3.72
449.941	3.71
450.299	3.78
450.656	3.75
451.014	3.7
451.371	3.7
451.729	3.65
452.086	3.76
452.443	4.04
452.801	3.88
453.158	3.97
453.515	3.79
453.872	3.75
454.229	3.93
454.586	3.91
454.943	3.73
455.3	3.77
455.657	3.87
456.014	3.87
456.371	3.82
456.727	3.71
457.084	3.84
457.441	4.06
457.797	3.81
458.154	3.91
458.51	3.91
458.867	3.8
459.223	3.96
459.58	3.89
459.936	3.91
460.292	3.94
460.648	3.84
461.005	3.7
461.361	3.85
461.717	3.81
462.073	3.73
462.429	3.74
462.785	3.84
463.141	3.77
463.496	3.97
463.852	3.91
464.208	3.81
464.564	3.83
464.919	3.87
465.275	4.19
465.631	4.02
465.986	4.21
466.342	4.01
466.697	3.9
467.052	3.87
467.408	4
467.763	3.83
468.118	3.89
468.473	3.95
468.829	3.84
469.184	3.81
469.539	3.84
469.894	3.96
470.249	3.87
470.603	3.97
470.958	3.86
471.313	4.1
471.668	3.88
472.023	4.01
472.377	3.82
472.732	4.11
473.086	4.05
473.441	3.99
473.795	4.1
474.15	4.2
474.504	4.17
474.859	3.85
475.213	4.03
475.567	3.92
475.921	4.17
476.275	4.05
476.63	4.02
476.984	4.07
477.338	4.15
477.692	4.01
478.045	3.86
478.399	4.05
478.753	3.88
479.107	4.04
479.461	3.95
479.814	4.16
480.168	3.97
480.521	3.92
480.875	4.01
481.228	4.03
481.582	4.04
481.935	3.95
482.289	4.02
482.642	4.04
482.995	4.05
483.348	4
483.701	4.02
484.055	3.98
484.408	3.89
484.761	4.06
485.114	3.93
485.466	3.9
485.819	3.8
486.172	3.67
486.525	3.7
486.878	3.75
487.23	3.82
487.583	3.86
487.936	3.91
488.288	3.93
488.641	3.94
488.993	3.92
489.345	3.82
489.698	3.89
490.05	3.78
490.402	3.8
490.754	3.88
491.107	3.88
491.459	3.86
491.811	3.97
492.163	4.04
492.515	4.02
492.866	4.09
493.218	3.94
493.57	3.91
493.922	3.81
494.274	3.84
494.625	3.84
494.977	3.98
495.328	4.03
495.68	4.02
496.031	4.11
496.383	4.07
496.734	4.09
497.086	4.14
497.437	4.22
497.788	4.12
498.139	4.18
498.49	4.03
498.842	4.05
499.193	3.97
499.544	4.06
499.894	3.98
500.245	3.94
500.596	4.11
500.947	4.1
501.298	4.16
501.648	3.96
501.999	4.1
502.35	4.03
502.7	4.17
503.051	4.11
503.401	4.18
503.752	4.14
504.102	4.2
504.452	4.11
504.803	4.16
505.153	4.03
505.503	4.05
505.853	4.11
506.203	4.2
506.553	4.12
506.903	4.34
507.253	4.31
507.603	4.1
507.953	4.19
508.303	4.46
508.652	4.06
509.002	4.28
509.352	4.12
509.701	4.04
510.051	4.18
510.4	4.19
510.75	4.22
511.099	4.26
511.449	4.2
511.798	4.17
512.147	4.12
512.496	4.27
512.846	4.04
513.195	4.25
513.544	4.24
513.893	4.13
514.242	4.16
514.591	4.26
514.939	4.01
515.288	4.2
515.637	4.2
515.986	4.13
516.334	4.23
516.683	4.26
517.032	4.24
517.38	4.42
517.729	4.26
518.077	4.31
518.426	4.19
518.774	4.09
519.122	4.31
519.47	4.21
519.819	4.13
520.167	4.1
520.515	4.18
520.863	4.09
521.211	4.09
521.559	4.12
521.907	4.08
522.255	4.16
522.602	4.12
522.95	4.26
523.298	4.3
523.645	4.29
523.993	4.22
524.341	4.21
524.688	4.31
525.036	4.3
525.383	4.27
525.73	4.24
526.078	4.32
526.425	4.35
526.772	4.23
527.119	4.27
527.466	4.12
527.814	4.12
528.161	4.09
528.508	4.21
528.854	4.18
529.201	4.27
529.548	4.16
529.895	4.21
530.242	4.13
530.588	4.05
530.935	4
531.282	3.97
531.628	4.02
531.975	4.11
532.321	4.1
532.667	4.15
533.014	4.25
533.36	4.23
533.706	4.27
534.052	4.22
534.399	4.21
534.745	4.23
535.091	4.16
535.437	4.13
535.783	4.12
536.129	4.18
536.474	4.15
536.82	4.23
537.166	4.27
537.512	4.22
537.857	4.4
538.203	4.24
538.549	4.25
538.894	4.22
539.239	4.19
539.585	4.23
539.93	4.3
540.276	4.26
540.621	4.39
540.966	4.34
541.311	4.49
541.656	4.42
542.001	4.36
542.346	4.41
542.691	4.31
543.036	4.28
543.381	4.21
543.726	4.14
544.071	4.17
544.415	4.21
544.76	4.22
545.105	4.2
545.449	4.14
545.794	4.25
546.138	4.3
546.483	4.37
546.827	4.34
547.171	4.36
547.516	4.3
547.86	4.39
548.204	4.48
548.548	4.36
548.892	4.23
549.236	4.23
549.58	4.26
549.924	4.25
550.268	4.39
550.612	4.41
550.956	4.52
551.3	4.5
551.643	4.44
551.987	4.33
552.33	4.48
552.674	4.42
553.017	4.56
553.361	4.55
553.704	4.55
554.048	4.6
554.391	4.4
554.734	4.48
555.077	4.34
555.42	4.45
555.764	4.54
556.107	4.31
556.45	4.43
556.793	4.53
557.135	4.49
557.478	4.4
557.821	4.34
558.164	4.83
558.507	4.61
558.849	4.63
559.192	4.51
559.534	4.52
559.877	4.53
560.219	4.55
560.562	4.47
560.904	4.62
561.246	4.38
561.589	4.48
561.931	4.54
562.273	4.39
562.615	4.4
562.957	4.62
563.299	4.6
563.641	4.44
563.983	4.41
564.325	4.56
564.667	4.54
565.008	4.41
565.35	4.77
565.692	4.62
566.033	4.51
566.375	4.53
566.716	4.53
567.058	4.62
567.399	4.42
567.741	4.57
568.082	4.34
568.423	4.5
568.764	4.37
569.105	4.59
569.447	4.6
569.788	4.48
570.129	4.52
570.47	4.49
570.811	4.54
571.151	4.45
571.492	4.52
571.833	4.59
572.174	4.56
572.514	4.47
572.855	4.48
573.195	4.57
573.536	4.66
573.876	4.51
574.217	4.49
574.557	4.55
574.898	4.54
575.238	4.61
575.578	4.55
575.918	4.61
576.258	4.71
576.598	4.61
576.938	4.55
577.278	4.5
577.618	4.47
577.958	4.64
578.298	4.66
578.638	4.57
578.977	4.62
579.317	4.36
579.657	4.63
579.996	4.67
580.336	4.66
580.675	4.62
581.014	4.88
581.354	4.71
581.693	4.6
582.032	4.88
582.372	4.6
582.711	5
583.05	4.74
583.389	4.59
583.728	4.73
584.067	4.72
584.406	4.62
584.745	4.72
585.083	4.72
585.422	4.55
585.761	4.68
586.1	4.81
586.438	4.42
586.777	4.69
587.115	4.74
587.454	4.84
587.792	4.8
588.13	4.77
588.469	4.68
588.807	4.7
589.145	4.78
589.483	4.7
589.821	4.55
590.159	4.9
590.497	4.56
590.835	4.7
591.173	4.71
591.511	4.69
591.849	4.71
592.187	4.75
592.524	4.83
592.862	4.83
593.2	4.64
593.537	4.45
593.875	5.09
594.212	4.81
594.55	4.87
594.887	4.78
595.224	4.87
595.561	4.5
595.899	4.44
596.236	4.91
596.573	4.98
596.91	4.73
597.247	4.89
597.584	4.66
597.921	4.74
598.258	4.58
598.594	4.53
598.931	4.78
599.268	4.65
599.604	4.67
599.941	4.76
600.277	4.68
600.614	4.97
600.95	4.93
601.287	4.98
601.623	4.81
601.959	5.14
602.296	4.7
602.632	4.88
602.968	4.85
603.304	4.84
603.64	4.71
603.976	4.72
604.312	4.78
604.648	4.72
604.984	4.81
605.319	4.81
605.655	4.88
605.991	4.87
606.326	4.77
606.662	4.8
606.998	4.72
607.333	4.71
607.668	4.87
608.004	4.95
608.339	4.74
608.674	4.65
609.01	4.92
609.345	5.06
609.68	4.78
610.015	4.99
610.35	4.97
610.685	4.95
611.02	4.84
611.355	5.04
611.689	4.76
612.024	4.71
612.359	4.92
612.694	4.77
613.028	4.85
613.363	4.75
613.697	4.86
614.032	4.85
614.366	4.82
614.7	4.92
615.035	4.79
615.369	5.11
615.703	5.02
616.037	4.68
616.371	4.82
616.705	4.97
617.039	5
617.373	5.11
617.707	5.15
618.041	4.84
618.375	5.07
618.709	5.08
619.042	5.02
619.376	4.84
619.71	4.52
620.043	4.9
620.377	5.03
620.71	5.34
621.043	5.13
621.377	4.92
621.71	5.02
622.043	4.52
622.376	4.99
622.709	4.77
623.043	5.29
623.376	5.29
623.709	5.26
624.041	5.25
624.374	4.79
624.707	4.63
625.04	4.78
625.373	4.96
625.705	5.37
626.038	5.12
626.37	5.08
626.703	5.29
627.035	5.2
627.368	5.22
627.7	5.44
628.032	5.23
628.365	4.56
628.697	5.18
629.029	5.13
629.361	5.23
629.693	4.99
630.025	4.87
630.357	4.96
630.689	5
631.021	5.31
631.353	5.3
631.684	5.49
632.016	4.91
632.348	5.15
632.679	5.27
633.011	4.88
633.342	4.93
633.674	5.16
634.005	5.23
634.336	5.02
634.668	5.08
634.999	5.29
635.33	5.38
635.661	5.34
635.992	5.2
636.323	5.07
636.654	5.28
636.985	5.01
637.316	5.07
637.647	5.28
637.977	5.22
638.308	5.33
638.639	5.1
638.969	5.43
639.3	5.24
639.63	4.96
639.961	5.41
640.291	5.25
640.622	5.19
640.952	4.84
641.282	5.25
641.612	5.22
641.943	5.22
642.273	5.7
642.603	4.98
642.933	4.93
643.263	5.68
643.592	5.33
643.922	5.54
644.252	5.53
644.582	5.09
644.911	5.43
645.241	5.41
645.571	5.13
645.9	5.07
646.23	5.09
646.559	5.29
646.888	5.6
647.218	5.29
647.547	5.38
647.876	5.44
648.205	5.13
648.534	5.55
648.863	5.15
649.192	5.5
649.521	5.24
649.85	5.44
650.179	5.52
650.508	5.49
650.837	5.13
651.165	5.37
651.494	5.12
651.822	5.21
652.151	5.23
652.479	5.54
652.808	5.09
653.136	5.14
653.465	5.49
653.793	5.36
654.121	5.51
654.449	5.12
654.777	5.13
655.105	5.43
655.433	5.24
655.761	5.02
656.089	5.13
656.417	4.77
656.745	5.7
657.073	5.31
657.4	5.18
657.728	6.06
658.056	5.13
658.383	5.48
658.711	5.58
659.038	5.46
659.365	5.72
659.693	5.32
660.02	5.42
660.347	5.82
660.674	5.33
661.001	5.92
661.329	5.29
661.656	5.58
661.982	5.56
662.309	5.73
662.636	5.35
662.963	5.6
663.29	5.7
663.616	5.57
663.943	5.62
664.27	6.03
664.596	5.74
664.923	6.28
665.249	5.2
665.576	5.66
665.902	5.77
666.228	5.49
666.554	5.69
666.881	5.75
667.207	5.46
667.533	5.54
667.859	5.02
668.185	5.78
668.511	5.76
668.837	5.59
669.162	5.6
669.488	5.56
669.814	6.07
670.139	5.39
670.465	5.98
670.791	5.71
671.116	5.38
671.442	5.77
671.767	5.21
672.092	5.94
672.418	5.37
672.743	6.36
673.068	5.39
673.393	5.91
673.718	5.16
674.043	5.54
674.368	5.49
674.693	6.36
675.018	6.19
675.343	5.39
675.667	6.08
675.992	6.14
676.317	5.1
676.641	6.12
676.966	5.9
677.29	6.07
677.615	6.33
677.939	5.55
678.264	5.1
678.588	6.24
678.912	6.06
679.236	5.79
679.56	4.73
679.885	6.14
680.209	5.1
680.532	5.82
680.856	5.71
681.18	6.05
681.504	5.66
681.828	5.59
682.152	6.29
682.475	6.02
682.799	5.98
683.122	5.8
683.446	5.54
683.769	6.42
684.093	5.89
684.416	6.86
684.739	5.96
685.062	6.39
685.386	5.86
685.709	6.34
686.032	5.81
686.355	6.1
686.678	6.09
687.001	5.66
687.324	5.89
687.646	5.77
687.969	5.8
688.292	6.59
688.614	6.05
688.937	6.19
689.26	6.18
689.582	5.65
689.904	6.37
690.227	6.78
690.549	5.9
690.871	5.61
691.194	5.57
691.516	5.63
691.838	6.74
692.16	6
692.482	6.2
692.804	6.52
