Data from 0089_forehead_Reflection__1__127.txt Node

Date: Mon Aug 28 19:45:34 CDT 2023
User: ToomeyLab
Spectrometer: FLMS14357
Trigger mode: 0
Integration Time (sec): 1.000000E-2
Scans to average: 100
Electric dark correction enabled: true
Nonlinearity correction enabled: false
Boxcar width: 0
XAxis mode: Wavelengths
Number of Pixels in Spectrum: 2048
>>>>>Begin Spectral Data<<<<<
189.047	-136.41
189.435	-136.41
189.823	-136.41
190.211	404.65
190.599	31.8
190.987	83.05
191.375	-0.05
191.763	159.57
192.151	-116.2
192.538	95.88
192.926	106.87
193.314	-119.64
193.702	134.37
194.089	86.06
194.477	-807.06
194.864	-59.84
195.252	4.3
195.639	1505.98
196.027	97.43
196.414	156.39
196.801	-48.85
197.189	-121.75
197.576	-298.07
197.963	-37.67
198.351	-37.96
198.738	-0.37
199.125	-33.59
199.512	-1.62
199.899	-63.57
200.286	-129.98
200.673	0.9
201.06	16.52
201.447	-99.64
201.833	-36.82
202.22	6.22
202.607	44.17
202.994	23.09
203.38	4.98
203.767	-21.78
204.154	-1.42
204.54	-0.71
204.927	21.59
205.313	23.72
205.699	6.59
206.086	37.62
206.472	22.57
206.858	10.34
207.245	11.23
207.631	6.89
208.017	-17.38
208.403	3.21
208.789	-51.23
209.175	-39.41
209.561	30.68
209.947	-7.2
210.333	-27.79
210.719	3.48
211.105	20.1
211.491	-38.73
211.876	21.97
212.262	6.21
212.648	11.14
213.034	-73.02
213.419	-6.17
213.805	-24.96
214.19	-47.79
214.576	14.17
214.961	24.16
215.346	-14.57
215.732	16.64
216.117	-12.89
216.502	16.16
216.888	-68.93
217.273	-24.62
217.658	10.11
218.043	-31.11
218.428	7.1
218.813	-15.72
219.198	3.04
219.583	-9.06
219.968	6.41
220.353	4.16
220.738	17.87
221.122	7.47
221.507	-7.56
221.892	5.46
222.276	-24.1
222.661	-11.59
223.046	-4.09
223.43	-0.51
223.815	-3.61
224.199	11.5
224.583	9.4
224.968	6.58
225.352	12.52
225.736	0.82
226.121	1.68
226.505	0.81
226.889	-0.5
227.273	9.64
227.657	6.59
228.041	4.75
228.425	1.82
228.809	-2.44
229.193	2.67
229.577	4.14
229.961	1.24
230.344	2.48
230.728	1.79
231.112	0.82
231.495	2.04
231.879	1.05
232.263	3.01
232.646	2.41
233.03	2.24
233.413	3.77
233.797	1.46
234.18	-0.78
234.563	-0.9
234.946	4.67
235.33	0
235.713	-1.15
236.096	3.24
236.479	0.76
236.862	2.89
237.245	0.1
237.628	2.04
238.011	3.93
238.394	3.41
238.777	4.21
239.16	1.08
239.543	-0.08
239.925	2.94
240.308	3.1
240.691	0.19
241.073	1.1
241.456	-0.57
241.838	2.05
242.221	2.86
242.603	1.81
242.986	2.51
243.368	1.86
243.75	1.73
244.133	2.26
244.515	1.54
244.897	2.32
245.279	2.51
245.661	1.82
246.043	2.05
246.425	1.19
246.807	2.64
247.189	2.53
247.571	1.37
247.953	2.23
248.335	2.29
248.717	2.23
249.098	2.15
249.48	2.12
249.862	2.34
250.243	2.32
250.625	2.42
251.006	2.35
251.388	1.96
251.769	2.3
252.151	1.68
252.532	1.84
252.913	3.3
253.295	0.73
253.676	2
254.057	2.26
254.438	2.14
254.819	2.28
255.2	2.42
255.581	2.81
255.962	2.63
256.343	2.81
256.724	1.39
257.105	1.82
257.486	3.69
257.867	2.44
258.247	2.12
258.628	2.58
259.009	1.05
259.389	1.39
259.77	1.95
260.15	2.04
260.531	2.24
260.911	1.81
261.292	2.05
261.672	2.14
262.052	1.95
262.432	1.93
262.813	2.03
263.193	2.3
263.573	2.25
263.953	2.72
264.333	1.93
264.713	2.08
265.093	2.15
265.473	2.17
265.853	1.57
266.233	1.14
266.612	2.57
266.992	1.91
267.372	1.74
267.752	2.33
268.131	2.21
268.511	1.22
268.89	2.23
269.27	2.07
269.649	1.5
270.029	3.07
270.408	2.31
270.787	2.32
271.167	2.08
271.546	2.06
271.925	1.89
272.304	2.15
272.683	2.09
273.062	1.61
273.441	1.81
273.82	1.82
274.199	1.59
274.578	1.6
274.957	1.84
275.336	2.43
275.715	2.53
276.093	1.88
276.472	1.69
276.851	1.7
277.229	2.07
277.608	2.51
277.986	2.19
278.365	2.93
278.743	1.78
279.122	2.03
279.5	1.58
279.878	1.7
280.257	1.5
280.635	1.81
281.013	1.78
281.391	2.02
281.769	1.47
282.147	1.73
282.525	1.44
282.903	2.05
283.281	1.78
283.659	2.28
284.037	2.31
284.415	1.78
284.792	1.96
285.17	1.9
285.548	1.57
285.925	2.2
286.303	2.1
286.68	2.16
287.058	2.42
287.435	1.87
287.813	1.9
288.19	2.34
288.567	2.26
288.945	2.03
289.322	2.04
289.699	2.57
290.076	2.58
290.453	2.52
290.83	1.57
291.207	1.5
291.584	2.34
291.961	2.19
292.338	2.24
292.715	2.1
293.092	2.36
293.469	2.06
293.845	2.49
294.222	1.89
294.599	2.11
294.975	2.11
295.352	1.93
295.728	2.39
296.105	2.78
296.481	2.73
296.858	3.24
297.234	2.31
297.61	2.41
297.986	2.33
298.363	2.88
298.739	2.46
299.115	2.47
299.491	2.73
299.867	2.67
300.243	2.68
300.619	2.44
300.995	3.17
301.371	2.5
301.746	2.91
302.122	2.38
302.498	2.73
302.874	2.95
303.249	2.46
303.625	2.94
304	2.51
304.376	2.61
304.751	2.37
305.127	2.37
305.502	2.96
305.878	2.55
306.253	2.83
306.628	2.79
307.003	3.13
307.378	3.45
307.754	2.59
308.129	3.4
308.504	3.79
308.879	2.64
309.254	3.37
309.629	2.8
310.003	2.56
310.378	2.54
310.753	3.31
311.128	3.24
311.502	3.49
311.877	3.03
312.252	3.21
312.626	3.22
313.001	3.26
313.375	3.46
313.75	3.11
314.124	3.2
314.498	3.3
314.873	3.44
315.247	3.64
315.621	2.66
315.995	3.23
316.369	2.99
316.743	2.67
317.117	3.13
317.491	2.83
317.865	2.57
318.239	3.22
318.613	3.56
318.987	3.3
319.361	3.2
319.734	3.3
320.108	3.06
320.482	3.4
320.855	3.24
321.229	3.19
321.602	3.51
321.976	2.81
322.349	3.57
322.723	3.17
323.096	3.87
323.469	3.74
323.843	3.28
324.216	3.64
324.589	4.05
324.962	3.78
325.335	3.64
325.708	3.5
326.081	3.36
326.454	3.46
326.827	3.66
327.2	2.95
327.573	3.23
327.945	4.09
328.318	3.76
328.691	3.16
329.063	2.91
329.436	3.46
329.809	4.06
330.181	3.37
330.553	3.36
330.926	4.21
331.298	3.41
331.671	3.57
332.043	3.31
332.415	4.02
332.787	3.67
333.159	3.78
333.532	3.88
333.904	3.54
334.276	3.12
334.648	3.35
335.02	4.12
335.391	3.64
335.763	3.51
336.135	4.24
336.507	3.47
336.879	3.21
337.25	3.63
337.622	3.45
337.993	3.92
338.365	4.12
338.736	3.97
339.108	3.33
339.479	2.89
339.851	3.6
340.222	3.92
340.593	3.51
340.964	3.65
341.336	3.57
341.707	3.4
342.078	3.52
342.449	4.06
342.82	3.62
343.191	4.18
343.562	3.74
343.933	3.43
344.303	3.3
344.674	3.92
345.045	4
345.416	4.12
345.786	3.6
346.157	3.91
346.527	3.66
346.898	3.86
347.268	3.54
347.639	3.4
348.009	3.62
348.38	4.1
348.75	3.95
349.12	4.24
349.49	4.08
349.861	3.67
350.231	3.64
350.601	3.96
350.971	4.09
351.341	3.71
351.711	4.08
352.081	3.91
352.45	3.97
352.82	3.85
353.19	4.5
353.56	4
353.929	3.86
354.299	3.73
354.669	4.16
355.038	4.16
355.408	4.09
355.777	3.91
356.147	4.08
356.516	4.5
356.885	4.02
357.254	3.99
357.624	4.28
357.993	4.22
358.362	3.83
358.731	3.95
359.1	4.41
359.469	4.24
359.838	3.82
360.207	4.05
360.576	4.05
360.945	4.45
361.314	3.75
361.682	3.87
362.051	4.46
362.42	4.07
362.788	4.07
363.157	4.29
363.525	4.04
363.894	4.2
364.262	4.16
364.631	3.93
364.999	4.26
365.367	4.16
365.735	4.12
366.104	3.99
366.472	3.83
366.84	4.23
367.208	4.12
367.576	4.07
367.944	4.29
368.312	4.53
368.68	4
369.048	4.46
369.416	4.38
369.783	4.26
370.151	4.46
370.519	4.48
370.886	4.09
371.254	4.29
371.621	4.12
371.989	4.32
372.356	4.26
372.724	4.97
373.091	4.51
373.458	4.22
373.826	4.42
374.193	4.51
374.56	4.37
374.927	4.4
375.294	4.61
375.661	4.71
376.028	4.28
376.395	4.11
376.762	4.67
377.129	4.46
377.496	4.3
377.863	4.27
378.229	4.24
378.596	4.7
378.963	4.42
379.329	4.77
379.696	4.37
380.062	4.58
380.429	4.63
380.795	4.36
381.161	4.5
381.528	4.6
381.894	4.29
382.26	4.48
382.626	4.72
382.993	4.39
383.359	4.81
383.725	5.05
384.091	4.72
384.457	4.79
384.823	4.56
385.188	4.71
385.554	4.35
385.92	4.63
386.286	4.84
386.651	4.6
387.017	4.53
387.383	4.88
387.748	4.59
388.114	4.69
388.479	4.5
388.845	4.73
389.21	4.44
389.575	4.95
389.94	4.84
390.306	4.93
390.671	4.86
391.036	4.92
391.401	5.01
391.766	4.91
392.131	4.88
392.496	4.64
392.861	4.7
393.226	5.19
393.591	4.66
393.956	4.8
394.32	4.96
394.685	4.91
395.05	4.88
395.414	4.96
395.779	4.72
396.143	4.72
396.508	4.57
396.872	5.03
397.236	4.72
397.601	4.93
397.965	4.69
398.329	4.97
398.694	5.16
399.058	4.78
399.422	5.06
399.786	5.22
400.15	5.42
400.514	5.19
400.878	4.69
401.242	4.98
401.605	5.17
401.969	4.98
402.333	4.85
402.697	5.03
403.06	5.14
403.424	5.23
403.787	5.13
404.151	4.96
404.514	5.16
404.878	5.13
405.241	5.1
405.604	5.14
405.968	5.02
406.331	5.32
406.694	5.16
407.057	5.19
407.42	5.1
407.783	4.93
408.146	5.14
408.509	5.19
408.872	5.04
409.235	4.99
409.598	5.16
409.961	5.31
410.323	5.44
410.686	5.32
411.049	5.44
411.411	5.22
411.774	5.2
412.136	5.19
412.499	5.27
412.861	5.22
413.223	5.39
413.586	5.33
413.948	5.33
414.31	5.38
414.672	5.36
415.035	5.47
415.397	5.38
415.759	5.43
416.121	5.49
416.483	5.24
416.845	5.45
417.206	5.43
417.568	5.57
417.93	5.47
418.292	5.45
418.653	5.34
419.015	5.3
419.377	5.21
419.738	5.51
420.1	5.49
420.461	5.59
420.822	5.43
421.184	5.37
421.545	5.57
421.906	5.38
422.267	5.42
422.629	5.49
422.99	5.39
423.351	5.44
423.712	5.39
424.073	5.44
424.434	5.58
424.795	5.5
425.155	5.47
425.516	5.54
425.877	5.43
426.238	5.44
426.598	5.46
426.959	5.41
427.32	5.48
427.68	5.54
428.041	5.46
428.401	5.56
428.761	5.57
429.122	5.53
429.482	5.71
429.842	5.69
430.202	5.73
430.563	5.72
430.923	6.08
431.283	5.69
431.643	5.61
432.003	5.6
432.363	5.84
432.722	5.88
433.082	5.71
433.442	5.76
433.802	5.76
434.161	5.8
434.521	5.73
434.881	5.74
435.24	5.88
435.6	5.9
435.959	5.7
436.319	5.93
436.678	5.82
437.037	5.96
437.396	5.98
437.756	5.87
438.115	6.03
438.474	5.97
438.833	5.94
439.192	5.88
439.551	5.84
439.91	5.92
440.269	5.85
440.628	5.86
440.987	6.02
441.345	5.9
441.704	6.1
442.063	5.91
442.421	5.87
442.78	6.06
443.138	5.94
443.497	5.91
443.855	5.94
444.214	6.03
444.572	5.99
444.93	6.09
445.288	5.95
445.647	6.15
446.005	6.06
446.363	6.09
446.721	6.22
447.079	6.09
447.437	6.03
447.795	5.99
448.153	6.14
448.51	5.94
448.868	6.06
449.226	6.01
449.584	6.04
449.941	6.15
450.299	6.12
450.656	6.03
451.014	6.15
451.371	6.16
451.729	6.09
452.086	6.24
452.443	6.38
452.801	6.26
453.158	6.47
453.515	6.33
453.872	6.26
454.229	6.2
454.586	6.51
454.943	6.15
455.3	6.3
455.657	6.47
456.014	6.4
456.371	6.44
456.727	6.33
457.084	6.46
457.441	6.43
457.797	6.44
458.154	6.42
458.51	6.7
458.867	6.35
459.223	6.55
459.58	6.4
459.936	6.53
460.292	6.6
460.648	6.52
461.005	6.38
461.361	6.52
461.717	6.42
462.073	6.39
462.429	6.28
462.785	6.41
463.141	6.45
463.496	6.63
463.852	6.56
464.208	6.6
464.564	6.64
464.919	6.57
465.275	6.8
465.631	6.69
465.986	7.02
466.342	6.81
466.697	6.69
467.052	6.71
467.408	6.8
467.763	6.72
468.118	6.61
468.473	6.75
468.829	6.82
469.184	6.6
469.539	6.7
469.894	6.71
470.249	6.7
470.603	6.92
470.958	6.83
471.313	6.96
471.668	6.77
472.023	6.98
472.377	6.83
472.732	6.96
473.086	6.83
473.441	6.97
473.795	7.03
474.15	7.02
474.504	6.83
474.859	6.85
475.213	7.02
475.567	7
475.921	7.09
476.275	7.02
476.63	7.11
476.984	6.97
477.338	7.1
477.692	6.83
478.045	7.06
478.399	6.99
478.753	6.97
479.107	7.03
479.461	6.96
479.814	7.26
480.168	7.17
480.521	7.16
480.875	7.02
481.228	7.21
481.582	7.04
481.935	7.07
482.289	7.11
482.642	7.28
482.995	7.18
483.348	7.14
483.701	7.12
484.055	7.07
484.408	7.14
484.761	7.04
485.114	6.99
485.466	6.98
485.819	6.8
486.172	6.66
486.525	6.69
486.878	6.69
487.23	6.79
487.583	6.87
487.936	7.04
488.288	7.11
488.641	7.1
488.993	7.1
489.345	6.99
489.698	6.99
490.05	6.93
490.402	6.88
490.754	6.97
491.107	7.05
491.459	7.03
491.811	7.2
492.163	7.22
492.515	7.29
492.866	7.31
493.218	7.3
493.57	7.12
493.922	7.08
494.274	7.07
494.625	7.05
494.977	7.17
495.328	7.26
495.68	7.44
496.031	7.39
496.383	7.56
496.734	7.49
497.086	7.73
497.437	7.67
497.788	7.53
498.139	7.64
498.49	7.54
498.842	7.65
499.193	7.44
499.544	7.58
499.894	7.5
500.245	7.56
500.596	7.67
500.947	7.6
501.298	7.7
501.648	7.6
501.999	7.69
502.35	7.7
502.7	7.67
503.051	7.82
503.401	7.83
503.752	7.77
504.102	7.86
504.452	7.92
504.803	7.95
505.153	7.71
505.503	7.76
505.853	7.71
506.203	7.94
506.553	7.91
506.903	7.94
507.253	7.96
507.603	7.85
507.953	7.88
508.303	7.99
508.652	7.91
509.002	8.02
509.352	7.83
509.701	7.84
510.051	8.05
510.4	7.83
510.75	8.02
511.099	7.96
511.449	7.89
511.798	7.95
512.147	7.94
512.496	8.06
512.846	8.03
513.195	8.04
513.544	8.01
513.893	8.11
514.242	8.11
514.591	8.06
514.939	7.89
515.288	8.1
515.637	8.05
515.986	8.03
516.334	8.08
516.683	8.25
517.032	8.23
517.38	8.28
517.729	8.3
518.077	8.28
518.426	8.22
518.774	8.27
519.122	8.27
519.47	8.25
519.819	8.23
520.167	8.21
520.515	8.17
520.863	8.03
521.211	8.07
521.559	8.03
521.907	8.12
522.255	8.18
522.602	8.22
522.95	8.3
523.298	8.34
523.645	8.37
523.993	8.4
524.341	8.5
524.688	8.45
525.036	8.57
525.383	8.6
525.73	8.58
526.078	8.56
526.425	8.45
526.772	8.52
527.119	8.46
527.466	8.36
527.814	8.33
528.161	8.24
528.508	8.29
528.854	8.27
529.201	8.41
529.548	8.35
529.895	8.35
530.242	8.33
530.588	8.15
530.935	8.1
531.282	8.01
531.628	8.08
531.975	8.11
532.321	8.24
532.667	8.27
533.014	8.39
533.36	8.5
533.706	8.55
534.052	8.5
534.399	8.59
534.745	8.62
535.091	8.46
535.437	8.44
535.783	8.41
536.129	8.45
536.474	8.4
536.82	8.54
537.166	8.59
537.512	8.62
537.857	8.76
538.203	8.78
538.549	8.71
538.894	8.64
539.239	8.59
539.585	8.63
539.93	8.76
540.276	8.83
540.621	8.94
540.966	8.82
541.311	9.2
541.656	9.08
542.001	8.95
542.346	9.01
542.691	8.97
543.036	8.85
543.381	8.68
543.726	8.57
544.071	8.63
544.415	8.62
544.76	8.68
545.105	8.73
545.449	8.82
545.794	8.86
546.138	8.88
546.483	8.87
546.827	9.04
547.171	9.11
547.516	9.08
547.86	9.14
548.204	9.28
548.548	9.12
548.892	9.04
549.236	9.1
549.58	9.07
549.924	9.03
550.268	9.17
550.612	9.18
550.956	9.28
551.3	9.37
551.643	9.5
551.987	9.23
552.33	9.46
552.674	9.41
553.017	9.49
553.361	9.53
553.704	9.38
554.048	9.62
554.391	9.32
554.734	9.42
555.077	9.5
555.42	9.41
555.764	9.56
556.107	9.37
556.45	9.5
556.793	9.61
557.135	9.61
557.478	9.57
557.821	9.43
558.164	9.81
558.507	9.78
558.849	9.77
559.192	9.61
559.534	9.5
559.877	9.8
560.219	9.87
560.562	9.93
560.904	9.83
561.246	9.72
561.589	9.82
561.931	9.8
562.273	9.65
562.615	9.67
562.957	9.95
563.299	9.89
563.641	9.76
563.983	9.74
564.325	9.82
564.667	9.75
565.008	9.76
565.35	10.11
565.692	9.93
566.033	9.91
566.375	9.67
566.716	9.91
567.058	9.89
567.399	9.69
567.741	10.05
568.082	10.03
568.423	9.85
568.764	9.85
569.105	10
569.447	9.9
569.788	9.92
570.129	9.98
570.47	10.23
570.811	10.13
571.151	9.78
571.492	10.05
571.833	10.05
572.174	10.19
572.514	10.04
572.855	10.08
573.195	10.14
573.536	10.14
573.876	9.94
574.217	10.21
574.557	10.13
574.898	10.25
575.238	10.06
575.578	10
575.918	10.08
576.258	10.17
576.598	10.23
576.938	9.99
577.278	10.13
577.618	10
577.958	10.19
578.298	10.45
578.638	10.15
578.977	10.31
579.317	10.25
579.657	10.33
579.996	10.43
580.336	10.15
580.675	10.5
581.014	10.54
581.354	10.53
581.693	10.63
582.032	10.67
582.372	10.65
582.711	10.81
583.05	10.5
583.389	10.75
583.728	10.61
584.067	10.57
584.406	10.58
584.745	10.37
585.083	10.55
585.422	10.64
585.761	10.55
586.1	10.88
586.438	10.79
586.777	10.66
587.115	10.8
587.454	10.82
587.792	10.94
588.13	10.77
588.469	10.94
588.807	10.49
589.145	10.96
589.483	10.9
589.821	11.01
590.159	10.84
590.497	10.8
590.835	10.8
591.173	10.74
591.511	10.71
591.849	11
592.187	10.97
592.524	10.71
592.862	11.03
593.2	10.79
593.537	10.71
593.875	11.03
594.212	10.96
594.55	11.14
594.887	10.91
595.224	11.12
595.561	10.88
595.899	10.74
596.236	11.1
596.573	11.18
596.91	11.19
597.247	11.04
597.584	11.03
597.921	11.01
598.258	10.9
598.594	11.05
598.931	11.09
599.268	10.92
599.604	10.91
599.941	10.99
600.277	10.83
600.614	11.19
600.95	11.09
601.287	11.14
601.623	11.27
601.959	11.26
602.296	11.12
602.632	11.04
602.968	11.48
603.304	11.18
603.64	11
603.976	11.15
604.312	11.32
604.648	11.26
604.984	11.31
605.319	11.34
605.655	11.43
605.991	11.27
606.326	11.37
606.662	11.21
606.998	11.12
607.333	11.11
607.668	11.14
608.004	11.21
608.339	11.37
608.674	11.24
609.01	11.72
609.345	11.62
609.68	11.66
610.015	11.39
610.35	11.62
610.685	11.69
611.02	11.56
611.355	11.79
611.689	11.43
612.024	11.42
612.359	11.48
612.694	11.5
613.028	11.53
613.363	11.51
613.697	11.39
614.032	11.68
614.366	11.68
614.7	11.78
615.035	11.58
615.369	11.72
615.703	11.72
616.037	11.38
616.371	11.57
616.705	11.81
617.039	11.68
617.373	11.71
617.707	11.45
618.041	11.84
618.375	11.67
618.709	12.07
619.042	11.97
619.376	11.92
619.71	11.64
620.043	11.96
620.377	12.31
620.71	11.94
621.043	12.12
621.377	12.21
621.71	11.92
622.043	11.45
622.376	11.86
622.709	12.13
623.043	11.96
623.376	12.25
623.709	12.16
624.041	12.12
624.374	11.38
624.707	11.66
625.04	11.92
625.373	12.06
625.705	12.21
626.038	12.08
626.37	12.2
626.703	12.73
627.035	12
627.368	12.33
627.7	12.26
628.032	12.28
628.365	12.27
628.697	12.14
629.029	12.29
629.361	12.3
629.693	11.84
630.025	12.08
630.357	11.94
630.689	12.06
631.021	12.1
631.353	12.35
631.684	12.45
632.016	12.01
632.348	12.53
632.679	12.37
633.011	12.18
633.342	12.16
633.674	12.39
634.005	12.22
634.336	11.99
634.668	12.37
634.999	12.72
635.33	12.68
635.661	12.67
635.992	12.15
636.323	12.54
636.654	11.96
636.985	12.31
637.316	12.56
637.647	12.52
637.977	12.11
638.308	12.58
638.639	12.45
638.969	13.07
639.3	12.61
639.63	12.24
639.961	12.54
640.291	12.92
640.622	12.77
640.952	12.31
641.282	12.8
641.612	12.69
641.943	12.64
642.273	13.31
642.603	12.39
642.933	12.6
643.263	13.06
643.592	12.7
643.922	12.86
644.252	12.47
644.582	13.07
644.911	12.42
645.241	12.78
645.571	12.49
645.9	12.88
646.23	12.83
646.559	12.8
646.888	13.08
647.218	12.84
647.547	12.78
647.876	13.36
648.205	13.1
648.534	13.2
648.863	12.73
649.192	13.01
649.521	13.05
649.85	13.21
650.179	13.11
650.508	13.17
650.837	12.83
651.165	12.97
651.494	13.15
651.822	12.98
652.151	12.76
652.479	13.3
652.808	13.05
653.136	12.99
653.465	13.06
653.793	13.52
654.121	13.07
654.449	13.26
654.777	12.61
655.105	13.01
655.433	13.09
655.761	13.36
656.089	12.98
656.417	12.68
656.745	13.21
657.073	12.78
657.4	13.34
657.728	13.96
658.056	13.28
658.383	13.12
658.711	13.18
659.038	12.89
659.365	13.4
659.693	13.52
660.02	13.42
660.347	13.73
660.674	13.03
661.001	13.91
661.329	13.22
661.656	13.51
661.982	13.24
662.309	13.53
662.636	13.14
662.963	13.53
663.29	13.53
663.616	13.53
663.943	13.54
664.27	13.16
664.596	13.03
664.923	13.46
665.249	13.22
665.576	13.26
665.902	13.42
666.228	13.36
666.554	13.56
666.881	13.73
667.207	13.72
667.533	13.69
667.859	13.13
668.185	13.38
668.511	13.73
668.837	13.37
669.162	13.34
669.488	13.44
669.814	13.79
670.139	13.77
670.465	14.14
670.791	14.49
671.116	13.52
671.442	13.72
671.767	13.82
672.092	13.83
672.418	14.16
672.743	13.7
673.068	13.59
673.393	14.29
673.718	13.25
674.043	13.3
674.368	13.85
674.693	14.19
675.018	14.28
675.343	13.83
675.667	14.01
675.992	13.96
676.317	13.37
676.641	13.91
676.966	14.25
677.29	14.01
677.615	14.14
677.939	14.45
678.264	13.56
678.588	14.27
678.912	14.17
679.236	13.97
679.56	14.05
679.885	14.1
680.209	13.69
680.532	14.04
680.856	13.76
681.18	13.85
681.504	13.98
681.828	14.3
682.152	14.13
682.475	14.08
682.799	14.08
683.122	14.18
683.446	14.1
683.769	14.08
684.093	14.38
684.416	14.53
