Data from 0089_forehead_Reflection__0__126.txt Node

Date: Mon Aug 28 19:45:04 CDT 2023
User: ToomeyLab
Spectrometer: FLMS14357
Trigger mode: 0
Integration Time (sec): 1.000000E-2
Scans to average: 100
Electric dark correction enabled: true
Nonlinearity correction enabled: false
Boxcar width: 0
XAxis mode: Wavelengths
Number of Pixels in Spectrum: 2048
>>>>>Begin Spectral Data<<<<<
189.047	-89.06
189.435	-89.06
189.823	-89.06
190.211	-6753.49
190.599	133.72
190.987	398.45
191.375	36.35
191.763	117.68
192.151	-31.94
192.538	8.98
192.926	92.38
193.314	334.09
193.702	207.79
194.089	67.08
194.477	3322.35
194.864	-142.49
195.252	123.03
195.639	-2782.91
196.027	105.65
196.414	195.37
196.801	210.44
197.189	147.48
197.576	-510.4
197.963	-96.98
198.351	40.25
198.738	21.5
199.125	14.41
199.512	16.18
199.899	-26.93
200.286	80.64
200.673	-0.04
201.06	-23.95
201.447	-74.56
201.833	-52.42
202.22	-4.07
202.607	-3.6
202.994	32.46
203.38	75.3
203.767	2.45
204.154	-9.18
204.54	-61.12
204.927	-52.94
205.313	40.45
205.699	-68.12
206.086	16.48
206.472	-24.88
206.858	10.59
207.245	18.88
207.631	18.92
208.017	7.5
208.403	6.61
208.789	0.6
209.175	-27.92
209.561	-7.9
209.947	11.62
210.333	12.51
210.719	-8.85
211.105	39.11
211.491	11.01
211.876	2.55
212.262	78.17
212.648	5.72
213.034	-31.57
213.419	20.23
213.805	14.01
214.19	-32.5
214.576	6.65
214.961	-6.85
215.346	-36.54
215.732	-4.48
216.117	54.93
216.502	9.7
216.888	-14.95
217.273	-6.69
217.658	13.01
218.043	-15.2
218.428	2.44
218.813	-17.61
219.198	16.93
219.583	-7.72
219.968	16.73
220.353	9.08
220.738	29.93
221.122	15.23
221.507	6.68
221.892	7.01
222.276	0.99
222.661	4.97
223.046	-4.58
223.43	-2.17
223.815	8.6
224.199	6.51
224.583	9.34
224.968	1.29
225.352	11.64
225.736	5.4
226.121	-0.09
226.505	5.55
226.889	1.32
227.273	7.3
227.657	4.63
228.041	5.86
228.425	1.7
228.809	1.12
229.193	0.54
229.577	3.09
229.961	0.48
230.344	1.97
230.728	1.18
231.112	0.27
231.495	1.27
231.879	0.42
232.263	1.56
232.646	-1.81
233.03	0.92
233.413	3.47
233.797	2.99
234.18	1.4
234.563	1.93
234.946	3.88
235.33	0.78
235.713	-0.92
236.096	1.16
236.479	0.64
236.862	2.57
237.245	0.89
237.628	1.45
238.011	3.4
238.394	1.7
238.777	1.36
239.16	-0.21
239.543	-0
239.925	3.83
240.308	1.84
240.691	0.89
241.073	-0.04
241.456	-0.17
241.838	0.35
242.221	1.72
242.603	2.6
242.986	1.96
243.368	1.4
243.75	1
244.133	0.2
244.515	0.57
244.897	1.42
245.279	1.26
245.661	0.06
246.043	1.83
246.425	1.37
246.807	1.73
247.189	1.83
247.571	1.62
247.953	0.97
248.335	1.53
248.717	1.23
249.098	1.1
249.48	1.14
249.862	1.25
250.243	1.21
250.625	1.39
251.006	1.26
251.388	2.07
251.769	1.32
252.151	1.09
252.532	1.23
252.913	1.57
253.295	-0.24
253.676	1.54
254.057	1.44
254.438	0.32
254.819	0.75
255.2	1.61
255.581	1.16
255.962	1.46
256.343	2.33
256.724	0.93
257.105	1.65
257.486	2.1
257.867	0.53
258.247	1.14
258.628	1.7
259.009	1.03
259.389	0.7
259.77	0.85
260.15	0.92
260.531	0.88
260.911	1.39
261.292	1.71
261.672	1.31
262.052	1
262.432	1.04
262.813	1.15
263.193	0.8
263.573	1.55
263.953	1.67
264.333	0.95
264.713	1.21
265.093	1.42
265.473	1.21
265.853	1.22
266.233	1.41
266.612	1.24
266.992	0.78
267.372	0.42
267.752	1.73
268.131	1.33
268.511	0.29
268.89	1.45
269.27	0.93
269.649	1.11
270.029	1.61
270.408	1.56
270.787	1.63
271.167	1.42
271.546	1.23
271.925	1.57
272.304	1.22
272.683	1.41
273.062	1.3
273.441	1.2
273.82	0.78
274.199	0.84
274.578	1.28
274.957	1.23
275.336	1.43
275.715	1.7
276.093	1.25
276.472	0.92
276.851	1.25
277.229	1.85
277.608	1.27
277.986	0.9
278.365	1.47
278.743	1.25
279.122	0.64
279.5	0.97
279.878	0.95
280.257	0.84
280.635	1.6
281.013	1.03
281.391	0.75
281.769	0.69
282.147	1.59
282.525	1.31
282.903	1.21
283.281	1.08
283.659	1.72
284.037	1.44
284.415	1.2
284.792	0.93
285.17	0.94
285.548	1.08
285.925	1.51
286.303	0.88
286.68	1.26
287.058	1.12
287.435	0.75
287.813	1.16
288.19	1.37
288.567	1.52
288.945	1.48
289.322	1.21
289.699	1.48
290.076	1.01
290.453	1.33
290.83	0.74
291.207	0.86
291.584	1.53
291.961	1.48
292.338	1
292.715	1.13
293.092	1.71
293.469	1.46
293.845	0.71
294.222	1.73
294.599	1.18
294.975	2.13
295.352	1.07
295.728	1.34
296.105	1.82
296.481	1.39
296.858	1.9
297.234	2.01
297.61	1.6
297.986	1.34
298.363	1.58
298.739	1.48
299.115	1.56
299.491	1.64
299.867	1.8
300.243	1.69
300.619	1.83
300.995	1.87
301.371	1.5
301.746	1.43
302.122	1.37
302.498	1.56
302.874	1.92
303.249	1.66
303.625	1.62
304	1.54
304.376	1.65
304.751	1.6
305.127	2.07
305.502	2.29
305.878	1.63
306.253	1.31
306.628	1.8
307.003	1.42
307.378	1.75
307.754	1.94
308.129	2.24
308.504	2.39
308.879	2.67
309.254	2.62
309.629	1.34
310.003	1.98
310.378	1.61
310.753	2.13
311.128	2.23
311.502	2.21
311.877	1.67
312.252	2.23
312.626	1.86
313.001	2.23
313.375	2.05
313.75	2.38
314.124	2.05
314.498	2.47
314.873	2.17
315.247	2.22
315.621	1.81
315.995	3.01
316.369	3.11
316.743	1.9
317.117	2.3
317.491	1.71
317.865	1.93
318.239	2.23
318.613	2.58
318.987	2.5
319.361	2.81
319.734	2.43
320.108	2.37
320.482	2.88
320.855	2.56
321.229	2.5
321.602	2.75
321.976	2.05
322.349	2.33
322.723	2.17
323.096	2.9
323.469	1.99
323.843	2.77
324.216	3.12
324.589	2.85
324.962	2.88
325.335	3.07
325.708	2.26
326.081	2.95
326.454	3.12
326.827	2.98
327.2	2.06
327.573	2.99
327.945	3.84
328.318	3.55
328.691	2.3
329.063	2.3
329.436	2.4
329.809	3.06
330.181	2.31
330.553	3.21
330.926	2.85
331.298	3.3
331.671	2.46
332.043	3.41
332.415	3.81
332.787	2.76
333.159	2.96
333.532	3.43
333.904	3.42
334.276	2.89
334.648	3.05
335.02	3.27
335.391	3.2
335.763	2.57
336.135	3.05
336.507	3.02
336.879	2.93
337.25	3.29
337.622	3.24
337.993	3.31
338.365	3.39
338.736	3.81
339.108	3.01
339.479	3.18
339.851	3.58
340.222	3.77
340.593	3.11
340.964	3.26
341.336	3.22
341.707	3.58
342.078	3.39
342.449	3.52
342.82	3.41
343.191	3.64
343.562	3.15
343.933	3.32
344.303	3.52
344.674	3.77
345.045	3.74
345.416	3.97
345.786	3.83
346.157	3.67
346.527	3.3
346.898	3.65
347.268	3.59
347.639	3.32
348.009	3.38
348.38	4.44
348.75	3.82
349.12	4.24
349.49	3.53
349.861	3.45
350.231	3.57
350.601	3.71
350.971	4.03
351.341	4
351.711	4.03
352.081	3.96
352.45	3.72
352.82	3.86
353.19	4.03
353.56	3.83
353.929	4.44
354.299	3.54
354.669	3.81
355.038	4.48
355.408	4.21
355.777	4.35
356.147	3.54
356.516	4
356.885	4.17
357.254	3.9
357.624	3.89
357.993	4.25
358.362	4.03
358.731	4.19
359.1	4.27
359.469	4.72
359.838	3.98
360.207	4.28
360.576	4.5
360.945	4.05
361.314	4.1
361.682	4.26
362.051	4.46
362.42	4.24
362.788	4.28
363.157	4.32
363.525	4.25
363.894	4.54
364.262	4.4
364.631	4.21
364.999	4.41
365.367	4.52
365.735	4.44
366.104	4.34
366.472	4.72
366.84	4.36
367.208	4.72
367.576	4.34
367.944	4.83
368.312	4.73
368.68	4.86
369.048	4.86
369.416	4.62
369.783	4.61
370.151	4.87
370.519	4.86
370.886	4.68
371.254	4.63
371.621	4.49
371.989	4.99
372.356	4.79
372.724	5.28
373.091	4.77
373.458	4.72
373.826	5.04
374.193	4.77
374.56	4.77
374.927	4.87
375.294	5.04
375.661	4.95
376.028	4.74
376.395	4.91
376.762	5.25
377.129	4.92
377.496	4.76
377.863	5.13
378.229	5.08
378.596	5.38
378.963	5.35
379.329	5.16
379.696	5.02
380.062	5.15
380.429	5.16
380.795	5.15
381.161	5.24
381.528	5.49
381.894	5.44
382.26	5.54
382.626	5.63
382.993	5.53
383.359	5.63
383.725	5.61
384.091	5.64
384.457	5.32
384.823	5.36
385.188	5.47
385.554	5.69
385.92	5.52
386.286	5.95
386.651	5.76
387.017	5.74
387.383	5.72
387.748	5.47
388.114	5.6
388.479	5.74
388.845	5.76
389.21	5.75
389.575	5.94
389.94	5.87
390.306	5.92
390.671	5.9
391.036	5.95
391.401	6.19
391.766	6.14
392.131	5.95
392.496	5.85
392.861	6.02
393.226	6.23
393.591	5.8
393.956	6.08
394.32	5.91
394.685	6.1
395.05	6.11
395.414	6.25
395.779	6.2
396.143	5.99
396.508	6.18
396.872	6.3
397.236	5.92
397.601	6.23
397.965	6.47
398.329	6.22
398.694	6.44
399.058	6.39
399.422	6.3
399.786	6.47
400.15	6.77
400.514	6.45
400.878	6.48
401.242	6.4
401.605	6.55
401.969	6.39
402.333	6.25
402.697	6.44
403.06	6.56
403.424	6.78
403.787	6.51
404.151	6.53
404.514	6.58
404.878	6.65
405.241	6.74
405.604	6.6
405.968	6.44
406.331	6.91
406.694	6.71
407.057	6.7
407.42	6.62
407.783	6.74
408.146	6.8
408.509	7.17
408.872	6.86
409.235	6.89
409.598	6.94
409.961	6.79
410.323	7.04
410.686	7.02
411.049	7.25
411.411	7.15
411.774	7.09
412.136	7.06
412.499	7.25
412.861	7.19
413.223	6.9
413.586	7.09
413.948	7.21
414.31	7.37
414.672	7.3
415.035	7.34
415.397	7.27
415.759	7.23
416.121	7.47
416.483	7.23
416.845	7.48
417.206	7.39
417.568	7.41
417.93	7.28
418.292	7.39
418.653	7.24
419.015	7.38
419.377	7.21
419.738	7.67
420.1	7.45
420.461	7.45
420.822	7.59
421.184	7.37
421.545	7.55
421.906	7.42
422.267	7.38
422.629	7.37
422.99	7.43
423.351	7.41
423.712	7.28
424.073	7.44
424.434	7.57
424.795	7.52
425.155	7.68
425.516	7.62
425.877	7.62
426.238	7.42
426.598	7.56
426.959	7.62
427.32	7.68
427.68	7.68
428.041	7.73
428.401	7.93
428.761	7.91
429.122	7.81
429.482	7.89
429.842	8.23
430.202	8.02
430.563	7.97
430.923	8.03
431.283	8.19
431.643	7.99
432.003	8.25
432.363	8.24
432.722	8.3
433.082	8.17
433.442	8.28
433.802	8.31
434.161	8.45
434.521	8.22
434.881	8.22
435.24	8.27
435.6	8.39
435.959	8.19
436.319	8.33
436.678	8.38
437.037	8.46
437.396	8.46
437.756	8.44
438.115	8.6
438.474	8.61
438.833	8.46
439.192	8.86
439.551	8.52
439.91	8.71
440.269	8.57
440.628	8.61
440.987	8.68
441.345	8.46
441.704	8.64
442.063	8.56
442.421	8.71
442.78	8.63
443.138	8.62
443.497	8.69
443.855	8.64
444.214	8.88
444.572	8.71
444.93	8.82
445.288	8.69
445.647	9.08
446.005	9.05
446.363	8.96
446.721	8.95
447.079	8.95
447.437	8.74
447.795	8.85
448.153	8.89
448.51	8.81
448.868	8.87
449.226	8.93
449.584	8.89
449.941	8.97
450.299	9.04
450.656	9.03
451.014	9.07
451.371	9.13
451.729	9.15
452.086	9.28
452.443	9.4
452.801	9.46
453.158	9.53
453.515	9.28
453.872	9.24
454.229	9.4
454.586	9.58
454.943	9.48
455.3	9.48
455.657	9.53
456.014	9.61
456.371	9.51
456.727	9.5
457.084	9.57
457.441	9.75
457.797	9.61
458.154	9.81
458.51	9.93
458.867	9.77
459.223	9.74
459.58	9.89
459.936	9.91
460.292	9.98
460.648	9.85
461.005	9.71
461.361	9.77
461.717	9.76
462.073	9.66
462.429	9.59
462.785	9.67
463.141	9.84
463.496	9.79
463.852	9.95
464.208	9.99
464.564	10.19
464.919	10.11
465.275	10.28
465.631	10.25
465.986	10.32
466.342	10.46
466.697	10.13
467.052	10.24
467.408	10.12
467.763	10.09
468.118	10.2
468.473	10.29
468.829	10.32
469.184	10.25
469.539	10.53
469.894	10.25
470.249	10.4
470.603	10.4
470.958	10.43
471.313	10.62
471.668	10.58
472.023	10.69
472.377	10.55
472.732	10.52
473.086	10.81
473.441	10.87
473.795	10.71
474.15	10.89
474.504	10.69
474.859	10.81
475.213	10.87
475.567	10.68
475.921	11.05
476.275	10.94
476.63	10.89
476.984	10.86
477.338	11.01
477.692	10.97
478.045	11.15
478.399	11.09
478.753	10.91
479.107	10.88
479.461	10.95
479.814	11.2
480.168	11.16
480.521	11.11
480.875	11.03
481.228	11.1
481.582	11.22
481.935	11.2
482.289	11.24
482.642	11.26
482.995	11.25
483.348	11.23
483.701	11.25
484.055	11.14
484.408	11.15
484.761	11.11
485.114	11.09
485.466	10.99
485.819	10.8
486.172	10.61
486.525	10.55
486.878	10.52
487.23	10.62
487.583	10.86
487.936	11.13
488.288	11.17
488.641	11.34
488.993	11.24
489.345	11.14
489.698	11.05
490.05	10.99
490.402	10.94
490.754	11.06
491.107	11.16
491.459	11.23
491.811	11.44
492.163	11.67
492.515	11.79
492.866	11.77
493.218	11.71
493.57	11.56
493.922	11.33
494.274	11.36
494.625	11.39
494.977	11.52
495.328	11.59
495.68	11.91
496.031	11.96
496.383	12.04
496.734	12.06
497.086	12.29
497.437	12.39
497.788	12.25
498.139	12.23
498.49	12.31
498.842	12.3
499.193	12.07
499.544	12.14
499.894	12.16
500.245	12.26
500.596	12.28
500.947	12.34
501.298	12.38
501.648	12.43
501.999	12.47
502.35	12.33
502.7	12.65
503.051	12.71
503.401	12.68
503.752	12.75
504.102	12.74
504.452	12.69
504.803	12.71
505.153	12.73
505.503	12.88
505.853	12.8
506.203	12.98
506.553	12.81
506.903	12.89
507.253	12.96
507.603	12.82
507.953	13.01
508.303	13.07
508.652	13.11
509.002	13.21
509.352	13.13
509.701	13.05
510.051	12.98
510.4	13.08
510.75	13.04
511.099	13.08
511.449	13.06
511.798	13.05
512.147	13.11
512.496	13.25
512.846	13.24
513.195	13.47
513.544	13.29
513.893	13.26
514.242	13.35
514.591	13.46
514.939	13.27
515.288	13.29
515.637	13.54
515.986	13.45
516.334	13.7
516.683	13.57
517.032	13.65
517.38	13.71
517.729	13.78
518.077	13.78
518.426	13.72
518.774	13.66
519.122	13.94
519.47	13.82
519.819	13.78
520.167	13.68
520.515	13.69
520.863	13.53
521.211	13.63
521.559	13.52
521.907	13.61
522.255	13.58
522.602	13.75
522.95	14.02
523.298	13.99
523.645	14.04
523.993	13.93
524.341	14.24
524.688	14.26
525.036	14.3
525.383	14.3
525.73	14.27
526.078	14.4
526.425	14.3
526.772	14.43
527.119	14.29
527.466	14.18
527.814	14.06
528.161	14
528.508	14.01
528.854	13.97
529.201	14.17
529.548	14.23
529.895	14.24
530.242	14.26
530.588	13.91
530.935	13.68
531.282	13.66
531.628	13.66
531.975	13.73
532.321	13.86
532.667	13.98
533.014	14.32
533.36	14.4
533.706	14.49
534.052	14.51
534.399	14.55
534.745	14.74
535.091	14.58
535.437	14.31
535.783	14.36
536.129	14.2
536.474	14.29
536.82	14.44
537.166	14.64
537.512	14.87
537.857	15.04
538.203	14.98
538.549	15.01
538.894	14.85
539.239	14.77
539.585	14.78
539.93	14.83
540.276	14.98
540.621	15.18
540.966	15.23
541.311	15.43
541.656	15.46
542.001	15.5
542.346	15.51
542.691	15.46
543.036	15.26
543.381	14.99
543.726	14.83
544.071	14.8
544.415	14.7
544.76	14.81
545.105	15
545.449	15.11
545.794	15.24
546.138	15.29
546.483	15.43
546.827	15.42
547.171	15.69
547.516	15.69
547.86	15.82
548.204	15.83
548.548	15.67
548.892	15.62
549.236	15.67
549.58	15.72
549.924	15.72
550.268	15.91
550.612	15.96
550.956	16.05
551.3	16.2
551.643	16.38
551.987	16.29
552.33	16.59
552.674	16.38
553.017	16.48
553.361	16.57
553.704	16.41
554.048	16.49
554.391	16.58
554.734	16.59
555.077	16.35
555.42	16.37
555.764	16.63
556.107	16.39
556.45	16.74
556.793	16.63
557.135	16.86
557.478	16.77
557.821	16.81
558.164	16.99
558.507	16.86
558.849	16.89
559.192	16.88
559.534	16.9
559.877	17.02
560.219	17.17
560.562	17.31
560.904	17.16
561.246	17.09
561.589	17.11
561.931	17.18
562.273	16.98
562.615	17.07
562.957	17.34
563.299	17.44
563.641	17.13
563.983	17.19
564.325	17.38
564.667	17.18
565.008	17.26
565.35	17.72
565.692	17.54
566.033	17.48
566.375	17.39
566.716	17.63
567.058	17.49
567.399	17.58
567.741	17.68
568.082	17.61
568.423	17.53
568.764	17.4
569.105	17.6
569.447	17.49
569.788	17.58
570.129	17.67
570.47	17.69
570.811	17.74
571.151	17.61
571.492	17.84
571.833	17.9
572.174	17.79
572.514	17.84
572.855	17.88
573.195	17.93
573.536	18.13
573.876	17.84
574.217	18.01
574.557	18
574.898	17.87
575.238	17.88
575.578	17.8
575.918	18.09
576.258	18.22
576.598	18.26
576.938	17.99
577.278	18.25
577.618	18.32
577.958	18.11
578.298	18.36
578.638	18.23
578.977	18.3
579.317	18.22
579.657	18.33
579.996	18.56
580.336	18.39
580.675	18.54
581.014	18.72
581.354	18.66
581.693	18.72
582.032	18.75
582.372	18.91
582.711	18.9
583.05	18.82
583.389	18.9
583.728	19.04
584.067	18.89
584.406	19.14
584.745	18.81
585.083	19.02
585.422	19.1
585.761	19.05
586.1	19.12
586.438	19.16
586.777	18.85
587.115	19.32
587.454	19.13
587.792	19.22
588.13	19.32
588.469	19.49
588.807	19.1
589.145	19.27
589.483	19.2
589.821	19.39
590.159	19.65
590.497	19.62
590.835	19.33
591.173	19.45
591.511	19.41
591.849	19.28
592.187	19.35
592.524	19.62
592.862	19.56
593.2	19.17
593.537	19.64
593.875	19.99
594.212	19.68
594.55	20
594.887	19.68
595.224	20.09
595.561	19.75
595.899	19.85
596.236	19.83
596.573	19.97
596.91	19.91
597.247	19.93
597.584	19.89
597.921	19.9
598.258	19.97
598.594	20.02
598.931	19.83
599.268	19.94
599.604	19.66
599.941	19.79
600.277	19.56
600.614	19.98
600.95	19.93
601.287	20.01
601.623	20.53
601.959	20.29
602.296	20.45
602.632	20.06
602.968	20.64
603.304	20.35
603.64	20.29
603.976	20.53
604.312	20.36
604.648	20.43
604.984	20.5
605.319	20.66
605.655	20.64
605.991	20.51
606.326	20.46
606.662	20.5
606.998	20.2
607.333	20.18
607.668	20.23
608.004	20.3
608.339	20.58
608.674	20.65
609.01	20.76
609.345	20.97
609.68	20.84
610.015	21.09
610.35	20.97
610.685	20.84
611.02	20.95
611.355	21.21
611.689	20.72
612.024	20.87
612.359	20.75
612.694	20.84
613.028	20.84
613.363	20.94
613.697	21.06
614.032	21.05
614.366	20.84
614.7	21.41
615.035	21.13
615.369	21.26
615.703	21.23
616.037	21.41
616.371	21.04
616.705	21.26
617.039	21.03
617.373	21.53
617.707	21.52
618.041	21.37
618.375	21.6
618.709	21.47
619.042	21.67
619.376	21.86
619.71	21.66
620.043	21.62
620.377	21.92
620.71	21.85
621.043	22
621.377	22.14
621.71	21.75
622.043	21.14
622.376	21.97
622.709	22
623.043	21.97
623.376	22.18
623.709	21.81
624.041	22.54
624.374	21.77
624.707	21.85
625.04	21.64
625.373	22.05
625.705	22.53
626.038	22.28
626.37	22.01
626.703	22.34
627.035	22.59
627.368	22.6
627.7	22.19
628.032	22.32
628.365	22.22
628.697	22.45
629.029	22.22
629.361	22.45
629.693	22.31
630.025	22.45
630.357	22.01
630.689	22.28
631.021	22.77
631.353	22.38
631.684	22.55
632.016	22.17
632.348	22.47
632.679	22.58
633.011	22.56
633.342	22.83
633.674	22.6
634.005	23.03
634.336	22.27
634.668	22.86
634.999	22.79
635.33	23.19
635.661	23.38
635.992	22.47
636.323	23.24
636.654	22.93
636.985	22.7
637.316	22.95
637.647	23.06
637.977	22.71
638.308	22.86
638.639	22.77
638.969	23.32
639.3	23.12
639.63	22.99
639.961	23.3
640.291	23.31
640.622	23.25
640.952	23.3
641.282	23.3
641.612	23.07
641.943	23.25
642.273	23.34
642.603	22.97
642.933	22.74
643.263	23.61
643.592	23
643.922	23.81
644.252	23.37
644.582	23.65
644.911	23.61
645.241	23.84
645.571	23.77
645.9	23.3
646.23	22.92
646.559	23.89
646.888	23.89
647.218	23.12
647.547	23.68
647.876	23.99
648.205	23.67
648.534	24.06
648.863	23.82
649.192	24.02
649.521	23.57
649.85	24.42
650.179	24.26
650.508	24.46
650.837	23.5
651.165	24.07
651.494	24.15
651.822	23.7
652.151	23.94
652.479	24.28
652.808	24.35
653.136	24.45
653.465	24.05
653.793	24.16
654.121	24.62
654.449	24.33
654.777	24.25
655.105	23.92
655.433	23.99
655.761	23.91
656.089	24.26
656.417	23.9
656.745	24.57
657.073	24.49
657.4	24.42
657.728	24.44
658.056	24.6
658.383	24.61
658.711	24.95
659.038	24.65
659.365	24.85
659.693	24.4
660.02	24.8
660.347	24.9
660.674	24.49
661.001	24.76
661.329	24.61
661.656	24.5
661.982	24.26
662.309	24.13
662.636	24.41
662.963	24.86
663.29	24.61
663.616	24.59
663.943	25.25
664.27	24.87
664.596	24.7
664.923	25.24
665.249	25.17
665.576	24.85
665.902	24.9
666.228	24.59
666.554	25.13
666.881	25.49
667.207	25.04
667.533	25.12
667.859	25.02
668.185	25.21
668.511	25.24
668.837	24.18
669.162	25.42
669.488	24.72
669.814	25.54
670.139	25.99
670.465	25.31
670.791	25.68
671.116	25.27
671.442	25.55
671.767	24.54
672.092	25.24
672.418	25.54
672.743	26.08
673.068	24.84
673.393	25.59
673.718	25.21
674.043	25.59
674.368	25.97
674.693	25.31
675.018	25.97
675.343	25.71
675.667	25.82
675.992	25.57
676.317	25.01
676.641	26.17
676.966	25.88
677.29	25.15
677.615	26.17
677.939	25.48
