Data from 0089_chest_Reflection__1__122.txt Node

Date: Mon Aug 28 19:42:56 CDT 2023
User: ToomeyLab
Spectrometer: FLMS14357
Trigger mode: 0
Integration Time (sec): 1.000000E-2
Scans to average: 100
Electric dark correction enabled: true
Nonlinearity correction enabled: false
Boxcar width: 0
XAxis mode: Wavelengths
Number of Pixels in Spectrum: 2048
>>>>>Begin Spectral Data<<<<<
189.047	-201.6
189.435	-201.6
189.823	-201.6
190.211	-2909.3
190.599	253.64
190.987	399.87
191.375	62.61
191.763	106.65
192.151	-19.25
192.538	265.57
192.926	207.81
193.314	291.87
193.702	136.82
194.089	13.94
194.477	-1728.24
194.864	-80.44
195.252	131.39
195.639	-2007.69
196.027	56.52
196.414	224.42
196.801	71.52
197.189	158.15
197.576	186.52
197.963	-12.34
198.351	-16.32
198.738	42.84
199.125	-35.55
199.512	-40.35
199.899	40.71
200.286	-97.7
200.673	-5.96
201.06	-7.09
201.447	-61.77
201.833	2
202.22	9.39
202.607	-13.21
202.994	-10.38
203.38	-70.42
203.767	-54.12
204.154	7.71
204.54	-52.77
204.927	-24.73
205.313	5.67
205.699	-44.08
206.086	15.34
206.472	-20.27
206.858	-73.84
207.245	11.49
207.631	17.52
208.017	-1.67
208.403	-12.95
208.789	-27.79
209.175	-39.1
209.561	-0.45
209.947	3.26
210.333	1.23
210.719	-7.47
211.105	13.72
211.491	-11.39
211.876	7.8
212.262	-101.39
212.648	25.78
213.034	22.16
213.419	-17.47
213.805	-21.11
214.19	-23.88
214.576	-9.93
214.961	-17.78
215.346	-8.17
215.732	1.13
216.117	-25.54
216.502	3.75
216.888	-31.76
217.273	-32.41
217.658	0.23
218.043	-0.69
218.428	-7.69
218.813	-14.93
219.198	-22.67
219.583	-12.28
219.968	-1.74
220.353	-17.14
220.738	2.81
221.122	-11.21
221.507	0.95
221.892	-8.5
222.276	-13.6
222.661	-4.08
223.046	8.72
223.43	8.26
223.815	8.33
224.199	5.41
224.583	1.91
224.968	11.08
225.352	19.43
225.736	7.96
226.121	-3.73
226.505	-0.51
226.889	0.33
227.273	6.68
227.657	5.12
228.041	4.79
228.425	7.48
228.809	2.88
229.193	2.38
229.577	5.9
229.961	2.98
230.344	5.36
230.728	5.59
231.112	5.67
231.495	5.48
231.879	5.76
232.263	6.1
232.646	5.65
233.03	6.84
233.413	6.97
233.797	5.92
234.18	4.45
234.563	4.76
234.946	6.32
235.33	3.11
235.713	3.58
236.096	6.61
236.479	6.61
236.862	6.73
237.245	3.67
237.628	4.53
238.011	7.53
238.394	4.58
238.777	5.64
239.16	4.69
239.543	2.94
239.925	5.31
240.308	4.56
240.691	3.33
241.073	2.82
241.456	5.27
241.838	3.31
242.221	5.28
242.603	6.31
242.986	5.43
243.368	5.37
243.75	5.68
244.133	4.9
244.515	4.72
244.897	5.41
245.279	5.16
245.661	4.23
246.043	5.32
246.425	4.74
246.807	5.71
247.189	2.96
247.571	4.96
247.953	5.05
248.335	5.05
248.717	5.07
249.098	4.99
249.48	5.21
249.862	4.96
250.243	4.75
250.625	5.09
251.006	5.01
251.388	4.29
251.769	5.31
252.151	4.74
252.532	4.58
252.913	4.72
253.295	4.21
253.676	4.81
254.057	4.7
254.438	4.4
254.819	4.85
255.2	4.93
255.581	5.14
255.962	4.38
256.343	5.48
256.724	2.7
257.105	3.19
257.486	5.27
257.867	3.17
258.247	4.07
258.628	5.23
259.009	4.09
259.389	4.19
259.77	4.22
260.15	4.37
260.531	4.17
260.911	4.49
261.292	4.7
261.672	4.51
262.052	4.51
262.432	4.51
262.813	4.55
263.193	4.31
263.573	4.46
263.953	4.54
264.333	4.29
264.713	4.6
265.093	4.94
265.473	4.35
265.853	3.67
266.233	3.7
266.612	4.71
266.992	4.32
267.372	4.19
267.752	5.48
268.131	4.67
268.511	3.47
268.89	4.47
269.27	4.24
269.649	4.47
270.029	4.66
270.408	4.77
270.787	4.92
271.167	4.39
271.546	3.96
271.925	4.49
272.304	5
272.683	4.38
273.062	4.25
273.441	4.17
273.82	4.14
274.199	3.67
274.578	4.6
274.957	4.55
275.336	4.51
275.715	4.46
276.093	3.48
276.472	4.08
276.851	3.59
277.229	4.79
277.608	4.17
277.986	4.14
278.365	3.91
278.743	4.61
279.122	3.72
279.5	3.79
279.878	3.63
280.257	4.16
280.635	4.26
281.013	4.69
281.391	4.19
281.769	3.89
282.147	4.13
282.525	4.52
282.903	4.63
283.281	3.94
283.659	4.21
284.037	4.58
284.415	3.99
284.792	4.3
285.17	3.66
285.548	3.72
285.925	4.61
286.303	4.14
286.68	4.49
287.058	4.34
287.435	4.24
287.813	3.95
288.19	4.18
288.567	4.1
288.945	4.06
289.322	3.74
289.699	4.38
290.076	3.6
290.453	3.81
290.83	3.63
291.207	4.13
291.584	3.91
291.961	4.43
292.338	3.99
292.715	3.84
293.092	4.01
293.469	4.14
293.845	3.71
294.222	3.84
294.599	3.76
294.975	4.1
295.352	4.07
295.728	3.93
296.105	4
296.481	3.66
296.858	4.34
297.234	3.81
297.61	3.97
297.986	3.63
298.363	4.03
298.739	4.03
299.115	3.48
299.491	3.92
299.867	4.01
300.243	4.25
300.619	3.84
300.995	3.94
301.371	4.23
301.746	4.22
302.122	3.75
302.498	3.74
302.874	4.11
303.249	4.02
303.625	3.89
304	3.34
304.376	3.72
304.751	3.71
305.127	4.1
305.502	3.67
305.878	3.54
306.253	3.88
306.628	3.65
307.003	3.54
307.378	4.06
307.754	4.09
308.129	3.48
308.504	4.23
308.879	3.87
309.254	4.23
309.629	2.99
310.003	3.92
310.378	3.36
310.753	4.25
311.128	4.3
311.502	4.34
311.877	3.72
312.252	3.65
312.626	4.11
313.001	3.73
313.375	3.82
313.75	3.65
314.124	3.8
314.498	4.05
314.873	4.57
315.247	4.07
315.621	3.59
315.995	4.23
316.369	3.62
316.743	3.24
317.117	4.02
317.491	3.19
317.865	3.51
318.239	3.65
318.613	4.22
318.987	3.44
319.361	4.02
319.734	3.72
320.108	3.46
320.482	4.23
320.855	4.34
321.229	3.28
321.602	4.3
321.976	3.63
322.349	3.74
322.723	3.74
323.096	4.08
323.469	3.34
323.843	3.27
324.216	3.53
324.589	3.9
324.962	3.89
325.335	3.96
325.708	3.94
326.081	3.77
326.454	3.43
326.827	3.68
327.2	3.47
327.573	3.56
327.945	3.71
328.318	4.13
328.691	3.32
329.063	3.22
329.436	3.46
329.809	4.04
330.181	3.31
330.553	3.64
330.926	4.03
331.298	3.68
331.671	3.43
332.043	4.2
332.415	4.41
332.787	3.67
333.159	3.83
333.532	4.28
333.904	3.81
334.276	3.12
334.648	3.84
335.02	4.07
335.391	3.16
335.763	3.43
336.135	3.76
336.507	3.1
336.879	3.7
337.25	4.17
337.622	3.77
337.993	3.82
338.365	2.98
338.736	4.33
339.108	3.19
339.479	3.15
339.851	3.78
340.222	3.89
340.593	3.4
340.964	4.35
341.336	3.46
341.707	3.54
342.078	3.35
342.449	4.43
342.82	3.57
343.191	3.96
343.562	3.62
343.933	3.4
344.303	3.78
344.674	3.97
345.045	3.61
345.416	4.09
345.786	4.01
346.157	3.7
346.527	3.32
346.898	3.77
347.268	3.58
347.639	3.18
348.009	3.73
348.38	3.78
348.75	3.63
349.12	4.02
349.49	3.7
349.861	3.53
350.231	3.38
350.601	3.91
350.971	3.77
351.341	3.81
351.711	3.75
352.081	3.71
352.45	4.03
352.82	3.7
353.19	4.17
353.56	3.99
353.929	3.75
354.299	3.36
354.669	3.99
355.038	3.96
355.408	4.02
355.777	3.62
356.147	3.66
356.516	4.18
356.885	4.19
357.254	3.55
357.624	3.55
357.993	4.32
358.362	3.59
358.731	3.96
359.1	4.08
359.469	4.19
359.838	3.6
360.207	3.98
360.576	4.11
360.945	3.71
361.314	3.7
361.682	3.32
362.051	3.87
362.42	3.36
362.788	3.97
363.157	4.01
363.525	3.9
363.894	3.82
364.262	3.93
364.631	3.56
364.999	4.03
365.367	4
365.735	3.76
366.104	3.88
366.472	3.77
366.84	3.85
367.208	3.72
367.576	3.71
367.944	4.08
368.312	4.14
368.68	3.85
369.048	3.88
369.416	3.94
369.783	3.77
370.151	3.84
370.519	3.81
370.886	3.44
371.254	4.11
371.621	4.07
371.989	3.93
372.356	3.96
372.724	3.94
373.091	3.65
373.458	3.6
373.826	3.95
374.193	4.1
374.56	3.79
374.927	3.93
375.294	3.86
375.661	4.12
376.028	3.89
376.395	3.81
376.762	4.09
377.129	3.79
377.496	3.9
377.863	4.23
378.229	3.92
378.596	4.02
378.963	3.82
379.329	3.93
379.696	4.17
380.062	3.84
380.429	3.82
380.795	4.03
381.161	3.85
381.528	4.18
381.894	3.93
382.26	4.15
382.626	4.2
382.993	4.05
383.359	3.92
383.725	3.98
384.091	3.77
384.457	3.83
384.823	3.84
385.188	3.98
385.554	3.99
385.92	3.97
386.286	4.2
386.651	3.95
387.017	4.15
387.383	3.93
387.748	3.82
388.114	4
388.479	4.02
388.845	3.85
389.21	3.97
389.575	4.14
389.94	4.02
390.306	4.18
390.671	3.97
391.036	3.93
391.401	4.08
391.766	4.28
392.131	4.1
392.496	4
392.861	4.04
393.226	4.24
393.591	3.74
393.956	4.08
394.32	3.95
394.685	4.13
395.05	4.17
395.414	4.13
395.779	4.08
396.143	3.88
396.508	3.91
396.872	4.27
397.236	3.99
397.601	3.95
397.965	4.02
398.329	4.24
398.694	4.11
399.058	3.87
399.422	4.15
399.786	4.31
400.15	4.24
400.514	4.06
400.878	4.01
401.242	4.18
401.605	4.09
401.969	4.06
402.333	3.94
402.697	4.11
403.06	4.22
403.424	4.37
403.787	4.13
404.151	4.05
404.514	4.12
404.878	4.13
405.241	4.23
405.604	4.11
405.968	3.91
406.331	4.36
406.694	4.11
407.057	4.26
407.42	4.11
407.783	3.93
408.146	4.01
408.509	4.22
408.872	4.23
409.235	4.21
409.598	3.98
409.961	4.09
410.323	4.37
410.686	4.3
411.049	4.35
411.411	4.14
411.774	4.13
412.136	4.13
412.499	4.14
412.861	4.12
413.223	4.22
413.586	4.06
413.948	4.22
414.31	4.32
414.672	4.09
415.035	4.2
415.397	3.97
415.759	4.37
416.121	4.07
416.483	4.06
416.845	4.36
417.206	4.35
417.568	4.1
417.93	4.01
418.292	4.38
418.653	4.09
419.015	4.08
419.377	4.03
419.738	4.31
420.1	4.14
420.461	4.2
420.822	4.14
421.184	4.13
421.545	4.23
421.906	4.14
422.267	4.13
422.629	4.13
422.99	4.06
423.351	4.25
423.712	4.06
424.073	4.1
424.434	4.23
424.795	4.13
425.155	4.01
425.516	4.16
425.877	4.09
426.238	4.01
426.598	4.06
426.959	4.17
427.32	4.1
427.68	4.24
428.041	4.21
428.401	4.17
428.761	4.16
429.122	4.22
429.482	4.21
429.842	4.42
430.202	4.14
430.563	4.3
430.923	4.29
431.283	4.15
431.643	4.12
432.003	4.22
432.363	4.21
432.722	4.26
433.082	4.2
433.442	4.25
433.802	4.14
434.161	4.32
434.521	4.18
434.881	4.09
435.24	4.31
435.6	4.23
435.959	4.3
436.319	4.26
436.678	4.28
437.037	4.32
437.396	4.33
437.756	4.1
438.115	4.39
438.474	4.34
438.833	4.21
439.192	4.3
439.551	4.27
439.91	4.36
440.269	4.24
440.628	4.13
440.987	4.16
441.345	4.21
441.704	4.14
442.063	4.13
442.421	4.28
442.78	4.3
443.138	4.22
443.497	4.3
443.855	4.2
444.214	4.28
444.572	4.26
444.93	4.37
445.288	4.16
445.647	4.33
446.005	4.18
446.363	4.36
446.721	4.3
447.079	4.33
447.437	4.12
447.795	4.14
448.153	4.18
448.51	4.11
448.868	4.28
449.226	4.19
449.584	4.18
449.941	4.17
450.299	4.19
450.656	4.19
451.014	4.24
451.371	4.28
451.729	4.06
452.086	4.29
452.443	4.29
452.801	4.35
453.158	4.42
453.515	4.18
453.872	4.2
454.229	4.3
454.586	4.4
454.943	4.3
455.3	4.21
455.657	4.37
456.014	4.39
456.371	4.4
456.727	4.28
457.084	4.17
457.441	4.28
457.797	4.32
458.154	4.39
458.51	4.33
458.867	4.27
459.223	4.26
459.58	4.25
459.936	4.3
460.292	4.33
460.648	4.29
461.005	4.36
461.361	4.31
461.717	4.3
462.073	4.22
462.429	4.15
462.785	4.29
463.141	4.22
463.496	4.35
463.852	4.39
464.208	4.31
464.564	4.38
464.919	4.39
465.275	4.48
465.631	4.44
465.986	4.39
466.342	4.48
466.697	4.14
467.052	4.3
467.408	4.24
467.763	4.2
468.118	4.25
468.473	4.42
468.829	4.41
469.184	4.16
469.539	4.37
469.894	4.25
470.249	4.5
470.603	4.41
470.958	4.22
471.313	4.27
471.668	4.28
472.023	4.35
472.377	4.49
472.732	4.27
473.086	4.36
473.441	4.43
473.795	4.36
474.15	4.65
474.504	4.49
474.859	4.41
475.213	4.39
475.567	4.39
475.921	4.63
476.275	4.4
476.63	4.53
476.984	4.55
477.338	4.31
477.692	4.36
478.045	4.47
478.399	4.3
478.753	4.21
479.107	4.27
479.461	4.35
479.814	4.46
480.168	4.52
480.521	4.41
480.875	4.27
481.228	4.42
481.582	4.34
481.935	4.41
482.289	4.37
482.642	4.36
482.995	4.37
483.348	4.46
483.701	4.37
484.055	4.4
484.408	4.33
484.761	4.33
485.114	4.3
485.466	4.25
485.819	4.15
486.172	4.1
486.525	4.07
486.878	4.1
487.23	4.2
487.583	4.23
487.936	4.3
488.288	4.31
488.641	4.31
488.993	4.37
489.345	4.28
489.698	4.23
490.05	4.15
490.402	4.14
490.754	4.2
491.107	4.23
491.459	4.22
491.811	4.34
492.163	4.38
492.515	4.37
492.866	4.41
493.218	4.35
493.57	4.3
493.922	4.19
494.274	4.21
494.625	4.21
494.977	4.28
495.328	4.38
495.68	4.39
496.031	4.43
496.383	4.42
496.734	4.44
497.086	4.54
497.437	4.57
497.788	4.49
498.139	4.48
498.49	4.46
498.842	4.41
499.193	4.38
499.544	4.47
499.894	4.39
500.245	4.41
500.596	4.39
500.947	4.48
501.298	4.56
501.648	4.45
501.999	4.43
502.35	4.32
502.7	4.52
503.051	4.59
503.401	4.44
503.752	4.47
504.102	4.63
504.452	4.44
504.803	4.64
505.153	4.54
505.503	4.46
505.853	4.48
506.203	4.55
506.553	4.46
506.903	4.68
507.253	4.58
507.603	4.47
507.953	4.56
508.303	4.64
508.652	4.48
509.002	4.54
509.352	4.38
509.701	4.58
510.051	4.44
510.4	4.53
510.75	4.58
511.099	4.53
511.449	4.61
511.798	4.46
512.147	4.62
512.496	4.67
512.846	4.53
513.195	4.55
513.544	4.48
513.893	4.49
514.242	4.64
514.591	4.59
514.939	4.43
515.288	4.62
515.637	4.64
515.986	4.55
516.334	4.69
516.683	4.74
517.032	4.63
517.38	4.66
517.729	4.61
518.077	4.62
518.426	4.53
518.774	4.61
519.122	4.73
519.47	4.53
519.819	4.62
520.167	4.51
520.515	4.6
520.863	4.44
521.211	4.46
521.559	4.51
521.907	4.58
522.255	4.57
522.602	4.6
522.95	4.62
523.298	4.75
523.645	4.68
523.993	4.66
524.341	4.83
524.688	4.6
525.036	4.7
525.383	4.78
525.73	4.67
526.078	4.72
526.425	4.68
526.772	4.71
527.119	4.64
527.466	4.69
527.814	4.62
528.161	4.6
528.508	4.56
528.854	4.62
529.201	4.71
529.548	4.65
529.895	4.67
530.242	4.64
530.588	4.49
530.935	4.49
531.282	4.47
531.628	4.48
531.975	4.52
532.321	4.59
532.667	4.64
533.014	4.73
533.36	4.74
533.706	4.72
534.052	4.72
534.399	4.83
534.745	4.74
535.091	4.76
535.437	4.68
535.783	4.6
536.129	4.67
536.474	4.61
536.82	4.68
537.166	4.72
537.512	4.79
537.857	4.84
538.203	4.78
538.549	4.73
538.894	4.77
539.239	4.62
539.585	4.81
539.93	4.79
540.276	4.9
540.621	4.9
540.966	4.89
541.311	4.99
541.656	4.96
542.001	4.96
542.346	5.04
542.691	4.87
543.036	4.84
543.381	4.74
543.726	4.68
544.071	4.75
544.415	4.76
544.76	4.78
545.105	4.81
545.449	4.77
545.794	4.8
546.138	4.98
546.483	4.88
546.827	4.9
547.171	4.99
547.516	4.93
547.86	5.1
548.204	5.06
548.548	5.16
548.892	4.91
549.236	4.96
549.58	4.95
549.924	4.99
550.268	5.04
550.612	5.06
550.956	5.12
551.3	5
551.643	5.21
551.987	5.16
552.33	5.13
552.674	5.16
553.017	5.3
553.361	5.33
553.704	5.04
554.048	5.31
554.391	5.08
554.734	5.24
555.077	5.3
555.42	5.21
555.764	5.33
556.107	5.18
556.45	5.31
556.793	5.21
557.135	5.3
557.478	5.19
557.821	5.28
558.164	5.22
558.507	5.43
558.849	5.35
559.192	5.19
559.534	5.24
559.877	5.45
560.219	5.37
560.562	5.44
560.904	5.47
561.246	5.43
561.589	5.27
561.931	5.36
562.273	5.14
562.615	5.31
562.957	5.57
563.299	5.54
563.641	5.38
563.983	5.55
564.325	5.48
564.667	5.43
565.008	5.39
565.35	5.65
565.692	5.69
566.033	5.45
566.375	5.62
566.716	5.49
567.058	5.52
567.399	5.25
567.741	5.56
568.082	5.49
568.423	5.59
568.764	5.46
569.105	5.65
569.447	5.53
569.788	5.51
570.129	5.54
570.47	5.71
570.811	5.69
571.151	5.55
571.492	5.68
571.833	5.64
572.174	5.82
572.514	5.69
572.855	5.64
573.195	5.79
573.536	5.84
573.876	5.75
574.217	5.62
574.557	5.65
574.898	5.86
575.238	5.63
575.578	5.66
575.918	5.84
576.258	5.81
576.598	5.82
576.938	5.66
577.278	5.87
577.618	5.89
577.958	5.82
578.298	6.01
578.638	5.76
578.977	6.02
579.317	5.86
579.657	5.97
579.996	5.97
580.336	5.69
580.675	5.97
581.014	6.3
581.354	5.97
581.693	6.27
582.032	6.17
582.372	6.12
582.711	6.12
583.05	6.06
583.389	6.23
583.728	6.03
584.067	6.04
584.406	6.01
584.745	6.14
585.083	6.06
585.422	6.01
585.761	6.21
586.1	6.54
586.438	6.2
586.777	6.16
587.115	6.1
587.454	6.35
587.792	6.34
588.13	6.34
588.469	6.35
588.807	6.35
589.145	6.42
589.483	6.16
589.821	6.46
590.159	6.55
590.497	6.53
590.835	6.38
591.173	6.26
591.511	6.4
591.849	6.55
592.187	6.49
592.524	6.73
592.862	6.51
593.2	6.47
593.537	6.58
593.875	6.69
594.212	6.8
594.55	6.73
594.887	6.75
595.224	6.69
595.561	6.46
595.899	6.57
596.236	6.7
596.573	6.73
596.91	6.84
597.247	6.65
597.584	6.6
597.921	6.8
598.258	6.71
598.594	6.85
598.931	6.6
599.268	6.88
599.604	6.78
599.941	6.82
600.277	6.76
600.614	6.9
600.95	6.96
601.287	6.87
601.623	7.19
601.959	6.85
602.296	6.96
602.632	6.91
602.968	7.02
603.304	7.19
603.64	6.95
603.976	7.03
604.312	7.31
604.648	7.01
604.984	6.88
605.319	7.07
605.655	7.09
605.991	7.4
606.326	7.1
606.662	7.28
606.998	7.18
607.333	6.94
607.668	7.16
608.004	7.07
608.339	7.3
608.674	7.29
609.01	7.3
609.345	7.4
609.68	7.04
610.015	7.48
610.35	7.49
610.685	7.6
611.02	7.18
611.355	7.56
611.689	7.13
612.024	7.53
612.359	7.5
612.694	7.5
613.028	7.33
613.363	7.38
613.697	7.5
614.032	7.68
614.366	7.34
614.7	7.55
615.035	7.64
615.369	7.59
615.703	7.65
616.037	7.37
616.371	7.27
616.705	7.92
617.039	7.69
617.373	7.89
617.707	7.58
618.041	7.7
618.375	7.7
618.709	7.89
619.042	7.66
619.376	7.89
619.71	7.9
620.043	7.72
620.377	8.04
620.71	7.7
621.043	8.03
621.377	8.13
621.71	8
622.043	7.6
622.376	7.94
622.709	7.72
623.043	8.22
623.376	8.13
623.709	8.27
624.041	8.23
624.374	8
624.707	7.93
625.04	7.77
625.373	8.09
625.705	8.12
626.038	7.99
626.37	8.16
626.703	8.37
627.035	8.3
627.368	8.22
627.7	8.48
628.032	8.37
628.365	8.28
628.697	8.45
629.029	8.13
629.361	8.26
629.693	8.2
630.025	8.18
630.357	8.24
630.689	8.56
631.021	8.56
631.353	8.57
631.684	8.64
632.016	8.37
632.348	8.5
632.679	8.59
633.011	8.19
633.342	8.36
633.674	8.78
634.005	8.06
634.336	8.4
634.668	9.01
634.999	8.53
635.33	8.78
635.661	8.73
635.992	8.82
636.323	8.89
636.654	8.67
636.985	8.81
637.316	8.72
637.647	8.8
637.977	8.51
638.308	8.96
638.639	8.82
638.969	9.27
639.3	8.55
639.63	9.04
639.961	9.08
640.291	8.9
640.622	8.96
640.952	8.82
641.282	8.88
641.612	9.19
641.943	8.8
642.273	9.36
642.603	8.98
642.933	8.84
643.263	9.4
643.592	9
643.922	9.04
644.252	8.8
644.582	9.48
644.911	9.42
645.241	9.49
645.571	9.39
645.9	8.91
646.23	9.28
646.559	8.96
646.888	9.64
647.218	9.07
647.547	9.27
647.876	9.66
648.205	9.48
648.534	9.92
648.863	9.3
649.192	9.43
649.521	9.78
649.85	9.54
650.179	9.72
650.508	9.77
650.837	9.2
651.165	10.02
651.494	9.98
651.822	9.35
652.151	9.62
652.479	9.87
652.808	9.33
653.136	9.37
653.465	9.45
653.793	9.92
654.121	10.12
654.449	9.7
654.777	9.48
655.105	9.74
655.433	9.53
655.761	9.51
656.089	9.97
656.417	9.53
656.745	10.45
657.073	9.86
657.4	10.25
657.728	10.22
658.056	10.09
658.383	10.24
658.711	10.65
659.038	10.27
659.365	10.33
659.693	10.18
660.02	9.91
660.347	10.58
660.674	10.33
661.001	10.68
661.329	10.23
661.656	10.24
661.982	10.19
662.309	10.67
662.636	10.2
662.963	10.26
663.29	10.69
663.616	10.51
663.943	10.64
664.27	10.29
664.596	10.44
664.923	11.09
665.249	10.64
665.576	10.37
665.902	10.5
666.228	10.38
666.554	10.95
666.881	10.2
667.207	10.2
667.533	10.73
667.859	9.9
668.185	10.48
668.511	11
668.837	10.07
669.162	10.84
669.488	10.27
669.814	10.7
670.139	10.79
670.465	10.96
670.791	11.59
671.116	10.89
671.442	10.2
671.767	10.32
672.092	11.17
672.418	10.57
672.743	11.18
673.068	10.69
673.393	11.06
673.718	10.47
674.043	11.01
674.368	11.27
674.693	11.65
675.018	11.75
675.343	11.31
675.667	11.07
675.992	11.11
676.317	10.27
676.641	11.92
676.966	10.97
677.29	10.82
677.615	11.81
677.939	10.69
678.264	10.83
678.588	10.93
678.912	11.41
679.236	10.94
679.56	11.23
679.885	11.02
680.209	11.53
680.532	12.09
680.856	11.43
681.18	11.19
681.504	11.27
681.828	11.74
682.152	11.44
682.475	11.77
682.799	11.87
683.122	11.35
683.446	10.97
683.769	11.78
684.093	11.6
684.416	11.96
684.739	11.56
685.062	11.92
685.386	11.47
685.709	11.75
686.032	11.38
686.355	11.68
686.678	11.79
687.001	11.2
687.324	11.95
687.646	11.44
687.969	11.59
688.292	12.35
688.614	12.49
688.937	11.76
689.26	11.84
689.582	11.42
689.904	11.82
