Data from 0089_forehead_Reflection__3__129.txt Node

Date: Mon Aug 28 19:45:56 CDT 2023
User: ToomeyLab
Spectrometer: FLMS14357
Trigger mode: 0
Integration Time (sec): 1.000000E-2
Scans to average: 100
Electric dark correction enabled: true
Nonlinearity correction enabled: false
Boxcar width: 0
XAxis mode: Wavelengths
Number of Pixels in Spectrum: 2048
>>>>>Begin Spectral Data<<<<<
189.047	-148.29
189.435	-148.29
189.823	-148.29
190.211	-7941.86
190.599	214.74
190.987	7.12
191.375	24.63
191.763	55.18
192.151	59.89
192.538	237.8
192.926	157.5
193.314	384.88
193.702	53.5
194.089	114.37
194.477	2267.06
194.864	23.4
195.252	106.85
195.639	-4493.16
196.027	89.7
196.414	228.9
196.801	12.75
197.189	-52.8
197.576	-44.03
197.963	-101.44
198.351	55.87
198.738	2.83
199.125	-23
199.512	65.78
199.899	-7.48
200.286	-66.85
200.673	0.44
201.06	-23.96
201.447	-35.72
201.833	1.07
202.22	-4.08
202.607	-26.41
202.994	32.1
203.38	-0.84
203.767	-46.08
204.154	1.89
204.54	-26.12
204.927	-7.83
205.313	36.05
205.699	-10.72
206.086	24.55
206.472	-37.58
206.858	-63.86
207.245	9.85
207.631	16.56
208.017	-8.7
208.403	12.02
208.789	-22.84
209.175	-31.3
209.561	-39.37
209.947	-13.37
210.333	-26.42
210.719	16.89
211.105	24.39
211.491	7.43
211.876	24.41
212.262	-56.29
212.648	32.3
213.034	-21.66
213.419	3.08
213.805	-8.17
214.19	-9.31
214.576	6.45
214.961	-1.55
215.346	-11.08
215.732	8.08
216.117	-38.05
216.502	-26.15
216.888	-51.65
217.273	-4.48
217.658	-13.02
218.043	-1.79
218.428	7.04
218.813	-13.42
219.198	4.01
219.583	5.26
219.968	27.98
220.353	-16.93
220.738	20.69
221.122	1.42
221.507	8.64
221.892	-10.14
222.276	6.39
222.661	-11.45
223.046	-4.36
223.43	-2.03
223.815	11.74
224.199	15.16
224.583	5.25
224.968	3.12
225.352	11.6
225.736	6.11
226.121	3.29
226.505	-6.27
226.889	8.54
227.273	5.78
227.657	0.08
228.041	0.26
228.425	4
228.809	-0.75
229.193	0.91
229.577	0.12
229.961	1.51
230.344	2.47
230.728	1.8
231.112	0.37
231.495	1.83
231.879	0.69
232.263	1.24
232.646	0.45
233.03	1.16
233.413	3.13
233.797	1.63
234.18	1.53
234.563	0.86
234.946	5.93
235.33	-0.69
235.713	-1.04
236.096	2.99
236.479	0.44
236.862	1.46
237.245	1.52
237.628	1.33
238.011	1.92
238.394	3.42
238.777	1.75
239.16	1.57
239.543	0.45
239.925	3.63
240.308	0.86
240.691	-1.01
241.073	0.81
241.456	1.54
241.838	0.93
242.221	3.26
242.603	3.09
242.986	1.71
243.368	1.59
243.75	2.05
244.133	1.5
244.515	1.57
244.897	1.9
245.279	1.57
245.661	0.54
246.043	1.92
246.425	1.5
246.807	1.91
247.189	1.51
247.571	2.12
247.953	2.65
248.335	1.8
248.717	1.81
249.098	1.67
249.48	1.84
249.862	1.87
250.243	2.14
250.625	2.27
251.006	1.92
251.388	2.04
251.769	1.89
252.151	1.17
252.532	1.05
252.913	2.4
253.295	1.48
253.676	2.26
254.057	1.89
254.438	2.03
254.819	1.63
255.2	2.99
255.581	2.51
255.962	1.38
256.343	2.46
256.724	2.16
257.105	1.44
257.486	2.18
257.867	2.09
258.247	2.02
258.628	2.38
259.009	1.38
259.389	1.19
259.77	2.15
260.15	1.61
260.531	2.13
260.911	1.79
261.292	1.68
261.672	1.89
262.052	1.75
262.432	1.68
262.813	1.84
263.193	1.83
263.573	1.59
263.953	1.85
264.333	1.48
264.713	1.26
265.093	2.08
265.473	1.48
265.853	1.55
266.233	1.16
266.612	1.96
266.992	1.86
267.372	1.66
267.752	2.34
268.131	1.97
268.511	1.36
268.89	1.87
269.27	1.26
269.649	1.5
270.029	2.28
270.408	1.79
270.787	2.79
271.167	1.83
271.546	1.53
271.925	1.91
272.304	1.73
272.683	1.77
273.062	1.82
273.441	1.82
273.82	1.72
274.199	1.66
274.578	1.88
274.957	1.54
275.336	2.1
275.715	2.32
276.093	1.54
276.472	1.43
276.851	1.45
277.229	1.86
277.608	1.99
277.986	1.26
278.365	1.88
278.743	1.4
279.122	1.5
279.5	1.41
279.878	1.24
280.257	1.35
280.635	1.76
281.013	1.48
281.391	1.58
281.769	1.23
282.147	1.73
282.525	2.19
282.903	1.57
283.281	1.44
283.659	1.88
284.037	2.01
284.415	2.05
284.792	2.24
285.17	1.52
285.548	1.36
285.925	2.62
286.303	1.67
286.68	2.21
287.058	2.02
287.435	1.55
287.813	1.79
288.19	2.25
288.567	2.47
288.945	1.93
289.322	2.05
289.699	1.54
290.076	2.21
290.453	1.88
290.83	1.53
291.207	2.04
291.584	2.11
291.961	2.12
292.338	1.9
292.715	1.85
293.092	2.08
293.469	1.72
293.845	1.67
294.222	2.12
294.599	1.93
294.975	2.52
295.352	2.31
295.728	1.72
296.105	2.66
296.481	2.48
296.858	2.81
297.234	2.67
297.61	2.64
297.986	2.52
298.363	2.63
298.739	2.38
299.115	2.17
299.491	2.89
299.867	2.6
300.243	2.57
300.619	2.41
300.995	3.04
301.371	2.45
301.746	2.86
302.122	2.42
302.498	2.85
302.874	2.65
303.249	3.04
303.625	2.59
304	3.1
304.376	2.65
304.751	2.53
305.127	2.89
305.502	2.93
305.878	3.05
306.253	2.51
306.628	2.84
307.003	3.04
307.378	2.5
307.754	3.1
308.129	2.66
308.504	3.47
308.879	3.32
309.254	3.19
309.629	2.52
310.003	3.13
310.378	3.25
310.753	2.87
311.128	2.86
311.502	3.14
311.877	3.05
312.252	3.34
312.626	2.88
313.001	3.23
313.375	2.99
313.75	3.17
314.124	3.22
314.498	3.26
314.873	3.57
315.247	3.56
315.621	3.05
315.995	3.13
316.369	3.69
316.743	2.57
317.117	2.91
317.491	2.85
317.865	3.32
318.239	3.1
318.613	3.9
318.987	3.5
319.361	3.7
319.734	3.35
320.108	3.43
320.482	3.65
320.855	3.69
321.229	3.08
321.602	3.38
321.976	3.25
322.349	3.11
322.723	3.22
323.096	3.9
323.469	3.56
323.843	3.33
324.216	3.44
324.589	3.59
324.962	3.6
325.335	4.06
325.708	3.55
326.081	3.32
326.454	3.93
326.827	3.72
327.2	3.47
327.573	3.48
327.945	3.98
328.318	4.15
328.691	3.55
329.063	3.22
329.436	3.37
329.809	4.03
330.181	3.42
330.553	3.85
330.926	4.32
331.298	3.85
331.671	3.82
332.043	3.66
332.415	4.8
332.787	3.36
333.159	3.88
333.532	4.17
333.904	3.86
334.276	4.08
334.648	4.28
335.02	4.3
335.391	3.56
335.763	3.93
336.135	4.02
336.507	3.94
336.879	3.37
337.25	4.09
337.622	3.58
337.993	4.05
338.365	3.44
338.736	4.01
339.108	3.37
339.479	3.35
339.851	4.25
340.222	3.98
340.593	3.7
340.964	4.12
341.336	3.85
341.707	4.19
342.078	3.42
342.449	4.02
342.82	4.18
343.191	3.58
343.562	3.51
343.933	3.82
344.303	3.6
344.674	3.92
345.045	4.05
345.416	3.93
345.786	4.26
346.157	4.02
346.527	3.63
346.898	3.66
347.268	3.82
347.639	3.59
348.009	3.43
348.38	4.21
348.75	3.82
349.12	4.32
349.49	4
349.861	3.92
350.231	3.67
350.601	4.12
350.971	4.61
351.341	4.08
351.711	3.75
352.081	3.83
352.45	3.9
352.82	3.99
353.19	4.52
353.56	4.19
353.929	4.32
354.299	3.99
354.669	4.09
355.038	4.07
355.408	4.34
355.777	4.37
356.147	3.98
356.516	4.14
356.885	4.35
357.254	4.02
357.624	3.73
357.993	4.38
358.362	3.85
358.731	4.31
359.1	4.1
359.469	4.44
359.838	3.88
360.207	4.04
360.576	4.33
360.945	4.26
361.314	3.96
361.682	3.92
362.051	4.22
362.42	4.21
362.788	4.08
363.157	4.18
363.525	4.18
363.894	4.27
364.262	4.29
364.631	4.21
364.999	4.17
365.367	4.45
365.735	4.22
366.104	4.15
366.472	4.04
366.84	4.15
367.208	4.43
367.576	4.14
367.944	4.47
368.312	4.3
368.68	4.54
369.048	4.34
369.416	4.33
369.783	4.17
370.151	4.13
370.519	4.4
370.886	4.24
371.254	4.25
371.621	4.24
371.989	4.37
372.356	4.44
372.724	4.58
373.091	4.63
373.458	4.18
373.826	4.57
374.193	4.33
374.56	4.36
374.927	4.35
375.294	4.37
375.661	4.71
376.028	3.98
376.395	4.33
376.762	4.67
377.129	4.31
377.496	4.31
377.863	4.65
378.229	4.32
378.596	4.62
378.963	4.82
379.329	4.46
379.696	4.59
380.062	4.39
380.429	4.47
380.795	4.66
381.161	4.68
381.528	4.89
381.894	4.38
382.26	4.84
382.626	4.84
382.993	4.93
383.359	4.81
383.725	4.81
384.091	4.36
384.457	4.43
384.823	4.54
385.188	4.6
385.554	4.31
385.92	4.65
386.286	4.87
386.651	4.12
387.017	4.51
387.383	4.76
387.748	4.7
388.114	4.5
388.479	4.28
388.845	4.79
389.21	4.51
389.575	4.91
389.94	4.68
390.306	4.84
390.671	4.58
391.036	4.56
391.401	4.89
391.766	4.95
392.131	4.55
392.496	4.61
392.861	4.74
393.226	4.81
393.591	4.53
393.956	4.69
394.32	4.63
394.685	4.7
395.05	4.7
395.414	4.7
395.779	4.82
396.143	4.6
396.508	4.47
396.872	4.95
397.236	4.48
397.601	4.51
397.965	4.65
398.329	5.24
398.694	4.96
399.058	4.68
399.422	4.81
399.786	4.88
400.15	5.1
400.514	4.84
400.878	4.86
401.242	4.97
401.605	4.85
401.969	4.82
402.333	4.92
402.697	4.8
403.06	4.92
403.424	4.86
403.787	4.92
404.151	4.86
404.514	4.96
404.878	4.72
405.241	5.08
405.604	4.95
405.968	4.66
406.331	5.18
406.694	4.9
407.057	5.18
407.42	4.86
407.783	4.78
408.146	4.71
408.509	4.93
408.872	4.82
409.235	5.02
409.598	4.91
409.961	4.9
410.323	4.9
410.686	5.08
411.049	4.99
411.411	5.13
411.774	5.18
412.136	4.96
412.499	5.22
412.861	5.03
413.223	4.84
413.586	4.9
413.948	4.88
414.31	5.3
414.672	4.9
415.035	5.06
415.397	4.93
415.759	5.17
416.121	5.12
416.483	4.79
416.845	5.15
417.206	5.34
417.568	5.1
417.93	5.05
418.292	5.22
418.653	5.12
419.015	5.15
419.377	5.04
419.738	5.29
420.1	5.18
420.461	5.2
420.822	5.13
421.184	5.18
421.545	5.1
421.906	5.17
422.267	5.23
422.629	5.05
422.99	5.2
423.351	5.17
423.712	5.01
424.073	5.18
424.434	5.11
424.795	5.12
425.155	5.21
425.516	5.18
425.877	5.18
426.238	5.08
426.598	5.11
426.959	5.19
427.32	5.04
427.68	5.08
428.041	5.18
428.401	5.33
428.761	5.26
429.122	5.32
429.482	5.41
429.842	5.47
430.202	5.29
430.563	5.5
430.923	5.56
431.283	5.23
431.643	5.17
432.003	5.34
432.363	5.47
432.722	5.36
433.082	5.24
433.442	5.39
433.802	5.43
434.161	5.61
434.521	5.38
434.881	5.33
435.24	5.3
435.6	5.4
435.959	5.43
436.319	5.41
436.678	5.33
437.037	5.35
437.396	5.51
437.756	5.37
438.115	5.68
438.474	5.66
438.833	5.48
439.192	5.65
439.551	5.4
439.91	5.6
440.269	5.52
440.628	5.44
440.987	5.49
441.345	5.38
441.704	5.54
442.063	5.49
442.421	5.48
442.78	5.51
443.138	5.55
443.497	5.36
443.855	5.47
444.214	5.56
444.572	5.73
444.93	5.59
445.288	5.55
445.647	5.6
446.005	5.78
446.363	5.73
446.721	5.71
447.079	5.68
447.437	5.59
447.795	5.56
448.153	5.67
448.51	5.61
448.868	5.68
449.226	5.53
449.584	5.59
449.941	5.54
450.299	5.71
450.656	5.68
451.014	5.66
451.371	5.8
451.729	5.65
452.086	5.77
452.443	5.85
452.801	5.83
453.158	5.85
453.515	5.77
453.872	5.68
454.229	5.89
454.586	5.91
454.943	5.75
455.3	5.82
455.657	5.9
456.014	5.83
456.371	5.8
456.727	5.89
457.084	5.8
457.441	5.98
457.797	6.03
458.154	5.94
458.51	6.07
458.867	5.89
459.223	5.91
459.58	5.79
459.936	5.88
460.292	5.98
460.648	5.89
461.005	5.76
461.361	5.91
461.717	5.9
462.073	5.78
462.429	5.73
462.785	5.83
463.141	5.82
463.496	5.93
463.852	5.98
464.208	5.89
464.564	5.92
464.919	6.07
465.275	6.12
465.631	6.04
465.986	6.1
466.342	6.02
466.697	6.08
467.052	6.19
467.408	6.09
467.763	6
468.118	5.85
468.473	5.99
468.829	6.19
469.184	5.94
469.539	6.2
469.894	6.05
470.249	6.23
470.603	6.14
470.958	6.08
471.313	6.21
471.668	6.11
472.023	6.07
472.377	6.2
472.732	6.17
473.086	6.33
473.441	6.22
473.795	6.18
474.15	6.38
474.504	6.34
474.859	6.34
475.213	6.29
475.567	6.29
475.921	6.5
476.275	6.39
476.63	6.37
476.984	6.45
477.338	6.44
477.692	6.41
478.045	6.24
478.399	6.35
478.753	6.09
479.107	6.25
479.461	6.34
479.814	6.45
480.168	6.45
480.521	6.34
480.875	6.39
481.228	6.33
481.582	6.4
481.935	6.35
482.289	6.45
482.642	6.48
482.995	6.54
483.348	6.39
483.701	6.43
484.055	6.31
484.408	6.36
484.761	6.28
485.114	6.34
485.466	6.26
485.819	6.08
486.172	5.97
486.525	5.97
486.878	5.99
487.23	6.07
487.583	6.12
487.936	6.32
488.288	6.33
488.641	6.33
488.993	6.29
489.345	6.28
489.698	6.26
490.05	6.19
490.402	6.13
490.754	6.26
491.107	6.23
491.459	6.27
491.811	6.32
492.163	6.46
492.515	6.44
492.866	6.47
493.218	6.47
493.57	6.44
493.922	6.27
494.274	6.31
494.625	6.26
494.977	6.39
495.328	6.48
495.68	6.6
496.031	6.71
496.383	6.62
496.734	6.55
497.086	6.87
497.437	6.82
497.788	6.68
498.139	6.79
498.49	6.62
498.842	6.76
499.193	6.69
499.544	6.65
499.894	6.66
500.245	6.65
500.596	6.82
500.947	6.76
501.298	6.98
501.648	6.74
501.999	6.84
502.35	6.81
502.7	6.8
503.051	6.91
503.401	6.9
503.752	6.85
504.102	6.91
504.452	6.83
504.803	7.01
505.153	6.96
505.503	6.8
505.853	7.06
506.203	7.02
506.553	6.93
506.903	6.99
507.253	6.99
507.603	6.97
507.953	6.99
508.303	7.09
508.652	7.04
509.002	7.14
509.352	6.92
509.701	6.97
510.051	6.99
510.4	6.9
510.75	7
511.099	6.94
511.449	7.02
511.798	6.96
512.147	7.03
512.496	7.02
512.846	7.04
513.195	7.08
513.544	7.14
513.893	7.18
514.242	7.08
514.591	7.11
514.939	6.97
515.288	7.12
515.637	7.15
515.986	7.15
516.334	7.28
516.683	7.28
517.032	7.19
517.38	7.28
517.729	7.18
518.077	7.22
518.426	7.2
518.774	7.41
519.122	7.34
519.47	7.17
519.819	7.21
520.167	7.08
520.515	7.18
520.863	7.08
521.211	7.13
521.559	7.14
521.907	7.15
522.255	7.13
522.602	7.33
522.95	7.37
523.298	7.35
523.645	7.43
523.993	7.39
524.341	7.46
524.688	7.41
525.036	7.52
525.383	7.55
525.73	7.5
526.078	7.61
526.425	7.48
526.772	7.43
527.119	7.55
527.466	7.38
527.814	7.24
528.161	7.27
528.508	7.26
528.854	7.34
529.201	7.36
529.548	7.34
529.895	7.44
530.242	7.32
530.588	7.13
530.935	7.05
531.282	7.07
531.628	7.12
531.975	7.07
532.321	7.25
532.667	7.21
533.014	7.43
533.36	7.44
533.706	7.43
534.052	7.46
534.399	7.51
534.745	7.58
535.091	7.35
535.437	7.34
535.783	7.37
536.129	7.39
536.474	7.36
536.82	7.48
537.166	7.54
537.512	7.67
537.857	7.7
538.203	7.6
538.549	7.58
538.894	7.58
539.239	7.45
539.585	7.59
539.93	7.6
540.276	7.69
540.621	7.72
540.966	7.75
541.311	8.01
541.656	7.98
542.001	7.72
542.346	7.86
542.691	7.76
543.036	7.78
543.381	7.54
543.726	7.4
544.071	7.51
544.415	7.57
544.76	7.58
545.105	7.69
545.449	7.66
545.794	7.8
546.138	7.83
546.483	7.85
546.827	7.79
547.171	7.94
547.516	7.92
547.86	8.05
548.204	7.95
548.548	7.94
548.892	7.76
549.236	7.87
549.58	7.88
549.924	7.97
550.268	7.96
550.612	7.99
550.956	8.04
551.3	8.15
551.643	8.42
551.987	8.17
552.33	8.2
552.674	8.09
553.017	8.45
553.361	8.3
553.704	8.19
554.048	8.29
554.391	8.05
554.734	8.28
555.077	8.18
555.42	8.23
555.764	8.33
556.107	8.25
556.45	8.24
556.793	8.15
557.135	8.33
557.478	8.38
557.821	8.32
558.164	8.46
558.507	8.44
558.849	8.42
559.192	8.4
559.534	8.39
559.877	8.49
560.219	8.51
560.562	8.44
560.904	8.72
561.246	8.41
561.589	8.56
561.931	8.49
562.273	8.46
562.615	8.5
562.957	8.55
563.299	8.72
563.641	8.54
563.983	8.52
564.325	8.64
564.667	8.6
565.008	8.56
565.35	8.6
565.692	8.64
566.033	8.64
566.375	8.57
566.716	8.66
567.058	8.56
567.399	8.49
567.741	8.68
568.082	8.56
568.423	8.69
568.764	8.42
569.105	8.68
569.447	8.67
569.788	8.66
570.129	8.6
570.47	8.9
570.811	8.78
571.151	8.71
571.492	8.75
571.833	8.69
572.174	8.75
572.514	8.6
572.855	8.72
573.195	8.95
573.536	8.89
573.876	8.79
574.217	8.82
574.557	8.65
574.898	8.91
575.238	8.86
575.578	8.73
575.918	8.88
576.258	9.02
576.598	8.85
576.938	8.74
577.278	8.89
577.618	8.71
577.958	8.89
578.298	9.18
578.638	8.96
578.977	9.04
579.317	8.96
579.657	9.02
579.996	8.88
580.336	8.94
580.675	9.06
581.014	9.27
581.354	9.3
581.693	9.19
582.032	9.4
582.372	9.31
582.711	9.25
583.05	9.29
583.389	9.12
583.728	9.31
584.067	9.34
584.406	8.97
584.745	9.31
585.083	9.4
585.422	9.36
585.761	9.35
586.1	9.27
586.438	9.33
586.777	9.38
587.115	9.74
587.454	9.33
587.792	9.54
588.13	9.38
588.469	9.28
588.807	9.23
589.145	9.29
589.483	9.45
589.821	9.29
590.159	9.63
590.497	9.31
590.835	9.37
591.173	9.37
591.511	9.26
591.849	9.25
592.187	9.35
592.524	9.39
592.862	9.35
593.2	9.45
593.537	9.51
593.875	9.62
594.212	9.78
594.55	9.6
594.887	9.33
595.224	9.7
595.561	9.49
595.899	9.37
596.236	9.72
596.573	9.76
596.91	9.62
597.247	9.89
597.584	9.63
597.921	9.62
598.258	9.79
598.594	9.49
598.931	9.55
599.268	9.54
599.604	9.5
599.941	9.69
600.277	9.49
600.614	9.67
600.95	9.74
601.287	9.5
601.623	9.7
601.959	9.81
602.296	9.84
602.632	9.92
602.968	9.77
603.304	9.84
603.64	9.64
603.976	9.83
604.312	10.11
604.648	9.78
604.984	9.83
605.319	10.02
605.655	10.05
605.991	9.89
606.326	9.77
606.662	9.67
606.998	9.53
607.333	9.75
607.668	9.71
608.004	9.63
608.339	9.77
608.674	9.9
609.01	9.92
609.345	10.13
609.68	9.84
610.015	10.14
610.35	10.13
610.685	9.93
611.02	10.01
611.355	10.25
611.689	9.68
612.024	9.92
612.359	10.07
612.694	9.99
613.028	9.7
613.363	9.93
613.697	9.79
614.032	10.1
614.366	9.86
614.7	10.15
615.035	10.14
615.369	10.29
615.703	9.99
616.037	9.77
616.371	9.94
616.705	10.3
617.039	10.24
617.373	10.26
617.707	10.4
618.041	10.01
618.375	10.28
618.709	10.73
619.042	10.52
619.376	10.13
619.71	9.88
620.043	10.52
620.377	10.46
620.71	10.66
621.043	10.43
621.377	10.54
621.71	10.59
622.043	10.19
622.376	10.19
622.709	10.41
623.043	10.76
623.376	10.68
623.709	10.67
624.041	10.45
624.374	10.1
624.707	10.17
625.04	10.39
625.373	10.65
625.705	10.67
626.038	10.42
626.37	10.4
626.703	10.61
627.035	10.62
627.368	10.85
627.7	10.61
628.032	10.36
628.365	10.28
628.697	10.59
629.029	10.81
629.361	10.6
629.693	10.67
630.025	10.16
630.357	10.4
630.689	10.52
631.021	10.69
631.353	10.5
631.684	10.75
632.016	10.5
632.348	10.85
632.679	10.47
633.011	10.41
633.342	10.2
633.674	10.98
634.005	10.82
634.336	10.59
634.668	10.75
634.999	10.84
635.33	10.77
635.661	10.97
635.992	10.52
636.323	10.74
636.654	10.68
636.985	10.89
637.316	10.91
637.647	11.06
637.977	10.79
638.308	10.91
638.639	10.97
638.969	11.08
639.3	10.82
639.63	10.62
639.961	11.03
640.291	10.95
640.622	11.13
640.952	10.6
641.282	11.21
641.612	11.22
641.943	11.07
642.273	11.75
642.603	11.01
642.933	10.65
643.263	11.28
643.592	10.97
643.922	11.13
644.252	10.6
644.582	11.03
644.911	11.12
645.241	11.3
645.571	11.1
645.9	11.14
646.23	11.1
646.559	11.15
646.888	11.67
647.218	10.88
647.547	11.28
647.876	11.42
648.205	11.16
648.534	11.51
648.863	11.23
649.192	11.13
649.521	11.63
649.85	11.52
650.179	11.39
650.508	11.37
650.837	11.29
651.165	10.94
651.494	11.82
651.822	11.16
652.151	11.2
652.479	11.5
652.808	11.54
653.136	11.12
653.465	11.81
653.793	11.35
654.121	11.71
654.449	11.81
654.777	11.14
655.105	11.14
655.433	11.57
655.761	11.23
656.089	11.35
656.417	11.23
656.745	11.53
657.073	11.4
657.4	11.62
657.728	11.55
658.056	11.71
658.383	11.95
658.711	11.54
659.038	11.45
659.365	11.89
659.693	11.35
660.02	11.53
660.347	11.95
660.674	11.79
661.001	11.8
661.329	11.37
661.656	11.66
661.982	11.48
662.309	11.64
662.636	11.72
662.963	11.96
663.29	11.68
663.616	12.15
663.943	11.82
664.27	12.17
664.596	11.48
664.923	12.05
665.249	12.01
665.576	11.99
665.902	11.36
666.228	11.65
666.554	11.54
666.881	12.14
667.207	11.93
667.533	11.73
667.859	11.19
668.185	11.79
668.511	12.13
668.837	11.28
669.162	12.06
669.488	11.96
669.814	12.01
670.139	12.36
670.465	12.36
670.791	12.62
671.116	12.23
671.442	12.28
671.767	11.76
672.092	12.25
672.418	11.66
672.743	12.5
673.068	12.32
673.393	12.44
673.718	11.67
674.043	11.97
674.368	11.93
674.693	12.18
675.018	12.46
675.343	12.23
675.667	12.4
675.992	11.91
676.317	11.83
676.641	12.34
676.966	12.85
677.29	12.5
677.615	12.82
677.939	12.47
678.264	11.98
678.588	12.77
678.912	12.5
679.236	11.97
679.56	12.09
679.885	12.22
680.209	11.81
680.532	12.91
680.856	11.95
681.18	12.43
681.504	12.18
681.828	12.15
682.152	12.62
682.475	12.2
682.799	12.43
683.122	12.67
683.446	11.9
683.769	12.4
684.093	12.45
684.416	12.84
684.739	11.99
685.062	12.91
685.386	12.54
685.709	12.99
686.032	12.44
686.355	12.43
686.678	12.49
