Data from 0089_crown_Reflection__0__131.txt Node

Date: Mon Aug 28 19:51:17 CDT 2023
User: ToomeyLab
Spectrometer: FLMS14357
Trigger mode: 0
Integration Time (sec): 1.000000E-2
Scans to average: 100
Electric dark correction enabled: true
Nonlinearity correction enabled: false
Boxcar width: 0
XAxis mode: Wavelengths
Number of Pixels in Spectrum: 2048
>>>>>Begin Spectral Data<<<<<
189.047	-16.21
189.435	-16.21
189.823	-16.21
190.211	-10109.3
190.599	-67.38
190.987	-137.26
191.375	-33.82
191.763	147.38
192.151	113.91
192.538	54.35
192.926	95.98
193.314	87.81
193.702	161.93
194.089	179.55
194.477	558.82
194.864	162.63
195.252	125.66
195.639	-482.91
196.027	99.52
196.414	98.36
196.801	51.02
197.189	51.74
197.576	-24.01
197.963	144.11
198.351	7.21
198.738	68.86
199.125	27.8
199.512	29.93
199.899	-44.41
200.286	-8.86
200.673	22.91
201.06	-6.88
201.447	-55.34
201.833	-36.12
202.22	29.51
202.607	-7.77
202.994	18.26
203.38	21.14
203.767	-54.39
204.154	-10.29
204.54	-40.55
204.927	-59.14
205.313	31.82
205.699	1.83
206.086	30.22
206.472	15.18
206.858	-69.44
207.245	7.68
207.631	7.93
208.017	5.73
208.403	-4.87
208.789	7.81
209.175	-41.08
209.561	16.71
209.947	-37.71
210.333	1.53
210.719	39.75
211.105	6.91
211.491	22.1
211.876	5.53
212.262	37.83
212.648	24.5
213.034	3.18
213.419	10.33
213.805	21.02
214.19	-76.79
214.576	9.44
214.961	38.08
215.346	13.14
215.732	13.83
216.117	-34.52
216.502	3.51
216.888	-46.86
217.273	-2.44
217.658	1.77
218.043	14.1
218.428	2.01
218.813	-1.95
219.198	21.03
219.583	20.34
219.968	11.76
220.353	-18.29
220.738	13.37
221.122	2.98
221.507	17.54
221.892	19.99
222.276	6.47
222.661	4.68
223.046	3.91
223.43	9.45
223.815	23.29
224.199	15.75
224.583	13.4
224.968	13.54
225.352	15.64
225.736	8.38
226.121	12.92
226.505	-0.98
226.889	13.17
227.273	7.86
227.657	6.44
228.041	9.87
228.425	6.24
228.809	8.64
229.193	11.79
229.577	12.07
229.961	9.48
230.344	10.65
230.728	10.02
231.112	9.25
231.495	10.04
231.879	8.68
232.263	11.07
232.646	8.11
233.03	10.16
233.413	11.31
233.797	8.2
234.18	8.48
234.563	6.92
234.946	10.46
235.33	8.32
235.713	7.34
236.096	8.82
236.479	10.14
236.862	11.03
237.245	9.5
237.628	9.03
238.011	10.83
238.394	10.87
238.777	12.12
239.16	9.09
239.543	6.61
239.925	9.92
240.308	5.69
240.691	9.28
241.073	7.02
241.456	10.09
241.838	9.33
242.221	10.12
242.603	9.49
242.986	9.94
243.368	9.27
243.75	9.46
244.133	9.26
244.515	9.09
244.897	9.19
245.279	8.81
245.661	8.94
246.043	8.01
246.425	7.92
246.807	10.47
247.189	8.65
247.571	8.21
247.953	9.47
248.335	9.24
248.717	9
249.098	8.99
249.48	8.89
249.862	8.61
250.243	8.63
250.625	9.52
251.006	9.13
251.388	8.85
251.769	9.26
252.151	9.11
252.532	7.91
252.913	9.25
253.295	7.84
253.676	8.79
254.057	8.93
254.438	8.26
254.819	8.42
255.2	8.91
255.581	8.62
255.962	9.18
256.343	9.15
256.724	8.31
257.105	8.74
257.486	8.25
257.867	7.98
258.247	10.11
258.628	9.05
259.009	7.68
259.389	7.48
259.77	8.31
260.15	7.89
260.531	8.17
260.911	8.57
261.292	8.25
261.672	8.41
262.052	7.96
262.432	8.05
262.813	8.1
263.193	7.89
263.573	8.05
263.953	7.79
264.333	8.03
264.713	8.05
265.093	8.75
265.473	8.42
265.853	8.01
266.233	7.78
266.612	8.68
266.992	8.07
267.372	7.94
267.752	9.61
268.131	8.91
268.511	7.9
268.89	7.9
269.27	8.15
269.649	8.14
270.029	8
270.408	8.09
270.787	7.74
271.167	7.63
271.546	7.6
271.925	8.36
272.304	7.62
272.683	7.69
273.062	7.93
273.441	8.65
273.82	7.92
274.199	7.1
274.578	7.72
274.957	7.76
275.336	8.03
275.715	7.83
276.093	7.26
276.472	7.76
276.851	6.73
277.229	7.71
277.608	8.22
277.986	7.61
278.365	7.8
278.743	7.34
279.122	7.95
279.5	7.6
279.878	7.28
280.257	7.45
280.635	7.78
281.013	6.97
281.391	7.14
281.769	7.02
282.147	6.84
282.525	7.37
282.903	7.05
283.281	7.27
283.659	7.69
284.037	7.47
284.415	7.01
284.792	7.22
285.17	7.06
285.548	7.24
285.925	7.12
286.303	7.46
286.68	7.42
287.058	7.51
287.435	6.83
287.813	7.23
288.19	7.91
288.567	7.18
288.945	7.12
289.322	6.86
289.699	7.6
290.076	7.14
290.453	6.86
290.83	6.52
291.207	7.06
291.584	7.53
291.961	7.47
292.338	6.83
292.715	6.76
293.092	6.95
293.469	7.05
293.845	6.5
294.222	7.4
294.599	7.22
294.975	7.06
295.352	6.73
295.728	6.52
296.105	7.13
296.481	6.85
296.858	6.85
297.234	6.92
297.61	6.85
297.986	6.98
298.363	6.76
298.739	6.87
299.115	6.48
299.491	6.75
299.867	6.57
300.243	6.59
300.619	6.75
300.995	6.76
301.371	6.77
301.746	6.79
302.122	6.71
302.498	6.14
302.874	6.58
303.249	6.02
303.625	6.69
304	6.36
304.376	6.55
304.751	6.23
305.127	6.37
305.502	6.64
305.878	6.03
306.253	5.95
306.628	6.28
307.003	5.8
307.378	6.73
307.754	6.59
308.129	6.07
308.504	6.57
308.879	6.42
309.254	6
309.629	5.85
310.003	6.69
310.378	6.1
310.753	6.49
311.128	6.15
311.502	6.48
311.877	6.35
312.252	6.5
312.626	6.51
313.001	6.4
313.375	6.34
313.75	6
314.124	6.02
314.498	5.99
314.873	6.2
315.247	6.39
315.621	5.52
315.995	6.53
316.369	6.52
316.743	5.34
317.117	6.23
317.491	5.43
317.865	5.36
318.239	5.83
318.613	5.73
318.987	6.13
319.361	5.87
319.734	5.73
320.108	5.72
320.482	6.01
320.855	5.77
321.229	5.62
321.602	5.89
321.976	5.35
322.349	6.44
322.723	5.98
323.096	6.07
323.469	5.4
323.843	6.28
324.216	5.62
324.589	5.96
324.962	5.62
325.335	5.82
325.708	5.31
326.081	5.83
326.454	5.87
326.827	5.82
327.2	5.23
327.573	5.87
327.945	5.9
328.318	6.11
328.691	5.41
329.063	5.05
329.436	5
329.809	6.21
330.181	5.16
330.553	5.49
330.926	5.57
331.298	5.46
331.671	5.66
332.043	5.33
332.415	6.23
332.787	5.67
333.159	5.05
333.532	5.73
333.904	5.46
334.276	5.35
334.648	5.59
335.02	5.73
335.391	6.17
335.763	5.12
336.135	6.02
336.507	5.21
336.879	5.08
337.25	5.91
337.622	4.96
337.993	5.43
338.365	5.28
338.736	5.56
339.108	4.89
339.479	4.88
339.851	5.58
340.222	5.68
340.593	5.3
340.964	5.64
341.336	5.2
341.707	5.23
342.078	5.48
342.449	5.87
342.82	5.66
343.191	5.44
343.562	5.65
343.933	5.38
344.303	5.34
344.674	5.84
345.045	5.47
345.416	5.98
345.786	5.77
346.157	5.51
346.527	5.42
346.898	5.5
347.268	5.5
347.639	5.38
348.009	5.28
348.38	5.17
348.75	5.63
349.12	5.44
349.49	5.47
349.861	5.22
350.231	4.69
350.601	5.8
350.971	5.58
351.341	5.32
351.711	5.17
352.081	5.51
352.45	5.63
352.82	5.9
353.19	5.62
353.56	5.8
353.929	5.94
354.299	5.25
354.669	5.64
355.038	5.58
355.408	5.67
355.777	5.46
356.147	5.38
356.516	5.72
356.885	5.64
357.254	5.43
357.624	5.45
357.993	5.59
358.362	5.43
358.731	5.57
359.1	5.34
359.469	5.71
359.838	5.19
360.207	5.64
360.576	5.7
360.945	5.6
361.314	5.56
361.682	5.39
362.051	5.84
362.42	5.62
362.788	5.42
363.157	5.65
363.525	5.44
363.894	5.59
364.262	5.67
364.631	5.35
364.999	5.31
365.367	5.71
365.735	5.63
366.104	5.6
366.472	5.55
366.84	5.59
367.208	5.68
367.576	5.38
367.944	5.99
368.312	5.62
368.68	5.42
369.048	5.66
369.416	5.5
369.783	5.74
370.151	5.59
370.519	5.87
370.886	5.45
371.254	5.71
371.621	5.72
371.989	5.81
372.356	5.83
372.724	6.34
373.091	5.85
373.458	5.59
373.826	5.85
374.193	5.8
374.56	5.77
374.927	5.65
375.294	5.79
375.661	5.64
376.028	5.84
376.395	5.54
376.762	6.13
377.129	6
377.496	5.85
377.863	6.14
378.229	5.73
378.596	5.82
378.963	6.12
379.329	5.99
379.696	5.9
380.062	5.67
380.429	5.66
380.795	5.76
381.161	5.68
381.528	6.35
381.894	5.89
382.26	5.84
382.626	5.9
382.993	5.66
383.359	6.13
383.725	6
384.091	5.76
384.457	5.91
384.823	5.84
385.188	5.9
385.554	5.77
385.92	5.88
386.286	6.3
386.651	6.09
387.017	5.92
387.383	6.08
387.748	5.95
388.114	5.84
388.479	5.77
388.845	6
389.21	5.87
389.575	6.2
389.94	5.94
390.306	6.2
390.671	6.07
391.036	5.89
391.401	6.21
391.766	6.21
392.131	6.22
392.496	6.04
392.861	5.88
393.226	6.08
393.591	5.9
393.956	6.1
394.32	6.04
394.685	6.07
395.05	6.31
395.414	6.03
395.779	6.16
396.143	5.96
396.508	6.13
396.872	6.3
397.236	5.89
397.601	6.06
397.965	6.34
398.329	6.49
398.694	6.22
399.058	5.96
399.422	6.33
399.786	6.45
400.15	6.31
400.514	6.27
400.878	6.21
401.242	6.21
401.605	6.19
401.969	6.27
402.333	6.48
402.697	6.22
403.06	6.4
403.424	6.52
403.787	6.16
404.151	6.21
404.514	6.2
404.878	6.25
405.241	6.2
405.604	6.12
405.968	6.09
406.331	6.45
406.694	6.26
407.057	6.42
407.42	6.18
407.783	6.34
408.146	6.22
408.509	6.33
408.872	6.34
409.235	6.29
409.598	6.27
409.961	6.24
410.323	6.45
410.686	6.25
411.049	6.61
411.411	6.57
411.774	6.45
412.136	6.32
412.499	6.3
412.861	6.51
413.223	6.26
413.586	6.21
413.948	6.32
414.31	6.71
414.672	6.25
415.035	6.42
415.397	6.39
415.759	6.44
416.121	6.59
416.483	6.39
416.845	6.6
417.206	6.78
417.568	6.49
417.93	6.35
418.292	6.65
418.653	6.41
419.015	6.37
419.377	6.26
419.738	6.72
420.1	6.55
420.461	6.51
420.822	6.43
421.184	6.51
421.545	6.58
421.906	6.51
422.267	6.47
422.629	6.48
422.99	6.34
423.351	6.4
423.712	6.39
424.073	6.43
424.434	6.52
424.795	6.31
425.155	6.42
425.516	6.55
425.877	6.4
426.238	6.46
426.598	6.42
426.959	6.36
427.32	6.48
427.68	6.5
428.041	6.48
428.401	6.54
428.761	6.53
429.122	6.49
429.482	6.58
429.842	6.73
430.202	6.58
430.563	6.67
430.923	6.83
431.283	6.47
431.643	6.69
432.003	6.65
432.363	6.76
432.722	6.78
433.082	6.65
433.442	6.74
433.802	6.69
434.161	6.77
434.521	6.59
434.881	6.67
435.24	6.62
435.6	6.71
435.959	6.69
436.319	6.65
436.678	6.7
437.037	6.68
437.396	6.83
437.756	6.63
438.115	6.85
438.474	6.76
438.833	6.65
439.192	6.96
439.551	6.77
439.91	6.8
440.269	6.81
440.628	6.71
440.987	6.75
441.345	6.72
441.704	6.77
442.063	6.77
442.421	6.7
442.78	6.74
443.138	6.78
443.497	6.72
443.855	6.76
444.214	6.74
444.572	6.74
444.93	6.84
445.288	6.77
445.647	6.9
446.005	6.95
446.363	6.79
446.721	6.87
447.079	6.86
447.437	6.75
447.795	6.73
448.153	6.84
448.51	6.65
448.868	6.82
449.226	6.72
449.584	6.84
449.941	6.78
450.299	6.77
450.656	6.85
451.014	6.85
451.371	6.73
451.729	6.69
452.086	6.85
452.443	7.11
452.801	6.97
453.158	7.07
453.515	6.98
453.872	6.86
454.229	7.09
454.586	7.1
454.943	6.8
455.3	6.86
455.657	7.09
456.014	7.05
456.371	7.02
456.727	7.04
457.084	7
457.441	7.05
457.797	7
458.154	7.11
458.51	7.26
458.867	7.13
459.223	7.02
459.58	6.97
459.936	7.1
460.292	7.07
460.648	7.03
461.005	6.99
461.361	6.97
461.717	6.89
462.073	6.94
462.429	6.88
462.785	6.97
463.141	6.9
463.496	6.88
463.852	7
464.208	6.87
464.564	7.14
464.919	7.19
465.275	7.11
465.631	7.18
465.986	7.18
466.342	7.2
466.697	7.04
467.052	7.13
467.408	7.09
467.763	7.14
468.118	6.9
468.473	7.01
468.829	7.18
469.184	6.86
469.539	7.17
469.894	7.07
470.249	7.04
470.603	7.16
470.958	7.09
471.313	7.08
471.668	7.06
472.023	7.2
472.377	7.16
472.732	7.2
473.086	7.27
473.441	7.12
473.795	7.2
474.15	7.28
474.504	7.31
474.859	7.25
475.213	7.24
475.567	7.09
475.921	7.52
476.275	7.15
476.63	7.25
476.984	7.38
477.338	7.22
477.692	7.13
478.045	7.54
478.399	7.34
478.753	7.23
479.107	7.21
479.461	7.31
479.814	7.44
480.168	7.26
480.521	7.22
480.875	7.21
481.228	7.2
481.582	7.1
481.935	7.25
482.289	7.32
482.642	7.21
482.995	7.43
483.348	7.36
483.701	7.33
484.055	7.18
484.408	7.19
484.761	7.17
485.114	7.17
485.466	7.1
485.819	7.01
486.172	6.88
486.525	6.81
486.878	6.7
487.23	6.71
487.583	6.77
487.936	6.97
488.288	6.92
488.641	7.13
488.993	7.09
489.345	7.11
489.698	7.05
490.05	6.96
490.402	6.9
490.754	6.93
491.107	6.91
491.459	6.9
491.811	7.01
492.163	7.21
492.515	7.25
492.866	7.26
493.218	7.23
493.57	7.18
493.922	7.04
494.274	7.03
494.625	6.91
494.977	7.02
495.328	7.09
495.68	7.19
496.031	7.19
496.383	7.26
496.734	7.28
497.086	7.6
497.437	7.42
497.788	7.32
498.139	7.44
498.49	7.4
498.842	7.4
499.193	7.26
499.544	7.31
499.894	7.3
500.245	7.25
500.596	7.31
500.947	7.31
501.298	7.45
501.648	7.37
501.999	7.49
502.35	7.34
502.7	7.56
503.051	7.42
503.401	7.43
503.752	7.37
504.102	7.39
504.452	7.47
504.803	7.52
505.153	7.5
505.503	7.36
505.853	7.5
506.203	7.56
506.553	7.42
506.903	7.55
507.253	7.44
507.603	7.38
507.953	7.5
508.303	7.41
508.652	7.5
509.002	7.56
509.352	7.34
509.701	7.52
510.051	7.46
510.4	7.49
510.75	7.44
511.099	7.52
511.449	7.33
511.798	7.44
512.147	7.44
512.496	7.45
512.846	7.41
513.195	7.52
513.544	7.59
513.893	7.44
514.242	7.53
514.591	7.51
514.939	7.2
515.288	7.41
515.637	7.56
515.986	7.47
516.334	7.63
516.683	7.59
517.032	7.51
517.38	7.48
517.729	7.49
518.077	7.64
518.426	7.46
518.774	7.44
519.122	7.61
519.47	7.48
519.819	7.53
520.167	7.51
520.515	7.6
520.863	7.4
521.211	7.5
521.559	7.39
521.907	7.38
522.255	7.33
522.602	7.46
522.95	7.42
523.298	7.57
523.645	7.57
523.993	7.49
524.341	7.58
524.688	7.59
525.036	7.69
525.383	7.62
525.73	7.6
526.078	7.62
526.425	7.53
526.772	7.59
527.119	7.54
527.466	7.49
527.814	7.49
528.161	7.41
528.508	7.41
528.854	7.43
529.201	7.46
529.548	7.43
529.895	7.54
530.242	7.49
530.588	7.39
530.935	7.22
531.282	7.18
531.628	7.11
531.975	7.1
532.321	7.13
532.667	7.25
533.014	7.41
533.36	7.42
533.706	7.41
534.052	7.37
534.399	7.52
534.745	7.49
535.091	7.5
535.437	7.45
535.783	7.35
536.129	7.32
536.474	7.3
536.82	7.34
537.166	7.35
537.512	7.41
537.857	7.64
538.203	7.52
538.549	7.51
538.894	7.49
539.239	7.48
539.585	7.47
539.93	7.42
540.276	7.46
540.621	7.48
540.966	7.55
541.311	7.67
541.656	7.62
542.001	7.62
542.346	7.61
542.691	7.66
543.036	7.54
543.381	7.49
543.726	7.35
544.071	7.32
544.415	7.24
544.76	7.25
545.105	7.32
545.449	7.39
545.794	7.48
546.138	7.57
546.483	7.49
546.827	7.54
547.171	7.56
547.516	7.62
547.86	7.67
548.204	7.68
548.548	7.62
548.892	7.39
549.236	7.41
549.58	7.58
549.924	7.54
550.268	7.61
550.612	7.45
550.956	7.66
551.3	7.67
551.643	7.78
551.987	7.58
552.33	7.76
552.674	7.65
553.017	7.79
553.361	7.82
553.704	7.66
554.048	7.84
554.391	7.75
554.734	7.79
555.077	7.7
555.42	7.53
555.764	7.7
556.107	7.57
556.45	7.71
556.793	7.72
557.135	7.73
557.478	7.64
557.821	7.79
558.164	7.96
558.507	7.53
558.849	7.8
559.192	7.69
559.534	7.61
559.877	7.72
560.219	7.81
560.562	7.59
560.904	7.76
561.246	7.7
561.589	7.61
561.931	7.7
562.273	7.72
562.615	7.61
562.957	7.79
563.299	7.61
563.641	7.65
563.983	7.66
564.325	7.83
564.667	7.66
565.008	7.74
565.35	7.72
565.692	7.67
566.033	7.67
566.375	7.78
566.716	7.71
567.058	7.66
567.399	7.75
567.741	7.86
568.082	7.69
568.423	7.67
568.764	7.44
569.105	7.67
569.447	7.69
569.788	7.57
570.129	7.65
570.47	7.55
570.811	7.68
571.151	7.45
571.492	7.67
571.833	7.64
572.174	7.78
572.514	7.52
572.855	7.62
573.195	7.79
573.536	7.72
573.876	7.48
574.217	7.58
574.557	7.67
574.898	7.79
575.238	7.51
575.578	7.63
575.918	7.65
576.258	7.66
576.598	7.64
576.938	7.55
577.278	7.6
577.618	7.45
577.958	7.59
578.298	7.86
578.638	7.7
578.977	7.73
579.317	7.65
579.657	7.56
579.996	7.73
580.336	7.61
580.675	7.61
581.014	8.01
581.354	7.77
581.693	7.74
582.032	7.8
582.372	7.5
582.711	7.97
583.05	7.81
583.389	7.77
583.728	7.73
584.067	7.85
584.406	7.59
584.745	7.55
585.083	7.65
585.422	7.58
585.761	7.48
586.1	7.85
586.438	7.75
586.777	7.48
587.115	7.75
587.454	7.73
587.792	7.75
588.13	7.77
588.469	7.7
588.807	7.59
589.145	7.76
589.483	7.68
589.821	7.57
590.159	7.83
590.497	7.63
590.835	7.9
591.173	7.59
591.511	7.48
591.849	7.48
592.187	7.86
592.524	7.64
592.862	7.48
593.2	7.53
593.537	7.5
593.875	7.94
594.212	8.05
594.55	7.64
594.887	7.69
595.224	7.53
595.561	7.27
595.899	7.63
596.236	7.76
596.573	7.92
596.91	7.56
597.247	7.63
597.584	7.67
597.921	7.46
598.258	7.34
598.594	7.74
598.931	7.6
599.268	7.51
599.604	7.39
599.941	7.48
600.277	7.26
600.614	7.82
600.95	7.49
601.287	7.69
601.623	7.87
601.959	7.54
602.296	7.54
602.632	7.78
602.968	7.59
603.304	7.63
603.64	7.69
603.976	7.77
604.312	7.5
604.648	7.43
604.984	7.61
605.319	7.82
605.655	7.66
605.991	7.61
606.326	7.58
606.662	7.52
606.998	7.4
607.333	7.42
607.668	7.54
608.004	7.53
608.339	7.55
608.674	7.36
609.01	7.56
609.345	7.51
609.68	7.36
610.015	7.53
610.35	7.48
610.685	7.57
611.02	7.57
611.355	7.73
611.689	7.53
612.024	7.66
612.359	7.33
612.694	7.57
613.028	7.38
613.363	7.42
613.697	7.45
614.032	7.51
614.366	7.28
614.7	7.68
615.035	7.54
615.369	7.3
615.703	7.56
616.037	7.08
616.371	7.71
616.705	7.63
617.039	7.42
617.373	7.25
617.707	7.41
618.041	7.75
618.375	7.48
618.709	7.56
619.042	7.74
619.376	7.41
619.71	7.52
620.043	7.75
620.377	7.63
620.71	7.56
621.043	7.54
621.377	7.6
621.71	7.58
622.043	7.18
622.376	7.6
622.709	7.44
623.043	7.54
623.376	7.65
623.709	7.61
624.041	7.79
624.374	7.27
624.707	7.45
625.04	7.2
625.373	7.42
625.705	7.76
626.038	7.59
626.37	7.88
626.703	7.64
627.035	7.43
627.368	7.54
627.7	7.7
628.032	7.68
628.365	7.23
628.697	7.23
629.029	7.48
629.361	7.33
629.693	7.39
630.025	7.43
630.357	7.04
630.689	7.51
631.021	7.48
631.353	7.4
631.684	7.87
632.016	7.28
632.348	7.24
632.679	7.44
633.011	7.42
633.342	7.36
633.674	7.47
634.005	7.54
634.336	7.33
634.668	7.54
634.999	7.65
635.33	7.43
635.661	7.72
635.992	7.6
636.323	7.36
636.654	7.33
636.985	7.16
637.316	7.34
637.647	7.84
637.977	7.28
638.308	7.47
638.639	7.09
638.969	7.62
639.3	7.77
639.63	7.15
639.961	7.73
640.291	7.1
640.622	7.49
640.952	6.79
641.282	7.63
641.612	7.39
641.943	7.63
642.273	7.95
642.603	7.2
642.933	6.92
643.263	7.47
643.592	7.29
643.922	7.47
644.252	7.34
644.582	7.55
644.911	7.64
645.241	7.47
645.571	7.64
645.9	7.1
646.23	7.42
646.559	7.56
646.888	7.75
647.218	7.42
647.547	7.52
647.876	7.33
648.205	7.27
648.534	7.76
648.863	7.44
649.192	7.65
649.521	7.61
649.85	7.81
650.179	7.68
650.508	7.71
650.837	7.3
651.165	7.04
651.494	7.06
651.822	7.33
652.151	7.12
652.479	7.62
652.808	7.23
653.136	7.42
653.465	7.12
653.793	7.45
654.121	7.67
654.449	7.59
654.777	6.9
655.105	7.31
655.433	7.27
655.761	7.26
656.089	7.65
656.417	7.02
656.745	7.91
657.073	7.7
657.4	7.51
657.728	8.04
658.056	7.33
658.383	7.99
658.711	7.1
659.038	7.68
659.365	7.45
659.693	7.51
660.02	7.71
660.347	7.56
660.674	7.56
661.001	7.72
661.329	7.19
661.656	7.34
661.982	7.17
662.309	7.37
662.636	6.97
662.963	7.67
663.29	7.87
663.616	7.67
663.943	7.57
664.27	7.51
664.596	7.57
664.923	7.58
665.249	7.68
665.576	7.41
665.902	7.52
666.228	7.39
666.554	7.35
666.881	7.74
667.207	7.52
667.533	7.45
667.859	6.68
668.185	7.67
668.511	7.39
668.837	7.06
669.162	7.97
669.488	6.92
669.814	7.42
670.139	7.13
670.465	8.27
670.791	7.74
671.116	7.62
671.442	7.49
671.767	7.5
672.092	7.64
672.418	7.49
672.743	7.96
673.068	7.1
673.393	7.47
673.718	7.21
674.043	6.98
674.368	7.62
674.693	7.52
675.018	8.11
675.343	7.42
675.667	8.1
675.992	7.75
676.317	6.97
676.641	7.56
676.966	7.85
677.29	7.1
677.615	8.11
677.939	7.66
678.264	7.24
678.588	7.91
678.912	7.56
679.236	7.26
679.56	7.28
679.885	7.26
680.209	7.51
680.532	8.06
680.856	7.47
681.18	7.9
681.504	6.44
681.828	7.45
682.152	7.58
682.475	7.43
682.799	7.46
683.122	7.26
683.446	6.92
683.769	7.96
684.093	7.62
684.416	7.49
684.739	7.45
685.062	8.13
685.386	7.18
685.709	7.63
686.032	7.6
686.355	7.61
686.678	7.68
687.001	6.58
687.324	7.22
687.646	7.37
687.969	7.58
688.292	7.68
688.614	8.01
688.937	8.29
689.26	7.51
689.582	7.18
689.904	7.46
690.227	8.26
690.549	7.52
690.871	7.89
691.194	7.86
691.516	7.37
691.838	7.6
692.16	7.84
