Data from 0089_forehead_Reflection__2__128.txt Node

Date: Mon Aug 28 19:45:45 CDT 2023
User: ToomeyLab
Spectrometer: FLMS14357
Trigger mode: 0
Integration Time (sec): 1.000000E-2
Scans to average: 100
Electric dark correction enabled: true
Nonlinearity correction enabled: false
Boxcar width: 0
XAxis mode: Wavelengths
Number of Pixels in Spectrum: 2048
>>>>>Begin Spectral Data<<<<<
189.047	59.33
189.435	59.33
189.823	59.33
190.211	-1609.3
190.599	70.12
190.987	339.97
191.375	142.69
191.763	48.62
192.151	-106.06
192.538	154.51
192.926	173.35
193.314	-470.43
193.702	92.1
194.089	102.03
194.477	-277.65
194.864	-130.85
195.252	69.38
195.639	2123.08
196.027	107.77
196.414	419.12
196.801	90.17
197.189	79
197.576	-602.31
197.963	-70.9
198.351	25.12
198.738	67
199.125	18.92
199.512	13.05
199.899	12.82
200.286	62.08
200.673	32.48
201.06	-16.87
201.447	56.08
201.833	4.75
202.22	65.7
202.607	-20.8
202.994	61.13
203.38	56.62
203.767	85.45
204.154	15.82
204.54	12.04
204.927	44.09
205.313	39.29
205.699	6.77
206.086	36.29
206.472	13.01
206.858	10.17
207.245	-0.68
207.631	28.92
208.017	37.49
208.403	29.08
208.789	-0.37
209.175	13.37
209.561	4.03
209.947	29
210.333	29.77
210.719	67.23
211.105	25.66
211.491	6.37
211.876	50.8
212.262	-92.12
212.648	59.29
213.034	32.28
213.419	-3.98
213.805	11.11
214.19	37.22
214.576	57.42
214.961	16.97
215.346	17.31
215.732	53.8
216.117	0.75
216.502	30.7
216.888	-42.34
217.273	17.25
217.658	38.27
218.043	17.82
218.428	1.44
218.813	-5.48
219.198	25.28
219.583	21.38
219.968	29.85
220.353	-7.72
220.738	24.54
221.122	17.73
221.507	-1.19
221.892	4.2
222.276	11.72
222.661	16.31
223.046	28.01
223.43	6.26
223.815	16.7
224.199	14.24
224.583	5.35
224.968	7.51
225.352	8.99
225.736	3.76
226.121	0.61
226.505	8.07
226.889	5.86
227.273	4.38
227.657	9.2
228.041	9.03
228.425	1.63
228.809	7.05
229.193	6.39
229.577	3.31
229.961	3.24
230.344	4.37
230.728	1.9
231.112	1.74
231.495	2.94
231.879	2.25
232.263	2.3
232.646	1.72
233.03	5.44
233.413	4.86
233.797	2.54
234.18	2
234.563	2.9
234.946	7.09
235.33	3.1
235.713	1.35
236.096	4.32
236.479	2.26
236.862	3.36
237.245	1.78
237.628	3.77
238.011	4.01
238.394	4.38
238.777	6.47
239.16	1.58
239.543	1.47
239.925	4.31
240.308	1.06
240.691	2.19
241.073	2.3
241.456	3.42
241.838	2.63
242.221	2.72
242.603	3.32
242.986	2.6
243.368	2.11
243.75	1.74
244.133	1.71
244.515	2.08
244.897	2.63
245.279	2.46
245.661	2.2
246.043	2.74
246.425	2.96
246.807	3.69
247.189	1.87
247.571	2.01
247.953	2.7
248.335	2.35
248.717	2.27
249.098	2.02
249.48	2.22
249.862	2.17
250.243	2.21
250.625	2.99
251.006	2.53
251.388	2.61
251.769	3.37
252.151	3.3
252.532	1.86
252.913	3.85
253.295	1.25
253.676	2.61
254.057	2.75
254.438	2.33
254.819	2.13
255.2	2.42
255.581	3.06
255.962	3.78
256.343	4.51
256.724	1.65
257.105	2.68
257.486	3.33
257.867	2.76
258.247	2.47
258.628	3.51
259.009	3.11
259.389	2.85
259.77	2.52
260.15	2.23
260.531	1.45
260.911	2.76
261.292	2.51
261.672	1.92
262.052	2.16
262.432	2.17
262.813	2.38
263.193	2.36
263.573	2.54
263.953	2.38
264.333	2.32
264.713	2.06
265.093	2.92
265.473	2.51
265.853	2.11
266.233	2.82
266.612	2.47
266.992	2.6
267.372	2.07
267.752	3.49
268.131	2.83
268.511	2.07
268.89	2.56
269.27	1.66
269.649	2.47
270.029	2.8
270.408	2.23
270.787	2.46
271.167	2.23
271.546	2.38
271.925	2.88
272.304	2.4
272.683	2.81
273.062	2.03
273.441	2.69
273.82	2.5
274.199	1.77
274.578	2.2
274.957	2.38
275.336	2.62
275.715	2.87
276.093	2.14
276.472	2.23
276.851	2.06
277.229	2.63
277.608	2.92
277.986	2.1
278.365	2.48
278.743	2.3
279.122	2.31
279.5	1.67
279.878	2.14
280.257	2.61
280.635	2.54
281.013	2.44
281.391	1.92
281.769	2.34
282.147	2.35
282.525	2.32
282.903	2.09
283.281	2.4
283.659	2.99
284.037	2.57
284.415	2.35
284.792	2.46
285.17	2.16
285.548	1.98
285.925	2.15
286.303	2.31
286.68	2.44
287.058	2.38
287.435	2.34
287.813	2.51
288.19	2.71
288.567	2.42
288.945	2.35
289.322	2.51
289.699	2.29
290.076	3.03
290.453	2.32
290.83	1.65
291.207	2.33
291.584	2.46
291.961	2.75
292.338	2.61
292.715	2.49
293.092	2.8
293.469	2.85
293.845	2.37
294.222	2.35
294.599	2.93
294.975	3.12
295.352	2.59
295.728	2.89
296.105	3.04
296.481	2.78
296.858	2.95
297.234	2.73
297.61	2.88
297.986	2.52
298.363	3.05
298.739	2.65
299.115	2.56
299.491	2.9
299.867	2.76
300.243	2.86
300.619	3.18
300.995	3.22
301.371	3.19
301.746	3.28
302.122	3.02
302.498	3.18
302.874	3.69
303.249	3.16
303.625	3.36
304	3.02
304.376	2.91
304.751	3.14
305.127	3.86
305.502	3.5
305.878	3.22
306.253	3.12
306.628	2.97
307.003	3.8
307.378	3.88
307.754	3.65
308.129	3.67
308.504	3.58
308.879	3.58
309.254	3.46
309.629	3.68
310.003	3.79
310.378	3.51
310.753	4.07
311.128	3.83
311.502	4.11
311.877	3.69
312.252	4
312.626	4.13
313.001	4.11
313.375	4.24
313.75	3.91
314.124	3.95
314.498	4.24
314.873	4.39
315.247	4.49
315.621	3.43
315.995	4.82
316.369	4.03
316.743	3.66
317.117	4.11
317.491	3.77
317.865	4.02
318.239	4.84
318.613	4.66
318.987	4.48
319.361	4.79
319.734	4.27
320.108	4.59
320.482	4.6
320.855	4.48
321.229	4.23
321.602	5.03
321.976	4.03
322.349	4.71
322.723	4.73
323.096	5.07
323.469	5.13
323.843	4.64
324.216	5.35
324.589	5.13
324.962	4.91
325.335	5.55
325.708	4.86
326.081	4.28
326.454	5
326.827	4.61
327.2	4.88
327.573	4.8
327.945	5.18
328.318	5.41
328.691	4.96
329.063	4.57
329.436	5.03
329.809	5.54
330.181	4.8
330.553	4.67
330.926	5.31
331.298	5.54
331.671	5.44
332.043	5.28
332.415	6.05
332.787	5.92
333.159	5.52
333.532	5.85
333.904	5.89
334.276	5.48
334.648	6.02
335.02	6.18
335.391	5.29
335.763	5.78
336.135	5.74
336.507	5.46
336.879	5.26
337.25	6.2
337.622	5.97
337.993	5.84
338.365	5.69
338.736	6.41
339.108	5.21
339.479	5.98
339.851	6.06
340.222	6.14
340.593	5.85
340.964	5.97
341.336	6.14
341.707	6.31
342.078	6.08
342.449	6.04
342.82	6.44
343.191	6.11
343.562	6.18
343.933	5.84
344.303	6.18
344.674	6.55
345.045	6.13
345.416	6.76
345.786	6.76
346.157	6.3
346.527	5.81
346.898	6.34
347.268	6.46
347.639	6.31
348.009	6.08
348.38	6.78
348.75	6.27
349.12	6.76
349.49	6.71
349.861	6.32
350.231	6.26
350.601	6.72
350.971	6.74
351.341	6.51
351.711	7.23
352.081	7.06
352.45	6.74
352.82	7.01
353.19	7.05
353.56	6.91
353.929	6.94
354.299	6.93
354.669	7.51
355.038	7.27
355.408	7.21
355.777	7.1
356.147	7.2
356.516	7.55
356.885	7.34
357.254	6.87
357.624	6.96
357.993	7.43
358.362	7.38
358.731	7.3
359.1	7.36
359.469	7.24
359.838	7.2
360.207	7.21
360.576	7.48
360.945	7.38
361.314	7.08
361.682	7.51
362.051	7.67
362.42	7.64
362.788	7.72
363.157	7.56
363.525	7.39
363.894	7.69
364.262	7.54
364.631	7.61
364.999	7.58
365.367	7.9
365.735	7.82
366.104	8.06
366.472	7.86
366.84	8.26
367.208	7.94
367.576	7.58
367.944	8.29
368.312	8.41
368.68	8.45
369.048	7.9
369.416	8.15
369.783	8.13
370.151	8.31
370.519	8.19
370.886	8.31
371.254	8.2
371.621	8.25
371.989	8.35
372.356	8.35
372.724	8.71
373.091	8.45
373.458	8.59
373.826	8.33
374.193	8.41
374.56	8.52
374.927	8.54
375.294	8.81
375.661	8.81
376.028	8.52
376.395	8.57
376.762	8.97
377.129	8.76
377.496	8.77
377.863	9.12
378.229	8.75
378.596	9.03
378.963	9.34
379.329	9.31
379.696	8.96
380.062	9.14
380.429	8.95
380.795	9.1
381.161	9.2
381.528	9.37
381.894	9.11
382.26	9.38
382.626	9.29
382.993	9.54
383.359	9.39
383.725	9.69
384.091	9.66
384.457	9.3
384.823	9.39
385.188	9.83
385.554	9.55
385.92	9.6
386.286	9.69
386.651	9.49
387.017	9.83
387.383	9.63
387.748	9.66
388.114	9.83
388.479	9.73
388.845	9.77
389.21	9.75
389.575	10.03
389.94	9.82
390.306	9.97
390.671	9.77
391.036	9.96
391.401	10.15
391.766	10.33
392.131	10.31
392.496	10.08
392.861	10.22
393.226	10.26
393.591	10
393.956	10.19
394.32	10.2
394.685	10.1
395.05	10.57
395.414	10.51
395.779	10.45
396.143	10.42
396.508	10.31
396.872	10.86
397.236	10.42
397.601	10.66
397.965	10.66
398.329	10.81
398.694	10.99
399.058	10.8
399.422	10.81
399.786	10.85
400.15	11
400.514	10.98
400.878	10.96
401.242	11.27
401.605	11.03
401.969	10.83
402.333	11.36
402.697	10.94
403.06	11.34
403.424	11.4
403.787	11.04
404.151	11.07
404.514	11.3
404.878	11.08
405.241	11.39
405.604	11.6
405.968	11.14
406.331	11.44
406.694	11.45
407.057	11.48
407.42	11.46
407.783	11.29
408.146	11.36
408.509	11.53
408.872	11.45
409.235	11.68
409.598	11.75
409.961	11.46
410.323	11.94
410.686	11.97
411.049	12.01
411.411	12.08
411.774	11.8
412.136	11.84
412.499	12.14
412.861	12.11
413.223	12.08
413.586	12.04
413.948	12.15
414.31	12.33
414.672	12.12
415.035	12.27
415.397	11.94
415.759	12.28
416.121	12.35
416.483	12.43
416.845	12.36
417.206	12.61
417.568	12.47
417.93	12.22
418.292	12.16
418.653	12.07
419.015	12.38
419.377	12.36
419.738	12.53
420.1	12.5
420.461	12.52
420.822	12.4
421.184	12.36
421.545	12.53
421.906	12.5
422.267	12.41
422.629	12.44
422.99	12.36
423.351	12.39
423.712	12.4
424.073	12.5
424.434	12.51
424.795	12.66
425.155	12.66
425.516	12.7
425.877	12.62
426.238	12.57
426.598	12.61
426.959	12.68
427.32	12.71
427.68	12.81
428.041	12.95
428.401	12.93
428.761	13.08
429.122	13.1
429.482	13.25
429.842	13.37
430.202	13.42
430.563	13.51
430.923	13.66
431.283	13.3
431.643	13.33
432.003	13.45
432.363	13.68
432.722	13.67
433.082	13.76
433.442	13.63
433.802	13.57
434.161	13.74
434.521	13.8
434.881	13.49
435.24	13.61
435.6	13.58
435.959	13.43
436.319	13.69
436.678	13.74
437.037	13.92
437.396	14.07
437.756	13.89
438.115	14.08
438.474	14.27
438.833	14.01
439.192	14.1
439.551	14.25
439.91	14.15
440.269	14.17
440.628	14.19
440.987	14.23
441.345	14.22
441.704	14.07
442.063	14.21
442.421	14.14
442.78	14.4
443.138	14.17
443.497	14.3
443.855	14.27
444.214	14.5
444.572	14.51
444.93	14.76
445.288	14.4
445.647	14.64
446.005	14.75
446.363	14.76
446.721	14.74
447.079	14.66
447.437	14.59
447.795	14.52
448.153	14.55
448.51	14.47
448.868	14.55
449.226	14.61
449.584	14.52
449.941	14.79
450.299	14.9
450.656	14.97
451.014	15.12
451.371	15.14
451.729	14.97
452.086	15.19
452.443	15.34
452.801	15.36
453.158	15.51
453.515	15.32
453.872	15.35
454.229	15.51
454.586	15.46
454.943	15.42
455.3	15.37
455.657	15.29
456.014	15.48
456.371	15.58
456.727	15.74
457.084	15.59
457.441	15.68
457.797	15.66
458.154	15.73
458.51	16.03
458.867	15.6
459.223	15.92
459.58	15.87
459.936	15.89
460.292	15.81
460.648	15.83
461.005	15.87
461.361	15.86
461.717	15.81
462.073	15.62
462.429	15.51
462.785	15.77
463.141	15.83
463.496	16.02
463.852	16.13
464.208	16.03
464.564	16.39
464.919	16.48
465.275	16.67
465.631	16.52
465.986	16.53
466.342	16.75
466.697	16.3
467.052	16.52
467.408	16.52
467.763	16.69
468.118	16.7
468.473	16.81
468.829	16.92
469.184	16.61
469.539	16.77
469.894	16.72
470.249	16.73
470.603	16.8
470.958	16.88
471.313	17
471.668	16.99
472.023	17.12
472.377	16.83
472.732	17.17
473.086	17.07
473.441	17.16
473.795	17.16
474.15	17.26
474.504	17.22
474.859	17.33
475.213	17.3
475.567	17.32
475.921	17.51
476.275	17.43
476.63	17.33
476.984	17.56
477.338	17.81
477.692	17.76
478.045	17.75
478.399	17.56
478.753	17.59
479.107	17.6
479.461	17.6
479.814	17.89
480.168	17.73
480.521	17.66
480.875	17.77
481.228	17.81
481.582	17.82
481.935	17.81
482.289	17.98
482.642	17.98
482.995	18.06
483.348	17.95
483.701	17.9
484.055	17.84
484.408	17.79
484.761	17.82
485.114	17.86
485.466	17.54
485.819	17.3
486.172	17.04
486.525	16.97
486.878	17.03
487.23	17.19
487.583	17.39
487.936	17.63
488.288	17.8
488.641	17.97
488.993	17.99
489.345	17.82
489.698	17.64
490.05	17.62
490.402	17.55
490.754	17.71
491.107	17.74
491.459	17.96
491.811	18.1
492.163	18.33
492.515	18.51
492.866	18.7
493.218	18.58
493.57	18.34
493.922	18.04
494.274	18
494.625	17.97
494.977	18.23
495.328	18.46
495.68	18.79
496.031	19.01
496.383	18.93
496.734	19.08
497.086	19.2
497.437	19.5
497.788	19.35
498.139	19.43
498.49	19.3
498.842	19.35
499.193	19.28
499.544	19.17
499.894	19.19
500.245	19.31
500.596	19.4
500.947	19.43
501.298	19.5
501.648	19.56
501.999	19.55
502.35	19.66
502.7	19.75
503.051	19.93
503.401	19.77
503.752	19.89
504.102	19.99
504.452	19.95
504.803	20.09
505.153	20.21
505.503	19.88
505.853	20.12
506.203	20.24
506.553	20.02
506.903	20.22
507.253	20.31
507.603	20.2
507.953	20.34
508.303	20.43
508.652	20.55
509.002	20.49
509.352	20.34
509.701	20.53
510.051	20.47
510.4	20.52
510.75	20.39
511.099	20.43
511.449	20.38
511.798	20.4
512.147	20.39
512.496	20.61
512.846	20.64
513.195	20.74
513.544	20.86
513.893	20.84
514.242	20.92
514.591	20.78
514.939	20.53
515.288	20.87
515.637	20.91
515.986	20.99
516.334	21.08
516.683	21.06
517.032	21.15
517.38	21.27
517.729	21.3
518.077	21.43
518.426	21.41
518.774	21.5
519.122	21.48
519.47	21.31
519.819	21.37
520.167	21.26
520.515	21.27
520.863	20.95
521.211	20.98
521.559	21.09
521.907	21.09
522.255	21.1
522.602	21.45
522.95	21.51
523.298	21.73
523.645	21.71
523.993	21.85
524.341	21.94
524.688	21.89
525.036	22.16
525.383	22.07
525.73	22.05
526.078	22.16
526.425	22.14
526.772	22.16
527.119	22.25
527.466	21.84
527.814	21.77
528.161	21.65
528.508	21.68
528.854	21.83
529.201	22.01
529.548	21.95
529.895	22.03
530.242	21.85
530.588	21.62
530.935	21.35
531.282	21.23
531.628	21.26
531.975	21.35
532.321	21.42
532.667	21.8
533.014	21.97
533.36	22.09
533.706	22.31
534.052	22.38
534.399	22.47
534.745	22.59
535.091	22.44
535.437	22.13
535.783	22.06
536.129	22.06
536.474	22.11
536.82	22.36
537.166	22.58
537.512	22.76
537.857	23.07
538.203	23.03
538.549	22.93
538.894	22.7
539.239	22.66
539.585	22.77
539.93	22.88
540.276	22.98
540.621	23.25
540.966	23.27
541.311	23.67
541.656	23.6
542.001	23.53
542.346	23.75
542.691	23.56
543.036	23.37
543.381	22.98
543.726	22.73
544.071	22.75
544.415	22.76
544.76	22.94
545.105	23.13
545.449	23.26
545.794	23.43
546.138	23.55
546.483	23.59
546.827	23.67
547.171	23.91
547.516	23.88
547.86	24.09
548.204	24.09
548.548	24.08
548.892	23.87
549.236	23.89
549.58	23.83
549.924	23.94
550.268	24.17
550.612	24.24
550.956	24.42
551.3	24.45
551.643	24.76
551.987	24.66
552.33	25.1
552.674	24.86
553.017	24.85
553.361	24.99
553.704	24.96
554.048	25.1
554.391	25.02
554.734	25.04
555.077	24.92
555.42	24.82
555.764	24.85
556.107	24.98
556.45	25.14
556.793	25.09
557.135	25.33
557.478	25.32
557.821	25.49
558.164	25.56
558.507	25.6
558.849	25.67
559.192	25.67
559.534	25.56
559.877	25.81
560.219	25.89
560.562	25.87
560.904	26.02
561.246	25.87
561.589	25.71
561.931	25.74
562.273	25.96
562.615	25.9
562.957	25.9
563.299	26.05
563.641	25.92
563.983	26.11
564.325	26.13
564.667	26.02
565.008	25.91
565.35	26.4
565.692	26.33
566.033	26.13
566.375	26.36
566.716	26.39
567.058	26.34
567.399	26.36
567.741	26.5
568.082	26.2
568.423	26.31
568.764	26.24
569.105	26.38
569.447	26.28
569.788	26.52
570.129	26.47
570.47	26.74
570.811	26.83
571.151	26.57
571.492	26.83
571.833	26.57
572.174	27.03
572.514	26.89
572.855	26.91
573.195	27.07
573.536	27.02
573.876	26.81
574.217	26.84
574.557	26.9
574.898	26.93
575.238	26.95
575.578	26.97
575.918	27.22
576.258	27.19
576.598	27.42
576.938	27.08
577.278	27.04
577.618	27.17
577.958	27.21
578.298	27.38
578.638	27.51
578.977	27.39
579.317	27.5
579.657	27.51
579.996	27.52
580.336	27.55
580.675	27.92
581.014	28.07
581.354	27.91
581.693	27.99
582.032	28.06
582.372	28.25
582.711	28.06
583.05	28.11
583.389	28.44
583.728	28.56
584.067	28.33
584.406	28.61
584.745	28.31
585.083	28.36
585.422	28.32
585.761	28.42
586.1	28.36
586.438	28.45
586.777	28.44
587.115	28.74
587.454	28.92
587.792	28.92
588.13	28.7
588.469	28.82
588.807	28.75
589.145	28.8
589.483	28.97
589.821	28.97
590.159	28.72
590.497	29.08
590.835	29
591.173	28.92
591.511	29.03
591.849	28.96
592.187	29.02
592.524	28.94
592.862	29.17
593.2	29.04
593.537	28.92
593.875	29.33
594.212	29.2
594.55	29.08
594.887	29.22
595.224	29.47
595.561	29.06
595.899	29.41
596.236	29.59
596.573	29.48
596.91	29.44
597.247	29.49
597.584	29.7
597.921	29.55
598.258	29.53
598.594	29.76
598.931	29.58
599.268	29.39
599.604	29.3
599.941	29.31
600.277	29.28
600.614	29.37
600.95	29.44
601.287	29.59
601.623	30.07
601.959	29.91
602.296	29.64
602.632	29.91
602.968	30.32
603.304	30.21
603.64	30.13
603.976	30.41
604.312	30.17
604.648	29.89
604.984	30.23
605.319	30.28
605.655	30.28
605.991	30.06
606.326	30.13
606.662	30.21
606.998	29.8
607.333	29.72
607.668	29.81
608.004	29.88
608.339	30.47
608.674	30.25
609.01	30.52
609.345	30.85
609.68	30.9
610.015	31.06
610.35	30.92
610.685	30.94
611.02	31.1
611.355	31.14
611.689	30.61
612.024	30.73
612.359	30.51
612.694	30.76
613.028	30.56
613.363	30.52
613.697	30.92
614.032	31.05
614.366	30.75
614.7	31.33
615.035	30.99
615.369	30.98
615.703	31.32
616.037	31.4
616.371	31.03
616.705	31.66
617.039	31.34
617.373	31.53
617.707	31.23
618.041	31.36
618.375	31.49
618.709	31.56
619.042	31.9
619.376	31.8
619.71	31.81
620.043	31.6
620.377	31.95
620.71	31.88
621.043	31.8
621.377	31.9
621.71	31.92
622.043	31.5
622.376	32.05
622.709	31.52
623.043	32.1
623.376	32.14
623.709	32.13
624.041	32.14
624.374	31.86
624.707	31.72
625.04	32.23
625.373	32.13
625.705	32.56
626.038	32.37
626.37	32.66
626.703	32.53
627.035	32.64
627.368	32.91
627.7	32.76
628.032	32.95
628.365	32.63
628.697	32.58
629.029	32.66
629.361	32.68
629.693	32.56
630.025	32.2
630.357	31.95
630.689	32.63
631.021	32.87
631.353	32.91
631.684	32.69
632.016	33.03
632.348	32.75
632.679	32.43
633.011	32.75
633.342	32.59
633.674	33.02
634.005	32.97
634.336	32.81
634.668	33.3
634.999	33.19
635.33	33.29
635.661	33.26
635.992	32.87
636.323	33.38
636.654	33.16
636.985	33.11
637.316	33.44
637.647	33.38
637.977	33.3
638.308	33.3
638.639	33.09
638.969	33.68
639.3	33.26
639.63	33.66
639.961	33.64
640.291	33.39
640.622	33.55
640.952	33.43
641.282	33.96
641.612	33.45
641.943	33.94
642.273	33.62
642.603	33.56
642.933	33.69
643.263	34.36
643.592	33.92
643.922	33.69
644.252	33.98
644.582	33.84
644.911	34.67
645.241	34.2
645.571	34.86
645.9	34.5
646.23	33.46
646.559	34.3
646.888	34.19
647.218	34.59
647.547	34.36
647.876	34.65
648.205	34.49
648.534	35.09
648.863	34.59
649.192	34.33
649.521	34.62
649.85	34.45
650.179	34.51
650.508	34.6
650.837	34.3
651.165	34.68
651.494	34.68
651.822	35.04
652.151	34.77
652.479	34.65
652.808	34.7
653.136	34.89
653.465	34.64
653.793	34.89
654.121	35.33
654.449	35.22
654.777	35.04
655.105	35.02
655.433	34.63
655.761	34.28
656.089	35.21
656.417	34.79
656.745	34.64
657.073	35.27
657.4	35.13
657.728	35.04
658.056	35.01
658.383	35.26
658.711	35.6
659.038	35.18
659.365	35.29
659.693	35.57
660.02	35.65
660.347	35.76
660.674	35.68
661.001	35.91
661.329	35.38
661.656	35.42
661.982	34.92
662.309	35.29
662.636	35.12
662.963	35.54
663.29	35.4
663.616	36.06
663.943	35.9
664.27	35.74
664.596	35.4
664.923	35.86
665.249	35.56
665.576	36.29
665.902	36.25
666.228	35.59
666.554	35.91
666.881	35.74
667.207	35.89
667.533	35.99
667.859	35.93
668.185	36.09
668.511	35.96
668.837	36.2
669.162	36.08
669.488	36.12
669.814	36.66
670.139	36.28
670.465	36.54
670.791	37.05
671.116	36.65
671.442	36.56
671.767	35.54
672.092	36.64
672.418	36.31
672.743	36.95
673.068	36.48
673.393	36.81
673.718	36.58
