Data from 0089_crown_Reflection__4__135.txt Node

Date: Mon Aug 28 19:52:06 CDT 2023
User: ToomeyLab
Spectrometer: FLMS14357
Trigger mode: 0
Integration Time (sec): 1.000000E-2
Scans to average: 100
Electric dark correction enabled: true
Nonlinearity correction enabled: false
Boxcar width: 0
XAxis mode: Wavelengths
Number of Pixels in Spectrum: 2048
>>>>>Begin Spectral Data<<<<<
189.047	12.86
189.435	12.86
189.823	12.86
190.211	-14906.98
190.599	152.48
190.987	440.1
191.375	-5.5
191.763	72.25
192.151	-122.3
192.538	143.45
192.926	19.73
193.314	-298.42
193.702	111.08
194.089	57.02
194.477	-5804.71
194.864	-118.51
195.252	-8.23
195.639	2702.56
196.027	73.62
196.414	293.2
196.801	115.41
197.189	148.92
197.576	-403.85
197.963	150.29
198.351	2.29
198.738	48.62
199.125	-14.76
199.512	31.33
199.899	56.81
200.286	76.1
200.673	27.26
201.06	15.78
201.447	-71
201.833	-14.18
202.22	24.4
202.607	6.63
202.994	18.13
203.38	31.26
203.767	54.08
204.154	-1.17
204.54	-26.09
204.927	3.74
205.313	25.41
205.699	8.23
206.086	-16.58
206.472	-35.58
206.858	-7.38
207.245	15.74
207.631	36.14
208.017	5.63
208.403	25.74
208.789	8.2
209.175	-8.85
209.561	6.01
209.947	19.47
210.333	-3.31
210.719	20.18
211.105	24.68
211.491	-22.99
211.876	31.37
212.262	64.02
212.648	-17.35
213.034	-13.8
213.419	-7.52
213.805	22.76
214.19	5.54
214.576	24.55
214.961	10.54
215.346	-10.93
215.732	4.59
216.117	-1.61
216.502	0.44
216.888	-41.02
217.273	-8.98
217.658	35.44
218.043	-6.04
218.428	-0.57
218.813	8.71
219.198	24.98
219.583	-10.56
219.968	16.61
220.353	-8.33
220.738	19.8
221.122	-6.58
221.507	2.58
221.892	10.01
222.276	9.13
222.661	5.41
223.046	4.19
223.43	6.23
223.815	5.91
224.199	11.59
224.583	3.14
224.968	4.11
225.352	4.98
225.736	4.76
226.121	8.4
226.505	0.67
226.889	7.26
227.273	9.06
227.657	5.41
228.041	7.4
228.425	6.85
228.809	4.05
229.193	6.94
229.577	5.54
229.961	4.39
230.344	6.19
230.728	4.83
231.112	5.43
231.495	5.77
231.879	5.15
232.263	4.06
232.646	5.51
233.03	4.79
233.413	7.76
233.797	5.89
234.18	4.6
234.563	3.28
234.946	7.91
235.33	5.6
235.713	4.6
236.096	6.33
236.479	6.41
236.862	4.6
237.245	4.89
237.628	6.3
238.011	6.5
238.394	6.63
238.777	8.41
239.16	4.61
239.543	4.38
239.925	7.95
240.308	5.3
240.691	6.97
241.073	4.41
241.456	5.97
241.838	4.77
242.221	6.25
242.603	5.64
242.986	5.37
243.368	5.68
243.75	5.8
244.133	5.99
244.515	5.25
244.897	6.05
245.279	5.88
245.661	5.63
246.043	5.28
246.425	5.35
246.807	6.91
247.189	6.3
247.571	5.7
247.953	5.49
248.335	5.31
248.717	5.18
249.098	5.12
249.48	5.29
249.862	5.33
250.243	5.23
250.625	5.77
251.006	5.21
251.388	5.61
251.769	4.84
252.151	5.15
252.532	4.98
252.913	6.07
253.295	4.09
253.676	5.72
254.057	5.54
254.438	4.5
254.819	4.82
255.2	6.09
255.581	5.11
255.962	6.14
256.343	6.98
256.724	4.86
257.105	3.58
257.486	5.96
257.867	4.72
258.247	4.23
258.628	7.04
259.009	5.23
259.389	5.03
259.77	4.76
260.15	5.23
260.531	4.89
260.911	4.9
261.292	5.56
261.672	5
262.052	4.82
262.432	5.01
262.813	4.86
263.193	4.6
263.573	5.08
263.953	4.67
264.333	4.88
264.713	4.74
265.093	5.12
265.473	4.81
265.853	4.58
266.233	4.69
266.612	5.18
266.992	4.72
267.372	4.16
267.752	4.85
268.131	5.44
268.511	4.37
268.89	5.06
269.27	4.26
269.649	4.87
270.029	5.52
270.408	5.34
270.787	5.11
271.167	4.68
271.546	4.34
271.925	4.91
272.304	4.79
272.683	4.61
273.062	4.72
273.441	4.75
273.82	4.61
274.199	3.99
274.578	4.96
274.957	4.88
275.336	4.69
275.715	4.87
276.093	4.35
276.472	4.33
276.851	4.43
277.229	4.74
277.608	4.7
277.986	4.17
278.365	4.97
278.743	4.98
279.122	3.96
279.5	4.65
279.878	3.82
280.257	4.59
280.635	4.1
281.013	4.68
281.391	4.7
281.769	3.76
282.147	4.68
282.525	5.21
282.903	4.55
283.281	4.71
283.659	5.21
284.037	4.73
284.415	4.31
284.792	4.69
285.17	3.63
285.548	4.02
285.925	4.84
286.303	4.16
286.68	4.58
287.058	4.97
287.435	4.29
287.813	4.06
288.19	4.66
288.567	4.68
288.945	4.47
289.322	4.52
289.699	4.97
290.076	4.73
290.453	4.23
290.83	4.05
291.207	4.22
291.584	4.44
291.961	5.12
292.338	3.76
292.715	4.31
293.092	4.56
293.469	4.51
293.845	3.97
294.222	4.03
294.599	4.27
294.975	4.22
295.352	4.39
295.728	4.49
296.105	4.46
296.481	4.24
296.858	5.04
297.234	4.8
297.61	4.44
297.986	4.42
298.363	4.66
298.739	4.57
299.115	4.29
299.491	4.54
299.867	4.3
300.243	4.74
300.619	4.6
300.995	4.6
301.371	4.29
301.746	4.44
302.122	4.39
302.498	4.34
302.874	4.63
303.249	4.59
303.625	4.49
304	4.33
304.376	4.1
304.751	3.94
305.127	4.44
305.502	4.67
305.878	4.43
306.253	4.15
306.628	3.95
307.003	4.54
307.378	4.42
307.754	4.66
308.129	3.98
308.504	4.34
308.879	4.32
309.254	4.89
309.629	4.26
310.003	4.35
310.378	4.14
310.753	4.53
311.128	4.13
311.502	4.66
311.877	4.54
312.252	4.62
312.626	4.27
313.001	4.26
313.375	4.5
313.75	4.36
314.124	4.35
314.498	4.45
314.873	4.85
315.247	4.92
315.621	3.87
315.995	4.43
316.369	4.64
316.743	4.36
317.117	4.22
317.491	3.7
317.865	3.88
318.239	3.97
318.613	4.03
318.987	4.51
319.361	4.6
319.734	4.36
320.108	4.33
320.482	4.59
320.855	4.23
321.229	4.61
321.602	3.83
321.976	3.46
322.349	4.4
322.723	4.28
323.096	4.61
323.469	4.08
323.843	3.92
324.216	4.72
324.589	4.05
324.962	4.65
325.335	4.26
325.708	4.17
326.081	3.98
326.454	4.44
326.827	4.08
327.2	3.87
327.573	4.49
327.945	4.76
328.318	4.45
328.691	3.94
329.063	3.42
329.436	3.83
329.809	3.99
330.181	3.94
330.553	3.8
330.926	4.45
331.298	4.68
331.671	4.18
332.043	3.85
332.415	4.76
332.787	3.95
333.159	4.18
333.532	4.68
333.904	4.55
334.276	3.9
334.648	4.04
335.02	4.52
335.391	4.32
335.763	4.07
336.135	4.51
336.507	4.13
336.879	3.56
337.25	4.48
337.622	4.24
337.993	4.31
338.365	4.01
338.736	4.5
339.108	3.88
339.479	3.8
339.851	4.56
340.222	4.58
340.593	4.11
340.964	4.4
341.336	4.3
341.707	4.28
342.078	3.77
342.449	3.89
342.82	4.12
343.191	3.97
343.562	4.15
343.933	3.92
344.303	4.06
344.674	4.28
345.045	4.1
345.416	4.08
345.786	4.53
346.157	4.32
346.527	3.84
346.898	3.79
347.268	4.24
347.639	3.98
348.009	3.93
348.38	4.08
348.75	4.08
349.12	4.07
349.49	3.66
349.861	4.23
350.231	4.08
350.601	4.71
350.971	4.86
351.341	3.99
351.711	4.01
352.081	4.16
352.45	4.1
352.82	4.4
353.19	4.71
353.56	4.21
353.929	4.16
354.299	4.26
354.669	4.32
355.038	4.27
355.408	4.15
355.777	4.14
356.147	3.78
356.516	4.45
356.885	3.99
357.254	4.42
357.624	4.05
357.993	4.24
358.362	3.95
358.731	4.29
359.1	4.2
359.469	4.32
359.838	3.85
360.207	4.22
360.576	4.44
360.945	4.13
361.314	3.87
361.682	3.77
362.051	4.33
362.42	4.23
362.788	4.17
363.157	4.26
363.525	3.95
363.894	4.17
364.262	4.04
364.631	4.17
364.999	4.12
365.367	4.34
365.735	4.15
366.104	4.25
366.472	4.19
366.84	4.53
367.208	4.36
367.576	4.03
367.944	4.47
368.312	4.5
368.68	4.38
369.048	4.1
369.416	4.03
369.783	4.45
370.151	4.44
370.519	4.31
370.886	4.48
371.254	4.13
371.621	4.1
371.989	4.43
372.356	4.12
372.724	4.87
373.091	4.19
373.458	4.15
373.826	4.18
374.193	4.47
374.56	4.35
374.927	4.01
375.294	4.21
375.661	4.48
376.028	4.4
376.395	4.17
376.762	4.34
377.129	4.46
377.496	4.29
377.863	4.51
378.229	3.99
378.596	4.54
378.963	4.61
379.329	4.32
379.696	4.22
380.062	4.07
380.429	4.11
380.795	4.49
381.161	4.23
381.528	4.46
381.894	4.34
382.26	4.33
382.626	4.74
382.993	4.47
383.359	4.74
383.725	4.43
384.091	4.2
384.457	4.44
384.823	4.15
385.188	4.71
385.554	4.34
385.92	4.4
386.286	4.58
386.651	4.45
387.017	4.33
387.383	4.48
387.748	4.47
388.114	4.44
388.479	4.02
388.845	4.24
389.21	4.31
389.575	4.4
389.94	4.43
390.306	4.35
390.671	4.19
391.036	4.41
391.401	4.57
391.766	4.65
392.131	4.46
392.496	4.14
392.861	4.29
393.226	4.4
393.591	4.11
393.956	4.35
394.32	4.53
394.685	4.35
395.05	4.58
395.414	4.43
395.779	4.53
396.143	4.54
396.508	4.26
396.872	4.75
397.236	4.37
397.601	4.29
397.965	4.6
398.329	4.42
398.694	4.54
399.058	4.24
399.422	4.47
399.786	4.44
400.15	4.68
400.514	4.47
400.878	4.51
401.242	4.48
401.605	4.68
401.969	4.4
402.333	4.66
402.697	4.39
403.06	4.78
403.424	4.67
403.787	4.49
404.151	4.42
404.514	4.45
404.878	4.42
405.241	4.66
405.604	4.68
405.968	4.4
406.331	4.55
406.694	4.72
407.057	4.57
407.42	4.5
407.783	4.22
408.146	4.56
408.509	4.76
408.872	4.58
409.235	4.75
409.598	4.67
409.961	4.43
410.323	4.57
410.686	4.83
411.049	4.58
411.411	4.65
411.774	4.65
412.136	4.63
412.499	4.68
412.861	4.5
413.223	4.64
413.586	4.54
413.948	4.73
414.31	4.71
414.672	4.47
415.035	4.74
415.397	4.56
415.759	4.7
416.121	4.57
416.483	4.59
416.845	4.69
417.206	4.93
417.568	4.7
417.93	4.59
418.292	4.68
418.653	4.65
419.015	4.59
419.377	4.51
419.738	4.95
420.1	4.68
420.461	4.7
420.822	4.53
421.184	4.67
421.545	4.69
421.906	4.61
422.267	4.74
422.629	4.59
422.99	4.52
423.351	4.63
423.712	4.53
424.073	4.63
424.434	4.73
424.795	4.59
425.155	4.64
425.516	4.7
425.877	4.55
426.238	4.49
426.598	4.59
426.959	4.66
427.32	4.63
427.68	4.53
428.041	4.65
428.401	4.63
428.761	4.7
429.122	4.67
429.482	4.9
429.842	4.93
430.202	4.75
430.563	4.89
430.923	4.93
431.283	4.72
431.643	4.62
432.003	4.69
432.363	4.8
432.722	4.79
433.082	4.6
433.442	4.88
433.802	4.7
434.161	4.95
434.521	4.91
434.881	4.76
435.24	4.72
435.6	4.74
435.959	4.85
436.319	4.82
436.678	4.8
437.037	4.79
437.396	4.91
437.756	4.85
438.115	4.89
438.474	4.91
438.833	4.8
439.192	4.86
439.551	4.79
439.91	4.9
440.269	4.87
440.628	4.71
440.987	4.91
441.345	4.84
441.704	4.8
442.063	4.85
442.421	4.77
442.78	4.91
443.138	4.94
443.497	4.7
443.855	4.94
444.214	4.99
444.572	4.99
444.93	4.95
445.288	4.73
445.647	4.9
446.005	5.02
446.363	4.84
446.721	4.97
447.079	5.01
447.437	4.85
447.795	4.76
448.153	4.98
448.51	4.84
448.868	4.89
449.226	4.81
449.584	4.87
449.941	4.87
450.299	4.89
450.656	4.93
451.014	4.92
451.371	5.02
451.729	4.8
452.086	4.98
452.443	5.03
452.801	5.07
453.158	5.1
453.515	5.02
453.872	4.87
454.229	5.15
454.586	5.06
454.943	5.01
455.3	5.01
455.657	5.08
456.014	5.22
456.371	5
456.727	5.26
457.084	4.88
457.441	5.17
457.797	5.05
458.154	4.93
458.51	5.21
458.867	4.95
459.223	5.1
459.58	5.02
459.936	4.97
460.292	5.23
460.648	5.01
461.005	5.02
461.361	5.06
461.717	4.88
462.073	4.95
462.429	4.89
462.785	5.02
463.141	5.11
463.496	5.13
463.852	5.06
464.208	5.19
464.564	5.22
464.919	5.15
465.275	5.35
465.631	5.01
465.986	5.21
466.342	5.33
466.697	5.01
467.052	5.17
467.408	5.17
467.763	5
468.118	5.02
468.473	5.09
468.829	5.16
469.184	5.06
469.539	5.08
469.894	5.06
470.249	5.15
470.603	5.16
470.958	5.17
471.313	5.11
471.668	5.03
472.023	5.35
472.377	5.19
472.732	5.26
473.086	5.14
473.441	5.38
473.795	5.28
474.15	5.29
474.504	5.31
474.859	5.37
475.213	5.29
475.567	5.27
475.921	5.46
476.275	5.29
476.63	5.35
476.984	5.36
477.338	5.35
477.692	5.19
478.045	5.34
478.399	5.13
478.753	5.16
479.107	5.23
479.461	5.24
479.814	5.43
480.168	5.41
480.521	5.41
480.875	5.24
481.228	5.2
481.582	5.32
481.935	5.21
482.289	5.26
482.642	5.26
482.995	5.37
483.348	5.31
483.701	5.29
484.055	5.22
484.408	5.21
484.761	5.18
485.114	5.12
485.466	5.12
485.819	4.96
486.172	4.91
486.525	4.93
486.878	4.99
487.23	5.06
487.583	5.2
487.936	5.28
488.288	5.25
488.641	5.21
488.993	5.18
489.345	5.14
489.698	5.11
490.05	5.03
490.402	5.06
490.754	5.14
491.107	5.16
491.459	5.21
491.811	5.21
492.163	5.26
492.515	5.45
492.866	5.34
493.218	5.28
493.57	5.22
493.922	5.06
494.274	5.13
494.625	5.16
494.977	5.34
495.328	5.48
495.68	5.43
496.031	5.41
496.383	5.49
496.734	5.44
497.086	5.62
497.437	5.58
497.788	5.48
498.139	5.38
498.49	5.41
498.842	5.49
499.193	5.32
499.544	5.33
499.894	5.45
500.245	5.44
500.596	5.49
500.947	5.41
501.298	5.56
501.648	5.52
501.999	5.53
502.35	5.48
502.7	5.51
503.051	5.58
503.401	5.54
503.752	5.41
504.102	5.6
504.452	5.54
504.803	5.59
505.153	5.6
505.503	5.5
505.853	5.62
506.203	5.54
506.553	5.56
506.903	5.72
507.253	5.67
507.603	5.49
507.953	5.65
508.303	5.74
508.652	5.69
509.002	5.73
509.352	5.62
509.701	5.54
510.051	5.56
510.4	5.62
510.75	5.59
511.099	5.63
511.449	5.6
511.798	5.65
512.147	5.54
512.496	5.61
512.846	5.56
513.195	5.68
513.544	5.72
513.893	5.58
514.242	5.64
514.591	5.68
514.939	5.48
515.288	5.71
515.637	5.71
515.986	5.65
516.334	5.82
516.683	5.64
517.032	5.76
517.38	5.8
517.729	5.83
518.077	5.69
518.426	5.7
518.774	5.7
519.122	5.7
519.47	5.65
519.819	5.67
520.167	5.67
520.515	5.67
520.863	5.51
521.211	5.55
521.559	5.61
521.907	5.71
522.255	5.62
522.602	5.64
522.95	5.76
523.298	5.81
523.645	5.78
523.993	5.77
524.341	5.81
524.688	5.81
525.036	5.76
525.383	5.75
525.73	5.88
526.078	5.87
526.425	5.81
526.772	5.74
527.119	5.7
527.466	5.68
527.814	5.66
528.161	5.65
528.508	5.64
528.854	5.71
529.201	5.66
529.548	5.7
529.895	5.66
530.242	5.64
530.588	5.49
530.935	5.41
531.282	5.43
531.628	5.51
531.975	5.58
532.321	5.63
532.667	5.66
533.014	5.79
533.36	5.79
533.706	5.77
534.052	5.76
534.399	5.74
534.745	5.78
535.091	5.69
535.437	5.61
535.783	5.63
536.129	5.63
536.474	5.65
536.82	5.78
537.166	5.82
537.512	5.84
537.857	5.93
538.203	5.82
538.549	5.74
538.894	5.66
539.239	5.7
539.585	5.75
539.93	5.77
540.276	5.86
540.621	5.93
540.966	5.95
541.311	6.04
541.656	5.9
542.001	5.93
542.346	5.99
542.691	5.88
543.036	5.79
543.381	5.66
543.726	5.57
544.071	5.68
544.415	5.72
544.76	5.81
545.105	5.83
545.449	5.83
545.794	5.81
546.138	5.84
546.483	5.86
546.827	5.96
547.171	5.91
547.516	5.98
547.86	6.1
548.204	5.98
548.548	5.96
548.892	5.89
549.236	5.85
549.58	5.94
549.924	5.86
550.268	6.01
550.612	5.92
550.956	6.15
551.3	6.23
551.643	6.14
551.987	6.08
552.33	6.19
552.674	6.17
553.017	6.19
553.361	6.15
553.704	6.07
554.048	6.08
554.391	6.11
554.734	6.2
555.077	6.12
555.42	6.09
555.764	6.15
556.107	5.99
556.45	6.18
556.793	6.06
557.135	6.2
557.478	6.04
557.821	6.19
558.164	6.33
558.507	6.16
558.849	6.34
559.192	6.18
559.534	6.02
559.877	6.23
560.219	6.32
560.562	6.16
560.904	6.32
561.246	6.21
561.589	6.18
561.931	6.31
562.273	6.08
562.615	6.25
562.957	6.22
563.299	6.37
563.641	6.01
563.983	6.21
564.325	6.04
564.667	5.97
565.008	6.21
565.35	6.5
565.692	6.3
566.033	6.27
566.375	6.29
566.716	6.29
567.058	6.38
567.399	6.23
567.741	6.26
568.082	6.23
568.423	6.12
568.764	6.18
569.105	6.36
569.447	6.34
569.788	6.24
570.129	6.31
570.47	6.3
570.811	6.34
571.151	6.21
571.492	6.27
571.833	6.14
572.174	6.41
572.514	6.49
572.855	6.18
573.195	6.39
573.536	6.4
573.876	6.16
574.217	6.32
574.557	6.33
574.898	6.35
575.238	6.24
575.578	6.39
575.918	6.34
576.258	6.33
576.598	6.37
576.938	6.27
577.278	6.33
577.618	6.27
577.958	6.28
578.298	6.5
578.638	6.36
578.977	6.34
579.317	6.22
579.657	6.28
579.996	6.32
580.336	6.32
580.675	6.55
581.014	6.63
581.354	6.56
581.693	6.44
582.032	6.64
582.372	6.6
582.711	6.57
583.05	6.54
583.389	6.49
583.728	6.54
584.067	6.53
584.406	6.34
584.745	6.5
585.083	6.54
585.422	6.39
585.761	6.45
586.1	6.49
586.438	6.42
586.777	6.68
587.115	6.46
587.454	6.75
587.792	6.72
588.13	6.7
588.469	6.42
588.807	6.52
589.145	6.71
589.483	6.44
589.821	6.4
590.159	6.68
590.497	6.51
590.835	6.7
591.173	6.26
591.511	6.43
591.849	6.43
592.187	6.65
592.524	6.57
592.862	6.62
593.2	6.56
593.537	6.3
593.875	6.78
594.212	6.69
594.55	6.73
594.887	6.48
595.224	6.57
595.561	6.49
595.899	6.15
596.236	6.62
596.573	6.9
596.91	6.49
597.247	6.66
597.584	6.56
597.921	6.61
598.258	6.42
598.594	6.58
598.931	6.58
599.268	6.58
599.604	6.49
599.941	6.68
600.277	6.55
600.614	6.75
600.95	6.55
601.287	6.69
601.623	6.89
601.959	6.71
602.296	6.53
602.632	6.75
602.968	6.75
603.304	6.5
603.64	6.8
603.976	6.71
604.312	6.54
604.648	6.67
604.984	6.49
605.319	6.62
605.655	6.65
605.991	6.7
606.326	6.57
606.662	6.55
606.998	6.59
607.333	6.54
607.668	6.75
608.004	6.74
608.339	6.76
608.674	6.72
609.01	6.79
609.345	6.86
609.68	6.65
610.015	7.03
610.35	6.83
610.685	6.87
611.02	6.75
611.355	6.87
611.689	6.68
612.024	6.64
612.359	6.78
612.694	6.77
613.028	6.72
613.363	6.78
613.697	6.65
614.032	6.93
614.366	6.59
614.7	6.77
615.035	6.75
615.369	6.73
615.703	6.75
616.037	6.63
616.371	6.39
616.705	6.76
617.039	6.73
617.373	6.88
617.707	6.63
618.041	6.93
618.375	6.55
618.709	6.95
619.042	6.99
619.376	7.1
619.71	6.61
620.043	7.15
620.377	7.18
620.71	6.93
621.043	6.74
621.377	7.14
621.71	6.82
622.043	6.88
622.376	6.8
622.709	6.96
623.043	6.72
623.376	7.17
623.709	6.93
624.041	7.09
624.374	6.81
624.707	6.7
625.04	6.92
625.373	7.23
625.705	7
626.038	6.89
626.37	7.09
626.703	7.36
627.035	7.01
627.368	7.16
627.7	7.38
628.032	7.12
628.365	6.88
628.697	7.24
629.029	6.98
629.361	7.15
629.693	6.78
630.025	6.85
630.357	6.78
630.689	6.74
631.021	7.2
631.353	6.98
631.684	7.42
632.016	6.76
632.348	7.05
632.679	7.2
633.011	7.19
633.342	6.86
633.674	7.2
634.005	6.8
634.336	6.95
634.668	7.17
634.999	7.33
635.33	7.2
635.661	7.2
635.992	6.89
636.323	7.47
636.654	7.09
636.985	7.01
637.316	6.85
637.647	6.92
637.977	6.97
638.308	7.57
638.639	6.99
638.969	7.32
639.3	7.1
639.63	7.1
639.961	7.43
640.291	7.31
640.622	7.1
640.952	7.39
641.282	7.25
641.612	7.14
641.943	7.37
642.273	7.74
642.603	7.21
642.933	7.24
643.263	7.55
643.592	7.24
643.922	7.45
644.252	7.56
644.582	7.43
644.911	7.34
645.241	7.47
645.571	7.06
645.9	7.06
646.23	6.94
646.559	7.22
646.888	7.79
647.218	7.12
647.547	7.35
647.876	7.65
648.205	7.28
648.534	7.71
648.863	7.03
649.192	7.46
649.521	7.3
649.85	7.49
650.179	7.78
650.508	7.83
650.837	6.92
651.165	7.7
651.494	7.46
651.822	7.26
652.151	7.64
652.479	7.47
652.808	7.27
653.136	7.12
653.465	7.22
653.793	7.66
654.121	7.37
654.449	7.43
654.777	7.11
655.105	7.56
655.433	7.54
655.761	7.31
656.089	7.3
656.417	7.26
656.745	7.77
657.073	7.78
657.4	7.57
657.728	7.84
658.056	7.64
658.383	7.52
658.711	7.71
659.038	7.75
659.365	7.56
659.693	7.7
660.02	7.65
660.347	7.8
660.674	7.67
661.001	7.94
661.329	7.08
661.656	7.33
661.982	7.57
662.309	7.36
662.636	7.41
662.963	7.64
663.29	7.66
663.616	7.17
663.943	8.07
664.27	7.86
664.596	7.74
664.923	8.48
665.249	7.47
665.576	7.59
665.902	7.89
666.228	7.8
666.554	7.91
666.881	7.85
667.207	7.95
667.533	7.84
667.859	7.91
668.185	7.29
668.511	8.14
668.837	7.87
669.162	7.69
669.488	7.09
669.814	8.2
670.139	7.63
670.465	8.21
670.791	8.01
671.116	7.63
671.442	7.74
671.767	7.06
672.092	8.03
672.418	7.71
672.743	8.1
673.068	7.72
673.393	7.87
673.718	7.62
674.043	7.55
674.368	8.01
674.693	8.14
675.018	8.24
675.343	7.88
675.667	8.48
675.992	8.2
676.317	7.68
676.641	7.87
676.966	8.49
677.29	7.26
677.615	8.74
677.939	8.13
678.264	7.23
678.588	8.02
678.912	8.06
679.236	7.44
679.56	7.7
679.885	8.53
680.209	8.3
680.532	8.7
680.856	7.66
681.18	7.61
681.504	7.9
681.828	7.88
682.152	8.17
682.475	8.4
682.799	8.35
683.122	8.12
683.446	7.93
683.769	8.47
684.093	7.98
684.416	8.88
684.739	7.68
685.062	8.19
685.386	8.16
685.709	8.35
686.032	7.69
686.355	8.36
686.678	8.15
687.001	7.69
687.324	8.19
687.646	7.76
687.969	7.68
688.292	8.24
688.614	8.21
688.937	7.72
689.26	8.4
689.582	8.26
689.904	7.68
690.227	8.6
690.549	7.96
690.871	8.67
691.194	8.14
691.516	8.81
691.838	8.41
692.16	8.94
692.482	8.24
