Data from 0089_chest_Reflection__3__124.txt Node

Date: Mon Aug 28 19:43:24 CDT 2023
User: ToomeyLab
Spectrometer: FLMS14357
Trigger mode: 0
Integration Time (sec): 1.000000E-2
Scans to average: 100
Electric dark correction enabled: true
Nonlinearity correction enabled: false
Boxcar width: 0
XAxis mode: Wavelengths
Number of Pixels in Spectrum: 2048
>>>>>Begin Spectral Data<<<<<
189.047	-30.7
189.435	-30.7
189.823	-30.7
190.211	-551.16
190.599	-20.68
190.987	-118.37
191.375	36.65
191.763	101.95
192.151	-114.98
192.538	134.93
192.926	29.31
193.314	-631.38
193.702	117.84
194.089	155.87
194.477	429.41
194.864	54.37
195.252	33.92
195.639	-3024.79
196.027	118.2
196.414	91.04
196.801	-35.19
197.189	55.68
197.576	-188.58
197.963	-3.19
198.351	85.92
198.738	-49.71
199.125	18.5
199.512	25
199.899	35.43
200.286	-97.38
200.673	17.91
201.06	1.05
201.447	-59.85
201.833	-24.73
202.22	-16.2
202.607	39.41
202.994	39.8
203.38	29.89
203.767	-8.03
204.154	1.52
204.54	19.21
204.927	14.71
205.313	36.6
205.699	-19.27
206.086	0.1
206.472	-39.78
206.858	-13.35
207.245	-1.94
207.631	-3.26
208.017	10.32
208.403	16.24
208.789	-3.49
209.175	-20.69
209.561	46.11
209.947	3.46
210.333	4.93
210.719	-6.2
211.105	8.22
211.491	-5.09
211.876	15.46
212.262	1.18
212.648	20.08
213.034	-17.01
213.419	8.16
213.805	4
214.19	-64.47
214.576	8.69
214.961	-18.13
215.346	-11.16
215.732	45.63
216.117	-4.12
216.502	5.91
216.888	-48.9
217.273	-4.64
217.658	24.41
218.043	5.47
218.428	-17.12
218.813	-9.89
219.198	13.01
219.583	19.35
219.968	7.88
220.353	-1.68
220.738	31.77
221.122	4.87
221.507	7.74
221.892	-5.8
222.276	13.47
222.661	-12.28
223.046	-5.25
223.43	20.03
223.815	8.75
224.199	8.61
224.583	4.51
224.968	11.22
225.352	4.2
225.736	6.19
226.121	6.51
226.505	-0.14
226.889	8.39
227.273	17.7
227.657	5.74
228.041	2.45
228.425	4.53
228.809	5.7
229.193	4.32
229.577	6.22
229.961	4.17
230.344	4.81
230.728	4.6
231.112	3.94
231.495	4.72
231.879	4.01
232.263	3.57
232.646	4.47
233.03	4.42
233.413	7.08
233.797	3.93
234.18	2.63
234.563	1.81
234.946	8.95
235.33	5.67
235.713	3.29
236.096	5.16
236.479	4.06
236.862	4.92
237.245	3.06
237.628	3.9
238.011	4.05
238.394	5.26
238.777	6.03
239.16	2.69
239.543	2.46
239.925	7.86
240.308	0.72
240.691	3.95
241.073	1.59
241.456	4.36
241.838	3.58
242.221	5.81
242.603	4.83
242.986	5.57
243.368	5.07
243.75	4.38
244.133	4.44
244.515	4.1
244.897	4.77
245.279	4.53
245.661	3.9
246.043	5.33
246.425	4.12
246.807	5.48
247.189	3.75
247.571	4
247.953	3.84
248.335	4.25
248.717	4.13
249.098	4.36
249.48	4.21
249.862	4.01
250.243	4.22
250.625	4.73
251.006	3.81
251.388	4.36
251.769	4.65
252.151	3.9
252.532	3.79
252.913	5.06
253.295	2.74
253.676	3.81
254.057	4.09
254.438	3.81
254.819	4.28
255.2	4.57
255.581	4.54
255.962	5.06
256.343	5.14
256.724	4.33
257.105	3.78
257.486	4.95
257.867	3.66
258.247	4.46
258.628	5.51
259.009	3.34
259.389	3.44
259.77	4.02
260.15	3.39
260.531	3.56
260.911	4.05
261.292	4.3
261.672	3.73
262.052	3.6
262.432	3.83
262.813	3.84
263.193	3.92
263.573	3.6
263.953	3.49
264.333	4.19
264.713	3.92
265.093	4.13
265.473	4.38
265.853	3.91
266.233	4.06
266.612	4.3
266.992	3.76
267.372	3.35
267.752	4.34
268.131	4.26
268.511	3.03
268.89	4.11
269.27	3.17
269.649	3.92
270.029	4.38
270.408	4.31
270.787	4.57
271.167	3.66
271.546	3.97
271.925	3.98
272.304	3.32
272.683	3.49
273.062	2.98
273.441	3.82
273.82	3.41
274.199	3.45
274.578	3.29
274.957	3.91
275.336	3.67
275.715	3.56
276.093	3.27
276.472	3.31
276.851	3.71
277.229	4.11
277.608	3.44
277.986	3.4
278.365	3.71
278.743	3.51
279.122	3.19
279.5	3.49
279.878	3.1
280.257	3.81
280.635	3.17
281.013	3.92
281.391	3.42
281.769	3.36
282.147	3.82
282.525	3.66
282.903	3.63
283.281	3.51
283.659	3.95
284.037	4.03
284.415	3.41
284.792	3.55
285.17	3.39
285.548	3.82
285.925	4.02
286.303	3.63
286.68	3.97
287.058	3.5
287.435	3.47
287.813	3.28
288.19	4.06
288.567	3.39
288.945	3.73
289.322	3.53
289.699	3.81
290.076	4.15
290.453	3.81
290.83	3.17
291.207	3.24
291.584	3.73
291.961	4.22
292.338	3.46
292.715	3.14
293.092	3.84
293.469	3.57
293.845	3.12
294.222	3.84
294.599	3.62
294.975	3.99
295.352	3.51
295.728	3.59
296.105	3.93
296.481	3.61
296.858	3.71
297.234	4.27
297.61	3.71
297.986	3.22
298.363	3.89
298.739	4
299.115	3.31
299.491	3.82
299.867	3.59
300.243	3.93
300.619	3.52
300.995	3.86
301.371	4.03
301.746	3.83
302.122	3.95
302.498	4.24
302.874	4.09
303.249	3.43
303.625	3.88
304	3.83
304.376	3.6
304.751	3.71
305.127	3.44
305.502	3.53
305.878	3.74
306.253	3.36
306.628	3.82
307.003	4.08
307.378	3.72
307.754	4.14
308.129	3.83
308.504	4.51
308.879	4.14
309.254	4.15
309.629	3.85
310.003	3.56
310.378	3.23
310.753	3.71
311.128	3.63
311.502	3.81
311.877	3.77
312.252	4.07
312.626	3.73
313.001	3.84
313.375	3.63
313.75	3.59
314.124	3.98
314.498	4.15
314.873	3.99
315.247	3.76
315.621	3.55
315.995	4.42
316.369	4.13
316.743	3.23
317.117	3.48
317.491	3.39
317.865	3.43
318.239	4.26
318.613	3.59
318.987	3.44
319.361	4.28
319.734	4.12
320.108	3.42
320.482	3.87
320.855	3.71
321.229	3.52
321.602	3.41
321.976	3.94
322.349	3.71
322.723	3.6
323.096	3.72
323.469	4.04
323.843	3.89
324.216	3.46
324.589	3.44
324.962	4.13
325.335	4.12
325.708	3.58
326.081	3.78
326.454	4.01
326.827	3.82
327.2	3.41
327.573	3.8
327.945	3.87
328.318	4.02
328.691	3.83
329.063	3.09
329.436	3.06
329.809	3.77
330.181	3.78
330.553	3.33
330.926	4.25
331.298	3.87
331.671	3.59
332.043	3.54
332.415	4.33
332.787	3.23
333.159	3.6
333.532	3.98
333.904	3.74
334.276	3.47
334.648	3.66
335.02	4.58
335.391	3.78
335.763	3.39
336.135	4.1
336.507	3.41
336.879	3.47
337.25	4.3
337.622	3.46
337.993	4.25
338.365	3.45
338.736	4.24
339.108	3.6
339.479	3.56
339.851	4.23
340.222	3.69
340.593	3.63
340.964	3.65
341.336	3.52
341.707	3.64
342.078	3.49
342.449	4.09
342.82	3.73
343.191	3.83
343.562	3.73
343.933	3.67
344.303	3.75
344.674	3.95
345.045	3.8
345.416	3.85
345.786	4.44
346.157	4.11
346.527	3.49
346.898	3.64
347.268	3.72
347.639	3.49
348.009	3.82
348.38	3.94
348.75	3.98
349.12	4.05
349.49	3.82
349.861	3.32
350.231	3.79
350.601	3.73
350.971	4.3
351.341	4.22
351.711	3.92
352.081	3.82
352.45	3.97
352.82	3.74
353.19	4.4
353.56	3.81
353.929	3.94
354.299	3.82
354.669	4.04
355.038	3.85
355.408	3.88
355.777	3.79
356.147	3.46
356.516	4.11
356.885	3.94
357.254	3.72
357.624	3.78
357.993	4.19
358.362	3.96
358.731	3.96
359.1	4.1
359.469	4.15
359.838	3.73
360.207	4.05
360.576	4.25
360.945	4.03
361.314	3.69
361.682	3.64
362.051	4.44
362.42	3.83
362.788	3.74
363.157	3.97
363.525	3.84
363.894	4.12
364.262	3.87
364.631	3.68
364.999	4.13
365.367	3.87
365.735	4.01
366.104	3.97
366.472	3.72
366.84	3.96
367.208	3.97
367.576	3.39
367.944	3.7
368.312	4.16
368.68	3.89
369.048	3.63
369.416	4.07
369.783	3.88
370.151	3.95
370.519	4.41
370.886	4
371.254	3.85
371.621	3.72
371.989	3.57
372.356	3.95
372.724	4.16
373.091	4
373.458	3.6
373.826	4.4
374.193	4.05
374.56	3.94
374.927	3.93
375.294	3.87
375.661	4.02
376.028	3.85
376.395	3.61
376.762	4.17
377.129	4.23
377.496	4
377.863	3.7
378.229	4.06
378.596	4.28
378.963	4.07
379.329	4.04
379.696	3.85
380.062	3.77
380.429	3.87
380.795	4.31
381.161	4.27
381.528	4.4
381.894	3.81
382.26	4.08
382.626	3.98
382.993	3.97
383.359	4.18
383.725	4.2
384.091	3.66
384.457	4.04
384.823	3.65
385.188	4.17
385.554	3.86
385.92	3.86
386.286	4.01
386.651	3.97
387.017	4.1
387.383	3.99
387.748	4.02
388.114	3.85
388.479	3.91
388.845	3.85
389.21	3.78
389.575	4.18
389.94	3.89
390.306	4.08
390.671	3.91
391.036	3.92
391.401	4.22
391.766	4.37
392.131	4.1
392.496	3.84
392.861	4.03
393.226	3.99
393.591	3.64
393.956	3.81
394.32	3.85
394.685	3.99
395.05	4.15
395.414	4.04
395.779	3.92
396.143	3.82
396.508	3.69
396.872	4.14
397.236	3.95
397.601	3.93
397.965	4.21
398.329	4.22
398.694	4.17
399.058	3.95
399.422	4.06
399.786	4.3
400.15	4.24
400.514	4.16
400.878	4.02
401.242	4.06
401.605	4.11
401.969	3.95
402.333	4.05
402.697	3.86
403.06	4.2
403.424	4.35
403.787	3.92
404.151	3.82
404.514	4.07
404.878	4.02
405.241	4.21
405.604	4.2
405.968	3.82
406.331	4.24
406.694	3.94
407.057	4.1
407.42	4.08
407.783	3.96
408.146	3.89
408.509	4.14
408.872	4.06
409.235	4.22
409.598	4.31
409.961	3.89
410.323	3.99
410.686	4.3
411.049	4.43
411.411	4.05
411.774	4.23
412.136	4.01
412.499	4.22
412.861	4.13
413.223	4.08
413.586	4.03
413.948	4.27
414.31	4.09
414.672	4.03
415.035	4
415.397	4.18
415.759	4.28
416.121	4.2
416.483	4.21
416.845	4.27
417.206	4.47
417.568	4.05
417.93	4.17
418.292	4.33
418.653	4.03
419.015	4.04
419.377	3.83
419.738	4.21
420.1	4.08
420.461	4.05
420.822	4.08
421.184	4.15
421.545	4.16
421.906	4.15
422.267	4.11
422.629	3.95
422.99	3.99
423.351	4.01
423.712	3.96
424.073	4.08
424.434	4.15
424.795	4.19
425.155	4.13
425.516	4.11
425.877	4.01
426.238	3.93
426.598	4.08
426.959	4.11
427.32	4.12
427.68	4.19
428.041	4.09
428.401	4.33
428.761	4.1
429.122	4.07
429.482	4.08
429.842	4.29
430.202	4.25
430.563	4.21
430.923	4.31
431.283	4.16
431.643	4.08
432.003	4.13
432.363	4.2
432.722	4.3
433.082	4.08
433.442	4.2
433.802	4.18
434.161	4.22
434.521	4.25
434.881	4.15
435.24	4.22
435.6	4.2
435.959	4.14
436.319	4.3
436.678	4.23
437.037	4.23
437.396	4.31
437.756	4.19
438.115	4.23
438.474	4.29
438.833	4.19
439.192	4.24
439.551	4.13
439.91	4.31
440.269	4.12
440.628	4.07
440.987	4.24
441.345	4.08
441.704	4.12
442.063	4.16
442.421	4.16
442.78	4.19
443.138	4.19
443.497	4.2
443.855	4.21
444.214	4.37
444.572	4.26
444.93	4.23
445.288	4.13
445.647	4.32
446.005	4.27
446.363	4.33
446.721	4.17
447.079	4.18
447.437	4.05
447.795	4.18
448.153	4.26
448.51	4.14
448.868	4.22
449.226	4.11
449.584	4.13
449.941	4.26
450.299	4.28
450.656	4.21
451.014	4.18
451.371	4.27
451.729	4.17
452.086	4.22
452.443	4.42
452.801	4.38
453.158	4.32
453.515	4.32
453.872	4.23
454.229	4.42
454.586	4.54
454.943	4.27
455.3	4.32
455.657	4.39
456.014	4.46
456.371	4.24
456.727	4.27
457.084	4.2
457.441	4.46
457.797	4.38
458.154	4.25
458.51	4.55
458.867	4.4
459.223	4.29
459.58	4.27
459.936	4.39
460.292	4.51
460.648	4.23
461.005	4.16
461.361	4.38
461.717	4.15
462.073	4.21
462.429	4.22
462.785	4.26
463.141	4.42
463.496	4.4
463.852	4.34
464.208	4.51
464.564	4.39
464.919	4.47
465.275	4.51
465.631	4.31
465.986	4.44
466.342	4.37
466.697	4.32
467.052	4.41
467.408	4.49
467.763	4.3
468.118	4.19
468.473	4.43
468.829	4.27
469.184	4.35
469.539	4.29
469.894	4.43
470.249	4.3
470.603	4.53
470.958	4.44
471.313	4.46
471.668	4.31
472.023	4.51
472.377	4.17
472.732	4.35
473.086	4.42
473.441	4.42
473.795	4.57
474.15	4.46
474.504	4.47
474.859	4.34
475.213	4.33
475.567	4.3
475.921	4.68
476.275	4.48
476.63	4.43
476.984	4.41
477.338	4.6
477.692	4.62
478.045	4.4
478.399	4.56
478.753	4.36
479.107	4.41
479.461	4.44
479.814	4.7
480.168	4.43
480.521	4.38
480.875	4.38
481.228	4.41
481.582	4.47
481.935	4.37
482.289	4.43
482.642	4.6
482.995	4.57
483.348	4.63
483.701	4.48
484.055	4.42
484.408	4.41
484.761	4.34
485.114	4.32
485.466	4.28
485.819	4.06
486.172	4
486.525	4.12
486.878	4.2
487.23	4.38
487.583	4.49
487.936	4.48
488.288	4.45
488.641	4.45
488.993	4.41
489.345	4.27
489.698	4.26
490.05	4.18
490.402	4.21
490.754	4.34
491.107	4.39
491.459	4.45
491.811	4.49
492.163	4.68
492.515	4.62
492.866	4.54
493.218	4.46
493.57	4.33
493.922	4.16
494.274	4.3
494.625	4.37
494.977	4.55
495.328	4.62
495.68	4.71
496.031	4.57
496.383	4.55
496.734	4.56
497.086	4.71
497.437	4.8
497.788	4.7
498.139	4.64
498.49	4.45
498.842	4.54
499.193	4.46
499.544	4.55
499.894	4.56
500.245	4.61
500.596	4.7
500.947	4.65
501.298	4.7
501.648	4.65
501.999	4.71
502.35	4.62
502.7	4.65
503.051	4.83
503.401	4.78
503.752	4.66
504.102	4.74
504.452	4.61
504.803	4.71
505.153	4.65
505.503	4.63
505.853	4.69
506.203	4.74
506.553	4.65
506.903	4.86
507.253	4.83
507.603	4.69
507.953	4.71
508.303	4.84
508.652	4.78
509.002	4.79
509.352	4.69
509.701	4.63
510.051	4.68
510.4	4.7
510.75	4.71
511.099	4.71
511.449	4.67
511.798	4.7
512.147	4.83
512.496	4.78
512.846	4.72
513.195	4.85
513.544	4.8
513.893	4.73
514.242	4.77
514.591	4.79
514.939	4.65
515.288	4.85
515.637	4.84
515.986	4.73
516.334	4.9
516.683	5
517.032	4.76
517.38	4.89
517.729	4.83
518.077	4.88
518.426	4.81
518.774	4.87
519.122	4.85
519.47	4.73
519.819	4.86
520.167	4.77
520.515	4.8
520.863	4.62
521.211	4.67
521.559	4.8
521.907	4.82
522.255	4.78
522.602	4.83
522.95	5
523.298	5.11
523.645	4.99
523.993	4.91
524.341	4.97
524.688	5.01
525.036	4.97
525.383	5.01
525.73	5.01
526.078	5.12
526.425	4.97
526.772	5.05
527.119	5.02
527.466	4.75
527.814	4.82
528.161	4.76
528.508	4.85
528.854	4.96
529.201	4.99
529.548	4.87
529.895	4.86
530.242	4.81
530.588	4.58
530.935	4.59
531.282	4.69
531.628	4.76
531.975	4.9
532.321	5.06
532.667	4.99
533.014	5.1
533.36	5.14
533.706	5.1
534.052	5.03
534.399	5.11
534.745	5.13
535.091	4.93
535.437	4.85
535.783	4.89
536.129	4.97
536.474	4.99
536.82	5.17
537.166	5.16
537.512	5.22
537.857	5.22
538.203	5.09
538.549	5.03
538.894	4.95
539.239	5
539.585	5.09
539.93	5.15
540.276	5.21
540.621	5.31
540.966	5.29
541.311	5.36
541.656	5.36
542.001	5.28
542.346	5.26
542.691	5.21
543.036	5.13
543.381	5.01
543.726	4.95
544.071	5.02
544.415	5.15
544.76	5.24
545.105	5.36
545.449	5.25
545.794	5.31
546.138	5.34
546.483	5.32
546.827	5.4
547.171	5.46
547.516	5.43
547.86	5.42
548.204	5.47
548.548	5.45
548.892	5.28
549.236	5.31
549.58	5.29
549.924	5.34
550.268	5.59
550.612	5.67
550.956	5.65
551.3	5.67
551.643	5.84
551.987	5.62
552.33	5.68
552.674	5.58
553.017	5.62
553.361	5.75
553.704	5.74
554.048	5.76
554.391	5.64
554.734	5.74
555.077	5.59
555.42	5.65
555.764	5.81
556.107	5.73
556.45	5.69
556.793	5.76
557.135	5.96
557.478	5.76
557.821	5.74
558.164	5.98
558.507	5.9
558.849	5.79
559.192	5.9
559.534	5.57
559.877	6.03
560.219	6.15
560.562	5.94
560.904	6.06
561.246	5.89
561.589	5.87
561.931	6.07
562.273	6.06
562.615	5.9
562.957	6.15
563.299	6.06
563.641	5.98
563.983	5.92
564.325	5.99
564.667	5.88
565.008	6.06
565.35	6.24
565.692	6.37
566.033	6.08
566.375	6.05
566.716	6.26
567.058	6.06
567.399	5.92
567.741	6.28
568.082	5.98
568.423	5.95
568.764	6.12
569.105	6.29
569.447	6.19
569.788	6.24
570.129	6.31
570.47	6.53
570.811	6.56
571.151	6.24
571.492	6.28
571.833	6.32
572.174	6.38
572.514	6.35
572.855	6.38
573.195	6.62
573.536	6.43
573.876	6.31
574.217	6.42
574.557	6.32
574.898	6.37
575.238	6.37
575.578	6.53
575.918	6.59
576.258	6.55
576.598	6.59
576.938	6.42
577.278	6.51
577.618	6.49
577.958	6.49
578.298	6.76
578.638	6.71
578.977	6.67
579.317	6.73
579.657	6.69
579.996	6.51
580.336	6.58
580.675	6.88
581.014	6.98
581.354	6.99
581.693	6.78
582.032	6.83
582.372	6.91
582.711	7.07
583.05	6.94
583.389	6.91
583.728	7.01
584.067	7.13
584.406	6.91
584.745	6.98
585.083	6.95
585.422	6.93
585.761	7.14
586.1	7.27
586.438	7.07
586.777	7.1
587.115	7.06
587.454	7.34
587.792	7.37
588.13	7.24
588.469	7.31
588.807	7.07
589.145	7.14
589.483	7.49
589.821	7.21
590.159	7.38
590.497	7.33
590.835	7.34
591.173	7.07
591.511	7.13
591.849	7.31
592.187	7.33
592.524	7.31
592.862	7.58
593.2	7.37
593.537	7.49
593.875	7.48
594.212	7.74
594.55	7.62
594.887	7.51
595.224	7.76
595.561	7.45
595.899	7.5
596.236	7.63
596.573	7.76
596.91	7.56
597.247	7.62
597.584	7.53
597.921	7.66
598.258	7.49
598.594	7.79
598.931	7.62
599.268	7.6
599.604	7.54
599.941	7.81
600.277	7.68
600.614	7.98
600.95	7.8
601.287	7.94
601.623	8.22
601.959	8.04
602.296	7.78
602.632	8.07
602.968	8.1
603.304	7.98
603.64	8.07
603.976	8.28
604.312	7.98
604.648	8.01
604.984	8.02
605.319	8.14
605.655	7.99
605.991	8.21
606.326	8.02
606.662	8.2
606.998	8.1
607.333	8
607.668	8.08
608.004	8.13
608.339	8.27
608.674	8.21
609.01	8.36
609.345	8.43
609.68	8.52
610.015	8.62
610.35	8.57
610.685	8.48
611.02	8.42
611.355	8.58
611.689	8.33
612.024	8.4
612.359	8.37
612.694	8.54
613.028	8.55
613.363	8.33
613.697	8.55
614.032	8.7
614.366	8.57
614.7	8.57
615.035	8.7
615.369	9.04
615.703	8.6
616.037	8.57
616.371	8.59
616.705	8.7
617.039	9.14
617.373	8.64
617.707	8.71
618.041	8.89
618.375	8.86
618.709	8.84
619.042	8.99
619.376	8.95
619.71	8.79
620.043	8.87
620.377	9.17
620.71	8.73
621.043	9.18
621.377	9.28
621.71	9.17
622.043	8.66
622.376	9.18
622.709	9.05
623.043	9.2
623.376	9.26
623.709	9.33
624.041	9.62
624.374	9.24
624.707	8.9
625.04	9.01
625.373	9.51
625.705	9.62
626.038	9.4
626.37	9.63
626.703	9.76
627.035	9.5
627.368	9.54
627.7	9.59
628.032	9.58
628.365	9.13
628.697	9.5
629.029	9.75
629.361	9.43
629.693	9.39
630.025	9.46
630.357	9.5
630.689	9.82
631.021	9.83
631.353	9.9
631.684	9.95
632.016	9.64
632.348	9.83
632.679	9.76
633.011	9.78
633.342	9.59
633.674	9.91
634.005	9.57
634.336	9.66
634.668	10
634.999	10.08
635.33	10.08
635.661	10.04
635.992	9.82
636.323	9.99
636.654	10.09
636.985	9.95
637.316	10.01
637.647	10.37
637.977	10.22
638.308	10.72
638.639	10.05
638.969	10.67
639.3	10.43
639.63	10.03
639.961	10.47
640.291	10.46
640.622	10.05
640.952	10.1
641.282	10.4
641.612	10.67
641.943	10.35
642.273	10.69
642.603	10.16
642.933	10.23
643.263	10.72
643.592	10.67
643.922	10.6
644.252	10.31
644.582	10.84
644.911	11
645.241	10.9
645.571	10.8
645.9	10.33
646.23	10.71
646.559	10.7
646.888	11.27
647.218	10.27
647.547	10.67
647.876	10.76
648.205	10.42
648.534	11.1
648.863	10.82
649.192	11.27
649.521	11.02
649.85	11.35
650.179	11.3
650.508	11.46
650.837	10.59
651.165	10.95
651.494	10.71
651.822	11.11
652.151	10.79
652.479	11.28
652.808	11
653.136	11.13
653.465	11.19
653.793	11.4
654.121	11.97
654.449	11.11
654.777	11.24
655.105	11.32
655.433	11.06
655.761	10.84
656.089	11.71
656.417	11.44
656.745	11.69
657.073	11.5
657.4	11.29
657.728	11.72
658.056	11.48
658.383	11.15
658.711	11.74
659.038	11.7
659.365	11.9
659.693	11.49
660.02	11.1
660.347	11.76
660.674	11.5
661.001	11.97
661.329	11.63
661.656	11.73
661.982	11.58
662.309	12.18
662.636	11.42
662.963	12.06
663.29	11.89
663.616	11.53
663.943	11.89
664.27	11.91
664.596	11.83
664.923	11.85
665.249	11.89
665.576	12
665.902	12.03
666.228	11.91
666.554	12.72
666.881	12.46
667.207	12.22
667.533	11.69
667.859	12.01
668.185	12.35
668.511	12.35
668.837	12.11
669.162	12.79
669.488	11.93
669.814	12.58
670.139	12.28
670.465	13.17
670.791	12.17
671.116	12.21
671.442	12.25
671.767	11.85
672.092	12.66
672.418	12.72
672.743	12.91
673.068	12.93
673.393	12.72
673.718	12.06
674.043	12.58
674.368	12.12
674.693	12.94
675.018	13.1
675.343	12.23
675.667	12.34
675.992	12.78
676.317	12.32
676.641	13.36
676.966	12.98
677.29	12.59
677.615	13.51
677.939	12.6
678.264	12.94
678.588	12.87
678.912	13.32
679.236	12.98
679.56	12.88
679.885	13.18
680.209	12.99
680.532	13.35
680.856	13.32
681.18	13.08
681.504	12.79
681.828	12.91
682.152	13.54
682.475	13.2
682.799	13.43
683.122	12.97
683.446	12.87
683.769	13.67
684.093	13.43
684.416	13.65
684.739	13.17
685.062	13.9
685.386	12.89
685.709	13.52
686.032	13.06
686.355	12.94
686.678	14.03
687.001	12.73
687.324	13.74
687.646	13.44
687.969	13.99
688.292	14.43
688.614	14.18
688.937	13.12
689.26	14.03
