Data from 0089_chest_Reflection__0__121.txt Node

Date: Mon Aug 28 19:42:45 CDT 2023
User: ToomeyLab
Spectrometer: FLMS14357
Trigger mode: 0
Integration Time (sec): 1.000000E-2
Scans to average: 100
Electric dark correction enabled: true
Nonlinearity correction enabled: false
Boxcar width: 0
XAxis mode: Wavelengths
Number of Pixels in Spectrum: 2048
>>>>>Begin Spectral Data<<<<<
189.047	-120.95
189.435	-120.95
189.823	-120.95
190.211	-8295.35
190.599	163.95
190.987	-29.11
191.375	-77.03
191.763	-7.2
192.151	153.57
192.538	69.15
192.926	164.61
193.314	697.29
193.702	-7.3
194.089	8.04
194.477	601.18
194.864	-432.01
195.252	-73.55
195.639	-383.76
196.027	99.57
196.414	548.54
196.801	110.57
197.189	87.67
197.576	-209.37
197.963	-72.82
198.351	-34.9
198.738	45.54
199.125	-6.14
199.512	33.53
199.899	-51.06
200.286	-8.22
200.673	-17.29
201.06	-34.49
201.447	-27.77
201.833	2.54
202.22	4.61
202.607	-1.32
202.994	8
203.38	29.21
203.767	16.89
204.154	-16.82
204.54	-27.49
204.927	-12.47
205.313	23.95
205.699	-35.2
206.086	17.02
206.472	1.82
206.858	-52.7
207.245	4.2
207.631	20.05
208.017	37.16
208.403	-3.78
208.789	-13.32
209.175	-22.29
209.561	-4.96
209.947	-17.41
210.333	8.33
210.719	19.93
211.105	19.06
211.491	-20.53
211.876	17.41
212.262	61.96
212.648	3.39
213.034	23.26
213.419	12.26
213.805	16.15
214.19	-4.34
214.576	6.4
214.961	-19.74
215.346	-22.53
215.732	9.51
216.117	-28.1
216.502	-20.55
216.888	-20.57
217.273	9.04
217.658	6.79
218.043	13.72
218.428	0.35
218.813	-25.09
219.198	-11.18
219.583	7.83
219.968	11.97
220.353	-15.22
220.738	-3.56
221.122	-1.33
221.507	-13.65
221.892	-4.79
222.276	-2.29
222.661	-9.83
223.046	4.09
223.43	5.73
223.815	8.14
224.199	-1.02
224.583	-7.5
224.968	0.71
225.352	11.16
225.736	1.86
226.121	2.88
226.505	8.32
226.889	0.48
227.273	7.9
227.657	4.48
228.041	6.68
228.425	8.79
228.809	4.13
229.193	2.46
229.577	3.75
229.961	0.5
230.344	3.38
230.728	2.38
231.112	1.82
231.495	2.12
231.879	1.38
232.263	2.4
232.646	0.74
233.03	3.74
233.413	6.05
233.797	3.03
234.18	1.24
234.563	3.03
234.946	4.21
235.33	2.95
235.713	2.55
236.096	4.45
236.479	1.63
236.862	4.03
237.245	3
237.628	3.59
238.011	1.5
238.394	4.53
238.777	5.65
239.16	1.83
239.543	-0.39
239.925	3.91
240.308	0.84
240.691	1.28
241.073	0.61
241.456	2.67
241.838	2.05
242.221	4.96
242.603	3.5
242.986	4.38
243.368	3.73
243.75	3.19
244.133	3.38
244.515	2.85
244.897	3.04
245.279	3.66
245.661	2.51
246.043	2.96
246.425	1.88
246.807	3.67
247.189	1.86
247.571	2.95
247.953	2.38
248.335	3.62
248.717	3.04
249.098	2.84
249.48	3.3
249.862	3.04
250.243	2.81
250.625	3.47
251.006	2.99
251.388	3.09
251.769	3.14
252.151	3.22
252.532	2.64
252.913	3.5
253.295	2.56
253.676	2.76
254.057	3.16
254.438	2.76
254.819	3.08
255.2	3.06
255.581	3.61
255.962	3.56
256.343	3.73
256.724	1.36
257.105	1.45
257.486	3.61
257.867	2.52
258.247	2.39
258.628	4.03
259.009	2.47
259.389	2.21
259.77	2.69
260.15	2.91
260.531	2.97
260.911	2.96
261.292	2.94
261.672	2.95
262.052	2.66
262.432	2.79
262.813	2.93
263.193	2.92
263.573	2.66
263.953	3.13
264.333	2.86
264.713	2.38
265.093	2.95
265.473	3.53
265.853	2.63
266.233	3.5
266.612	3.06
266.992	2.66
267.372	2.75
267.752	3.03
268.131	2.77
268.511	2.59
268.89	2.9
269.27	2.4
269.649	2.89
270.029	3.32
270.408	2.88
270.787	2.85
271.167	3.09
271.546	2.69
271.925	2.42
272.304	2.67
272.683	3.05
273.062	3.04
273.441	2.88
273.82	2.83
274.199	1.99
274.578	2.61
274.957	3.02
275.336	3.11
275.715	3.19
276.093	2.44
276.472	2.29
276.851	2.99
277.229	3.63
277.608	2.7
277.986	2.68
278.365	2.6
278.743	2.45
279.122	2.72
279.5	2.24
279.878	2.1
280.257	2.48
280.635	3.12
281.013	2.9
281.391	2.75
281.769	2.39
282.147	3.28
282.525	2.96
282.903	2.42
283.281	2.82
283.659	3.37
284.037	3.01
284.415	2.24
284.792	2.73
285.17	2.2
285.548	2.6
285.925	3.37
286.303	2.77
286.68	3.16
287.058	2.67
287.435	2.6
287.813	2.56
288.19	3
288.567	3.02
288.945	2.81
289.322	2.72
289.699	3.53
290.076	3.43
290.453	2.9
290.83	2.55
291.207	2.57
291.584	2.62
291.961	3.15
292.338	2.98
292.715	2.78
293.092	2.89
293.469	3.22
293.845	2.84
294.222	2.63
294.599	3.27
294.975	3.07
295.352	3
295.728	3.27
296.105	3.13
296.481	3.41
296.858	3.53
297.234	2.8
297.61	3.34
297.986	3.31
298.363	3.48
298.739	3.28
299.115	3.1
299.491	3.39
299.867	3.23
300.243	3.26
300.619	3.03
300.995	3.82
301.371	2.78
301.746	3.25
302.122	3
302.498	3.59
302.874	3.34
303.249	3.16
303.625	3.66
304	3.15
304.376	3.3
304.751	3.27
305.127	3.45
305.502	3.49
305.878	3.28
306.253	2.84
306.628	3.38
307.003	3.64
307.378	3.26
307.754	3.65
308.129	3.46
308.504	4.05
308.879	3.42
309.254	3.43
309.629	3.46
310.003	3.54
310.378	3.18
310.753	3.28
311.128	3.69
311.502	4.08
311.877	3.47
312.252	3.61
312.626	4.06
313.001	3.74
313.375	3.38
313.75	3.33
314.124	3.47
314.498	3.66
314.873	3.62
315.247	3.73
315.621	3.7
315.995	4.32
316.369	3.85
316.743	2.92
317.117	3.73
317.491	2.91
317.865	3.74
318.239	3.65
318.613	3.38
318.987	3.4
319.361	3.63
319.734	3.77
320.108	3.87
320.482	4.12
320.855	3.32
321.229	3.29
321.602	3.53
321.976	3.16
322.349	3.46
322.723	3.22
323.096	3.78
323.469	3.44
323.843	3.4
324.216	3.76
324.589	3.57
324.962	3.75
325.335	3.58
325.708	3.74
326.081	3.33
326.454	3.96
326.827	3.72
327.2	3.62
327.573	3.59
327.945	4.18
328.318	4.37
328.691	3.43
329.063	3.43
329.436	3.63
329.809	4.42
330.181	3.5
330.553	3.32
330.926	3.97
331.298	3.74
331.671	3.35
332.043	3.49
332.415	4.55
332.787	3.66
333.159	3.26
333.532	4.02
333.904	3.88
334.276	3.5
334.648	3.62
335.02	4.03
335.391	3.41
335.763	3.91
336.135	3.87
336.507	3.68
336.879	2.56
337.25	4.24
337.622	3.49
337.993	4.39
338.365	3.96
338.736	3.83
339.108	3.28
339.479	3.54
339.851	4.08
340.222	4.3
340.593	3.34
340.964	3.9
341.336	3.85
341.707	3.85
342.078	3.74
342.449	3.82
342.82	4.15
343.191	4.09
343.562	3.76
343.933	3.77
344.303	3.89
344.674	3.46
345.045	4
345.416	3.79
345.786	4.3
346.157	3.91
346.527	3.39
346.898	3.8
347.268	3.48
347.639	3.29
348.009	3.3
348.38	3.95
348.75	3.49
349.12	3.6
349.49	3.66
349.861	3.45
350.231	3.74
350.601	3.71
350.971	4.33
351.341	3.83
351.711	3.94
352.081	3.73
352.45	3.99
352.82	3.69
353.19	3.92
353.56	3.94
353.929	3.48
354.299	3.68
354.669	3.82
355.038	3.71
355.408	4.01
355.777	3.89
356.147	3.72
356.516	4.06
356.885	3.86
357.254	3.73
357.624	3.88
357.993	3.95
358.362	3.84
358.731	4.06
359.1	3.92
359.469	3.91
359.838	3.39
360.207	3.85
360.576	4.2
360.945	4.14
361.314	3.77
361.682	3.98
362.051	4.02
362.42	3.69
362.788	4.01
363.157	3.71
363.525	3.54
363.894	4.01
364.262	4.04
364.631	3.9
364.999	4.02
365.367	3.89
365.735	3.85
366.104	3.7
366.472	3.6
366.84	3.81
367.208	3.9
367.576	3.52
367.944	4.05
368.312	4.15
368.68	3.88
369.048	3.97
369.416	4.02
369.783	3.9
370.151	3.98
370.519	3.94
370.886	3.7
371.254	3.8
371.621	3.52
371.989	4
372.356	3.82
372.724	4.1
373.091	3.98
373.458	3.87
373.826	3.81
374.193	3.62
374.56	3.83
374.927	3.5
375.294	3.95
375.661	4.2
376.028	3.83
376.395	3.54
376.762	3.97
377.129	3.72
377.496	3.86
377.863	4.09
378.229	4
378.596	4.1
378.963	4.38
379.329	3.97
379.696	3.95
380.062	3.95
380.429	3.92
380.795	3.91
381.161	4.22
381.528	4.13
381.894	4.15
382.26	4.13
382.626	4.16
382.993	4.07
383.359	4.25
383.725	4.26
384.091	4.22
384.457	3.96
384.823	4.04
385.188	4.1
385.554	3.76
385.92	3.71
386.286	4.41
386.651	3.99
387.017	4.08
387.383	4.04
387.748	4.07
388.114	4.07
388.479	3.9
388.845	4.21
389.21	3.82
389.575	4.48
389.94	4.11
390.306	4.22
390.671	3.9
391.036	4.02
391.401	4.26
391.766	4.45
392.131	4.17
392.496	3.96
392.861	4.14
393.226	4.33
393.591	4.06
393.956	4.04
394.32	3.97
394.685	4.19
395.05	4.17
395.414	4.02
395.779	4.3
396.143	4.19
396.508	3.98
396.872	4.26
397.236	4.07
397.601	4.04
397.965	4.41
398.329	4.15
398.694	4.27
399.058	4.07
399.422	4.39
399.786	4.2
400.15	4.41
400.514	4.27
400.878	4.05
401.242	4.27
401.605	4.33
401.969	4.17
402.333	4.05
402.697	4.44
403.06	4.11
403.424	4.44
403.787	4.07
404.151	4.25
404.514	4.35
404.878	4.28
405.241	4.33
405.604	4.41
405.968	3.96
406.331	4.41
406.694	4.24
407.057	4.22
407.42	4.46
407.783	4.22
408.146	4.2
408.509	4.47
408.872	4.31
409.235	4.41
409.598	4.43
409.961	4.21
410.323	4.55
410.686	4.46
411.049	4.5
411.411	4.33
411.774	4.29
412.136	4.31
412.499	4.39
412.861	4.41
413.223	4.2
413.586	4.31
413.948	4.53
414.31	4.42
414.672	4.16
415.035	4.33
415.397	4.3
415.759	4.26
416.121	4.5
416.483	4.39
416.845	4.36
417.206	4.44
417.568	4.47
417.93	4.36
418.292	4.38
418.653	4.25
419.015	4.38
419.377	4.07
419.738	4.67
420.1	4.39
420.461	4.38
420.822	4.26
421.184	4.5
421.545	4.46
421.906	4.47
422.267	4.46
422.629	4.39
422.99	4.32
423.351	4.35
423.712	4.33
424.073	4.26
424.434	4.46
424.795	4.36
425.155	4.28
425.516	4.34
425.877	4.29
426.238	4.24
426.598	4.31
426.959	4.43
427.32	4.22
427.68	4.46
428.041	4.47
428.401	4.51
428.761	4.4
429.122	4.4
429.482	4.54
429.842	4.71
430.202	4.37
430.563	4.58
430.923	4.69
431.283	4.57
431.643	4.51
432.003	4.36
432.363	4.72
432.722	4.39
433.082	4.54
433.442	4.54
433.802	4.55
434.161	4.54
434.521	4.43
434.881	4.48
435.24	4.56
435.6	4.57
435.959	4.62
436.319	4.69
436.678	4.49
437.037	4.58
437.396	4.7
437.756	4.55
438.115	4.64
438.474	4.72
438.833	4.73
439.192	4.81
439.551	4.63
439.91	4.74
440.269	4.65
440.628	4.59
440.987	4.62
441.345	4.47
441.704	4.76
442.063	4.45
442.421	4.64
442.78	4.69
443.138	4.57
443.497	4.63
443.855	4.61
444.214	4.69
444.572	4.65
444.93	4.69
445.288	4.7
445.647	4.81
446.005	4.81
446.363	4.79
446.721	4.82
447.079	4.75
447.437	4.66
447.795	4.61
448.153	4.71
448.51	4.57
448.868	4.68
449.226	4.64
449.584	4.65
449.941	4.68
450.299	4.77
450.656	4.63
451.014	4.7
451.371	4.77
451.729	4.7
452.086	4.9
452.443	5.02
452.801	4.9
453.158	4.83
453.515	4.83
453.872	4.95
454.229	4.96
454.586	5.01
454.943	4.93
455.3	4.9
455.657	4.85
456.014	4.93
456.371	4.87
456.727	4.98
457.084	4.84
457.441	4.97
457.797	4.82
458.154	4.96
458.51	5.08
458.867	4.95
459.223	4.81
459.58	4.73
459.936	4.92
460.292	4.94
460.648	4.81
461.005	4.78
461.361	4.84
461.717	4.87
462.073	4.84
462.429	4.73
462.785	4.86
463.141	4.91
463.496	5.03
463.852	5.02
464.208	5.02
464.564	5.02
464.919	5.14
465.275	5.03
465.631	4.87
465.986	5.16
466.342	5.08
466.697	4.9
467.052	5.01
467.408	5.08
467.763	4.95
468.118	4.95
468.473	5.01
468.829	5.09
469.184	4.94
469.539	5.14
469.894	4.97
470.249	5.06
470.603	5.02
470.958	5.04
471.313	5.21
471.668	4.92
472.023	5.03
472.377	5.13
472.732	5.15
473.086	5.28
473.441	5.14
473.795	5.2
474.15	5.21
474.504	5.23
474.859	5.02
475.213	5.21
475.567	5.12
475.921	5.37
476.275	5.21
476.63	5.28
476.984	5.33
477.338	5.39
477.692	5.23
478.045	5.3
478.399	5.41
478.753	5.16
479.107	5.17
479.461	5.14
479.814	5.37
480.168	5.34
480.521	5.39
480.875	5.32
481.228	5.18
481.582	5.35
481.935	5.2
482.289	5.28
482.642	5.38
482.995	5.45
483.348	5.33
483.701	5.29
484.055	5.17
484.408	5.16
484.761	5.24
485.114	5.21
485.466	5.13
485.819	4.96
486.172	4.9
486.525	4.91
486.878	4.99
487.23	5.08
487.583	5.18
487.936	5.22
488.288	5.24
488.641	5.24
488.993	5.23
489.345	5.16
489.698	5.17
490.05	5.11
490.402	5.14
490.754	5.19
491.107	5.21
491.459	5.28
491.811	5.42
492.163	5.41
492.515	5.45
492.866	5.42
493.218	5.37
493.57	5.29
493.922	5.14
494.274	5.22
494.625	5.24
494.977	5.41
495.328	5.5
495.68	5.45
496.031	5.5
496.383	5.5
496.734	5.5
497.086	5.64
497.437	5.64
497.788	5.63
498.139	5.54
498.49	5.59
498.842	5.64
499.193	5.52
499.544	5.52
499.894	5.57
500.245	5.56
500.596	5.53
500.947	5.57
501.298	5.66
501.648	5.6
501.999	5.72
502.35	5.69
502.7	5.76
503.051	5.65
503.401	5.7
503.752	5.67
504.102	5.66
504.452	5.77
504.803	5.74
505.153	5.66
505.503	5.68
505.853	5.86
506.203	5.68
506.553	5.8
506.903	5.89
507.253	5.84
507.603	5.69
507.953	5.93
508.303	6
508.652	5.97
509.002	6.04
509.352	5.62
509.701	5.78
510.051	5.88
510.4	5.71
510.75	5.79
511.099	5.89
511.449	5.81
511.798	5.88
512.147	5.78
512.496	5.98
512.846	5.82
513.195	5.91
513.544	5.98
513.893	5.87
514.242	5.99
514.591	5.99
514.939	5.81
515.288	5.93
515.637	6.01
515.986	5.97
516.334	6.07
516.683	6.04
517.032	5.98
517.38	6.08
517.729	6.07
518.077	5.99
518.426	6.04
518.774	6.17
519.122	6.16
519.47	6.02
519.819	6.05
520.167	5.97
520.515	6
520.863	5.84
521.211	5.97
521.559	6.06
521.907	6
522.255	5.97
522.602	6.07
522.95	6.13
523.298	6.2
523.645	6.28
523.993	6.18
524.341	6.26
524.688	6.25
525.036	6.3
525.383	6.34
525.73	6.3
526.078	6.29
526.425	6.41
526.772	6.25
527.119	6.29
527.466	6.2
527.814	6.08
528.161	6.08
528.508	6.21
528.854	6.23
529.201	6.38
529.548	6.18
529.895	6.36
530.242	6.15
530.588	5.98
530.935	5.9
531.282	5.98
531.628	6.05
531.975	6.17
532.321	6.21
532.667	6.27
533.014	6.34
533.36	6.42
533.706	6.35
534.052	6.36
534.399	6.42
534.745	6.55
535.091	6.31
535.437	6.28
535.783	6.24
536.129	6.3
536.474	6.36
536.82	6.45
537.166	6.53
537.512	6.57
537.857	6.63
538.203	6.55
538.549	6.49
538.894	6.44
539.239	6.45
539.585	6.54
539.93	6.6
540.276	6.61
540.621	6.74
540.966	6.65
541.311	6.87
541.656	6.8
542.001	6.79
542.346	6.85
542.691	6.71
543.036	6.62
543.381	6.46
543.726	6.45
544.071	6.52
544.415	6.52
544.76	6.65
545.105	6.72
545.449	6.64
545.794	6.81
546.138	6.78
546.483	6.81
546.827	6.86
547.171	6.89
547.516	6.84
547.86	6.99
548.204	7
548.548	6.98
548.892	6.85
549.236	6.81
549.58	6.99
549.924	6.89
550.268	7.07
550.612	7.1
550.956	7.22
551.3	7.22
551.643	7.29
551.987	7.19
552.33	7.23
552.674	7.36
553.017	7.24
553.361	7.33
553.704	7.13
554.048	7.41
554.391	7.33
554.734	7.4
555.077	7.24
555.42	7.21
555.764	7.35
556.107	7.21
556.45	7.28
556.793	7.43
557.135	7.53
557.478	7.52
557.821	7.52
558.164	7.59
558.507	7.41
558.849	7.61
559.192	7.37
559.534	7.46
559.877	7.59
560.219	7.73
560.562	7.61
560.904	7.71
561.246	7.54
561.589	7.59
561.931	7.71
562.273	7.5
562.615	7.71
562.957	7.8
563.299	7.76
563.641	7.54
563.983	7.72
564.325	7.72
564.667	7.66
565.008	7.56
565.35	7.91
565.692	7.91
566.033	7.7
566.375	7.73
566.716	7.76
567.058	7.84
567.399	7.75
567.741	7.88
568.082	7.79
568.423	7.73
568.764	7.71
569.105	7.88
569.447	7.83
569.788	7.81
570.129	7.89
570.47	8.04
570.811	8.17
571.151	7.82
571.492	8.06
571.833	8
572.174	8.07
572.514	8.07
572.855	7.98
573.195	8.18
573.536	8.18
573.876	8.01
574.217	7.95
574.557	8.12
574.898	8.13
575.238	8.1
575.578	8.06
575.918	8.25
576.258	8.25
576.598	8.22
576.938	8.18
577.278	8.19
577.618	8.15
577.958	8.2
578.298	8.34
578.638	8.27
578.977	8.35
579.317	8.24
579.657	8.42
579.996	8.38
580.336	8.4
580.675	8.49
581.014	8.89
581.354	8.66
581.693	8.48
582.032	8.78
582.372	8.47
582.711	8.62
583.05	8.53
583.389	8.72
583.728	8.65
584.067	8.81
584.406	8.68
584.745	8.61
585.083	8.8
585.422	8.71
585.761	8.7
586.1	8.78
586.438	8.77
586.777	8.78
587.115	8.89
587.454	8.88
587.792	8.86
588.13	8.97
588.469	8.82
588.807	8.75
589.145	9.02
589.483	9.09
589.821	9.06
590.159	9.14
590.497	9.08
590.835	8.99
591.173	8.75
591.511	9.09
591.849	8.83
592.187	9.21
592.524	8.93
592.862	9.12
593.2	9.08
593.537	8.93
593.875	9.34
594.212	9.43
594.55	9.27
594.887	9.19
595.224	9.45
595.561	9.43
595.899	9.13
596.236	9.28
596.573	9.27
596.91	9.19
597.247	9.36
597.584	9.29
597.921	9.23
598.258	9.29
598.594	9.32
598.931	9.27
599.268	9.43
599.604	9.34
599.941	9.43
600.277	9.4
600.614	9.65
600.95	9.38
601.287	9.48
601.623	9.49
601.959	9.57
602.296	9.37
602.632	9.83
602.968	9.52
603.304	9.63
603.64	9.5
603.976	9.63
604.312	9.79
604.648	9.56
604.984	9.53
605.319	9.56
605.655	9.64
605.991	9.8
606.326	9.66
606.662	9.62
606.998	9.51
607.333	9.56
607.668	9.48
608.004	9.66
608.339	9.77
608.674	9.6
609.01	10.1
609.345	10.09
609.68	9.94
610.015	9.98
610.35	10.37
610.685	10.04
611.02	9.98
611.355	10
611.689	9.86
612.024	9.98
612.359	9.95
612.694	10.06
613.028	9.86
613.363	9.98
613.697	9.93
614.032	10.16
614.366	10.11
614.7	10.23
615.035	10.08
615.369	10.28
615.703	10.2
616.037	10.17
616.371	10.16
616.705	10.14
617.039	10.23
617.373	10.27
617.707	10.23
618.041	10.33
618.375	10.51
618.709	10.39
619.042	10.73
619.376	10.37
619.71	10.22
620.043	10.59
620.377	10.77
620.71	10.2
621.043	10.55
621.377	10.49
621.71	10.72
622.043	10.07
622.376	10.39
622.709	10.58
623.043	10.77
623.376	10.83
623.709	10.53
624.041	10.73
624.374	10.42
624.707	10.27
625.04	10.66
625.373	10.83
625.705	10.78
626.038	10.89
626.37	10.7
626.703	10.75
627.035	10.84
627.368	10.92
627.7	11.09
628.032	11
628.365	10.75
628.697	10.85
629.029	10.57
629.361	10.8
629.693	11
630.025	10.75
630.357	10.66
630.689	10.95
631.021	11.12
631.353	11.01
631.684	11.35
632.016	11.12
632.348	11.15
632.679	11.25
633.011	11.06
633.342	11.02
633.674	11.04
634.005	10.96
634.336	10.61
634.668	11.13
634.999	11.38
635.33	10.97
635.661	11.52
635.992	10.9
636.323	11.43
636.654	11.15
636.985	11.33
637.316	11.15
637.647	11.24
637.977	11.12
638.308	11.55
638.639	11.36
638.969	11.51
639.3	11.1
639.63	11.11
639.961	11.46
640.291	11.38
640.622	11.4
640.952	11.43
641.282	11.83
641.612	11.79
641.943	11.39
642.273	11.88
642.603	11.33
642.933	11.53
643.263	11.78
643.592	11.56
643.922	11.9
644.252	11.45
644.582	11.73
644.911	11.81
645.241	11.8
645.571	11.42
645.9	11.42
646.23	11.72
646.559	12.04
646.888	12.09
647.218	11.74
647.547	11.99
647.876	12.15
648.205	11.79
648.534	12.2
648.863	11.73
649.192	12.07
649.521	12.24
649.85	12.14
650.179	11.97
650.508	11.86
650.837	11.95
651.165	11.86
651.494	11.91
651.822	12.14
652.151	12.14
652.479	11.86
652.808	12.22
653.136	11.91
653.465	11.89
653.793	12.14
654.121	12.23
654.449	12.12
654.777	11.74
655.105	12.26
655.433	11.87
655.761	12.09
656.089	12.67
656.417	12.06
656.745	12.42
657.073	12.1
657.4	12.61
657.728	12.94
658.056	12.63
658.383	12.49
658.711	12.86
659.038	12.68
659.365	12.54
659.693	11.88
660.02	12.69
660.347	12.51
660.674	12
661.001	12.76
661.329	12.24
661.656	12.41
661.982	12.23
662.309	12.39
662.636	12.1
662.963	12.46
663.29	12.91
663.616	12.54
663.943	12.69
664.27	13.09
664.596	12.55
664.923	13.01
665.249	12.8
665.576	12.86
665.902	12.42
666.228	12.61
666.554	12.45
666.881	12.74
667.207	12.43
667.533	12.44
667.859	11.66
668.185	12.46
668.511	13.09
668.837	12.25
669.162	13.18
669.488	12.99
669.814	13.38
670.139	12.86
670.465	13.35
670.791	13.05
671.116	13.03
671.442	13.5
671.767	12.67
672.092	13.05
672.418	12.68
672.743	13.54
673.068	12.95
673.393	12.89
673.718	12.44
674.043	13.19
674.368	12.99
674.693	13.13
675.018	13.57
675.343	13.22
675.667	13.72
675.992	13.33
676.317	12.66
676.641	13.46
676.966	13.29
677.29	13.01
677.615	13.74
677.939	13.48
678.264	13.49
678.588	13.7
678.912	14.01
679.236	13.17
679.56	13.23
679.885	13.36
680.209	12.83
680.532	13.45
680.856	13.3
681.18	13.52
681.504	12.79
681.828	13.37
682.152	13.67
682.475	13.44
682.799	13.63
683.122	13.42
683.446	13.4
683.769	14.3
684.093	13.49
684.416	13.67
684.739	13.68
685.062	13.99
685.386	13.86
685.709	13.57
686.032	13.35
686.355	13.05
686.678	14.06
687.001	13.48
687.324	13.61
