Data from 0089_crown_Reflection__3__134.txt Node

Date: Mon Aug 28 19:51:48 CDT 2023
User: ToomeyLab
Spectrometer: FLMS14357
Trigger mode: 0
Integration Time (sec): 1.000000E-2
Scans to average: 100
Electric dark correction enabled: true
Nonlinearity correction enabled: false
Boxcar width: 0
XAxis mode: Wavelengths
Number of Pixels in Spectrum: 2048
>>>>>Begin Spectral Data<<<<<
189.047	-53.97
189.435	-53.97
189.823	-53.97
190.211	-5672.09
190.599	186.78
190.987	387.97
191.375	-6.72
191.763	69.3
192.151	-7.58
192.538	24.24
192.926	35.58
193.314	-207.45
193.702	41.4
194.089	5.43
194.477	27.06
194.864	23.4
195.252	43.96
195.639	-2141.03
196.027	134.06
196.414	361.54
196.801	226.57
197.189	26.32
197.576	426.32
197.963	-32.21
198.351	13.34
198.738	14.42
199.125	23.85
199.512	-35.33
199.899	-50.52
200.286	-103.2
200.673	19.66
201.06	-1.01
201.447	-72.05
201.833	-34.6
202.22	15.74
202.607	-23.92
202.994	42.98
203.38	-32.42
203.767	25.52
204.154	-3.54
204.54	-43.33
204.927	12.67
205.313	34.55
205.699	-14.63
206.086	17.2
206.472	9.51
206.858	-24.11
207.245	15.63
207.631	55.88
208.017	-26.39
208.403	16.45
208.789	-25.9
209.175	-77.32
209.561	-10.95
209.947	-9.27
210.333	-1.03
210.719	0.04
211.105	11.33
211.491	-17.13
211.876	3.56
212.262	25.42
212.648	13.34
213.034	53.3
213.419	-1.53
213.805	22.48
214.19	-19.65
214.576	0.04
214.961	19.64
215.346	-22.47
215.732	20.64
216.117	-18.28
216.502	-27.29
216.888	-47.85
217.273	-12.27
217.658	25.44
218.043	3.3
218.428	2.96
218.813	-17.79
219.198	34.96
219.583	-15.8
219.968	9.54
220.353	-10.2
220.738	16.91
221.122	17.95
221.507	21.9
221.892	13.79
222.276	2.89
222.661	-2.6
223.046	4.86
223.43	-11.59
223.815	11.61
224.199	11.11
224.583	2.96
224.968	10.96
225.352	9.75
225.736	10.88
226.121	8.43
226.505	2.22
226.889	9.64
227.273	13.21
227.657	5.85
228.041	9.97
228.425	6.86
228.809	5.46
229.193	6.95
229.577	9.71
229.961	7.44
230.344	8.35
230.728	7.09
231.112	6.64
231.495	7.02
231.879	6.43
232.263	6.25
232.646	4.88
233.03	6.76
233.413	7.23
233.797	6.63
234.18	6.09
234.563	5.57
234.946	9.49
235.33	6.66
235.713	5.09
236.096	7.52
236.479	5.48
236.862	7.3
237.245	6.39
237.628	5.8
238.011	7.7
238.394	6.88
238.777	8.2
239.16	6.42
239.543	6.02
239.925	6.48
240.308	6.66
240.691	7.22
241.073	4.6
241.456	5.51
241.838	5.86
242.221	8.9
242.603	7.74
242.986	7.5
243.368	6.84
243.75	6.84
244.133	6.92
244.515	7.12
244.897	7.34
245.279	7.12
245.661	6.87
246.043	6.86
246.425	6.3
246.807	7.67
247.189	6.32
247.571	7.03
247.953	6.55
248.335	6.71
248.717	6.8
249.098	7
249.48	6.84
249.862	6.78
250.243	6.6
250.625	6.93
251.006	6.73
251.388	6.77
251.769	7.13
252.151	5.82
252.532	6.01
252.913	6.5
253.295	6.04
253.676	7
254.057	6.93
254.438	5.88
254.819	5.84
255.2	6.51
255.581	6.39
255.962	7.24
256.343	7.69
256.724	5.31
257.105	5.49
257.486	6.41
257.867	6.06
258.247	5.97
258.628	6.94
259.009	5.06
259.389	5.92
259.77	6.21
260.15	6.02
260.531	5.47
260.911	6.24
261.292	6.39
261.672	6.36
262.052	6.1
262.432	6.08
262.813	6.33
263.193	6
263.573	5.68
263.953	5.76
264.333	5.78
264.713	5.74
265.093	6.1
265.473	6.54
265.853	5.51
266.233	5.52
266.612	6.61
266.992	5.36
267.372	5.71
267.752	6.34
268.131	6.5
268.511	5.87
268.89	6.26
269.27	5.43
269.649	5.98
270.029	6.21
270.408	6.14
270.787	5.73
271.167	5.68
271.546	5.54
271.925	6.03
272.304	5.65
272.683	6.61
273.062	5.49
273.441	5.76
273.82	5.21
274.199	5.32
274.578	5.4
274.957	5.78
275.336	5.84
275.715	6.42
276.093	5.62
276.472	4.94
276.851	5.27
277.229	6.04
277.608	5.81
277.986	5.68
278.365	5.84
278.743	5.64
279.122	5.87
279.5	5.2
279.878	5
280.257	5.5
280.635	5.71
281.013	6
281.391	5.42
281.769	5.89
282.147	6.14
282.525	6
282.903	5.79
283.281	5.65
283.659	5.64
284.037	5.7
284.415	5.86
284.792	5.68
285.17	5.16
285.548	5.57
285.925	5.41
286.303	5.3
286.68	5.7
287.058	5.46
287.435	5.2
287.813	5.26
288.19	5.62
288.567	5.51
288.945	5.59
289.322	5.35
289.699	5.67
290.076	5.7
290.453	5.75
290.83	5.08
291.207	5.16
291.584	5.03
291.961	5.46
292.338	5.12
292.715	4.97
293.092	5.15
293.469	5.09
293.845	4.87
294.222	4.94
294.599	5.06
294.975	4.86
295.352	4.63
295.728	4.86
296.105	4.94
296.481	5.16
296.858	5.15
297.234	5.6
297.61	5.02
297.986	5.01
298.363	4.85
298.739	5.07
299.115	4.48
299.491	5.18
299.867	4.91
300.243	5.36
300.619	4.82
300.995	5.61
301.371	4.41
301.746	5.18
302.122	4.63
302.498	5
302.874	5.2
303.249	4.51
303.625	4.89
304	4.92
304.376	4.77
304.751	4.83
305.127	4.58
305.502	5.02
305.878	4.93
306.253	4.98
306.628	4.98
307.003	4.45
307.378	5.04
307.754	4.69
308.129	4.52
308.504	5.19
308.879	5.38
309.254	4.76
309.629	4.48
310.003	4.84
310.378	4.13
310.753	4.22
311.128	4.98
311.502	4.88
311.877	4.67
312.252	5.13
312.626	4.8
313.001	4.68
313.375	4.88
313.75	4.92
314.124	4.64
314.498	4.81
314.873	5.13
315.247	4.7
315.621	4.31
315.995	4.63
316.369	4.64
316.743	4.46
317.117	4.49
317.491	4.36
317.865	4.73
318.239	4.37
318.613	5.11
318.987	4.38
319.361	4.87
319.734	4.35
320.108	4.91
320.482	4.45
320.855	4.04
321.229	4.15
321.602	4.32
321.976	4.05
322.349	4.78
322.723	4
323.096	4.82
323.469	4.49
323.843	4.41
324.216	4.5
324.589	4.52
324.962	4.41
325.335	4.1
325.708	4.08
326.081	4.53
326.454	4.26
326.827	4.28
327.2	4.32
327.573	4.31
327.945	4.54
328.318	4.67
328.691	4.1
329.063	3.94
329.436	4.36
329.809	4.37
330.181	4.01
330.553	4.14
330.926	4.29
331.298	4.45
331.671	3.6
332.043	4.25
332.415	4.85
332.787	4.39
333.159	4.35
333.532	5.09
333.904	4.39
334.276	4.37
334.648	4.17
335.02	4.85
335.391	4.74
335.763	4.1
336.135	4.85
336.507	4.4
336.879	3.72
337.25	4.3
337.622	4.09
337.993	4.07
338.365	4.4
338.736	4.51
339.108	3.34
339.479	3.96
339.851	4.14
340.222	4.55
340.593	4.03
340.964	4.43
341.336	4.13
341.707	4.43
342.078	4.08
342.449	4.42
342.82	4.55
343.191	4.11
343.562	4.36
343.933	3.74
344.303	4.31
344.674	4.27
345.045	4.5
345.416	4.24
345.786	4.37
346.157	4.4
346.527	3.82
346.898	4.23
347.268	4.43
347.639	4.19
348.009	4.13
348.38	4.31
348.75	4.34
349.12	4.27
349.49	4.15
349.861	3.74
350.231	3.92
350.601	4.73
350.971	4.33
351.341	4.56
351.711	4.09
352.081	4.09
352.45	4.38
352.82	4.21
353.19	4.8
353.56	4.37
353.929	4.03
354.299	3.99
354.669	4.62
355.038	4.13
355.408	4.57
355.777	4.1
356.147	4.08
356.516	4.58
356.885	4.66
357.254	4.11
357.624	4.34
357.993	4.48
358.362	4.08
358.731	4.44
359.1	4.42
359.469	4.44
359.838	4.18
360.207	4.18
360.576	4.73
360.945	4.33
361.314	4.26
361.682	4.04
362.051	4.54
362.42	4.12
362.788	4.66
363.157	4.55
363.525	4.15
363.894	4.57
364.262	4.4
364.631	4.26
364.999	4.4
365.367	4.26
365.735	4.4
366.104	4.24
366.472	4.35
366.84	4.35
367.208	4.48
367.576	4.32
367.944	4.79
368.312	4.6
368.68	4.4
369.048	4.49
369.416	4.38
369.783	4.33
370.151	4.53
370.519	4.57
370.886	4.39
371.254	4.06
371.621	4.22
371.989	4.26
372.356	4.1
372.724	5.03
373.091	4.72
373.458	4.38
373.826	4.48
374.193	4.48
374.56	4.61
374.927	4.36
375.294	4.85
375.661	4.64
376.028	4.31
376.395	4.25
376.762	4.75
377.129	4.46
377.496	4.35
377.863	4.62
378.229	4.6
378.596	4.56
378.963	4.48
379.329	4.47
379.696	4.52
380.062	4.56
380.429	4.32
380.795	4.55
381.161	4.66
381.528	4.88
381.894	4.48
382.26	4.66
382.626	4.8
382.993	4.76
383.359	4.66
383.725	4.59
384.091	4.35
384.457	4.41
384.823	4.53
385.188	4.68
385.554	4.51
385.92	4.45
386.286	4.85
386.651	4.62
387.017	4.96
387.383	4.82
387.748	4.71
388.114	4.54
388.479	4.53
388.845	4.61
389.21	4.55
389.575	4.79
389.94	4.63
390.306	5.01
390.671	4.65
391.036	4.54
391.401	5.03
391.766	4.71
392.131	4.59
392.496	4.64
392.861	4.55
393.226	4.85
393.591	4.51
393.956	4.69
394.32	4.8
394.685	4.88
395.05	4.68
395.414	4.76
395.779	4.77
396.143	4.69
396.508	4.55
396.872	4.86
397.236	4.82
397.601	4.43
397.965	4.78
398.329	4.98
398.694	5.07
399.058	4.73
399.422	4.91
399.786	4.83
400.15	4.89
400.514	4.8
400.878	4.58
401.242	4.88
401.605	4.92
401.969	4.6
402.333	4.82
402.697	4.77
403.06	4.72
403.424	4.97
403.787	4.76
404.151	4.73
404.514	4.9
404.878	4.86
405.241	5
405.604	5.01
405.968	4.72
406.331	4.92
406.694	4.99
407.057	4.83
407.42	4.83
407.783	4.91
408.146	4.75
408.509	4.98
408.872	4.89
409.235	5.1
409.598	4.82
409.961	4.78
410.323	5.18
410.686	4.99
411.049	5.12
411.411	5.04
411.774	5.02
412.136	4.74
412.499	4.87
412.861	4.98
413.223	4.89
413.586	4.83
413.948	4.94
414.31	5.14
414.672	4.94
415.035	5.11
415.397	4.88
415.759	4.99
416.121	5.1
416.483	4.89
416.845	5.08
417.206	5.3
417.568	5.1
417.93	5.03
418.292	5.14
418.653	5.08
419.015	5.08
419.377	4.77
419.738	5.17
420.1	4.97
420.461	5.06
420.822	5.01
421.184	5.06
421.545	5.03
421.906	4.97
422.267	5.04
422.629	4.92
422.99	4.95
423.351	4.98
423.712	4.94
424.073	4.91
424.434	5.05
424.795	4.94
425.155	4.98
425.516	4.94
425.877	4.98
426.238	4.89
426.598	4.88
426.959	4.91
427.32	4.91
427.68	4.96
428.041	4.9
428.401	5.04
428.761	4.98
429.122	5.01
429.482	5
429.842	5.17
430.202	5.11
430.563	5.11
430.923	5.34
431.283	5.12
431.643	4.95
432.003	5.06
432.363	5.11
432.722	5.11
433.082	5.08
433.442	5.11
433.802	5.16
434.161	5.34
434.521	5.07
434.881	5.16
435.24	5.18
435.6	5.2
435.959	5.15
436.319	5.05
436.678	5.08
437.037	5.12
437.396	5.3
437.756	5.16
438.115	5.19
438.474	5.31
438.833	5.23
439.192	5.23
439.551	5.15
439.91	5.17
440.269	5.13
440.628	5.26
440.987	5.28
441.345	5.04
441.704	5.11
442.063	5.12
442.421	5.2
442.78	5.21
443.138	5.11
443.497	5.2
443.855	5.15
444.214	5.24
444.572	5.2
444.93	5.17
445.288	5.09
445.647	5.25
446.005	5.5
446.363	5.24
446.721	5.23
447.079	5.32
447.437	5.2
447.795	4.98
448.153	5.17
448.51	5.13
448.868	5.14
449.226	5.15
449.584	5.11
449.941	5.12
450.299	5.25
450.656	5.16
451.014	5.2
451.371	5.13
451.729	5.14
452.086	5.16
452.443	5.4
452.801	5.41
453.158	5.29
453.515	5.45
453.872	5.24
454.229	5.26
454.586	5.43
454.943	5.25
455.3	5.17
455.657	5.31
456.014	5.3
456.371	5.15
456.727	5.24
457.084	5.27
457.441	5.33
457.797	5.32
458.154	5.28
458.51	5.43
458.867	5.3
459.223	5.43
459.58	5.29
459.936	5.4
460.292	5.4
460.648	5.27
461.005	5.34
461.361	5.28
461.717	5.3
462.073	5.26
462.429	5.12
462.785	5.18
463.141	5.2
463.496	5.35
463.852	5.35
464.208	5.35
464.564	5.47
464.919	5.42
465.275	5.42
465.631	5.18
465.986	5.56
466.342	5.5
466.697	5.23
467.052	5.35
467.408	5.38
467.763	5.38
468.118	5.31
468.473	5.25
468.829	5.42
469.184	5.15
469.539	5.37
469.894	5.34
470.249	5.37
470.603	5.39
470.958	5.18
471.313	5.35
471.668	5.3
472.023	5.39
472.377	5.31
472.732	5.42
473.086	5.28
473.441	5.43
473.795	5.35
474.15	5.56
474.504	5.49
474.859	5.35
475.213	5.42
475.567	5.53
475.921	5.63
476.275	5.44
476.63	5.67
476.984	5.43
477.338	5.5
477.692	5.25
478.045	5.48
478.399	5.41
478.753	5.35
479.107	5.2
479.461	5.43
479.814	5.57
480.168	5.45
480.521	5.33
480.875	5.34
481.228	5.37
481.582	5.34
481.935	5.32
482.289	5.5
482.642	5.45
482.995	5.44
483.348	5.39
483.701	5.38
484.055	5.31
484.408	5.26
484.761	5.35
485.114	5.27
485.466	5.28
485.819	5.17
486.172	5.05
486.525	5.05
486.878	5.07
487.23	5.06
487.583	5.2
487.936	5.19
488.288	5.26
488.641	5.32
488.993	5.38
489.345	5.22
489.698	5.19
490.05	5.12
490.402	5.18
490.754	5.19
491.107	5.2
491.459	5.17
491.811	5.26
492.163	5.41
492.515	5.37
492.866	5.46
493.218	5.28
493.57	5.32
493.922	5.15
494.274	5.2
494.625	5.13
494.977	5.28
495.328	5.32
495.68	5.42
496.031	5.38
496.383	5.44
496.734	5.38
497.086	5.59
497.437	5.66
497.788	5.43
498.139	5.54
498.49	5.36
498.842	5.47
499.193	5.33
499.544	5.39
499.894	5.41
500.245	5.38
500.596	5.41
500.947	5.47
501.298	5.55
501.648	5.37
501.999	5.45
502.35	5.61
502.7	5.38
503.051	5.5
503.401	5.55
503.752	5.42
504.102	5.5
504.452	5.57
504.803	5.52
505.153	5.38
505.503	5.46
505.853	5.47
506.203	5.66
506.553	5.46
506.903	5.62
507.253	5.48
507.603	5.54
507.953	5.54
508.303	5.71
508.652	5.61
509.002	5.65
509.352	5.49
509.701	5.51
510.051	5.56
510.4	5.39
510.75	5.48
511.099	5.43
511.449	5.52
511.798	5.41
512.147	5.43
512.496	5.48
512.846	5.52
513.195	5.49
513.544	5.62
513.893	5.6
514.242	5.5
514.591	5.54
514.939	5.3
515.288	5.52
515.637	5.46
515.986	5.45
516.334	5.59
516.683	5.65
517.032	5.55
517.38	5.58
517.729	5.65
518.077	5.49
518.426	5.49
518.774	5.67
519.122	5.6
519.47	5.54
519.819	5.53
520.167	5.47
520.515	5.53
520.863	5.45
521.211	5.46
521.559	5.51
521.907	5.39
522.255	5.37
522.602	5.5
522.95	5.57
523.298	5.64
523.645	5.72
523.993	5.44
524.341	5.67
524.688	5.65
525.036	5.56
525.383	5.67
525.73	5.68
526.078	5.7
526.425	5.75
526.772	5.58
527.119	5.69
527.466	5.43
527.814	5.4
528.161	5.4
528.508	5.39
528.854	5.47
529.201	5.55
529.548	5.4
529.895	5.53
530.242	5.48
530.588	5.38
530.935	5.23
531.282	5.26
531.628	5.21
531.975	5.25
532.321	5.29
532.667	5.29
533.014	5.46
533.36	5.46
533.706	5.58
534.052	5.45
534.399	5.54
534.745	5.56
535.091	5.48
535.437	5.38
535.783	5.37
536.129	5.42
536.474	5.39
536.82	5.47
537.166	5.46
537.512	5.41
537.857	5.53
538.203	5.59
538.549	5.54
538.894	5.4
539.239	5.35
539.585	5.45
539.93	5.48
540.276	5.5
540.621	5.54
540.966	5.47
541.311	5.61
541.656	5.62
542.001	5.62
542.346	5.74
542.691	5.56
543.036	5.52
543.381	5.44
543.726	5.35
544.071	5.37
544.415	5.43
544.76	5.33
545.105	5.43
545.449	5.42
545.794	5.53
546.138	5.47
546.483	5.54
546.827	5.51
547.171	5.53
547.516	5.61
547.86	5.59
548.204	5.6
548.548	5.67
548.892	5.42
549.236	5.55
549.58	5.57
549.924	5.46
550.268	5.62
550.612	5.57
550.956	5.5
551.3	5.71
551.643	5.75
551.987	5.61
552.33	5.71
552.674	5.58
553.017	5.62
553.361	5.62
553.704	5.63
554.048	5.71
554.391	5.79
554.734	5.7
555.077	5.67
555.42	5.7
555.764	5.71
556.107	5.6
556.45	5.63
556.793	5.6
557.135	5.63
557.478	5.74
557.821	5.81
558.164	5.82
558.507	5.72
558.849	5.9
559.192	5.6
559.534	5.6
559.877	5.78
560.219	5.83
560.562	5.59
560.904	5.94
561.246	5.58
561.589	5.85
561.931	5.89
562.273	5.62
562.615	5.52
562.957	5.84
563.299	5.89
563.641	5.74
563.983	5.62
564.325	5.77
564.667	5.54
565.008	5.64
565.35	6.01
565.692	5.73
566.033	5.69
566.375	5.52
566.716	5.61
567.058	5.74
567.399	5.52
567.741	5.65
568.082	5.66
568.423	5.66
568.764	5.53
569.105	5.76
569.447	5.59
569.788	5.62
570.129	5.63
570.47	5.73
570.811	5.72
571.151	5.55
571.492	5.74
571.833	5.64
572.174	5.76
572.514	5.68
572.855	5.63
573.195	5.79
573.536	5.69
573.876	5.59
574.217	5.76
574.557	5.66
574.898	5.75
575.238	5.62
575.578	5.55
575.918	5.54
576.258	5.67
576.598	5.61
576.938	5.68
577.278	5.78
577.618	5.66
577.958	5.59
578.298	5.96
578.638	5.67
578.977	5.83
579.317	5.66
579.657	5.52
579.996	5.64
580.336	5.64
580.675	5.74
581.014	5.83
581.354	5.74
581.693	5.81
582.032	5.85
582.372	5.79
582.711	5.84
583.05	5.56
583.389	5.83
583.728	5.83
584.067	5.84
584.406	5.77
584.745	5.64
585.083	5.59
585.422	5.75
585.761	5.61
586.1	5.64
586.438	5.8
586.777	5.48
587.115	5.67
587.454	5.56
587.792	5.81
588.13	5.79
588.469	5.76
588.807	5.71
589.145	5.77
589.483	5.65
589.821	5.55
590.159	5.76
590.497	5.73
590.835	5.75
591.173	5.52
591.511	5.7
591.849	5.63
592.187	5.78
592.524	5.61
592.862	5.85
593.2	5.57
593.537	5.66
593.875	6.05
594.212	5.74
594.55	5.97
594.887	5.71
595.224	5.78
595.561	5.66
595.899	5.61
596.236	5.76
596.573	5.91
596.91	5.62
597.247	5.61
597.584	5.78
597.921	5.64
598.258	5.67
598.594	5.7
598.931	5.48
599.268	5.72
599.604	5.58
599.941	5.66
600.277	5.57
600.614	5.86
600.95	5.59
601.287	5.62
601.623	5.71
601.959	5.89
602.296	5.69
602.632	5.67
602.968	5.85
603.304	5.81
603.64	5.5
603.976	5.69
604.312	5.78
604.648	5.53
604.984	5.67
605.319	5.71
605.655	5.75
605.991	5.71
606.326	5.5
606.662	5.59
606.998	5.63
607.333	5.53
607.668	5.52
608.004	5.46
608.339	5.62
608.674	5.45
609.01	5.55
609.345	5.86
609.68	5.64
610.015	5.77
610.35	5.82
610.685	5.76
611.02	5.66
611.355	5.81
611.689	5.54
612.024	5.71
612.359	5.62
612.694	5.69
613.028	5.5
613.363	5.43
613.697	5.39
614.032	5.61
614.366	5.3
614.7	5.69
615.035	5.57
615.369	5.87
615.703	5.66
616.037	5.64
616.371	5.43
616.705	5.97
617.039	5.46
617.373	5.6
617.707	5.61
618.041	5.82
618.375	5.54
618.709	5.76
619.042	6.04
619.376	5.51
619.71	5.63
620.043	5.83
620.377	5.82
620.71	5.61
621.043	5.75
621.377	5.75
621.71	5.53
622.043	5.09
622.376	5.93
622.709	5.31
623.043	5.67
623.376	5.76
623.709	5.59
624.041	5.85
624.374	5.81
624.707	5.65
625.04	5.51
625.373	5.82
625.705	5.8
626.038	5.37
626.37	5.82
626.703	6.08
627.035	5.61
627.368	5.96
627.7	5.69
628.032	5.69
628.365	5.4
628.697	5.56
629.029	5.82
629.361	5.64
629.693	5.53
630.025	5.59
630.357	5.44
630.689	5.57
631.021	5.68
631.353	5.62
631.684	5.9
632.016	5.31
632.348	5.53
632.679	5.49
633.011	5.6
633.342	5.52
633.674	5.97
634.005	5.66
634.336	5.48
634.668	5.65
634.999	5.93
635.33	5.77
635.661	5.94
635.992	5.79
636.323	5.79
636.654	5.62
636.985	5.53
637.316	5.68
637.647	5.82
637.977	5.67
638.308	5.84
638.639	5.89
638.969	5.88
639.3	5.46
639.63	5.58
639.961	5.51
640.291	5.6
640.622	5.64
640.952	5.5
641.282	5.57
641.612	5.61
641.943	5.52
642.273	5.95
642.603	5.02
642.933	5.61
643.263	6.07
643.592	5.61
643.922	5.9
644.252	5.6
644.582	5.89
644.911	5.98
645.241	5.69
645.571	5.09
645.9	4.95
646.23	5.54
646.559	5.23
646.888	5.86
647.218	5.71
647.547	5.69
647.876	5.99
648.205	5.67
648.534	5.99
648.863	5.27
649.192	5.39
649.521	6.08
649.85	5.83
650.179	6.1
650.508	5.5
650.837	5.61
651.165	5.32
651.494	5.63
651.822	5.37
652.151	5.29
652.479	5.98
652.808	5.67
653.136	5.49
653.465	5.92
653.793	6.05
654.121	6.16
654.449	5.92
654.777	5.27
655.105	5.5
655.433	5.69
655.761	5.38
656.089	5.75
656.417	5.43
656.745	5.95
657.073	5.7
657.4	6.22
657.728	6.08
658.056	5.98
658.383	5.28
658.711	6.02
659.038	5.99
659.365	5.88
659.693	5.48
660.02	5.9
660.347	6.09
660.674	5.68
661.001	5.73
661.329	5.58
661.656	5.64
661.982	5.92
662.309	5.89
662.636	5.54
662.963	5.86
663.29	5.9
663.616	5.58
663.943	5.97
664.27	5.78
664.596	5.54
664.923	6.08
665.249	5.97
665.576	5.9
665.902	5.47
666.228	5.6
666.554	5.87
666.881	5.56
667.207	5.44
667.533	5.78
667.859	5.33
668.185	5.45
668.511	6.25
668.837	5.11
669.162	6.08
669.488	5.56
669.814	5.4
670.139	5.62
670.465	5.74
670.791	6.16
671.116	5.48
671.442	5.84
671.767	4.89
672.092	6.06
672.418	5.94
672.743	5.79
673.068	5.83
673.393	6.32
673.718	5.48
674.043	5.69
674.368	6.01
674.693	6.17
675.018	6.3
675.343	5.72
675.667	6.35
675.992	5.93
676.317	5.3
676.641	5.97
676.966	5.76
677.29	5.72
677.615	5.73
677.939	5.91
678.264	5.49
678.588	6.1
678.912	6.36
679.236	5.18
679.56	4.99
679.885	6.26
680.209	5.2
680.532	6.41
680.856	5.4
681.18	5.89
681.504	5.31
681.828	5.88
682.152	5.88
682.475	6.15
682.799	5.95
683.122	5.85
683.446	5.16
683.769	5.69
684.093	5.83
684.416	6.27
684.739	5.57
685.062	5.91
685.386	5.22
685.709	6.24
686.032	5.72
686.355	6.4
686.678	5.9
687.001	5.21
687.324	5.53
687.646	6.11
687.969	6.02
688.292	6.45
688.614	6.18
688.937	5.81
689.26	6.2
689.582	5.4
689.904	5.63
690.227	6.28
690.549	5.52
690.871	5.98
691.194	5.37
691.516	5.87
691.838	6.33
692.16	6.7
692.482	5.77
692.804	5.59
