Data from 0089_chest_Reflection__4__125.txt Node

Date: Mon Aug 28 19:44:03 CDT 2023
User: ToomeyLab
Spectrometer: FLMS14357
Trigger mode: 0
Integration Time (sec): 1.000000E-2
Scans to average: 100
Electric dark correction enabled: true
Nonlinearity correction enabled: false
Boxcar width: 0
XAxis mode: Wavelengths
Number of Pixels in Spectrum: 2048
>>>>>Begin Spectral Data<<<<<
189.047	-80.09
189.435	-80.09
189.823	-80.09
190.211	-4441.86
190.599	-96.56
190.987	394.05
191.375	75.16
191.763	42.57
192.151	-35.62
192.538	107.36
192.926	173.26
193.314	-626.19
193.702	28.05
194.089	35.89
194.477	7.06
194.864	-345.29
195.252	-15.56
195.639	-1540.17
196.027	59.64
196.414	60.49
196.801	104.64
197.189	220.66
197.576	124.52
197.963	109.35
198.351	27.33
198.738	20.1
199.125	-6.09
199.512	-53.06
199.899	76
200.286	-64.83
200.673	11.26
201.06	22.73
201.447	-38.51
201.833	-12.08
202.22	-12.84
202.607	-9.25
202.994	6.5
203.38	18
203.767	-8.29
204.154	-15.34
204.54	-46.38
204.927	-53.56
205.313	-21.78
205.699	-42.33
206.086	29.57
206.472	-6.01
206.858	9.07
207.245	-16.97
207.631	21.96
208.017	-2.75
208.403	7.25
208.789	1.65
209.175	-70.15
209.561	20.66
209.947	29.76
210.333	-29.21
210.719	10.52
211.105	-0.8
211.491	-15.06
211.876	14.4
212.262	-36.89
212.648	26.32
213.034	-26.63
213.419	-7.1
213.805	2.39
214.19	-12.39
214.576	14.29
214.961	15.07
215.346	-35.02
215.732	12.42
216.117	-12.62
216.502	-0.25
216.888	-11.8
217.273	-0.54
217.658	1.53
218.043	16.11
218.428	22.54
218.813	10
219.198	-7.64
219.583	-2.05
219.968	31.73
220.353	0.96
220.738	42.56
221.122	9.16
221.507	9
221.892	-4.69
222.276	-2.07
222.661	-5.35
223.046	-2.6
223.43	-5.95
223.815	3.5
224.199	4.32
224.583	4.96
224.968	9.69
225.352	3.93
225.736	10.03
226.121	-1.34
226.505	3.19
226.889	4.15
227.273	7.32
227.657	1.39
228.041	3.65
228.425	10.35
228.809	1.99
229.193	5.06
229.577	8.87
229.961	3.53
230.344	5.24
230.728	4.65
231.112	3.89
231.495	4.32
231.879	4.86
232.263	3.57
232.646	3.75
233.03	4
233.413	5.68
233.797	3.85
234.18	5.83
234.563	3.96
234.946	8.31
235.33	3.07
235.713	2.72
236.096	5.46
236.479	2.93
236.862	3.95
237.245	3.83
237.628	3.64
238.011	5.63
238.394	5.56
238.777	5.42
239.16	1.35
239.543	0.4
239.925	6.41
240.308	2.93
240.691	3.31
241.073	4.5
241.456	3.45
241.838	3.52
242.221	4.5
242.603	4.71
242.986	4.54
243.368	3.78
243.75	3.87
244.133	3.77
244.515	3.41
244.897	4.36
245.279	4.37
245.661	3.7
246.043	3.86
246.425	4.2
246.807	4.8
247.189	2.96
247.571	3.22
247.953	3.6
248.335	4.31
248.717	4.05
249.098	3.73
249.48	4.07
249.862	3.65
250.243	3.63
250.625	4.38
251.006	4.5
251.388	3.58
251.769	3.59
252.151	3
252.532	3.58
252.913	3.94
253.295	2.8
253.676	3.79
254.057	3.81
254.438	3.51
254.819	3.26
255.2	4.53
255.581	3.65
255.962	4.63
256.343	5.4
256.724	2.49
257.105	3.33
257.486	4.83
257.867	3.39
258.247	2.97
258.628	4.86
259.009	3.46
259.389	3
259.77	4.23
260.15	3.14
260.531	2.83
260.911	3.68
261.292	3.58
261.672	3.79
262.052	3.53
262.432	3.62
262.813	3.58
263.193	3.33
263.573	2.64
263.953	3.83
264.333	3.08
264.713	3.21
265.093	4.05
265.473	3.53
265.853	2.89
266.233	3.16
266.612	4.57
266.992	3.81
267.372	2.48
267.752	4.15
268.131	3.8
268.511	3.92
268.89	3.47
269.27	3.17
269.649	3.31
270.029	3.54
270.408	3.71
270.787	4.07
271.167	3.44
271.546	3.17
271.925	3.76
272.304	3.44
272.683	3.57
273.062	3.1
273.441	3.3
273.82	3.15
274.199	3.12
274.578	3.25
274.957	4.16
275.336	3.76
275.715	3.95
276.093	3.01
276.472	3.13
276.851	2.68
277.229	3.69
277.608	3.29
277.986	3.08
278.365	3.49
278.743	3.06
279.122	3.29
279.5	2.96
279.878	3.62
280.257	3.38
280.635	3.52
281.013	3.65
281.391	3.37
281.769	3.2
282.147	3.82
282.525	3.62
282.903	3.23
283.281	3.39
283.659	3.92
284.037	3.62
284.415	3.21
284.792	3.53
285.17	3.14
285.548	3.09
285.925	3.86
286.303	3.57
286.68	3.75
287.058	3.56
287.435	3.48
287.813	2.84
288.19	3.4
288.567	3.05
288.945	3.08
289.322	3.16
289.699	3.52
290.076	4.05
290.453	3.36
290.83	2.75
291.207	3.13
291.584	3.11
291.961	3.39
292.338	3.1
292.715	2.87
293.092	3.39
293.469	3.14
293.845	2.94
294.222	3.06
294.599	3.22
294.975	3.01
295.352	2.55
295.728	3.2
296.105	3.51
296.481	3.29
296.858	3.52
297.234	3.65
297.61	3.27
297.986	2.87
298.363	3.59
298.739	3.01
299.115	2.73
299.491	3.45
299.867	3.35
300.243	3.37
300.619	3.19
300.995	3.77
301.371	2.83
301.746	3.27
302.122	3.01
302.498	2.88
302.874	3.47
303.249	3.17
303.625	3.19
304	2.99
304.376	2.94
304.751	3.35
305.127	3.28
305.502	3.2
305.878	3.12
306.253	2.71
306.628	3.22
307.003	3.15
307.378	2.94
307.754	3.59
308.129	3.33
308.504	3.31
308.879	3.59
309.254	3.11
309.629	3.04
310.003	3.02
310.378	2.88
310.753	3.09
311.128	2.84
311.502	3.68
311.877	3.47
312.252	3.36
312.626	3.36
313.001	3.1
313.375	3.17
313.75	2.9
314.124	2.88
314.498	3.44
314.873	3.34
315.247	3.05
315.621	2.81
315.995	3.66
316.369	3.31
316.743	2.97
317.117	3.17
317.491	2.63
317.865	2.65
318.239	3.07
318.613	3.61
318.987	3.36
319.361	3.36
319.734	3.32
320.108	3
320.482	3.6
320.855	3.02
321.229	3.52
321.602	3.18
321.976	2.69
322.349	3.44
322.723	2.13
323.096	3.35
323.469	3.33
323.843	2.66
324.216	3.34
324.589	2.95
324.962	2.61
325.335	3.21
325.708	2.59
326.081	3.04
326.454	3.22
326.827	2.74
327.2	2.99
327.573	3.19
327.945	3.28
328.318	3.23
328.691	2.53
329.063	2.46
329.436	2.62
329.809	3.43
330.181	2.8
330.553	3.04
330.926	3
331.298	3.11
331.671	2.62
332.043	2.83
332.415	3.47
332.787	2.88
333.159	2.86
333.532	3.58
333.904	3.34
334.276	2.5
334.648	3.46
335.02	3.42
335.391	2.7
335.763	2.9
336.135	3.56
336.507	2.85
336.879	2.42
337.25	3.37
337.622	3.23
337.993	3.07
338.365	2.82
338.736	3.19
339.108	2.28
339.479	2.39
339.851	3.09
340.222	3.29
340.593	2.83
340.964	2.93
341.336	2.75
341.707	3.05
342.078	2.89
342.449	3.03
342.82	3.2
343.191	2.79
343.562	2.89
343.933	2.76
344.303	2.77
344.674	3.22
345.045	3.36
345.416	3.17
345.786	3.42
346.157	2.93
346.527	2.65
346.898	3.04
347.268	2.62
347.639	2.59
348.009	2.8
348.38	3.09
348.75	3.03
349.12	3.04
349.49	2.9
349.861	2.48
350.231	2.77
350.601	3.3
350.971	3.61
351.341	2.77
351.711	2.9
352.081	3.12
352.45	3.3
352.82	2.84
353.19	3.14
353.56	3.2
353.929	2.98
354.299	2.57
354.669	3.38
355.038	3.4
355.408	2.96
355.777	3.04
356.147	2.97
356.516	3.7
356.885	2.95
357.254	2.82
357.624	2.89
357.993	3.3
358.362	2.63
358.731	3.15
359.1	3.26
359.469	3.12
359.838	2.61
360.207	2.9
360.576	3.09
360.945	3.06
361.314	2.91
361.682	2.95
362.051	3.29
362.42	3.15
362.788	3.15
363.157	2.93
363.525	2.97
363.894	3.04
364.262	2.96
364.631	2.99
364.999	3.15
365.367	3.34
365.735	3.31
366.104	3.12
366.472	2.99
366.84	2.68
367.208	3.2
367.576	2.84
367.944	3.12
368.312	3.32
368.68	3.03
369.048	3.13
369.416	2.98
369.783	2.84
370.151	2.97
370.519	3.39
370.886	2.99
371.254	3.3
371.621	3.27
371.989	3.01
372.356	3.08
372.724	3.57
373.091	3.33
373.458	3.07
373.826	2.97
374.193	3.23
374.56	2.97
374.927	2.93
375.294	3.09
375.661	3.05
376.028	2.8
376.395	2.69
376.762	3.5
377.129	2.99
377.496	2.93
377.863	3.34
378.229	2.95
378.596	3.32
378.963	3.44
379.329	2.99
379.696	3.13
380.062	2.93
380.429	2.88
380.795	3.16
381.161	2.99
381.528	3.42
381.894	2.89
382.26	3.43
382.626	3.31
382.993	3.27
383.359	3.4
383.725	3.51
384.091	3.32
384.457	3.19
384.823	2.9
385.188	3.07
385.554	2.92
385.92	2.99
386.286	3.31
386.651	3.12
387.017	3.29
387.383	3.19
387.748	2.97
388.114	3.2
388.479	3.16
388.845	2.99
389.21	3.09
389.575	3.48
389.94	3.02
390.306	3.29
390.671	2.96
391.036	2.87
391.401	3.16
391.766	3.39
392.131	3.33
392.496	3.13
392.861	3.26
393.226	3.28
393.591	2.91
393.956	3.24
394.32	3.08
394.685	3.34
395.05	3.2
395.414	3.26
395.779	3.31
396.143	2.94
396.508	3.01
396.872	3.24
397.236	2.98
397.601	3.11
397.965	3.25
398.329	3.11
398.694	3.15
399.058	3.05
399.422	3.21
399.786	3.23
400.15	3.49
400.514	3.29
400.878	2.99
401.242	3.08
401.605	3.18
401.969	3.1
402.333	3.16
402.697	3.05
403.06	3.32
403.424	3.36
403.787	3.18
404.151	2.8
404.514	3.08
404.878	2.98
405.241	3.51
405.604	3.24
405.968	3.04
406.331	3.28
406.694	3.16
407.057	3.27
407.42	3.04
407.783	3.23
408.146	3.22
408.509	3.34
408.872	3.21
409.235	3.32
409.598	3.21
409.961	3.33
410.323	3.34
410.686	3.4
411.049	3.42
411.411	3.47
411.774	3.2
412.136	3.16
412.499	3.16
412.861	3.18
413.223	3.24
413.586	3.06
413.948	3.38
414.31	3.32
414.672	3.38
415.035	3.29
415.397	3.24
415.759	3.31
416.121	3.47
416.483	3.2
416.845	3.39
417.206	3.49
417.568	3.32
417.93	3.19
418.292	3.19
418.653	3.16
419.015	3.19
419.377	2.99
419.738	3.44
420.1	3.1
420.461	3.36
420.822	3.36
421.184	3.19
421.545	3.26
421.906	3.31
422.267	3.3
422.629	3.24
422.99	3.22
423.351	3.32
423.712	3.16
424.073	3.26
424.434	3.32
424.795	3.18
425.155	3.27
425.516	3.22
425.877	3.25
426.238	3.1
426.598	3.17
426.959	3.22
427.32	3.26
427.68	3.21
428.041	3.2
428.401	3.36
428.761	3.18
429.122	3.19
429.482	3.31
429.842	3.52
430.202	3.36
430.563	3.25
430.923	3.5
431.283	3.44
431.643	3.26
432.003	3.32
432.363	3.29
432.722	3.39
433.082	3.28
433.442	3.54
433.802	3.2
434.161	3.44
434.521	3.25
434.881	3.22
435.24	3.25
435.6	3.36
435.959	3.37
436.319	3.42
436.678	3.33
437.037	3.33
437.396	3.41
437.756	3.14
438.115	3.37
438.474	3.43
438.833	3.29
439.192	3.46
439.551	3.35
439.91	3.6
440.269	3.27
440.628	3.21
440.987	3.42
441.345	3.38
441.704	3.27
442.063	3.29
442.421	3.39
442.78	3.33
443.138	3.33
443.497	3.25
443.855	3.33
444.214	3.37
444.572	3.3
444.93	3.37
445.288	3.31
445.647	3.39
446.005	3.5
446.363	3.4
446.721	3.45
447.079	3.37
447.437	3.26
447.795	3.32
448.153	3.43
448.51	3.33
448.868	3.38
449.226	3.3
449.584	3.35
449.941	3.3
450.299	3.4
450.656	3.33
451.014	3.27
451.371	3.33
451.729	3.27
452.086	3.32
452.443	3.51
452.801	3.52
453.158	3.5
453.515	3.39
453.872	3.38
454.229	3.48
454.586	3.45
454.943	3.37
455.3	3.44
455.657	3.47
456.014	3.53
456.371	3.43
456.727	3.42
457.084	3.38
457.441	3.54
457.797	3.3
458.154	3.56
458.51	3.48
458.867	3.37
459.223	3.5
459.58	3.42
459.936	3.4
460.292	3.61
460.648	3.4
461.005	3.36
461.361	3.4
461.717	3.38
462.073	3.34
462.429	3.31
462.785	3.39
463.141	3.27
463.496	3.5
463.852	3.5
464.208	3.5
464.564	3.41
464.919	3.59
465.275	3.44
465.631	3.42
465.986	3.56
466.342	3.6
466.697	3.39
467.052	3.45
467.408	3.42
467.763	3.31
468.118	3.27
468.473	3.55
468.829	3.58
469.184	3.32
469.539	3.5
469.894	3.44
470.249	3.35
470.603	3.51
470.958	3.45
471.313	3.56
471.668	3.32
472.023	3.64
472.377	3.26
472.732	3.56
473.086	3.59
473.441	3.47
473.795	3.43
474.15	3.59
474.504	3.46
474.859	3.6
475.213	3.41
475.567	3.51
475.921	3.84
476.275	3.57
476.63	3.66
476.984	3.68
477.338	3.7
477.692	3.4
478.045	3.55
478.399	3.41
478.753	3.5
479.107	3.57
479.461	3.63
479.814	3.63
480.168	3.54
480.521	3.6
480.875	3.5
481.228	3.48
481.582	3.56
481.935	3.63
482.289	3.65
482.642	3.61
482.995	3.59
483.348	3.49
483.701	3.62
484.055	3.47
484.408	3.5
484.761	3.51
485.114	3.49
485.466	3.45
485.819	3.37
486.172	3.31
486.525	3.33
486.878	3.32
487.23	3.35
487.583	3.42
487.936	3.46
488.288	3.5
488.641	3.54
488.993	3.52
489.345	3.43
489.698	3.46
490.05	3.39
490.402	3.36
490.754	3.46
491.107	3.42
491.459	3.47
491.811	3.45
492.163	3.53
492.515	3.69
492.866	3.65
493.218	3.54
493.57	3.51
493.922	3.4
494.274	3.45
494.625	3.38
494.977	3.48
495.328	3.67
495.68	3.64
496.031	3.63
496.383	3.5
496.734	3.63
497.086	3.84
497.437	3.77
497.788	3.66
498.139	3.69
498.49	3.69
498.842	3.62
499.193	3.54
499.544	3.71
499.894	3.57
500.245	3.64
500.596	3.63
500.947	3.65
501.298	3.68
501.648	3.6
501.999	3.64
502.35	3.68
502.7	3.71
503.051	3.86
503.401	3.69
503.752	3.7
504.102	3.63
504.452	3.76
504.803	3.91
505.153	3.66
505.503	3.66
505.853	3.77
506.203	3.8
506.553	3.74
506.903	3.8
507.253	3.72
507.603	3.61
507.953	3.75
508.303	3.88
508.652	3.78
509.002	3.88
509.352	3.54
509.701	3.64
510.051	3.68
510.4	3.61
510.75	3.77
511.099	3.76
511.449	3.81
511.798	3.73
512.147	3.7
512.496	3.85
512.846	3.74
513.195	3.82
513.544	3.85
513.893	3.79
514.242	3.88
514.591	3.78
514.939	3.7
515.288	3.83
515.637	3.87
515.986	3.74
516.334	3.92
516.683	3.86
517.032	3.84
517.38	3.94
517.729	3.87
518.077	3.83
518.426	3.8
518.774	3.76
519.122	3.88
519.47	3.84
519.819	3.83
520.167	3.84
520.515	3.9
520.863	3.76
521.211	3.73
521.559	3.82
521.907	3.82
522.255	3.78
522.602	3.81
522.95	3.93
523.298	3.88
523.645	3.84
523.993	3.78
524.341	3.98
524.688	3.87
525.036	3.94
525.383	3.95
525.73	4.02
526.078	4.05
526.425	3.99
526.772	3.92
527.119	3.9
527.466	3.87
527.814	3.9
528.161	3.94
528.508	3.92
528.854	3.92
529.201	4.08
529.548	3.88
529.895	3.98
530.242	3.94
530.588	3.82
530.935	3.81
531.282	3.8
531.628	3.79
531.975	3.83
532.321	3.84
532.667	3.88
533.014	3.99
533.36	3.92
533.706	3.97
534.052	3.99
534.399	3.97
534.745	4.11
535.091	4.01
535.437	4
535.783	3.97
536.129	3.99
536.474	3.97
536.82	4.04
537.166	3.99
537.512	4.06
537.857	4.15
538.203	4.18
538.549	4.07
538.894	4.08
539.239	4.06
539.585	4.08
539.93	4.14
540.276	4.13
540.621	4.2
540.966	4.22
541.311	4.32
541.656	4.23
542.001	4.3
542.346	4.32
542.691	4.21
543.036	4.21
543.381	4.11
543.726	4.08
544.071	4.12
544.415	4.11
544.76	4.11
545.105	4.23
545.449	4.15
545.794	4.26
546.138	4.27
546.483	4.25
546.827	4.26
547.171	4.39
547.516	4.31
547.86	4.36
548.204	4.39
548.548	4.28
548.892	4.24
549.236	4.22
549.58	4.32
549.924	4.28
550.268	4.36
550.612	4.36
550.956	4.41
551.3	4.43
551.643	4.55
551.987	4.39
552.33	4.54
552.674	4.55
553.017	4.45
553.361	4.67
553.704	4.68
554.048	4.61
554.391	4.53
554.734	4.69
555.077	4.51
555.42	4.55
555.764	4.67
556.107	4.61
556.45	4.62
556.793	4.66
557.135	4.69
557.478	4.67
557.821	4.83
558.164	4.81
558.507	4.77
558.849	4.79
559.192	4.56
559.534	4.7
559.877	4.69
560.219	4.93
560.562	4.8
560.904	4.9
561.246	4.77
561.589	4.83
561.931	4.87
562.273	4.69
562.615	4.84
562.957	5.02
563.299	4.86
563.641	4.81
563.983	4.92
564.325	4.9
564.667	4.81
565.008	4.88
565.35	5.18
565.692	4.93
566.033	4.85
566.375	4.83
566.716	4.94
567.058	4.94
567.399	4.79
567.741	5.01
568.082	5.01
568.423	4.97
568.764	4.9
569.105	5.17
569.447	5.04
569.788	5.07
570.129	4.99
570.47	5.17
570.811	5.05
571.151	4.99
571.492	5.14
571.833	5.06
572.174	5.08
572.514	5.24
572.855	5
573.195	5.13
573.536	5.19
573.876	5.07
574.217	5.14
574.557	5.15
574.898	5.34
575.238	5.18
575.578	5.22
575.918	5.23
576.258	5.43
576.598	5.41
576.938	5.2
577.278	5.39
577.618	5.31
577.958	5.29
578.298	5.53
578.638	5.29
578.977	5.61
579.317	5.41
579.657	5.4
579.996	5.43
580.336	5.4
580.675	5.52
581.014	5.46
581.354	5.51
581.693	5.49
582.032	5.57
582.372	5.67
582.711	5.75
583.05	5.57
583.389	5.35
583.728	5.7
584.067	5.84
584.406	5.69
584.745	5.7
585.083	5.71
585.422	5.66
585.761	5.86
586.1	6.01
586.438	5.61
586.777	5.72
587.115	5.81
587.454	5.89
587.792	5.79
588.13	6.07
588.469	6.08
588.807	5.96
589.145	6.03
589.483	5.86
589.821	5.89
590.159	6.08
590.497	5.96
590.835	5.97
591.173	5.96
591.511	5.94
591.849	6.09
592.187	6.05
592.524	6.15
592.862	6.26
593.2	5.9
593.537	6.31
593.875	6.3
594.212	6.19
594.55	6.2
594.887	6.25
595.224	6.21
595.561	6.2
595.899	6.14
596.236	6.27
596.573	6.61
596.91	6.18
597.247	6.11
597.584	6.26
597.921	6.15
598.258	6.42
598.594	6.25
598.931	6.25
599.268	6.3
599.604	6.24
599.941	6.46
600.277	6.38
600.614	6.46
600.95	6.53
601.287	6.64
601.623	6.69
601.959	6.5
602.296	6.5
602.632	6.6
602.968	6.69
603.304	6.44
603.64	6.41
603.976	6.6
604.312	6.56
604.648	6.65
604.984	6.67
605.319	6.69
605.655	6.81
605.991	6.79
606.326	6.75
606.662	6.76
606.998	6.72
607.333	6.62
607.668	6.95
608.004	6.7
608.339	6.58
608.674	6.79
609.01	6.96
609.345	6.86
609.68	6.79
610.015	7.05
610.35	7.12
610.685	6.96
611.02	7.03
611.355	7.11
611.689	6.86
612.024	6.93
612.359	6.97
612.694	6.97
613.028	6.94
613.363	6.97
613.697	6.94
614.032	7.11
614.366	7.21
614.7	7.35
615.035	7.28
615.369	7.13
615.703	7.26
616.037	7.12
616.371	7.07
616.705	7.33
617.039	7.16
617.373	7.28
617.707	7.28
618.041	7.39
618.375	7.35
618.709	7.75
619.042	7.43
619.376	7.5
619.71	7.28
620.043	7.71
620.377	7.6
620.71	7.41
621.043	7.43
621.377	7.71
621.71	7.56
622.043	7.07
622.376	7.52
622.709	7.42
623.043	7.74
623.376	7.9
623.709	8.15
624.041	8.02
624.374	7.54
624.707	7.68
625.04	7.75
625.373	7.9
625.705	7.69
626.038	7.8
626.37	8.03
626.703	7.85
627.035	7.88
627.368	8.58
627.7	8.02
628.032	7.85
628.365	7.69
628.697	8.12
629.029	7.84
629.361	8.11
629.693	7.96
630.025	8.05
630.357	7.82
630.689	7.91
631.021	8.32
631.353	8.17
631.684	8.41
632.016	8.16
632.348	8.13
632.679	8.17
633.011	8.15
633.342	8.11
633.674	8.26
634.005	8.42
634.336	7.85
634.668	8.12
634.999	8.5
635.33	8.56
635.661	8.38
635.992	8.34
636.323	8.5
636.654	8.34
636.985	8.59
637.316	8.24
637.647	8.37
637.977	8.32
638.308	8.4
638.639	8.39
638.969	8.75
639.3	8.37
639.63	8.84
639.961	8.97
640.291	8.61
640.622	8.68
640.952	8.4
641.282	8.7
641.612	8.9
641.943	9.05
642.273	9.3
642.603	8.54
642.933	8.39
643.263	9.27
643.592	8.54
643.922	9.13
644.252	8.64
644.582	9.1
644.911	9.14
645.241	9.02
645.571	9.11
645.9	9.02
646.23	8.93
646.559	8.75
646.888	9.43
647.218	9.33
647.547	9.34
647.876	9.57
648.205	9.11
648.534	9.31
648.863	9.2
649.192	9.28
649.521	9.38
649.85	9.72
650.179	9.89
650.508	9.67
650.837	9.03
651.165	9.55
651.494	9.08
651.822	9.12
652.151	9.14
652.479	9.86
652.808	9.14
653.136	9.44
653.465	9.38
653.793	9.43
654.121	9.43
654.449	9.39
654.777	9.4
655.105	9.53
655.433	9.57
655.761	9.4
656.089	9.71
656.417	9.49
656.745	9.96
657.073	9.27
657.4	9.95
657.728	9.85
658.056	9.88
658.383	9.74
658.711	10.04
659.038	10.32
659.365	9.99
659.693	10.05
660.02	9.8
660.347	10.32
660.674	9.89
661.001	10.35
661.329	9.55
661.656	9.99
661.982	10.06
662.309	10.01
662.636	10.07
662.963	10.31
663.29	10.3
663.616	10.34
663.943	10.26
664.27	10.52
664.596	10.64
664.923	10.64
665.249	10.57
665.576	10.02
665.902	9.97
666.228	10.21
666.554	10.43
666.881	10.37
667.207	9.83
667.533	10.26
667.859	9.69
668.185	9.89
668.511	10.57
668.837	9.92
669.162	11.05
669.488	10.31
669.814	10.56
670.139	10.51
670.465	11.05
670.791	10.85
671.116	10.5
671.442	10.33
671.767	10.19
672.092	10.68
672.418	10.59
672.743	11.25
673.068	10.19
673.393	10.69
673.718	10.42
674.043	10.95
674.368	10.44
674.693	10.78
675.018	11.23
675.343	10.66
675.667	10.9
675.992	11.15
676.317	10.59
676.641	11.15
676.966	10.94
677.29	10.41
677.615	11.52
677.939	10.48
678.264	10.75
678.588	11.08
678.912	11.14
679.236	10.99
679.56	10.71
679.885	11.34
680.209	11.2
680.532	11.3
680.856	11
681.18	10.92
681.504	10.95
681.828	11.15
682.152	11.51
682.475	11.56
682.799	11.28
683.122	10.78
683.446	11.6
683.769	11.69
684.093	11.46
684.416	11.71
684.739	11.15
685.062	12.06
685.386	11.25
685.709	11.66
686.032	11.09
686.355	10.72
686.678	11.04
687.001	10.84
687.324	11.52
687.646	11.53
687.969	11.46
688.292	11.77
688.614	11.34
688.937	12.02
689.26	11.63
689.582	11.38
689.904	11.18
690.227	12.52
690.549	11.54
690.871	11.89
