Data from 0089_crown_Reflection__1__132.txt Node

Date: Mon Aug 28 19:51:28 CDT 2023
User: ToomeyLab
Spectrometer: FLMS14357
Trigger mode: 0
Integration Time (sec): 1.000000E-2
Scans to average: 100
Electric dark correction enabled: true
Nonlinearity correction enabled: false
Boxcar width: 0
XAxis mode: Wavelengths
Number of Pixels in Spectrum: 2048
>>>>>Begin Spectral Data<<<<<
189.047	-153.21
189.435	-153.21
189.823	-153.21
190.211	1167.44
190.599	109.61
190.987	616.04
191.375	4.95
191.763	60.53
192.151	-39.75
192.538	-100.71
192.926	-46.84
193.314	33.86
193.702	-75.24
194.089	136.72
194.477	2835.29
194.864	-220.95
195.252	129.46
195.639	-3451.28
196.027	96.98
196.414	440.18
196.801	-23.68
197.189	66.79
197.576	-235.43
197.963	38.89
198.351	38.82
198.738	49.4
199.125	-6.67
199.512	20.94
199.899	-15.22
200.286	-16.06
200.673	32.19
201.06	-1.66
201.447	-91.94
201.833	27.75
202.22	-20.35
202.607	45.28
202.994	51.37
203.38	-13.52
203.767	9.02
204.154	12.57
204.54	14.56
204.927	-24.51
205.313	31.31
205.699	-16.48
206.086	28.01
206.472	-10.49
206.858	13.24
207.245	-2.92
207.631	16.87
208.017	35.04
208.403	33.46
208.789	6.21
209.175	-34.35
209.561	-12.83
209.947	23.7
210.333	8.78
210.719	19.34
211.105	40.88
211.491	-5.58
211.876	30.91
212.262	34.42
212.648	2.95
213.034	-24.87
213.419	23.37
213.805	1.1
214.19	-28.01
214.576	5.51
214.961	8.78
215.346	17.1
215.732	25.84
216.117	-39.6
216.502	24.81
216.888	-54.3
217.273	-11.49
217.658	11.75
218.043	22.34
218.428	-4.82
218.813	10.72
219.198	33.82
219.583	3.89
219.968	36.15
220.353	12.78
220.738	29.79
221.122	15.38
221.507	-20.4
221.892	-5.81
222.276	5.45
222.661	1.2
223.046	16.08
223.43	13.45
223.815	3.64
224.199	10.2
224.583	5.15
224.968	14.57
225.352	19.06
225.736	7.47
226.121	3.8
226.505	0.08
226.889	10.28
227.273	7.23
227.657	3.35
228.041	8.43
228.425	7.35
228.809	7.06
229.193	5.73
229.577	4.61
229.961	3.13
230.344	6.36
230.728	6.04
231.112	5.29
231.495	5.86
231.879	4.62
232.263	6.4
232.646	5.54
233.03	6.38
233.413	8.62
233.797	6.26
234.18	4.22
234.563	6.65
234.946	7.24
235.33	5.64
235.713	3.8
236.096	6.61
236.479	4.88
236.862	8.06
237.245	5.11
237.628	7.74
238.011	7.26
238.394	6.73
238.777	6.69
239.16	3.52
239.543	4.81
239.925	7.43
240.308	6.81
240.691	4.15
241.073	0.56
241.456	5.7
241.838	4.83
242.221	8.22
242.603	6.28
242.986	6.08
243.368	5.96
243.75	5.84
244.133	5.54
244.515	5.23
244.897	6.34
245.279	5.98
245.661	4.55
246.043	5.99
246.425	4.33
246.807	7.48
247.189	5.26
247.571	6.1
247.953	5.87
248.335	5.45
248.717	5.59
249.098	5.39
249.48	5.33
249.862	5.68
250.243	5.39
250.625	5.97
251.006	5.86
251.388	5.31
251.769	5.66
252.151	5.99
252.532	5.17
252.913	5.54
253.295	4.2
253.676	4.9
254.057	4.73
254.438	4.96
254.819	5.13
255.2	5.33
255.581	4.27
255.962	5.4
256.343	5.91
256.724	4.61
257.105	4.67
257.486	7.39
257.867	4.64
258.247	5.24
258.628	6.07
259.009	5.14
259.389	4.79
259.77	5.31
260.15	4.65
260.531	4.6
260.911	5.08
261.292	4.76
261.672	5.19
262.052	4.8
262.432	4.98
262.813	5.17
263.193	4.64
263.573	5.18
263.953	5.59
264.333	4.55
264.713	4.6
265.093	5.64
265.473	4.39
265.853	4.05
266.233	4.37
266.612	5.11
266.992	5.06
267.372	4.38
267.752	5.47
268.131	5.28
268.511	4.15
268.89	4.83
269.27	4.37
269.649	5.16
270.029	4.63
270.408	5.32
270.787	4.55
271.167	5.03
271.546	4.39
271.925	5.26
272.304	5.02
272.683	5.22
273.062	4.62
273.441	4.79
273.82	4.48
274.199	3.95
274.578	4.69
274.957	4.63
275.336	5.29
275.715	4.83
276.093	3.74
276.472	4.05
276.851	4.83
277.229	4.71
277.608	4.09
277.986	4.6
278.365	4.55
278.743	4.81
279.122	4.31
279.5	4.25
279.878	4.67
280.257	4.54
280.635	4.71
281.013	4.04
281.391	4.69
281.769	4.44
282.147	4.56
282.525	4.33
282.903	4.64
283.281	4.43
283.659	5.49
284.037	5.03
284.415	4.1
284.792	4.77
285.17	4.18
285.548	4.52
285.925	5.05
286.303	4.4
286.68	4.99
287.058	4.4
287.435	4.16
287.813	4.21
288.19	4.3
288.567	4.26
288.945	4.76
289.322	4.28
289.699	4.15
290.076	4.43
290.453	4.12
290.83	4.17
291.207	4.34
291.584	4.51
291.961	4.77
292.338	4.44
292.715	4.27
293.092	4.28
293.469	4.21
293.845	4.24
294.222	4.21
294.599	4.33
294.975	4.27
295.352	3.99
295.728	4.27
296.105	4.68
296.481	4.33
296.858	4.47
297.234	4.32
297.61	4.56
297.986	3.8
298.363	4.62
298.739	4.26
299.115	3.87
299.491	4.47
299.867	4.53
300.243	4.23
300.619	3.74
300.995	4.6
301.371	3.91
301.746	4.73
302.122	4.29
302.498	4.46
302.874	3.94
303.249	4.27
303.625	4.75
304	4.13
304.376	3.95
304.751	3.99
305.127	4.2
305.502	4.37
305.878	4.22
306.253	4.17
306.628	3.89
307.003	4.45
307.378	4.13
307.754	4.23
308.129	3.98
308.504	4.33
308.879	4.25
309.254	4.6
309.629	3.82
310.003	4.29
310.378	3.83
310.753	4.32
311.128	4.3
311.502	4.8
311.877	4.03
312.252	4.61
312.626	4.11
313.001	4.26
313.375	4.25
313.75	4.16
314.124	3.81
314.498	4.19
314.873	4.3
315.247	4.35
315.621	4.3
315.995	4.13
316.369	4.64
316.743	4.11
317.117	3.78
317.491	3.81
317.865	3.9
318.239	4.44
318.613	4.32
318.987	3.9
319.361	4
319.734	4.25
320.108	4.42
320.482	3.9
320.855	4.29
321.229	3.53
321.602	4.02
321.976	3.5
322.349	4.26
322.723	3.92
323.096	4.05
323.469	3.94
323.843	4.11
324.216	4.12
324.589	4
324.962	4.25
325.335	4.4
325.708	3.74
326.081	4.26
326.454	4.28
326.827	4.11
327.2	3.69
327.573	3.79
327.945	4.68
328.318	4.4
328.691	3.77
329.063	3.42
329.436	3.64
329.809	3.86
330.181	4.15
330.553	4.02
330.926	3.68
331.298	4.42
331.671	3.75
332.043	3.45
332.415	4.63
332.787	3.97
333.159	3.91
333.532	3.75
333.904	4.27
334.276	3.66
334.648	4.4
335.02	4.04
335.391	4.12
335.763	3.42
336.135	4.29
336.507	4.11
336.879	3.42
337.25	4.18
337.622	4.5
337.993	4.13
338.365	3.75
338.736	4.6
339.108	3.24
339.479	3.19
339.851	4.06
340.222	3.92
340.593	4.18
340.964	3.82
341.336	4.2
341.707	3.7
342.078	3.76
342.449	4.39
342.82	3.97
343.191	3.96
343.562	3.52
343.933	4.1
344.303	3.74
344.674	4.06
345.045	4.03
345.416	3.97
345.786	3.94
346.157	4.38
346.527	3.47
346.898	3.92
347.268	3.76
347.639	3.49
348.009	3.83
348.38	3.94
348.75	4.18
349.12	4.41
349.49	4.04
349.861	3.6
350.231	3.76
350.601	4.07
350.971	4.37
351.341	4.05
351.711	3.88
352.081	3.86
352.45	4.42
352.82	4.2
353.19	4.62
353.56	4.11
353.929	4.12
354.299	3.77
354.669	4.34
355.038	4.15
355.408	4.03
355.777	3.63
356.147	4.2
356.516	4.47
356.885	4
357.254	3.82
357.624	3.86
357.993	4.42
358.362	3.67
358.731	4.2
359.1	4.1
359.469	4.26
359.838	3.7
360.207	4.19
360.576	4
360.945	4.09
361.314	3.75
361.682	3.87
362.051	4.14
362.42	3.86
362.788	4.1
363.157	3.92
363.525	3.85
363.894	4.23
364.262	4.1
364.631	3.81
364.999	3.95
365.367	3.97
365.735	4.06
366.104	3.96
366.472	3.93
366.84	4.3
367.208	4
367.576	3.78
367.944	4
368.312	4.49
368.68	3.88
369.048	4.16
369.416	3.99
369.783	3.95
370.151	4.22
370.519	4.09
370.886	3.95
371.254	4.04
371.621	4.2
371.989	4.15
372.356	4.21
372.724	4.59
373.091	4.28
373.458	4.04
373.826	4.44
374.193	4.19
374.56	4.21
374.927	4
375.294	4.26
375.661	4.37
376.028	3.88
376.395	4.01
376.762	4.53
377.129	3.84
377.496	4.07
377.863	4.21
378.229	4.15
378.596	4.22
378.963	4.45
379.329	4.3
379.696	3.93
380.062	4.24
380.429	4.01
380.795	4.39
381.161	4.32
381.528	4.2
381.894	4.08
382.26	4.31
382.626	4.22
382.993	4.38
383.359	4.27
383.725	4.47
384.091	4.35
384.457	3.99
384.823	4.32
385.188	4.13
385.554	4.22
385.92	4.1
386.286	4.5
386.651	4.13
387.017	4.26
387.383	4.24
387.748	4.24
388.114	4.13
388.479	4.28
388.845	4.25
389.21	4.19
389.575	4.48
389.94	4.25
390.306	4.42
390.671	4.6
391.036	4.18
391.401	4.63
391.766	4.52
392.131	4.35
392.496	4.32
392.861	4.38
393.226	4.61
393.591	3.95
393.956	4.39
394.32	4.2
394.685	4.18
395.05	4.43
395.414	4.38
395.779	4.35
396.143	4.21
396.508	4.04
396.872	4.51
397.236	4.23
397.601	4.28
397.965	4.36
398.329	4.54
398.694	4.52
399.058	4.43
399.422	4.46
399.786	4.51
400.15	4.54
400.514	4.62
400.878	4.33
401.242	4.41
401.605	4.48
401.969	4.42
402.333	4.38
402.697	4.32
403.06	4.73
403.424	4.5
403.787	4.48
404.151	4.4
404.514	4.32
404.878	4.26
405.241	4.64
405.604	4.32
405.968	4.33
406.331	4.67
406.694	4.29
407.057	4.53
407.42	4.35
407.783	4.24
408.146	4.54
408.509	4.64
408.872	4.46
409.235	4.48
409.598	4.47
409.961	4.37
410.323	4.68
410.686	4.44
411.049	4.35
411.411	4.49
411.774	4.39
412.136	4.42
412.499	4.46
412.861	4.74
413.223	4.56
413.586	4.59
413.948	4.51
414.31	4.45
414.672	4.51
415.035	4.52
415.397	4.49
415.759	4.56
416.121	4.63
416.483	4.53
416.845	4.52
417.206	4.67
417.568	4.76
417.93	4.41
418.292	4.62
418.653	4.62
419.015	4.47
419.377	4.3
419.738	4.74
420.1	4.55
420.461	4.5
420.822	4.52
421.184	4.47
421.545	4.46
421.906	4.53
422.267	4.47
422.629	4.47
422.99	4.46
423.351	4.52
423.712	4.44
424.073	4.57
424.434	4.57
424.795	4.47
425.155	4.44
425.516	4.47
425.877	4.43
426.238	4.41
426.598	4.43
426.959	4.53
427.32	4.48
427.68	4.45
428.041	4.59
428.401	4.62
428.761	4.48
429.122	4.39
429.482	4.49
429.842	4.75
430.202	4.52
430.563	4.57
430.923	4.82
431.283	4.6
431.643	4.47
432.003	4.61
432.363	4.79
432.722	4.83
433.082	4.82
433.442	4.75
433.802	4.7
434.161	4.75
434.521	4.62
434.881	4.62
435.24	4.7
435.6	4.74
435.959	4.71
436.319	4.73
436.678	4.67
437.037	4.78
437.396	4.88
437.756	4.76
438.115	4.74
438.474	4.86
438.833	4.58
439.192	4.83
439.551	4.66
439.91	4.83
440.269	4.77
440.628	4.54
440.987	4.78
441.345	4.58
441.704	4.61
442.063	4.71
442.421	4.7
442.78	4.73
443.138	4.71
443.497	4.53
443.855	4.73
444.214	4.79
444.572	4.67
444.93	4.76
445.288	4.65
445.647	4.8
446.005	4.89
446.363	4.69
446.721	4.76
447.079	4.87
447.437	4.81
447.795	4.75
448.153	4.76
448.51	4.65
448.868	4.77
449.226	4.66
449.584	4.67
449.941	4.69
450.299	4.78
450.656	4.67
451.014	4.68
451.371	4.67
451.729	4.72
452.086	4.83
452.443	5
452.801	4.92
453.158	4.86
453.515	4.95
453.872	4.75
454.229	4.9
454.586	4.96
454.943	4.8
455.3	4.75
455.657	4.92
456.014	4.85
456.371	4.74
456.727	4.91
457.084	4.76
457.441	4.94
457.797	4.74
458.154	4.79
458.51	5.13
458.867	4.96
459.223	4.92
459.58	4.93
459.936	4.95
460.292	5.07
460.648	4.86
461.005	4.9
461.361	5.01
461.717	4.85
462.073	4.79
462.429	4.72
462.785	4.71
463.141	4.72
463.496	4.89
463.852	4.87
464.208	4.9
464.564	5.08
464.919	5
465.275	5.05
465.631	4.9
465.986	5.05
466.342	5.03
466.697	4.98
467.052	4.92
467.408	5
467.763	4.93
468.118	5
468.473	4.9
468.829	5.03
469.184	4.97
469.539	4.91
469.894	4.99
470.249	5
470.603	4.99
470.958	4.94
471.313	5.04
471.668	5.01
472.023	5.07
472.377	5.04
472.732	5.09
473.086	4.94
473.441	4.88
473.795	5.19
474.15	5.13
474.504	5.2
474.859	5.02
475.213	5.04
475.567	5.03
475.921	5.22
476.275	5.06
476.63	5.2
476.984	5.16
477.338	5.14
477.692	5.13
478.045	5.17
478.399	5.1
478.753	4.9
479.107	5.09
479.461	5.02
479.814	5.26
480.168	5.03
480.521	5.05
480.875	5.02
481.228	5.05
481.582	5.1
481.935	4.98
482.289	5.03
482.642	5.25
482.995	5.16
483.348	5.13
483.701	5.1
484.055	5.02
484.408	5.04
484.761	4.97
485.114	4.93
485.466	4.92
485.819	4.82
486.172	4.73
486.525	4.71
486.878	4.74
487.23	4.74
487.583	4.84
487.936	4.98
488.288	4.96
488.641	4.94
488.993	5
489.345	4.98
489.698	4.92
490.05	4.85
490.402	4.84
490.754	4.85
491.107	4.95
491.459	4.92
491.811	4.96
492.163	5.04
492.515	5.05
492.866	5.12
493.218	5.05
493.57	4.99
493.922	4.92
494.274	4.92
494.625	4.85
494.977	5.05
495.328	5.04
495.68	5.09
496.031	5.1
496.383	5.15
496.734	5.04
497.086	5.29
497.437	5.29
497.788	5.23
498.139	5.21
498.49	5.16
498.842	5.29
499.193	5.18
499.544	5.22
499.894	5.13
500.245	5.18
500.596	5.1
500.947	5.24
501.298	5.3
501.648	5.22
501.999	5.22
502.35	5.23
502.7	5.29
503.051	5.43
503.401	5.26
503.752	5.24
504.102	5.21
504.452	5.34
504.803	5.33
505.153	5.33
505.503	5.17
505.853	5.23
506.203	5.26
506.553	5.21
506.903	5.44
507.253	5.38
507.603	5.29
507.953	5.27
508.303	5.43
508.652	5.45
509.002	5.41
509.352	5.24
509.701	5.33
510.051	5.34
510.4	5.25
510.75	5.32
511.099	5.28
511.449	5.32
511.798	5.29
512.147	5.29
512.496	5.25
512.846	5.26
513.195	5.39
513.544	5.3
513.893	5.25
514.242	5.38
514.591	5.43
514.939	5.15
515.288	5.35
515.637	5.45
515.986	5.3
516.334	5.36
516.683	5.32
517.032	5.39
517.38	5.43
517.729	5.51
518.077	5.45
518.426	5.31
518.774	5.44
519.122	5.6
519.47	5.38
519.819	5.37
520.167	5.4
520.515	5.37
520.863	5.26
521.211	5.35
521.559	5.37
521.907	5.33
522.255	5.27
522.602	5.42
522.95	5.41
523.298	5.46
523.645	5.5
523.993	5.5
524.341	5.57
524.688	5.52
525.036	5.55
525.383	5.65
525.73	5.63
526.078	5.62
526.425	5.63
526.772	5.51
527.119	5.51
527.466	5.43
527.814	5.36
528.161	5.31
528.508	5.34
528.854	5.35
529.201	5.45
529.548	5.4
529.895	5.44
530.242	5.35
530.588	5.24
530.935	5.19
531.282	5.18
531.628	5.14
531.975	5.18
532.321	5.2
532.667	5.26
533.014	5.41
533.36	5.43
533.706	5.44
534.052	5.34
534.399	5.54
534.745	5.52
535.091	5.4
535.437	5.4
535.783	5.33
536.129	5.3
536.474	5.38
536.82	5.39
537.166	5.44
537.512	5.43
537.857	5.58
538.203	5.51
538.549	5.44
538.894	5.41
539.239	5.35
539.585	5.46
539.93	5.41
540.276	5.43
540.621	5.48
540.966	5.59
541.311	5.74
541.656	5.77
542.001	5.6
542.346	5.61
542.691	5.6
543.036	5.54
543.381	5.45
543.726	5.38
544.071	5.36
544.415	5.42
544.76	5.42
545.105	5.45
545.449	5.45
545.794	5.49
546.138	5.59
546.483	5.5
546.827	5.5
547.171	5.62
547.516	5.7
547.86	5.58
548.204	5.74
548.548	5.68
548.892	5.59
549.236	5.53
549.58	5.65
549.924	5.66
550.268	5.72
550.612	5.76
550.956	5.75
551.3	5.81
551.643	5.81
551.987	5.66
552.33	5.9
552.674	5.73
553.017	5.8
553.361	5.91
553.704	5.68
554.048	5.99
554.391	5.75
554.734	5.87
555.077	5.71
555.42	5.79
555.764	5.76
556.107	5.71
556.45	5.83
556.793	5.89
557.135	5.9
557.478	5.8
557.821	5.83
558.164	6.03
558.507	5.83
558.849	5.93
559.192	5.7
559.534	5.7
559.877	5.99
560.219	5.97
560.562	5.83
560.904	5.94
561.246	5.82
561.589	5.72
561.931	6.02
562.273	5.77
562.615	5.8
562.957	6.12
563.299	6.07
563.641	5.8
563.983	5.92
564.325	5.85
564.667	5.73
565.008	5.75
565.35	5.95
565.692	6.08
566.033	5.88
566.375	5.91
566.716	5.79
567.058	6.03
567.399	5.77
567.741	6.03
568.082	5.8
568.423	5.71
568.764	5.82
569.105	6.03
569.447	5.96
569.788	5.82
570.129	5.87
570.47	5.95
570.811	5.87
571.151	5.75
571.492	5.89
571.833	5.81
572.174	6.04
572.514	5.9
572.855	5.92
573.195	5.97
573.536	6
573.876	5.87
574.217	5.9
574.557	6
574.898	6.08
575.238	5.88
575.578	5.82
575.918	5.97
576.258	6.08
576.598	5.95
576.938	5.82
577.278	5.77
577.618	5.84
577.958	5.99
578.298	6.13
578.638	5.83
578.977	6.01
579.317	5.99
579.657	6.03
579.996	5.91
580.336	5.99
580.675	6.01
581.014	6.29
581.354	6.1
581.693	6
582.032	6.26
582.372	6.17
582.711	6.41
583.05	6.01
583.389	5.95
583.728	6.06
584.067	5.97
584.406	6.19
584.745	6.13
585.083	5.91
585.422	5.97
585.761	6.29
586.1	6.16
586.438	6.1
586.777	5.99
587.115	6.09
587.454	6.25
587.792	6.12
588.13	6.35
588.469	6.23
588.807	5.98
589.145	6.03
589.483	6.27
589.821	6.08
590.159	6.32
590.497	6.39
590.835	6.25
591.173	5.98
591.511	6.15
591.849	6.07
592.187	6.03
592.524	6.14
592.862	6.07
593.2	5.87
593.537	6.01
593.875	6.38
594.212	6.28
594.55	6.37
594.887	6.22
595.224	6.15
595.561	6.13
595.899	6.13
596.236	6.16
596.573	6.45
596.91	6.1
597.247	6.31
597.584	6.31
597.921	6.15
598.258	6.26
598.594	6.1
598.931	6.01
599.268	6.13
599.604	5.99
599.941	6.26
600.277	5.98
600.614	6.09
600.95	6.07
601.287	6.18
601.623	6.27
601.959	6.22
602.296	6.38
602.632	6.31
602.968	6.45
603.304	6.3
603.64	5.98
603.976	6.22
604.312	6.4
604.648	6.32
604.984	6.16
605.319	6.19
605.655	6.4
605.991	6.3
606.326	6.38
606.662	6.21
606.998	6.12
607.333	6.11
607.668	6.19
608.004	6.16
608.339	6.14
608.674	6.21
609.01	6.23
609.345	6.36
609.68	6.34
610.015	6.47
610.35	6.57
610.685	6.56
611.02	6.34
611.355	6.57
611.689	6.3
612.024	6.4
612.359	6.24
612.694	6.35
613.028	6.29
613.363	5.96
613.697	6.35
614.032	6.36
614.366	6.15
614.7	6.25
615.035	5.97
615.369	6.54
615.703	6.38
616.037	6.43
616.371	6.22
616.705	6.34
617.039	6.28
617.373	6.42
617.707	6.69
618.041	6.49
618.375	6.24
618.709	6.32
619.042	6.11
619.376	6.5
619.71	6.23
620.043	6.43
620.377	6.69
620.71	6.13
621.043	6.58
621.377	6.51
621.71	6.4
622.043	6.1
622.376	6.46
622.709	6.05
623.043	6.46
623.376	6.74
623.709	6.37
624.041	6.71
624.374	6.3
624.707	6.15
625.04	6.24
625.373	6.39
625.705	6.55
626.038	6.45
626.37	6.49
626.703	6.38
627.035	6.67
627.368	6.76
627.7	6.71
628.032	6.62
628.365	6.3
628.697	6.5
629.029	6.58
629.361	6.59
629.693	6.49
630.025	6.3
630.357	6.39
630.689	6.41
631.021	6.82
631.353	6.59
631.684	6.67
632.016	6.39
632.348	6.28
632.679	6.47
633.011	6.78
633.342	6.39
633.674	6.63
634.005	6.63
634.336	6.16
634.668	6.66
634.999	6.81
635.33	6.93
635.661	6.86
635.992	6.34
636.323	6.72
636.654	6.37
636.985	6.54
637.316	6.48
637.647	6.71
637.977	6.64
638.308	6.77
638.639	6.45
638.969	7.25
639.3	6.65
639.63	6.31
639.961	6.55
640.291	6.57
640.622	6.75
640.952	6.23
641.282	6.68
641.612	6.58
641.943	6.74
642.273	7.04
642.603	6.58
642.933	6.49
643.263	7.22
643.592	6.52
643.922	6.66
644.252	6.58
644.582	6.64
644.911	6.73
645.241	6.36
645.571	6.41
645.9	6.56
646.23	6.83
646.559	6.51
646.888	7
647.218	6.46
647.547	6.75
647.876	7.2
648.205	6.81
648.534	7.47
648.863	6.94
649.192	6.8
649.521	6.95
649.85	6.63
650.179	6.76
650.508	6.96
650.837	6.4
651.165	6.91
651.494	6.33
651.822	6.65
652.151	6.91
652.479	7.47
652.808	6.81
653.136	6.65
653.465	6.75
653.793	7.44
654.121	6.84
654.449	6.74
654.777	6.47
655.105	6.74
655.433	6.87
655.761	6.92
656.089	6.97
656.417	7.07
656.745	7.08
657.073	6.91
657.4	7.09
657.728	7.19
658.056	6.77
658.383	7.04
658.711	7.2
659.038	7.32
659.365	7.12
659.693	6.65
660.02	6.71
660.347	7.2
660.674	6.91
661.001	7.26
661.329	6.63
661.656	6.87
661.982	6.9
662.309	6.97
662.636	6.77
662.963	7.03
663.29	7.01
663.616	7
663.943	7.31
664.27	7.22
664.596	7.06
664.923	7.42
665.249	7.26
665.576	7.4
665.902	6.76
666.228	7.05
666.554	6.61
666.881	6.9
667.207	6.92
667.533	7.53
667.859	6.93
668.185	6.49
668.511	7.23
668.837	6.28
669.162	7.23
669.488	7.05
669.814	7.14
670.139	6.52
670.465	7.42
670.791	7.41
671.116	7.13
671.442	7.37
671.767	6.58
672.092	7.59
672.418	7.03
672.743	7.42
673.068	7.06
673.393	7.02
673.718	6.27
674.043	7.31
674.368	7.45
674.693	7.35
675.018	7.63
675.343	6.9
675.667	7.44
675.992	7.31
676.317	7.14
676.641	7.98
676.966	7.17
677.29	7.04
677.615	7.77
677.939	7.23
678.264	7.22
678.588	6.79
678.912	7.55
679.236	6.91
679.56	6.72
679.885	7.37
680.209	7.2
680.532	7.48
680.856	7.05
681.18	7.15
681.504	7.5
681.828	7.14
682.152	7.57
682.475	7.38
682.799	7.31
683.122	7.33
683.446	6.94
683.769	7.49
684.093	7.41
684.416	8.3
684.739	7.13
685.062	7.84
685.386	7.23
685.709	7.35
686.032	7.11
686.355	7.46
686.678	7.36
687.001	6.66
687.324	7.18
687.646	7.22
687.969	7.49
688.292	7.78
688.614	7.55
688.937	7.55
689.26	7.67
689.582	7.12
689.904	8.16
690.227	8.63
690.549	6.81
690.871	8.18
691.194	7.75
691.516	7.43
691.838	7.96
692.16	7.91
692.482	7.76
692.804	7.47
693.126	7.25
