Data from 0089_chest_Reflection__2__123.txt Node

Date: Mon Aug 28 19:43:10 CDT 2023
User: ToomeyLab
Spectrometer: FLMS14357
Trigger mode: 0
Integration Time (sec): 1.000000E-2
Scans to average: 100
Electric dark correction enabled: true
Nonlinearity correction enabled: false
Boxcar width: 0
XAxis mode: Wavelengths
Number of Pixels in Spectrum: 2048
>>>>>Begin Spectral Data<<<<<
189.047	7.93
189.435	7.93
189.823	7.93
190.211	-2448.84
190.599	222.54
190.987	144.5
191.375	20.11
191.763	64.08
192.151	161.37
192.538	131.6
192.926	22.58
193.314	466.59
193.702	76.71
194.089	108.21
194.477	-2450.59
194.864	153.08
195.252	27.97
195.639	-1329.06
196.027	121.46
196.414	482.97
196.801	-24.29
197.189	12.61
197.576	-346.73
197.963	27.43
198.351	-36.01
198.738	40.02
199.125	21.07
199.512	38.93
199.899	-41.14
200.286	-83.04
200.673	34.47
201.06	17.69
201.447	-76.5
201.833	-9.44
202.22	3.99
202.607	11.24
202.994	38.36
203.38	16.69
203.767	-1.85
204.154	-4.63
204.54	-33.15
204.927	-3.37
205.313	30.33
205.699	-34.44
206.086	10.39
206.472	1.24
206.858	-72.98
207.245	1.82
207.631	20.43
208.017	11.41
208.403	16.56
208.789	-2.95
209.175	-36.08
209.561	-38.03
209.947	2.84
210.333	-2.32
210.719	15.8
211.105	26.55
211.491	-26.43
211.876	35.93
212.262	26.46
212.648	3.9
213.034	-40.09
213.419	-0.71
213.805	15.44
214.19	-0.73
214.576	31.46
214.961	15.13
215.346	-28.31
215.732	36.02
216.117	-29.81
216.502	10.3
216.888	-21.06
217.273	-5.21
217.658	3.27
218.043	-9.78
218.428	-28.11
218.813	2.34
219.198	5.21
219.583	6.75
219.968	9.31
220.353	10.22
220.738	20.19
221.122	-4.54
221.507	-16.46
221.892	-4.13
222.276	-0.46
222.661	6.03
223.046	-1.89
223.43	7.64
223.815	-1.58
224.199	7.18
224.583	6.59
224.968	-1.84
225.352	9.87
225.736	6.73
226.121	-5.53
226.505	4.49
226.889	4.94
227.273	8.65
227.657	-5.99
228.041	3.12
228.425	1.8
228.809	1.64
229.193	5.01
229.577	6.14
229.961	0.27
230.344	2.34
230.728	1.52
231.112	1.44
231.495	1.96
231.879	1.42
232.263	2.03
232.646	0.84
233.03	3.96
233.413	4
233.797	2.21
234.18	2.1
234.563	0.45
234.946	4.39
235.33	1.86
235.713	-0.4
236.096	1.87
236.479	2.63
236.862	2.26
237.245	2.2
237.628	2.29
238.011	2
238.394	2.59
238.777	2.75
239.16	-0.71
239.543	-0.4
239.925	3.54
240.308	-0.48
240.691	1.03
241.073	1.2
241.456	1.09
241.838	1.93
242.221	3.4
242.603	2.56
242.986	2.3
243.368	2.07
243.75	1.75
244.133	1.76
244.515	1.55
244.897	2.14
245.279	1.7
245.661	2.08
246.043	2.49
246.425	0.88
246.807	3.12
247.189	1.14
247.571	1.62
247.953	1.66
248.335	2.11
248.717	1.67
249.098	1.79
249.48	2.03
249.862	2.1
250.243	1.78
250.625	2.1
251.006	2.06
251.388	1.92
251.769	2.02
252.151	1.88
252.532	1.74
252.913	2.08
253.295	1.45
253.676	1.86
254.057	2.44
254.438	1.79
254.819	1.7
255.2	2.27
255.581	1.7
255.962	2.73
256.343	3.04
256.724	1.71
257.105	1.22
257.486	1.91
257.867	1.54
258.247	1.86
258.628	1.84
259.009	1.57
259.389	1.15
259.77	2.03
260.15	1.76
260.531	1.31
260.911	2.1
261.292	1.91
261.672	1.98
262.052	1.57
262.432	1.71
262.813	1.93
263.193	1.61
263.573	1.81
263.953	2.2
264.333	1.27
264.713	1.52
265.093	2.53
265.473	2.03
265.853	1.52
266.233	1.16
266.612	2.06
266.992	0.94
267.372	1.75
267.752	2.4
268.131	2.12
268.511	1.31
268.89	1.76
269.27	1.75
269.649	2.08
270.029	1.84
270.408	1.87
270.787	2.24
271.167	1.51
271.546	1.46
271.925	2.51
272.304	1.54
272.683	2.02
273.062	1.48
273.441	1.82
273.82	1.61
274.199	1.32
274.578	1.69
274.957	1.76
275.336	2.05
275.715	2.01
276.093	1.28
276.472	1.28
276.851	1.65
277.229	2.5
277.608	1.92
277.986	1.6
278.365	1.68
278.743	1.63
279.122	1.1
279.5	1.44
279.878	1.01
280.257	1.35
280.635	1.51
281.013	1.54
281.391	1.71
281.769	0.9
282.147	1.48
282.525	1.84
282.903	2.14
283.281	1.32
283.659	2.12
284.037	2.2
284.415	1.1
284.792	1.95
285.17	1.74
285.548	1.58
285.925	2.38
286.303	1.84
286.68	2.02
287.058	2.16
287.435	1.62
287.813	1.59
288.19	1.85
288.567	1.87
288.945	1.86
289.322	2.03
289.699	1.84
290.076	1.81
290.453	1.62
290.83	1.83
291.207	1.81
291.584	1.46
291.961	1.35
292.338	1.25
292.715	1.59
293.092	1.91
293.469	2.42
293.845	2.14
294.222	1.79
294.599	2.12
294.975	1.75
295.352	1.45
295.728	1.82
296.105	1.98
296.481	1.88
296.858	2.26
297.234	1.98
297.61	2.4
297.986	1.99
298.363	2.24
298.739	1.9
299.115	1.91
299.491	1.96
299.867	1.94
300.243	2.01
300.619	2.2
300.995	2.41
301.371	1.66
301.746	2.19
302.122	2.11
302.498	1.92
302.874	2.04
303.249	2.05
303.625	2.26
304	2.14
304.376	1.84
304.751	1.67
305.127	2.49
305.502	1.77
305.878	1.94
306.253	1.98
306.628	2.1
307.003	1.97
307.378	2.24
307.754	2.31
308.129	1.97
308.504	2.39
308.879	1.9
309.254	2.13
309.629	1.52
310.003	1.86
310.378	1.96
310.753	2.54
311.128	2.36
311.502	2.57
311.877	1.83
312.252	2.09
312.626	1.86
313.001	2.06
313.375	2.16
313.75	2.05
314.124	2.12
314.498	2.62
314.873	2.06
315.247	2.55
315.621	1.74
315.995	2.63
316.369	2.29
316.743	2.46
317.117	2.33
317.491	1.68
317.865	2
318.239	1.99
318.613	2.44
318.987	2.5
319.361	2.1
319.734	2.15
320.108	1.94
320.482	2.39
320.855	2.17
321.229	2.54
321.602	2.16
321.976	1.21
322.349	2.71
322.723	1.87
323.096	2.52
323.469	2.05
323.843	2.43
324.216	2.75
324.589	2.52
324.962	2.95
325.335	2.04
325.708	1.83
326.081	2.01
326.454	2.36
326.827	2
327.2	2.26
327.573	2.27
327.945	2.98
328.318	2.39
328.691	2.31
329.063	1.89
329.436	2.39
329.809	2.63
330.181	2.08
330.553	2.17
330.926	2.68
331.298	2.58
331.671	2.62
332.043	2.46
332.415	2.74
332.787	1.67
333.159	2.23
333.532	2.71
333.904	2.08
334.276	1.85
334.648	2.52
335.02	2.6
335.391	2.46
335.763	2.13
336.135	2.43
336.507	2.28
336.879	1.38
337.25	2.89
337.622	2.29
337.993	2.46
338.365	1.99
338.736	2.47
339.108	1.93
339.479	1.6
339.851	2.35
340.222	2.5
340.593	1.99
340.964	2.31
341.336	2.39
341.707	2.38
342.078	2.08
342.449	2.2
342.82	2.2
343.191	2.23
343.562	2.17
343.933	2.2
344.303	2.16
344.674	2.4
345.045	2.73
345.416	2.66
345.786	2.75
346.157	2.29
346.527	1.87
346.898	2.42
347.268	2.15
347.639	1.91
348.009	2
348.38	2.61
348.75	2.11
349.12	2.3
349.49	2.32
349.861	1.97
350.231	1.92
350.601	2.53
350.971	2.54
351.341	2.19
351.711	2.38
352.081	2.57
352.45	2.16
352.82	2.64
353.19	2.75
353.56	2.18
353.929	2.31
354.299	2.07
354.669	2.63
355.038	2.65
355.408	2.55
355.777	2.1
356.147	2.35
356.516	2.76
356.885	2.45
357.254	2.39
357.624	2.55
357.993	2.73
358.362	2.5
358.731	2.5
359.1	2.5
359.469	2.62
359.838	2.08
360.207	2.47
360.576	2.59
360.945	2.31
361.314	2.07
361.682	2.23
362.051	2.62
362.42	2.63
362.788	2.22
363.157	2.47
363.525	2.28
363.894	2.54
364.262	2.4
364.631	2.15
364.999	2.45
365.367	2.62
365.735	2.42
366.104	2.27
366.472	2.28
366.84	2.42
367.208	2.49
367.576	2.2
367.944	2.52
368.312	2.9
368.68	2.13
369.048	2.28
369.416	2.31
369.783	2.3
370.151	2.64
370.519	2.35
370.886	2.45
371.254	2.26
371.621	2.41
371.989	2.47
372.356	2.51
372.724	2.72
373.091	2.73
373.458	2.01
373.826	2.67
374.193	2.45
374.56	2.69
374.927	2.08
375.294	2.32
375.661	2.44
376.028	2.22
376.395	2.32
376.762	2.82
377.129	2.44
377.496	2.44
377.863	2.58
378.229	2.58
378.596	2.69
378.963	2.74
379.329	2.63
379.696	2.47
380.062	2.27
380.429	2.36
380.795	2.5
381.161	2.56
381.528	2.68
381.894	2.34
382.26	2.51
382.626	2.76
382.993	2.36
383.359	2.55
383.725	2.93
384.091	2.48
384.457	2.29
384.823	2.5
385.188	2.28
385.554	2.33
385.92	2.49
386.286	2.67
386.651	2.39
387.017	2.68
387.383	2.57
387.748	2.52
388.114	2.55
388.479	2.41
388.845	2.71
389.21	2.35
389.575	2.63
389.94	2.65
390.306	2.66
390.671	2.42
391.036	2.52
391.401	2.68
391.766	2.95
392.131	2.58
392.496	2.27
392.861	2.51
393.226	2.62
393.591	2.28
393.956	2.55
394.32	2.65
394.685	2.56
395.05	2.63
395.414	2.54
395.779	2.5
396.143	2.45
396.508	2.33
396.872	2.68
397.236	2.47
397.601	2.53
397.965	2.64
398.329	2.83
398.694	2.66
399.058	2.52
399.422	2.79
399.786	2.47
400.15	2.92
400.514	2.62
400.878	2.66
401.242	2.63
401.605	2.48
401.969	2.73
402.333	2.62
402.697	2.53
403.06	2.65
403.424	2.82
403.787	2.45
404.151	2.36
404.514	2.54
404.878	2.45
405.241	2.55
405.604	2.73
405.968	2.57
406.331	2.81
406.694	2.69
407.057	2.76
407.42	2.61
407.783	2.76
408.146	2.57
408.509	2.72
408.872	2.51
409.235	2.6
409.598	2.65
409.961	2.78
410.323	2.94
410.686	2.71
411.049	3.03
411.411	2.61
411.774	2.82
412.136	2.62
412.499	2.61
412.861	2.62
413.223	2.56
413.586	2.4
413.948	2.81
414.31	2.71
414.672	2.6
415.035	2.62
415.397	2.5
415.759	2.88
416.121	2.73
416.483	2.66
416.845	2.9
417.206	2.98
417.568	2.7
417.93	2.56
418.292	2.85
418.653	2.65
419.015	2.71
419.377	2.54
419.738	2.8
420.1	2.72
420.461	2.8
420.822	2.81
421.184	2.71
421.545	2.69
421.906	2.7
422.267	2.75
422.629	2.58
422.99	2.65
423.351	2.73
423.712	2.58
424.073	2.67
424.434	2.69
424.795	2.71
425.155	2.73
425.516	2.77
425.877	2.63
426.238	2.59
426.598	2.62
426.959	2.67
427.32	2.7
427.68	2.73
428.041	2.69
428.401	2.73
428.761	2.65
429.122	2.72
429.482	2.88
429.842	2.93
430.202	2.77
430.563	2.66
430.923	3.06
431.283	2.69
431.643	2.67
432.003	2.77
432.363	2.9
432.722	2.82
433.082	2.76
433.442	2.94
433.802	2.75
434.161	2.83
434.521	2.8
434.881	2.79
435.24	2.79
435.6	2.91
435.959	2.82
436.319	2.88
436.678	2.88
437.037	2.78
437.396	2.81
437.756	2.89
438.115	2.82
438.474	3.03
438.833	2.88
439.192	3.02
439.551	2.75
439.91	2.96
440.269	2.89
440.628	2.79
440.987	2.86
441.345	2.84
441.704	2.9
442.063	2.82
442.421	2.83
442.78	2.92
443.138	2.81
443.497	2.8
443.855	2.87
444.214	2.92
444.572	2.88
444.93	2.93
445.288	2.86
445.647	2.92
446.005	2.97
446.363	2.94
446.721	2.85
447.079	2.84
447.437	2.84
447.795	2.85
448.153	2.87
448.51	2.83
448.868	3.01
449.226	2.84
449.584	2.87
449.941	2.96
450.299	2.94
450.656	2.95
451.014	2.8
451.371	2.97
451.729	2.84
452.086	2.87
452.443	3.15
452.801	3.16
453.158	3
453.515	3.01
453.872	2.86
454.229	3.07
454.586	3.09
454.943	2.93
455.3	2.94
455.657	2.98
456.014	3
456.371	3.02
456.727	3.03
457.084	2.9
457.441	3
457.797	2.92
458.154	3.09
458.51	3.04
458.867	3.1
459.223	3.15
459.58	2.97
459.936	2.99
460.292	3.14
460.648	2.98
461.005	3
461.361	2.96
461.717	2.94
462.073	2.92
462.429	2.88
462.785	2.97
463.141	3.04
463.496	3.11
463.852	3.02
464.208	3.05
464.564	3.09
464.919	3.2
465.275	3.24
465.631	3.16
465.986	3.1
466.342	3.24
466.697	3.11
467.052	2.92
467.408	3.08
467.763	3.08
468.118	3.05
468.473	3.06
468.829	3.13
469.184	3.01
469.539	3.18
469.894	3.02
470.249	3.03
470.603	2.97
470.958	3.1
471.313	3.18
471.668	3.1
472.023	3.18
472.377	3.21
472.732	3.16
473.086	3.18
473.441	3.25
473.795	3.33
474.15	3.23
474.504	3.32
474.859	3.13
475.213	3.2
475.567	3.2
475.921	3.34
476.275	3.21
476.63	3.4
476.984	3.29
477.338	3.19
477.692	3.18
478.045	3.16
478.399	3.19
478.753	3.23
479.107	3.24
479.461	3.18
479.814	3.29
480.168	3.27
480.521	3.25
480.875	3.28
481.228	3.11
481.582	3.16
481.935	3.21
482.289	3.34
482.642	3.23
482.995	3.3
483.348	3.29
483.701	3.19
484.055	3.27
484.408	3.2
484.761	3.2
485.114	3.12
485.466	3.04
485.819	2.97
486.172	2.93
486.525	2.98
486.878	3.06
487.23	3.13
487.583	3.26
487.936	3.24
488.288	3.3
488.641	3.3
488.993	3.19
489.345	3.16
489.698	3.15
490.05	3.07
490.402	3.08
490.754	3.16
491.107	3.23
491.459	3.28
491.811	3.28
492.163	3.32
492.515	3.37
492.866	3.36
493.218	3.27
493.57	3.22
493.922	3.09
494.274	3.2
494.625	3.22
494.977	3.37
495.328	3.42
495.68	3.38
496.031	3.41
496.383	3.34
496.734	3.43
497.086	3.56
497.437	3.55
497.788	3.37
498.139	3.44
498.49	3.39
498.842	3.42
499.193	3.38
499.544	3.47
499.894	3.36
500.245	3.49
500.596	3.48
500.947	3.52
501.298	3.51
501.648	3.53
501.999	3.44
502.35	3.45
502.7	3.57
503.051	3.5
503.401	3.51
503.752	3.49
504.102	3.53
504.452	3.53
504.803	3.67
505.153	3.5
505.503	3.37
505.853	3.62
506.203	3.55
506.553	3.5
506.903	3.6
507.253	3.75
507.603	3.53
507.953	3.67
508.303	3.76
508.652	3.71
509.002	3.84
509.352	3.51
509.701	3.57
510.051	3.54
510.4	3.58
510.75	3.61
511.099	3.66
511.449	3.47
511.798	3.67
512.147	3.66
512.496	3.66
512.846	3.51
513.195	3.7
513.544	3.7
513.893	3.63
514.242	3.7
514.591	3.72
514.939	3.6
515.288	3.67
515.637	3.72
515.986	3.71
516.334	3.86
516.683	3.89
517.032	3.83
517.38	3.95
517.729	3.84
518.077	3.77
518.426	3.76
518.774	3.84
519.122	3.87
519.47	3.72
519.819	3.8
520.167	3.79
520.515	3.87
520.863	3.69
521.211	3.72
521.559	3.73
521.907	3.86
522.255	3.87
522.602	3.92
522.95	3.97
523.298	3.95
523.645	4.01
523.993	3.85
524.341	4.02
524.688	4.02
525.036	3.92
525.383	3.95
525.73	3.97
526.078	4.18
526.425	4.07
526.772	4.06
527.119	3.99
527.466	3.85
527.814	3.83
528.161	3.86
528.508	3.9
528.854	3.99
529.201	3.98
529.548	3.93
529.895	3.98
530.242	3.91
530.588	3.77
530.935	3.72
531.282	3.79
531.628	3.85
531.975	3.96
532.321	4.05
532.667	4.06
533.014	4.19
533.36	4.15
533.706	4.16
534.052	4.09
534.399	4.15
534.745	4.21
535.091	4.03
535.437	4
535.783	4.02
536.129	4.02
536.474	4.09
536.82	4.23
537.166	4.18
537.512	4.27
537.857	4.37
538.203	4.22
538.549	4.19
538.894	4.18
539.239	4.13
539.585	4.22
539.93	4.31
540.276	4.28
540.621	4.45
540.966	4.45
541.311	4.62
541.656	4.41
542.001	4.35
542.346	4.41
542.691	4.36
543.036	4.3
543.381	4.23
543.726	4.19
544.071	4.29
544.415	4.36
544.76	4.39
545.105	4.48
545.449	4.46
545.794	4.49
546.138	4.56
546.483	4.55
546.827	4.55
547.171	4.51
547.516	4.5
547.86	4.63
548.204	4.64
548.548	4.66
548.892	4.55
549.236	4.52
549.58	4.49
549.924	4.57
550.268	4.8
550.612	4.84
550.956	4.88
551.3	4.78
551.643	4.79
551.987	4.69
552.33	4.96
552.674	4.82
553.017	4.92
553.361	4.99
553.704	5.1
554.048	4.99
554.391	5.06
554.734	5.07
555.077	4.9
555.42	4.97
555.764	5.06
556.107	4.97
556.45	5.1
556.793	5.08
557.135	5.14
557.478	5.05
557.821	5.13
558.164	5.35
558.507	5.15
558.849	5.29
559.192	5.07
559.534	5.12
559.877	5.34
560.219	5.15
560.562	5.24
560.904	5.32
561.246	5.19
561.589	5.22
561.931	5.42
562.273	5.32
562.615	5.27
562.957	5.19
563.299	5.46
563.641	5.21
563.983	5.49
564.325	5.34
564.667	5.23
565.008	5.31
565.35	5.6
565.692	5.54
566.033	5.42
566.375	5.5
566.716	5.52
567.058	5.45
567.399	5.42
567.741	5.5
568.082	5.41
568.423	5.52
568.764	5.49
569.105	5.61
569.447	5.59
569.788	5.53
570.129	5.64
570.47	5.65
570.811	5.75
571.151	5.59
571.492	5.77
571.833	5.68
572.174	5.84
572.514	5.77
572.855	5.64
573.195	5.76
573.536	5.97
573.876	5.64
574.217	5.93
574.557	5.89
574.898	6.05
575.238	5.96
575.578	5.81
575.918	6.04
576.258	5.94
576.598	6.19
576.938	5.97
577.278	5.96
577.618	5.98
577.958	6.01
578.298	6.17
578.638	6.16
578.977	6.14
579.317	5.98
579.657	6.2
579.996	6.18
580.336	6.32
580.675	6.26
581.014	6.49
581.354	6.26
581.693	6.48
582.032	6.64
582.372	6.34
582.711	6.6
583.05	6.29
583.389	6.43
583.728	6.49
584.067	6.75
584.406	6.44
584.745	6.59
585.083	6.54
585.422	6.59
585.761	6.96
586.1	6.82
586.438	6.56
586.777	6.39
587.115	6.67
587.454	6.67
587.792	6.82
588.13	6.78
588.469	6.86
588.807	6.74
589.145	6.8
589.483	6.73
589.821	7
590.159	7.05
590.497	6.8
590.835	7.06
591.173	6.86
591.511	6.76
591.849	6.92
592.187	6.97
592.524	7.05
592.862	7.11
593.2	7.01
593.537	6.91
593.875	7.19
594.212	7.14
594.55	7.15
594.887	7.22
595.224	7.46
595.561	7.13
595.899	7.07
596.236	7.24
596.573	7.3
596.91	7.1
597.247	7.16
597.584	7.37
597.921	7.37
598.258	7.4
598.594	7.3
598.931	7.1
599.268	7.2
599.604	7.33
599.941	7.47
600.277	7.49
600.614	7.52
600.95	7.52
601.287	7.78
601.623	7.8
601.959	7.64
602.296	7.67
602.632	7.65
602.968	7.68
603.304	7.72
603.64	7.55
603.976	7.78
604.312	7.96
604.648	7.77
604.984	7.79
605.319	7.94
605.655	7.93
605.991	7.88
606.326	7.98
606.662	7.89
606.998	7.65
607.333	7.83
607.668	7.75
608.004	8
608.339	7.91
608.674	7.69
609.01	8.08
609.345	8.08
609.68	8.05
610.015	8.28
610.35	8.55
610.685	8.21
611.02	8.26
611.355	8.27
611.689	7.98
612.024	8.31
612.359	8.17
612.694	8.37
613.028	8.26
613.363	8.26
613.697	8.23
614.032	8.54
614.366	8.15
614.7	8.74
615.035	8.38
615.369	8.51
615.703	8.53
616.037	8.34
616.371	8.19
616.705	8.8
617.039	8.55
617.373	8.54
617.707	8.52
618.041	8.73
618.375	8.75
618.709	9
619.042	8.94
619.376	8.9
619.71	8.85
620.043	8.73
620.377	9.03
620.71	8.77
621.043	9.14
621.377	8.96
621.71	8.99
622.043	8.49
622.376	9.57
622.709	9.01
623.043	9.57
623.376	9.26
623.709	9.05
624.041	9.32
624.374	9.19
624.707	8.71
625.04	8.84
625.373	9.19
625.705	9.34
626.038	9.26
626.37	9.29
626.703	9.68
627.035	9.69
627.368	9.55
627.7	9.62
628.032	9.47
628.365	9.13
628.697	9.61
629.029	9.49
629.361	9.34
629.693	9.55
630.025	9.36
630.357	9.37
630.689	9.7
631.021	9.76
631.353	9.62
631.684	9.48
632.016	9.5
632.348	9.57
632.679	9.8
633.011	10.05
633.342	9.38
633.674	9.63
634.005	10.19
634.336	9.74
634.668	10.04
634.999	9.89
635.33	9.95
635.661	10.01
635.992	9.67
636.323	10.1
636.654	9.92
636.985	9.92
637.316	10.06
637.647	10.05
637.977	9.76
638.308	9.95
638.639	10.03
638.969	10.47
639.3	10.11
639.63	10.31
639.961	10.34
640.291	10.14
640.622	10.39
640.952	9.93
641.282	10.47
641.612	10.55
641.943	10.01
642.273	10.48
642.603	10.01
642.933	10.32
643.263	10.3
643.592	10.44
643.922	10.69
644.252	10.22
644.582	10.95
644.911	10.58
645.241	10.68
645.571	10.73
645.9	10.56
646.23	10.62
646.559	10.64
646.888	10.88
647.218	10.36
647.547	10.89
647.876	11.42
648.205	10.88
648.534	11.35
648.863	10.71
649.192	10.92
649.521	11.13
649.85	11.67
650.179	11.17
650.508	10.75
650.837	10.91
651.165	10.85
651.494	11.11
651.822	10.61
652.151	10.9
652.479	11.64
652.808	10.86
653.136	11.13
653.465	11.13
653.793	11.4
654.121	11.55
654.449	11.46
654.777	11.19
655.105	11.23
655.433	11.33
655.761	11.22
656.089	11.38
656.417	11.01
656.745	11.9
657.073	11.14
657.4	11.02
657.728	12.23
658.056	11.06
658.383	11.81
658.711	11.74
659.038	11.37
659.365	11.77
659.693	11.63
660.02	11.46
660.347	11.72
660.674	11.58
661.001	11.8
661.329	11.44
661.656	11.75
661.982	11.69
662.309	11.69
662.636	11.7
662.963	11.95
663.29	12.1
663.616	11.42
663.943	12.24
664.27	12.18
664.596	12.28
664.923	12.02
665.249	11.74
665.576	11.76
665.902	11.95
666.228	11.44
666.554	11.98
666.881	12.26
667.207	11.99
667.533	12.09
667.859	11.64
668.185	11.97
668.511	12.59
668.837	11.91
669.162	12.25
669.488	11.77
669.814	12.73
670.139	12.2
670.465	12.63
670.791	12.7
671.116	12.28
671.442	12.61
671.767	11.79
672.092	12.37
672.418	12.44
672.743	13.19
673.068	12.36
673.393	12.6
673.718	12.02
674.043	13.4
674.368	12.88
674.693	12.24
675.018	13.54
675.343	12.53
675.667	13.17
675.992	12.73
676.317	12.11
676.641	13.46
676.966	12.22
677.29	12.52
677.615	13.38
677.939	12.31
678.264	12.41
678.588	12.8
678.912	13.43
679.236	12.96
679.56	12.52
679.885	13.01
680.209	13.16
680.532	13.26
680.856	12.44
681.18	13.04
681.504	12.88
681.828	13.02
682.152	13.62
682.475	13.29
682.799	13.46
683.122	13.22
683.446	13.08
683.769	13.74
684.093	13.41
684.416	13.23
684.739	13.17
685.062	13.84
685.386	13.57
685.709	13.48
686.032	12.63
686.355	12.75
686.678	13.82
687.001	12.76
687.324	13.36
687.646	13.48
687.969	13.81
688.292	14.12
688.614	13.65
688.937	14.22
