Data from 0411_crown_Reflection__4__271.txt Node

Date: Fri Dec 15 18:42:14 CST 2023
User: ToomeyLab
Spectrometer: FLMS14357
Trigger mode: 0
Integration Time (sec): 1.000000E-2
Scans to average: 100
Electric dark correction enabled: true
Nonlinearity correction enabled: false
Boxcar width: 0
XAxis mode: Wavelengths
Number of Pixels in Spectrum: 2048
>>>>>Begin Spectral Data<<<<<
189.047	168.76
189.435	168.76
189.823	168.76
190.211	157.44
190.599	258.73
190.987	45.72
191.375	81.14
191.763	72.33
192.151	134.96
192.538	108.85
192.926	72.05
193.314	207.23
193.702	81.39
194.089	-343.59
194.477	72.97
194.864	-415.75
195.252	86.5
195.639	74.49
196.027	197.93
196.414	40.52
196.801	-173.13
197.189	132.28
197.576	136.99
197.963	-241.01
198.351	-59.32
198.738	5.6
199.125	33.48
199.512	-57.14
199.899	50.24
200.286	-0.63
200.673	-9.04
201.06	11.52
201.447	31.47
201.833	42.43
202.22	-34.86
202.607	3.9
202.994	12.51
203.38	-9.39
203.767	59.32
204.154	12.55
204.54	33.71
204.927	-23.89
205.313	25.19
205.699	14.7
206.086	34.26
206.472	6.44
206.858	3.88
207.245	17.68
207.631	-1.99
208.017	25.01
208.403	15.59
208.789	37.68
209.175	17.93
209.561	-36.33
209.947	2.77
210.333	-61
210.719	5.93
211.105	8.97
211.491	-56.89
211.876	-1.56
212.262	-4.57
212.648	-5.15
213.034	19.58
213.419	-18.48
213.805	-19.27
214.19	-25.62
214.576	-23.23
214.961	-60.77
215.346	-94.08
215.732	-4.64
216.117	-14.41
216.502	-26.21
216.888	24.5
217.273	-0.4
217.658	-6.57
218.043	-21.2
218.428	-52.39
218.813	-22.04
219.198	-43.13
219.583	-8.23
219.968	-22.33
220.353	-5.2
220.738	-4.42
221.122	-27.04
221.507	-26.43
221.892	-41.61
222.276	-8.38
222.661	-17.71
223.046	9.92
223.43	5.75
223.815	1.81
224.199	-14.05
224.583	-0.21
224.968	-8.51
225.352	2.83
225.736	-6.48
226.121	-17.22
226.505	4.07
226.889	2.79
227.273	3.38
227.657	4.48
228.041	3.2
228.425	3.2
228.809	9.1
229.193	3.83
229.577	4.3
229.961	7.35
230.344	4.83
230.728	4.03
231.112	5.25
231.495	4.94
231.879	2.88
232.263	6.75
232.646	3.37
233.03	3.14
233.413	4.46
233.797	3.87
234.18	3.2
234.563	3.57
234.946	4.62
235.33	4.92
235.713	6.12
236.096	4.67
236.479	4.86
236.862	3.5
237.245	5.76
237.628	2.87
238.011	6.02
238.394	6.85
238.777	6.55
239.16	3.7
239.543	4.14
239.925	2.56
240.308	3.58
240.691	6.22
241.073	6.35
241.456	5.22
241.838	3.54
242.221	3.83
242.603	4.91
242.986	4.28
243.368	5.05
243.75	5
244.133	4.85
244.515	5.17
244.897	5.45
245.279	4.77
245.661	4.96
246.043	3.83
246.425	3.28
246.807	5.84
247.189	4.93
247.571	4.98
247.953	4.87
248.335	4.95
248.717	5.12
249.098	4.79
249.48	4.98
249.862	4.64
250.243	5.22
250.625	4.68
251.006	4.77
251.388	3.97
251.769	4.66
252.151	5.23
252.532	4.5
252.913	4.15
253.295	3.74
253.676	4.72
254.057	4.29
254.438	4.19
254.819	4
255.2	3.31
255.581	4
255.962	3.53
256.343	3.47
256.724	3.43
257.105	3.64
257.486	2.85
257.867	4.65
258.247	3.4
258.628	4.61
259.009	3.91
259.389	3.78
259.77	4.12
260.15	3.58
260.531	3.89
260.911	4.88
261.292	4.3
261.672	4.58
262.052	4.55
262.432	4.65
262.813	4.63
263.193	4.53
263.573	3.85
263.953	3.98
264.333	4.62
264.713	4.44
265.093	4.14
265.473	4.27
265.853	3.31
266.233	3.26
266.612	3.04
266.992	2.55
267.372	4.66
267.752	3.76
268.131	4.09
268.511	4.63
268.89	4.87
269.27	4.09
269.649	3.25
270.029	3.94
270.408	4.8
270.787	3.76
271.167	4.3
271.546	4.5
271.925	3.75
272.304	3.63
272.683	4.09
273.062	3.87
273.441	4.28
273.82	4.02
274.199	3.65
274.578	3.84
274.957	4.09
275.336	3.86
275.715	3.98
276.093	3.77
276.472	4.26
276.851	3.4
277.229	3.63
277.608	3.73
277.986	3.47
278.365	4.38
278.743	3.49
279.122	4.01
279.5	3.88
279.878	3.92
280.257	3.84
280.635	3.65
281.013	3.37
281.391	3.87
281.769	4.02
282.147	4.12
282.525	4.15
282.903	3.28
283.281	4.96
283.659	4.22
284.037	3.92
284.415	3.8
284.792	4.35
285.17	3.18
285.548	3.48
285.925	3.84
286.303	4.21
286.68	3.55
287.058	3.66
287.435	3.76
287.813	3.69
288.19	4.19
288.567	3.9
288.945	4.63
289.322	3.93
289.699	3.55
290.076	3.84
290.453	3.51
290.83	3.73
291.207	3.4
291.584	4.29
291.961	4.35
292.338	3.69
292.715	4.12
293.092	3.81
293.469	3.92
293.845	3.82
294.222	3.07
294.599	3.64
294.975	3.37
295.352	3.8
295.728	3.39
296.105	3.9
296.481	3.98
296.858	3.74
297.234	3.25
297.61	3.75
297.986	3.38
298.363	3.71
298.739	3.62
299.115	3.43
299.491	3.28
299.867	3.77
300.243	3.65
300.619	3.03
300.995	3.31
301.371	3.45
301.746	3.36
302.122	3.82
302.498	3.47
302.874	3.65
303.249	3.48
303.625	3.82
304	3.8
304.376	3.57
304.751	2.67
305.127	4.09
305.502	2.6
305.878	3.72
306.253	3.9
306.628	3.78
307.003	3.5
307.378	3.87
307.754	3.76
308.129	2.46
308.504	3.84
308.879	3.06
309.254	4.07
309.629	3.71
310.003	2.85
310.378	3.79
310.753	3.71
311.128	3.58
311.502	3.12
311.877	4
312.252	3.3
312.626	3.56
313.001	3.4
313.375	3.67
313.75	3.33
314.124	3.58
314.498	3.25
314.873	3.54
315.247	3.07
315.621	3.3
315.995	2.94
316.369	3.22
316.743	3.2
317.117	3.34
317.491	3.11
317.865	3.62
318.239	3.12
318.613	3.42
318.987	3.67
319.361	3.01
319.734	3.73
320.108	3.26
320.482	3.18
320.855	3.69
321.229	3.35
321.602	2.62
321.976	3.91
322.349	2.95
322.723	3.72
323.096	3.6
323.469	2.52
323.843	3.2
324.216	3.72
324.589	3.14
324.962	3.23
325.335	3.25
325.708	3.36
326.081	3.16
326.454	3.46
326.827	3.24
327.2	3.47
327.573	2.99
327.945	3.14
328.318	3.21
328.691	2.18
329.063	2.99
329.436	2.97
329.809	3.53
330.181	2.86
330.553	2.93
330.926	3.81
331.298	3.57
331.671	2.84
332.043	4.42
332.415	3.13
332.787	3.6
333.159	4.19
333.532	3.03
333.904	2.87
334.276	3.47
334.648	3.58
335.02	3.56
335.391	3.2
335.763	2.9
336.135	3.35
336.507	3.78
336.879	3.1
337.25	3.45
337.622	3.04
337.993	3.13
338.365	3.8
338.736	3.29
339.108	3.8
339.479	3.57
339.851	3.2
340.222	3.18
340.593	2.98
340.964	3.3
341.336	3.89
341.707	3.13
342.078	3.56
342.449	3.7
342.82	3.8
343.191	3.54
343.562	3.57
343.933	3.5
344.303	3.35
344.674	3.28
345.045	3.46
345.416	3.63
345.786	2.86
346.157	3.52
346.527	3.14
346.898	3.15
347.268	3.52
347.639	3.53
348.009	3.36
348.38	3.06
348.75	3.36
349.12	3.63
349.49	3.74
349.861	3.3
350.231	2.93
350.601	3.62
350.971	3.63
351.341	3.49
351.711	3.43
352.081	3.45
352.45	3.27
352.82	4.1
353.19	2.94
353.56	3.42
353.929	3.62
354.299	2.99
354.669	3.27
355.038	3.62
355.408	3.58
355.777	3.44
356.147	3.62
356.516	3.33
356.885	3.8
357.254	3.7
357.624	3.61
357.993	3.24
358.362	3.2
358.731	3.65
359.1	3.68
359.469	3.48
359.838	3.86
360.207	3.66
360.576	3.41
360.945	3.92
361.314	4.06
361.682	3.28
362.051	3.62
362.42	3.69
362.788	3.31
363.157	3.77
363.525	3.88
363.894	3.98
364.262	3.65
364.631	3.64
364.999	4.1
365.367	3.23
365.735	4.17
366.104	3.73
366.472	3.45
366.84	3.75
367.208	3.58
367.576	3.82
367.944	3.84
368.312	3.56
368.68	3.58
369.048	3.7
369.416	3.64
369.783	3.55
370.151	3.8
370.519	4.11
370.886	4.06
371.254	3.47
371.621	4.12
371.989	3.95
372.356	3.29
372.724	3.66
373.091	3.48
373.458	3.79
373.826	3.62
374.193	3.7
374.56	4.03
374.927	3.54
375.294	3.66
375.661	3.62
376.028	3.81
376.395	3.74
376.762	3.84
377.129	3.82
377.496	3.68
377.863	3.87
378.229	3.43
378.596	4.12
378.963	4.01
379.329	3.62
379.696	3.96
380.062	3.66
380.429	3.81
380.795	3.58
381.161	3.92
381.528	3.84
381.894	3.66
382.26	3.96
382.626	3.84
382.993	3.38
383.359	4.12
383.725	3.4
384.091	3.77
384.457	4.06
384.823	4.15
385.188	4.13
385.554	3.85
385.92	3.92
386.286	4.13
386.651	3.82
387.017	4.25
387.383	3.8
387.748	3.81
388.114	4.3
388.479	3.87
388.845	4.12
389.21	4.13
389.575	4.12
389.94	4.1
390.306	4.11
390.671	4.17
391.036	3.52
391.401	4
391.766	3.89
392.131	3.6
392.496	4.13
392.861	3.93
393.226	4.08
393.591	4.11
393.956	3.95
394.32	3.99
394.685	3.91
395.05	4.13
395.414	3.94
395.779	3.94
396.143	3.96
396.508	3.93
396.872	4.14
397.236	4.09
397.601	3.86
397.965	3.99
398.329	4.2
398.694	4.05
399.058	4.16
399.422	3.94
399.786	4.11
400.15	4.06
400.514	4.03
400.878	4.11
401.242	4.17
401.605	4.26
401.969	4.36
402.333	4.25
402.697	4.02
403.06	4.01
403.424	3.92
403.787	4.06
404.151	4.39
404.514	4.15
404.878	4.05
405.241	4.35
405.604	4.03
405.968	4.24
406.331	4.24
406.694	4.37
407.057	4.18
407.42	4.2
407.783	3.73
408.146	4.28
408.509	3.89
408.872	3.99
409.235	4.04
409.598	4.15
409.961	4.29
410.323	4.33
410.686	4.14
411.049	4.02
411.411	4.15
411.774	4.27
412.136	4.18
412.499	3.99
412.861	4.19
413.223	4.29
413.586	4.42
413.948	3.97
414.31	4.16
414.672	4.16
415.035	4.06
415.397	4.48
415.759	4.25
416.121	4.28
416.483	4.22
416.845	4.11
417.206	4.15
417.568	4.37
417.93	4.11
418.292	4.23
418.653	4.29
419.015	4.28
419.377	4.2
419.738	4.34
420.1	4.27
420.461	4.23
420.822	4.24
421.184	4.27
421.545	4.26
421.906	4.13
422.267	4.2
422.629	4.26
422.99	4.23
423.351	4.23
423.712	4.29
424.073	4.21
424.434	4.35
424.795	4.18
425.155	4.23
425.516	4.12
425.877	4.13
426.238	4.3
426.598	4.26
426.959	4.26
427.32	4.13
427.68	4.26
428.041	4.24
428.401	4.43
428.761	4.29
429.122	4.34
429.482	4.17
429.842	4.37
430.202	4.38
430.563	4.25
430.923	4.24
431.283	4.45
431.643	4.21
432.003	4.3
432.363	4.4
432.722	4.36
433.082	4.44
433.442	4.2
433.802	4.24
434.161	4.23
434.521	4.43
434.881	4.41
435.24	4.16
435.6	4.32
435.959	4.42
436.319	4.2
436.678	4.36
437.037	4.27
437.396	4.31
437.756	4.33
438.115	4.44
438.474	4.54
438.833	4.08
439.192	4.23
439.551	4.36
439.91	4.37
440.269	4.3
440.628	4.33
440.987	4.19
441.345	4.24
441.704	4.15
442.063	4.4
442.421	4.43
442.78	4.25
443.138	4.38
443.497	4.41
443.855	4.37
444.214	4.47
444.572	4.38
444.93	4.32
445.288	4.34
445.647	4.53
446.005	4.25
446.363	4.4
446.721	4.49
447.079	4.13
447.437	4.37
447.795	4.46
448.153	4.22
448.51	4.37
448.868	4.4
449.226	4.32
449.584	4.4
449.941	4.47
450.299	4.44
450.656	4.36
451.014	4.37
451.371	4.41
451.729	4.31
452.086	4.65
452.443	4.48
452.801	4.65
453.158	4.43
453.515	4.52
453.872	4.42
454.229	4.35
454.586	4.4
454.943	4.37
455.3	4.55
455.657	4.38
456.014	4.41
456.371	4.68
456.727	4.58
457.084	4.48
457.441	4.51
457.797	4.53
458.154	4.77
458.51	4.55
458.867	4.49
459.223	4.56
459.58	4.51
459.936	4.64
460.292	4.42
460.648	4.31
461.005	4.48
461.361	4.55
461.717	4.45
462.073	4.45
462.429	4.49
462.785	4.48
463.141	4.46
463.496	4.45
463.852	4.54
464.208	4.45
464.564	4.42
464.919	4.47
465.275	4.42
465.631	4.68
465.986	4.37
466.342	4.19
466.697	4.39
467.052	4.65
467.408	4.66
467.763	4.64
468.118	4.41
468.473	4.41
468.829	4.64
469.184	4.37
469.539	4.6
469.894	4.35
470.249	4.49
470.603	4.52
470.958	4.69
471.313	4.61
471.668	4.61
472.023	4.71
472.377	4.56
472.732	4.64
473.086	4.68
473.441	4.39
473.795	4.73
474.15	4.47
474.504	4.54
474.859	4.71
475.213	4.35
475.567	4.49
475.921	4.49
476.275	4.6
476.63	4.48
476.984	4.56
477.338	4.72
477.692	4.48
478.045	4.48
478.399	4.55
478.753	4.5
479.107	4.56
479.461	4.55
479.814	4.53
480.168	4.52
480.521	4.45
480.875	4.56
481.228	4.51
481.582	4.45
481.935	4.58
482.289	4.6
482.642	4.53
482.995	4.46
483.348	4.4
483.701	4.55
484.055	4.48
484.408	4.55
484.761	4.4
485.114	4.37
485.466	4.28
485.819	4.15
486.172	4.3
486.525	4.38
486.878	4.47
487.23	4.49
487.583	4.48
487.936	4.54
488.288	4.41
488.641	4.48
488.993	4.36
489.345	4.32
489.698	4.27
490.05	4.36
490.402	4.43
490.754	4.48
491.107	4.53
491.459	4.62
491.811	4.52
492.163	4.57
492.515	4.5
492.866	4.49
493.218	4.37
493.57	4.36
493.922	4.39
494.274	4.53
494.625	4.62
494.977	4.57
495.328	4.71
495.68	4.58
496.031	4.76
496.383	4.54
496.734	4.76
497.086	4.65
497.437	4.64
497.788	4.58
498.139	4.53
498.49	4.48
498.842	4.53
499.193	4.49
499.544	4.5
499.894	4.54
500.245	4.59
500.596	4.59
500.947	4.59
501.298	4.55
501.648	4.72
501.999	4.64
502.35	4.64
502.7	4.7
503.051	4.52
503.401	4.58
503.752	4.86
504.102	4.58
504.452	4.6
504.803	4.47
505.153	4.53
505.503	4.54
505.853	4.7
506.203	4.53
506.553	4.57
506.903	4.56
507.253	4.48
507.603	4.59
507.953	4.6
508.303	4.77
508.652	4.49
509.002	4.67
509.352	4.56
509.701	4.53
510.051	4.51
510.4	4.61
510.75	4.55
511.099	4.55
511.449	4.56
511.798	4.62
512.147	4.53
512.496	4.56
512.846	4.73
513.195	4.6
513.544	4.56
513.893	4.66
514.242	4.56
514.591	4.68
514.939	4.51
515.288	4.51
515.637	4.69
515.986	4.55
516.334	4.63
516.683	4.68
517.032	4.58
517.38	4.66
517.729	4.61
518.077	4.6
518.426	4.71
518.774	4.55
519.122	4.45
519.47	4.56
519.819	4.5
520.167	4.6
520.515	4.48
520.863	4.51
521.211	4.54
521.559	4.59
521.907	4.52
522.255	4.67
522.602	4.52
522.95	4.45
523.298	4.58
523.645	4.67
523.993	4.59
524.341	4.67
524.688	4.51
525.036	4.44
525.383	4.6
525.73	4.7
526.078	4.59
526.425	4.5
526.772	4.57
527.119	4.49
527.466	4.44
527.814	4.59
528.161	4.5
528.508	4.56
528.854	4.53
529.201	4.5
529.548	4.42
529.895	4.35
530.242	4.24
530.588	4.19
530.935	4.33
531.282	4.37
531.628	4.4
531.975	4.54
532.321	4.53
532.667	4.55
533.014	4.46
533.36	4.52
533.706	4.51
534.052	4.39
534.399	4.32
534.745	4.36
535.091	4.38
535.437	4.38
535.783	4.41
536.129	4.44
536.474	4.46
536.82	4.52
537.166	4.61
537.512	4.61
537.857	4.46
538.203	4.5
538.549	4.45
538.894	4.36
539.239	4.52
539.585	4.52
539.93	4.44
540.276	4.64
540.621	4.73
540.966	4.63
541.311	4.41
541.656	4.46
542.001	4.4
542.346	4.47
542.691	4.3
543.036	4.26
543.381	4.24
543.726	4.31
544.071	4.4
544.415	4.46
544.76	4.43
545.105	4.45
545.449	4.36
545.794	4.55
546.138	4.45
546.483	4.54
546.827	4.49
547.171	4.49
547.516	4.63
547.86	4.42
548.204	4.51
548.548	4.42
548.892	4.47
549.236	4.38
549.58	4.38
549.924	4.54
550.268	4.6
550.612	4.61
550.956	4.66
551.3	4.62
551.643	4.62
551.987	4.52
552.33	4.42
552.674	4.58
553.017	4.54
553.361	4.49
553.704	4.6
554.048	4.29
554.391	4.4
554.734	4.54
555.077	4.55
555.42	4.34
555.764	4.41
556.107	4.32
556.45	4.24
556.793	4.41
557.135	4.49
557.478	4.71
557.821	4.34
558.164	4.44
558.507	4.58
558.849	4.34
559.192	4.42
559.534	4.55
559.877	4.57
560.219	4.42
560.562	4.69
560.904	4.48
561.246	4.58
561.589	4.53
561.931	4.44
562.273	4.19
562.615	4.67
562.957	4.53
563.299	4.31
563.641	4.47
563.983	4.48
564.325	4.39
564.667	4.26
565.008	4.56
565.35	4.6
565.692	4.3
566.033	4.23
566.375	4.57
566.716	4.54
567.058	4.35
567.399	4.5
567.741	4.26
568.082	4.42
568.423	4.27
568.764	4.37
569.105	4.57
569.447	4.34
569.788	4.39
570.129	4.51
570.47	4.44
570.811	4.61
571.151	4.4
571.492	4.53
571.833	4.53
572.174	4.32
572.514	4.5
572.855	4.37
573.195	4.3
573.536	4.29
573.876	4.16
574.217	4.22
574.557	4.54
574.898	4.55
575.238	4.57
575.578	4.32
575.918	4.58
576.258	4.46
576.598	4.65
576.938	4.37
577.278	4.4
577.618	4.38
577.958	4.4
578.298	4.42
578.638	4.3
578.977	4.3
579.317	4.33
579.657	4.44
579.996	4.45
580.336	4.63
580.675	4.48
581.014	4.4
581.354	4.37
581.693	4.4
582.032	4.53
582.372	4.36
582.711	4.56
583.05	4.2
583.389	4.51
583.728	4.15
584.067	4.34
584.406	4.36
584.745	4.28
585.083	4.35
585.422	4.5
585.761	4.34
586.1	4.42
586.438	4.57
586.777	4.48
587.115	4.34
587.454	4.42
587.792	4.32
588.13	4.57
588.469	4.29
588.807	4.37
589.145	4.35
589.483	4.5
589.821	4.24
590.159	4.21
590.497	4.69
590.835	4.77
591.173	4.25
591.511	4.41
591.849	4.38
592.187	4.22
592.524	4.42
592.862	4.49
593.2	4.39
593.537	4.32
593.875	4.23
594.212	4.2
594.55	4.45
594.887	4.45
595.224	4.01
595.561	4.36
595.899	4.3
596.236	4.26
596.573	4.45
596.91	3.88
597.247	4.46
597.584	4.39
597.921	4.32
598.258	4.14
598.594	4.26
598.931	4.2
599.268	4.3
599.604	4.32
599.941	4.39
600.277	4.41
600.614	4.29
600.95	4.27
601.287	4.45
601.623	4.47
601.959	4.26
602.296	4.29
602.632	4.43
602.968	4.25
603.304	4.24
603.64	4.36
603.976	4.36
604.312	4.26
604.648	4.03
604.984	4.34
605.319	4.19
605.655	4.46
605.991	4.22
606.326	4.09
606.662	4.31
606.998	4.16
607.333	4.46
607.668	4.25
608.004	4.31
608.339	4.37
608.674	4.19
609.01	4.16
609.345	3.97
609.68	4.46
610.015	4.07
610.35	4.29
610.685	3.88
611.02	4.21
611.355	4.25
611.689	4
612.024	4.31
612.359	3.97
612.694	4.32
613.028	4.19
613.363	4.68
613.697	4.56
614.032	4.34
614.366	4.41
614.7	4.29
615.035	4.42
615.369	4.05
615.703	3.76
616.037	4.3
616.371	3.84
616.705	3.98
617.039	4.28
617.373	3.91
617.707	3.98
618.041	4.04
618.375	4.19
618.709	4.24
619.042	4.27
619.376	4.29
619.71	4.46
620.043	4.09
620.377	4.14
620.71	4.53
621.043	3.94
621.377	4.08
621.71	4.12
622.043	3.98
622.376	3.41
622.709	4.22
623.043	4.46
623.376	4.18
623.709	4.11
624.041	4.75
624.374	4.12
624.707	4
625.04	4.23
625.373	3.69
625.705	4.18
626.038	4.33
626.37	4.11
626.703	4.06
627.035	4.45
627.368	4.76
627.7	4.22
628.032	4.17
628.365	4.33
628.697	4.24
629.029	3.95
629.361	4.31
629.693	4.4
630.025	4.04
630.357	4.39
630.689	4.2
631.021	4.35
631.353	4.25
631.684	3.87
632.016	3.85
632.348	4.39
632.679	4.21
633.011	4.49
633.342	4.66
633.674	4.1
634.005	4.29
634.336	4.17
634.668	4.73
634.999	4.08
635.33	4.18
635.661	4.48
635.992	4.03
636.323	4.33
636.654	4.36
636.985	4.21
637.316	3.86
637.647	4.12
637.977	4.58
638.308	4.11
638.639	3.91
638.969	4.01
639.3	3.95
639.63	3.96
639.961	4.34
640.291	4.13
640.622	4.48
640.952	3.87
641.282	4.4
641.612	4.42
641.943	4.04
642.273	4
642.603	4.32
642.933	4.36
643.263	4.27
643.592	3.85
643.922	3.77
644.252	4.11
644.582	3.98
644.911	3.97
645.241	4.15
645.571	4.54
645.9	3.84
646.23	4.13
646.559	4.04
646.888	3.83
647.218	3.94
647.547	4.23
647.876	3.53
648.205	3.98
648.534	3.94
648.863	4.02
649.192	4.14
649.521	4.08
649.85	4.02
650.179	4.03
650.508	3.83
650.837	3.96
651.165	3.88
651.494	4.04
651.822	4.23
652.151	4.07
652.479	4.15
652.808	4.19
653.136	4.24
653.465	3.89
653.793	3.85
654.121	3.41
654.449	4.52
654.777	4.28
655.105	4.35
655.433	3.73
655.761	3.86
656.089	3.94
656.417	4.44
656.745	3.74
657.073	3.73
657.4	4.6
657.728	3.98
658.056	3.6
658.383	4.11
658.711	4.48
659.038	4.48
659.365	4.25
659.693	4.03
660.02	4
660.347	4.1
660.674	4.09
661.001	4.14
661.329	3.48
661.656	4.23
661.982	4.56
662.309	4.23
662.636	4.02
662.963	4.36
663.29	4.22
663.616	4.37
663.943	3.44
664.27	3.62
664.596	4.47
664.923	4.24
665.249	4.44
665.576	3.64
665.902	4.39
666.228	4.61
666.554	4.46
666.881	3.96
667.207	4.58
667.533	3.75
667.859	4.49
668.185	4.61
668.511	3.88
668.837	3.29
669.162	3.83
669.488	3.78
669.814	4.12
670.139	4.59
670.465	4.42
670.791	3.96
671.116	4.94
671.442	4.22
671.767	4.34
672.092	4.2
672.418	4.44
672.743	4.8
673.068	3.94
673.393	4.37
673.718	3.96
674.043	3.96
674.368	3.61
674.693	5.34
675.018	3.85
675.343	3.93
675.667	3.29
675.992	3.96
676.317	4.85
676.641	4.6
676.966	4.6
677.29	4.4
677.615	4.56
677.939	4.1
678.264	4.51
678.588	3.83
678.912	3.99
679.236	4.81
679.56	3.78
679.885	3.77
680.209	4.33
680.532	4.08
680.856	4.33
681.18	4.65
681.504	4.05
681.828	4.39
682.152	3.64
682.475	4.34
682.799	4.52
683.122	4.09
683.446	3.79
683.769	4.86
684.093	3.66
684.416	4.76
684.739	3.81
685.062	3.77
685.386	4.58
685.709	3.28
686.032	3.93
686.355	4.43
686.678	3.72
687.001	4.52
687.324	4.38
687.646	3.62
687.969	3.64
688.292	3.75
688.614	3.75
688.937	4.46
689.26	4.05
689.582	4.78
689.904	3.84
690.227	4.37
690.549	4.18
690.871	4.52
691.194	3.74
691.516	3.97
691.838	4.29
692.16	4.05
692.482	3.9
