Data from 0411_forehead_Reflection__0__273.txt Node

Date: Fri Dec 15 18:43:12 CST 2023
User: ToomeyLab
Spectrometer: FLMS14357
Trigger mode: 0
Integration Time (sec): 1.000000E-2
Scans to average: 100
Electric dark correction enabled: true
Nonlinearity correction enabled: false
Boxcar width: 0
XAxis mode: Wavelengths
Number of Pixels in Spectrum: 2048
>>>>>Begin Spectral Data<<<<<
189.047	-13.34
189.435	-13.34
189.823	-13.34
190.211	14.98
190.599	-15.36
190.987	50.2
191.375	-3.16
191.763	-281.32
192.151	119.18
192.538	78.54
192.926	74.03
193.314	350.98
193.702	41.78
194.089	-35.18
194.477	92.3
194.864	304.6
195.252	91.52
195.639	126.18
196.027	80.61
196.414	23.74
196.801	-117.57
197.189	327.42
197.576	139.11
197.963	-42.06
198.351	-98.59
198.738	-16.1
199.125	-26.16
199.512	20.95
199.899	27.78
200.286	37.81
200.673	30.66
201.06	4.22
201.447	-31.96
201.833	64.37
202.22	34.82
202.607	69.16
202.994	3.65
203.38	25.29
203.767	-5.3
204.154	10.26
204.54	35.94
204.927	10.74
205.313	1.68
205.699	24.36
206.086	42.6
206.472	-6.6
206.858	16.12
207.245	-27.68
207.631	23.98
208.017	-8.54
208.403	37.18
208.789	33.71
209.175	13.59
209.561	15.19
209.947	16.85
210.333	-17.78
210.719	4.5
211.105	26.78
211.491	-41.31
211.876	11.21
212.262	-26.58
212.648	56.2
213.034	17.4
213.419	-10.4
213.805	21.66
214.19	3.58
214.576	-12.87
214.961	-15.22
215.346	-37.94
215.732	-44.81
216.117	34.78
216.502	1.45
216.888	-15.08
217.273	44.03
217.658	21.72
218.043	9.14
218.428	-24.44
218.813	-16.08
219.198	-26.3
219.583	5.1
219.968	4.33
220.353	-4.06
220.738	37
221.122	-0.24
221.507	-13.73
221.892	-44.61
222.276	-10.57
222.661	-18.15
223.046	8.47
223.43	16.96
223.815	22.13
224.199	-9.28
224.583	4.5
224.968	2.95
225.352	11.02
225.736	1.4
226.121	1.32
226.505	14.37
226.889	7.64
227.273	8.36
227.657	7.79
228.041	1.22
228.425	5.23
228.809	4.08
229.193	4.38
229.577	5.23
229.961	6.79
230.344	4.98
230.728	4.19
231.112	5.31
231.495	5.01
231.879	4.26
232.263	6.21
232.646	5.48
233.03	4.51
233.413	4.99
233.797	4.98
234.18	6.61
234.563	8.17
234.946	3.76
235.33	8.14
235.713	5.75
236.096	3.96
236.479	5.44
236.862	3.89
237.245	6.06
237.628	5.78
238.011	6.39
238.394	6.37
238.777	4.35
239.16	2.74
239.543	6.68
239.925	6.33
240.308	6.11
240.691	6.99
241.073	5.33
241.456	5.17
241.838	4.37
242.221	4.76
242.603	5.14
242.986	4.88
243.368	5.63
243.75	5.22
244.133	4.35
244.515	5.19
244.897	4.94
245.279	5.16
245.661	4.82
246.043	3.32
246.425	4.42
246.807	5.97
247.189	6.51
247.571	5.27
247.953	5.29
248.335	4.56
248.717	5.03
249.098	4.84
249.48	4.91
249.862	4.88
250.243	4.98
250.625	4.85
251.006	5.17
251.388	4.1
251.769	5.41
252.151	6.43
252.532	5.43
252.913	4.82
253.295	4.32
253.676	4.72
254.057	5.17
254.438	5.27
254.819	5.47
255.2	4.8
255.581	4.95
255.962	4.24
256.343	4.28
256.724	3.92
257.105	4.93
257.486	3.1
257.867	5.18
258.247	5.35
258.628	4.44
259.009	4.21
259.389	4.88
259.77	4.9
260.15	3.89
260.531	4.19
260.911	4.89
261.292	4.49
261.672	5.01
262.052	4.9
262.432	5
262.813	4.8
263.193	5.07
263.573	4.53
263.953	4.08
264.333	5.25
264.713	5.02
265.093	4.01
265.473	4.93
265.853	3.82
266.233	5.36
266.612	3.05
266.992	3.96
267.372	5.46
267.752	4.22
268.131	4.67
268.511	5.49
268.89	5.2
269.27	4.75
269.649	4.72
270.029	4.71
270.408	5.56
270.787	5.06
271.167	5.51
271.546	5.25
271.925	4.08
272.304	4.39
272.683	4.82
273.062	4.42
273.441	4.66
273.82	3.66
274.199	4.29
274.578	4.65
274.957	4.64
275.336	4.85
275.715	4.56
276.093	4.24
276.472	4.53
276.851	4.55
277.229	4.71
277.608	4.28
277.986	4.5
278.365	4.9
278.743	4.6
279.122	4.62
279.5	4.79
279.878	4.69
280.257	4.45
280.635	4.36
281.013	4.35
281.391	5.15
281.769	5.04
282.147	4.23
282.525	5.18
282.903	4.75
283.281	4.96
283.659	4.99
284.037	5.06
284.415	4.85
284.792	4.87
285.17	4.38
285.548	4.48
285.925	4.9
286.303	5
286.68	4.86
287.058	4.6
287.435	4.7
287.813	4.9
288.19	4.5
288.567	4.55
288.945	4.95
289.322	4.84
289.699	5.3
290.076	4.88
290.453	5
290.83	5.18
291.207	5.25
291.584	5.17
291.961	5.23
292.338	5.03
292.715	5.17
293.092	5.23
293.469	5.5
293.845	5.41
294.222	4.68
294.599	4.99
294.975	5.34
295.352	5.67
295.728	4.63
296.105	5.14
296.481	5.86
296.858	5.07
297.234	5.16
297.61	5.53
297.986	5.17
298.363	5.07
298.739	5.29
299.115	5.08
299.491	5.15
299.867	5.28
300.243	5.6
300.619	5.24
300.995	5.6
301.371	5.45
301.746	4.81
302.122	6.29
302.498	5.71
302.874	5.68
303.249	5.64
303.625	5.38
304	5.77
304.376	5.52
304.751	5.53
305.127	6.3
305.502	5.26
305.878	5.48
306.253	5.88
306.628	6.51
307.003	5.92
307.378	6.31
307.754	5.29
308.129	5.45
308.504	6.08
308.879	5.8
309.254	7.51
309.629	6.38
310.003	6.51
310.378	6.71
310.753	6.58
311.128	6.41
311.502	6.02
311.877	6.54
312.252	5.48
312.626	6.55
313.001	6.66
313.375	6.73
313.75	6.39
314.124	6.5
314.498	6.49
314.873	6.36
315.247	6.39
315.621	6.46
315.995	5.98
316.369	6.98
316.743	6.65
317.117	7.02
317.491	6.45
317.865	6.35
318.239	6.66
318.613	7.02
318.987	6.72
319.361	6.75
319.734	7.19
320.108	7.11
320.482	7.32
320.855	7.75
321.229	6.82
321.602	7.08
321.976	7.52
322.349	7.09
322.723	7.23
323.096	7.51
323.469	6.58
323.843	7.2
324.216	8.35
324.589	7.56
324.962	7.24
325.335	7.08
325.708	7.66
326.081	7.12
326.454	7.63
326.827	7.2
327.2	7.65
327.573	7.65
327.945	7.55
328.318	7.33
328.691	7.28
329.063	7.34
329.436	7.39
329.809	8.09
330.181	7.59
330.553	7.84
330.926	8.19
331.298	8.11
331.671	7.99
332.043	8.46
332.415	7.71
332.787	8.3
333.159	8.01
333.532	8.48
333.904	8.05
334.276	7.63
334.648	8.26
335.02	8.65
335.391	8.33
335.763	8.04
336.135	8.07
336.507	8.57
336.879	8.32
337.25	8.16
337.622	8.38
337.993	8.34
338.365	8.92
338.736	9.08
339.108	8.56
339.479	8.44
339.851	8.32
340.222	8.85
340.593	8.44
340.964	8.08
341.336	9.24
341.707	8.23
342.078	9.24
342.449	8.99
342.82	8.45
343.191	8.65
343.562	8.47
343.933	9.05
344.303	8.79
344.674	8.57
345.045	8.93
345.416	8.78
345.786	8.7
346.157	9.37
346.527	8.9
346.898	8.41
347.268	9.13
347.639	9.39
348.009	9.73
348.38	9.04
348.75	9.07
349.12	8.69
349.49	9.33
349.861	9.47
350.231	9.04
350.601	9.44
350.971	9.47
351.341	9.6
351.711	9.45
352.081	9.83
352.45	9.02
352.82	9.77
353.19	9.48
353.56	10.08
353.929	9.8
354.299	9.24
354.669	9.82
355.038	9.76
355.408	9.74
355.777	9.72
356.147	9.88
356.516	9.85
356.885	10.19
357.254	9.82
357.624	10.02
357.993	10.1
358.362	9.72
358.731	9.92
359.1	9.92
359.469	10.07
359.838	9.91
360.207	9.94
360.576	9.73
360.945	10.16
361.314	10.28
361.682	10.18
362.051	10.1
362.42	10.41
362.788	10.39
363.157	10.02
363.525	10.32
363.894	10.31
364.262	10.24
364.631	10.51
364.999	10.53
365.367	10.12
365.735	10.96
366.104	10.76
366.472	10.78
366.84	10.51
367.208	10.53
367.576	10.78
367.944	11.03
368.312	10.74
368.68	10.72
369.048	10.98
369.416	10.99
369.783	10.63
370.151	11.29
370.519	11.43
370.886	11.14
371.254	11.05
371.621	11.34
371.989	11.01
372.356	10.85
372.724	11.13
373.091	10.92
373.458	11.3
373.826	11.31
374.193	10.92
374.56	11.65
374.927	11.86
375.294	11.37
375.661	11.17
376.028	11.48
376.395	11.38
376.762	12.03
377.129	11.48
377.496	11.65
377.863	11.7
378.229	11.54
378.596	11.77
378.963	11.73
379.329	11.52
379.696	11.93
380.062	11.83
380.429	11.75
380.795	11.73
381.161	11.75
381.528	12.05
381.894	11.54
382.26	11.8
382.626	12.13
382.993	11.6
383.359	12.16
383.725	12.21
384.091	11.82
384.457	12.54
384.823	12.22
385.188	12.4
385.554	12.14
385.92	12.49
386.286	12.67
386.651	12.39
387.017	12.82
387.383	12.7
387.748	12.33
388.114	12.51
388.479	12.16
388.845	12.82
389.21	12.61
389.575	12.64
389.94	12.67
390.306	12.81
390.671	12.83
391.036	12.38
391.401	12.6
391.766	12.86
392.131	12.73
392.496	12.78
392.861	12.94
393.226	13.31
393.591	13.05
393.956	12.94
394.32	13.11
394.685	12.89
395.05	13.19
395.414	12.93
395.779	12.95
396.143	13.32
396.508	13.33
396.872	13.22
397.236	13.39
397.601	13.26
397.965	13.5
398.329	13.03
398.694	13.4
399.058	13.71
399.422	13.41
399.786	13.36
400.15	13.85
400.514	13.6
400.878	13.7
401.242	13.71
401.605	13.84
401.969	13.78
402.333	13.77
402.697	13.92
403.06	13.84
403.424	13.94
403.787	14.18
404.151	14.24
404.514	13.97
404.878	14.01
405.241	14.13
405.604	13.95
405.968	14.03
406.331	14.13
406.694	14.18
407.057	14.37
407.42	14.23
407.783	14.23
408.146	14.41
408.509	14.37
408.872	14.05
409.235	14.25
409.598	14.66
409.961	14.52
410.323	14.73
410.686	14.66
411.049	14.54
411.411	14.59
411.774	14.68
412.136	14.75
412.499	14.79
412.861	14.6
413.223	14.67
413.586	14.9
413.948	15
414.31	14.88
414.672	14.77
415.035	14.74
415.397	15.35
415.759	14.67
416.121	15.32
416.483	14.93
416.845	15.09
417.206	15.26
417.568	15.37
417.93	14.98
418.292	15.05
418.653	15.14
419.015	15.18
419.377	15.26
419.738	15.34
420.1	15.25
420.461	15.25
420.822	15.38
421.184	15.25
421.545	15.26
421.906	15.2
422.267	15.27
422.629	15.39
422.99	15.32
423.351	15.27
423.712	15.49
424.073	15.53
424.434	15.52
424.795	15.67
425.155	15.48
425.516	15.59
425.877	15.61
426.238	15.61
426.598	15.68
426.959	15.77
427.32	15.85
427.68	15.74
428.041	15.9
428.401	16.01
428.761	16.06
429.122	16.1
429.482	16.14
429.842	16.37
430.202	16.42
430.563	16.34
430.923	16.23
431.283	16.36
431.643	16.5
432.003	16.53
432.363	16.53
432.722	16.59
433.082	16.8
433.442	16.7
433.802	16.46
434.161	16.56
434.521	16.87
434.881	16.79
435.24	16.77
435.6	16.95
435.959	16.68
436.319	16.94
436.678	16.88
437.037	16.96
437.396	16.99
437.756	17.05
438.115	17.02
438.474	17.28
438.833	17.07
439.192	17.08
439.551	17.34
439.91	17.27
440.269	17.28
440.628	17.36
440.987	17.43
441.345	17.27
441.704	17.35
442.063	17.34
442.421	17.3
442.78	17.15
443.138	17.31
443.497	17.44
443.855	17.64
444.214	17.52
444.572	17.65
444.93	17.77
445.288	17.8
445.647	18.07
446.005	17.81
446.363	17.83
446.721	17.87
447.079	17.68
447.437	17.77
447.795	17.78
448.153	17.82
448.51	17.88
448.868	17.98
449.226	17.78
449.584	17.9
449.941	18.09
450.299	18.32
450.656	18.01
451.014	18.31
451.371	18.45
451.729	18.45
452.086	18.54
452.443	18.5
452.801	18.68
453.158	18.79
453.515	18.65
453.872	18.69
454.229	18.74
454.586	18.66
454.943	18.76
455.3	18.72
455.657	18.76
456.014	19.04
456.371	18.97
456.727	19.07
457.084	19.17
457.441	19.17
457.797	19.02
458.154	19.35
458.51	19.37
458.867	19.41
459.223	19.5
459.58	19.29
459.936	19.38
460.292	19.5
460.648	19.34
461.005	19.18
461.361	19.45
461.717	19.28
462.073	19.28
462.429	19.34
462.785	19.5
463.141	19.56
463.496	19.66
463.852	19.88
464.208	19.76
464.564	20.02
464.919	20.07
465.275	20.13
465.631	20.26
465.986	20.03
466.342	20.29
466.697	20.1
467.052	20.25
467.408	20.29
467.763	20.16
468.118	20.49
468.473	20.22
468.829	20.47
469.184	20.51
469.539	20.75
469.894	20.57
470.249	20.65
470.603	20.96
470.958	20.79
471.313	20.83
471.668	21.08
472.023	20.99
472.377	20.98
472.732	20.96
473.086	20.93
473.441	20.87
473.795	21.29
474.15	21.06
474.504	21.17
474.859	21.35
475.213	21.23
475.567	21.13
475.921	21.28
476.275	21.34
476.63	21.62
476.984	21.66
477.338	21.64
477.692	21.71
478.045	21.62
478.399	21.5
478.753	21.7
479.107	21.75
479.461	21.57
479.814	21.56
480.168	21.78
480.521	21.65
480.875	21.93
481.228	21.86
481.582	21.95
481.935	21.94
482.289	21.94
482.642	22.18
482.995	21.89
483.348	21.93
483.701	21.86
484.055	21.92
484.408	21.7
484.761	21.6
485.114	21.56
485.466	21.23
485.819	21.3
486.172	21.21
486.525	21.39
486.878	21.41
487.23	21.55
487.583	21.74
487.936	22.02
488.288	21.99
488.641	22.03
488.993	21.89
489.345	21.84
489.698	21.82
490.05	21.81
490.402	21.91
490.754	22.06
491.107	22.27
491.459	22.38
491.811	22.59
492.163	22.64
492.515	22.8
492.866	22.67
493.218	22.5
493.57	22.48
493.922	22.44
494.274	22.56
494.625	22.71
494.977	22.98
495.328	23.13
495.68	23.24
496.031	23.62
496.383	23.55
496.734	23.82
497.086	23.7
497.437	23.87
497.788	23.89
498.139	23.73
498.49	24.06
498.842	23.73
499.193	23.91
499.544	23.92
499.894	23.83
500.245	23.9
500.596	24.15
500.947	24.31
501.298	24.2
501.648	24.37
501.999	24.36
502.35	24.49
502.7	24.6
503.051	24.35
503.401	24.5
503.752	24.78
504.102	24.79
504.452	24.81
504.803	24.87
505.153	24.76
505.503	25.01
505.853	24.88
506.203	25.01
506.553	24.86
506.903	25.09
507.253	24.99
507.603	25.1
507.953	25.31
508.303	25.29
508.652	25.31
509.002	25.42
509.352	25.47
509.701	25.33
510.051	25.58
510.4	25.44
510.75	25.53
511.099	25.58
511.449	25.42
511.798	25.57
512.147	25.51
512.496	25.74
512.846	25.7
513.195	25.94
513.544	25.87
513.893	25.81
514.242	25.84
514.591	26.03
514.939	25.87
515.288	25.92
515.637	26.33
515.986	26.11
516.334	26.37
516.683	26.35
517.032	26.34
517.38	26.52
517.729	26.56
518.077	26.55
518.426	26.58
518.774	26.75
519.122	26.64
519.47	26.67
519.819	26.49
520.167	26.36
520.515	26.51
520.863	26.4
521.211	26.58
521.559	26.66
521.907	26.64
522.255	26.84
522.602	26.97
522.95	27.01
523.298	27.14
523.645	27.18
523.993	27.29
524.341	27.61
524.688	27.44
525.036	27.5
525.383	27.49
525.73	27.55
526.078	27.68
526.425	27.47
526.772	27.71
527.119	27.51
527.466	27.24
527.814	27.38
528.161	27.32
528.508	27.44
528.854	27.43
529.201	27.41
529.548	27.51
529.895	27.32
530.242	27.24
530.588	27.11
530.935	27.21
531.282	27.26
531.628	27.24
531.975	27.44
532.321	27.77
532.667	27.97
533.014	27.97
533.36	28.2
533.706	28.2
534.052	28.5
534.399	28.32
534.745	28.16
535.091	28
535.437	28.04
535.783	28.17
536.129	28.27
536.474	28.32
536.82	28.67
537.166	28.82
537.512	28.94
537.857	28.99
538.203	28.99
538.549	28.92
538.894	28.86
539.239	29.13
539.585	29.21
539.93	29.34
540.276	29.42
540.621	29.43
540.966	29.76
541.311	29.63
541.656	29.79
542.001	29.59
542.346	29.59
542.691	29.39
543.036	29.25
543.381	29.09
543.726	29.19
544.071	29.23
544.415	29.5
544.76	29.42
545.105	29.65
545.449	29.88
545.794	29.96
546.138	29.95
546.483	30.28
546.827	30.23
547.171	30.35
547.516	30.54
547.86	30.4
548.204	30.52
548.548	30.53
548.892	30.51
549.236	30.87
549.58	30.56
549.924	30.97
550.268	31.03
550.612	31.12
550.956	31.3
551.3	31.45
551.643	31.59
551.987	31.49
552.33	31.65
552.674	31.86
553.017	31.9
553.361	31.8
553.704	32.16
554.048	31.79
554.391	31.9
554.734	31.79
555.077	31.88
555.42	31.88
555.764	31.84
556.107	32.01
556.45	32.02
556.793	32.32
557.135	32.36
557.478	32.73
557.821	32.82
558.164	32.77
558.507	32.71
558.849	32.52
559.192	32.79
559.534	32.83
559.877	33.09
560.219	32.91
560.562	33.16
560.904	33.15
561.246	33.06
561.589	33.17
561.931	33.44
562.273	33.17
562.615	33.47
562.957	33.29
563.299	33.51
563.641	33.74
563.983	33.43
564.325	33.35
564.667	33.54
565.008	33.51
565.35	33.71
565.692	33.81
566.033	33.83
566.375	33.88
566.716	34.16
567.058	34.2
567.399	34.05
567.741	34.13
568.082	34.03
568.423	34.12
568.764	33.96
569.105	34.02
569.447	34.17
569.788	34.21
570.129	34.43
570.47	34.71
570.811	34.49
571.151	34.83
571.492	34.71
571.833	34.94
572.174	34.82
572.514	34.98
572.855	34.81
573.195	34.98
573.536	35.14
573.876	34.81
574.217	34.94
574.557	35.1
574.898	34.95
575.238	34.97
575.578	35.17
575.918	35.41
576.258	35.28
576.598	35.57
576.938	35.5
577.278	35.28
577.618	35.56
577.958	35.61
578.298	35.54
578.638	35.76
578.977	35.62
579.317	35.86
579.657	36.08
579.996	36.13
580.336	36.17
580.675	36.38
581.014	36.37
581.354	36.76
581.693	36.69
582.032	36.86
582.372	36.56
582.711	36.97
583.05	36.66
583.389	36.78
583.728	36.71
584.067	37.01
584.406	36.95
584.745	37.3
585.083	37.21
585.422	37.22
585.761	37.41
586.1	37.29
586.438	37.1
586.777	37.65
587.115	37.68
587.454	37.4
587.792	37.65
588.13	37.54
588.469	37.37
588.807	38.13
589.145	37.47
589.483	37.98
589.821	37.91
590.159	38.22
590.497	38.4
590.835	38.07
591.173	38.16
591.511	38.34
591.849	38.04
592.187	38.47
592.524	38.19
592.862	38.41
593.2	38.24
593.537	38.24
593.875	38.48
594.212	38.68
594.55	38.36
594.887	38.64
595.224	38.76
595.561	38.86
595.899	38.73
596.236	38.86
596.573	38.77
596.91	38.76
597.247	38.82
597.584	39.34
597.921	38.73
598.258	38.91
598.594	38.91
598.931	38.77
599.268	38.92
599.604	39.01
599.941	39.18
600.277	39.28
600.614	38.83
600.95	39.32
601.287	39.82
601.623	39.85
601.959	39.5
602.296	39.72
602.632	40.16
602.968	39.84
603.304	40.09
603.64	40.08
603.976	40.24
604.312	40.38
604.648	40.57
604.984	40.66
605.319	40.44
605.655	40.4
605.991	40.22
606.326	40.27
606.662	39.88
606.998	39.99
607.333	40.23
607.668	40.41
608.004	40.59
608.339	40.44
608.674	40.54
609.01	40.54
609.345	40.77
609.68	41.52
610.015	40.98
610.35	41.09
610.685	40.82
611.02	41.08
611.355	41.19
611.689	41.03
612.024	41.26
612.359	41.45
612.694	41.48
613.028	41.42
613.363	41.75
613.697	41.84
614.032	41.95
614.366	41.69
614.7	42.08
615.035	41.91
615.369	41.98
615.703	42.3
616.037	41.79
616.371	41.78
616.705	41.89
617.039	42.32
617.373	42.42
617.707	41.97
618.041	42.56
618.375	42.63
618.709	42.71
619.042	42.95
619.376	42.81
619.71	42.88
620.043	43.33
620.377	42.98
620.71	43.13
621.043	43.28
621.377	43.26
621.71	42.94
622.043	43.2
622.376	43.16
622.709	42.97
623.043	43.51
623.376	43.55
623.709	43.31
624.041	43.61
624.374	43.38
624.707	43.65
625.04	44.47
625.373	43.65
625.705	44.05
626.038	43.79
626.37	43.96
626.703	44.31
627.035	44.02
627.368	43.99
627.7	43.92
628.032	44.28
628.365	44.08
628.697	44.3
629.029	44.17
629.361	44.08
629.693	44.78
630.025	44.04
630.357	44.89
630.689	44.77
631.021	44.7
631.353	44.69
631.684	44.63
632.016	44.24
632.348	45.09
632.679	44.89
633.011	44.77
633.342	45.43
633.674	45.22
634.005	45.17
634.336	45.42
634.668	45.33
634.999	44.95
635.33	45.44
635.661	45.93
635.992	44.91
636.323	45.98
636.654	45.59
636.985	45.75
637.316	45.67
637.647	45.55
637.977	45.99
638.308	45.49
638.639	45.47
638.969	46.28
639.3	45.81
639.63	45.58
639.961	46.19
640.291	46.27
640.622	46.11
640.952	46.43
641.282	46.61
641.612	46.46
641.943	45.98
642.273	46.5
642.603	46.82
642.933	46.86
643.263	46.69
643.592	47
643.922	46.89
644.252	46.65
644.582	46.61
644.911	47.27
645.241	47.42
645.571	47.22
645.9	46.94
646.23	47.35
646.559	47.24
646.888	47.28
647.218	47.35
647.547	47.19
647.876	47.47
648.205	47.52
648.534	47.42
648.863	47.33
649.192	47.87
649.521	47.73
649.85	47.47
650.179	47.94
650.508	47.76
650.837	47.12
651.165	47.77
651.494	48.32
651.822	48.12
652.151	48.54
652.479	48.07
652.808	48.13
653.136	47.88
653.465	47.69
653.793	48.46
654.121	48.07
654.449	48.58
654.777	48.7
655.105	48.72
655.433	48.02
655.761	48.13
656.089	48.39
656.417	48.49
656.745	48.68
657.073	48.79
657.4	49.32
657.728	48.3
658.056	49.11
658.383	48.77
658.711	48.6
659.038	49.73
659.365	49.55
659.693	49.07
660.02	49.29
660.347	49.23
660.674	49.91
661.001	49.28
661.329	49.2
661.656	49.86
661.982	49.84
662.309	48.65
662.636	49.41
662.963	49.95
663.29	49.7
663.616	49.8
663.943	49.54
664.27	49.98
664.596	49.88
664.923	50.58
665.249	49.67
665.576	49.98
665.902	49.93
666.228	50.85
666.554	49.8
666.881	49.94
667.207	50.99
667.533	50.19
667.859	50.93
668.185	50.52
668.511	50.85
668.837	49.78
669.162	50.6
669.488	51.17
669.814	51.29
670.139	51.5
670.465	50.95
670.791	50.92
671.116	52.12
