Data from 0411_chest_Reflection__0__262.txt Node

Date: Fri Dec 15 18:40:10 CST 2023
User: ToomeyLab
Spectrometer: FLMS14357
Trigger mode: 0
Integration Time (sec): 1.000000E-2
Scans to average: 100
Electric dark correction enabled: true
Nonlinearity correction enabled: false
Boxcar width: 0
XAxis mode: Wavelengths
Number of Pixels in Spectrum: 2048
>>>>>Begin Spectral Data<<<<<
189.047	-218.62
189.435	-218.62
189.823	-218.62
190.211	-0.11
190.599	-151.06
190.987	73.66
191.375	56.63
191.763	359.34
192.151	-14.06
192.538	84.52
192.926	114.53
193.314	162.32
193.702	573.12
194.089	7.51
194.477	-17.25
194.864	83.37
195.252	41.88
195.639	80.58
196.027	437.06
196.414	43.69
196.801	191.39
197.189	391.46
197.576	141.25
197.963	422.61
198.351	-53.52
198.738	-45.78
199.125	35.74
199.512	9.34
199.899	27.33
200.286	39.76
200.673	-6.37
201.06	12.67
201.447	-16.18
201.833	1.91
202.22	58.27
202.607	53.6
202.994	27.83
203.38	-38.14
203.767	15.38
204.154	13.26
204.54	19.5
204.927	-14.78
205.313	-67.48
205.699	32.09
206.086	27.99
206.472	39.98
206.858	19.17
207.245	-16.61
207.631	9.29
208.017	10.36
208.403	8.62
208.789	36.07
209.175	16.72
209.561	25.61
209.947	-7.36
210.333	-22.14
210.719	-14.15
211.105	15.08
211.491	-12.72
211.876	-6.31
212.262	-25.04
212.648	29.33
213.034	0.41
213.419	-67.75
213.805	-7.1
214.19	32.6
214.576	25.42
214.961	-19.04
215.346	-6.02
215.732	-20.63
216.117	1.86
216.502	-5.88
216.888	-1.36
217.273	2.55
217.658	8.33
218.043	25.4
218.428	-50.06
218.813	-45.97
219.198	-39.26
219.583	-7.33
219.968	5.43
220.353	-17.03
220.738	12.57
221.122	-19.85
221.507	12.45
221.892	-40.1
222.276	-4.53
222.661	-11.67
223.046	2.62
223.43	1.71
223.815	1.59
224.199	0.63
224.583	5.06
224.968	2.63
225.352	12.09
225.736	-0.19
226.121	-12.51
226.505	2.5
226.889	5.35
227.273	-3.23
227.657	13.19
228.041	0.84
228.425	4.04
228.809	0.83
229.193	2.17
229.577	7.24
229.961	5.49
230.344	5.44
230.728	4.81
231.112	5.27
231.495	4.29
231.879	3.43
232.263	5.41
232.646	4.33
233.03	5.59
233.413	4.82
233.797	3.61
234.18	1.97
234.563	4.96
234.946	3.88
235.33	6.65
235.713	3.55
236.096	4.85
236.479	6.76
236.862	5.23
237.245	5.43
237.628	5.33
238.011	5.53
238.394	6.37
238.777	6.8
239.16	4.36
239.543	3.77
239.925	4.49
240.308	6.33
240.691	6.57
241.073	5.35
241.456	3.94
241.838	4.34
242.221	2.82
242.603	5.43
242.986	4.79
243.368	4.76
243.75	4.33
244.133	4.62
244.515	5.59
244.897	5.38
245.279	5.12
245.661	4.17
246.043	3.41
246.425	4.02
246.807	5.23
247.189	4.39
247.571	5.14
247.953	5.3
248.335	5.07
248.717	4.92
249.098	4.72
249.48	4.92
249.862	4.95
250.243	4.75
250.625	4.81
251.006	5.01
251.388	3.14
251.769	5.52
252.151	5.28
252.532	4.58
252.913	4.85
253.295	3.84
253.676	4.91
254.057	4.92
254.438	4.9
254.819	4.27
255.2	4.47
255.581	5.5
255.962	2.95
256.343	3.78
256.724	3.56
257.105	4.24
257.486	3.71
257.867	4.91
258.247	4.71
258.628	4.77
259.009	4.75
259.389	4.46
259.77	4.23
260.15	3.42
260.531	4.23
260.911	4.55
261.292	4.41
261.672	4.73
262.052	4.73
262.432	4.8
262.813	4.5
263.193	4.24
263.573	4.12
263.953	3.68
264.333	4.73
264.713	4.47
265.093	3.49
265.473	4.57
265.853	3.92
266.233	5.06
266.612	3.69
266.992	3.87
267.372	5.08
267.752	4
268.131	4.56
268.511	4.43
268.89	4.46
269.27	4.55
269.649	3.56
270.029	3.78
270.408	5.15
270.787	4.73
271.167	4.49
271.546	4.51
271.925	3.75
272.304	4.26
272.683	4.53
273.062	4.13
273.441	4.58
273.82	3.56
274.199	4.05
274.578	4.22
274.957	4.53
275.336	4.32
275.715	4.1
276.093	3.78
276.472	3.62
276.851	4.11
277.229	4.26
277.608	3.54
277.986	4.42
278.365	4.2
278.743	4.18
279.122	3.99
279.5	4.1
279.878	4.5
280.257	4.34
280.635	3.9
281.013	4.27
281.391	4.58
281.769	3.9
282.147	4.35
282.525	4.7
282.903	4.59
283.281	4.72
283.659	4.57
284.037	4.81
284.415	4.15
284.792	4.44
285.17	3.37
285.548	4.34
285.925	3.9
286.303	4.29
286.68	4.28
287.058	4.02
287.435	4.24
287.813	4.39
288.19	4.26
288.567	4.19
288.945	4.24
289.322	3.98
289.699	3.96
290.076	4.08
290.453	4.03
290.83	3.6
291.207	3.98
291.584	4.16
291.961	4.26
292.338	3.96
292.715	4.24
293.092	4.18
293.469	4.07
293.845	4.36
294.222	3.66
294.599	4.03
294.975	4.14
295.352	3.86
295.728	4.02
296.105	4.02
296.481	4.56
296.858	4.06
297.234	4.19
297.61	3.9
297.986	4.08
298.363	4.27
298.739	4.5
299.115	4.11
299.491	4.06
299.867	4.25
300.243	4.26
300.619	3.98
300.995	3.47
301.371	3.9
301.746	3.78
302.122	4.63
302.498	4.24
302.874	4.64
303.249	3.96
303.625	4.53
304	4.55
304.376	3.66
304.751	3.92
305.127	5.13
305.502	4.13
305.878	3.36
306.253	4.17
306.628	4.76
307.003	3.73
307.378	4.31
307.754	4.26
308.129	3.54
308.504	4.21
308.879	3.83
309.254	4.72
309.629	4.3
310.003	4.64
310.378	4.37
310.753	4.02
311.128	4.41
311.502	4.47
311.877	4.35
312.252	4.08
312.626	4.07
313.001	4.11
313.375	4.4
313.75	3.89
314.124	3.88
314.498	3.97
314.873	4.47
315.247	4.14
315.621	4.13
315.995	3.2
316.369	4.5
316.743	4.07
317.117	4.2
317.491	3.52
317.865	4.11
318.239	4.35
318.613	4.75
318.987	4.44
319.361	3.69
319.734	4.78
320.108	4.17
320.482	3.97
320.855	4.65
321.229	3.92
321.602	3.96
321.976	4.21
322.349	3.58
322.723	3.94
323.096	4.63
323.469	3.23
323.843	4.68
324.216	4.64
324.589	3.87
324.962	3.96
325.335	3.93
325.708	3.86
326.081	4.25
326.454	4.18
326.827	4.57
327.2	4.25
327.573	4.35
327.945	4.49
328.318	3.97
328.691	4.22
329.063	4.36
329.436	3.85
329.809	4.65
330.181	4.26
330.553	3.62
330.926	4.27
331.298	4.4
331.671	3.86
332.043	4.53
332.415	3.68
332.787	3.62
333.159	4.87
333.532	4.63
333.904	4.2
334.276	4.44
334.648	4.01
335.02	3.71
335.391	3.64
335.763	3.87
336.135	4.04
336.507	4.38
336.879	3.89
337.25	4.34
337.622	3.8
337.993	3.79
338.365	4.48
338.736	4.07
339.108	4.22
339.479	4.24
339.851	4.21
340.222	3.75
340.593	4.52
340.964	3.78
341.336	4.07
341.707	3.96
342.078	4.6
342.449	4.22
342.82	3.86
343.191	4.26
343.562	4.45
343.933	4.38
344.303	4.2
344.674	4.25
345.045	4.26
345.416	4.93
345.786	4.13
346.157	4.35
346.527	3.75
346.898	3.51
347.268	4.7
347.639	4.19
348.009	4.27
348.38	4.2
348.75	4.38
349.12	3.75
349.49	4.22
349.861	4.26
350.231	3.66
350.601	4.58
350.971	3.96
351.341	4.28
351.711	4.2
352.081	4.49
352.45	3.89
352.82	4.33
353.19	4.03
353.56	4.25
353.929	4.38
354.299	4.02
354.669	3.95
355.038	4.59
355.408	4.4
355.777	3.84
356.147	4.32
356.516	4.15
356.885	4.58
357.254	4.24
357.624	4.34
357.993	4.49
358.362	3.9
358.731	4.18
359.1	4.22
359.469	4.43
359.838	4.29
360.207	4.19
360.576	3.72
360.945	4.11
361.314	4.83
361.682	4.1
362.051	3.94
362.42	4.51
362.788	4.42
363.157	4.81
363.525	4.33
363.894	4.41
364.262	4.23
364.631	4.33
364.999	4.22
365.367	3.8
365.735	4.77
366.104	4.31
366.472	4.59
366.84	4.34
367.208	4.2
367.576	4.56
367.944	4.39
368.312	4.2
368.68	4.03
369.048	4.49
369.416	4.15
369.783	4.15
370.151	4.78
370.519	4.65
370.886	4.46
371.254	4.06
371.621	4.71
371.989	4.31
372.356	3.88
372.724	4.35
373.091	3.93
373.458	4.61
373.826	4.62
374.193	4.41
374.56	4.51
374.927	4.67
375.294	4.57
375.661	4.26
376.028	4.15
376.395	4.32
376.762	4.6
377.129	4.39
377.496	4.35
377.863	4.39
378.229	4.23
378.596	4.64
378.963	4.27
379.329	4.1
379.696	4.7
380.062	4.26
380.429	4.46
380.795	4.21
381.161	4.34
381.528	4.69
381.894	4.22
382.26	4.39
382.626	4.59
382.993	4.33
383.359	4.67
383.725	4.16
384.091	4.06
384.457	4.67
384.823	4.52
385.188	4.41
385.554	4.54
385.92	4.48
386.286	4.6
386.651	4.85
387.017	4.79
387.383	4.44
387.748	4.27
388.114	4.57
388.479	4.25
388.845	4.5
389.21	4.47
389.575	4.53
389.94	4.54
390.306	4.57
390.671	4.76
391.036	4.35
391.401	4.37
391.766	4.58
392.131	4.39
392.496	4.53
392.861	4.35
393.226	4.58
393.591	4.42
393.956	4.18
394.32	4.75
394.685	4.49
395.05	4.44
395.414	4.68
395.779	4.19
396.143	4.62
396.508	4.61
396.872	4.66
397.236	4.58
397.601	4.09
397.965	4.71
398.329	4.44
398.694	4.52
399.058	4.81
399.422	4.4
399.786	4.65
400.15	4.85
400.514	4.52
400.878	4.75
401.242	4.92
401.605	4.6
401.969	4.52
402.333	4.68
402.697	4.7
403.06	4.45
403.424	4.46
403.787	4.34
404.151	4.8
404.514	4.84
404.878	4.51
405.241	4.57
405.604	4.53
405.968	4.58
406.331	4.87
406.694	4.75
407.057	4.59
407.42	4.55
407.783	4.27
408.146	4.77
408.509	4.61
408.872	4.47
409.235	4.63
409.598	4.74
409.961	4.7
410.323	4.88
410.686	4.83
411.049	4.33
411.411	4.51
411.774	4.6
412.136	4.59
412.499	4.58
412.861	4.72
413.223	4.59
413.586	4.51
413.948	4.49
414.31	4.62
414.672	4.69
415.035	4.64
415.397	4.84
415.759	4.54
416.121	4.74
416.483	4.55
416.845	4.7
417.206	4.58
417.568	4.63
417.93	4.71
418.292	4.58
418.653	4.62
419.015	4.7
419.377	4.63
419.738	4.76
420.1	4.61
420.461	4.69
420.822	4.57
421.184	4.63
421.545	4.71
421.906	4.59
422.267	4.56
422.629	4.53
422.99	4.61
423.351	4.45
423.712	4.55
424.073	4.55
424.434	4.6
424.795	4.48
425.155	4.6
425.516	4.61
425.877	4.52
426.238	4.54
426.598	4.69
426.959	4.62
427.32	4.5
427.68	4.65
428.041	4.63
428.401	4.73
428.761	4.6
429.122	4.77
429.482	4.7
429.842	4.77
430.202	4.87
430.563	4.79
430.923	4.68
431.283	4.67
431.643	4.71
432.003	4.71
432.363	4.64
432.722	4.47
433.082	4.76
433.442	4.75
433.802	4.52
434.161	4.76
434.521	4.93
434.881	4.89
435.24	4.82
435.6	4.79
435.959	4.71
436.319	4.83
436.678	4.62
437.037	4.64
437.396	4.68
437.756	4.76
438.115	4.79
438.474	4.88
438.833	4.63
439.192	4.67
439.551	4.95
439.91	4.71
440.269	4.76
440.628	4.6
440.987	4.73
441.345	4.47
441.704	4.67
442.063	4.69
442.421	4.78
442.78	4.69
443.138	4.64
443.497	4.76
443.855	4.61
444.214	4.66
444.572	4.7
444.93	4.93
445.288	4.83
445.647	4.84
446.005	4.92
446.363	4.85
446.721	4.86
447.079	4.77
447.437	4.79
447.795	4.76
448.153	4.7
448.51	4.78
448.868	4.86
449.226	4.78
449.584	4.77
449.941	4.88
450.299	4.74
450.656	4.82
451.014	4.8
451.371	4.74
451.729	4.79
452.086	5.03
452.443	4.9
452.801	4.77
453.158	4.96
453.515	4.67
453.872	4.91
454.229	4.7
454.586	4.76
454.943	4.91
455.3	4.94
455.657	4.81
456.014	5.01
456.371	4.87
456.727	4.91
457.084	5.03
457.441	5.02
457.797	4.97
458.154	4.99
458.51	4.93
458.867	5.17
459.223	5.11
459.58	4.96
459.936	4.84
460.292	4.95
460.648	4.99
461.005	4.9
461.361	4.92
461.717	4.87
462.073	4.73
462.429	4.85
462.785	4.87
463.141	5.02
463.496	4.95
463.852	4.94
464.208	4.96
464.564	5.05
464.919	5.06
465.275	4.85
465.631	4.85
465.986	4.93
466.342	4.93
466.697	4.86
467.052	5.08
467.408	5.03
467.763	4.98
468.118	4.99
468.473	4.78
468.829	5.13
469.184	4.93
469.539	4.95
469.894	4.91
470.249	5.23
470.603	5.09
470.958	5.05
471.313	5.05
471.668	5.24
472.023	4.92
472.377	5.1
472.732	4.97
473.086	4.99
473.441	4.97
473.795	5.35
474.15	5.13
474.504	5.05
474.859	5.02
475.213	4.93
475.567	5.11
475.921	4.99
476.275	5.1
476.63	5.1
476.984	5.22
477.338	5.29
477.692	4.93
478.045	5.1
478.399	4.95
478.753	5.12
479.107	5.19
479.461	5.03
479.814	5.05
480.168	5.16
480.521	5.12
480.875	5.08
481.228	5.07
481.582	5.05
481.935	5.1
482.289	5
482.642	5.29
482.995	5.01
483.348	5.01
483.701	4.98
484.055	5.07
484.408	5.2
484.761	4.98
485.114	4.99
485.466	4.86
485.819	4.84
486.172	4.82
486.525	4.87
486.878	4.9
487.23	4.91
487.583	4.93
487.936	5.01
488.288	5.01
488.641	5.01
488.993	4.95
489.345	4.94
489.698	4.9
490.05	4.9
490.402	4.91
490.754	4.97
491.107	5.07
491.459	5.09
491.811	5.11
492.163	5.2
492.515	5.11
492.866	5.21
493.218	5.09
493.57	5
493.922	4.9
494.274	5.09
494.625	5.14
494.977	5.18
495.328	5.14
495.68	5.11
496.031	5.29
496.383	5.18
496.734	5.42
497.086	5.26
497.437	5.31
497.788	5.26
498.139	5.27
498.49	5.34
498.842	5.11
499.193	5.22
499.544	5.26
499.894	5.31
500.245	5.23
500.596	5.29
500.947	5.36
501.298	5.23
501.648	5.32
501.999	5.43
502.35	5.31
502.7	5.31
503.051	5.15
503.401	5.2
503.752	5.5
504.102	5.27
504.452	5.27
504.803	5.22
505.153	5.28
505.503	5.41
505.853	5.38
506.203	5.39
506.553	5.32
506.903	5.36
507.253	5.32
507.603	5.37
507.953	5.56
508.303	5.34
508.652	5.27
509.002	5.58
509.352	5.64
509.701	5.48
510.051	5.39
510.4	5.45
510.75	5.52
511.099	5.48
511.449	5.46
511.798	5.41
512.147	5.47
512.496	5.38
512.846	5.49
513.195	5.48
513.544	5.52
513.893	5.64
514.242	5.45
514.591	5.64
514.939	5.56
515.288	5.44
515.637	5.68
515.986	5.56
516.334	5.54
516.683	5.62
517.032	5.55
517.38	5.7
517.729	5.66
518.077	5.52
518.426	5.69
518.774	5.64
519.122	5.61
519.47	5.63
519.819	5.53
520.167	5.56
520.515	5.62
520.863	5.56
521.211	5.59
521.559	5.69
521.907	5.6
522.255	5.72
522.602	5.61
522.95	5.62
523.298	5.73
523.645	5.76
523.993	5.73
524.341	5.69
524.688	5.87
525.036	5.71
525.383	5.8
525.73	5.88
526.078	5.75
526.425	5.8
526.772	5.78
527.119	5.74
527.466	5.7
527.814	5.66
528.161	5.76
528.508	5.85
528.854	5.75
529.201	5.7
529.548	5.76
529.895	5.7
530.242	5.61
530.588	5.61
530.935	5.61
531.282	5.67
531.628	5.68
531.975	5.75
532.321	5.86
532.667	5.83
533.014	5.95
533.36	5.84
533.706	5.9
534.052	6
534.399	5.85
534.745	5.89
535.091	5.86
535.437	5.91
535.783	5.89
536.129	5.96
536.474	5.89
536.82	5.98
537.166	6.07
537.512	5.99
537.857	6.06
538.203	6.16
538.549	6.09
538.894	6.08
539.239	6.1
539.585	6.18
539.93	6.05
540.276	6.2
540.621	6.24
540.966	6.17
541.311	6.11
541.656	6.21
542.001	6.17
542.346	6.23
542.691	6.13
543.036	6.14
543.381	6.07
543.726	6.11
544.071	6.18
544.415	6.21
544.76	6.22
545.105	6.22
545.449	6.28
545.794	6.35
546.138	6.29
546.483	6.3
546.827	6.44
547.171	6.37
547.516	6.64
547.86	6.36
548.204	6.57
548.548	6.38
548.892	6.41
549.236	6.44
549.58	6.48
549.924	6.7
550.268	6.59
550.612	6.66
550.956	6.79
551.3	6.7
551.643	6.89
551.987	6.74
552.33	6.72
552.674	6.93
553.017	6.63
553.361	6.83
553.704	7.04
554.048	6.81
554.391	6.86
554.734	6.76
555.077	6.9
555.42	6.73
555.764	6.88
556.107	6.85
556.45	6.77
556.793	6.85
557.135	6.88
557.478	7.11
557.821	6.99
558.164	6.91
558.507	7.23
558.849	6.94
559.192	7.1
559.534	7.11
559.877	7.2
560.219	6.99
560.562	7.15
560.904	7.2
561.246	7.2
561.589	7.2
561.931	7.23
562.273	7.1
562.615	7.38
562.957	7.22
563.299	7.2
563.641	7.48
563.983	7.28
564.325	7.19
564.667	7.32
565.008	7.36
565.35	7.33
565.692	7.31
566.033	7.36
566.375	7.6
566.716	7.59
567.058	7.36
567.399	7.58
567.741	7.41
568.082	7.38
568.423	7.52
568.764	7.54
569.105	7.57
569.447	7.81
569.788	7.58
570.129	7.77
570.47	7.56
570.811	7.96
571.151	7.73
571.492	7.92
571.833	7.81
572.174	7.71
572.514	7.97
572.855	7.9
573.195	7.77
573.536	7.92
573.876	7.85
574.217	7.88
574.557	8.11
574.898	8.13
575.238	8.1
575.578	7.85
575.918	8.11
576.258	8.21
576.598	8.15
576.938	7.95
577.278	8.06
577.618	8.24
577.958	8.14
578.298	8.32
578.638	8.08
578.977	8.22
579.317	8.27
579.657	8.23
579.996	8.28
580.336	8.49
580.675	8.44
581.014	8.34
581.354	8.51
581.693	8.79
582.032	8.57
582.372	8.5
582.711	8.57
583.05	8.7
583.389	8.61
583.728	8.41
584.067	8.61
584.406	9
584.745	8.66
585.083	8.95
585.422	8.9
585.761	8.82
586.1	8.99
586.438	8.87
586.777	9.27
587.115	9.25
587.454	9.01
587.792	9.2
588.13	9.06
588.469	9.28
588.807	9.06
589.145	9.1
589.483	9.14
589.821	9.04
590.159	9.46
590.497	9.49
590.835	9.59
591.173	9.25
591.511	9.44
591.849	9.44
592.187	9.29
592.524	9.42
592.862	9.32
593.2	9.65
593.537	9.36
593.875	9.62
594.212	9.4
594.55	9.4
594.887	9.92
595.224	9.62
595.561	9.62
595.899	9.6
596.236	9.68
596.573	9.92
596.91	9.62
597.247	9.59
597.584	10.07
597.921	9.73
598.258	9.49
598.594	9.92
598.931	9.79
599.268	9.9
599.604	9.85
599.941	9.99
600.277	9.93
600.614	10.01
600.95	9.86
601.287	10.23
601.623	10.53
601.959	10.18
602.296	10.23
602.632	10.54
602.968	10.28
603.304	10.38
603.64	10.23
603.976	10.3
604.312	10.06
604.648	10.49
604.984	10.52
605.319	10.57
605.655	10.46
605.991	10.48
606.326	10.48
606.662	10.62
606.998	10.57
607.333	10.71
607.668	10.75
608.004	10.89
608.339	10.84
608.674	10.86
609.01	10.51
609.345	10.79
609.68	10.9
610.015	10.92
610.35	11.09
610.685	11.02
611.02	11.04
611.355	11.3
611.689	11.12
612.024	11.31
612.359	11.03
612.694	11.38
613.028	10.99
613.363	11.56
613.697	11.77
614.032	11.54
614.366	11.2
614.7	11.46
615.035	11.6
615.369	11.35
615.703	11.5
616.037	11.67
616.371	11.52
616.705	11.34
617.039	11.67
617.373	11.68
617.707	11.41
618.041	12.07
618.375	11.7
618.709	12.29
619.042	11.94
619.376	12.07
619.71	11.97
620.043	12.04
620.377	12.35
620.71	11.93
621.043	11.97
621.377	12.33
621.71	12.54
622.043	11.96
622.376	11.77
622.709	12.42
623.043	12.45
623.376	12.73
623.709	12.37
624.041	13.08
624.374	12.68
624.707	12.48
625.04	12.65
625.373	12.18
625.705	12.99
626.038	12.52
626.37	12.69
626.703	12.76
627.035	12.86
627.368	13.22
627.7	13.22
628.032	12.89
628.365	13.06
628.697	13.14
629.029	12.7
629.361	12.96
629.693	13.35
630.025	13.01
630.357	13.24
630.689	13.29
631.021	13.07
631.353	13.36
631.684	12.93
632.016	12.91
632.348	13.33
632.679	13.48
633.011	13.23
633.342	13.67
633.674	13.45
634.005	13.98
634.336	13.94
634.668	14.05
634.999	13.33
635.33	13.95
635.661	14.04
635.992	13.43
636.323	13.58
636.654	13.93
636.985	14.08
637.316	13.83
637.647	13.43
637.977	14.24
638.308	14.08
638.639	13.61
638.969	13.78
639.3	14.2
639.63	14.01
639.961	14.16
640.291	14.06
640.622	14.73
640.952	13.72
641.282	14.71
641.612	14.19
641.943	14.55
642.273	14.43
642.603	14.91
642.933	14.65
643.263	14.45
643.592	14.45
643.922	14.85
644.252	14.44
644.582	14.48
644.911	14.92
645.241	14.98
645.571	14.91
645.9	14.91
646.23	14.9
646.559	15.23
646.888	15.32
647.218	14.85
647.547	15.28
647.876	14.69
648.205	14.62
648.534	15.07
648.863	15.1
649.192	15.54
649.521	15.28
649.85	15.28
650.179	15.36
650.508	14.75
650.837	15.35
651.165	15.32
651.494	15.5
651.822	15.31
652.151	15.47
652.479	15.29
652.808	15.89
653.136	15.96
653.465	15.02
653.793	15.81
654.121	15.3
654.449	15.76
654.777	15.96
655.105	15.99
655.433	15.6
655.761	15.84
656.089	15.55
656.417	16.17
656.745	15.39
657.073	15.88
657.4	16.38
657.728	15.97
658.056	16.29
658.383	15.77
658.711	16.55
659.038	16.65
659.365	16.55
659.693	16.68
660.02	16.58
660.347	16.55
660.674	16.95
661.001	16.96
661.329	15.65
661.656	16.41
661.982	17
662.309	16.52
662.636	16.83
662.963	17.44
663.29	16.97
663.616	17.18
663.943	16.74
664.27	16.73
664.596	17.13
664.923	16.65
665.249	17.14
665.576	16.84
665.902	17.43
666.228	17.63
666.554	17.11
666.881	17.42
667.207	17.16
667.533	17.06
667.859	17.04
668.185	17.71
668.511	17.02
668.837	16.84
669.162	17.28
669.488	17.4
669.814	17.63
670.139	18.41
670.465	17.54
670.791	18.34
671.116	18.11
671.442	17.48
671.767	18.33
672.092	17.86
672.418	18.57
672.743	19.14
673.068	17.17
673.393	18.13
673.718	18.07
674.043	18.01
674.368	18.03
674.693	18.79
675.018	17.89
675.343	18.59
675.667	18.18
675.992	19.26
676.317	18.78
676.641	18.37
676.966	17.99
677.29	18.23
677.615	18.83
677.939	18.34
678.264	19.24
678.588	19.26
678.912	19.04
679.236	19.24
679.56	19.52
679.885	19.6
680.209	18.39
680.532	18.93
680.856	19.31
681.18	18.93
681.504	19.43
681.828	19.35
682.152	18.51
682.475	19.1
682.799	19.74
683.122	19.79
683.446	18.7
683.769	20.09
684.093	19.33
684.416	20.32
684.739	20.14
685.062	19.28
685.386	19.88
685.709	19.39
686.032	20.01
686.355	20.25
