Data from 0411_crown_Reflection__1__268.txt Node

Date: Fri Dec 15 18:41:46 CST 2023
User: ToomeyLab
Spectrometer: FLMS14357
Trigger mode: 0
Integration Time (sec): 1.000000E-2
Scans to average: 100
Electric dark correction enabled: true
Nonlinearity correction enabled: false
Boxcar width: 0
XAxis mode: Wavelengths
Number of Pixels in Spectrum: 2048
>>>>>Begin Spectral Data<<<<<
189.047	173.15
189.435	173.15
189.823	173.15
190.211	7.09
190.599	630.52
190.987	84.98
191.375	28.34
191.763	-407.09
192.151	-112.34
192.538	103.86
192.926	136.86
193.314	313.54
193.702	187.49
194.089	-29.49
194.477	42.49
194.864	659.3
195.252	79.7
195.639	113.42
196.027	143.89
196.414	45.14
196.801	-208.15
197.189	419.05
197.576	154.49
197.963	-305.05
198.351	42.1
198.738	-20.8
199.125	25.8
199.512	36.11
199.899	70.83
200.286	10.04
200.673	-34.09
201.06	-0.04
201.447	-44.61
201.833	-54.7
202.22	-19.72
202.607	15.42
202.994	-35.8
203.38	68.92
203.767	8.71
204.154	9.45
204.54	23.62
204.927	-17.13
205.313	-21.1
205.699	50.39
206.086	58.01
206.472	19.38
206.858	-1.01
207.245	-114.89
207.631	36.81
208.017	-8.19
208.403	-44.87
208.789	23.84
209.175	25.53
209.561	-24.67
209.947	6.9
210.333	-78.99
210.719	21.1
211.105	9.17
211.491	-32.87
211.876	-3.28
212.262	23.7
212.648	10.02
213.034	18.08
213.419	-58.05
213.805	-6.5
214.19	2.85
214.576	-35
214.961	-20.34
215.346	-79.37
215.732	-6.08
216.117	27.51
216.502	-1.82
216.888	-0.5
217.273	2.5
217.658	-4.41
218.043	2.01
218.428	-32.22
218.813	-31.5
219.198	-25.35
219.583	3.6
219.968	-0.57
220.353	-38.19
220.738	-1.02
221.122	-14.81
221.507	-12.05
221.892	-26.78
222.276	-37.82
222.661	-14.87
223.046	-6.51
223.43	8.84
223.815	9.17
224.199	-16.03
224.583	-6.48
224.968	0.61
225.352	15.16
225.736	-8.35
226.121	-13.77
226.505	5.24
226.889	2.02
227.273	-2.17
227.657	5.76
228.041	0.81
228.425	3.83
228.809	5.73
229.193	4.06
229.577	3.09
229.961	3.89
230.344	3.75
230.728	3.35
231.112	3.91
231.495	4.82
231.879	4.53
232.263	4.46
232.646	3.86
233.03	3.35
233.413	2.73
233.797	4.35
234.18	1.04
234.563	2.36
234.946	1.55
235.33	4.2
235.713	3.08
236.096	2.07
236.479	4.79
236.862	2.78
237.245	3.52
237.628	3.71
238.011	4.56
238.394	4.51
238.777	3.6
239.16	2.75
239.543	2.66
239.925	5.53
240.308	3.21
240.691	5.63
241.073	3.76
241.456	2.17
241.838	2.43
242.221	4.06
242.603	5.48
242.986	3.89
243.368	4.51
243.75	4.01
244.133	3.72
244.515	4.2
244.897	4.12
245.279	4.41
245.661	3.41
246.043	3.34
246.425	3.46
246.807	5.01
247.189	4.25
247.571	3.48
247.953	3.8
248.335	3.51
248.717	3.74
249.098	3.74
249.48	4
249.862	3.98
250.243	3.41
250.625	3.78
251.006	3.94
251.388	3.36
251.769	3.43
252.151	3.26
252.532	2.32
252.913	3.54
253.295	3.06
253.676	3.03
254.057	3.35
254.438	3.75
254.819	3.19
255.2	2.16
255.581	3.12
255.962	3.22
256.343	4.02
256.724	3.23
257.105	3.45
257.486	3.22
257.867	4.08
258.247	1.8
258.628	3.16
259.009	3.41
259.389	3.67
259.77	3.33
260.15	3.15
260.531	3.08
260.911	4.03
261.292	3.6
261.672	3.83
262.052	3.62
262.432	3.79
262.813	4.07
263.193	3.81
263.573	3.6
263.953	3.38
264.333	3.92
264.713	3.69
265.093	3.44
265.473	4.29
265.853	2.6
266.233	4.07
266.612	2.14
266.992	2.19
267.372	3.48
267.752	3.26
268.131	3.53
268.511	3.65
268.89	3.66
269.27	2.3
269.649	2.92
270.029	2.8
270.408	4.13
270.787	3.9
271.167	3.52
271.546	3.84
271.925	2.63
272.304	3.22
272.683	3.63
273.062	2.78
273.441	3.71
273.82	2.54
274.199	3.16
274.578	3.17
274.957	3.38
275.336	3.25
275.715	2.76
276.093	2.79
276.472	3.36
276.851	2.51
277.229	3.42
277.608	2.37
277.986	3.31
278.365	3.33
278.743	2.47
279.122	3.13
279.5	3.29
279.878	3.13
280.257	2.88
280.635	2.77
281.013	3.21
281.391	3.27
281.769	3.24
282.147	3.44
282.525	3.96
282.903	3.16
283.281	3.23
283.659	3.12
284.037	3.65
284.415	3.55
284.792	3.41
285.17	2.61
285.548	3.14
285.925	3.17
286.303	3.05
286.68	3.2
287.058	2.9
287.435	3.15
287.813	3.04
288.19	3.34
288.567	3.01
288.945	3.77
289.322	3.38
289.699	2.98
290.076	3.11
290.453	3.24
290.83	2.63
291.207	2.89
291.584	3.26
291.961	3.39
292.338	3.04
292.715	3.61
293.092	2.72
293.469	2.95
293.845	3.17
294.222	2.64
294.599	2.82
294.975	3.23
295.352	3.56
295.728	2.61
296.105	3.24
296.481	3.27
296.858	3.04
297.234	2.69
297.61	2.86
297.986	3.21
298.363	2.8
298.739	3.25
299.115	2.73
299.491	2.75
299.867	3.13
300.243	2.87
300.619	2.25
300.995	2.47
301.371	3.15
301.746	2.91
302.122	3.18
302.498	3.04
302.874	3.1
303.249	3.04
303.625	2.58
304	3.76
304.376	2.81
304.751	2.16
305.127	3.26
305.502	2.64
305.878	1.88
306.253	2.76
306.628	3.09
307.003	2.48
307.378	2.86
307.754	2.58
308.129	2.34
308.504	2.68
308.879	2.43
309.254	3.07
309.629	2.84
310.003	2.99
310.378	3.06
310.753	3.13
311.128	2.74
311.502	2.65
311.877	3.17
312.252	2.7
312.626	2.85
313.001	2.96
313.375	3.17
313.75	2.93
314.124	2.95
314.498	3.2
314.873	3.21
315.247	2.95
315.621	2.95
315.995	2.01
316.369	2.88
316.743	2.21
317.117	2.89
317.491	2.94
317.865	2.94
318.239	2.83
318.613	3.24
318.987	2.69
319.361	2.25
319.734	2.59
320.108	2.56
320.482	2.45
320.855	2.58
321.229	2.48
321.602	3.16
321.976	2.72
322.349	2.3
322.723	3.09
323.096	2.74
323.469	2.13
323.843	2.72
324.216	3.08
324.589	2.77
324.962	2.85
325.335	2.69
325.708	2.8
326.081	2.39
326.454	2.62
326.827	2.61
327.2	3.1
327.573	3.19
327.945	2.78
328.318	2.57
328.691	2.39
329.063	2.36
329.436	2.61
329.809	2.84
330.181	2.91
330.553	2.43
330.926	2.68
331.298	2.69
331.671	2.22
332.043	3.37
332.415	2.7
332.787	2.46
333.159	3.1
333.532	2.89
333.904	2.95
334.276	2.62
334.648	3.06
335.02	2.8
335.391	2.81
335.763	2.5
336.135	2.87
336.507	2.87
336.879	3.08
337.25	2.65
337.622	2.27
337.993	3.12
338.365	2.99
338.736	2.85
339.108	2.88
339.479	2.33
339.851	2.59
340.222	3.02
340.593	2.7
340.964	2.93
341.336	3.41
341.707	2.48
342.078	3.17
342.449	3.06
342.82	2.88
343.191	2.62
343.562	2.41
343.933	3.27
344.303	3.04
344.674	2.77
345.045	2.31
345.416	3.3
345.786	2.25
346.157	2.98
346.527	2.29
346.898	2.66
347.268	2.94
347.639	3.07
348.009	2.77
348.38	2.58
348.75	2.47
349.12	2.5
349.49	3.82
349.861	3.08
350.231	2.69
350.601	2.92
350.971	2.72
351.341	2.4
351.711	2.62
352.081	3.05
352.45	2.57
352.82	3.18
353.19	2.85
353.56	2.5
353.929	2.53
354.299	2.98
354.669	2.86
355.038	3.02
355.408	2.66
355.777	2.79
356.147	2.31
356.516	2.51
356.885	2.91
357.254	2.55
357.624	3.03
357.993	2.9
358.362	2.89
358.731	2.91
359.1	2.94
359.469	2.85
359.838	3.21
360.207	2.78
360.576	2.86
360.945	2.98
361.314	3.04
361.682	2.68
362.051	2.9
362.42	2.88
362.788	2.85
363.157	2.91
363.525	3.05
363.894	2.99
364.262	3.18
364.631	2.86
364.999	2.9
365.367	2.68
365.735	3.27
366.104	3.04
366.472	3.25
366.84	2.9
367.208	2.94
367.576	3.17
367.944	3.15
368.312	2.92
368.68	2.71
369.048	2.91
369.416	2.95
369.783	2.99
370.151	3.11
370.519	3.27
370.886	3.08
371.254	3.06
371.621	3.12
371.989	3.37
372.356	2.74
372.724	3.14
373.091	2.92
373.458	3.03
373.826	2.69
374.193	2.56
374.56	3.28
374.927	3.05
375.294	3.34
375.661	2.98
376.028	2.82
376.395	2.98
376.762	3.24
377.129	3.02
377.496	2.96
377.863	2.93
378.229	2.63
378.596	3.12
378.963	3.26
379.329	2.75
379.696	3.25
380.062	2.88
380.429	3.07
380.795	2.87
381.161	3.3
381.528	3.27
381.894	3.08
382.26	2.96
382.626	3.03
382.993	2.67
383.359	3.36
383.725	2.92
384.091	3.35
384.457	3.43
384.823	3.13
385.188	3.43
385.554	3.09
385.92	3.15
386.286	3.34
386.651	3.42
387.017	3.28
387.383	3
387.748	2.95
388.114	3.48
388.479	3.17
388.845	3.44
389.21	3.46
389.575	3.23
389.94	3.25
390.306	3.15
390.671	3.4
391.036	3.11
391.401	3.21
391.766	3.16
392.131	3.09
392.496	3.61
392.861	3.29
393.226	3.41
393.591	3.18
393.956	3.26
394.32	3.13
394.685	3.27
395.05	3.24
395.414	3.31
395.779	3.2
396.143	3.37
396.508	3.18
396.872	3.36
397.236	3.51
397.601	3.03
397.965	3.2
398.329	3.37
398.694	3.62
399.058	3.15
399.422	3.1
399.786	3.74
400.15	3.47
400.514	3.25
400.878	3.23
401.242	3.32
401.605	3.34
401.969	3.63
402.333	3.45
402.697	3.36
403.06	3.02
403.424	3.51
403.787	3.29
404.151	3.5
404.514	3.48
404.878	3.29
405.241	3.45
405.604	3.37
405.968	3.35
406.331	3.46
406.694	3.44
407.057	3.52
407.42	3.46
407.783	3.08
408.146	3.25
408.509	3.53
408.872	3.3
409.235	3.43
409.598	3.57
409.961	3.42
410.323	3.66
410.686	3.59
411.049	3.13
411.411	3.37
411.774	3.7
412.136	3.31
412.499	3.27
412.861	3.36
413.223	3.57
413.586	3.28
413.948	3.4
414.31	3.35
414.672	3.33
415.035	3.42
415.397	3.46
415.759	3.27
416.121	3.74
416.483	3.3
416.845	3.38
417.206	3.45
417.568	3.59
417.93	3.34
418.292	3.29
418.653	3.32
419.015	3.41
419.377	3.41
419.738	3.55
420.1	3.27
420.461	3.45
420.822	3.49
421.184	3.3
421.545	3.56
421.906	3.27
422.267	3.45
422.629	3.46
422.99	3.44
423.351	3.44
423.712	3.5
424.073	3.45
424.434	3.38
424.795	3.49
425.155	3.45
425.516	3.36
425.877	3.43
426.238	3.4
426.598	3.46
426.959	3.55
427.32	3.37
427.68	3.47
428.041	3.55
428.401	3.58
428.761	3.46
429.122	3.59
429.482	3.37
429.842	3.69
430.202	3.51
430.563	3.6
430.923	3.62
431.283	3.65
431.643	3.52
432.003	3.48
432.363	3.68
432.722	3.4
433.082	3.6
433.442	3.58
433.802	3.31
434.161	3.51
434.521	3.71
434.881	3.56
435.24	3.43
435.6	3.6
435.959	3.4
436.319	3.59
436.678	3.57
437.037	3.55
437.396	3.47
437.756	3.72
438.115	3.65
438.474	3.77
438.833	3.27
439.192	3.57
439.551	3.61
439.91	3.5
440.269	3.61
440.628	3.55
440.987	3.64
441.345	3.46
441.704	3.54
442.063	3.56
442.421	3.51
442.78	3.55
443.138	3.67
443.497	3.62
443.855	3.71
444.214	3.54
444.572	3.68
444.93	3.55
445.288	3.63
445.647	3.79
446.005	3.54
446.363	3.6
446.721	3.58
447.079	3.32
447.437	3.58
447.795	3.6
448.153	3.42
448.51	3.54
448.868	3.52
449.226	3.62
449.584	3.5
449.941	3.75
450.299	3.65
450.656	3.72
451.014	3.67
451.371	3.69
451.729	3.56
452.086	3.76
452.443	3.54
452.801	3.7
453.158	3.7
453.515	3.54
453.872	3.8
454.229	3.62
454.586	3.56
454.943	3.76
455.3	3.76
455.657	3.57
456.014	3.63
456.371	3.69
456.727	3.61
457.084	3.83
457.441	3.89
457.797	3.75
458.154	3.82
458.51	3.59
458.867	3.81
459.223	3.74
459.58	3.66
459.936	3.65
460.292	3.64
460.648	3.66
461.005	3.68
461.361	3.75
461.717	3.65
462.073	3.59
462.429	3.65
462.785	3.66
463.141	3.65
463.496	3.76
463.852	3.77
464.208	3.78
464.564	3.7
464.919	3.75
465.275	3.78
465.631	3.86
465.986	3.61
466.342	3.67
466.697	3.75
467.052	3.72
467.408	3.77
467.763	3.82
468.118	3.7
468.473	3.7
468.829	3.7
469.184	3.65
469.539	3.87
469.894	3.63
470.249	3.84
470.603	3.83
470.958	3.77
471.313	3.96
471.668	3.9
472.023	3.89
472.377	3.89
472.732	3.78
473.086	3.6
473.441	3.68
473.795	3.88
474.15	3.76
474.504	3.79
474.859	3.68
475.213	3.65
475.567	3.8
475.921	3.75
476.275	3.72
476.63	3.75
476.984	3.88
477.338	4.05
477.692	3.8
478.045	3.63
478.399	3.8
478.753	3.84
479.107	3.83
479.461	3.87
479.814	3.77
480.168	3.81
480.521	3.66
480.875	3.81
481.228	3.98
481.582	3.73
481.935	3.84
482.289	3.86
482.642	3.79
482.995	3.7
483.348	3.69
483.701	3.74
484.055	3.8
484.408	3.76
484.761	3.65
485.114	3.53
485.466	3.45
485.819	3.44
486.172	3.52
486.525	3.64
486.878	3.72
487.23	3.74
487.583	3.82
487.936	3.81
488.288	3.72
488.641	3.7
488.993	3.53
489.345	3.54
489.698	3.59
490.05	3.56
490.402	3.69
490.754	3.7
491.107	3.77
491.459	3.86
491.811	3.89
492.163	3.81
492.515	3.76
492.866	3.68
493.218	3.64
493.57	3.53
493.922	3.63
494.274	3.8
494.625	3.93
494.977	3.96
495.328	3.9
495.68	3.92
496.031	3.99
496.383	3.89
496.734	3.92
497.086	3.98
497.437	3.85
497.788	3.81
498.139	3.77
498.49	3.86
498.842	3.68
499.193	3.82
499.544	3.93
499.894	3.85
500.245	3.87
500.596	3.88
500.947	3.97
501.298	3.82
501.648	4.03
501.999	4.12
502.35	3.95
502.7	3.99
503.051	3.8
503.401	3.82
503.752	3.98
504.102	3.96
504.452	3.94
504.803	3.88
505.153	3.77
505.503	3.76
505.853	3.86
506.203	3.78
506.553	3.82
506.903	3.89
507.253	3.87
507.603	3.79
507.953	4.01
508.303	3.98
508.652	3.77
509.002	3.92
509.352	3.81
509.701	3.73
510.051	3.72
510.4	3.78
510.75	3.87
511.099	3.91
511.449	3.85
511.798	3.77
512.147	3.98
512.496	3.76
512.846	3.83
513.195	3.77
513.544	3.68
513.893	3.91
514.242	3.75
514.591	3.92
514.939	3.86
515.288	3.81
515.637	3.89
515.986	3.95
516.334	3.97
516.683	3.96
517.032	3.82
517.38	3.9
517.729	3.91
518.077	3.69
518.426	4.01
518.774	3.77
519.122	3.75
519.47	3.83
519.819	3.75
520.167	3.69
520.515	3.75
520.863	3.72
521.211	3.82
521.559	3.98
521.907	3.82
522.255	3.93
522.602	3.93
522.95	3.91
523.298	3.87
523.645	3.88
523.993	3.73
524.341	3.94
524.688	3.84
525.036	3.71
525.383	3.86
525.73	3.98
526.078	3.9
526.425	3.75
526.772	3.84
527.119	3.81
527.466	3.73
527.814	3.8
528.161	3.73
528.508	3.84
528.854	3.7
529.201	3.66
529.548	3.67
529.895	3.6
530.242	3.48
530.588	3.53
530.935	3.58
531.282	3.69
531.628	3.76
531.975	3.85
532.321	3.8
532.667	3.8
533.014	3.88
533.36	3.82
533.706	3.8
534.052	3.69
534.399	3.61
534.745	3.64
535.091	3.63
535.437	3.71
535.783	3.73
536.129	3.82
536.474	3.81
536.82	3.84
537.166	3.93
537.512	3.84
537.857	3.82
538.203	3.79
538.549	3.73
538.894	3.7
539.239	3.79
539.585	3.8
539.93	3.73
540.276	3.9
540.621	3.87
540.966	3.96
541.311	3.73
541.656	3.72
542.001	3.71
542.346	3.77
542.691	3.64
543.036	3.55
543.381	3.49
543.726	3.66
544.071	3.73
544.415	3.76
544.76	3.74
545.105	3.8
545.449	3.72
545.794	3.84
546.138	3.83
546.483	3.9
546.827	3.81
547.171	3.77
547.516	3.92
547.86	3.72
548.204	3.75
548.548	3.75
548.892	3.83
549.236	3.74
549.58	3.73
549.924	3.88
550.268	3.84
550.612	3.88
550.956	3.96
551.3	3.98
551.643	3.98
551.987	4.14
552.33	3.93
552.674	3.87
553.017	3.73
553.361	3.75
553.704	4.06
554.048	3.72
554.391	3.81
554.734	3.66
555.077	3.7
555.42	3.7
555.764	3.71
556.107	3.69
556.45	3.69
556.793	3.77
557.135	3.8
557.478	3.94
557.821	3.89
558.164	3.71
558.507	3.89
558.849	3.65
559.192	3.98
559.534	3.79
559.877	4.03
560.219	3.85
560.562	4.07
560.904	3.91
561.246	3.75
561.589	3.93
561.931	3.85
562.273	3.68
562.615	3.81
562.957	3.79
563.299	3.51
563.641	3.75
563.983	3.65
564.325	3.72
564.667	3.6
565.008	3.75
565.35	3.84
565.692	3.64
566.033	3.78
566.375	3.81
566.716	3.91
567.058	3.71
567.399	3.63
567.741	3.58
568.082	3.55
568.423	3.7
568.764	3.65
569.105	3.9
569.447	3.81
569.788	3.7
570.129	3.87
570.47	3.88
570.811	3.96
571.151	3.68
571.492	3.91
571.833	3.73
572.174	3.79
572.514	3.74
572.855	3.81
573.195	3.64
573.536	3.77
573.876	3.56
574.217	3.57
574.557	3.7
574.898	3.94
575.238	3.76
575.578	3.65
575.918	4.04
576.258	3.83
576.598	3.81
576.938	3.56
577.278	3.67
577.618	3.62
577.958	3.71
578.298	3.6
578.638	3.71
578.977	3.7
579.317	3.64
579.657	3.79
579.996	3.67
580.336	3.81
580.675	3.79
581.014	3.66
581.354	3.68
581.693	3.78
582.032	3.44
582.372	3.5
582.711	3.78
583.05	3.45
583.389	3.62
583.728	3.73
584.067	3.78
584.406	3.88
584.745	3.72
585.083	3.8
585.422	3.82
585.761	3.73
586.1	4.08
586.438	3.77
586.777	3.91
587.115	3.88
587.454	3.51
587.792	3.6
588.13	3.78
588.469	3.64
588.807	3.53
589.145	3.76
589.483	3.79
589.821	3.71
590.159	3.74
590.497	3.83
590.835	3.81
591.173	3.76
591.511	3.94
591.849	3.65
592.187	3.79
592.524	3.65
592.862	3.61
593.2	3.88
593.537	3.59
593.875	3.57
594.212	3.74
594.55	3.48
594.887	3.86
595.224	3.58
595.561	3.55
595.899	3.7
596.236	3.71
596.573	3.68
596.91	3.34
597.247	3.42
597.584	3.88
597.921	3.66
598.258	3.49
598.594	3.7
598.931	3.64
599.268	3.7
599.604	3.58
599.941	3.63
600.277	3.68
600.614	3.48
600.95	3.65
601.287	3.94
601.623	3.81
601.959	3.55
602.296	3.61
602.632	3.51
602.968	4.02
603.304	3.61
603.64	3.39
603.976	3.63
604.312	3.49
604.648	3.86
604.984	3.44
605.319	3.64
605.655	3.61
605.991	3.52
606.326	3.77
606.662	3.6
606.998	3.39
607.333	3.79
607.668	3.73
608.004	3.76
608.339	3.91
608.674	3.68
609.01	3.52
609.345	3.43
609.68	3.7
610.015	3.42
610.35	3.67
610.685	3.58
611.02	3.4
611.355	3.7
611.689	3.54
612.024	3.58
612.359	3.6
612.694	3.77
613.028	3.61
613.363	3.95
613.697	3.74
614.032	3.67
614.366	3.56
614.7	3.62
615.035	3.81
615.369	3.48
615.703	3.68
616.037	3.71
616.371	3.33
616.705	3.71
617.039	3.75
617.373	3.47
617.707	3.29
618.041	3.24
618.375	3.65
618.709	3.41
619.042	3.2
619.376	3.95
619.71	3.83
620.043	3.75
620.377	3.61
620.71	3.65
621.043	3.46
621.377	3.42
621.71	3.6
622.043	3.52
622.376	3.37
622.709	3.89
623.043	3.8
623.376	3.51
623.709	3.14
624.041	4
624.374	3.77
624.707	3.25
625.04	3.51
625.373	3.18
625.705	3.74
626.038	3.53
626.37	3.66
626.703	3.26
627.035	3.58
627.368	4.02
627.7	3.49
628.032	3.72
628.365	3.71
628.697	3.4
629.029	3.47
629.361	3.65
629.693	3.51
630.025	3.64
630.357	3.94
630.689	3.94
631.021	3.45
631.353	3.58
631.684	3.43
632.016	3.55
632.348	3.83
632.679	3.63
633.011	3.54
633.342	3.65
633.674	3.35
634.005	3.82
634.336	3.55
634.668	3.87
634.999	3.43
635.33	3.53
635.661	3.64
635.992	3.58
636.323	3.3
636.654	3.92
636.985	3.66
637.316	3.29
637.647	3.1
637.977	3.75
638.308	3.85
638.639	3.05
638.969	3.44
639.3	3.47
639.63	3.18
639.961	3.63
640.291	3.61
640.622	3.93
640.952	3.64
641.282	3.8
641.612	3.57
641.943	3.2
642.273	3.38
642.603	3.84
642.933	3.79
643.263	3.78
643.592	3.16
643.922	3.31
644.252	3
644.582	3.39
644.911	3.38
645.241	3.42
645.571	3.36
645.9	2.91
646.23	3.52
646.559	3.44
646.888	2.84
647.218	3.4
647.547	3.82
647.876	2.93
648.205	3.35
648.534	3.15
648.863	3.16
649.192	3.54
649.521	3.59
649.85	3.4
650.179	3.93
650.508	3.41
650.837	3.39
651.165	3.52
651.494	3.55
651.822	3.54
652.151	2.87
652.479	3.92
652.808	3.17
653.136	3.42
653.465	3.34
653.793	2.99
654.121	3.23
654.449	3.89
654.777	3.76
655.105	3.87
655.433	3.14
655.761	3.66
656.089	3.65
656.417	3.53
656.745	3.14
657.073	3.27
657.4	4.54
657.728	3.76
658.056	3.4
658.383	3.43
658.711	3.93
659.038	3.72
659.365	3.95
659.693	3.75
660.02	3.28
660.347	3.59
660.674	3.5
661.001	3.58
661.329	2.95
661.656	3.68
661.982	3.69
662.309	3.4
662.636	3.05
662.963	4.09
663.29	3.92
663.616	3.8
663.943	2.9
664.27	3.42
664.596	3.13
664.923	4.05
665.249	3.12
665.576	3.21
665.902	3.89
666.228	3.96
666.554	3.79
666.881	3.42
667.207	3.52
667.533	3.29
667.859	3.55
668.185	3.68
668.511	3.18
668.837	2.82
669.162	3.59
669.488	2.8
669.814	3.5
670.139	3.39
670.465	4.11
670.791	3.42
671.116	3.94
671.442	3.2
671.767	3.74
672.092	4.29
672.418	3.38
672.743	3.88
673.068	3.1
673.393	3.97
673.718	3.51
674.043	3.45
674.368	3.74
674.693	4.19
675.018	3.26
675.343	3.58
675.667	3.05
675.992	4.39
676.317	3.88
676.641	3.67
676.966	3.9
677.29	3.52
677.615	3.95
677.939	3.86
678.264	3.87
678.588	3.05
678.912	3.83
679.236	4.53
679.56	3.43
679.885	4.2
680.209	3.39
680.532	3.23
680.856	4.01
681.18	3.41
681.504	3.67
681.828	4.08
682.152	3.18
682.475	3.65
682.799	3.51
683.122	3.78
683.446	3.47
683.769	3.78
684.093	3.33
684.416	3.58
684.739	3.33
685.062	3.65
685.386	4.19
685.709	3.63
686.032	3.4
686.355	3.9
686.678	3.12
687.001	3.18
687.324	3.92
687.646	3.6
687.969	3.04
688.292	3.61
688.614	3.35
688.937	4.08
689.26	3.33
689.582	3.36
689.904	3.44
690.227	3.53
690.549	3.6
690.871	4.56
691.194	2.97
691.516	2.71
691.838	3.5
692.16	2.59
