Data from 0411_forehead_Reflection__1__274.txt Node

Date: Fri Dec 15 18:43:22 CST 2023
User: ToomeyLab
Spectrometer: FLMS14357
Trigger mode: 0
Integration Time (sec): 1.000000E-2
Scans to average: 100
Electric dark correction enabled: true
Nonlinearity correction enabled: false
Boxcar width: 0
XAxis mode: Wavelengths
Number of Pixels in Spectrum: 2048
>>>>>Begin Spectral Data<<<<<
189.047	248.86
189.435	248.86
189.823	248.86
190.211	85.38
190.599	-945.3
190.987	42.87
191.375	12.58
191.763	75.42
192.151	38.97
192.538	129.04
192.926	53.12
193.314	233.86
193.702	31.01
194.089	27.67
194.477	16.31
194.864	-496.5
195.252	96.62
195.639	98.64
196.027	137.13
196.414	37.09
196.801	187.03
197.189	58.06
197.576	-62.97
197.963	-45.74
198.351	-48.96
198.738	13.75
199.125	34.9
199.512	-7.17
199.899	29.82
200.286	49.2
200.673	11.46
201.06	19.42
201.447	16.93
201.833	43.94
202.22	53.84
202.607	63.24
202.994	15.22
203.38	-11.52
203.767	74.68
204.154	40.8
204.54	26.99
204.927	12.18
205.313	28.36
205.699	18.68
206.086	69.73
206.472	40.55
206.858	30.66
207.245	-20.8
207.631	29.3
208.017	9.66
208.403	14.27
208.789	20.83
209.175	19.21
209.561	4.61
209.947	18.6
210.333	-15.22
210.719	9.99
211.105	47.38
211.491	-12.06
211.876	15.62
212.262	43.89
212.648	-5.59
213.034	3.37
213.419	30.71
213.805	-22.08
214.19	-15.21
214.576	9.22
214.961	7.35
215.346	-40.59
215.732	19.42
216.117	13.65
216.502	7.22
216.888	48.57
217.273	31.65
217.658	18.92
218.043	25.11
218.428	-44.04
218.813	-24.76
219.198	-13.88
219.583	0.5
219.968	0.62
220.353	-10.67
220.738	18.22
221.122	39.24
221.507	-2.86
221.892	-4.41
222.276	-7.42
222.661	8.52
223.046	17.38
223.43	15.71
223.815	18.76
224.199	-6.45
224.583	7.37
224.968	-6.06
225.352	11.56
225.736	1.79
226.121	-0.78
226.505	7.37
226.889	3.26
227.273	-0.6
227.657	9.45
228.041	3.43
228.425	5.68
228.809	6.66
229.193	5.62
229.577	3.38
229.961	6.77
230.344	5.16
230.728	5.06
231.112	5.28
231.495	5.65
231.879	4.31
232.263	6.27
232.646	6.15
233.03	5.61
233.413	5.32
233.797	5.23
234.18	4.06
234.563	8.27
234.946	6.33
235.33	6.88
235.713	4.66
236.096	4.19
236.479	6.23
236.862	4.89
237.245	5.5
237.628	6.19
238.011	6.95
238.394	5.65
238.777	7.81
239.16	5.33
239.543	6.1
239.925	4.87
240.308	5.81
240.691	5.88
241.073	4.85
241.456	4.7
241.838	5.14
242.221	5.29
242.603	5.74
242.986	5.82
243.368	5.24
243.75	4.85
244.133	4.77
244.515	5.38
244.897	5.22
245.279	4.96
245.661	4.79
246.043	3.68
246.425	3.86
246.807	5.68
247.189	6.6
247.571	5.59
247.953	4.61
248.335	4.93
248.717	4.9
249.098	4.8
249.48	4.96
249.862	4.88
250.243	5.15
250.625	4.79
251.006	5.21
251.388	3.97
251.769	4.42
252.151	5.59
252.532	4.43
252.913	4.65
253.295	4.82
253.676	5.36
254.057	5.22
254.438	4.75
254.819	4.3
255.2	4.89
255.581	3.99
255.962	4.24
256.343	5.39
256.724	5.21
257.105	4.39
257.486	5.02
257.867	4.96
258.247	4.98
258.628	5.19
259.009	4.71
259.389	5.6
259.77	4.47
260.15	4.91
260.531	4.52
260.911	5.28
261.292	4.86
261.672	4.95
262.052	4.75
262.432	4.93
262.813	4.74
263.193	4.93
263.573	5.12
263.953	4.64
264.333	5.03
264.713	5.16
265.093	4.2
265.473	5.23
265.853	3.37
266.233	5.02
266.612	3.76
266.992	4.05
267.372	5.44
267.752	4.62
268.131	4.49
268.511	4.92
268.89	5.02
269.27	4.17
269.649	4.22
270.029	4.46
270.408	6.27
270.787	4.43
271.167	5.3
271.546	5.72
271.925	4.85
272.304	4.83
272.683	5.29
273.062	4.65
273.441	4.59
273.82	4.7
274.199	4.84
274.578	4.96
274.957	4.64
275.336	4.57
275.715	4.32
276.093	4.42
276.472	4.96
276.851	4.47
277.229	4.69
277.608	4.22
277.986	4.87
278.365	4.87
278.743	4.29
279.122	4.45
279.5	4.79
279.878	5.32
280.257	4.98
280.635	4.61
281.013	5.14
281.391	5.2
281.769	5.62
282.147	4.97
282.525	5.22
282.903	4.23
283.281	4.81
283.659	4.86
284.037	5.13
284.415	4.95
284.792	5.17
285.17	4.34
285.548	4.32
285.925	4.88
286.303	4.96
286.68	4.7
287.058	4.44
287.435	4.73
287.813	4.8
288.19	4.86
288.567	4.7
288.945	5.7
289.322	4.88
289.699	4.94
290.076	4.78
290.453	5.17
290.83	4.6
291.207	4.79
291.584	5.18
291.961	5.18
292.338	4.76
292.715	5.12
293.092	5.22
293.469	5.46
293.845	5.4
294.222	4.33
294.599	5.13
294.975	5.11
295.352	5.26
295.728	5.01
296.105	5.12
296.481	5.24
296.858	5.22
297.234	5.35
297.61	5.5
297.986	5.08
298.363	5.93
298.739	5.49
299.115	5.4
299.491	5.38
299.867	5.34
300.243	5.85
300.619	5.13
300.995	6.11
301.371	5.83
301.746	5.48
302.122	5.93
302.498	5.79
302.874	6.17
303.249	5.81
303.625	6.01
304	6.35
304.376	5.69
304.751	5.99
305.127	6.91
305.502	5.33
305.878	6
306.253	6.25
306.628	6.62
307.003	6.13
307.378	6.26
307.754	6.14
308.129	5.77
308.504	6.41
308.879	6.43
309.254	7.25
309.629	6.83
310.003	6.62
310.378	6.97
310.753	6.68
311.128	6.45
311.502	6.49
311.877	7.11
312.252	6.27
312.626	6.37
313.001	6.72
313.375	7.08
313.75	6.6
314.124	6.41
314.498	6.4
314.873	6.95
315.247	6.62
315.621	6.82
315.995	6.57
316.369	6.88
316.743	6.76
317.117	6.75
317.491	7.05
317.865	7.49
318.239	6.97
318.613	7.12
318.987	7.45
319.361	6.72
319.734	7.67
320.108	7.4
320.482	6.85
320.855	7.54
321.229	7.7
321.602	7.41
321.976	8.09
322.349	7.15
322.723	7.25
323.096	8.08
323.469	7.12
323.843	7.39
324.216	7.6
324.589	7.51
324.962	7.9
325.335	7.64
325.708	7.67
326.081	7.1
326.454	7.71
326.827	7.83
327.2	8.06
327.573	8.17
327.945	7.99
328.318	7.7
328.691	7.45
329.063	8.03
329.436	7.73
329.809	8.38
330.181	7.91
330.553	7.82
330.926	7.96
331.298	9.04
331.671	7.95
332.043	8.68
332.415	8.43
332.787	8.77
333.159	8.61
333.532	8.85
333.904	8.06
334.276	8.32
334.648	8.58
335.02	8.48
335.391	8.19
335.763	8.38
336.135	8.78
336.507	8.56
336.879	8.12
337.25	8.34
337.622	8.58
337.993	8.54
338.365	9.03
338.736	8.81
339.108	8.23
339.479	8.46
339.851	8.33
340.222	8.76
340.593	9.19
340.964	8.72
341.336	9.4
341.707	9.04
342.078	9.08
342.449	9.32
342.82	9.26
343.191	9.02
343.562	8.83
343.933	9.21
344.303	8.85
344.674	9.03
345.045	9.3
345.416	9.56
345.786	8.81
346.157	9.16
346.527	8.58
346.898	9.24
347.268	9.39
347.639	9.27
348.009	9.45
348.38	9.13
348.75	9.76
349.12	9.45
349.49	9.72
349.861	9.88
350.231	9.42
350.601	9.89
350.971	9.31
351.341	9.58
351.711	9.78
352.081	10.02
352.45	9.74
352.82	9.64
353.19	9.59
353.56	9.53
353.929	9.76
354.299	9.92
354.669	9.61
355.038	9.71
355.408	9.47
355.777	10.12
356.147	9.77
356.516	9.72
356.885	9.82
357.254	10.14
357.624	10.1
357.993	10.63
358.362	10.3
358.731	10.19
359.1	10.08
359.469	9.95
359.838	10.3
360.207	9.9
360.576	10
360.945	10.47
361.314	10.58
361.682	9.95
362.051	10.54
362.42	10.22
362.788	10.62
363.157	10.68
363.525	10.57
363.894	10.48
364.262	10.49
364.631	10.42
364.999	10.66
365.367	10.4
365.735	11.12
366.104	10.81
366.472	10.67
366.84	10.47
367.208	10.36
367.576	10.44
367.944	11.26
368.312	10.54
368.68	10.96
369.048	10.59
369.416	11
369.783	11.11
370.151	11.23
370.519	11.69
370.886	11.32
371.254	10.81
371.621	11.25
371.989	11.51
372.356	10.63
372.724	11.33
373.091	11.23
373.458	11.32
373.826	11.41
374.193	11
374.56	11.47
374.927	11.86
375.294	11.62
375.661	11.49
376.028	11.41
376.395	11.41
376.762	11.6
377.129	11.7
377.496	11.26
377.863	11.78
378.229	11.46
378.596	11.36
378.963	11.61
379.329	11.5
379.696	11.88
380.062	11.58
380.429	12.08
380.795	11.85
381.161	11.92
381.528	11.96
381.894	11.96
382.26	12.05
382.626	12.48
382.993	11.84
383.359	12.26
383.725	12.27
384.091	11.97
384.457	12.57
384.823	12
385.188	12.54
385.554	12.29
385.92	12.48
386.286	12.66
386.651	12.34
387.017	12.29
387.383	12.63
387.748	12.29
388.114	12.41
388.479	12.83
388.845	12.54
389.21	12.87
389.575	12.73
389.94	13
390.306	12.97
390.671	12.96
391.036	12.62
391.401	12.69
391.766	12.95
392.131	12.91
392.496	13.21
392.861	13.15
393.226	13.01
393.591	13.17
393.956	13.09
394.32	13.2
394.685	12.98
395.05	12.98
395.414	13.28
395.779	12.96
396.143	13.28
396.508	13.26
396.872	13.24
397.236	13.51
397.601	13.15
397.965	13.43
398.329	13.34
398.694	13.6
399.058	13.59
399.422	13.35
399.786	13.59
400.15	13.65
400.514	13.67
400.878	13.78
401.242	13.94
401.605	13.73
401.969	13.9
402.333	13.85
402.697	13.76
403.06	13.9
403.424	13.54
403.787	14.02
404.151	14.15
404.514	13.85
404.878	13.83
405.241	14.23
405.604	14.15
405.968	14
406.331	14.03
406.694	14.31
407.057	14.11
407.42	14.34
407.783	14.13
408.146	14.32
408.509	14.29
408.872	14.32
409.235	14.45
409.598	14.53
409.961	14.48
410.323	14.55
410.686	14.56
411.049	14.4
411.411	14.57
411.774	14.59
412.136	14.83
412.499	14.67
412.861	14.7
413.223	14.79
413.586	14.74
413.948	14.96
414.31	15.03
414.672	14.43
415.035	14.72
415.397	15.11
415.759	14.84
416.121	15.11
416.483	14.96
416.845	15.02
417.206	15.15
417.568	15.17
417.93	14.77
418.292	15.12
418.653	15.06
419.015	15.12
419.377	15.27
419.738	15.13
420.1	15.19
420.461	15.27
420.822	15.11
421.184	15.15
421.545	15.05
421.906	15.11
422.267	15.23
422.629	15.3
422.99	15.17
423.351	15.15
423.712	15.24
424.073	15.43
424.434	15.29
424.795	15.54
425.155	15.48
425.516	15.45
425.877	15.47
426.238	15.4
426.598	15.48
426.959	15.54
427.32	15.48
427.68	15.78
428.041	15.8
428.401	15.83
428.761	15.8
429.122	15.96
429.482	15.95
429.842	16.22
430.202	16.15
430.563	16.2
430.923	16.23
431.283	16.23
431.643	16.17
432.003	16.13
432.363	16.41
432.722	16.36
433.082	16.63
433.442	16.45
433.802	16.28
434.161	16.39
434.521	16.79
434.881	16.53
435.24	16.53
435.6	16.5
435.959	16.72
436.319	16.64
436.678	16.56
437.037	16.63
437.396	16.59
437.756	16.97
438.115	16.84
438.474	17.25
438.833	16.78
439.192	16.95
439.551	17.06
439.91	17
440.269	17.16
440.628	16.93
440.987	16.95
441.345	16.91
441.704	17.05
442.063	17.13
442.421	17.2
442.78	17.1
443.138	17.13
443.497	17.12
443.855	17.22
444.214	17.23
444.572	17.48
444.93	17.51
445.288	17.4
445.647	17.6
446.005	17.47
446.363	17.63
446.721	17.75
447.079	17.29
447.437	17.52
447.795	17.56
448.153	17.46
448.51	17.55
448.868	17.53
449.226	17.45
449.584	17.62
449.941	17.86
450.299	17.9
450.656	17.98
451.014	18.02
451.371	17.87
451.729	18.11
452.086	18.39
452.443	18.06
452.801	18.23
453.158	18.28
453.515	18.24
453.872	18.32
454.229	18.3
454.586	18.38
454.943	18.3
455.3	18.63
455.657	18.62
456.014	18.57
456.371	18.53
456.727	18.76
457.084	18.8
457.441	18.67
457.797	18.69
458.154	19.03
458.51	18.94
458.867	19.15
459.223	18.97
459.58	18.73
459.936	18.82
460.292	18.93
460.648	18.97
461.005	18.87
461.361	18.87
461.717	18.88
462.073	18.81
462.429	18.83
462.785	19.08
463.141	19.16
463.496	19.3
463.852	19.4
464.208	19.45
464.564	19.61
464.919	19.64
465.275	19.68
465.631	19.53
465.986	19.62
466.342	19.57
466.697	19.51
467.052	19.69
467.408	19.86
467.763	19.79
468.118	19.73
468.473	19.7
468.829	20.11
469.184	19.69
469.539	20.09
469.894	20.02
470.249	20.31
470.603	20.14
470.958	20.25
471.313	20.44
471.668	20.33
472.023	20.19
472.377	20.46
472.732	20.32
473.086	20.51
473.441	20.52
473.795	20.75
474.15	20.51
474.504	20.64
474.859	20.68
475.213	20.68
475.567	20.61
475.921	20.55
476.275	20.82
476.63	20.8
476.984	20.99
477.338	20.94
477.692	20.83
478.045	21.03
478.399	20.87
478.753	20.92
479.107	21.01
479.461	21.01
479.814	21.12
480.168	20.99
480.521	20.93
480.875	21.05
481.228	21.11
481.582	21.33
481.935	21.23
482.289	21.2
482.642	21.36
482.995	21.28
483.348	21.19
483.701	21.19
484.055	21.29
484.408	21.18
484.761	20.94
485.114	20.69
485.466	20.47
485.819	20.46
486.172	20.52
486.525	20.71
486.878	20.77
487.23	20.93
487.583	21.12
487.936	21.27
488.288	21.4
488.641	21.21
488.993	21.05
489.345	21.01
489.698	20.99
490.05	21.05
490.402	21.19
490.754	21.32
491.107	21.6
491.459	21.74
491.811	21.81
492.163	21.89
492.515	21.89
492.866	21.81
493.218	21.67
493.57	21.61
493.922	21.66
494.274	21.88
494.625	22.03
494.977	22.2
495.328	22.46
495.68	22.47
496.031	22.84
496.383	22.66
496.734	22.93
497.086	23.11
497.437	23.09
497.788	22.89
498.139	22.69
498.49	23.03
498.842	22.72
499.193	22.95
499.544	23.01
499.894	23.15
500.245	23.06
500.596	23.09
500.947	23.28
501.298	23.28
501.648	23.55
501.999	23.53
502.35	23.5
502.7	23.7
503.051	23.58
503.401	23.84
503.752	23.85
504.102	23.74
504.452	23.95
504.803	23.92
505.153	23.89
505.503	24.01
505.853	23.97
506.203	24.08
506.553	23.82
506.903	23.98
507.253	24.14
507.603	24.07
507.953	24.18
508.303	24.31
508.652	24.26
509.002	24.4
509.352	24.28
509.701	24.23
510.051	24.47
510.4	24.29
510.75	24.37
511.099	24.51
511.449	24.34
511.798	24.46
512.147	24.53
512.496	24.72
512.846	24.72
513.195	24.76
513.544	24.7
513.893	24.81
514.242	24.8
514.591	25
514.939	24.76
515.288	24.91
515.637	25.1
515.986	25.06
516.334	25.24
516.683	25.26
517.032	25.43
517.38	25.3
517.729	25.52
518.077	25.31
518.426	25.39
518.774	25.3
519.122	25.25
519.47	25.59
519.819	25.11
520.167	25.3
520.515	25.13
520.863	25.29
521.211	25.41
521.559	25.5
521.907	25.49
522.255	25.67
522.602	25.76
522.95	25.92
523.298	26.06
523.645	25.97
523.993	26
524.341	26.19
524.688	26.07
525.036	26.17
525.383	26.33
525.73	26.36
526.078	26.34
526.425	26.26
526.772	26.49
527.119	26.22
527.466	26.02
527.814	26.08
528.161	26.13
528.508	26.21
528.854	26.22
529.201	26.18
529.548	26.08
529.895	26.09
530.242	25.86
530.588	25.82
530.935	25.92
531.282	25.96
531.628	26.03
531.975	26.23
532.321	26.46
532.667	26.67
533.014	26.83
533.36	26.87
533.706	26.92
534.052	26.9
534.399	26.91
534.745	26.85
535.091	26.72
535.437	26.65
535.783	26.81
536.129	26.94
536.474	27.13
536.82	27.25
537.166	27.36
537.512	27.59
537.857	27.48
538.203	27.61
538.549	27.48
538.894	27.58
539.239	27.6
539.585	27.78
539.93	27.89
540.276	28.01
540.621	28.15
540.966	28.44
541.311	28.14
541.656	28.29
542.001	28.35
542.346	28.28
542.691	27.95
543.036	27.72
543.381	27.64
543.726	27.83
544.071	27.96
544.415	27.97
544.76	28.05
545.105	28.27
545.449	28.33
545.794	28.48
546.138	28.48
546.483	28.77
546.827	29
547.171	28.89
547.516	29.1
547.86	29.05
548.204	28.99
548.548	29.08
548.892	29.16
549.236	29.17
549.58	29.07
549.924	29.42
550.268	29.61
550.612	29.82
550.956	29.85
551.3	29.89
551.643	30.22
551.987	30.28
552.33	30.03
552.674	30.2
553.017	30.13
553.361	30.07
553.704	30.33
554.048	30.16
554.391	30.3
554.734	30.24
555.077	30.4
555.42	30.23
555.764	30.35
556.107	30.35
556.45	30.43
556.793	30.63
557.135	30.56
557.478	31.12
557.821	31.07
558.164	30.99
558.507	30.98
558.849	31.11
559.192	30.96
559.534	31.38
559.877	31.61
560.219	31.19
560.562	31.48
560.904	31.42
561.246	31.67
561.589	31.42
561.931	31.57
562.273	31.65
562.615	31.8
562.957	31.55
563.299	31.52
563.641	31.71
563.983	31.76
564.325	31.82
564.667	31.64
565.008	31.8
565.35	32.1
565.692	31.93
566.033	32.01
566.375	32.2
566.716	32.51
567.058	32.45
567.399	32.35
567.741	32.18
568.082	31.99
568.423	32.11
568.764	32.15
569.105	32.31
569.447	32.29
569.788	32.3
570.129	32.58
570.47	32.69
570.811	32.87
571.151	32.96
571.492	32.73
571.833	32.84
572.174	32.8
572.514	33.21
572.855	33.02
573.195	32.98
573.536	33.16
573.876	32.99
574.217	33.06
574.557	33.2
574.898	33.32
575.238	33.17
575.578	33.2
575.918	33.66
576.258	33.56
576.598	33.56
576.938	33.53
577.278	33.5
577.618	33.7
577.958	33.55
578.298	33.75
578.638	33.85
578.977	33.98
579.317	34.13
579.657	34.14
579.996	34.23
580.336	34.31
580.675	34.19
581.014	34.3
581.354	34.56
581.693	34.58
582.032	34.4
582.372	34.51
582.711	34.66
583.05	34.7
583.389	34.8
583.728	34.64
584.067	35.28
584.406	35.17
584.745	35.21
585.083	35.14
585.422	35.52
585.761	35.32
586.1	35.55
586.438	35.6
586.777	35.53
587.115	35.65
587.454	35.42
587.792	35.66
588.13	35.53
588.469	35.97
588.807	35.91
589.145	35.44
589.483	35.96
589.821	35.5
590.159	35.75
590.497	36.18
590.835	36.14
591.173	35.92
591.511	35.97
591.849	36.04
592.187	36.27
592.524	36.05
592.862	36.29
593.2	36.27
593.537	36.3
593.875	36.16
594.212	36.66
594.55	36.53
594.887	36.44
595.224	36.73
595.561	36.67
595.899	36.87
596.236	36.46
596.573	36.83
596.91	36.8
597.247	36.74
597.584	36.93
597.921	36.75
598.258	36.56
598.594	36.95
598.931	36.7
599.268	37.12
599.604	36.99
599.941	36.88
600.277	37.04
600.614	37.05
600.95	37.01
601.287	37.66
601.623	37.34
601.959	37.29
602.296	37.74
602.632	37.77
602.968	37.71
603.304	37.6
603.64	37.72
603.976	38.15
604.312	38.04
604.648	38.08
604.984	38.1
605.319	37.86
605.655	38.12
605.991	37.85
606.326	37.99
606.662	37.74
606.998	37.7
607.333	38.11
607.668	37.95
608.004	38.09
608.339	38.38
608.674	38.17
609.01	38.22
609.345	38.36
609.68	38.34
610.015	38.47
610.35	38.45
610.685	39.14
611.02	39.03
611.355	38.94
611.689	38.55
612.024	38.67
612.359	38.9
612.694	39.21
613.028	39.13
613.363	39.42
613.697	39.23
614.032	39.34
614.366	39.38
614.7	39.36
615.035	39.61
615.369	39.32
615.703	39.64
616.037	39.83
616.371	39.34
616.705	39.36
617.039	40.23
617.373	39.6
617.707	39.66
618.041	39.67
618.375	39.83
618.709	40.28
619.042	39.87
619.376	40.18
619.71	40.49
620.043	40.28
620.377	40.34
620.71	40.16
621.043	40.72
621.377	40.27
621.71	40.41
622.043	40.88
622.376	41.16
622.709	41.15
623.043	40.81
623.376	40.34
623.709	40.99
624.041	41.33
624.374	40.73
624.707	40.76
625.04	41.21
625.373	41.27
625.705	41
626.038	41.45
626.37	41.45
626.703	41.05
627.035	41.27
627.368	41.67
627.7	41.55
628.032	41.44
628.365	41.38
628.697	41.74
629.029	41.78
629.361	41.72
629.693	42.12
630.025	41.57
630.357	42.06
630.689	42.21
631.021	41.77
631.353	41.86
631.684	41.74
632.016	42.09
632.348	42.39
632.679	42.59
633.011	42.36
633.342	42.64
633.674	42.54
634.005	42.53
634.336	42.59
634.668	42.99
634.999	42.17
635.33	42.99
635.661	43.05
635.992	42.62
636.323	43.5
636.654	43.06
636.985	43.21
637.316	43.09
637.647	42.82
637.977	42.76
638.308	42.88
638.639	42.83
638.969	43.32
639.3	43.53
639.63	43.24
639.961	42.96
640.291	43.36
640.622	43.56
640.952	43.45
641.282	43.78
641.612	44.06
641.943	43.55
642.273	44.15
642.603	43.82
642.933	43.66
643.263	44.22
643.592	43.9
643.922	43.82
644.252	43.71
644.582	44.21
644.911	44.36
645.241	44.37
645.571	44.58
645.9	43.71
646.23	44.06
646.559	44.61
646.888	44.35
647.218	44.55
647.547	44.4
647.876	44.14
648.205	44.65
648.534	44.43
648.863	44.87
649.192	44.42
649.521	44.23
649.85	44.73
650.179	45.39
650.508	44.53
650.837	44.02
651.165	44.86
651.494	45.29
651.822	44.94
652.151	44.85
652.479	45
652.808	44.69
653.136	45.25
653.465	45.14
653.793	45.68
654.121	44.93
654.449	45.91
654.777	45.88
655.105	45.49
655.433	45.23
655.761	45.28
656.089	45.14
656.417	45.32
656.745	45.41
657.073	45.36
657.4	45.54
657.728	45.68
658.056	45.83
658.383	45.68
658.711	46.26
659.038	46.24
659.365	46.67
659.693	46.48
660.02	45.94
660.347	46.62
660.674	45.93
661.001	46.49
661.329	45.51
661.656	46.21
661.982	46.84
662.309	45.57
662.636	46.58
662.963	46.56
663.29	46.22
663.616	46.31
663.943	46.54
664.27	46.65
664.596	46.85
664.923	46.49
665.249	46.65
665.576	46.79
665.902	47.54
666.228	47.26
666.554	46.05
666.881	46.89
667.207	46.97
667.533	47.48
667.859	47.3
668.185	47.26
668.511	46.66
668.837	46.7
669.162	47.74
669.488	47.51
669.814	47.72
670.139	47.86
670.465	46.95
670.791	47.8
671.116	47.08
671.442	47.51
671.767	48.43
