Data from 0411_chest_Reflection__4__266.txt Node

Date: Fri Dec 15 18:40:48 CST 2023
User: ToomeyLab
Spectrometer: FLMS14357
Trigger mode: 0
Integration Time (sec): 1.000000E-2
Scans to average: 100
Electric dark correction enabled: true
Nonlinearity correction enabled: false
Boxcar width: 0
XAxis mode: Wavelengths
Number of Pixels in Spectrum: 2048
>>>>>Begin Spectral Data<<<<<
189.047	-184.16
189.435	-184.16
189.823	-184.16
190.211	14.44
190.599	-518.81
190.987	66.83
191.375	38.53
191.763	-333.97
192.151	111.12
192.538	187.44
192.926	-40.42
193.314	163.48
193.702	410.77
194.089	41.17
194.477	-34.23
194.864	-216.85
195.252	133.27
195.639	84.51
196.027	176.74
196.414	36.9
196.801	-516.3
197.189	159.24
197.576	131.26
197.963	277.5
198.351	-91.88
198.738	18.75
199.125	49.96
199.512	2.94
199.899	26.49
200.286	3.7
200.673	-4.05
201.06	-5.58
201.447	5.99
201.833	21.69
202.22	-2.98
202.607	20.56
202.994	15.56
203.38	33.25
203.767	41.27
204.154	31.66
204.54	31.18
204.927	7.71
205.313	-38.5
205.699	35.01
206.086	63.66
206.472	42.93
206.858	22.27
207.245	-6.28
207.631	-14.29
208.017	-12.43
208.403	-22.13
208.789	-14.72
209.175	30.74
209.561	-1.61
209.947	-13.61
210.333	-66.75
210.719	38.11
211.105	5.45
211.491	8.25
211.876	12.01
212.262	31.66
212.648	-0.31
213.034	23.37
213.419	47.75
213.805	23.26
214.19	-43.83
214.576	19.68
214.961	-83.8
215.346	-33.05
215.732	11.2
216.117	27.43
216.502	-24.3
216.888	40.53
217.273	14.33
217.658	-30.62
218.043	7.33
218.428	-22.26
218.813	-34.1
219.198	-15.94
219.583	3.19
219.968	19.14
220.353	-39.08
220.738	8.61
221.122	14.3
221.507	-2.36
221.892	-1.18
222.276	-24.37
222.661	-6.39
223.046	11.76
223.43	18.67
223.815	5.3
224.199	-8.47
224.583	-1.86
224.968	-1.64
225.352	5.56
225.736	6.58
226.121	-20.59
226.505	0.78
226.889	4.48
227.273	-2.5
227.657	4.32
228.041	-0.89
228.425	0.48
228.809	4.26
229.193	-0.21
229.577	1.68
229.961	2.62
230.344	1.39
230.728	1.07
231.112	0.62
231.495	1.77
231.879	0.38
232.263	1.3
232.646	1.52
233.03	-0.28
233.413	0.61
233.797	0.85
234.18	0.76
234.563	0.74
234.946	-0.68
235.33	3.8
235.713	1.52
236.096	2.2
236.479	1.49
236.862	0.31
237.245	2.66
237.628	-0.36
238.011	2.82
238.394	2.74
238.777	0.62
239.16	-1.15
239.543	0.46
239.925	2.61
240.308	0.61
240.691	3.02
241.073	3.65
241.456	1.62
241.838	1.15
242.221	0.47
242.603	1.2
242.986	1.17
243.368	1.53
243.75	1.49
244.133	1.5
244.515	1.47
244.897	1.55
245.279	1.62
245.661	1.47
246.043	-1.24
246.425	0.97
246.807	1.31
247.189	0.96
247.571	1.59
247.953	1.63
248.335	1.14
248.717	1.46
249.098	1.37
249.48	1.23
249.862	1.2
250.243	1.36
250.625	1.22
251.006	1.57
251.388	-0.15
251.769	0.22
252.151	1.47
252.532	0.64
252.913	0.97
253.295	1.04
253.676	1.34
254.057	1.56
254.438	1.26
254.819	0.78
255.2	0.39
255.581	1
255.962	1.13
256.343	1.76
256.724	0.93
257.105	1.25
257.486	0.63
257.867	2.16
258.247	0.63
258.628	0.41
259.009	1.65
259.389	1.49
259.77	1.74
260.15	0.54
260.531	0.66
260.911	1.53
261.292	1.1
261.672	1.27
262.052	1.19
262.432	1.48
262.813	1.34
263.193	1.15
263.573	0.94
263.953	0.68
264.333	1.56
264.713	1.7
265.093	0.95
265.473	1.14
265.853	-0.39
266.233	1.84
266.612	-0.48
266.992	0.15
267.372	1.27
267.752	1.54
268.131	0.83
268.511	1.49
268.89	1.63
269.27	0.86
269.649	0.88
270.029	0.58
270.408	2.21
270.787	1.6
271.167	1.91
271.546	1.65
271.925	0.97
272.304	1.59
272.683	1.77
273.062	1.01
273.441	1
273.82	0.72
274.199	0.96
274.578	1.63
274.957	1.28
275.336	1.16
275.715	1.49
276.093	0.43
276.472	1.44
276.851	1.24
277.229	0.53
277.608	1.02
277.986	1.24
278.365	1.25
278.743	0.84
279.122	1.16
279.5	1.4
279.878	1.5
280.257	0.79
280.635	1.25
281.013	1.47
281.391	1.36
281.769	1.09
282.147	1.62
282.525	1.56
282.903	0.78
283.281	1.84
283.659	1.26
284.037	1.46
284.415	1.21
284.792	1.73
285.17	0.49
285.548	1.15
285.925	1.3
286.303	1.06
286.68	1.04
287.058	1.15
287.435	1.09
287.813	1.13
288.19	1.24
288.567	0.77
288.945	1.53
289.322	1.48
289.699	1.27
290.076	0.78
290.453	1
290.83	0.66
291.207	1.23
291.584	1.22
291.961	1.86
292.338	1.14
292.715	1.55
293.092	1.45
293.469	0.81
293.845	1.58
294.222	1.06
294.599	0.95
294.975	1
295.352	1.39
295.728	1.16
296.105	1.69
296.481	1.31
296.858	1.27
297.234	1
297.61	1.34
297.986	1.2
298.363	1.67
298.739	1.53
299.115	1.13
299.491	1.04
299.867	1.17
300.243	1.59
300.619	0.61
300.995	1.09
301.371	1.46
301.746	0.89
302.122	1.5
302.498	1.31
302.874	1.09
303.249	1.24
303.625	1.34
304	1.64
304.376	1.45
304.751	0.52
305.127	1.92
305.502	1.1
305.878	0.63
306.253	1.44
306.628	1.7
307.003	1.7
307.378	1.51
307.754	1.48
308.129	0.51
308.504	1.32
308.879	0.72
309.254	2.48
309.629	2.06
310.003	1.44
310.378	1.35
310.753	1.76
311.128	1.42
311.502	1.83
311.877	1.89
312.252	1.12
312.626	1.32
313.001	1.22
313.375	1.85
313.75	1.31
314.124	1.47
314.498	1.5
314.873	1.54
315.247	1.32
315.621	1.41
315.995	0.98
316.369	1.72
316.743	1.19
317.117	1.8
317.491	1.08
317.865	0.85
318.239	1.37
318.613	0.87
318.987	2.09
319.361	0.41
319.734	2.27
320.108	1.43
320.482	0.77
320.855	1.73
321.229	1.79
321.602	1.15
321.976	1.37
322.349	1.84
322.723	1.51
323.096	1.58
323.469	0.74
323.843	1.25
324.216	2.26
324.589	0.99
324.962	1.53
325.335	1.91
325.708	1.25
326.081	1.06
326.454	1.59
326.827	1.57
327.2	1.75
327.573	1.2
327.945	1.67
328.318	0.94
328.691	1.2
329.063	1.41
329.436	1.04
329.809	1.65
330.181	1.47
330.553	1.17
330.926	1.48
331.298	1.42
331.671	1.05
332.043	2.02
332.415	1.7
332.787	1.36
333.159	1.78
333.532	1.7
333.904	1.46
334.276	1.72
334.648	1.91
335.02	1.42
335.391	0.94
335.763	1.17
336.135	1.75
336.507	1.6
336.879	1.22
337.25	1.52
337.622	1.43
337.993	1.35
338.365	1.91
338.736	1.52
339.108	1.33
339.479	1.04
339.851	1.55
340.222	0.99
340.593	1.99
340.964	0.82
341.336	1.89
341.707	0.75
342.078	1.92
342.449	2.06
342.82	1.6
343.191	1.5
343.562	1.5
343.933	1.49
344.303	2.02
344.674	1.83
345.045	1.4
345.416	1.82
345.786	0.88
346.157	1.94
346.527	0.83
346.898	1.05
347.268	1.98
347.639	1.59
348.009	1.58
348.38	1.42
348.75	1.5
349.12	1.52
349.49	2.39
349.861	1.73
350.231	1.17
350.601	1.59
350.971	1.78
351.341	1.79
351.711	1.49
352.081	1.91
352.45	1.68
352.82	2.04
353.19	1.74
353.56	1.25
353.929	1.69
354.299	1.6
354.669	1.09
355.038	1.82
355.408	1.16
355.777	1.75
356.147	1.42
356.516	2.05
356.885	1.73
357.254	1.51
357.624	1.82
357.993	1.83
358.362	1.23
358.731	1.49
359.1	1.77
359.469	1.68
359.838	1.88
360.207	1.67
360.576	1.46
360.945	1.71
361.314	1.95
361.682	1.47
362.051	1.35
362.42	1.95
362.788	1.66
363.157	1.94
363.525	1.95
363.894	1.58
364.262	1.49
364.631	1.68
364.999	1.88
365.367	1.29
365.735	1.86
366.104	1.63
366.472	1.65
366.84	1.54
367.208	1.38
367.576	1.89
367.944	1.71
368.312	1.53
368.68	1.25
369.048	1.9
369.416	1.58
369.783	1.52
370.151	1.88
370.519	1.91
370.886	1.89
371.254	1.78
371.621	2.39
371.989	1.68
372.356	1.33
372.724	1.79
373.091	1.21
373.458	1.62
373.826	1.76
374.193	1.16
374.56	1.98
374.927	1.92
375.294	1.83
375.661	1.31
376.028	1.42
376.395	1.22
376.762	1.63
377.129	1.41
377.496	1.68
377.863	1.7
378.229	1.3
378.596	1.92
378.963	1.63
379.329	1.57
379.696	1.68
380.062	1.89
380.429	1.53
380.795	1.6
381.161	1.65
381.528	2.1
381.894	1.58
382.26	1.59
382.626	1.7
382.993	1.5
383.359	1.88
383.725	1.51
384.091	1.81
384.457	2.01
384.823	1.59
385.188	1.72
385.554	1.6
385.92	1.9
386.286	1.94
386.651	1.77
387.017	1.95
387.383	1.73
387.748	1.68
388.114	1.96
388.479	1.63
388.845	2.13
389.21	1.62
389.575	1.69
389.94	1.69
390.306	1.66
390.671	2
391.036	1.38
391.401	1.68
391.766	1.61
392.131	1.53
392.496	1.56
392.861	1.63
393.226	2.1
393.591	2.06
393.956	1.8
394.32	1.82
394.685	1.81
395.05	1.74
395.414	1.8
395.779	1.63
396.143	1.72
396.508	1.61
396.872	1.95
397.236	1.68
397.601	1.7
397.965	1.9
398.329	1.86
398.694	1.67
399.058	2.06
399.422	1.32
399.786	1.9
400.15	2.02
400.514	1.77
400.878	1.86
401.242	2.09
401.605	2.05
401.969	1.82
402.333	1.92
402.697	1.65
403.06	2
403.424	1.97
403.787	1.93
404.151	1.82
404.514	1.79
404.878	1.96
405.241	2.08
405.604	1.87
405.968	1.83
406.331	1.67
406.694	2
407.057	1.75
407.42	1.88
407.783	1.74
408.146	1.83
408.509	1.83
408.872	1.73
409.235	1.95
409.598	2.2
409.961	2.08
410.323	2.12
410.686	1.97
411.049	1.57
411.411	1.87
411.774	1.89
412.136	1.77
412.499	1.99
412.861	1.82
413.223	1.89
413.586	1.86
413.948	1.9
414.31	1.81
414.672	1.89
415.035	1.6
415.397	2.16
415.759	1.73
416.121	2.12
416.483	1.79
416.845	1.86
417.206	1.91
417.568	1.95
417.93	1.67
418.292	1.99
418.653	1.87
419.015	1.84
419.377	1.89
419.738	1.87
420.1	1.93
420.461	1.88
420.822	2
421.184	1.91
421.545	1.91
421.906	1.8
422.267	2
422.629	1.88
422.99	1.92
423.351	1.84
423.712	1.92
424.073	1.8
424.434	1.9
424.795	1.95
425.155	1.9
425.516	1.87
425.877	1.76
426.238	1.85
426.598	2.03
426.959	1.87
427.32	1.88
427.68	1.88
428.041	1.84
428.401	1.98
428.761	1.94
429.122	1.94
429.482	1.89
429.842	2.01
430.202	1.99
430.563	1.91
430.923	1.86
431.283	1.86
431.643	1.82
432.003	1.93
432.363	1.98
432.722	1.88
433.082	1.98
433.442	1.88
433.802	1.77
434.161	1.86
434.521	2.22
434.881	2
435.24	1.99
435.6	1.92
435.959	2.02
436.319	1.94
436.678	1.98
437.037	1.95
437.396	1.99
437.756	2.08
438.115	2.01
438.474	2.03
438.833	1.86
439.192	2.07
439.551	2.09
439.91	2.02
440.269	2.06
440.628	1.71
440.987	2.03
441.345	1.89
441.704	2.01
442.063	1.94
442.421	2.02
442.78	2.01
443.138	1.93
443.497	2.02
443.855	2.01
444.214	2
444.572	2.07
444.93	1.93
445.288	2.02
445.647	2.1
446.005	2
446.363	1.98
446.721	2.21
447.079	1.89
447.437	2.01
447.795	1.98
448.153	1.9
448.51	1.95
448.868	2.04
449.226	1.97
449.584	1.99
449.941	2.07
450.299	2.08
450.656	1.93
451.014	2.21
451.371	2.01
451.729	1.92
452.086	2.19
452.443	2.04
452.801	2.08
453.158	1.9
453.515	1.95
453.872	2.08
454.229	1.94
454.586	1.92
454.943	2.15
455.3	2.11
455.657	2.04
456.014	2.08
456.371	1.96
456.727	2.11
457.084	2.14
457.441	2.22
457.797	2.06
458.154	2.32
458.51	2.25
458.867	2.04
459.223	2.18
459.58	2.14
459.936	2.09
460.292	2.12
460.648	2.09
461.005	1.93
461.361	2.16
461.717	2.05
462.073	2.05
462.429	2.09
462.785	2.04
463.141	2.13
463.496	2.12
463.852	2.28
464.208	2.14
464.564	2.21
464.919	2.07
465.275	2.02
465.631	2.27
465.986	2.16
466.342	2.16
466.697	2.1
467.052	2.13
467.408	2.15
467.763	2.1
468.118	2.11
468.473	2.08
468.829	2.26
469.184	2.19
469.539	2.2
469.894	2.22
470.249	2.29
470.603	2.36
470.958	2.3
471.313	2.33
471.668	2.37
472.023	2.2
472.377	2.19
472.732	2.13
473.086	2.11
473.441	2.15
473.795	2.39
474.15	2.27
474.504	2.18
474.859	2.37
475.213	2.14
475.567	2.12
475.921	2.09
476.275	2.19
476.63	2.23
476.984	2.46
477.338	2.31
477.692	2.08
478.045	2.17
478.399	2.29
478.753	2.33
479.107	2.21
479.461	2.12
479.814	2.36
480.168	2.18
480.521	2.15
480.875	2.14
481.228	2.26
481.582	2.27
481.935	2.24
482.289	2.29
482.642	2.21
482.995	2.2
483.348	2.16
483.701	2.22
484.055	2.25
484.408	2.22
484.761	2.11
485.114	2.15
485.466	2.08
485.819	2.05
486.172	2.06
486.525	2.13
486.878	2.16
487.23	2.16
487.583	2.31
487.936	2.22
488.288	2.16
488.641	2.2
488.993	2.12
489.345	2.12
489.698	2.14
490.05	2.12
490.402	2.21
490.754	2.18
491.107	2.28
491.459	2.3
491.811	2.26
492.163	2.19
492.515	2.34
492.866	2.25
493.218	2.26
493.57	2.2
493.922	2.15
494.274	2.27
494.625	2.36
494.977	2.33
495.328	2.44
495.68	2.27
496.031	2.38
496.383	2.28
496.734	2.57
497.086	2.42
497.437	2.44
497.788	2.28
498.139	2.3
498.49	2.42
498.842	2.29
499.193	2.36
499.544	2.37
499.894	2.46
500.245	2.44
500.596	2.33
500.947	2.44
501.298	2.44
501.648	2.34
501.999	2.56
502.35	2.34
502.7	2.36
503.051	2.17
503.401	2.33
503.752	2.55
504.102	2.37
504.452	2.3
504.803	2.41
505.153	2.31
505.503	2.47
505.853	2.49
506.203	2.42
506.553	2.44
506.903	2.38
507.253	2.38
507.603	2.34
507.953	2.56
508.303	2.56
508.652	2.32
509.002	2.61
509.352	2.55
509.701	2.53
510.051	2.4
510.4	2.44
510.75	2.45
511.099	2.4
511.449	2.37
511.798	2.41
512.147	2.54
512.496	2.45
512.846	2.48
513.195	2.56
513.544	2.54
513.893	2.55
514.242	2.46
514.591	2.7
514.939	2.49
515.288	2.57
515.637	2.56
515.986	2.56
516.334	2.7
516.683	2.58
517.032	2.58
517.38	2.68
517.729	2.54
518.077	2.39
518.426	2.76
518.774	2.73
519.122	2.51
519.47	2.56
519.819	2.58
520.167	2.52
520.515	2.54
520.863	2.61
521.211	2.66
521.559	2.71
521.907	2.52
522.255	2.68
522.602	2.58
522.95	2.64
523.298	2.62
523.645	2.79
523.993	2.72
524.341	2.77
524.688	2.74
525.036	2.62
525.383	2.8
525.73	2.75
526.078	2.64
526.425	2.57
526.772	2.72
527.119	2.69
527.466	2.64
527.814	2.59
528.161	2.62
528.508	2.7
528.854	2.67
529.201	2.64
529.548	2.68
529.895	2.67
530.242	2.59
530.588	2.56
530.935	2.61
531.282	2.69
531.628	2.7
531.975	2.74
532.321	2.7
532.667	2.74
533.014	2.85
533.36	2.91
533.706	2.77
534.052	2.78
534.399	2.64
534.745	2.76
535.091	2.73
535.437	2.75
535.783	2.77
536.129	2.77
536.474	2.88
536.82	2.84
537.166	2.89
537.512	2.91
537.857	2.8
538.203	2.84
538.549	2.87
538.894	2.83
539.239	2.95
539.585	2.9
539.93	2.88
540.276	3.03
540.621	2.99
540.966	3.13
541.311	2.9
541.656	2.75
542.001	2.9
542.346	3.06
542.691	2.86
543.036	2.89
543.381	2.8
543.726	2.96
544.071	2.99
544.415	3.02
544.76	2.93
545.105	3.01
545.449	2.97
545.794	3.07
546.138	3.04
546.483	3.13
546.827	3.2
547.171	3.16
547.516	3.27
547.86	3.15
548.204	3.04
548.548	3.02
548.892	3.22
549.236	3.12
549.58	3.15
549.924	3.21
550.268	3.28
550.612	3.31
550.956	3.46
551.3	3.13
551.643	3.46
551.987	3.3
552.33	3.23
552.674	3.43
553.017	3.25
553.361	3.19
553.704	3.41
554.048	3.28
554.391	3.35
554.734	3.44
555.077	3.48
555.42	3.23
555.764	3.31
556.107	3.33
556.45	3.17
556.793	3.51
557.135	3.48
557.478	3.59
557.821	3.52
558.164	3.53
558.507	3.36
558.849	3.4
559.192	3.6
559.534	3.46
559.877	3.61
560.219	3.41
560.562	3.78
560.904	3.42
561.246	3.71
561.589	3.74
561.931	3.57
562.273	3.54
562.615	3.87
562.957	3.54
563.299	3.43
563.641	3.68
563.983	3.79
564.325	3.55
564.667	3.69
565.008	3.51
565.35	3.62
565.692	3.54
566.033	3.69
566.375	3.77
566.716	4
567.058	3.73
567.399	3.79
567.741	3.73
568.082	3.74
568.423	3.8
568.764	3.73
569.105	3.96
569.447	3.85
569.788	3.73
570.129	4.02
570.47	3.79
570.811	3.92
571.151	4.07
571.492	3.88
571.833	4.09
572.174	3.96
572.514	4.02
572.855	4.01
573.195	3.99
573.536	4.15
573.876	3.87
574.217	3.88
574.557	4.07
574.898	4.16
575.238	4.17
575.578	4.14
575.918	4.13
576.258	4.2
576.598	3.97
576.938	4.13
577.278	4.18
577.618	4.01
577.958	4.12
578.298	4.18
578.638	4.18
578.977	4.19
579.317	4.23
579.657	4.17
579.996	4.3
580.336	4.11
580.675	4.31
581.014	4.48
581.354	4.41
581.693	4.35
582.032	4.22
582.372	4.26
582.711	4.52
583.05	4.21
583.389	4.49
583.728	4.12
584.067	4.62
584.406	4.6
584.745	4.44
585.083	4.51
585.422	4.53
585.761	4.77
586.1	4.37
586.438	4.57
586.777	4.71
587.115	4.53
587.454	4.43
587.792	4.82
588.13	4.92
588.469	4.8
588.807	4.84
589.145	4.54
589.483	5.04
589.821	4.57
590.159	4.68
590.497	5.05
590.835	5.13
591.173	4.77
591.511	4.91
591.849	4.79
592.187	4.97
592.524	4.97
592.862	4.85
593.2	4.71
593.537	4.95
593.875	4.91
594.212	4.79
594.55	4.97
594.887	5.19
595.224	4.75
595.561	5.19
595.899	5.15
596.236	4.99
596.573	4.95
596.91	4.83
597.247	4.82
597.584	5.38
597.921	5.11
598.258	4.98
598.594	5.16
598.931	5.06
599.268	5.26
599.604	5.17
599.941	5.26
600.277	5.12
600.614	5.18
600.95	5.27
601.287	5.55
601.623	5.35
601.959	5.39
602.296	5.31
602.632	5.37
602.968	5.52
603.304	5.36
603.64	5.71
603.976	5.77
604.312	5.4
604.648	5.54
604.984	5.66
605.319	5.37
605.655	5.56
605.991	5.44
606.326	5.48
606.662	5.63
606.998	5.34
607.333	5.68
607.668	5.74
608.004	5.67
608.339	5.82
608.674	5.75
609.01	5.72
609.345	5.75
609.68	5.8
610.015	5.8
610.35	5.73
610.685	5.79
611.02	5.78
611.355	5.9
611.689	5.82
612.024	5.72
612.359	5.88
612.694	5.83
613.028	5.79
613.363	6.08
613.697	6.11
614.032	6.13
614.366	5.94
614.7	6.43
615.035	6.07
615.369	5.82
615.703	6.17
616.037	6.24
616.371	5.9
616.705	6.15
617.039	6.29
617.373	6.2
617.707	6.11
618.041	5.97
618.375	6.29
618.709	6.26
619.042	6.02
619.376	6.68
619.71	6.42
620.043	6.43
620.377	6.23
620.71	6.31
621.043	6.41
621.377	6.46
621.71	6.45
622.043	6.25
622.376	5.96
622.709	6.74
623.043	6.83
623.376	6.61
623.709	6.41
624.041	6.64
624.374	6.69
624.707	6.36
625.04	6.79
625.373	6.28
625.705	6.45
626.038	6.82
626.37	6.39
626.703	6.79
627.035	6.63
627.368	7.29
627.7	6.89
628.032	6.61
628.365	7.04
628.697	6.79
629.029	6.81
629.361	6.9
629.693	6.95
630.025	6.78
630.357	6.89
630.689	7.06
631.021	6.89
631.353	7.17
631.684	6.86
632.016	6.73
632.348	7.2
632.679	7.28
633.011	7.41
633.342	7.34
633.674	7.08
634.005	7.62
634.336	7.39
634.668	7.51
634.999	7.07
635.33	7.76
635.661	7.36
635.992	7.41
636.323	7.45
636.654	7.5
636.985	7.46
637.316	7.46
637.647	7.1
637.977	7.93
638.308	7.58
638.639	7.08
638.969	7.42
639.3	7.2
639.63	7.12
639.961	7.39
640.291	7.75
640.622	8
640.952	7.77
641.282	7.97
641.612	8.01
641.943	7.58
642.273	7.57
642.603	7.85
642.933	8.04
643.263	7.94
643.592	8.04
643.922	7.58
644.252	7.45
644.582	7.8
644.911	7.29
645.241	7.83
645.571	8.07
645.9	7.56
646.23	7.86
646.559	8.12
646.888	7.7
647.218	7.63
647.547	8.29
647.876	7.81
648.205	8.02
648.534	8.19
648.863	7.71
649.192	8.07
649.521	8.46
649.85	7.96
650.179	8.27
650.508	8.11
650.837	8.35
651.165	8.23
651.494	8.55
651.822	8.22
652.151	8.23
652.479	8.19
652.808	8.06
653.136	8.61
653.465	8.3
653.793	7.94
654.121	8.48
654.449	8.57
654.777	8.77
655.105	8.75
655.433	8.25
655.761	8.6
656.089	8.93
656.417	8.75
656.745	8.4
657.073	8.49
657.4	9.55
657.728	8.91
658.056	8.6
658.383	8.81
658.711	8.94
659.038	8.64
659.365	9.41
659.693	9.3
660.02	9
660.347	8.66
660.674	9.22
661.001	8.95
661.329	8.18
661.656	9.13
661.982	9.42
662.309	8.88
662.636	8.78
662.963	9.4
663.29	8.71
663.616	9.25
663.943	8.72
664.27	9.41
664.596	9.2
664.923	9.13
665.249	9.47
665.576	9.37
665.902	10.2
666.228	10.09
666.554	9.33
666.881	9.27
667.207	9.14
667.533	9.13
667.859	10.36
668.185	9.76
668.511	9.15
668.837	8.52
669.162	9.35
669.488	8.72
669.814	9.45
670.139	9.63
670.465	9.62
670.791	9.71
671.116	10.57
671.442	9.47
671.767	9.35
672.092	10.42
672.418	9.85
672.743	10.49
673.068	9.32
673.393	9.87
673.718	9.64
674.043	9.92
674.368	10.05
674.693	10.76
675.018	9.74
675.343	10.13
675.667	10.14
675.992	10.63
676.317	10.53
676.641	10.33
676.966	9.7
677.29	9.48
677.615	10.24
677.939	10.67
678.264	10.87
678.588	10.41
678.912	10.45
679.236	10.6
679.56	9.93
679.885	10.83
680.209	9.99
680.532	10.19
680.856	10.75
681.18	10.81
681.504	9.85
681.828	10.88
682.152	10.36
682.475	10.44
682.799	10.56
683.122	10.98
683.446	10.12
683.769	10.87
684.093	10.48
684.416	11.08
684.739	10.52
685.062	10.27
685.386	11
685.709	10.66
686.032	10.8
686.355	10.92
686.678	9.76
687.001	11.67
687.324	11.33
687.646	10.71
687.969	10.77
688.292	10.64
688.614	10.94
688.937	11.65
689.26	10.25
689.582	11.81
689.904	10.37
690.227	10.5
690.549	11.12
690.871	11.84
691.194	11.26
