Data from 0411_forehead_Reflection__3__276.txt Node

Date: Fri Dec 15 18:43:43 CST 2023
User: ToomeyLab
Spectrometer: FLMS14357
Trigger mode: 0
Integration Time (sec): 1.000000E-2
Scans to average: 100
Electric dark correction enabled: true
Nonlinearity correction enabled: false
Boxcar width: 0
XAxis mode: Wavelengths
Number of Pixels in Spectrum: 2048
>>>>>Begin Spectral Data<<<<<
189.047	-212.51
189.435	-212.51
189.823	-212.51
190.211	106.55
190.599	442.03
190.987	74.15
191.375	40.47
191.763	-80.02
192.151	201.06
192.538	62.66
192.926	37.97
193.314	297.84
193.702	-210.55
194.089	186.88
194.477	-9.34
194.864	517.94
195.252	116.31
195.639	98.28
196.027	-175.64
196.414	24.24
196.801	-135.82
197.189	325.55
197.576	241.57
197.963	15.25
198.351	15.03
198.738	7.81
199.125	29.61
199.512	3.58
199.899	-9.25
200.286	49.09
200.673	-0.25
201.06	-8.01
201.447	-16.65
201.833	35.75
202.22	15
202.607	44.41
202.994	15.74
203.38	42.01
203.767	45.86
204.154	32.55
204.54	31.78
204.927	-22.19
205.313	-58.67
205.699	31.96
206.086	50.33
206.472	11.96
206.858	-16.12
207.245	17.1
207.631	-0.32
208.017	24.47
208.403	-25.54
208.789	24.26
209.175	23.96
209.561	-25.89
209.947	-0.14
210.333	-30.36
210.719	8.78
211.105	-1.51
211.491	-69.83
211.876	-16.9
212.262	62.79
212.648	-5.25
213.034	19.76
213.419	-0.46
213.805	31.62
214.19	53.38
214.576	-16.71
214.961	4.01
215.346	-50.69
215.732	42.18
216.117	19.18
216.502	-0.44
216.888	0.01
217.273	19.02
217.658	14.03
218.043	5.18
218.428	0.3
218.813	4.2
219.198	-15.38
219.583	2.86
219.968	11.02
220.353	-11.97
220.738	5.01
221.122	8.67
221.507	-23.65
221.892	-18.05
222.276	-25.5
222.661	11.15
223.046	21.97
223.43	11.34
223.815	14.89
224.199	-8.51
224.583	-4.3
224.968	4.63
225.352	11.61
225.736	-4.47
226.121	-7.68
226.505	6
226.889	3.45
227.273	-2.26
227.657	5.65
228.041	6.36
228.425	1.96
228.809	3.58
229.193	2.51
229.577	3.96
229.961	4.8
230.344	3.84
230.728	4.91
231.112	4.1
231.495	4.9
231.879	3.12
232.263	3.89
232.646	3.61
233.03	4.77
233.413	3.56
233.797	4.43
234.18	1.77
234.563	6.77
234.946	4.39
235.33	5.58
235.713	5.21
236.096	3.87
236.479	3.26
236.862	3.85
237.245	6.36
237.628	3.79
238.011	4.92
238.394	6.41
238.777	4.82
239.16	3.3
239.543	4.13
239.925	4.59
240.308	4.9
240.691	4.86
241.073	4.3
241.456	3.89
241.838	4.41
242.221	3.33
242.603	5.68
242.986	5.28
243.368	4.84
243.75	4.23
244.133	4.47
244.515	4.7
244.897	4.55
245.279	4.58
245.661	4.78
246.043	5.1
246.425	3.2
246.807	5.37
247.189	4.65
247.571	4.99
247.953	5.22
248.335	4.25
248.717	4.67
249.098	4.65
249.48	4.54
249.862	4.38
250.243	4.64
250.625	4.29
251.006	4.39
251.388	3.59
251.769	4.91
252.151	5.89
252.532	4.27
252.913	4.52
253.295	3.86
253.676	4.25
254.057	4.87
254.438	4.59
254.819	3.98
255.2	3.87
255.581	4.62
255.962	2.9
256.343	4.7
256.724	4.38
257.105	4.38
257.486	3.49
257.867	3.68
258.247	4.22
258.628	4.1
259.009	3.85
259.389	4.56
259.77	4.27
260.15	3.47
260.531	4.01
260.911	4.55
261.292	4.44
261.672	4.39
262.052	4.5
262.432	4.41
262.813	4.47
263.193	4.46
263.573	4.02
263.953	4.19
264.333	4.69
264.713	4.77
265.093	4.1
265.473	4.8
265.853	3.62
266.233	4.54
266.612	3.76
266.992	3.49
267.372	4.08
267.752	4.7
268.131	4.1
268.511	4.36
268.89	4.41
269.27	4.13
269.649	3.95
270.029	4.64
270.408	5.42
270.787	4.52
271.167	4.64
271.546	4.5
271.925	3.51
272.304	4.58
272.683	5.06
273.062	4.38
273.441	4.5
273.82	3.97
274.199	4.2
274.578	4.22
274.957	4.47
275.336	4.19
275.715	4.04
276.093	3.96
276.472	4.04
276.851	3.44
277.229	4.2
277.608	3.84
277.986	4.34
278.365	4.11
278.743	3.87
279.122	4.12
279.5	4.25
279.878	4.11
280.257	4.44
280.635	3.76
281.013	3.75
281.391	4.42
281.769	4.53
282.147	4.25
282.525	4.38
282.903	4.15
283.281	4.41
283.659	5.05
284.037	4.31
284.415	4.25
284.792	4.62
285.17	3.95
285.548	4.24
285.925	4.32
286.303	4.15
286.68	4.17
287.058	4.52
287.435	4.29
287.813	4.14
288.19	4.27
288.567	4.39
288.945	4.7
289.322	4.55
289.699	3.96
290.076	4.63
290.453	4.36
290.83	4.16
291.207	4.49
291.584	4.56
291.961	4.74
292.338	4.21
292.715	4.88
293.092	4.48
293.469	4.64
293.845	4.77
294.222	4.11
294.599	4.43
294.975	4.47
295.352	5.23
295.728	4.8
296.105	4.92
296.481	4.99
296.858	4.42
297.234	4.63
297.61	5.04
297.986	4.92
298.363	5.09
298.739	4.94
299.115	4.73
299.491	4.97
299.867	4.85
300.243	5.16
300.619	4.74
300.995	4.59
301.371	4.83
301.746	4.74
302.122	5.87
302.498	5.08
302.874	5.61
303.249	5.11
303.625	4.95
304	4.87
304.376	4.79
304.751	4.88
305.127	6.2
305.502	5.12
305.878	4.87
306.253	5.47
306.628	6.1
307.003	5.58
307.378	6.08
307.754	5.85
308.129	5.2
308.504	5.57
308.879	5.22
309.254	6.3
309.629	6.04
310.003	6.33
310.378	5.95
310.753	5.82
311.128	5.76
311.502	5.6
311.877	6.23
312.252	5.78
312.626	5.82
313.001	5.47
313.375	6.56
313.75	5.66
314.124	6.23
314.498	6.25
314.873	6.44
315.247	6.46
315.621	6.68
315.995	5.45
316.369	5.87
316.743	6.03
317.117	6.76
317.491	6.55
317.865	5.65
318.239	5.94
318.613	5.8
318.987	6.55
319.361	6
319.734	6.89
320.108	6.35
320.482	6.55
320.855	6.78
321.229	6
321.602	6.85
321.976	6.59
322.349	6.55
322.723	6.08
323.096	7.26
323.469	5.77
323.843	6.29
324.216	7.13
324.589	6.46
324.962	6.84
325.335	6.35
325.708	6.42
326.081	6.33
326.454	6.82
326.827	6.54
327.2	6.31
327.573	6.98
327.945	6.86
328.318	6.45
328.691	6.67
329.063	6.77
329.436	6.94
329.809	6.87
330.181	6.95
330.553	7.31
330.926	7.39
331.298	7.52
331.671	7.13
332.043	7.63
332.415	7.35
332.787	6.92
333.159	7.91
333.532	6.88
333.904	7.15
334.276	7.32
334.648	7.72
335.02	7.18
335.391	7.21
335.763	7.06
336.135	6.75
336.507	8.18
336.879	7.54
337.25	7.23
337.622	7.37
337.993	7.44
338.365	7.51
338.736	7.53
339.108	7.59
339.479	7.44
339.851	7.89
340.222	7.71
340.593	7.89
340.964	7.66
341.336	7.72
341.707	6.96
342.078	8.31
342.449	8.41
342.82	7.35
343.191	8.02
343.562	8.01
343.933	8.04
344.303	8.18
344.674	7.8
345.045	8.41
345.416	8.22
345.786	7.78
346.157	8.26
346.527	7.8
346.898	7.69
347.268	8.22
347.639	8.26
348.009	7.81
348.38	7.89
348.75	8.29
349.12	8.23
349.49	7.87
349.861	8.33
350.231	8.29
350.601	8.81
350.971	8.87
351.341	8.5
351.711	8.38
352.081	8.63
352.45	8.56
352.82	8.37
353.19	8.63
353.56	8.67
353.929	8.39
354.299	8.48
354.669	8.18
355.038	8.74
355.408	8.36
355.777	9.18
356.147	8.57
356.516	8.63
356.885	8.42
357.254	8.62
357.624	8.74
357.993	9.22
358.362	8.92
358.731	8.93
359.1	8.97
359.469	8.45
359.838	8.85
360.207	9.05
360.576	8.93
360.945	8.55
361.314	9.13
361.682	8.92
362.051	8.88
362.42	9.17
362.788	9.02
363.157	9.24
363.525	9.57
363.894	8.86
364.262	9.13
364.631	9.13
364.999	9.04
365.367	8.7
365.735	9.49
366.104	9.35
366.472	9.59
366.84	9.28
367.208	9.04
367.576	9.73
367.944	9.51
368.312	9.46
368.68	9.14
369.048	9.83
369.416	9.54
369.783	9.56
370.151	9.61
370.519	9.67
370.886	9.78
371.254	9.39
371.621	9.95
371.989	9.94
372.356	9.5
372.724	9.84
373.091	9.52
373.458	9.67
373.826	9.87
374.193	9.78
374.56	10.03
374.927	9.87
375.294	9.88
375.661	9.7
376.028	9.66
376.395	9.78
376.762	10.18
377.129	10.06
377.496	10.07
377.863	10.18
378.229	10.07
378.596	10.37
378.963	10.14
379.329	10.36
379.696	10.07
380.062	10.17
380.429	10.04
380.795	10.03
381.161	10.14
381.528	10.06
381.894	10.4
382.26	10.22
382.626	10.73
382.993	10.16
383.359	10.51
383.725	10.43
384.091	10.45
384.457	10.7
384.823	10.46
385.188	10.88
385.554	10.54
385.92	10.87
386.286	10.88
386.651	10.65
387.017	10.83
387.383	10.75
387.748	10.87
388.114	10.96
388.479	10.8
388.845	11.07
389.21	10.83
389.575	10.76
389.94	10.87
390.306	10.84
390.671	10.88
391.036	10.75
391.401	10.42
391.766	10.98
392.131	10.82
392.496	11.11
392.861	10.94
393.226	11.35
393.591	11.21
393.956	11.11
394.32	11.26
394.685	11.2
395.05	11.34
395.414	11.4
395.779	11.15
396.143	11.3
396.508	11.39
396.872	11.18
397.236	11.6
397.601	11.31
397.965	11.35
398.329	11.56
398.694	11.58
399.058	11.97
399.422	11.37
399.786	11.73
400.15	11.95
400.514	11.57
400.878	11.64
401.242	11.87
401.605	11.83
401.969	11.98
402.333	11.98
402.697	11.95
403.06	11.89
403.424	11.85
403.787	11.66
404.151	11.93
404.514	11.73
404.878	12.04
405.241	11.96
405.604	12.22
405.968	12.21
406.331	12.04
406.694	11.96
407.057	12.04
407.42	12.21
407.783	12
408.146	12.25
408.509	12.17
408.872	12.52
409.235	12.19
409.598	12.41
409.961	12.35
410.323	12.28
410.686	12.4
411.049	12.28
411.411	12.52
411.774	12.56
412.136	12.6
412.499	12.3
412.861	12.64
413.223	12.43
413.586	12.57
413.948	12.98
414.31	12.93
414.672	12.59
415.035	12.54
415.397	12.99
415.759	12.54
416.121	13.1
416.483	12.64
416.845	12.73
417.206	12.64
417.568	12.92
417.93	12.76
418.292	12.91
418.653	12.9
419.015	12.94
419.377	12.81
419.738	12.94
420.1	12.83
420.461	12.99
420.822	12.9
421.184	13
421.545	12.9
421.906	12.82
422.267	13.04
422.629	12.92
422.99	12.83
423.351	12.91
423.712	13.07
424.073	13.09
424.434	12.96
424.795	13.25
425.155	13.12
425.516	13.03
425.877	13.18
426.238	13.16
426.598	13.11
426.959	13.22
427.32	13.15
427.68	13.45
428.041	13.41
428.401	13.6
428.761	13.53
429.122	13.6
429.482	13.43
429.842	13.89
430.202	13.77
430.563	13.84
430.923	13.7
431.283	14.05
431.643	13.8
432.003	13.72
432.363	13.85
432.722	13.8
433.082	14.01
433.442	13.96
433.802	13.76
434.161	14.04
434.521	14.16
434.881	14.08
435.24	14.03
435.6	14.1
435.959	14.05
436.319	14.15
436.678	14.19
437.037	14.2
437.396	14.21
437.756	14.26
438.115	14.24
438.474	14.52
438.833	14.23
439.192	14.28
439.551	14.52
439.91	14.42
440.269	14.52
440.628	14.45
440.987	14.55
441.345	14.3
441.704	14.54
442.063	14.47
442.421	14.31
442.78	14.56
443.138	14.39
443.497	14.49
443.855	14.58
444.214	14.65
444.572	14.61
444.93	14.79
445.288	14.77
445.647	14.91
446.005	15.01
446.363	14.87
446.721	14.8
447.079	14.62
447.437	14.76
447.795	15
448.153	14.78
448.51	14.88
448.868	14.97
449.226	14.8
449.584	14.87
449.941	15.12
450.299	15.13
450.656	15.21
451.014	15.34
451.371	15.21
451.729	15.31
452.086	15.42
452.443	15.38
452.801	15.44
453.158	15.63
453.515	15.16
453.872	15.81
454.229	15.61
454.586	15.39
454.943	15.74
455.3	15.7
455.657	15.73
456.014	15.77
456.371	15.85
456.727	15.79
457.084	15.86
457.441	15.85
457.797	15.96
458.154	16.2
458.51	16.19
458.867	16.25
459.223	16.07
459.58	15.98
459.936	16.17
460.292	16.12
460.648	16.16
461.005	15.99
461.361	16.14
461.717	15.99
462.073	16.02
462.429	15.92
462.785	16.14
463.141	16.06
463.496	16.22
463.852	16.46
464.208	16.42
464.564	16.56
464.919	16.45
465.275	16.53
465.631	16.78
465.986	16.69
466.342	16.76
466.697	16.42
467.052	16.69
467.408	16.66
467.763	16.74
468.118	16.72
468.473	16.83
468.829	16.86
469.184	17.02
469.539	17
469.894	16.71
470.249	17.09
470.603	17.12
470.958	17.11
471.313	17.33
471.668	17.07
472.023	17.19
472.377	17.22
472.732	17.33
473.086	17.23
473.441	17.35
473.795	17.53
474.15	17.36
474.504	17.19
474.859	17.44
475.213	17.28
475.567	17.37
475.921	17.44
476.275	17.57
476.63	17.52
476.984	17.8
477.338	17.72
477.692	17.56
478.045	17.87
478.399	17.58
478.753	17.65
479.107	17.71
479.461	17.67
479.814	17.87
480.168	17.79
480.521	17.87
480.875	17.95
481.228	17.8
481.582	18.03
481.935	18.03
482.289	18.07
482.642	17.96
482.995	17.99
483.348	17.89
483.701	17.88
484.055	18.01
484.408	18.01
484.761	17.76
485.114	17.66
485.466	17.38
485.819	17.42
486.172	17.43
486.525	17.5
486.878	17.64
487.23	17.71
487.583	17.95
487.936	18.02
488.288	18.02
488.641	18.1
488.993	17.9
489.345	17.81
489.698	17.85
490.05	17.88
490.402	18.02
490.754	18.1
491.107	18.27
491.459	18.36
491.811	18.61
492.163	18.7
492.515	18.56
492.866	18.69
493.218	18.38
493.57	18.4
493.922	18.38
494.274	18.65
494.625	18.71
494.977	18.87
495.328	18.96
495.68	19.07
496.031	19.18
496.383	19.31
496.734	19.49
497.086	19.45
497.437	19.5
497.788	19.54
498.139	19.41
498.49	19.55
498.842	19.37
499.193	19.56
499.544	19.5
499.894	19.56
500.245	19.59
500.596	19.7
500.947	19.84
501.298	19.91
501.648	20.01
501.999	19.98
502.35	19.96
502.7	20.27
503.051	20.05
503.401	20.3
503.752	20.2
504.102	20.18
504.452	20.26
504.803	20.31
505.153	20.12
505.503	20.56
505.853	20.33
506.203	20.42
506.553	20.54
506.903	20.37
507.253	20.49
507.603	20.53
507.953	20.83
508.303	20.8
508.652	20.66
509.002	20.81
509.352	20.85
509.701	20.67
510.051	20.77
510.4	20.76
510.75	20.87
511.099	20.75
511.449	20.71
511.798	20.92
512.147	20.84
512.496	21.07
512.846	21.07
513.195	21.02
513.544	21.05
513.893	21.15
514.242	20.96
514.591	21.33
514.939	21.28
515.288	21.17
515.637	21.45
515.986	21.43
516.334	21.49
516.683	21.7
517.032	21.56
517.38	21.72
517.729	21.7
518.077	21.59
518.426	21.75
518.774	21.86
519.122	21.64
519.47	21.77
519.819	21.56
520.167	21.61
520.515	21.66
520.863	21.71
521.211	21.82
521.559	21.79
521.907	21.83
522.255	21.86
522.602	21.95
522.95	22.05
523.298	22.27
523.645	22.43
523.993	22.35
524.341	22.52
524.688	22.41
525.036	22.5
525.383	22.69
525.73	22.61
526.078	22.56
526.425	22.72
526.772	22.61
527.119	22.56
527.466	22.24
527.814	22.4
528.161	22.39
528.508	22.45
528.854	22.44
529.201	22.5
529.548	22.49
529.895	22.35
530.242	22.18
530.588	22.17
530.935	22.31
531.282	22.29
531.628	22.28
531.975	22.49
532.321	22.76
532.667	22.9
533.014	22.89
533.36	23.13
533.706	23.21
534.052	23.32
534.399	23.07
534.745	23.09
535.091	23.02
535.437	22.89
535.783	23.11
536.129	23.28
536.474	23.32
536.82	23.66
537.166	23.59
537.512	23.72
537.857	23.7
538.203	23.68
538.549	23.69
538.894	23.68
539.239	23.95
539.585	23.97
539.93	24.03
540.276	24.19
540.621	24.12
540.966	24.43
541.311	24.51
541.656	24.51
542.001	24.52
542.346	24.42
542.691	24.09
543.036	23.99
543.381	23.96
543.726	23.95
544.071	24.08
544.415	24.2
544.76	24.27
545.105	24.49
545.449	24.58
545.794	24.57
546.138	24.75
546.483	24.95
546.827	24.95
547.171	24.88
547.516	25.25
547.86	25.08
548.204	25.12
548.548	25.22
548.892	25.26
549.236	25.35
549.58	25.3
549.924	25.36
550.268	25.51
550.612	25.7
550.956	25.98
551.3	25.93
551.643	26.11
551.987	26.07
552.33	26.06
552.674	26.02
553.017	26.31
553.361	26.15
553.704	26.48
554.048	26.15
554.391	26.33
554.734	26.54
555.077	26.32
555.42	26.35
555.764	26.36
556.107	26.39
556.45	26.32
556.793	26.67
557.135	26.84
557.478	27.06
557.821	26.87
558.164	26.71
558.507	26.77
558.849	26.87
559.192	27.12
559.534	27.07
559.877	26.96
560.219	26.93
560.562	27.45
560.904	27.2
561.246	27.28
561.589	27.44
561.931	27.36
562.273	27.44
562.615	27.55
562.957	27.6
563.299	27.67
563.641	27.48
563.983	27.62
564.325	27.36
564.667	27.55
565.008	28.05
565.35	27.78
565.692	28.11
566.033	28.03
566.375	27.96
566.716	28.11
567.058	28.3
567.399	27.88
567.741	27.93
568.082	28.22
568.423	28.24
568.764	28.33
569.105	28.45
569.447	28.34
569.788	28.29
570.129	28.45
570.47	28.6
570.811	28.92
571.151	28.68
571.492	28.71
571.833	29.07
572.174	28.89
572.514	29.15
572.855	28.87
573.195	28.9
573.536	28.93
573.876	28.76
574.217	28.91
574.557	28.98
574.898	29.29
575.238	29.04
575.578	29.25
575.918	29.7
576.258	29.51
576.598	29.33
576.938	29.32
577.278	29.28
577.618	29.45
577.958	29.41
578.298	29.71
578.638	29.96
578.977	29.56
579.317	29.94
579.657	29.94
579.996	30.24
580.336	30.1
580.675	30.17
581.014	30.26
581.354	30.55
581.693	30.29
582.032	30.36
582.372	30.36
582.711	30.79
583.05	30.71
583.389	30.4
583.728	30.48
584.067	30.57
584.406	30.92
584.745	30.5
585.083	30.86
585.422	31.05
585.761	31.13
586.1	31.14
586.438	31.3
586.777	31.23
587.115	31.27
587.454	31.33
587.792	31.25
588.13	31.3
588.469	31.78
588.807	31.7
589.145	31.2
589.483	31.56
589.821	31.45
590.159	31.6
590.497	31.72
590.835	31.7
591.173	31.76
591.511	31.86
591.849	31.69
592.187	32.12
592.524	31.82
592.862	31.82
593.2	32.09
593.537	32.09
593.875	32.15
594.212	32.11
594.55	32.25
594.887	32.24
595.224	32.48
595.561	32.27
595.899	32.66
596.236	32.8
596.573	32.65
596.91	32.48
597.247	32.65
597.584	33.12
597.921	32.49
598.258	32.47
598.594	32.74
598.931	32.28
599.268	32.62
599.604	32.67
599.941	32.81
600.277	32.88
600.614	32.76
600.95	32.93
601.287	33.23
601.623	33.48
601.959	33.08
602.296	33.4
602.632	33.68
602.968	33.49
603.304	33.5
603.64	33.34
603.976	33.61
604.312	33.59
604.648	33.65
604.984	33.9
605.319	33.65
605.655	33.98
605.991	33.73
606.326	33.84
606.662	33.75
606.998	33.63
607.333	33.95
607.668	33.87
608.004	34.15
608.339	34.35
608.674	34.42
609.01	34.39
609.345	34.41
609.68	34.3
610.015	34.23
610.35	34.55
610.685	34.44
611.02	34.7
611.355	34.99
611.689	34.59
612.024	34.67
612.359	34.59
612.694	34.94
613.028	34.86
613.363	35.25
613.697	35.52
614.032	35.17
614.366	35.4
614.7	35.22
615.035	35.29
615.369	35.16
615.703	35.2
616.037	35.53
616.371	34.79
616.705	35.49
617.039	36.14
617.373	35.56
617.707	35.51
618.041	35.79
618.375	35.9
618.709	35.92
619.042	35.9
619.376	36.16
619.71	36.41
620.043	36.29
620.377	35.71
620.71	36.11
621.043	36.28
621.377	35.78
621.71	36.28
622.043	36.57
622.376	36.09
622.709	36.88
623.043	36.54
623.376	36.74
623.709	36.2
624.041	36.85
624.374	37.18
624.707	36.6
625.04	37.22
625.373	36.53
625.705	37.03
626.038	37.48
626.37	36.72
626.703	37.04
627.035	37.16
627.368	37.16
627.7	37.27
628.032	37
628.365	37.66
628.697	37.41
629.029	37.05
629.361	37.42
629.693	37.72
630.025	37.69
630.357	37.99
630.689	37.33
631.021	37.53
631.353	37.7
631.684	37.31
632.016	37.49
632.348	37.91
632.679	37.82
633.011	37.76
633.342	37.82
633.674	37.7
634.005	38.15
634.336	37.91
634.668	38.59
634.999	38.09
635.33	38.31
635.661	38
635.992	38.08
636.323	38.7
636.654	38.42
636.985	38.53
637.316	38.84
637.647	37.99
637.977	38.69
638.308	38.76
638.639	38.87
638.969	38.89
639.3	38.56
639.63	39.05
639.961	38.9
640.291	39.25
640.622	38.87
640.952	39.23
641.282	39.18
641.612	39.3
641.943	38.57
642.273	39.69
642.603	39.5
642.933	39.76
643.263	39.21
643.592	39.83
643.922	39.3
644.252	39.83
644.582	39.66
644.911	39.7
645.241	39.39
645.571	39.94
645.9	40.03
646.23	40.09
646.559	40.47
646.888	39.73
647.218	40.11
647.547	40.81
647.876	40.04
648.205	40.54
648.534	40.04
648.863	40.51
649.192	41.03
649.521	40.19
649.85	40.28
650.179	40.65
650.508	40.22
650.837	40.35
651.165	40.49
651.494	40.68
651.822	40.2
652.151	40.86
652.479	40.88
652.808	40.49
653.136	40.6
653.465	40.29
653.793	40.89
654.121	41.66
654.449	40.77
654.777	41.26
655.105	41.59
655.433	40.83
655.761	41.23
656.089	41.02
656.417	40.89
656.745	41.05
657.073	41.53
657.4	41.62
657.728	40.98
658.056	41.64
658.383	41.66
658.711	41.7
659.038	41.57
659.365	41.66
659.693	42.03
660.02	41.58
660.347	41.38
660.674	42.05
661.001	41.95
661.329	41.61
661.656	42.11
661.982	42.28
662.309	41.74
662.636	42.3
662.963	42.41
663.29	41.63
663.616	42.56
663.943	41.98
664.27	42.51
664.596	42.13
664.923	42.22
665.249	42.99
665.576	42.64
665.902	42.67
666.228	43.33
666.554	42.43
666.881	42.87
667.207	43.17
667.533	42.54
667.859	43.25
668.185	42.51
668.511	43.01
668.837	42.47
669.162	43.07
669.488	43.35
669.814	43.14
670.139	43.39
670.465	43.19
670.791	43.34
671.116	43.69
671.442	42.53
671.767	43.18
672.092	43.68
672.418	43.69
