Data from 0411_chest_Reflection__3__265.txt Node

Date: Fri Dec 15 18:40:37 CST 2023
User: ToomeyLab
Spectrometer: FLMS14357
Trigger mode: 0
Integration Time (sec): 1.000000E-2
Scans to average: 100
Electric dark correction enabled: true
Nonlinearity correction enabled: false
Boxcar width: 0
XAxis mode: Wavelengths
Number of Pixels in Spectrum: 2048
>>>>>Begin Spectral Data<<<<<
189.047	127.9
189.435	127.9
189.823	127.9
190.211	-122.61
190.599	-128.41
190.987	120.91
191.375	15.74
191.763	86.61
192.151	90.55
192.538	90.6
192.926	210.36
193.314	107.56
193.702	166.81
194.089	71.34
194.477	5.07
194.864	424.29
195.252	95.57
195.639	85.34
196.027	138.23
196.414	34.02
196.801	-176.69
197.189	68.91
197.576	-140.13
197.963	-114.72
198.351	-43.26
198.738	-41.03
199.125	9.37
199.512	-26.87
199.899	-20.94
200.286	15.39
200.673	-35.9
201.06	5.96
201.447	-61.55
201.833	33.27
202.22	2.16
202.607	48.31
202.994	23.32
203.38	5.03
203.767	4.72
204.154	3.84
204.54	28.97
204.927	-31.7
205.313	-40.42
205.699	37.49
206.086	40.94
206.472	-2.01
206.858	-2.27
207.245	-22.53
207.631	-7.65
208.017	-7.79
208.403	13.31
208.789	15.37
209.175	2.74
209.561	27.95
209.947	-33.73
210.333	-9.43
210.719	12.8
211.105	24.34
211.491	-30.34
211.876	-5.89
212.262	-5.13
212.648	-0.33
213.034	26.35
213.419	-2.87
213.805	12.22
214.19	-43.51
214.576	-11.02
214.961	-8.95
215.346	-115.5
215.732	19.97
216.117	18.14
216.502	-35.34
216.888	2.97
217.273	-2.45
217.658	-34.39
218.043	24.15
218.428	-32.41
218.813	-38.89
219.198	-43.34
219.583	10.09
219.968	-20.79
220.353	-5.4
220.738	28.17
221.122	2.13
221.507	-27.32
221.892	-28.42
222.276	-12.97
222.661	-3.71
223.046	2.1
223.43	13.5
223.815	15.08
224.199	-16.55
224.583	-0.95
224.968	1.63
225.352	15.13
225.736	-5.12
226.121	-20.55
226.505	3.5
226.889	4
227.273	-5.24
227.657	6.94
228.041	2.92
228.425	0.32
228.809	4.66
229.193	-0.84
229.577	-1.59
229.961	2.17
230.344	0.46
230.728	0.91
231.112	1.33
231.495	0.63
231.879	0.98
232.263	2.42
232.646	3.25
233.03	1.88
233.413	1.09
233.797	-0.71
234.18	1.46
234.563	2.01
234.946	-0.17
235.33	2.35
235.713	2.44
236.096	0.92
236.479	1.52
236.862	0.75
237.245	1.92
237.628	1.14
238.011	2.48
238.394	1.61
238.777	2.32
239.16	0.19
239.543	1.34
239.925	1.73
240.308	1.53
240.691	2.2
241.073	1.72
241.456	0.71
241.838	0.69
242.221	1.58
242.603	2.13
242.986	1.77
243.368	1.36
243.75	1.35
244.133	1.19
244.515	1.97
244.897	1.74
245.279	1.8
245.661	1.72
246.043	0.23
246.425	1.13
246.807	3.06
247.189	1.85
247.571	1.62
247.953	1.9
248.335	1.57
248.717	1.63
249.098	1.43
249.48	1.53
249.862	1.22
250.243	1.61
250.625	2
251.006	1.68
251.388	0.66
251.769	1.49
252.151	2.45
252.532	1.29
252.913	1.32
253.295	0.44
253.676	0.99
254.057	1.16
254.438	1.48
254.819	0.77
255.2	1.24
255.581	0.81
255.962	1.34
256.343	1.79
256.724	0.52
257.105	1.88
257.486	0.73
257.867	1.72
258.247	1.12
258.628	1.17
259.009	1.19
259.389	1.59
259.77	1.19
260.15	1.35
260.531	0.77
260.911	1.65
261.292	1.69
261.672	1.76
262.052	1.56
262.432	1.8
262.813	1.58
263.193	1.42
263.573	0.57
263.953	1.3
264.333	2.05
264.713	1.38
265.093	0.83
265.473	1.08
265.853	0.49
266.233	1.67
266.612	-0.12
266.992	0.24
267.372	1.28
267.752	1.34
268.131	1.45
268.511	1.8
268.89	2.11
269.27	1.31
269.649	0.76
270.029	1.6
270.408	2.03
270.787	1.73
271.167	1.63
271.546	1.85
271.925	0.65
272.304	1.49
272.683	1.95
273.062	1.7
273.441	1.33
273.82	1.14
274.199	1.83
274.578	1.4
274.957	1.69
275.336	1.3
275.715	0.93
276.093	1.44
276.472	1.61
276.851	0.36
277.229	1.1
277.608	0.2
277.986	1.34
278.365	1.33
278.743	1.11
279.122	1.37
279.5	1.26
279.878	1.52
280.257	1.39
280.635	0.5
281.013	0.72
281.391	1.47
281.769	1.54
282.147	1.67
282.525	2
282.903	1.16
283.281	1.57
283.659	1.34
284.037	1.7
284.415	1.77
284.792	1.78
285.17	0.8
285.548	1.13
285.925	1.44
286.303	1.55
286.68	1.08
287.058	1.69
287.435	1.44
287.813	1.65
288.19	1.17
288.567	1.44
288.945	2.04
289.322	1.51
289.699	1.13
290.076	1.43
290.453	1.57
290.83	1.28
291.207	1.33
291.584	1.95
291.961	1.45
292.338	1.6
292.715	1.75
293.092	1.53
293.469	1.82
293.845	1.91
294.222	1.36
294.599	2.07
294.975	1.72
295.352	1.94
295.728	0.91
296.105	1.47
296.481	2.04
296.858	1.4
297.234	1.89
297.61	1.28
297.986	1.53
298.363	1.95
298.739	1.91
299.115	1.52
299.491	1.33
299.867	1.81
300.243	1.94
300.619	1.47
300.995	1.85
301.371	1.45
301.746	1.39
302.122	2.22
302.498	1.63
302.874	2.3
303.249	1.88
303.625	1.93
304	1.81
304.376	1.67
304.751	1.78
305.127	2.56
305.502	1.32
305.878	0.97
306.253	2.13
306.628	2.2
307.003	1.45
307.378	2.25
307.754	2.02
308.129	1.4
308.504	1.93
308.879	1.66
309.254	2.72
309.629	2.85
310.003	1.68
310.378	2.17
310.753	2.16
311.128	2.23
311.502	2.27
311.877	2.36
312.252	1.79
312.626	2.14
313.001	1.87
313.375	2.19
313.75	1.63
314.124	2.09
314.498	2.16
314.873	1.61
315.247	1.68
315.621	1.98
315.995	1.15
316.369	1.8
316.743	1.69
317.117	1.99
317.491	2.14
317.865	1.87
318.239	2.07
318.613	1.79
318.987	2.18
319.361	0.95
319.734	1.65
320.108	1.94
320.482	1.9
320.855	2.38
321.229	1.61
321.602	1.68
321.976	1.71
322.349	1.75
322.723	2.16
323.096	2.17
323.469	1.69
323.843	2.25
324.216	1.9
324.589	1.77
324.962	2.1
325.335	1.83
325.708	2.23
326.081	1.77
326.454	2.06
326.827	1.96
327.2	2.24
327.573	2.4
327.945	2.09
328.318	1.39
328.691	1.28
329.063	1.97
329.436	1.83
329.809	2.27
330.181	1.84
330.553	2.2
330.926	2.45
331.298	2.31
331.671	2.51
332.043	2.27
332.415	2.34
332.787	1.94
333.159	2.51
333.532	2.1
333.904	2.33
334.276	2.11
334.648	2.03
335.02	2.3
335.391	2.05
335.763	1.6
336.135	1.87
336.507	3.27
336.879	2.43
337.25	1.85
337.622	2.23
337.993	1.97
338.365	2.64
338.736	2.7
339.108	2.54
339.479	1.95
339.851	2.19
340.222	1.66
340.593	1.93
340.964	1.75
341.336	2.49
341.707	1.95
342.078	2.18
342.449	2.24
342.82	1.93
343.191	2.43
343.562	2.43
343.933	2.14
344.303	1.9
344.674	2.28
345.045	2.77
345.416	2.61
345.786	1.94
346.157	2.56
346.527	1.64
346.898	1.5
347.268	2.07
347.639	2.13
348.009	2.14
348.38	1.88
348.75	2.17
349.12	1.99
349.49	2.41
349.861	2.13
350.231	2.04
350.601	2.41
350.971	2.23
351.341	2.73
351.711	2.23
352.081	2.21
352.45	2.18
352.82	2.3
353.19	1.88
353.56	2.34
353.929	2.29
354.299	1.92
354.669	1.84
355.038	2.92
355.408	1.91
355.777	2.18
356.147	2.15
356.516	2.4
356.885	2.3
357.254	2.36
357.624	2.41
357.993	2.38
358.362	1.93
358.731	1.94
359.1	2.27
359.469	2.11
359.838	2.51
360.207	2.11
360.576	2.07
360.945	2.07
361.314	2.63
361.682	1.7
362.051	2.15
362.42	2.25
362.788	2.33
363.157	2.26
363.525	2.46
363.894	2.38
364.262	2.36
364.631	2.39
364.999	2.59
365.367	1.91
365.735	2.59
366.104	2.65
366.472	2.18
366.84	1.79
367.208	2.37
367.576	2.29
367.944	2.6
368.312	2.24
368.68	1.91
369.048	2.54
369.416	2.38
369.783	2.01
370.151	2.48
370.519	2.66
370.886	2.61
371.254	2.02
371.621	2.77
371.989	2.32
372.356	1.97
372.724	2.56
373.091	2.16
373.458	2.42
373.826	2.28
374.193	2.21
374.56	2.23
374.927	2.48
375.294	2.67
375.661	2.12
376.028	2.17
376.395	2.19
376.762	2.58
377.129	2.48
377.496	2.33
377.863	2.69
378.229	1.95
378.596	2.14
378.963	2.43
379.329	2.35
379.696	2.46
380.062	2.41
380.429	2.3
380.795	2.21
381.161	2.5
381.528	2.69
381.894	2.06
382.26	2.28
382.626	2.43
382.993	1.99
383.359	2.75
383.725	2.17
384.091	2.5
384.457	2.55
384.823	2.17
385.188	2.27
385.554	2.38
385.92	2.58
386.286	2.65
386.651	2.61
387.017	2.49
387.383	2.45
387.748	2.19
388.114	2.56
388.479	2.48
388.845	2.4
389.21	2.45
389.575	2.73
389.94	2.53
390.306	2.38
390.671	2.63
391.036	2.25
391.401	1.98
391.766	2.22
392.131	2.57
392.496	2.7
392.861	2.32
393.226	2.58
393.591	2.65
393.956	2.37
394.32	2.44
394.685	2.24
395.05	2.46
395.414	2.6
395.779	2.23
396.143	2.44
396.508	2.6
396.872	2.51
397.236	2.72
397.601	2.12
397.965	2.7
398.329	2.47
398.694	2.74
399.058	2.68
399.422	2.32
399.786	2.48
400.15	2.45
400.514	2.44
400.878	2.51
401.242	2.74
401.605	2.84
401.969	2.59
402.333	2.46
402.697	2.46
403.06	2.77
403.424	2.48
403.787	2.21
404.151	2.73
404.514	2.55
404.878	2.63
405.241	2.95
405.604	2.48
405.968	2.6
406.331	2.58
406.694	2.87
407.057	2.6
407.42	2.79
407.783	2.35
408.146	2.62
408.509	2.47
408.872	2.6
409.235	2.71
409.598	2.8
409.961	2.71
410.323	2.69
410.686	2.64
411.049	2.35
411.411	2.47
411.774	2.56
412.136	2.67
412.499	2.57
412.861	2.66
413.223	2.6
413.586	2.76
413.948	2.49
414.31	2.56
414.672	2.5
415.035	2.43
415.397	3
415.759	2.54
416.121	2.83
416.483	2.65
416.845	2.8
417.206	2.51
417.568	2.83
417.93	2.59
418.292	2.74
418.653	2.69
419.015	2.76
419.377	2.51
419.738	2.6
420.1	2.61
420.461	2.71
420.822	2.76
421.184	2.63
421.545	2.72
421.906	2.59
422.267	2.65
422.629	2.66
422.99	2.64
423.351	2.59
423.712	2.65
424.073	2.66
424.434	2.57
424.795	2.55
425.155	2.67
425.516	2.55
425.877	2.66
426.238	2.64
426.598	2.65
426.959	2.73
427.32	2.63
427.68	2.69
428.041	2.72
428.401	2.85
428.761	2.49
429.122	3.01
429.482	2.5
429.842	2.56
430.202	2.64
430.563	2.66
430.923	2.77
431.283	2.65
431.643	2.7
432.003	2.74
432.363	2.81
432.722	2.7
433.082	2.92
433.442	2.7
433.802	2.57
434.161	2.73
434.521	2.94
434.881	2.84
435.24	2.68
435.6	2.79
435.959	2.74
436.319	2.93
436.678	2.85
437.037	2.68
437.396	2.98
437.756	2.82
438.115	2.73
438.474	2.89
438.833	2.66
439.192	2.81
439.551	2.88
439.91	2.91
440.269	3.06
440.628	2.81
440.987	2.91
441.345	2.72
441.704	2.78
442.063	2.72
442.421	2.79
442.78	2.82
443.138	2.84
443.497	2.82
443.855	2.94
444.214	2.9
444.572	2.9
444.93	2.89
445.288	2.84
445.647	2.96
446.005	2.82
446.363	2.81
446.721	2.98
447.079	2.78
447.437	2.86
447.795	2.89
448.153	2.77
448.51	2.88
448.868	2.81
449.226	2.95
449.584	2.87
449.941	2.88
450.299	2.85
450.656	2.87
451.014	2.89
451.371	2.86
451.729	2.74
452.086	3.06
452.443	2.91
452.801	3.02
453.158	2.92
453.515	2.83
453.872	3.05
454.229	2.9
454.586	2.9
454.943	2.97
455.3	3.04
455.657	2.92
456.014	3
456.371	2.9
456.727	2.98
457.084	3.1
457.441	3
457.797	2.86
458.154	3.15
458.51	2.9
458.867	3.14
459.223	3.13
459.58	3.09
459.936	2.96
460.292	3.16
460.648	3.02
461.005	2.95
461.361	2.86
461.717	3
462.073	2.98
462.429	3.04
462.785	3.03
463.141	3.07
463.496	3.08
463.852	3.25
464.208	3.09
464.564	3.17
464.919	3.13
465.275	3.21
465.631	3.16
465.986	3.13
466.342	3.07
466.697	2.99
467.052	3.14
467.408	3.12
467.763	3.21
468.118	2.98
468.473	3.1
468.829	3.19
469.184	3
469.539	3.15
469.894	3.14
470.249	3.24
470.603	3.22
470.958	3.23
471.313	3.26
471.668	3.32
472.023	3.21
472.377	3.03
472.732	3.21
473.086	3.08
473.441	3.02
473.795	3.29
474.15	3.18
474.504	3.25
474.859	3.27
475.213	3.23
475.567	3.08
475.921	3.17
476.275	3.24
476.63	3.26
476.984	3.34
477.338	3.37
477.692	3.18
478.045	3.25
478.399	2.97
478.753	3.17
479.107	3.17
479.461	3.23
479.814	3.27
480.168	3.12
480.521	3.18
480.875	3.15
481.228	3.2
481.582	3.33
481.935	3.26
482.289	3.39
482.642	3.29
482.995	3.22
483.348	3.18
483.701	3.24
484.055	3.25
484.408	3.22
484.761	3.18
485.114	3.17
485.466	3.05
485.819	3.05
486.172	3.05
486.525	3.12
486.878	3.18
487.23	3.18
487.583	3.2
487.936	3.24
488.288	3.22
488.641	3.25
488.993	3.13
489.345	3.1
489.698	3.1
490.05	3.18
490.402	3.21
490.754	3.25
491.107	3.27
491.459	3.36
491.811	3.32
492.163	3.37
492.515	3.28
492.866	3.31
493.218	3.24
493.57	3.19
493.922	3.23
494.274	3.36
494.625	3.35
494.977	3.36
495.328	3.41
495.68	3.45
496.031	3.53
496.383	3.53
496.734	3.67
497.086	3.47
497.437	3.53
497.788	3.42
498.139	3.45
498.49	3.52
498.842	3.39
499.193	3.43
499.544	3.41
499.894	3.48
500.245	3.56
500.596	3.48
500.947	3.55
501.298	3.47
501.648	3.54
501.999	3.71
502.35	3.72
502.7	3.46
503.051	3.48
503.401	3.54
503.752	3.71
504.102	3.52
504.452	3.7
504.803	3.56
505.153	3.56
505.503	3.62
505.853	3.7
506.203	3.5
506.553	3.58
506.903	3.51
507.253	3.58
507.603	3.54
507.953	3.69
508.303	3.77
508.652	3.57
509.002	3.67
509.352	3.71
509.701	3.52
510.051	3.57
510.4	3.58
510.75	3.78
511.099	3.76
511.449	3.71
511.798	3.73
512.147	3.62
512.496	3.65
512.846	3.63
513.195	3.75
513.544	3.68
513.893	3.82
514.242	3.71
514.591	3.87
514.939	3.69
515.288	3.64
515.637	3.93
515.986	3.81
516.334	3.79
516.683	3.93
517.032	3.81
517.38	3.94
517.729	3.86
518.077	3.82
518.426	3.89
518.774	3.87
519.122	3.9
519.47	3.83
519.819	3.65
520.167	3.82
520.515	3.79
520.863	3.88
521.211	3.82
521.559	3.98
521.907	3.86
522.255	3.94
522.602	3.93
522.95	4.01
523.298	4.04
523.645	4.07
523.993	4.04
524.341	4.16
524.688	4.08
525.036	3.95
525.383	4.06
525.73	4.16
526.078	4.05
526.425	4.01
526.772	4.11
527.119	4.09
527.466	4.01
527.814	4.03
528.161	4.04
528.508	4.15
528.854	4.07
529.201	4.04
529.548	3.92
529.895	4
530.242	3.95
530.588	3.95
530.935	3.99
531.282	4.05
531.628	4.09
531.975	4.04
532.321	4.14
532.667	4.17
533.014	4.22
533.36	4.23
533.706	4.14
534.052	4.18
534.399	4.19
534.745	4.14
535.091	4.14
535.437	4.23
535.783	4.21
536.129	4.24
536.474	4.3
536.82	4.28
537.166	4.42
537.512	4.35
537.857	4.41
538.203	4.44
538.549	4.35
538.894	4.32
539.239	4.44
539.585	4.46
539.93	4.42
540.276	4.55
540.621	4.59
540.966	4.62
541.311	4.58
541.656	4.58
542.001	4.48
542.346	4.65
542.691	4.45
543.036	4.43
543.381	4.35
543.726	4.37
544.071	4.57
544.415	4.6
544.76	4.51
545.105	4.63
545.449	4.64
545.794	4.68
546.138	4.62
546.483	4.65
546.827	4.73
547.171	4.68
547.516	4.77
547.86	4.71
548.204	4.66
548.548	4.7
548.892	4.82
549.236	4.72
549.58	4.67
549.924	4.92
550.268	4.89
550.612	4.91
550.956	5.09
551.3	4.76
551.643	5.07
551.987	5.08
552.33	5.14
552.674	5.18
553.017	5.07
553.361	4.85
553.704	5.18
554.048	4.96
554.391	5.08
554.734	4.95
555.077	5.07
555.42	5.01
555.764	5.08
556.107	5.23
556.45	5.1
556.793	5.17
557.135	5.24
557.478	5.4
557.821	5.36
558.164	5.29
558.507	5.28
558.849	5.2
559.192	5.34
559.534	5.35
559.877	5.48
560.219	5.32
560.562	5.53
560.904	5.39
561.246	5.42
561.589	5.53
561.931	5.37
562.273	5.19
562.615	5.53
562.957	5.5
563.299	5.28
563.641	5.46
563.983	5.64
564.325	5.44
564.667	5.6
565.008	5.68
565.35	5.77
565.692	5.43
566.033	5.6
566.375	5.75
566.716	5.79
567.058	5.76
567.399	5.55
567.741	5.51
568.082	5.72
568.423	5.66
568.764	5.69
569.105	5.88
569.447	5.86
569.788	5.67
570.129	6.02
570.47	6.02
570.811	6
571.151	5.95
571.492	5.91
571.833	5.93
572.174	6.04
572.514	6.17
572.855	6.12
573.195	5.82
573.536	6.05
573.876	5.9
574.217	6.06
574.557	6.19
574.898	6.23
575.238	6.11
575.578	6.11
575.918	6.31
576.258	6.38
576.598	6.02
576.938	6.21
577.278	6.2
577.618	6.16
577.958	6.13
578.298	6.29
578.638	6.27
578.977	6.17
579.317	6.41
579.657	6.31
579.996	6.58
580.336	6.54
580.675	6.48
581.014	6.64
581.354	6.7
581.693	6.49
582.032	6.37
582.372	6.33
582.711	6.39
583.05	6.6
583.389	6.64
583.728	6.72
584.067	6.82
584.406	6.76
584.745	6.82
585.083	6.89
585.422	6.81
585.761	6.86
586.1	6.89
586.438	6.95
586.777	7.11
587.115	6.9
587.454	6.93
587.792	6.9
588.13	6.95
588.469	6.93
588.807	7.07
589.145	6.66
589.483	6.91
589.821	6.99
590.159	7.23
590.497	7.44
590.835	7.32
591.173	7
591.511	7.45
591.849	7.36
592.187	7.39
592.524	7.25
592.862	7.4
593.2	7.45
593.537	7.23
593.875	7.32
594.212	7.24
594.55	7.31
594.887	7.49
595.224	7.62
595.561	7.35
595.899	7.53
596.236	7.42
596.573	7.65
596.91	7.23
597.247	7.38
597.584	7.99
597.921	7.53
598.258	7.36
598.594	7.63
598.931	7.44
599.268	7.58
599.604	7.59
599.941	7.73
600.277	7.76
600.614	7.67
600.95	7.52
601.287	8.01
601.623	7.8
601.959	7.89
602.296	7.86
602.632	8.03
602.968	7.95
603.304	7.97
603.64	8.13
603.976	8.09
604.312	7.92
604.648	7.89
604.984	8.1
605.319	8.11
605.655	8.22
605.991	8.08
606.326	8.12
606.662	8.09
606.998	8.21
607.333	8.22
607.668	8.02
608.004	8.24
608.339	8.47
608.674	8.22
609.01	8.29
609.345	8.06
609.68	8.54
610.015	8.23
610.35	8.24
610.685	8.25
611.02	8.55
611.355	8.5
611.689	8.49
612.024	8.73
612.359	8.6
612.694	8.42
613.028	8.49
613.363	8.85
613.697	8.7
614.032	8.72
614.366	8.7
614.7	8.71
615.035	8.74
615.369	8.83
615.703	8.91
616.037	9.02
616.371	8.24
616.705	8.76
617.039	9.05
617.373	8.86
617.707	8.67
618.041	8.9
618.375	9.34
618.709	9.08
619.042	8.48
619.376	9.16
619.71	9.31
620.043	8.97
620.377	8.92
620.71	9.5
621.043	9.24
621.377	8.92
621.71	9.28
622.043	9.03
622.376	9
622.709	9.22
623.043	9.45
623.376	9.53
623.709	9.1
624.041	9.69
624.374	9.49
624.707	9.21
625.04	9.64
625.373	9.37
625.705	9.56
626.038	9.29
626.37	9.54
626.703	9.33
627.035	9.73
627.368	10.02
627.7	9.6
628.032	9.9
628.365	9.83
628.697	9.92
629.029	9.68
629.361	9.42
629.693	9.89
630.025	9.49
630.357	9.98
630.689	9.74
631.021	9.7
631.353	9.85
631.684	9.76
632.016	9.87
632.348	10.41
632.679	10.51
633.011	10.16
633.342	9.88
633.674	9.76
634.005	10.17
634.336	10.08
634.668	10.77
634.999	9.94
635.33	10.53
635.661	10.62
635.992	10.06
636.323	10.66
636.654	10.17
636.985	10.42
637.316	10.26
637.647	10.01
637.977	10.33
638.308	10.63
638.639	10.1
638.969	10.02
639.3	10.03
639.63	10.05
639.961	10.47
640.291	10.73
640.622	10.72
640.952	10.22
641.282	11.29
641.612	10.92
641.943	10.6
642.273	10.58
642.603	11.51
642.933	10.77
643.263	11.17
643.592	10.78
643.922	10.33
644.252	10.92
644.582	11.09
644.911	10.86
645.241	10.63
645.571	10.82
645.9	10.71
646.23	10.91
646.559	11.01
646.888	10.38
647.218	10.16
647.547	11.18
647.876	10.97
648.205	11.01
648.534	10.46
648.863	10.67
649.192	11.42
649.521	11.35
649.85	10.66
650.179	11.28
650.508	10.95
650.837	10.97
651.165	11.02
651.494	10.98
651.822	10.86
652.151	11.53
652.479	11.19
652.808	11.3
653.136	11.51
653.465	10.77
653.793	11.56
654.121	11.18
654.449	11.87
654.777	11.87
655.105	11.65
655.433	11.17
655.761	11.23
656.089	12.04
656.417	11.69
656.745	11.59
657.073	11.85
657.4	12.2
657.728	12.07
658.056	11.73
658.383	11.57
658.711	11.78
659.038	11.46
659.365	11.78
659.693	11.34
660.02	11.99
660.347	11.91
660.674	12.09
661.001	12.36
661.329	11.37
661.656	11.9
661.982	11.99
662.309	11.91
662.636	11.84
662.963	12.46
663.29	12.28
663.616	12.22
663.943	11.41
664.27	12.07
664.596	11.96
664.923	12.08
665.249	12.01
665.576	12.24
665.902	12.69
666.228	12.23
666.554	12.69
666.881	11.82
667.207	12.1
667.533	12.83
667.859	12.61
668.185	12.61
668.511	11.97
668.837	11.57
669.162	12.45
669.488	12.04
669.814	12.61
670.139	12.77
670.465	12.55
670.791	12.68
671.116	13.05
671.442	12.71
671.767	12.98
672.092	12.97
672.418	12.71
672.743	12.89
673.068	11.87
673.393	12.81
673.718	13.07
674.043	13.14
674.368	12.88
674.693	13.75
675.018	12.58
675.343	12.44
675.667	13.22
675.992	12.78
676.317	13.69
676.641	13.58
676.966	13.38
677.29	13.06
677.615	12.94
677.939	13.04
678.264	12.94
678.588	13.64
678.912	13.11
679.236	13.86
679.56	13.01
679.885	13.73
680.209	13.33
680.532	13.13
680.856	13.72
681.18	13
681.504	13.09
681.828	13.51
682.152	12.76
682.475	13.31
682.799	13.56
683.122	13.76
683.446	13
683.769	13.87
684.093	13.2
684.416	13.65
684.739	13
685.062	13.23
685.386	13.63
685.709	12.93
686.032	13.82
686.355	14.2
686.678	14
687.001	13.93
687.324	14.19
687.646	13.52
687.969	13.21
688.292	13.51
