Data from 0411_chest_Reflection__2__264.txt Node

Date: Fri Dec 15 18:40:28 CST 2023
User: ToomeyLab
Spectrometer: FLMS14357
Trigger mode: 0
Integration Time (sec): 1.000000E-2
Scans to average: 100
Electric dark correction enabled: true
Nonlinearity correction enabled: false
Boxcar width: 0
XAxis mode: Wavelengths
Number of Pixels in Spectrum: 2048
>>>>>Begin Spectral Data<<<<<
189.047	28.79
189.435	28.79
189.823	28.79
190.211	-137.92
190.599	385.8
190.987	60.45
191.375	24.14
191.763	494.91
192.151	57.25
192.538	174.02
192.926	-19.96
193.314	388.45
193.702	268.77
194.089	232.15
194.477	-28.87
194.864	-134.35
195.252	97.22
195.639	79.25
196.027	75.78
196.414	28.8
196.801	-713.89
197.189	471.79
197.576	124.82
197.963	-234.91
198.351	-64.34
198.738	-37.78
199.125	62.24
199.512	-3.67
199.899	-18.46
200.286	20.67
200.673	9.57
201.06	-27.69
201.447	-15.55
201.833	35.06
202.22	31.91
202.607	9.35
202.994	-22.66
203.38	23.2
203.767	36.79
204.154	22.55
204.54	10.71
204.927	-30.29
205.313	-71.22
205.699	32.68
206.086	22.05
206.472	11.25
206.858	17.23
207.245	-12.24
207.631	1.13
208.017	13.12
208.403	-24.91
208.789	24.1
209.175	49.1
209.561	-5.22
209.947	-8.52
210.333	-22.9
210.719	8.02
211.105	-1.17
211.491	-62.24
211.876	-8.64
212.262	-38.58
212.648	3.06
213.034	17.82
213.419	-1.99
213.805	-54.83
214.19	-4.2
214.576	-21.51
214.961	-41.15
215.346	-84.49
215.732	-21.05
216.117	-2.92
216.502	-8.09
216.888	-17.11
217.273	17.27
217.658	-19.87
218.043	38.65
218.428	-17.25
218.813	-46.34
219.198	-48.3
219.583	-8.52
219.968	2.11
220.353	-7.47
220.738	11.78
221.122	42.15
221.507	-34.84
221.892	-24.07
222.276	-12.46
222.661	2.18
223.046	7.52
223.43	27.07
223.815	0.53
224.199	-9.26
224.583	6.25
224.968	8.58
225.352	8.89
225.736	-1.74
226.121	-10.53
226.505	-2.36
226.889	7.47
227.273	-1.29
227.657	5.22
228.041	-0.06
228.425	0.69
228.809	2.19
229.193	3.91
229.577	4.38
229.961	3.5
230.344	3.79
230.728	2.87
231.112	3.63
231.495	3.82
231.879	2.03
232.263	4.33
232.646	4.61
233.03	3.83
233.413	2.47
233.797	4.96
234.18	2.33
234.563	2.8
234.946	2.06
235.33	4.65
235.713	3.3
236.096	4.61
236.479	5.23
236.862	2.27
237.245	6.95
237.628	4.45
238.011	4.76
238.394	3.13
238.777	4.69
239.16	3.46
239.543	3.48
239.925	3.7
240.308	2.58
240.691	5.29
241.073	3.69
241.456	3.42
241.838	2.92
242.221	3.47
242.603	5.1
242.986	4.79
243.368	4.05
243.75	4.44
244.133	4.26
244.515	4.55
244.897	3.95
245.279	4.11
245.661	3.28
246.043	3.45
246.425	2.97
246.807	5.19
247.189	5.58
247.571	3.63
247.953	4.52
248.335	4.2
248.717	4.09
249.098	3.77
249.48	4.11
249.862	4.16
250.243	4.3
250.625	3.81
251.006	4.24
251.388	3.39
251.769	3.71
252.151	3.89
252.532	3.83
252.913	4.02
253.295	2.71
253.676	3.37
254.057	4.04
254.438	3.83
254.819	3.14
255.2	3.66
255.581	2.72
255.962	2.89
256.343	3.36
256.724	2.6
257.105	3.78
257.486	4.52
257.867	3.56
258.247	4.2
258.628	3.36
259.009	3.87
259.389	3.28
259.77	3.76
260.15	2.68
260.531	2.96
260.911	3.88
261.292	3.64
261.672	3.93
262.052	3.74
262.432	4.09
262.813	3.53
263.193	3.9
263.573	3.27
263.953	3.75
264.333	4.42
264.713	3.33
265.093	3.24
265.473	3.85
265.853	1.66
266.233	4.56
266.612	2.25
266.992	3.31
267.372	3.84
267.752	3.89
268.131	3.98
268.511	4.66
268.89	4.22
269.27	3.53
269.649	3.3
270.029	2.93
270.408	4.68
270.787	4.42
271.167	4.25
271.546	4.09
271.925	3.27
272.304	3.72
272.683	4.46
273.062	3.62
273.441	3.8
273.82	3.3
274.199	3.37
274.578	3.76
274.957	3.2
275.336	3.46
275.715	3.09
276.093	2.9
276.472	3.36
276.851	3.83
277.229	3.21
277.608	3.23
277.986	3.02
278.365	3.78
278.743	2.32
279.122	2.9
279.5	3.2
279.878	3.74
280.257	2.8
280.635	3.07
281.013	3.75
281.391	3.75
281.769	3.66
282.147	3.47
282.525	3.61
282.903	3.48
283.281	3.69
283.659	3.25
284.037	3.54
284.415	3.66
284.792	3.91
285.17	2.78
285.548	3.14
285.925	3.73
286.303	3.4
286.68	3.19
287.058	3.7
287.435	3.53
287.813	3.54
288.19	3.27
288.567	3.45
288.945	3.59
289.322	3.3
289.699	3.74
290.076	3.5
290.453	2.86
290.83	3.4
291.207	3.49
291.584	3.83
291.961	4.07
292.338	3.57
292.715	3.8
293.092	3.77
293.469	3.58
293.845	3.95
294.222	2.82
294.599	3.08
294.975	3.33
295.352	4.01
295.728	3.15
296.105	3.97
296.481	3.87
296.858	3.3
297.234	3.59
297.61	3.4
297.986	3.61
298.363	3.65
298.739	3.65
299.115	3.46
299.491	3.51
299.867	3.5
300.243	3.82
300.619	3.4
300.995	3.66
301.371	3.57
301.746	2.93
302.122	3.84
302.498	3.86
302.874	3.58
303.249	3.74
303.625	3.27
304	4.08
304.376	3.35
304.751	2.96
305.127	4.08
305.502	3.4
305.878	3.2
306.253	3.72
306.628	4.49
307.003	3.87
307.378	3.56
307.754	3.47
308.129	2.82
308.504	3.68
308.879	3.29
309.254	4.32
309.629	4.21
310.003	3.69
310.378	4.29
310.753	3.66
311.128	3.99
311.502	3.96
311.877	3.73
312.252	3.53
312.626	3.64
313.001	3.63
313.375	3.98
313.75	3.68
314.124	3.98
314.498	3.33
314.873	3.66
315.247	3.35
315.621	4.15
315.995	3.11
316.369	3.26
316.743	4.13
317.117	3.62
317.491	3.78
317.865	3.79
318.239	4.07
318.613	3.66
318.987	3.92
319.361	3.73
319.734	4.09
320.108	3.71
320.482	3.16
320.855	3.65
321.229	3.07
321.602	3.71
321.976	4.06
322.349	3.4
322.723	3.98
323.096	4.06
323.469	3.07
323.843	3.76
324.216	3.99
324.589	3.69
324.962	3.61
325.335	3.96
325.708	3.6
326.081	3.45
326.454	3.99
326.827	3.72
327.2	3.83
327.573	4.27
327.945	3.71
328.318	3.59
328.691	3.6
329.063	3.75
329.436	3.63
329.809	4.41
330.181	4.19
330.553	3.52
330.926	3.59
331.298	4.04
331.671	3.61
332.043	4.43
332.415	3.92
332.787	3.29
333.159	4.2
333.532	4.18
333.904	3.78
334.276	3.89
334.648	4.21
335.02	3.91
335.391	3.21
335.763	3.67
336.135	3.95
336.507	4.03
336.879	3.56
337.25	2.99
337.622	3.98
337.993	3.96
338.365	3.71
338.736	4.26
339.108	3.75
339.479	4
339.851	3.87
340.222	3.73
340.593	3.45
340.964	3.29
341.336	4.48
341.707	3.54
342.078	4.4
342.449	3.86
342.82	3.53
343.191	3.61
343.562	3.85
343.933	4.11
344.303	3.65
344.674	3.73
345.045	3.94
345.416	4.2
345.786	3.49
346.157	3.86
346.527	3.31
346.898	3.58
347.268	4.08
347.639	4
348.009	3.91
348.38	3.81
348.75	3.74
349.12	3.74
349.49	3.83
349.861	3.85
350.231	3.46
350.601	4.11
350.971	3.93
351.341	4.12
351.711	4.19
352.081	4.09
352.45	3.85
352.82	4.11
353.19	3.35
353.56	3.28
353.929	3.77
354.299	3.78
354.669	3.47
355.038	4.1
355.408	3.73
355.777	3.51
356.147	3.27
356.516	3.8
356.885	3.94
357.254	3.9
357.624	4.28
357.993	3.82
358.362	3.54
358.731	3.54
359.1	3.73
359.469	3.87
359.838	3.88
360.207	3.53
360.576	3.94
360.945	4.06
361.314	4.28
361.682	3.99
362.051	3.68
362.42	4.18
362.788	3.81
363.157	4.11
363.525	4.27
363.894	4.12
364.262	4.09
364.631	3.74
364.999	3.9
365.367	3.51
365.735	4.66
366.104	4.09
366.472	4.23
366.84	3.76
367.208	3.94
367.576	4.24
367.944	4.06
368.312	3.82
368.68	3.55
369.048	4.1
369.416	3.8
369.783	3.49
370.151	4.31
370.519	4.27
370.886	3.99
371.254	3.74
371.621	4.05
371.989	3.91
372.356	3.52
372.724	3.78
373.091	3.97
373.458	3.67
373.826	4.04
374.193	3.78
374.56	4.29
374.927	4.08
375.294	4.06
375.661	3.72
376.028	3.88
376.395	3.95
376.762	4.03
377.129	3.93
377.496	4.12
377.863	3.87
378.229	3.8
378.596	4
378.963	3.93
379.329	3.62
379.696	4.14
380.062	4.33
380.429	3.72
380.795	3.82
381.161	4.22
381.528	4.34
381.894	3.89
382.26	3.85
382.626	4.18
382.993	3.83
383.359	4.21
383.725	3.82
384.091	3.88
384.457	4.2
384.823	3.87
385.188	4.16
385.554	4.13
385.92	4.39
386.286	4.12
386.651	3.99
387.017	4.11
387.383	4.34
387.748	3.79
388.114	4.44
388.479	3.86
388.845	4.4
389.21	4.38
389.575	4.5
389.94	4.32
390.306	4.24
390.671	4.39
391.036	3.46
391.401	3.94
391.766	4.11
392.131	4.03
392.496	4.26
392.861	3.98
393.226	4.24
393.591	4.27
393.956	4.07
394.32	4.12
394.685	4.07
395.05	3.99
395.414	4.13
395.779	3.95
396.143	4.05
396.508	3.96
396.872	3.96
397.236	4.21
397.601	4.15
397.965	4.02
398.329	3.99
398.694	4.18
399.058	4.06
399.422	4.04
399.786	4.35
400.15	4.21
400.514	4.21
400.878	4.3
401.242	4.51
401.605	4.27
401.969	4.16
402.333	4.38
402.697	4.3
403.06	4.19
403.424	4.04
403.787	4.22
404.151	4.23
404.514	4.31
404.878	4.11
405.241	4.37
405.604	4.51
405.968	4.35
406.331	4.31
406.694	4.4
407.057	4.26
407.42	4.3
407.783	3.89
408.146	4.42
408.509	4.33
408.872	4.04
409.235	4.33
409.598	4.58
409.961	4.27
410.323	4.49
410.686	4.32
411.049	4.17
411.411	4.11
411.774	4.34
412.136	4.24
412.499	4.09
412.861	4.35
413.223	4.1
413.586	4.35
413.948	4.22
414.31	4.37
414.672	4.44
415.035	4.17
415.397	4.69
415.759	4.07
416.121	4.41
416.483	4.11
416.845	4.49
417.206	4.25
417.568	4.39
417.93	4.21
418.292	4.26
418.653	4.31
419.015	4.46
419.377	4.33
419.738	4.47
420.1	4.28
420.461	4.4
420.822	4.4
421.184	4.35
421.545	4.31
421.906	4.21
422.267	4.24
422.629	4.18
422.99	4.22
423.351	4.21
423.712	4.31
424.073	4.23
424.434	4.15
424.795	4.23
425.155	4.29
425.516	4.27
425.877	4.21
426.238	4.24
426.598	4.4
426.959	4.25
427.32	4.21
427.68	4.26
428.041	4.35
428.401	4.28
428.761	4.25
429.122	4.42
429.482	4.28
429.842	4.42
430.202	4.47
430.563	4.52
430.923	4.2
431.283	4.48
431.643	4.37
432.003	4.46
432.363	4.42
432.722	4.51
433.082	4.57
433.442	4.36
433.802	4.12
434.161	4.19
434.521	4.57
434.881	4.52
435.24	4.33
435.6	4.49
435.959	4.32
436.319	4.36
436.678	4.42
437.037	4.4
437.396	4.5
437.756	4.47
438.115	4.39
438.474	4.47
438.833	4.23
439.192	4.38
439.551	4.59
439.91	4.47
440.269	4.42
440.628	4.28
440.987	4.52
441.345	4.31
441.704	4.29
442.063	4.38
442.421	4.41
442.78	4.42
443.138	4.37
443.497	4.53
443.855	4.43
444.214	4.5
444.572	4.58
444.93	4.45
445.288	4.58
445.647	4.53
446.005	4.37
446.363	4.54
446.721	4.58
447.079	4.23
447.437	4.41
447.795	4.61
448.153	4.33
448.51	4.47
448.868	4.41
449.226	4.41
449.584	4.51
449.941	4.54
450.299	4.41
450.656	4.55
451.014	4.51
451.371	4.57
451.729	4.44
452.086	4.69
452.443	4.66
452.801	4.77
453.158	4.59
453.515	4.54
453.872	4.69
454.229	4.55
454.586	4.41
454.943	4.66
455.3	4.65
455.657	4.5
456.014	4.45
456.371	4.49
456.727	4.55
457.084	4.83
457.441	4.41
457.797	4.54
458.154	4.71
458.51	4.73
458.867	4.66
459.223	4.7
459.58	4.65
459.936	4.72
460.292	4.69
460.648	4.67
461.005	4.46
461.361	4.65
461.717	4.64
462.073	4.52
462.429	4.55
462.785	4.68
463.141	4.52
463.496	4.72
463.852	4.73
464.208	4.62
464.564	4.81
464.919	4.63
465.275	4.69
465.631	4.91
465.986	4.53
466.342	4.72
466.697	4.65
467.052	4.83
467.408	4.69
467.763	4.7
468.118	4.67
468.473	4.57
468.829	4.69
469.184	4.64
469.539	4.75
469.894	4.79
470.249	4.92
470.603	4.72
470.958	4.76
471.313	5.04
471.668	4.91
472.023	4.77
472.377	4.63
472.732	4.79
473.086	4.65
473.441	4.63
473.795	5.03
474.15	4.81
474.504	4.91
474.859	4.84
475.213	4.62
475.567	4.91
475.921	4.79
476.275	4.8
476.63	4.73
476.984	4.99
477.338	4.87
477.692	4.66
478.045	4.74
478.399	4.66
478.753	4.84
479.107	4.92
479.461	4.9
479.814	4.75
480.168	4.67
480.521	4.78
480.875	4.84
481.228	4.9
481.582	4.8
481.935	4.77
482.289	4.89
482.642	4.75
482.995	4.78
483.348	4.63
483.701	4.75
484.055	4.79
484.408	4.87
484.761	4.67
485.114	4.71
485.466	4.58
485.819	4.62
486.172	4.57
486.525	4.6
486.878	4.68
487.23	4.71
487.583	4.76
487.936	4.76
488.288	4.71
488.641	4.8
488.993	4.71
489.345	4.68
489.698	4.65
490.05	4.65
490.402	4.8
490.754	4.71
491.107	4.83
491.459	4.88
491.811	4.93
492.163	4.91
492.515	4.85
492.866	4.9
493.218	4.8
493.57	4.77
493.922	4.78
494.274	4.9
494.625	4.9
494.977	4.93
495.328	4.92
495.68	5.08
496.031	5.07
496.383	4.99
496.734	5.05
497.086	5.1
497.437	5.02
497.788	5.11
498.139	5.04
498.49	5.08
498.842	4.81
499.193	5.03
499.544	5.11
499.894	5.05
500.245	5.08
500.596	5.02
500.947	5.08
501.298	5.08
501.648	5.16
501.999	5.23
502.35	5.11
502.7	5.11
503.051	5.01
503.401	5.07
503.752	5.22
504.102	5.23
504.452	5.21
504.803	5.17
505.153	5.15
505.503	5.24
505.853	5.21
506.203	5.16
506.553	5.17
506.903	5.04
507.253	5.17
507.603	5.16
507.953	5.24
508.303	5.36
508.652	5.27
509.002	5.24
509.352	5.42
509.701	5.21
510.051	5.18
510.4	5.24
510.75	5.29
511.099	5.3
511.449	5.21
511.798	5.33
512.147	5.31
512.496	5.23
512.846	5.27
513.195	5.22
513.544	5.23
513.893	5.42
514.242	5.29
514.591	5.39
514.939	5.35
515.288	5.39
515.637	5.43
515.986	5.34
516.334	5.39
516.683	5.43
517.032	5.38
517.38	5.44
517.729	5.56
518.077	5.43
518.426	5.47
518.774	5.53
519.122	5.44
519.47	5.33
519.819	5.3
520.167	5.39
520.515	5.47
520.863	5.39
521.211	5.45
521.559	5.47
521.907	5.47
522.255	5.48
522.602	5.52
522.95	5.63
523.298	5.57
523.645	5.51
523.993	5.65
524.341	5.66
524.688	5.64
525.036	5.53
525.383	5.78
525.73	5.84
526.078	5.65
526.425	5.57
526.772	5.64
527.119	5.64
527.466	5.54
527.814	5.63
528.161	5.6
528.508	5.74
528.854	5.6
529.201	5.49
529.548	5.61
529.895	5.56
530.242	5.5
530.588	5.45
530.935	5.53
531.282	5.57
531.628	5.56
531.975	5.63
532.321	5.74
532.667	5.77
533.014	5.81
533.36	5.75
533.706	5.8
534.052	5.81
534.399	5.72
534.745	5.66
535.091	5.67
535.437	5.78
535.783	5.86
536.129	5.86
536.474	5.9
536.82	5.91
537.166	5.92
537.512	5.85
537.857	6
538.203	6
538.549	5.98
538.894	5.9
539.239	5.95
539.585	6.07
539.93	6.04
540.276	6.17
540.621	6.06
540.966	6.13
541.311	6
541.656	5.97
542.001	6.12
542.346	6.2
542.691	6.13
543.036	6.08
543.381	5.95
543.726	6.03
544.071	6.07
544.415	6.07
544.76	6.03
545.105	6.21
545.449	6.19
545.794	6.31
546.138	6.24
546.483	6.28
546.827	6.37
547.171	6.44
547.516	6.52
547.86	6.42
548.204	6.28
548.548	6.36
548.892	6.43
549.236	6.4
549.58	6.44
549.924	6.45
550.268	6.58
550.612	6.62
550.956	6.81
551.3	6.46
551.643	6.76
551.987	6.81
552.33	6.68
552.674	6.63
553.017	6.73
553.361	6.62
553.704	6.95
554.048	6.6
554.391	6.71
554.734	6.65
555.077	6.87
555.42	6.75
555.764	6.71
556.107	6.79
556.45	6.72
556.793	6.9
557.135	7.14
557.478	7.08
557.821	7.17
558.164	6.97
558.507	6.93
558.849	6.95
559.192	7.04
559.534	6.94
559.877	7.1
560.219	7.01
560.562	7.26
560.904	7.24
561.246	7.27
561.589	7.19
561.931	7.16
562.273	7.21
562.615	7.38
562.957	7.35
563.299	7.24
563.641	7.4
563.983	7.29
564.325	7.27
564.667	7.33
565.008	7.38
565.35	7.34
565.692	7.29
566.033	7.32
566.375	7.67
566.716	7.74
567.058	7.32
567.399	7.53
567.741	7.35
568.082	7.49
568.423	7.66
568.764	7.53
569.105	7.7
569.447	7.65
569.788	7.54
570.129	7.61
570.47	7.46
570.811	7.77
571.151	7.79
571.492	7.72
571.833	7.86
572.174	7.81
572.514	7.86
572.855	7.93
573.195	7.76
573.536	7.81
573.876	7.8
574.217	7.73
574.557	7.92
574.898	8
575.238	8.04
575.578	7.86
575.918	8.18
576.258	8.06
576.598	8.16
576.938	7.92
577.278	7.99
577.618	8.21
577.958	8.18
578.298	8.26
578.638	8.22
578.977	8.14
579.317	8.22
579.657	8.36
579.996	8.4
580.336	8.28
580.675	8.35
581.014	8.54
581.354	8.47
581.693	8.84
582.032	8.39
582.372	8.51
582.711	8.64
583.05	8.52
583.389	8.51
583.728	8.7
584.067	8.72
584.406	8.81
584.745	8.78
585.083	8.76
585.422	8.8
585.761	8.76
586.1	8.94
586.438	9
586.777	9.18
587.115	8.96
587.454	8.87
587.792	8.82
588.13	9.36
588.469	8.88
588.807	9.02
589.145	9.01
589.483	9.13
589.821	8.86
590.159	9.12
590.497	9.38
590.835	9.53
591.173	9.23
591.511	9.36
591.849	9.25
592.187	9.37
592.524	9.35
592.862	9.3
593.2	9.53
593.537	9.34
593.875	9.37
594.212	9.21
594.55	9.47
594.887	9.84
595.224	9.42
595.561	9.63
595.899	9.58
596.236	9.42
596.573	9.79
596.91	9.4
597.247	9.45
597.584	10.02
597.921	9.6
598.258	9.68
598.594	9.83
598.931	9.72
599.268	9.79
599.604	9.67
599.941	9.91
600.277	9.87
600.614	10.03
600.95	9.88
601.287	10.1
601.623	9.9
601.959	9.88
602.296	10.1
602.632	10.12
602.968	10.14
603.304	10.09
603.64	10.23
603.976	10.26
604.312	10.15
604.648	10.3
604.984	10.53
605.319	10.51
605.655	10.42
605.991	10.34
606.326	10.63
606.662	10.47
606.998	10.45
607.333	10.45
607.668	10.45
608.004	10.56
608.339	10.78
608.674	10.89
609.01	10.39
609.345	10.22
609.68	11.07
610.015	10.63
610.35	10.78
610.685	10.74
611.02	10.9
611.355	11.1
611.689	10.83
612.024	10.78
612.359	10.89
612.694	10.98
613.028	11.12
613.363	11.13
613.697	11.39
614.032	11.38
614.366	11.03
614.7	11.07
615.035	11.16
615.369	10.86
615.703	11.11
616.037	11.39
616.371	11.46
616.705	11.13
617.039	11.27
617.373	11.45
617.707	11.33
618.041	11.39
618.375	11.2
618.709	11.69
619.042	11.55
619.376	11.57
619.71	11.81
620.043	11.82
620.377	11.76
620.71	11.72
621.043	11.65
621.377	11.7
621.71	11.92
622.043	11.64
622.376	11.77
622.709	12.23
623.043	12.06
623.376	12.26
623.709	11.83
624.041	12.66
624.374	12.07
624.707	11.95
625.04	12.31
625.373	12.03
625.705	12.16
626.038	12.7
626.37	12.43
626.703	12.26
627.035	12.36
627.368	12.41
627.7	12.63
628.032	12.24
628.365	12.34
628.697	12.53
629.029	12.46
629.361	12.51
629.693	12.64
630.025	12.45
630.357	12.98
630.689	12.88
631.021	12.68
631.353	12.71
631.684	12.61
632.016	12.62
632.348	13
632.679	12.71
633.011	12.83
633.342	13.09
633.674	12.99
634.005	13.17
634.336	13.17
634.668	13.43
634.999	13.07
635.33	13.44
635.661	13.45
635.992	13.08
636.323	13.33
636.654	13.54
636.985	13.29
637.316	13.54
637.647	13.07
637.977	13.39
638.308	13.75
638.639	13.07
638.969	13.62
639.3	13.24
639.63	13.27
639.961	13.5
640.291	13.84
640.622	13.98
640.952	13.31
641.282	13.92
641.612	13.49
641.943	13.77
642.273	14.45
642.603	14.28
642.933	14.04
643.263	13.99
643.592	13.54
643.922	13.56
644.252	13.47
644.582	13.98
644.911	13.77
645.241	14.02
645.571	13.91
645.9	13.8
646.23	14.04
646.559	14.58
646.888	13.63
647.218	14.01
647.547	14.08
647.876	13.94
648.205	14.45
648.534	14.06
648.863	13.87
649.192	14.4
649.521	14.48
649.85	14.08
650.179	15.07
650.508	14.1
650.837	13.71
651.165	14.26
651.494	14.65
651.822	14.21
652.151	14.19
652.479	14.76
652.808	14.5
653.136	15.16
653.465	14.44
653.793	14.73
654.121	15.06
654.449	14.65
654.777	15.07
655.105	15.25
655.433	14.51
655.761	14.89
656.089	15.27
656.417	15.15
656.745	15.22
657.073	14.93
657.4	15.73
657.728	15.28
658.056	14.81
658.383	15.39
658.711	15.72
659.038	15.14
659.365	15.36
659.693	15.7
660.02	15.44
660.347	15.31
660.674	15.09
661.001	15.65
661.329	15.17
661.656	15.64
661.982	15.95
662.309	15.7
662.636	15.52
662.963	15.68
663.29	16.02
663.616	15.89
663.943	15.62
664.27	16.22
664.596	16.11
664.923	16.04
665.249	15.91
665.576	15.66
665.902	16.37
666.228	15.71
666.554	16.08
666.881	15.86
667.207	16.4
667.533	16.04
667.859	16.59
668.185	16.83
668.511	15.96
668.837	15.5
669.162	16.11
669.488	16.02
669.814	16.87
670.139	16.64
670.465	16.79
670.791	16.8
671.116	17.32
671.442	16.3
671.767	16.91
672.092	17
672.418	17.4
672.743	17.62
673.068	16.52
673.393	17.28
673.718	17.16
674.043	17.26
674.368	17.28
674.693	17.56
675.018	16.72
675.343	17.14
675.667	16.98
675.992	17.85
676.317	17.36
676.641	17.42
676.966	17.49
677.29	16.97
677.615	17.22
677.939	17.97
678.264	17.46
678.588	18.25
678.912	17.47
679.236	17.07
679.56	17.05
679.885	17.63
680.209	17.47
680.532	17.55
680.856	18.27
681.18	17.9
681.504	17.29
681.828	17.18
682.152	17.04
682.475	17.53
682.799	18.17
683.122	18.72
683.446	17.77
683.769	17.66
684.093	17.3
684.416	18.6
684.739	17.94
685.062	17.09
685.386	18.71
685.709	17.91
686.032	17.8
686.355	18.58
