Data from 0411_forehead_Reflection__2__275.txt Node

Date: Fri Dec 15 18:43:35 CST 2023
User: ToomeyLab
Spectrometer: FLMS14357
Trigger mode: 0
Integration Time (sec): 1.000000E-2
Scans to average: 100
Electric dark correction enabled: true
Nonlinearity correction enabled: false
Boxcar width: 0
XAxis mode: Wavelengths
Number of Pixels in Spectrum: 2048
>>>>>Begin Spectral Data<<<<<
189.047	-56.14
189.435	-56.14
189.823	-56.14
190.211	44.44
190.599	872.55
190.987	99.59
191.375	-5.41
191.763	-3
192.151	259.59
192.538	125.49
192.926	61.11
193.314	184.05
193.702	-73.34
194.089	72.63
194.477	-31.45
194.864	21.44
195.252	70.06
195.639	77.22
196.027	-112.49
196.414	94.8
196.801	-329.05
197.189	474.05
197.576	256.88
197.963	339.64
198.351	-56.7
198.738	-15.29
199.125	1.55
199.512	23.72
199.899	34.46
200.286	40.9
200.673	-7.19
201.06	22.28
201.447	-3.92
201.833	20.75
202.22	32.3
202.607	38.76
202.994	23.18
203.38	4.89
203.767	-11.17
204.154	15.98
204.54	38.02
204.927	-44.41
205.313	-78.06
205.699	13.36
206.086	21.17
206.472	14.8
206.858	32.13
207.245	-64.9
207.631	8.49
208.017	-0.2
208.403	-10.7
208.789	4.08
209.175	18.64
209.561	-23.68
209.947	-52.94
210.333	-35.99
210.719	28.21
211.105	14.95
211.491	-30.32
211.876	16.71
212.262	12.98
212.648	22.07
213.034	9.75
213.419	-33.28
213.805	-19.66
214.19	-25.6
214.576	-9.8
214.961	-23.08
215.346	-71.16
215.732	5.37
216.117	2.54
216.502	-35.34
216.888	18.64
217.273	28.28
217.658	-20.56
218.043	-5.07
218.428	-42.54
218.813	-26.71
219.198	-19.33
219.583	-7.1
219.968	21.21
220.353	-45.27
220.738	13.82
221.122	14.61
221.507	-36.5
221.892	-22.66
222.276	-9.38
222.661	-21.39
223.046	8.87
223.43	12.9
223.815	4.23
224.199	7.11
224.583	-4.07
224.968	0.07
225.352	11.82
225.736	-4.28
226.121	-0.48
226.505	9.12
226.889	13.49
227.273	-7.71
227.657	9.06
228.041	5.7
228.425	6.97
228.809	12.4
229.193	7.43
229.577	3.84
229.961	4.61
230.344	5.45
230.728	4.5
231.112	5.54
231.495	4.44
231.879	3.67
232.263	5.52
232.646	4.78
233.03	4.33
233.413	4
233.797	4.09
234.18	3.45
234.563	2.66
234.946	3.86
235.33	5.06
235.713	5.31
236.096	5.35
236.479	4.23
236.862	3.53
237.245	4.45
237.628	3.55
238.011	5.46
238.394	4.94
238.777	5.36
239.16	2.03
239.543	4.49
239.925	6.17
240.308	5.89
240.691	7.48
241.073	6.03
241.456	3.82
241.838	3.83
242.221	4.7
242.603	5.34
242.986	5.22
243.368	5.3
243.75	5.62
244.133	5.3
244.515	5.42
244.897	5.51
245.279	5.69
245.661	5.12
246.043	4.06
246.425	3.34
246.807	6.23
247.189	4.54
247.571	6.21
247.953	5.5
248.335	5.26
248.717	5.48
249.098	5.04
249.48	5.24
249.862	5.49
250.243	5.01
250.625	5.08
251.006	5.17
251.388	3.79
251.769	5.04
252.151	5.46
252.532	5.41
252.913	3.78
253.295	3.97
253.676	4.19
254.057	5.04
254.438	5.19
254.819	4.57
255.2	4.78
255.581	4.74
255.962	4.53
256.343	5.39
256.724	4.11
257.105	4.7
257.486	4.61
257.867	4.55
258.247	4.59
258.628	5.22
259.009	4.03
259.389	5.4
259.77	4.22
260.15	4.98
260.531	4.38
260.911	5.45
261.292	5.1
261.672	4.96
262.052	4.72
262.432	5.26
262.813	4.92
263.193	4.64
263.573	4.58
263.953	4.04
264.333	5.01
264.713	5
265.093	4.1
265.473	4.11
265.853	3.25
266.233	4.95
266.612	3.54
266.992	4.22
267.372	5.12
267.752	4.62
268.131	4.56
268.511	5.11
268.89	4.94
269.27	4.41
269.649	4.21
270.029	4.51
270.408	5.41
270.787	4.71
271.167	5.16
271.546	5.34
271.925	3.97
272.304	4.05
272.683	5.04
273.062	4.67
273.441	4.93
273.82	4.16
274.199	4.9
274.578	4.86
274.957	4.48
275.336	4.76
275.715	4.25
276.093	4.71
276.472	5.73
276.851	4.16
277.229	4.49
277.608	4.09
277.986	4.19
278.365	4.67
278.743	4.59
279.122	4.83
279.5	4.87
279.878	4.94
280.257	4.81
280.635	3.43
281.013	4.77
281.391	4.76
281.769	4.32
282.147	4.87
282.525	5.16
282.903	4.7
283.281	4.96
283.659	5.27
284.037	4.79
284.415	5.02
284.792	4.82
285.17	3.65
285.548	4.92
285.925	4.7
286.303	5.07
286.68	4.16
287.058	4.92
287.435	5.02
287.813	4.92
288.19	4.59
288.567	4.82
288.945	5.4
289.322	4.93
289.699	4.78
290.076	4.33
290.453	4.63
290.83	4.54
291.207	4.73
291.584	5.04
291.961	5.29
292.338	4.95
292.715	5.14
293.092	4.99
293.469	4.72
293.845	5.22
294.222	4.73
294.599	5.11
294.975	4.74
295.352	4.4
295.728	4.28
296.105	4.93
296.481	4.96
296.858	4.66
297.234	4.37
297.61	4.92
297.986	5.03
298.363	5.12
298.739	5.15
299.115	4.75
299.491	4.95
299.867	5.08
300.243	5.37
300.619	4.83
300.995	4.57
301.371	5.39
301.746	5.04
302.122	5.82
302.498	5.22
302.874	4.76
303.249	5.55
303.625	4.89
304	5.31
304.376	5.37
304.751	4.28
305.127	6.17
305.502	4.98
305.878	4.45
306.253	5.03
306.628	5.67
307.003	5.12
307.378	5.15
307.754	5.54
308.129	4.3
308.504	5.9
308.879	5.39
309.254	5.81
309.629	5.56
310.003	5.32
310.378	5.38
310.753	5.85
311.128	5.45
311.502	5.21
311.877	5.66
312.252	4.89
312.626	5.57
313.001	5.23
313.375	5.88
313.75	5.45
314.124	5.73
314.498	5.13
314.873	5.49
315.247	5.16
315.621	5.14
315.995	5.15
316.369	5.44
316.743	5.23
317.117	5.99
317.491	5.66
317.865	5.73
318.239	5.37
318.613	5.37
318.987	5.47
319.361	5.55
319.734	5.84
320.108	5.47
320.482	5.03
320.855	5.48
321.229	5.95
321.602	5.48
321.976	6.29
322.349	5.29
322.723	5.41
323.096	6.01
323.469	5.39
323.843	6.43
324.216	6.32
324.589	5.72
324.962	5.53
325.335	5.69
325.708	5.41
326.081	5.45
326.454	5.8
326.827	5.28
327.2	5.65
327.573	6.06
327.945	5.61
328.318	5.75
328.691	4.98
329.063	5.75
329.436	5.46
329.809	5.86
330.181	5.69
330.553	5.26
330.926	5.92
331.298	5.86
331.671	4.76
332.043	5.73
332.415	6
332.787	5.31
333.159	6.36
333.532	6.34
333.904	5.76
334.276	5.51
334.648	5.71
335.02	5.97
335.391	5.79
335.763	5.84
336.135	5.87
336.507	5.72
336.879	5.37
337.25	5.54
337.622	6.23
337.993	5.71
338.365	5.69
338.736	6.37
339.108	5.68
339.479	5.24
339.851	5.74
340.222	5.41
340.593	5.84
340.964	5.64
341.336	6.69
341.707	5.44
342.078	6.18
342.449	6.07
342.82	5.58
343.191	6.49
343.562	5.83
343.933	6.38
344.303	6.13
344.674	5.97
345.045	6.29
345.416	5.99
345.786	5.64
346.157	5.86
346.527	5.46
346.898	5.93
347.268	5.8
347.639	6.22
348.009	6.21
348.38	5.67
348.75	5.61
349.12	5.54
349.49	6.45
349.861	6.05
350.231	5.61
350.601	6.33
350.971	6.11
351.341	6.05
351.711	6.09
352.081	5.95
352.45	5.82
352.82	6.42
353.19	6.06
353.56	5.88
353.929	6.01
354.299	6.23
354.669	6.18
355.038	6.01
355.408	6.32
355.777	6.18
356.147	6.11
356.516	6.18
356.885	6.1
357.254	5.65
357.624	6.6
357.993	6.39
358.362	5.99
358.731	6.12
359.1	6.39
359.469	6.27
359.838	6.33
360.207	6.05
360.576	6.19
360.945	6.24
361.314	6.6
361.682	5.89
362.051	6.13
362.42	6.37
362.788	6.35
363.157	6.14
363.525	6.34
363.894	6.46
364.262	6.38
364.631	6.33
364.999	6.45
365.367	5.96
365.735	6.67
366.104	6.27
366.472	6.68
366.84	6.2
367.208	6.36
367.576	6.34
367.944	6.42
368.312	6.23
368.68	6.32
369.048	6.26
369.416	6.05
369.783	6.13
370.151	6.44
370.519	6.68
370.886	6.49
371.254	6.17
371.621	6.54
371.989	6.74
372.356	6.23
372.724	6.59
373.091	6.41
373.458	6.02
373.826	6.58
374.193	6.46
374.56	6.71
374.927	6.51
375.294	6.5
375.661	6.27
376.028	6.28
376.395	6.16
376.762	6.6
377.129	6.48
377.496	6.49
377.863	6.94
378.229	6.11
378.596	6.64
378.963	6.52
379.329	5.98
379.696	6.61
380.062	6.54
380.429	6.7
380.795	6.5
381.161	6.67
381.528	6.34
381.894	6.5
382.26	6.75
382.626	6.91
382.993	6.57
383.359	6.84
383.725	6.58
384.091	6.76
384.457	6.93
384.823	6.61
385.188	6.93
385.554	6.66
385.92	6.62
386.286	7
386.651	7.03
387.017	7.2
387.383	6.7
387.748	6.57
388.114	6.91
388.479	6.68
388.845	6.84
389.21	6.77
389.575	7.08
389.94	6.65
390.306	6.79
390.671	7.09
391.036	6.61
391.401	6.33
391.766	6.94
392.131	6.82
392.496	7.01
392.861	6.82
393.226	6.96
393.591	6.88
393.956	6.82
394.32	7.04
394.685	6.67
395.05	6.99
395.414	6.94
395.779	6.65
396.143	6.98
396.508	7.06
396.872	7.25
397.236	7
397.601	6.98
397.965	7.08
398.329	6.89
398.694	7.4
399.058	6.9
399.422	7.1
399.786	7.06
400.15	7.11
400.514	6.96
400.878	7.11
401.242	7.22
401.605	7.39
401.969	7.11
402.333	7.17
402.697	7.27
403.06	7.36
403.424	7.19
403.787	7.16
404.151	7.39
404.514	7.2
404.878	7.36
405.241	7.2
405.604	7.24
405.968	7.38
406.331	7.25
406.694	7.29
407.057	7.19
407.42	7.38
407.783	7.14
408.146	7.13
408.509	7.17
408.872	7
409.235	7.43
409.598	7.52
409.961	7.39
410.323	7.41
410.686	7.42
411.049	7.06
411.411	7.28
411.774	7.51
412.136	7.23
412.499	7.37
412.861	7.49
413.223	7.29
413.586	7.42
413.948	7.3
414.31	7.46
414.672	7.47
415.035	7.34
415.397	7.56
415.759	7.26
416.121	7.48
416.483	7.2
416.845	7.68
417.206	7.66
417.568	7.61
417.93	7.36
418.292	7.41
418.653	7.58
419.015	7.65
419.377	7.54
419.738	7.57
420.1	7.41
420.461	7.6
420.822	7.47
421.184	7.57
421.545	7.49
421.906	7.51
422.267	7.49
422.629	7.45
422.99	7.48
423.351	7.46
423.712	7.53
424.073	7.56
424.434	7.54
424.795	7.59
425.155	7.69
425.516	7.5
425.877	7.55
426.238	7.53
426.598	7.64
426.959	7.59
427.32	7.62
427.68	7.55
428.041	7.62
428.401	7.66
428.761	7.88
429.122	7.83
429.482	7.65
429.842	7.79
430.202	7.64
430.563	7.78
430.923	7.98
431.283	7.89
431.643	7.75
432.003	7.92
432.363	8.04
432.722	7.86
433.082	7.9
433.442	7.81
433.802	7.94
434.161	7.85
434.521	8.14
434.881	8.1
435.24	7.88
435.6	8.01
435.959	7.89
436.319	8
436.678	7.81
437.037	8.1
437.396	8.02
437.756	8.08
438.115	8.06
438.474	8.24
438.833	7.98
439.192	8.02
439.551	8.19
439.91	8.02
440.269	8.08
440.628	8
440.987	8.12
441.345	7.94
441.704	8.1
442.063	7.92
442.421	8.05
442.78	8.11
443.138	7.98
443.497	8.14
443.855	8.18
444.214	8.16
444.572	8.26
444.93	8.19
445.288	8.31
445.647	8.24
446.005	8.3
446.363	8.29
446.721	8.24
447.079	8.09
447.437	8.26
447.795	8.16
448.153	8.12
448.51	8.3
448.868	8.25
449.226	8.25
449.584	8.39
449.941	8.37
450.299	8.41
450.656	8.35
451.014	8.49
451.371	8.36
451.729	8.52
452.086	8.62
452.443	8.31
452.801	8.62
453.158	8.37
453.515	8.46
453.872	8.61
454.229	8.57
454.586	8.38
454.943	8.53
455.3	8.64
455.657	8.74
456.014	8.62
456.371	8.71
456.727	8.58
457.084	8.74
457.441	8.58
457.797	8.67
458.154	8.99
458.51	8.69
458.867	8.85
459.223	8.65
459.58	8.66
459.936	8.69
460.292	8.74
460.648	8.73
461.005	8.71
461.361	8.7
461.717	8.73
462.073	8.61
462.429	8.69
462.785	8.65
463.141	8.79
463.496	8.86
463.852	9.07
464.208	8.95
464.564	9.14
464.919	8.87
465.275	9.12
465.631	9.03
465.986	9.01
466.342	8.91
466.697	8.93
467.052	8.97
467.408	9.17
467.763	9.02
468.118	9.05
468.473	9.04
468.829	9.01
469.184	9.12
469.539	9.03
469.894	9.06
470.249	9.27
470.603	9.3
470.958	9.38
471.313	9.2
471.668	9.2
472.023	9.23
472.377	9.13
472.732	9.08
473.086	9.09
473.441	9.2
473.795	9.54
474.15	9.26
474.504	9.31
474.859	9.36
475.213	9.27
475.567	9.29
475.921	9.2
476.275	9.42
476.63	9.3
476.984	9.56
477.338	9.29
477.692	9.41
478.045	9.57
478.399	9.31
478.753	9.51
479.107	9.52
479.461	9.51
479.814	9.49
480.168	9.4
480.521	9.43
480.875	9.5
481.228	9.42
481.582	9.53
481.935	9.68
482.289	9.69
482.642	9.4
482.995	9.37
483.348	9.56
483.701	9.55
484.055	9.67
484.408	9.51
484.761	9.3
485.114	9.31
485.466	9.12
485.819	9.12
486.172	9.16
486.525	9.3
486.878	9.39
487.23	9.48
487.583	9.52
487.936	9.52
488.288	9.54
488.641	9.58
488.993	9.44
489.345	9.42
489.698	9.4
490.05	9.43
490.402	9.63
490.754	9.62
491.107	9.74
491.459	9.71
491.811	9.83
492.163	9.84
492.515	9.85
492.866	9.85
493.218	9.78
493.57	9.67
493.922	9.62
494.274	9.87
494.625	9.91
494.977	10.09
495.328	10.12
495.68	10.09
496.031	10.21
496.383	10.18
496.734	10.38
497.086	10.34
497.437	10.26
497.788	10.16
498.139	10.33
498.49	10.43
498.842	10.16
499.193	10.27
499.544	10.22
499.894	10.3
500.245	10.37
500.596	10.23
500.947	10.47
501.298	10.4
501.648	10.54
501.999	10.67
502.35	10.45
502.7	10.54
503.051	10.48
503.401	10.49
503.752	10.81
504.102	10.75
504.452	10.7
504.803	10.48
505.153	10.57
505.503	10.75
505.853	10.68
506.203	10.75
506.553	10.62
506.903	10.79
507.253	10.68
507.603	10.78
507.953	10.87
508.303	10.93
508.652	10.8
509.002	10.94
509.352	10.99
509.701	10.97
510.051	10.82
510.4	10.87
510.75	11.06
511.099	10.97
511.449	10.93
511.798	10.99
512.147	10.95
512.496	11
512.846	11.06
513.195	11.09
513.544	11.07
513.893	11.14
514.242	11.11
514.591	11.37
514.939	11.06
515.288	11.04
515.637	11.38
515.986	11.3
516.334	11.38
516.683	11.38
517.032	11.41
517.38	11.49
517.729	11.46
518.077	11.31
518.426	11.53
518.774	11.57
519.122	11.35
519.47	11.53
519.819	11.46
520.167	11.41
520.515	11.3
520.863	11.47
521.211	11.51
521.559	11.53
521.907	11.55
522.255	11.56
522.602	11.61
522.95	11.68
523.298	11.79
523.645	11.77
523.993	11.71
524.341	11.88
524.688	11.88
525.036	11.88
525.383	11.85
525.73	12.04
526.078	11.92
526.425	11.82
526.772	12
527.119	11.86
527.466	11.77
527.814	11.84
528.161	11.86
528.508	11.95
528.854	11.95
529.201	11.87
529.548	11.86
529.895	11.75
530.242	11.69
530.588	11.63
530.935	11.69
531.282	11.8
531.628	11.83
531.975	11.94
532.321	12
532.667	12.17
533.014	12.31
533.36	12.31
533.706	12.34
534.052	12.3
534.399	12.34
534.745	12.24
535.091	12.13
535.437	12.18
535.783	12.31
536.129	12.41
536.474	12.46
536.82	12.45
537.166	12.63
537.512	12.63
537.857	12.69
538.203	12.73
538.549	12.55
538.894	12.57
539.239	12.73
539.585	12.72
539.93	12.82
540.276	12.92
540.621	12.99
540.966	12.98
541.311	12.88
541.656	13.02
542.001	13.04
542.346	12.97
542.691	12.93
543.036	12.8
543.381	12.65
543.726	12.79
544.071	12.96
544.415	13.01
544.76	12.95
545.105	13.07
545.449	13.14
545.794	13.29
546.138	13.2
546.483	13.43
546.827	13.5
547.171	13.4
547.516	13.6
547.86	13.51
548.204	13.46
548.548	13.53
548.892	13.68
549.236	13.63
549.58	13.72
549.924	13.72
550.268	13.83
550.612	13.95
550.956	13.96
551.3	13.8
551.643	14.01
551.987	14.05
552.33	14.18
552.674	14.16
553.017	14.05
553.361	13.96
553.704	14.29
554.048	14.18
554.391	14.18
554.734	14.2
555.077	14.28
555.42	14.18
555.764	14.32
556.107	14.21
556.45	14.21
556.793	14.47
557.135	14.36
557.478	14.59
557.821	14.62
558.164	14.59
558.507	14.71
558.849	14.61
559.192	14.69
559.534	14.5
559.877	14.81
560.219	14.84
560.562	14.9
560.904	14.87
561.246	14.88
561.589	15.03
561.931	14.87
562.273	14.99
562.615	15.02
562.957	15.07
563.299	14.88
563.641	14.97
563.983	15.16
564.325	15.06
564.667	14.92
565.008	15.22
565.35	15.29
565.692	14.95
566.033	15.25
566.375	15.34
566.716	15.56
567.058	15.3
567.399	15.41
567.741	15.28
568.082	15.39
568.423	15.52
568.764	15.39
569.105	15.58
569.447	15.79
569.788	15.63
570.129	15.72
570.47	15.76
570.811	15.82
571.151	15.83
571.492	15.83
571.833	16.09
572.174	15.85
572.514	15.97
572.855	15.71
573.195	15.99
573.536	15.95
573.876	15.83
574.217	15.95
574.557	16.24
574.898	15.96
575.238	16.22
575.578	16.09
575.918	16.35
576.258	16.41
576.598	16.31
576.938	16.35
577.278	16.22
577.618	16.41
577.958	16.33
578.298	16.63
578.638	16.49
578.977	16.44
579.317	16.34
579.657	16.69
579.996	16.71
580.336	16.7
580.675	16.63
581.014	16.84
581.354	17
581.693	16.91
582.032	16.76
582.372	16.78
582.711	17.02
583.05	16.85
583.389	16.92
583.728	17.04
584.067	17.29
584.406	17.02
584.745	17.23
585.083	17.41
585.422	17.31
585.761	17.1
586.1	17.47
586.438	17.32
586.777	17.42
587.115	17.71
587.454	17.52
587.792	17.33
588.13	17.84
588.469	17.56
588.807	17.62
589.145	17.41
589.483	17.56
589.821	17.69
590.159	17.87
590.497	18.11
590.835	18.03
591.173	17.92
591.511	18.2
591.849	18
592.187	18.1
592.524	18.04
592.862	17.9
593.2	18.14
593.537	18.01
593.875	17.9
594.212	18.39
594.55	18.34
594.887	18.33
595.224	18.23
595.561	18.08
595.899	18.13
596.236	18.5
596.573	18.46
596.91	18.14
597.247	18.01
597.584	18.82
597.921	18.57
598.258	18.31
598.594	18.73
598.931	18.38
599.268	18.7
599.604	18.6
599.941	18.71
600.277	18.88
600.614	18.93
600.95	18.77
601.287	18.88
601.623	18.8
601.959	18.83
602.296	19.18
602.632	19.33
602.968	19.24
603.304	19.35
603.64	18.98
603.976	19.54
604.312	19.19
604.648	19.31
604.984	19.37
605.319	19.41
605.655	19.32
605.991	19.33
606.326	19.31
606.662	19.26
606.998	19.12
607.333	19.49
607.668	19.43
608.004	19.58
608.339	19.8
608.674	19.67
609.01	19.77
609.345	19.49
609.68	19.97
610.015	19.62
610.35	19.79
610.685	19.62
611.02	19.83
611.355	20.01
611.689	19.84
612.024	19.99
612.359	19.83
612.694	20.12
613.028	20.01
613.363	20.44
613.697	20.49
614.032	20.23
614.366	20.4
614.7	20.59
615.035	20.4
615.369	20.39
615.703	20.63
616.037	20.78
616.371	20.03
616.705	20.23
617.039	20.79
617.373	20.66
617.707	20.74
618.041	20.59
618.375	20.84
618.709	21.01
619.042	20.88
619.376	20.8
619.71	20.87
620.043	21.1
620.377	20.81
620.71	20.94
621.043	20.92
621.377	20.95
621.71	20.99
622.043	20.99
622.376	20.96
622.709	21.25
623.043	21.39
623.376	21.31
623.709	21.21
624.041	22.07
624.374	21.63
624.707	21.51
625.04	21.52
625.373	21.25
625.705	21.72
626.038	21.2
626.37	21.45
626.703	21.8
627.035	21.77
627.368	21.95
627.7	22.02
628.032	21.81
628.365	22.05
628.697	22.16
629.029	21.73
629.361	21.66
629.693	22.1
630.025	21.72
630.357	22.34
630.689	21.89
631.021	22.17
631.353	21.79
631.684	21.92
632.016	21.86
632.348	22.3
632.679	22.37
633.011	22.27
633.342	22.79
633.674	22.5
634.005	22.7
634.336	22.13
634.668	22.89
634.999	22.28
635.33	22.96
635.661	22.74
635.992	22.31
636.323	22.76
636.654	23
636.985	22.81
637.316	22.78
637.647	22.79
637.977	22.99
638.308	22.65
638.639	22.73
638.969	23.06
639.3	23.04
639.63	22.81
639.961	23.24
640.291	23.28
640.622	22.91
640.952	23.02
641.282	23.35
641.612	23.07
641.943	23.27
642.273	23.6
642.603	23.65
642.933	23.52
643.263	23.43
643.592	23.58
643.922	23.96
644.252	23.66
644.582	23.65
644.911	23.3
645.241	23.77
645.571	24
645.9	23.11
646.23	23.47
646.559	24.06
646.888	23.86
647.218	23.76
647.547	24.51
647.876	23.96
648.205	24.28
648.534	23.61
648.863	24
649.192	23.74
649.521	23.51
649.85	23.79
650.179	24.1
650.508	24.01
650.837	24.07
651.165	24.31
651.494	24.44
651.822	24.46
652.151	24.44
652.479	24.25
652.808	24.41
653.136	24.63
653.465	23.78
653.793	24.72
654.121	24.31
654.449	24.89
654.777	24.85
655.105	25.32
655.433	24.05
655.761	24.64
656.089	24.79
656.417	24.53
656.745	24.34
657.073	24.79
657.4	25.5
657.728	24.87
658.056	25.02
658.383	25.27
658.711	24.7
659.038	25.33
659.365	25.48
659.693	25.42
660.02	24.9
660.347	25.4
660.674	25.4
661.001	25.47
661.329	24.77
661.656	25.28
661.982	25.71
662.309	24.77
662.636	25.07
662.963	26.26
663.29	25.51
663.616	25.67
663.943	25.02
664.27	25.67
664.596	26.1
664.923	25.61
665.249	25.83
665.576	25.26
665.902	26.3
666.228	26.16
666.554	25.95
666.881	25.62
667.207	25.85
667.533	25.7
667.859	26.54
668.185	26.05
668.511	26.24
668.837	25.89
669.162	26.23
669.488	26.17
669.814	26.7
670.139	26.02
670.465	26.79
670.791	26.71
671.116	27.2
671.442	26.1
671.767	26.38
672.092	26.12
672.418	27.17
672.743	26.71
673.068	26.07
673.393	27.17
673.718	27.43
674.043	26.89
674.368	27.13
674.693	27.48
675.018	26.57
675.343	26.94
675.667	26.59
675.992	27.32
676.317	27.11
676.641	27.06
676.966	27.24
677.29	26.82
677.615	27
677.939	28.17
678.264	28.07
678.588	27.72
678.912	27.64
679.236	27.65
679.56	26.76
679.885	27.92
