Data from 0411_crown_Reflection__3__270.txt Node

Date: Fri Dec 15 18:42:05 CST 2023
User: ToomeyLab
Spectrometer: FLMS14357
Trigger mode: 0
Integration Time (sec): 1.000000E-2
Scans to average: 100
Electric dark correction enabled: true
Nonlinearity correction enabled: false
Boxcar width: 0
XAxis mode: Wavelengths
Number of Pixels in Spectrum: 2048
>>>>>Begin Spectral Data<<<<<
189.047	-280.32
189.435	-280.32
189.823	-280.32
190.211	-150.27
190.599	-364.88
190.987	18.16
191.375	124.14
191.763	-595.9
192.151	95
192.538	97.95
192.926	9.67
193.314	195.97
193.702	180.74
194.089	4.62
194.477	-20.23
194.864	189.72
195.252	60.99
195.639	109.35
196.027	268.53
196.414	39.82
196.801	-323.65
197.189	264.27
197.576	62.62
197.963	-252.68
198.351	-10.14
198.738	-87.68
199.125	19.55
199.512	-15.24
199.899	34.45
200.286	49.79
200.673	10.54
201.06	4.33
201.447	15.43
201.833	-6.02
202.22	23.86
202.607	15.96
202.994	-31.49
203.38	39.52
203.767	55.68
204.154	44.44
204.54	0.09
204.927	-29.2
205.313	-72.39
205.699	17.54
206.086	34.85
206.472	58.72
206.858	5.36
207.245	-46.1
207.631	1.61
208.017	8.61
208.403	11.41
208.789	4.37
209.175	13.91
209.561	-38.72
209.947	-9.64
210.333	-51.79
210.719	-2.61
211.105	2.51
211.491	-25.58
211.876	19.41
212.262	9.96
212.648	-4.09
213.034	14.07
213.419	-8.7
213.805	-23.83
214.19	-3.44
214.576	8.56
214.961	-8.02
215.346	-70.36
215.732	-24.95
216.117	17.42
216.502	-9.16
216.888	22.89
217.273	9.35
217.658	-20.57
218.043	35.34
218.428	-30.42
218.813	-26.13
219.198	-25.88
219.583	-10.04
219.968	-6.43
220.353	-18.89
220.738	-9.23
221.122	-1.84
221.507	-20.98
221.892	-18.17
222.276	-3.24
222.661	-1.78
223.046	13.12
223.43	8.89
223.815	12.82
224.199	-5.35
224.583	5.16
224.968	-0.81
225.352	21.97
225.736	-1.64
226.121	2.64
226.505	0.74
226.889	5.74
227.273	-1.41
227.657	1.21
228.041	1.84
228.425	0.63
228.809	6.55
229.193	5.12
229.577	4.25
229.961	3.42
230.344	3.53
230.728	4.1
231.112	5.06
231.495	3.78
231.879	2.49
232.263	5.04
232.646	4.92
233.03	4.22
233.413	3.95
233.797	1.83
234.18	2.02
234.563	4.55
234.946	4.63
235.33	2.99
235.713	4.93
236.096	3.81
236.479	3.98
236.862	2.56
237.245	4.57
237.628	3.94
238.011	4.64
238.394	5.48
238.777	4.34
239.16	0.09
239.543	2.87
239.925	4.31
240.308	3.87
240.691	5.58
241.073	4.45
241.456	3.33
241.838	2.65
242.221	2.72
242.603	3.62
242.986	4.22
243.368	4.33
243.75	4.5
244.133	3.6
244.515	4.17
244.897	4.59
245.279	4.08
245.661	4.12
246.043	4.16
246.425	2.82
246.807	5.16
247.189	4.14
247.571	4.01
247.953	4.4
248.335	3.83
248.717	4.02
249.098	3.88
249.48	4.2
249.862	4.2
250.243	3.92
250.625	3.67
251.006	3.86
251.388	2.76
251.769	3.67
252.151	4.66
252.532	4.56
252.913	2.82
253.295	3.51
253.676	3.71
254.057	3.93
254.438	3.67
254.819	3.79
255.2	3.39
255.581	4.15
255.962	3.37
256.343	4.86
256.724	2.96
257.105	4.06
257.486	2.58
257.867	4.25
258.247	2.8
258.628	3.55
259.009	3.44
259.389	4.56
259.77	2.54
260.15	2.88
260.531	3.17
260.911	3.75
261.292	3.49
261.672	3.82
262.052	3.65
262.432	4.03
262.813	4.08
263.193	3.68
263.573	3.21
263.953	3.22
264.333	3.98
264.713	3.92
265.093	3.33
265.473	3.82
265.853	2.58
266.233	3.54
266.612	2.1
266.992	1.62
267.372	3.42
267.752	3.84
268.131	4.03
268.511	3.41
268.89	4.2
269.27	3.04
269.649	2.79
270.029	3.59
270.408	4.31
270.787	3.86
271.167	3.42
271.546	3.79
271.925	2.34
272.304	3.07
272.683	3.35
273.062	3.26
273.441	3.59
273.82	3
274.199	3.15
274.578	3.77
274.957	3.09
275.336	3.51
275.715	2.9
276.093	3.04
276.472	3.42
276.851	3.46
277.229	3.05
277.608	3.04
277.986	3.27
278.365	2.76
278.743	3.26
279.122	3.04
279.5	3.21
279.878	3.85
280.257	3.38
280.635	3.68
281.013	2.95
281.391	3.57
281.769	4
282.147	3.08
282.525	4.04
282.903	2.47
283.281	3.54
283.659	3.25
284.037	3.61
284.415	3.75
284.792	3.65
285.17	2.77
285.548	2.94
285.925	3.5
286.303	3.43
286.68	3.21
287.058	3.14
287.435	3.28
287.813	3.57
288.19	3.07
288.567	3.61
288.945	3.75
289.322	3.38
289.699	3.33
290.076	3.4
290.453	3.53
290.83	3.37
291.207	2.78
291.584	3.33
291.961	3.73
292.338	3.2
292.715	3.58
293.092	3.38
293.469	3.27
293.845	3.43
294.222	3.08
294.599	3.87
294.975	3.04
295.352	3.12
295.728	2.58
296.105	3.29
296.481	3.05
296.858	3.04
297.234	2.99
297.61	2.91
297.986	3.29
298.363	3.2
298.739	3.49
299.115	2.93
299.491	3.02
299.867	3.11
300.243	3.69
300.619	2.81
300.995	4.16
301.371	2.99
301.746	3.08
302.122	3.53
302.498	3.51
302.874	3.39
303.249	3.26
303.625	2.94
304	3.52
304.376	3.2
304.751	2.94
305.127	3.72
305.502	3.05
305.878	2.51
306.253	3.24
306.628	3.71
307.003	3.13
307.378	3.31
307.754	3.04
308.129	2.7
308.504	3.54
308.879	2.81
309.254	4.02
309.629	3.74
310.003	3.15
310.378	3.6
310.753	3.55
311.128	3.49
311.502	3.22
311.877	3.48
312.252	2.89
312.626	2.88
313.001	3.02
313.375	3.49
313.75	2.66
314.124	2.98
314.498	3.36
314.873	3.09
315.247	3.34
315.621	3.46
315.995	2.22
316.369	2.78
316.743	2.98
317.117	2.82
317.491	2.87
317.865	2.75
318.239	3.25
318.613	3.59
318.987	3.27
319.361	2.94
319.734	3.27
320.108	3.06
320.482	3.96
320.855	3.35
321.229	2.76
321.602	2.97
321.976	3.29
322.349	2.68
322.723	2.8
323.096	3.62
323.469	2.58
323.843	3.14
324.216	3.67
324.589	3.24
324.962	3.53
325.335	3.19
325.708	2.78
326.081	2.83
326.454	2.94
326.827	3.32
327.2	3.39
327.573	2.99
327.945	2.85
328.318	2.56
328.691	2.84
329.063	3.62
329.436	2.52
329.809	3.46
330.181	3.19
330.553	3.35
330.926	2.79
331.298	3.02
331.671	2.97
332.043	3.46
332.415	3.5
332.787	3.39
333.159	3.49
333.532	2.83
333.904	3.28
334.276	3.09
334.648	3.4
335.02	3.36
335.391	3
335.763	2.74
336.135	2.76
336.507	3.39
336.879	3.19
337.25	2.83
337.622	3
337.993	3.08
338.365	3.16
338.736	3.54
339.108	3.43
339.479	2.79
339.851	3.03
340.222	3.25
340.593	3.16
340.964	2.4
341.336	3.7
341.707	2.71
342.078	3.26
342.449	3.35
342.82	3.48
343.191	3.69
343.562	3.05
343.933	3.19
344.303	2.95
344.674	3.23
345.045	3.26
345.416	3.45
345.786	3.27
346.157	3.32
346.527	2.71
346.898	2.88
347.268	3.44
347.639	3.03
348.009	3.66
348.38	3.05
348.75	3.38
349.12	3.18
349.49	3.71
349.861	3.39
350.231	3.26
350.601	3.19
350.971	3.43
351.341	3.35
351.711	3.38
352.081	3.37
352.45	2.81
352.82	3.81
353.19	3.24
353.56	3.15
353.929	3.4
354.299	3.28
354.669	3.19
355.038	3.42
355.408	3.19
355.777	3.04
356.147	3.14
356.516	3.17
356.885	2.96
357.254	3.22
357.624	3.48
357.993	3.27
358.362	3.12
358.731	3.3
359.1	3.43
359.469	3.48
359.838	3.31
360.207	3.28
360.576	3.31
360.945	3.4
361.314	3.74
361.682	3.21
362.051	3.08
362.42	3.43
362.788	3.45
363.157	3.39
363.525	3.46
363.894	3.46
364.262	3.35
364.631	3.46
364.999	3.46
365.367	3.03
365.735	3.99
366.104	3.57
366.472	3.66
366.84	3.44
367.208	3.62
367.576	3.49
367.944	3.78
368.312	3.04
368.68	3.04
369.048	3.44
369.416	3.13
369.783	3.34
370.151	3.51
370.519	3.54
370.886	3.59
371.254	3.4
371.621	3.76
371.989	3.41
372.356	3.31
372.724	3.53
373.091	2.99
373.458	3.46
373.826	3.46
374.193	3.36
374.56	3.59
374.927	3.41
375.294	3.21
375.661	3.22
376.028	3.33
376.395	3.64
376.762	3.43
377.129	3.72
377.496	3.35
377.863	3.56
378.229	3.04
378.596	3.29
378.963	3.25
379.329	3.44
379.696	3.62
380.062	3.35
380.429	3.69
380.795	3.33
381.161	3.65
381.528	3.79
381.894	3.31
382.26	3.09
382.626	3.81
382.993	3.21
383.359	3.79
383.725	3.35
384.091	3.39
384.457	3.41
384.823	3.46
385.188	3.56
385.554	3.38
385.92	3.72
386.286	3.98
386.651	3.61
387.017	3.64
387.383	3.43
387.748	3.31
388.114	3.62
388.479	3.46
388.845	3.66
389.21	3.57
389.575	3.71
389.94	3.62
390.306	3.82
390.671	3.74
391.036	3.31
391.401	3.58
391.766	3.47
392.131	3.39
392.496	3.5
392.861	3.6
393.226	3.68
393.591	3.65
393.956	3.37
394.32	3.58
394.685	3.29
395.05	3.52
395.414	3.59
395.779	3.42
396.143	3.83
396.508	3.57
396.872	3.71
397.236	3.61
397.601	3.32
397.965	3.6
398.329	3.43
398.694	3.73
399.058	3.68
399.422	3.28
399.786	3.58
400.15	3.76
400.514	3.72
400.878	3.9
401.242	3.99
401.605	3.71
401.969	3.83
402.333	3.63
402.697	3.82
403.06	3.64
403.424	3.96
403.787	3.65
404.151	3.72
404.514	3.45
404.878	3.63
405.241	3.73
405.604	3.75
405.968	3.87
406.331	3.69
406.694	3.79
407.057	3.75
407.42	3.83
407.783	3.45
408.146	3.74
408.509	3.54
408.872	3.69
409.235	3.82
409.598	3.82
409.961	3.68
410.323	3.71
410.686	3.69
411.049	3.67
411.411	3.68
411.774	3.83
412.136	3.88
412.499	3.6
412.861	3.5
413.223	3.69
413.586	3.66
413.948	3.72
414.31	3.75
414.672	3.45
415.035	3.49
415.397	4.26
415.759	3.56
416.121	3.74
416.483	3.48
416.845	3.54
417.206	3.74
417.568	3.85
417.93	3.5
418.292	3.9
418.653	3.7
419.015	3.82
419.377	3.71
419.738	3.81
420.1	3.71
420.461	3.87
420.822	3.83
421.184	3.59
421.545	3.75
421.906	3.67
422.267	3.64
422.629	3.64
422.99	3.7
423.351	3.72
423.712	3.76
424.073	3.74
424.434	3.62
424.795	3.7
425.155	3.78
425.516	3.67
425.877	3.64
426.238	3.6
426.598	3.74
426.959	3.82
427.32	3.7
427.68	3.72
428.041	3.72
428.401	3.87
428.761	3.6
429.122	3.81
429.482	3.68
429.842	3.74
430.202	3.84
430.563	3.83
430.923	3.82
431.283	4.02
431.643	3.9
432.003	3.94
432.363	3.84
432.722	3.93
433.082	3.93
433.442	3.73
433.802	3.63
434.161	3.71
434.521	4.02
434.881	3.88
435.24	3.75
435.6	3.77
435.959	3.8
436.319	3.96
436.678	3.81
437.037	3.92
437.396	3.88
437.756	3.92
438.115	3.79
438.474	4.14
438.833	3.69
439.192	3.84
439.551	3.94
439.91	3.8
440.269	3.81
440.628	3.78
440.987	3.82
441.345	3.68
441.704	3.9
442.063	3.73
442.421	3.78
442.78	3.76
443.138	3.81
443.497	3.91
443.855	3.77
444.214	3.92
444.572	3.96
444.93	3.9
445.288	3.88
445.647	3.92
446.005	3.87
446.363	3.91
446.721	3.96
447.079	3.69
447.437	3.82
447.795	3.82
448.153	3.77
448.51	3.94
448.868	3.91
449.226	3.92
449.584	3.85
449.941	3.92
450.299	3.88
450.656	3.82
451.014	4.01
451.371	3.98
451.729	3.9
452.086	4.17
452.443	3.94
452.801	3.9
453.158	3.81
453.515	3.89
453.872	4.1
454.229	3.96
454.586	3.9
454.943	3.99
455.3	4.16
455.657	3.92
456.014	4.05
456.371	3.96
456.727	3.96
457.084	4.09
457.441	4.18
457.797	3.99
458.154	4.25
458.51	4.14
458.867	4.22
459.223	4.08
459.58	3.99
459.936	4.11
460.292	3.98
460.648	3.84
461.005	3.84
461.361	4.01
461.717	3.95
462.073	3.83
462.429	3.95
462.785	4.04
463.141	3.98
463.496	4.14
463.852	4.23
464.208	3.98
464.564	4.25
464.919	4.26
465.275	4.13
465.631	4.27
465.986	3.92
466.342	3.99
466.697	4.12
467.052	4.16
467.408	4.11
467.763	4.14
468.118	4.31
468.473	3.96
468.829	3.98
469.184	3.94
469.539	4.23
469.894	3.87
470.249	4.12
470.603	4.07
470.958	4.14
471.313	4.2
471.668	4.23
472.023	4.15
472.377	4.13
472.732	4
473.086	4.06
473.441	3.93
473.795	4.17
474.15	4.07
474.504	4.2
474.859	4.17
475.213	4.07
475.567	4.01
475.921	3.88
476.275	4.24
476.63	4.14
476.984	4.24
477.338	4.12
477.692	3.94
478.045	3.94
478.399	4.03
478.753	4.3
479.107	4.23
479.461	4.17
479.814	4.16
480.168	4.03
480.521	4.11
480.875	4.2
481.228	4.24
481.582	4.13
481.935	4.17
482.289	4.1
482.642	4.11
482.995	3.93
483.348	4.04
483.701	4.08
484.055	4.12
484.408	4.08
484.761	4.05
485.114	3.94
485.466	3.81
485.819	3.81
486.172	3.85
486.525	3.95
486.878	3.99
487.23	4.04
487.583	4.07
487.936	4.13
488.288	4.02
488.641	4.03
488.993	3.93
489.345	3.92
489.698	3.93
490.05	3.96
490.402	4.02
490.754	4.03
491.107	4.12
491.459	4.2
491.811	4.07
492.163	4.14
492.515	4.11
492.866	4.02
493.218	4.09
493.57	3.96
493.922	3.97
494.274	4.14
494.625	4.17
494.977	4.26
495.328	4.2
495.68	4.27
496.031	4.24
496.383	4.22
496.734	4.3
497.086	4.35
497.437	4.43
497.788	4.22
498.139	4.13
498.49	4.19
498.842	3.99
499.193	4.19
499.544	4.2
499.894	4.16
500.245	4.23
500.596	4.15
500.947	4.26
501.298	4.13
501.648	4.27
501.999	4.25
502.35	4.23
502.7	4.23
503.051	4.1
503.401	4.24
503.752	4.37
504.102	4.21
504.452	4.35
504.803	4.17
505.153	4.22
505.503	4.23
505.853	4.28
506.203	4.28
506.553	4.36
506.903	4.21
507.253	4.2
507.603	4.22
507.953	4.3
508.303	4.3
508.652	4.22
509.002	4.31
509.352	4.28
509.701	4.16
510.051	4.18
510.4	4.3
510.75	4.34
511.099	4.31
511.449	4.25
511.798	4.35
512.147	4.16
512.496	4.33
512.846	4.29
513.195	4.21
513.544	4.24
513.893	4.29
514.242	4.22
514.591	4.47
514.939	4.26
515.288	4.09
515.637	4.29
515.986	4.32
516.334	4.3
516.683	4.54
517.032	4.19
517.38	4.31
517.729	4.28
518.077	4.21
518.426	4.4
518.774	4.33
519.122	4.26
519.47	4.33
519.819	4.14
520.167	4.1
520.515	4.17
520.863	4.25
521.211	4.31
521.559	4.3
521.907	4.2
522.255	4.35
522.602	4.37
522.95	4.34
523.298	4.24
523.645	4.44
523.993	4.31
524.341	4.41
524.688	4.41
525.036	4.35
525.383	4.48
525.73	4.36
526.078	4.37
526.425	4.3
526.772	4.34
527.119	4.37
527.466	4.32
527.814	4.31
528.161	4.24
528.508	4.39
528.854	4.31
529.201	4.3
529.548	4.2
529.895	4.15
530.242	4.13
530.588	4.06
530.935	4.13
531.282	4.21
531.628	4.25
531.975	4.29
532.321	4.28
532.667	4.33
533.014	4.45
533.36	4.33
533.706	4.31
534.052	4.25
534.399	4.25
534.745	4.25
535.091	4.27
535.437	4.28
535.783	4.3
536.129	4.27
536.474	4.34
536.82	4.35
537.166	4.47
537.512	4.35
537.857	4.3
538.203	4.33
538.549	4.23
538.894	4.27
539.239	4.4
539.585	4.42
539.93	4.41
540.276	4.4
540.621	4.49
540.966	4.43
541.311	4.36
541.656	4.3
542.001	4.29
542.346	4.37
542.691	4.27
543.036	4.2
543.381	4.12
543.726	4.16
544.071	4.3
544.415	4.33
544.76	4.27
545.105	4.33
545.449	4.37
545.794	4.46
546.138	4.35
546.483	4.35
546.827	4.45
547.171	4.3
547.516	4.44
547.86	4.34
548.204	4.2
548.548	4.33
548.892	4.46
549.236	4.27
549.58	4.38
549.924	4.51
550.268	4.59
550.612	4.54
550.956	4.71
551.3	4.51
551.643	4.63
551.987	4.66
552.33	4.47
552.674	4.43
553.017	4.38
553.361	4.37
553.704	4.62
554.048	4.5
554.391	4.39
554.734	4.36
555.077	4.42
555.42	4.27
555.764	4.51
556.107	4.45
556.45	4.36
556.793	4.48
557.135	4.69
557.478	4.76
557.821	4.66
558.164	4.35
558.507	4.6
558.849	4.42
559.192	4.55
559.534	4.43
559.877	4.64
560.219	4.43
560.562	4.58
560.904	4.63
561.246	4.59
561.589	4.59
561.931	4.5
562.273	4.44
562.615	4.49
562.957	4.53
563.299	4.42
563.641	4.64
563.983	4.74
564.325	4.45
564.667	4.46
565.008	4.54
565.35	4.8
565.692	4.47
566.033	4.68
566.375	4.53
566.716	4.61
567.058	4.51
567.399	4.47
567.741	4.32
568.082	4.4
568.423	4.41
568.764	4.43
569.105	4.6
569.447	4.57
569.788	4.63
570.129	4.55
570.47	4.78
570.811	4.58
571.151	4.6
571.492	4.72
571.833	4.52
572.174	4.56
572.514	4.56
572.855	4.59
573.195	4.65
573.536	4.72
573.876	4.5
574.217	4.41
574.557	4.61
574.898	4.71
575.238	4.59
575.578	4.5
575.918	4.64
576.258	4.64
576.598	4.52
576.938	4.55
577.278	4.54
577.618	4.54
577.958	4.44
578.298	4.65
578.638	4.68
578.977	4.68
579.317	4.42
579.657	4.72
579.996	4.78
580.336	4.54
580.675	4.39
581.014	4.74
581.354	4.87
581.693	4.74
582.032	4.57
582.372	4.57
582.711	4.81
583.05	4.36
583.389	4.76
583.728	4.54
584.067	4.7
584.406	4.67
584.745	4.78
585.083	4.6
585.422	4.62
585.761	4.7
586.1	4.69
586.438	4.45
586.777	4.8
587.115	4.77
587.454	4.58
587.792	4.4
588.13	4.65
588.469	4.63
588.807	4.79
589.145	4.47
589.483	4.72
589.821	4.44
590.159	4.64
590.497	5
590.835	5.04
591.173	4.72
591.511	4.92
591.849	4.73
592.187	4.77
592.524	4.89
592.862	4.56
593.2	4.79
593.537	4.74
593.875	4.39
594.212	4.52
594.55	4.74
594.887	4.83
595.224	4.57
595.561	4.94
595.899	4.55
596.236	4.63
596.573	4.8
596.91	4.31
597.247	4.68
597.584	4.86
597.921	4.72
598.258	4.67
598.594	4.74
598.931	4.37
599.268	4.71
599.604	4.54
599.941	4.75
600.277	4.51
600.614	4.66
600.95	4.66
601.287	4.77
601.623	4.74
601.959	4.48
602.296	4.89
602.632	4.57
602.968	4.81
603.304	4.59
603.64	4.64
603.976	4.79
604.312	4.52
604.648	4.37
604.984	4.97
605.319	4.77
605.655	4.65
605.991	4.72
606.326	4.6
606.662	4.71
606.998	4.53
607.333	4.63
607.668	4.67
608.004	4.68
608.339	5.03
608.674	4.82
609.01	4.61
609.345	4.34
609.68	4.87
610.015	4.78
610.35	4.67
610.685	4.73
611.02	4.69
611.355	4.93
611.689	4.82
612.024	4.79
612.359	4.62
612.694	4.77
613.028	4.94
613.363	4.96
613.697	5
614.032	4.85
614.366	4.79
614.7	4.88
615.035	5.17
615.369	4.97
615.703	4.62
616.037	4.74
616.371	4.62
616.705	4.52
617.039	4.85
617.373	4.62
617.707	4.68
618.041	4.61
618.375	4.53
618.709	5.35
619.042	4.5
619.376	5.41
619.71	5.01
620.043	4.8
620.377	4.93
620.71	4.62
621.043	4.56
621.377	5.03
621.71	4.95
622.043	4.26
622.376	4.32
622.709	4.82
623.043	4.81
623.376	5.13
623.709	4.73
624.041	4.98
624.374	4.87
624.707	4.4
625.04	4.75
625.373	4.46
625.705	4.65
626.038	4.59
626.37	4.85
626.703	5.2
627.035	4.64
627.368	5.13
627.7	4.78
628.032	4.69
628.365	5.15
628.697	4.79
629.029	4.72
629.361	4.82
629.693	4.98
630.025	4.97
630.357	5.02
630.689	4.97
631.021	4.85
631.353	5.04
631.684	4.66
632.016	5.16
632.348	5.33
632.679	5.44
633.011	4.94
633.342	5.02
633.674	4.67
634.005	5.38
634.336	4.75
634.668	5.69
634.999	4.87
635.33	5.14
635.661	5.1
635.992	5.12
636.323	5.05
636.654	5.17
636.985	4.84
637.316	4.8
637.647	4.64
637.977	4.94
638.308	5.06
638.639	4.4
638.969	4.81
639.3	4.72
639.63	4.52
639.961	4.92
640.291	4.75
640.622	5.12
640.952	5.09
641.282	5.21
641.612	4.93
641.943	4.72
642.273	4.95
642.603	5.31
642.933	4.94
643.263	4.86
643.592	4.91
643.922	4.81
644.252	4.84
644.582	5.33
644.911	4.42
645.241	4.9
645.571	4.93
645.9	4.6
646.23	4.9
646.559	5.3
646.888	4.73
647.218	5.03
647.547	5.26
647.876	4.86
648.205	5.12
648.534	4.65
648.863	4.7
649.192	5.31
649.521	4.68
649.85	4.54
650.179	5
650.508	5.08
650.837	4.8
651.165	4.96
651.494	5.06
651.822	4.88
652.151	4.89
652.479	5.13
652.808	4.85
653.136	5.34
653.465	4.53
653.793	5.12
654.121	4.92
654.449	5.04
654.777	5.06
655.105	5.31
655.433	4.61
655.761	4.87
656.089	4.68
656.417	4.82
656.745	4.47
657.073	4.73
657.4	5.69
657.728	5.03
658.056	4.71
658.383	4.91
658.711	5.41
659.038	5.01
659.365	5.17
659.693	5.15
660.02	5.18
660.347	5.14
660.674	5.1
661.001	5.32
661.329	4.44
661.656	5.2
661.982	5.32
662.309	4.74
662.636	5.02
662.963	5.4
663.29	5.28
663.616	5.2
663.943	4.62
664.27	5.16
664.596	5.44
664.923	5.2
665.249	5.39
665.576	4.99
665.902	5.61
666.228	5.49
666.554	5.06
666.881	4.99
667.207	5.18
667.533	5.28
667.859	5.01
668.185	5.27
668.511	4.68
668.837	4.34
669.162	5.19
669.488	4.81
669.814	5.31
670.139	5.15
670.465	5.19
670.791	5.08
671.116	5.12
671.442	4.69
671.767	5.52
672.092	5.37
672.418	5.57
672.743	5.61
673.068	4.56
673.393	5.44
673.718	5.5
674.043	5.51
674.368	5.19
674.693	5.86
675.018	5.51
675.343	5.08
675.667	5.22
675.992	5.23
676.317	4.77
676.641	5.64
676.966	5.31
677.29	5.34
677.615	5.2
677.939	5.51
678.264	5.89
678.588	5.4
678.912	5.63
679.236	5.7
679.56	4.51
679.885	5.05
680.209	4.54
680.532	4.97
680.856	5.82
681.18	5.67
681.504	4.55
681.828	6.11
682.152	5.26
682.475	5.47
682.799	5.41
683.122	5.32
683.446	5.85
683.769	5.47
684.093	5.11
684.416	5.85
684.739	5.4
685.062	4.92
685.386	5.78
685.709	4.71
686.032	5.8
686.355	5.74
686.678	5.13
687.001	5.97
687.324	5.57
687.646	5.65
687.969	4.83
688.292	4.43
688.614	5.27
688.937	5.96
689.26	5.01
689.582	5.25
689.904	5.05
690.227	5.22
690.549	5.53
690.871	5.51
691.194	5.01
691.516	5.25
691.838	5.48
692.16	5.4
