Data from 18SC-1_forehead_Reflection__1__102.txt Node

Date: Fri Sep 30 18:34:19 CDT 2022
User: ToomeyLab
Spectrometer: FLMS14357
Trigger mode: 0
Integration Time (sec): 1.000000E-2
Scans to average: 100
Electric dark correction enabled: true
Nonlinearity correction enabled: false
Boxcar width: 0
XAxis mode: Wavelengths
Number of Pixels in Spectrum: 2048
>>>>>Begin Spectral Data<<<<<
189.047	65400
189.435	65400
189.823	65400
190.211	4.47
190.599	-307.38
190.987	3.11
191.375	62.48
191.763	-88.12
192.151	-3.68
192.538	10.9
192.926	1299.26
193.314	61.95
193.702	480.6
194.089	100.81
194.477	-83.35
194.864	21.3
195.252	341.01
195.639	-348.06
196.027	67.05
196.414	31.67
196.801	255.33
197.189	-471.24
197.576	-18.36
197.963	663.58
198.351	-6.53
198.738	14.23
199.125	79.05
199.512	17.07
199.899	26.54
200.286	-0.75
200.673	45.88
201.06	61.21
201.447	49.21
201.833	43.81
202.22	32.41
202.607	56.84
202.994	63.84
203.38	52.29
203.767	145.42
204.154	44.45
204.54	54.89
204.927	55.88
205.313	2.39
205.699	30.32
206.086	-27.53
206.472	44.75
206.858	52.45
207.245	56.37
207.631	27.53
208.017	-4.12
208.403	-0.63
208.789	28.26
209.175	39.34
209.561	30.18
209.947	10.7
210.333	-25.41
210.719	-4.15
211.105	29.38
211.491	-9.02
211.876	37.17
212.262	28.12
212.648	19.48
213.034	14.72
213.419	39.12
213.805	5.93
214.19	14.13
214.576	8.13
214.961	91.66
215.346	13.64
215.732	-7.09
216.117	-12.76
216.502	51.6
216.888	48.37
217.273	-31.52
217.658	36.9
218.043	47.45
218.428	43.53
218.813	20.8
219.198	13.42
219.583	45.17
219.968	103.75
220.353	18.55
220.738	28.57
221.122	6.39
221.507	26.39
221.892	12.92
222.276	-10.6
222.661	16.73
223.046	8.19
223.43	3.69
223.815	10.28
224.199	13.97
224.583	3.77
224.968	9.99
225.352	6.58
225.736	21.23
226.121	11.01
226.505	8.25
226.889	10.63
227.273	0.72
227.657	5.86
228.041	6.21
228.425	11.63
228.809	8.64
229.193	8.79
229.577	5.2
229.961	7.68
230.344	4.49
230.728	4.61
231.112	5.46
231.495	5.44
231.879	7.61
232.263	4.34
232.646	5.61
233.03	6.47
233.413	7.68
233.797	6.47
234.18	4.12
234.563	3.54
234.946	7.68
235.33	6
235.713	7.68
236.096	4.51
236.479	5.44
236.862	5.68
237.245	8.71
237.628	3.96
238.011	6.17
238.394	5.56
238.777	2.67
239.16	6.29
239.543	4.76
239.925	5.41
240.308	2.8
240.691	7.56
241.073	7.8
241.456	3.01
241.838	6.54
242.221	4.04
242.603	5.94
242.986	5.9
243.368	3.81
243.75	4.77
244.133	5.58
244.515	5.32
244.897	5.98
245.279	5.6
245.661	5.52
246.043	3.84
246.425	5.57
246.807	6.09
247.189	5.72
247.571	4.74
247.953	5.65
248.335	4.88
248.717	5.11
249.098	5.07
249.48	5.04
249.862	5.31
250.243	4.81
250.625	5.44
251.006	5
251.388	4.5
251.769	6.21
252.151	4.44
252.532	6.09
252.913	4.87
253.295	5.69
253.676	4.71
254.057	5.07
254.438	4.79
254.819	5.61
255.2	5.21
255.581	7.12
255.962	6.27
256.343	6.82
256.724	5.86
257.105	7.64
257.486	7.03
257.867	5.27
258.247	4.43
258.628	5.02
259.009	7.2
259.389	5.35
259.77	5.71
260.15	4.81
260.531	6.27
260.911	5.52
261.292	5.05
261.672	5.02
262.052	4.69
262.432	4.43
262.813	5.58
263.193	4.56
263.573	5.53
263.953	5.2
264.333	5.85
264.713	3.78
265.093	5.26
265.473	4.94
265.853	4.91
266.233	4.64
266.612	5.85
266.992	4.92
267.372	4.58
267.752	3.85
268.131	5.59
268.511	5
268.89	5.22
269.27	4.89
269.649	3.63
270.029	5.58
270.408	4.75
270.787	5.13
271.167	5.28
271.546	4.83
271.925	6.08
272.304	5.49
272.683	5.08
273.062	4.81
273.441	5.1
273.82	4.27
274.199	5.55
274.578	4.79
274.957	4.85
275.336	4.83
275.715	5.5
276.093	5.39
276.472	5.11
276.851	4.5
277.229	4.85
277.608	4.09
277.986	4.33
278.365	5.43
278.743	5.03
279.122	4.67
279.5	4.63
279.878	4.84
280.257	4.73
280.635	5.42
281.013	5.83
281.391	4.38
281.769	5.6
282.147	4.6
282.525	5.26
282.903	5.05
283.281	4.52
283.659	5.12
284.037	4.34
284.415	5.3
284.792	5.37
285.17	4.37
285.548	5.15
285.925	5.46
286.303	4.51
286.68	4.76
287.058	4.61
287.435	4.95
287.813	5.02
288.19	4.76
288.567	4.79
288.945	4.24
289.322	4.72
289.699	4.7
290.076	5.17
290.453	5
290.83	4.9
291.207	4.98
291.584	4.99
291.961	4.34
292.338	5.15
292.715	5.81
293.092	4.86
293.469	5.29
293.845	5.81
294.222	5.15
294.599	5.53
294.975	6.09
295.352	5.86
295.728	6.13
296.105	5.53
296.481	5.97
296.858	5.87
297.234	5.67
297.61	5.55
297.986	5.37
298.363	5.8
298.739	5.58
299.115	5.81
299.491	5.67
299.867	5.47
300.243	5.49
300.619	5.66
300.995	6.42
301.371	5.77
301.746	5.7
302.122	5.94
302.498	6.25
302.874	6.45
303.249	6.27
303.625	6.69
304	6.53
304.376	5.71
304.751	6.62
305.127	6
305.502	6.1
305.878	6.37
306.253	6.27
306.628	6.87
307.003	6.12
307.378	6.38
307.754	5.91
308.129	6.83
308.504	5.76
308.879	6.43
309.254	5.97
309.629	6.33
310.003	6.6
310.378	6.87
310.753	5.98
311.128	6.38
311.502	7.06
311.877	7.09
312.252	7.47
312.626	6.73
313.001	6.49
313.375	6.58
313.75	7.63
314.124	7.18
314.498	7
314.873	7.73
315.247	7.12
315.621	7.81
315.995	7.42
316.369	6.46
316.743	7.33
317.117	8.36
317.491	8.16
317.865	8.63
318.239	8.11
318.613	8.8
318.987	7.99
319.361	7.69
319.734	8.1
320.108	7.69
320.482	7.88
320.855	7.87
321.229	7.91
321.602	7.44
321.976	7.57
322.349	7.51
322.723	7.62
323.096	8.14
323.469	8.46
323.843	8.51
324.216	8.08
324.589	8.07
324.962	8.54
325.335	8.23
325.708	8.2
326.081	8.74
326.454	7.99
326.827	8.32
327.2	8.38
327.573	8.19
327.945	8.31
328.318	8.33
328.691	8.79
329.063	8.79
329.436	8.43
329.809	9.5
330.181	7.72
330.553	8.77
330.926	9.36
331.298	8.83
331.671	8.74
332.043	8.6
332.415	8.76
332.787	8.93
333.159	8.82
333.532	9.5
333.904	9.03
334.276	9.33
334.648	8.67
335.02	8.84
335.391	9.16
335.763	8.92
336.135	8.49
336.507	9.89
336.879	8.85
337.25	8.41
337.622	9.06
337.993	8.53
338.365	9.33
338.736	9.39
339.108	9.16
339.479	9.95
339.851	8.82
340.222	9.62
340.593	9.07
340.964	9.18
341.336	9.96
341.707	9.1
342.078	10.24
342.449	9.56
342.82	9.15
343.191	9.71
343.562	9.68
343.933	9.35
344.303	9.4
344.674	9.43
345.045	9.47
345.416	9.99
345.786	10.33
346.157	10.7
346.527	9.74
346.898	9.9
347.268	9.73
347.639	9.95
348.009	9.84
348.38	10.24
348.75	10.73
349.12	10.36
349.49	10.09
349.861	9.85
350.231	9.64
350.601	10.73
350.971	9.89
351.341	10.51
351.711	10.3
352.081	10.12
352.45	10.54
352.82	10.96
353.19	10.52
353.56	9.95
353.929	10.05
354.299	10.48
354.669	9.73
355.038	10.6
355.408	10.84
355.777	9.89
356.147	10.36
356.516	10.7
356.885	10.36
357.254	10.65
357.624	10.56
357.993	9.91
358.362	10.77
358.731	10.64
359.1	10.54
359.469	10.12
359.838	10.68
360.207	10.22
360.576	10.4
360.945	10.3
361.314	10.64
361.682	11.04
362.051	10.93
362.42	10.86
362.788	11.04
363.157	11.04
363.525	10.7
363.894	10.86
364.262	11.32
364.631	11.5
364.999	11.21
365.367	11.3
365.735	11
366.104	10.69
366.472	11.26
366.84	11.37
367.208	10.83
367.576	12.17
367.944	11.3
368.312	11.21
368.68	11.19
369.048	11.62
369.416	11.4
369.783	11.44
370.151	11.41
370.519	11.62
370.886	11.88
371.254	11.65
371.621	11.88
371.989	12.18
372.356	12.19
372.724	12.5
373.091	11.69
373.458	11.53
373.826	12.36
374.193	11.95
374.56	12.04
374.927	12.47
375.294	12.66
375.661	11.43
376.028	11.96
376.395	11.59
376.762	11.88
377.129	12.34
377.496	12.27
377.863	11.79
378.229	12.7
378.596	12.23
378.963	12.67
379.329	11.99
379.696	12.66
380.062	12.36
380.429	12.46
380.795	12.26
381.161	12.15
381.528	12.63
381.894	12.48
382.26	12.37
382.626	12.48
382.993	12.46
383.359	12.38
383.725	12.33
384.091	12.32
384.457	12.97
384.823	12.98
385.188	13.04
385.554	12.8
385.92	12.95
386.286	12.51
386.651	13.05
387.017	12.52
387.383	12.89
387.748	12.6
388.114	12.51
388.479	12.92
388.845	12.78
389.21	12.82
389.575	13.07
389.94	12.8
390.306	13.03
390.671	12.68
391.036	13.1
391.401	13.21
391.766	13.33
392.131	13.54
392.496	13.6
392.861	13.5
393.226	13.27
393.591	12.88
393.956	13.5
394.32	13.6
394.685	13.28
395.05	13.69
395.414	13.3
395.779	13.57
396.143	13.8
396.508	13.68
396.872	13.75
397.236	13.55
397.601	13.74
397.965	13.62
398.329	13.45
398.694	14.1
399.058	13.95
399.422	13.98
399.786	13.8
400.15	13.89
400.514	14.18
400.878	13.84
401.242	13.72
401.605	14.06
401.969	13.82
402.333	14.03
402.697	14.76
403.06	13.91
403.424	13.98
403.787	14.53
404.151	14.5
404.514	14.35
404.878	14
405.241	14.04
405.604	14.34
405.968	14.18
406.331	14.42
406.694	14.31
407.057	14.24
407.42	14.32
407.783	14.19
408.146	14.16
408.509	14.45
408.872	14.46
409.235	14.7
409.598	14.36
409.961	14.61
410.323	15.03
410.686	15.27
411.049	14.4
411.411	14.79
411.774	14.86
412.136	14.84
412.499	14.75
412.861	14.87
413.223	14.48
413.586	14.64
413.948	15.01
414.31	15.21
414.672	14.93
415.035	14.99
415.397	15.21
415.759	15.02
416.121	15.1
416.483	15.03
416.845	15.3
417.206	15.13
417.568	15.33
417.93	14.94
418.292	15.26
418.653	15.09
419.015	15.51
419.377	15.15
419.738	14.94
420.1	15.17
420.461	15.28
420.822	15.17
421.184	15.2
421.545	15.11
421.906	15.05
422.267	15.34
422.629	15.26
422.99	15.16
423.351	15.12
423.712	15.23
424.073	15.39
424.434	15.43
424.795	15.53
425.155	15.5
425.516	15.54
425.877	15.69
426.238	15.56
426.598	15.54
426.959	15.58
427.32	15.65
427.68	15.78
428.041	15.67
428.401	15.82
428.761	15.89
429.122	15.92
429.482	15.97
429.842	16.17
430.202	16.14
430.563	16.29
430.923	16.22
431.283	16.16
431.643	16.35
432.003	16.22
432.363	16.47
432.722	16.5
433.082	16.73
433.442	16.48
433.802	16.47
434.161	16.52
434.521	16.51
434.881	16.52
435.24	16.53
435.6	16.74
435.959	16.58
436.319	16.62
436.678	16.79
437.037	16.9
437.396	16.99
437.756	16.7
438.115	16.57
438.474	16.97
438.833	17.02
439.192	17.3
439.551	16.94
439.91	16.99
440.269	16.95
440.628	17.01
440.987	17.18
441.345	17.22
441.704	17.13
442.063	17.29
442.421	17.2
442.78	17.26
443.138	17.08
443.497	17.16
443.855	17.35
444.214	17.14
444.572	17.54
444.93	17.43
445.288	17.59
445.647	17.55
446.005	17.61
446.363	17.74
446.721	17.56
447.079	17.48
447.437	17.59
447.795	17.52
448.153	17.58
448.51	17.46
448.868	17.43
449.226	17.64
449.584	17.58
449.941	17.69
450.299	17.97
450.656	17.86
451.014	17.87
451.371	18.15
451.729	18.15
452.086	18.17
452.443	18.43
452.801	18.41
453.158	17.97
453.515	18.17
453.872	18.38
454.229	18.27
454.586	18.65
454.943	18.53
455.3	18.33
455.657	18.35
456.014	18.61
456.371	18.43
456.727	18.65
457.084	18.32
457.441	18.65
457.797	18.85
458.154	18.75
458.51	19.07
458.867	18.91
459.223	18.78
459.58	19.13
459.936	19.11
460.292	18.89
460.648	18.68
461.005	19.05
461.361	18.89
461.717	18.68
462.073	18.68
462.429	18.78
462.785	18.8
463.141	19.08
463.496	19.02
463.852	19.02
464.208	19.16
464.564	19.31
464.919	19.58
465.275	19.45
465.631	19.51
465.986	19.57
466.342	19.63
466.697	19.79
467.052	19.78
467.408	19.85
467.763	19.61
468.118	20
468.473	19.77
468.829	19.64
469.184	19.82
469.539	19.79
469.894	19.64
470.249	19.78
470.603	19.95
470.958	20.04
471.313	20.17
471.668	20.2
472.023	19.95
472.377	20.31
472.732	20.2
473.086	20.65
473.441	20.25
473.795	19.94
474.15	20.21
474.504	20.44
474.859	20.48
475.213	20.34
475.567	20.5
475.921	20.45
476.275	20.29
476.63	20.73
476.984	20.7
477.338	20.61
477.692	20.92
478.045	20.73
478.399	20.9
478.753	20.67
479.107	20.64
479.461	20.78
479.814	20.8
480.168	20.82
480.521	20.56
480.875	21.09
481.228	20.96
481.582	21
481.935	21.03
482.289	21.14
482.642	21.1
482.995	20.93
483.348	21.19
483.701	21.12
484.055	20.96
484.408	21.07
484.761	20.75
485.114	20.73
485.466	20.58
485.819	20.39
486.172	20.24
486.525	20.23
486.878	20.31
487.23	20.5
487.583	20.79
487.936	21.04
488.288	21
488.641	21.02
488.993	21.06
489.345	20.86
489.698	20.87
490.05	20.87
490.402	20.86
490.754	21.05
491.107	21.13
491.459	21.35
491.811	21.32
492.163	21.78
492.515	21.69
492.866	21.75
493.218	21.52
493.57	21.31
493.922	21.13
494.274	21.29
494.625	21.62
494.977	21.8
495.328	22.04
495.68	22
496.031	22.2
496.383	22.35
496.734	22.59
497.086	22.5
497.437	22.58
497.788	22.71
498.139	22.65
498.49	22.63
498.842	22.81
499.193	22.59
499.544	22.59
499.894	22.75
500.245	22.72
500.596	22.82
500.947	22.97
501.298	23.05
501.648	22.68
501.999	23.01
502.35	23.01
502.7	23.36
503.051	23.46
503.401	23.28
503.752	23.19
504.102	23.51
504.452	23.43
504.803	23.63
505.153	23.7
505.503	23.54
505.853	23.47
506.203	23.62
506.553	23.49
506.903	23.74
507.253	23.65
507.603	24.02
507.953	24.04
508.303	23.95
508.652	23.86
509.002	23.99
509.352	24.1
509.701	24.11
510.051	24.23
510.4	23.85
510.75	24.09
511.099	23.78
511.449	24.19
511.798	24.16
512.147	24.25
512.496	23.97
512.846	24.25
513.195	24.38
513.544	24.28
513.893	24.34
514.242	24.14
514.591	24.33
514.939	24.63
515.288	24.58
515.637	24.38
515.986	24.65
516.334	24.7
516.683	24.64
517.032	24.72
517.38	24.95
517.729	25.11
518.077	24.83
518.426	24.85
518.774	25.06
519.122	24.99
519.47	25.09
519.819	25.1
520.167	25.07
520.515	24.8
520.863	24.69
521.211	24.88
521.559	24.76
521.907	25.05
522.255	24.88
522.602	25.35
522.95	25.41
523.298	25.34
523.645	25.53
523.993	25.64
524.341	25.81
524.688	25.86
525.036	25.78
525.383	25.61
525.73	25.82
526.078	25.88
526.425	25.49
526.772	25.81
527.119	25.73
527.466	25.63
527.814	25.38
528.161	25.38
528.508	25.48
528.854	25.7
529.201	25.58
529.548	25.58
529.895	25.59
530.242	25.43
530.588	25.43
530.935	25.24
531.282	25.23
531.628	25.36
531.975	25.41
532.321	25.68
532.667	25.83
533.014	26.21
533.36	26.09
533.706	26.33
534.052	26.38
534.399	26.25
534.745	26.22
535.091	26.22
535.437	26.37
535.783	26.16
536.129	26.36
536.474	26.46
536.82	26.41
537.166	26.72
537.512	27.06
537.857	26.99
538.203	27
538.549	26.96
538.894	26.95
539.239	26.93
539.585	27.01
539.93	27.28
540.276	27.29
540.621	27.47
540.966	27.54
541.311	27.74
541.656	27.68
542.001	27.61
542.346	27.7
542.691	27.38
543.036	27.25
543.381	27.07
543.726	27.02
544.071	27.11
544.415	27.33
544.76	27.26
545.105	27.52
545.449	27.65
545.794	27.63
546.138	27.87
546.483	28.08
546.827	28.01
547.171	28.15
547.516	28.22
547.86	28.14
548.204	28.28
548.548	28.33
548.892	28.33
549.236	28.39
549.58	28.58
549.924	28.54
550.268	28.92
550.612	28.6
550.956	29.15
551.3	28.84
551.643	29.47
551.987	29.15
552.33	29.29
552.674	29.41
553.017	29.27
553.361	29.33
553.704	29.52
554.048	29.4
554.391	29.62
554.734	29.68
555.077	29.35
555.42	29.53
555.764	29.64
556.107	29.7
556.45	29.77
556.793	29.8
557.135	30.04
557.478	29.93
557.821	29.98
558.164	30.15
558.507	30.33
558.849	30.19
559.192	29.99
559.534	30.13
559.877	30.3
560.219	30.54
560.562	30.35
560.904	30.33
561.246	30.31
561.589	30.22
561.931	30.69
562.273	30.72
562.615	30.51
562.957	30.91
563.299	30.96
563.641	30.86
563.983	30.99
564.325	30.83
564.667	30.99
565.008	30.95
565.35	31.33
565.692	31.11
566.033	31.13
566.375	31.38
566.716	31.25
567.058	31.15
567.399	31.17
567.741	31.12
568.082	31.44
568.423	31.51
568.764	31.12
569.105	31.41
569.447	31.13
569.788	31.69
570.129	31.48
570.47	31.66
570.811	31.44
571.151	31.86
571.492	32.05
571.833	32.14
572.174	31.52
572.514	32.05
572.855	31.83
573.195	32.17
573.536	32.28
573.876	32.35
574.217	32.18
574.557	31.97
574.898	32.13
575.238	32.24
575.578	32.52
575.918	32.2
576.258	32.59
576.598	32.87
576.938	32.54
577.278	32.76
577.618	32.7
577.958	32.75
578.298	32.84
578.638	32.83
578.977	32.63
579.317	32.99
579.657	33.09
579.996	33.05
580.336	33.19
580.675	32.96
581.014	33.26
581.354	33.24
581.693	33.34
582.032	33.58
582.372	33.27
582.711	33.75
583.05	33.58
583.389	33.37
583.728	33.55
584.067	33.73
584.406	33.92
584.745	33.86
585.083	33.64
585.422	33.73
585.761	33.98
586.1	34.11
586.438	34.3
586.777	34.26
587.115	34.44
587.454	34.34
587.792	33.97
588.13	34.37
588.469	34.25
588.807	34.25
589.145	34.35
589.483	34.59
589.821	34.43
590.159	34.81
590.497	34.5
590.835	34.42
591.173	34.38
591.511	34.4
591.849	34.83
592.187	34.88
592.524	35.12
592.862	34.93
593.2	35.1
593.537	34.7
593.875	35.21
594.212	34.72
594.55	35.05
594.887	35.54
595.224	35.4
595.561	35.24
595.899	35.19
596.236	35.69
596.573	35.57
596.91	35.8
597.247	35.01
597.584	35.72
597.921	35.57
598.258	35.66
598.594	35.64
598.931	35.5
599.268	35.93
599.604	35.58
599.941	35.48
600.277	35.8
600.614	35.41
600.95	35.92
601.287	36.01
601.623	36.27
601.959	36.28
602.296	36.38
602.632	36.41
602.968	36.22
603.304	36.54
603.64	36
603.976	36.24
604.312	36.38
604.648	36.79
604.984	36.36
605.319	36.67
605.655	36.83
605.991	36.36
606.326	36.34
606.662	36.61
606.998	36.49
607.333	36.61
607.668	36.44
608.004	36.63
608.339	37
608.674	37.15
609.01	37.09
609.345	36.54
609.68	37.19
610.015	37.16
610.35	37.45
610.685	37.52
611.02	37.27
611.355	37.19
611.689	37
612.024	37.29
612.359	37.07
612.694	37.51
613.028	37.68
613.363	37.32
613.697	37.69
614.032	37.41
614.366	37.77
614.7	37.14
615.035	38.03
615.369	37.88
615.703	38.03
616.037	38.02
616.371	38.09
616.705	37.93
617.039	38.48
617.373	38.07
617.707	37.87
618.041	38.33
618.375	38.43
618.709	38.48
619.042	38.77
619.376	38.44
619.71	38.75
620.043	39.08
620.377	38.61
620.71	38.87
621.043	39.14
621.377	39
621.71	38.51
622.043	39.05
622.376	38.82
622.709	38.82
623.043	38.87
623.376	38.6
623.709	38.89
624.041	39.29
624.374	39.14
624.707	39.02
625.04	39.85
625.373	39.14
625.705	39.49
626.038	39.35
626.37	39.79
626.703	39.31
627.035	39.27
627.368	39.66
627.7	39.18
628.032	39.77
628.365	39.91
628.697	39.77
629.029	39.32
629.361	39.8
629.693	39.78
630.025	40.08
630.357	40.2
630.689	39.84
631.021	39.7
631.353	40.46
631.684	40.27
632.016	40
632.348	40.07
632.679	40.9
633.011	40.93
633.342	40.24
633.674	40.64
634.005	40.56
634.336	40.51
634.668	40.93
634.999	39.89
635.33	41.19
635.661	40.71
635.992	40.73
636.323	40.58
636.654	40.79
636.985	40.28
637.316	40.94
637.647	40.55
637.977	40.7
638.308	41.03
638.639	40.35
638.969	41.75
639.3	41.18
639.63	40.87
639.961	41.46
640.291	40.79
640.622	41.2
640.952	41.88
641.282	41.55
641.612	41.73
641.943	41.9
642.273	41.72
642.603	41.74
642.933	41.16
643.263	41.7
643.592	41.81
643.922	42.18
644.252	42.85
644.582	42.25
644.911	41.35
645.241	41.74
645.571	42.27
645.9	42.6
646.23	41.63
646.559	42.35
646.888	41.96
647.218	41.42
647.547	41.82
647.876	41.52
648.205	42.13
648.534	41.96
648.863	41.84
649.192	42.61
649.521	42.19
649.85	42.97
650.179	42.47
650.508	42.5
650.837	42.86
651.165	42.31
651.494	42.84
651.822	43.04
652.151	43.82
652.479	42.61
652.808	42.45
653.136	42.7
653.465	42.65
653.793	42.26
654.121	42.53
654.449	43.23
654.777	42.93
655.105	43.22
655.433	43.22
655.761	43.98
656.089	44.56
656.417	42.81
656.745	43.1
657.073	43.93
657.4	43.77
657.728	43.86
658.056	43.2
658.383	43.8
658.711	44
659.038	42.88
659.365	43.37
659.693	43.2
660.02	43.91
660.347	43.37
660.674	44.12
661.001	44.23
661.329	44.27
661.656	43.21
661.982	43.53
662.309	43.9
662.636	43.74
662.963	43.6
663.29	44.02
663.616	43.33
663.943	44.07
664.27	44.01
664.596	44.06
664.923	44.14
665.249	44.65
665.576	44.61
665.902	45.24
666.228	44.57
666.554	43.9
666.881	44.11
667.207	44.12
667.533	44.29
667.859	44.46
668.185	44.47
668.511	44.96
668.837	44.87
669.162	44.94
669.488	44.86
669.814	45.64
670.139	44.42
670.465	45.32
670.791	45.1
671.116	44.64
671.442	45.25
671.767	44.84
