Data from 18SC-1_crown_Reflection__2__98.txt Node

Date: Fri Sep 30 18:32:31 CDT 2022
User: ToomeyLab
Spectrometer: FLMS14357
Trigger mode: 0
Integration Time (sec): 1.000000E-2
Scans to average: 100
Electric dark correction enabled: true
Nonlinearity correction enabled: false
Boxcar width: 0
XAxis mode: Wavelengths
Number of Pixels in Spectrum: 2048
>>>>>Begin Spectral Data<<<<<
189.047	132.48
189.435	132.48
189.823	132.48
190.211	-244.8
190.599	96.87
190.987	109.66
191.375	84.04
191.763	-5873.08
192.151	-9910
192.538	-127.78
192.926	292.57
193.314	25.25
193.702	67.32
194.089	147.05
194.477	-683.33
194.864	1183.33
195.252	365.42
195.639	-15.99
196.027	298.62
196.414	53.01
196.801	374.44
197.189	-1015.12
197.576	-10.18
197.963	117.13
198.351	4.61
198.738	-7.62
199.125	42.1
199.512	-10.5
199.899	9.65
200.286	3.38
200.673	54.47
201.06	34.56
201.447	11.67
201.833	37.16
202.22	27.69
202.607	9.83
202.994	45.43
203.38	-34.65
203.767	2.03
204.154	32.02
204.54	8.39
204.927	17.54
205.313	-21.59
205.699	27.82
206.086	-25.09
206.472	-10.67
206.858	18.96
207.245	43.62
207.631	-27.89
208.017	-37.44
208.403	-4.36
208.789	0.72
209.175	30.11
209.561	-29.16
209.947	5.96
210.333	-26.7
210.719	-32.91
211.105	-26.76
211.491	-1.9
211.876	43.07
212.262	14.61
212.648	17.1
213.034	-6.94
213.419	2.1
213.805	-11.49
214.19	8.89
214.576	20.58
214.961	21.63
215.346	19.37
215.732	12.98
216.117	-14.34
216.502	10.05
216.888	24.05
217.273	-21.27
217.658	18.4
218.043	1.57
218.428	8.5
218.813	15.61
219.198	16.52
219.583	25.4
219.968	23.8
220.353	12.56
220.738	-1.23
221.122	-8.65
221.507	11.59
221.892	15.58
222.276	-4.4
222.661	8.74
223.046	-5.25
223.43	1.74
223.815	4.07
224.199	6.78
224.583	6.46
224.968	14.12
225.352	8.54
225.736	5.21
226.121	13.51
226.505	7.88
226.889	5.23
227.273	1.78
227.657	11.03
228.041	2.9
228.425	7.63
228.809	8.78
229.193	8.75
229.577	5.71
229.961	6.38
230.344	6.14
230.728	5.87
231.112	6.03
231.495	6.96
231.879	7.47
232.263	5.62
232.646	5.59
233.03	5.8
233.413	6.1
233.797	7.33
234.18	4.36
234.563	6.1
234.946	7.24
235.33	4.33
235.713	6.35
236.096	6.12
236.479	6.37
236.862	6.28
237.245	6.24
237.628	5.28
238.011	7.55
238.394	6.1
238.777	4.23
239.16	4.92
239.543	7.02
239.925	6.46
240.308	6.81
240.691	6.42
241.073	6.78
241.456	6.2
241.838	5.93
242.221	5.92
242.603	6.45
242.986	6.54
243.368	6
243.75	6.02
244.133	6.3
244.515	6.03
244.897	6.39
245.279	6.92
245.661	5.95
246.043	5.71
246.425	5.93
246.807	5.29
247.189	6.35
247.571	6.31
247.953	5.79
248.335	5.79
248.717	5.95
249.098	5.95
249.48	6.04
249.862	5.52
250.243	5.6
250.625	5.87
251.006	6.46
251.388	5.14
251.769	6.4
252.151	5.64
252.532	6.19
252.913	5.77
253.295	5.93
253.676	5.29
254.057	5.63
254.438	5.54
254.819	6.5
255.2	5.92
255.581	5.06
255.962	6.14
256.343	5.03
256.724	6.38
257.105	6.14
257.486	5.66
257.867	4.85
258.247	5.15
258.628	6.9
259.009	6.12
259.389	5.31
259.77	5.38
260.15	5.3
260.531	5.72
260.911	5.73
261.292	5.23
261.672	5.32
262.052	5.21
262.432	5.26
262.813	5.86
263.193	5.26
263.573	5.24
263.953	4.7
264.333	5.66
264.713	5.36
265.093	5.27
265.473	5.33
265.853	5.32
266.233	4.87
266.612	5.46
266.992	5.28
267.372	4.7
267.752	5.04
268.131	5.37
268.511	5.21
268.89	5.11
269.27	5.48
269.649	5.3
270.029	5.3
270.408	5.54
270.787	5.49
271.167	5.34
271.546	5.78
271.925	5.71
272.304	5.21
272.683	5.26
273.062	5.19
273.441	5.27
273.82	4.91
274.199	4.98
274.578	5.33
274.957	4.88
275.336	5.08
275.715	5.24
276.093	5.2
276.472	4.36
276.851	4.98
277.229	5.38
277.608	5.43
277.986	4.6
278.365	5.48
278.743	4.71
279.122	5.15
279.5	5.35
279.878	5.14
280.257	4.97
280.635	5.02
281.013	5.95
281.391	4.65
281.769	5.27
282.147	4.85
282.525	5.24
282.903	4.55
283.281	5.05
283.659	5.19
284.037	4.66
284.415	5.05
284.792	4.94
285.17	4.33
285.548	4.98
285.925	4.96
286.303	5.05
286.68	4.9
287.058	4.61
287.435	4.7
287.813	4.95
288.19	4.68
288.567	4.87
288.945	4.47
289.322	4.2
289.699	4.73
290.076	4.36
290.453	4.94
290.83	4.65
291.207	4.48
291.584	4.66
291.961	4.77
292.338	4.97
292.715	4.86
293.092	4.4
293.469	4.75
293.845	5.1
294.222	4.66
294.599	5.06
294.975	4.96
295.352	4.91
295.728	4.84
296.105	4.68
296.481	4.94
296.858	4.94
297.234	4.83
297.61	4.66
297.986	4.52
298.363	4.79
298.739	4.51
299.115	4.84
299.491	4.64
299.867	4.66
300.243	4.32
300.619	4.45
300.995	5.42
301.371	4.54
301.746	4.7
302.122	4.86
302.498	4.62
302.874	4.81
303.249	4.68
303.625	4.87
304	4.53
304.376	4.88
304.751	4.95
305.127	4.73
305.502	5.15
305.878	4.8
306.253	4.83
306.628	4.44
307.003	4.67
307.378	4.19
307.754	4.82
308.129	4.71
308.504	4.61
308.879	4.61
309.254	4.75
309.629	5.01
310.003	4.58
310.378	4.52
310.753	4.3
311.128	4.49
311.502	4.54
311.877	4.81
312.252	4.79
312.626	4.66
313.001	4.57
313.375	4.3
313.75	4.74
314.124	4.7
314.498	3.91
314.873	4.42
315.247	4.33
315.621	4.88
315.995	4.93
316.369	4.33
316.743	4.47
317.117	5.1
317.491	5.96
317.865	5.08
318.239	4.73
318.613	4.48
318.987	4.28
319.361	4.5
319.734	3.97
320.108	4.73
320.482	4.29
320.855	4.31
321.229	4.9
321.602	4.23
321.976	4.84
322.349	4.7
322.723	4
323.096	5.5
323.469	4.69
323.843	4.56
324.216	4.45
324.589	4.89
324.962	4.63
325.335	4.63
325.708	4.47
326.081	4.52
326.454	4.35
326.827	4.64
327.2	4.39
327.573	4.24
327.945	4.6
328.318	4.58
328.691	4.82
329.063	4.73
329.436	4.33
329.809	4.95
330.181	4.98
330.553	4.85
330.926	4.74
331.298	4.44
331.671	5
332.043	4.33
332.415	4.64
332.787	4.2
333.159	4.67
333.532	4.83
333.904	4.67
334.276	4.73
334.648	4.25
335.02	4.99
335.391	5.1
335.763	4.45
336.135	4.26
336.507	4.92
336.879	4.97
337.25	4.01
337.622	4.65
337.993	4.48
338.365	4.94
338.736	4.75
339.108	4.44
339.479	5.06
339.851	4.75
340.222	4.53
340.593	4.27
340.964	4.19
341.336	4.5
341.707	4.83
342.078	4.65
342.449	4.6
342.82	4.42
343.191	4.43
343.562	4.44
343.933	4.79
344.303	4.18
344.674	4.63
345.045	4.1
345.416	4.65
345.786	4.49
346.157	5.09
346.527	4.62
346.898	4.68
347.268	4.29
347.639	4.29
348.009	4.9
348.38	4.9
348.75	4.99
349.12	4.87
349.49	4.57
349.861	4.76
350.231	4.49
350.601	4.99
350.971	4.74
351.341	4.93
351.711	4.31
352.081	4.53
352.45	4.88
352.82	4.8
353.19	5.12
353.56	4.79
353.929	4.46
354.299	4.63
354.669	4.85
355.038	4.6
355.408	5.01
355.777	4.8
356.147	4.83
356.516	5.02
356.885	4.4
357.254	4.69
357.624	4.87
357.993	4.51
358.362	4.23
358.731	4.86
359.1	4.49
359.469	4.48
359.838	4.96
360.207	4.66
360.576	4.46
360.945	4.7
361.314	4.66
361.682	4.81
362.051	4.68
362.42	4.58
362.788	4.64
363.157	4.46
363.525	4.4
363.894	4.7
364.262	4.92
364.631	5.03
364.999	4.87
365.367	4.94
365.735	4.48
366.104	4.41
366.472	5.12
366.84	5.01
367.208	4.78
367.576	5.49
367.944	4.66
368.312	4.84
368.68	4.44
369.048	4.33
369.416	4.69
369.783	4.47
370.151	4.94
370.519	5.18
370.886	5.05
371.254	5.07
371.621	5.24
371.989	4.81
372.356	5
372.724	4.64
373.091	4.28
373.458	4.95
373.826	4.91
374.193	5
374.56	5.07
374.927	5.34
375.294	4.89
375.661	4.54
376.028	4.55
376.395	4.51
376.762	4.69
377.129	4.92
377.496	5.17
377.863	4.65
378.229	5.25
378.596	4.67
378.963	4.84
379.329	4.94
379.696	4.96
380.062	5.14
380.429	4.85
380.795	5.16
381.161	4.62
381.528	4.9
381.894	4.87
382.26	4.8
382.626	4.88
382.993	4.85
383.359	5
383.725	4.78
384.091	4.69
384.457	4.96
384.823	4.95
385.188	5.17
385.554	5.08
385.92	5.36
386.286	5.09
386.651	5.11
387.017	5.01
387.383	4.93
387.748	4.82
388.114	5.17
388.479	5.06
388.845	4.9
389.21	4.98
389.575	5.14
389.94	4.94
390.306	4.89
390.671	4.97
391.036	5.12
391.401	4.68
391.766	4.95
392.131	5.01
392.496	5.07
392.861	5.07
393.226	5.03
393.591	4.97
393.956	5.13
394.32	4.92
394.685	4.87
395.05	4.98
395.414	4.8
395.779	5.14
396.143	5.24
396.508	4.86
396.872	5.08
397.236	5
397.601	5.05
397.965	5.13
398.329	5.09
398.694	5.32
399.058	5.1
399.422	5.24
399.786	5.15
400.15	5.13
400.514	5.07
400.878	5.05
401.242	5.01
401.605	5.15
401.969	5.11
402.333	5.05
402.697	5.2
403.06	4.92
403.424	5.09
403.787	5.17
404.151	5.38
404.514	5.18
404.878	5.24
405.241	5.08
405.604	5.32
405.968	5.11
406.331	5.05
406.694	5.17
407.057	5.23
407.42	5.44
407.783	4.98
408.146	4.98
408.509	5.35
408.872	5.28
409.235	5.37
409.598	5.18
409.961	5.15
410.323	5.36
410.686	5.43
411.049	5.05
411.411	5.27
411.774	5.31
412.136	5.29
412.499	5.25
412.861	4.98
413.223	4.91
413.586	5.31
413.948	5.24
414.31	5.25
414.672	5.16
415.035	5.35
415.397	5.23
415.759	5.27
416.121	5.27
416.483	5.24
416.845	5.25
417.206	5.39
417.568	5.25
417.93	5.14
418.292	5.2
418.653	5.13
419.015	5.42
419.377	5.25
419.738	5.05
420.1	5.37
420.461	5.27
420.822	5.35
421.184	5.24
421.545	5.18
421.906	5.01
422.267	5.12
422.629	5.19
422.99	5.12
423.351	5.04
423.712	5.15
424.073	5.21
424.434	5.3
424.795	5.16
425.155	5.16
425.516	5.13
425.877	5.24
426.238	5.16
426.598	5.27
426.959	5.29
427.32	5.27
427.68	5.21
428.041	5.21
428.401	5.24
428.761	5.3
429.122	5.22
429.482	5.24
429.842	5.43
430.202	5.19
430.563	5.16
430.923	5.41
431.283	5.22
431.643	5.53
432.003	5.34
432.363	5.27
432.722	5.55
433.082	5.42
433.442	5.29
433.802	5.45
434.161	5.29
434.521	5.42
434.881	5.21
435.24	5.41
435.6	5.35
435.959	5.28
436.319	5.51
436.678	5.4
437.037	5.47
437.396	5.5
437.756	5.35
438.115	5.39
438.474	5.39
438.833	5.48
439.192	5.44
439.551	5.43
439.91	5.4
440.269	5.19
440.628	5.41
440.987	5.45
441.345	5.54
441.704	5.44
442.063	5.45
442.421	5.47
442.78	5.36
443.138	5.34
443.497	5.35
443.855	5.48
444.214	5.42
444.572	5.56
444.93	5.39
445.288	5.38
445.647	5.49
446.005	5.37
446.363	5.44
446.721	5.43
447.079	5.33
447.437	5.41
447.795	5.39
448.153	5.33
448.51	5.36
448.868	5.4
449.226	5.42
449.584	5.43
449.941	5.39
450.299	5.41
450.656	5.56
451.014	5.54
451.371	5.47
451.729	5.46
452.086	5.54
452.443	5.54
452.801	5.64
453.158	5.31
453.515	5.51
453.872	5.66
454.229	5.46
454.586	5.67
454.943	5.72
455.3	5.56
455.657	5.62
456.014	5.36
456.371	5.54
456.727	5.63
457.084	5.5
457.441	5.64
457.797	5.6
458.154	5.49
458.51	5.47
458.867	5.63
459.223	5.62
459.58	5.55
459.936	5.74
460.292	5.63
460.648	5.47
461.005	5.53
461.361	5.47
461.717	5.39
462.073	5.42
462.429	5.35
462.785	5.54
463.141	5.63
463.496	5.54
463.852	5.61
464.208	5.58
464.564	5.48
464.919	5.55
465.275	5.76
465.631	5.64
465.986	5.67
466.342	5.65
466.697	5.65
467.052	5.63
467.408	5.52
467.763	5.49
468.118	5.75
468.473	5.6
468.829	5.51
469.184	5.63
469.539	5.66
469.894	5.68
470.249	5.58
470.603	5.75
470.958	5.58
471.313	5.6
471.668	5.75
472.023	5.69
472.377	5.81
472.732	5.68
473.086	5.62
473.441	5.79
473.795	5.69
474.15	5.75
474.504	5.86
474.859	5.75
475.213	5.69
475.567	5.6
475.921	5.73
476.275	5.58
476.63	5.65
476.984	5.67
477.338	5.56
477.692	5.79
478.045	5.67
478.399	5.53
478.753	5.74
479.107	5.53
479.461	5.61
479.814	5.58
480.168	5.63
480.521	5.64
480.875	5.84
481.228	5.79
481.582	5.72
481.935	5.74
482.289	5.78
482.642	5.59
482.995	5.61
483.348	5.69
483.701	5.67
484.055	5.62
484.408	5.53
484.761	5.46
485.114	5.39
485.466	5.35
485.819	5.35
486.172	5.38
486.525	5.45
486.878	5.52
487.23	5.58
487.583	5.54
487.936	5.65
488.288	5.63
488.641	5.53
488.993	5.5
489.345	5.47
489.698	5.48
490.05	5.47
490.402	5.59
490.754	5.57
491.107	5.61
491.459	5.62
491.811	5.7
492.163	5.56
492.515	5.63
492.866	5.54
493.218	5.52
493.57	5.49
493.922	5.58
494.274	5.61
494.625	5.66
494.977	5.72
495.328	5.81
495.68	5.65
496.031	5.81
496.383	5.78
496.734	5.8
497.086	5.86
497.437	5.74
497.788	5.84
498.139	5.7
498.49	5.67
498.842	5.85
499.193	5.76
499.544	5.7
499.894	5.86
500.245	5.78
500.596	5.69
500.947	5.74
501.298	5.91
501.648	5.78
501.999	5.85
502.35	5.83
502.7	5.76
503.051	5.8
503.401	5.73
503.752	5.7
504.102	5.88
504.452	5.76
504.803	5.86
505.153	5.91
505.503	5.76
505.853	5.84
506.203	5.8
506.553	5.7
506.903	5.95
507.253	5.81
507.603	5.85
507.953	5.94
508.303	5.89
508.652	5.84
509.002	5.98
509.352	5.91
509.701	5.79
510.051	5.94
510.4	5.79
510.75	5.85
511.099	5.66
511.449	5.81
511.798	5.78
512.147	5.81
512.496	5.81
512.846	5.85
513.195	5.77
513.544	5.76
513.893	5.84
514.242	5.83
514.591	5.79
514.939	5.81
515.288	5.93
515.637	5.69
515.986	5.83
516.334	5.87
516.683	5.78
517.032	5.84
517.38	5.73
517.729	5.85
518.077	5.79
518.426	5.76
518.774	5.78
519.122	5.76
519.47	5.88
519.819	5.85
520.167	5.77
520.515	5.79
520.863	5.79
521.211	5.91
521.559	5.88
521.907	5.81
522.255	5.76
522.602	5.82
522.95	5.9
523.298	5.98
523.645	5.81
523.993	5.84
524.341	5.95
524.688	5.83
525.036	5.83
525.383	5.75
525.73	5.88
526.078	5.84
526.425	5.8
526.772	5.85
527.119	5.68
527.466	5.81
527.814	5.75
528.161	5.77
528.508	5.76
528.854	5.72
529.201	5.76
529.548	5.67
529.895	5.58
530.242	5.59
530.588	5.66
530.935	5.63
531.282	5.71
531.628	5.67
531.975	5.7
532.321	5.79
532.667	5.8
533.014	5.76
533.36	5.83
533.706	5.92
534.052	5.84
534.399	5.73
534.745	5.68
535.091	5.68
535.437	5.78
535.783	5.69
536.129	5.76
536.474	5.75
536.82	5.85
537.166	5.79
537.512	5.76
537.857	5.87
538.203	5.87
538.549	5.74
538.894	5.82
539.239	5.79
539.585	5.84
539.93	5.91
540.276	5.98
540.621	5.99
540.966	5.98
541.311	5.94
541.656	5.81
542.001	5.83
542.346	5.88
542.691	5.72
543.036	5.64
543.381	5.69
543.726	5.79
544.071	5.85
544.415	5.81
544.76	5.8
545.105	5.8
545.449	5.83
545.794	5.78
546.138	5.86
546.483	5.95
546.827	5.77
547.171	5.87
547.516	5.83
547.86	5.8
548.204	5.8
548.548	5.84
548.892	5.92
549.236	5.87
549.58	5.87
549.924	5.87
550.268	6.06
550.612	5.99
550.956	6.12
551.3	5.93
551.643	5.96
551.987	6.05
552.33	5.93
552.674	5.98
553.017	5.77
553.361	5.79
553.704	6.12
554.048	5.9
554.391	6.03
554.734	5.92
555.077	6.07
555.42	6
555.764	5.83
556.107	5.98
556.45	6.01
556.793	5.73
557.135	6.09
557.478	6
557.821	5.94
558.164	5.98
558.507	6.24
558.849	5.98
559.192	5.89
559.534	5.99
559.877	6.09
560.219	6.06
560.562	5.97
560.904	5.96
561.246	5.97
561.589	5.84
561.931	6.07
562.273	6.1
562.615	5.96
562.957	5.95
563.299	5.97
563.641	5.83
563.983	5.82
564.325	5.82
564.667	6.15
565.008	5.98
565.35	5.84
565.692	6.04
566.033	5.85
566.375	5.76
566.716	5.97
567.058	5.89
567.399	5.84
567.741	5.81
568.082	6
568.423	5.99
568.764	5.82
569.105	5.97
569.447	6.02
569.788	5.98
570.129	6.15
570.47	5.94
570.811	5.86
571.151	5.92
571.492	6.12
571.833	5.82
572.174	5.78
572.514	5.99
572.855	5.8
573.195	5.99
573.536	5.95
573.876	5.91
574.217	5.89
574.557	5.9
574.898	5.96
575.238	5.91
575.578	5.9
575.918	5.83
576.258	6.07
576.598	5.98
576.938	5.94
577.278	6
577.618	6.05
577.958	6.1
578.298	6.05
578.638	6.06
578.977	5.83
579.317	5.7
579.657	5.95
579.996	6.16
580.336	6.02
580.675	5.87
581.014	5.88
581.354	5.99
581.693	6.11
582.032	6.03
582.372	5.81
582.711	5.97
583.05	6.04
583.389	6
583.728	5.99
584.067	6.09
584.406	5.94
584.745	5.98
585.083	5.86
585.422	6.2
585.761	5.85
586.1	5.91
586.438	6.04
586.777	6.18
587.115	6.11
587.454	5.94
587.792	5.97
588.13	6.04
588.469	6.01
588.807	5.98
589.145	5.8
589.483	6.19
589.821	6.01
590.159	6.17
590.497	5.78
590.835	6.04
591.173	5.94
591.511	6
591.849	6.09
592.187	6.06
592.524	5.84
592.862	6.18
593.2	6.05
593.537	5.84
593.875	6.15
594.212	5.97
594.55	5.97
594.887	6.37
595.224	5.96
595.561	5.85
595.899	5.79
596.236	6.23
596.573	6
596.91	6
597.247	5.96
597.584	6.05
597.921	6.06
598.258	5.88
598.594	5.88
598.931	5.84
599.268	5.87
599.604	5.92
599.941	5.87
600.277	6.03
600.614	6.12
600.95	6.25
601.287	5.86
601.623	5.98
601.959	6.12
602.296	5.9
602.632	6.08
602.968	6.18
603.304	5.83
603.64	6.12
603.976	5.84
604.312	5.94
604.648	6
604.984	6.09
605.319	5.78
605.655	6.05
605.991	6.19
606.326	5.92
606.662	5.93
606.998	5.84
607.333	5.91
607.668	5.85
608.004	6.03
608.339	6.15
608.674	5.97
609.01	5.95
609.345	5.58
609.68	6.04
610.015	6.13
610.35	5.95
610.685	5.76
611.02	5.92
611.355	5.63
611.689	5.69
612.024	6.1
612.359	6.03
612.694	5.95
613.028	6.12
613.363	5.82
613.697	5.86
614.032	6.08
614.366	5.55
614.7	5.98
615.035	6.14
615.369	5.98
615.703	5.94
616.037	5.98
616.371	5.82
616.705	5.96
617.039	6.19
617.373	5.96
617.707	5.85
618.041	5.89
618.375	5.87
618.709	5.92
619.042	5.79
619.376	6.45
619.71	6.13
620.043	6.24
620.377	6.29
620.71	6.04
621.043	5.84
621.377	5.83
621.71	5.85
622.043	5.79
622.376	5.91
622.709	5.78
623.043	5.62
623.376	5.66
623.709	5.91
624.041	6.15
624.374	6.15
624.707	5.67
625.04	6.13
625.373	6.11
625.705	5.81
626.038	6.08
626.37	6.29
626.703	6.27
627.035	5.96
627.368	6
627.7	6.01
628.032	6.08
628.365	6.05
628.697	6.1
629.029	5.77
629.361	5.94
629.693	6.11
630.025	6.06
630.357	6.12
630.689	6.08
631.021	6.02
631.353	5.93
631.684	5.99
632.016	6.28
632.348	6.03
632.679	5.96
633.011	5.88
633.342	6.06
633.674	6.2
634.005	6.08
634.336	5.91
634.668	6.29
634.999	6.12
635.33	6.42
635.661	5.94
635.992	5.95
636.323	6.34
636.654	5.56
636.985	5.88
637.316	6.29
637.647	5.85
637.977	6.14
638.308	5.92
638.639	5.58
638.969	6.12
639.3	5.88
639.63	5.5
639.961	6.01
640.291	6.04
640.622	6.26
640.952	6.43
641.282	6.36
641.612	5.63
641.943	5.98
642.273	5.93
642.603	5.66
642.933	5.58
643.263	6.2
643.592	6.03
643.922	5.78
644.252	5.92
644.582	6.41
644.911	6.43
645.241	6.45
645.571	6.42
645.9	5.91
646.23	5.81
646.559	5.45
646.888	5.81
647.218	5.98
647.547	5.84
647.876	5.83
648.205	5.93
648.534	6.32
648.863	5.74
649.192	5.64
649.521	6.05
649.85	6.21
650.179	6.06
650.508	6
650.837	6.12
651.165	6.29
651.494	5.85
651.822	6.63
652.151	6.41
652.479	6.08
652.808	6.19
653.136	6.42
653.465	5.74
653.793	5.89
654.121	5.53
654.449	6.01
654.777	5.97
655.105	5.9
655.433	5.95
655.761	6.84
656.089	6.14
656.417	5.66
656.745	6.2
657.073	6.32
657.4	6.1
657.728	6.14
658.056	6.24
658.383	6.34
658.711	6.36
659.038	5.66
659.365	6.25
659.693	5.77
660.02	6.11
660.347	6.09
660.674	6.29
661.001	6.22
661.329	5.94
661.656	5.7
661.982	6.43
662.309	6.61
662.636	6.37
662.963	5.68
663.29	5.69
663.616	5.58
663.943	6.24
664.27	5.96
664.596	5.34
664.923	6.12
665.249	6.2
665.576	6.38
665.902	6.02
666.228	6.52
666.554	6.02
666.881	6.19
667.207	6.31
667.533	6.08
667.859	6.61
668.185	6.19
668.511	5.96
668.837	6.42
669.162	6.23
669.488	6.53
669.814	6.61
670.139	5.62
670.465	6.64
670.791	6.34
671.116	5.95
671.442	6.16
671.767	6.11
672.092	5.67
672.418	5.96
672.743	6
673.068	6.35
673.393	6.24
673.718	6.07
674.043	6.62
674.368	6.33
674.693	5.85
675.018	6.47
675.343	6.29
675.667	6.53
675.992	5.65
676.317	6.09
676.641	5.98
676.966	5.94
677.29	5.37
677.615	5.83
677.939	6.7
678.264	5.94
678.588	5.87
678.912	6.03
679.236	6.17
679.56	5.72
679.885	6.44
680.209	6.29
680.532	5.59
680.856	6.26
681.18	6.39
681.504	6.04
681.828	6.06
682.152	5.73
682.475	5.91
682.799	6.42
683.122	6.28
683.446	6.53
683.769	6.46
684.093	7.15
684.416	7.09
684.739	6.66
685.062	6.27
685.386	6.84
685.709	5.79
686.032	6.5
686.355	6.39
686.678	5.76
687.001	6.23
687.324	6.72
687.646	5.7
687.969	6.36
688.292	6.68
688.614	6.04
688.937	5.82
689.26	6.51
689.582	6.49
689.904	6.65
690.227	5.84
690.549	6.38
690.871	6.57
691.194	5.59
691.516	6.4
691.838	5.95
692.16	6.23
692.482	7
692.804	7.04
693.126	6.14
