Data from 18SC-1_crown_Reflection__1__97.txt Node

Date: Fri Sep 30 18:32:21 CDT 2022
User: ToomeyLab
Spectrometer: FLMS14357
Trigger mode: 0
Integration Time (sec): 1.000000E-2
Scans to average: 100
Electric dark correction enabled: true
Nonlinearity correction enabled: false
Boxcar width: 0
XAxis mode: Wavelengths
Number of Pixels in Spectrum: 2048
>>>>>Begin Spectral Data<<<<<
189.047	-68.06
189.435	-68.06
189.823	-68.06
190.211	-235.55
190.599	167.71
190.987	234.99
191.375	85.85
191.763	-5626.92
192.151	10890
192.538	32.91
192.926	-73.62
193.314	233.4
193.702	107.18
194.089	52.77
194.477	-310
194.864	490
195.252	118.77
195.639	-12.97
196.027	168.3
196.414	-10.36
196.801	723.09
197.189	-2298.84
197.576	-176.55
197.963	8.29
198.351	15.7
198.738	1.29
199.125	55.36
199.512	25.21
199.899	6.71
200.286	20.01
200.673	31.5
201.06	17.22
201.447	34.65
201.833	24.9
202.22	42.2
202.607	29.73
202.994	64.96
203.38	38.1
203.767	41.45
204.154	51.87
204.54	31.57
204.927	22.14
205.313	-28.27
205.699	8.49
206.086	-37.98
206.472	9.55
206.858	18.87
207.245	18.94
207.631	-15
208.017	-19.91
208.403	-0.83
208.789	3.65
209.175	44
209.561	37.17
209.947	9.43
210.333	-25.02
210.719	-10.32
211.105	-12.6
211.491	-11
211.876	62.44
212.262	25.66
212.648	34.3
213.034	-23.79
213.419	5.94
213.805	-3.22
214.19	20.53
214.576	0.44
214.961	27.36
215.346	6.76
215.732	24.32
216.117	-9.46
216.502	38.69
216.888	38.31
217.273	3.95
217.658	26.02
218.043	23.83
218.428	-0.07
218.813	21.47
219.198	29.48
219.583	26.72
219.968	11.72
220.353	10.32
220.738	31.1
221.122	18.42
221.507	28.25
221.892	-2.29
222.276	-5.62
222.661	15.38
223.046	14.03
223.43	3.71
223.815	12.44
224.199	1.67
224.583	-2.03
224.968	2.02
225.352	10.29
225.736	8.25
226.121	5.62
226.505	5.18
226.889	5.28
227.273	0.32
227.657	9.84
228.041	5.36
228.425	8.27
228.809	8.35
229.193	8.36
229.577	3.02
229.961	4.9
230.344	3.28
230.728	3.36
231.112	3.62
231.495	3.35
231.879	5.47
232.263	3.07
232.646	2.78
233.03	5.18
233.413	5.01
233.797	3.83
234.18	3.42
234.563	4.43
234.946	2.93
235.33	2.93
235.713	4.75
236.096	4.76
236.479	3.96
236.862	3.36
237.245	4.56
237.628	1.11
238.011	4.93
238.394	4.73
238.777	3.66
239.16	2.49
239.543	3.29
239.925	3.97
240.308	3.38
240.691	3.74
241.073	4.1
241.456	3.64
241.838	4.91
242.221	4.17
242.603	3.91
242.986	4.06
243.368	2.57
243.75	3.39
244.133	4.11
244.515	3.85
244.897	3.66
245.279	4.45
245.661	3.59
246.043	4.2
246.425	3.65
246.807	3.53
247.189	4.02
247.571	3.98
247.953	3.81
248.335	3.44
248.717	3.37
249.098	3.6
249.48	3.58
249.862	3.4
250.243	3.17
250.625	4.05
251.006	3.65
251.388	3.09
251.769	4.46
252.151	3.88
252.532	3.78
252.913	4.06
253.295	3.39
253.676	2.88
254.057	3.5
254.438	3.17
254.819	4.05
255.2	3.7
255.581	3.76
255.962	3.22
256.343	3.76
256.724	3.46
257.105	4.31
257.486	3.43
257.867	4.12
258.247	2.36
258.628	4.31
259.009	3.95
259.389	3.24
259.77	3.75
260.15	3.01
260.531	3.65
260.911	3.3
261.292	3.1
261.672	3.21
262.052	3.4
262.432	3.44
262.813	4.17
263.193	2.99
263.573	3.16
263.953	2.89
264.333	4.1
264.713	2.68
265.093	3.07
265.473	3.58
265.853	3.77
266.233	3.47
266.612	2.44
266.992	3.07
267.372	2.59
267.752	2.46
268.131	2.92
268.511	3.21
268.89	3
269.27	2.95
269.649	3.03
270.029	3.18
270.408	3.18
270.787	3.47
271.167	2.79
271.546	3.49
271.925	3.39
272.304	3.11
272.683	3.21
273.062	3.17
273.441	2.87
273.82	2.31
274.199	3.31
274.578	3.25
274.957	3.22
275.336	3.24
275.715	2.88
276.093	2.85
276.472	3.07
276.851	3.19
277.229	3.4
277.608	3.27
277.986	2.71
278.365	3.47
278.743	2.99
279.122	3.33
279.5	2.89
279.878	2.83
280.257	3.04
280.635	3.57
281.013	3.63
281.391	3.18
281.769	2.85
282.147	3.02
282.525	3.38
282.903	2.9
283.281	2.55
283.659	2.99
284.037	2.34
284.415	3.03
284.792	3.04
285.17	2.45
285.548	2.96
285.925	3.26
286.303	2.85
286.68	2.35
287.058	2.82
287.435	2.99
287.813	3.07
288.19	2.95
288.567	2.55
288.945	2.35
289.322	2.76
289.699	2.77
290.076	2.82
290.453	3.06
290.83	2.66
291.207	2.58
291.584	2.54
291.961	2.68
292.338	2.67
292.715	3.37
293.092	2.56
293.469	3.03
293.845	2.77
294.222	2.67
294.599	3.29
294.975	3.3
295.352	2.99
295.728	2.77
296.105	2.81
296.481	2.76
296.858	2.85
297.234	2.94
297.61	2.46
297.986	2.61
298.363	2.7
298.739	2.52
299.115	2.75
299.491	2.76
299.867	3.08
300.243	2.82
300.619	2.55
300.995	3.2
301.371	2.97
301.746	2.84
302.122	2.54
302.498	2.55
302.874	2.92
303.249	3.1
303.625	2.56
304	2.79
304.376	2.87
304.751	2.98
305.127	3.28
305.502	2.87
305.878	2.96
306.253	3.01
306.628	2.52
307.003	2.58
307.378	2.6
307.754	2.68
308.129	3.25
308.504	2.61
308.879	2.48
309.254	2.14
309.629	2.84
310.003	2.41
310.378	2.63
310.753	2.24
311.128	2.59
311.502	2.58
311.877	2.71
312.252	2.67
312.626	2.79
313.001	2.92
313.375	2.72
313.75	2.94
314.124	2.49
314.498	2.51
314.873	2.35
315.247	2.89
315.621	3.25
315.995	3.22
316.369	2.52
316.743	2.85
317.117	3.45
317.491	3.21
317.865	3.43
318.239	3.34
318.613	2.63
318.987	2.94
319.361	2.34
319.734	2.13
320.108	2.52
320.482	2.63
320.855	2.76
321.229	2.88
321.602	2.75
321.976	2.38
322.349	2.67
322.723	2.38
323.096	3.41
323.469	2.97
323.843	2.69
324.216	2.71
324.589	3.16
324.962	3.01
325.335	2.31
325.708	2.67
326.081	2.8
326.454	2.77
326.827	2.93
327.2	2.95
327.573	2.65
327.945	2.81
328.318	2.33
328.691	2.66
329.063	2.59
329.436	2.33
329.809	2.99
330.181	2.98
330.553	2.49
330.926	3.06
331.298	2.68
331.671	2.82
332.043	2.59
332.415	3.39
332.787	2.51
333.159	2.92
333.532	2.62
333.904	3.03
334.276	3.05
334.648	2.71
335.02	3.31
335.391	3.17
335.763	2.98
336.135	2.81
336.507	2.86
336.879	2.99
337.25	2.25
337.622	2.77
337.993	2.8
338.365	3.02
338.736	2.66
339.108	2.68
339.479	3.05
339.851	2.63
340.222	2.9
340.593	2.95
340.964	2.43
341.336	2.73
341.707	2.65
342.078	2.67
342.449	2.86
342.82	2.64
343.191	2.73
343.562	2.82
343.933	2.62
344.303	2.59
344.674	2.74
345.045	2.82
345.416	2.83
345.786	2.58
346.157	3.13
346.527	2.76
346.898	2.88
347.268	2.58
347.639	2.71
348.009	2.76
348.38	3.45
348.75	3.08
349.12	2.89
349.49	3.18
349.861	2.66
350.231	2.71
350.601	2.66
350.971	2.53
351.341	2.84
351.711	2.41
352.081	2.65
352.45	2.89
352.82	2.98
353.19	3.24
353.56	2.78
353.929	2.42
354.299	2.67
354.669	2.79
355.038	2.89
355.408	3.09
355.777	2.5
356.147	2.98
356.516	2.96
356.885	2.65
357.254	2.87
357.624	2.87
357.993	2.69
358.362	3.3
358.731	2.49
359.1	2.71
359.469	2.63
359.838	2.99
360.207	2.71
360.576	2.44
360.945	3
361.314	2.72
361.682	2.63
362.051	2.93
362.42	2.87
362.788	2.78
363.157	2.86
363.525	2.5
363.894	2.8
364.262	2.72
364.631	3.26
364.999	2.84
365.367	2.91
365.735	2.84
366.104	2.47
366.472	3
366.84	3.09
367.208	2.55
367.576	3.17
367.944	2.76
368.312	2.47
368.68	2.75
369.048	2.65
369.416	3.23
369.783	2.71
370.151	2.68
370.519	3.03
370.886	3.14
371.254	2.97
371.621	3.48
371.989	3.16
372.356	2.96
372.724	2.9
373.091	2.64
373.458	2.65
373.826	2.98
374.193	3.04
374.56	3.17
374.927	3.51
375.294	3.22
375.661	2.69
376.028	2.89
376.395	2.86
376.762	2.82
377.129	3.2
377.496	3.28
377.863	2.6
378.229	3.29
378.596	2.94
378.963	3.12
379.329	2.74
379.696	3.07
380.062	3.31
380.429	2.93
380.795	2.87
381.161	2.84
381.528	3.21
381.894	2.86
382.26	2.71
382.626	2.91
382.993	2.7
383.359	2.86
383.725	2.91
384.091	2.86
384.457	3.21
384.823	3.03
385.188	3.1
385.554	3.03
385.92	3.14
386.286	3.06
386.651	2.97
387.017	3.05
387.383	3.04
387.748	2.55
388.114	2.95
388.479	2.99
388.845	2.82
389.21	2.97
389.575	3
389.94	2.99
390.306	3.14
390.671	2.92
391.036	3.07
391.401	2.96
391.766	2.81
392.131	3.12
392.496	2.89
392.861	3.03
393.226	2.78
393.591	2.97
393.956	3.21
394.32	3.43
394.685	2.96
395.05	3.14
395.414	3.15
395.779	2.99
396.143	3
396.508	2.97
396.872	3.16
397.236	2.83
397.601	3.19
397.965	3.19
398.329	3.01
398.694	3.11
399.058	3.07
399.422	3.3
399.786	3.03
400.15	2.92
400.514	3.01
400.878	3.09
401.242	3.05
401.605	2.89
401.969	3.17
402.333	3.12
402.697	3.34
403.06	3.02
403.424	3.14
403.787	3.25
404.151	3.34
404.514	3.2
404.878	2.68
405.241	3.03
405.604	3.01
405.968	3.24
406.331	3.09
406.694	3.1
407.057	3.1
407.42	3.06
407.783	2.95
408.146	2.86
408.509	2.88
408.872	3.09
409.235	3.33
409.598	3.1
409.961	2.91
410.323	3.23
410.686	3.38
411.049	3.09
411.411	3.04
411.774	3.38
412.136	3.25
412.499	3.15
412.861	3.08
413.223	2.93
413.586	3
413.948	3.17
414.31	3.26
414.672	2.97
415.035	3.22
415.397	3.28
415.759	3.28
416.121	3.07
416.483	3.16
416.845	3.11
417.206	3.06
417.568	3.23
417.93	2.96
418.292	3.11
418.653	3.02
419.015	3.34
419.377	3.15
419.738	2.88
420.1	3.22
420.461	3.22
420.822	3.1
421.184	3.13
421.545	2.94
421.906	2.94
422.267	3.04
422.629	3.07
422.99	3.05
423.351	3.01
423.712	3.13
424.073	3.08
424.434	3.1
424.795	3.12
425.155	3.08
425.516	3.17
425.877	3.11
426.238	3.06
426.598	3.1
426.959	3.03
427.32	3.13
427.68	3.32
428.041	3.11
428.401	3.21
428.761	3.44
429.122	3.33
429.482	3.23
429.842	3.23
430.202	3.07
430.563	3.13
430.923	3.23
431.283	3.1
431.643	3.32
432.003	3.29
432.363	3.31
432.722	3.32
433.082	3.44
433.442	3.18
433.802	3.31
434.161	3.2
434.521	3.23
434.881	3.1
435.24	3.23
435.6	3.39
435.959	3.1
436.319	3.14
436.678	3.14
437.037	3.3
437.396	3.32
437.756	3.06
438.115	2.93
438.474	3.19
438.833	3.4
439.192	3.25
439.551	3.25
439.91	3.18
440.269	3.05
440.628	3.25
440.987	3.38
441.345	3.28
441.704	3.19
442.063	3.22
442.421	3.18
442.78	3.22
443.138	3.12
443.497	3.26
443.855	3.35
444.214	3.26
444.572	3.32
444.93	3.06
445.288	3.26
445.647	3.23
446.005	3.22
446.363	3.23
446.721	2.99
447.079	3.24
447.437	3.25
447.795	3.16
448.153	3.15
448.51	3.21
448.868	3.18
449.226	3.19
449.584	3.16
449.941	3.24
450.299	3.26
450.656	3.18
451.014	3.45
451.371	3.3
451.729	3.26
452.086	3.25
452.443	3.44
452.801	3.15
453.158	3.1
453.515	3.28
453.872	3.28
454.229	3.34
454.586	3.32
454.943	3.41
455.3	3.28
455.657	3.44
456.014	3.1
456.371	3.36
456.727	3.26
457.084	3.09
457.441	3.28
457.797	3.39
458.154	3.16
458.51	3.21
458.867	3.35
459.223	3.31
459.58	3.39
459.936	3.41
460.292	3.41
460.648	3.18
461.005	3.27
461.361	3.19
461.717	3.18
462.073	3.22
462.429	3.19
462.785	3.36
463.141	3.37
463.496	3.36
463.852	3.29
464.208	3.39
464.564	3.26
464.919	3.26
465.275	3.53
465.631	3.49
465.986	3.3
466.342	3.44
466.697	3.48
467.052	3.57
467.408	3.45
467.763	3.19
468.118	3.36
468.473	3.35
468.829	3.19
469.184	3.37
469.539	3.43
469.894	3.44
470.249	3.39
470.603	3.32
470.958	3.36
471.313	3.26
471.668	3.26
472.023	3.32
472.377	3.32
472.732	3.55
473.086	3.38
473.441	3.63
473.795	3.38
474.15	3.21
474.504	3.48
474.859	3.34
475.213	3.42
475.567	3.32
475.921	3.29
476.275	3.2
476.63	3.43
476.984	3.21
477.338	3.28
477.692	3.5
478.045	3.27
478.399	3.28
478.753	3.53
479.107	3.27
479.461	3.37
479.814	3.2
480.168	3.42
480.521	3.32
480.875	3.37
481.228	3.31
481.582	3.46
481.935	3.37
482.289	3.39
482.642	3.31
482.995	3.25
483.348	3.25
483.701	3.39
484.055	3.2
484.408	3.19
484.761	3.14
485.114	3.02
485.466	2.98
485.819	3.03
486.172	3.15
486.525	3.27
486.878	3.31
487.23	3.28
487.583	3.29
487.936	3.27
488.288	3.18
488.641	3.09
488.993	3.15
489.345	3.14
489.698	3.15
490.05	3.25
490.402	3.28
490.754	3.35
491.107	3.31
491.459	3.28
491.811	3.28
492.163	3.29
492.515	3.26
492.866	3.22
493.218	3.08
493.57	3.15
493.922	3.19
494.274	3.31
494.625	3.39
494.977	3.45
495.328	3.49
495.68	3.44
496.031	3.4
496.383	3.4
496.734	3.36
497.086	3.35
497.437	3.34
497.788	3.23
498.139	3.26
498.49	3.29
498.842	3.4
499.193	3.29
499.544	3.39
499.894	3.41
500.245	3.41
500.596	3.35
500.947	3.36
501.298	3.5
501.648	3.3
501.999	3.51
502.35	3.35
502.7	3.38
503.051	3.44
503.401	3.33
503.752	3.37
504.102	3.45
504.452	3.29
504.803	3.39
505.153	3.5
505.503	3.38
505.853	3.36
506.203	3.24
506.553	3.32
506.903	3.46
507.253	3.39
507.603	3.45
507.953	3.5
508.303	3.59
508.652	3.35
509.002	3.47
509.352	3.41
509.701	3.32
510.051	3.4
510.4	3.49
510.75	3.46
511.099	3.34
511.449	3.42
511.798	3.35
512.147	3.38
512.496	3.51
512.846	3.28
513.195	3.43
513.544	3.36
513.893	3.46
514.242	3.4
514.591	3.46
514.939	3.34
515.288	3.42
515.637	3.29
515.986	3.48
516.334	3.38
516.683	3.24
517.032	3.32
517.38	3.35
517.729	3.39
518.077	3.34
518.426	3.44
518.774	3.38
519.122	3.31
519.47	3.36
519.819	3.35
520.167	3.38
520.515	3.27
520.863	3.36
521.211	3.47
521.559	3.36
521.907	3.37
522.255	3.33
522.602	3.36
522.95	3.39
523.298	3.51
523.645	3.39
523.993	3.46
524.341	3.37
524.688	3.36
525.036	3.42
525.383	3.37
525.73	3.45
526.078	3.42
526.425	3.21
526.772	3.32
527.119	3.21
527.466	3.15
527.814	3.25
528.161	3.24
528.508	3.31
528.854	3.29
529.201	3.19
529.548	3.15
529.895	3.09
530.242	3.04
530.588	3.16
530.935	3.24
531.282	3.25
531.628	3.32
531.975	3.33
532.321	3.34
532.667	3.36
533.014	3.37
533.36	3.31
533.706	3.32
534.052	3.26
534.399	3.27
534.745	3.16
535.091	3.14
535.437	3.24
535.783	3.29
536.129	3.35
536.474	3.38
536.82	3.23
537.166	3.33
537.512	3.35
537.857	3.33
538.203	3.23
538.549	3.21
538.894	3.34
539.239	3.31
539.585	3.33
539.93	3.38
540.276	3.45
540.621	3.43
540.966	3.45
541.311	3.33
541.656	3.36
542.001	3.32
542.346	3.31
542.691	3.13
543.036	3.12
543.381	3.14
543.726	3.23
544.071	3.36
544.415	3.28
544.76	3.26
545.105	3.23
545.449	3.31
545.794	3.32
546.138	3.4
546.483	3.48
546.827	3.37
547.171	3.4
547.516	3.36
547.86	3.2
548.204	3.32
548.548	3.28
548.892	3.41
549.236	3.4
549.58	3.49
549.924	3.35
550.268	3.54
550.612	3.47
550.956	3.55
551.3	3.34
551.643	3.52
551.987	3.38
552.33	3.37
552.674	3.49
553.017	3.44
553.361	3.31
553.704	3.57
554.048	3.32
554.391	3.35
554.734	3.32
555.077	3.49
555.42	3.47
555.764	3.39
556.107	3.31
556.45	3.4
556.793	3.36
557.135	3.49
557.478	3.36
557.821	3.42
558.164	3.46
558.507	3.48
558.849	3.4
559.192	3.37
559.534	3.35
559.877	3.49
560.219	3.4
560.562	3.48
560.904	3.32
561.246	3.41
561.589	3.27
561.931	3.32
562.273	3.48
562.615	3.48
562.957	3.46
563.299	3.32
563.641	3.26
563.983	3.26
564.325	3.33
564.667	3.61
565.008	3.4
565.35	3.25
565.692	3.4
566.033	3.41
566.375	3.19
566.716	3.25
567.058	3.23
567.399	3.43
567.741	3.42
568.082	3.43
568.423	3.43
568.764	3.38
569.105	3.53
569.447	3.42
569.788	3.38
570.129	3.47
570.47	3.54
570.811	3.42
571.151	3.42
571.492	3.4
571.833	3.39
572.174	3.02
572.514	3.45
572.855	3.12
573.195	3.39
573.536	3.47
573.876	3.51
574.217	3.32
574.557	3.33
574.898	3.31
575.238	3.47
575.578	3.51
575.918	3.21
576.258	3.39
576.598	3.43
576.938	3.43
577.278	3.46
577.618	3.49
577.958	3.46
578.298	3.37
578.638	3.75
578.977	3.37
579.317	3.39
579.657	3.41
579.996	3.27
580.336	3.39
580.675	3.45
581.014	3.35
581.354	3.4
581.693	3.32
582.032	3.38
582.372	3.36
582.711	3.27
583.05	3.49
583.389	3.4
583.728	3.29
584.067	3.49
584.406	3.18
584.745	3.39
585.083	3.21
585.422	3.56
585.761	3.34
586.1	3.32
586.438	3.79
586.777	3.8
587.115	3.59
587.454	3.44
587.792	3.3
588.13	3.57
588.469	3.35
588.807	3.38
589.145	3.31
589.483	3.5
589.821	3.35
590.159	3.68
590.497	3.52
590.835	3.39
591.173	3.43
591.511	3.45
591.849	3.35
592.187	3.4
592.524	3.49
592.862	3.65
593.2	3.66
593.537	3.23
593.875	3.36
594.212	3.21
594.55	3.46
594.887	3.5
595.224	3.69
595.561	3.46
595.899	3.3
596.236	3.54
596.573	3.32
596.91	3.24
597.247	3.11
597.584	3.49
597.921	3.37
598.258	3.08
598.594	3.17
598.931	3.39
599.268	3.23
599.604	3.4
599.941	3.21
600.277	3.12
600.614	3.39
600.95	3.46
601.287	3.41
601.623	3.53
601.959	3.19
602.296	3.19
602.632	3.34
602.968	3.45
603.304	3.17
603.64	3.67
603.976	3.25
604.312	3.27
604.648	3.45
604.984	3.41
605.319	3.47
605.655	3.43
605.991	3.17
606.326	3.49
606.662	3.35
606.998	3.2
607.333	3.23
607.668	3.28
608.004	3.5
608.339	3.28
608.674	3.51
609.01	3.35
609.345	3.02
609.68	3.45
610.015	3.59
610.35	3.29
610.685	3.22
611.02	3.24
611.355	3.14
611.689	3.16
612.024	3.37
612.359	3.53
612.694	3.57
613.028	3.42
613.363	3.39
613.697	3.39
614.032	3.49
614.366	3.3
614.7	3.11
615.035	3.58
615.369	3.4
615.703	3.53
616.037	3.52
616.371	3.5
616.705	3.18
617.039	3.47
617.373	3.44
617.707	3.14
618.041	3.2
618.375	3.27
618.709	4.01
619.042	3.27
619.376	3.67
619.71	3.6
620.043	3.71
620.377	3.47
620.71	3.12
621.043	3.54
621.377	3.59
621.71	3.04
622.043	3.18
622.376	3.56
622.709	3.36
623.043	3.76
623.376	3.24
623.709	3.16
624.041	3.37
624.374	3.45
624.707	3.35
625.04	3.4
625.373	3.46
625.705	3.35
626.038	3.47
626.37	3.55
626.703	3.7
627.035	3.68
627.368	3.5
627.7	3.49
628.032	3.22
628.365	3.33
628.697	3.4
629.029	3.18
629.361	3.25
629.693	3.56
630.025	3.47
630.357	3.48
630.689	3.74
631.021	3.26
631.353	3.1
631.684	3.37
632.016	3.77
632.348	3.36
632.679	3.53
633.011	3.4
633.342	3.49
633.674	3.72
634.005	3.89
634.336	3.28
634.668	3.16
634.999	3.32
635.33	3.92
635.661	3.5
635.992	3.33
636.323	3.62
636.654	3.32
636.985	3.39
637.316	3.81
637.647	3.38
637.977	3.62
638.308	3.29
638.639	3.58
638.969	3.38
639.3	3.34
639.63	3.1
639.961	3.54
640.291	3.19
640.622	3.85
640.952	3.97
641.282	3.23
641.612	3.4
641.943	3.46
642.273	3.59
642.603	3.3
642.933	3.25
643.263	3.86
643.592	3.78
643.922	3.22
644.252	3.8
644.582	3.75
644.911	3.82
645.241	3.39
645.571	3.61
645.9	3.36
646.23	3.31
646.559	3.24
646.888	3.46
647.218	3.34
647.547	3.45
647.876	3.59
648.205	3.32
648.534	3.31
648.863	3.68
649.192	2.79
649.521	3.38
649.85	3.75
650.179	3.62
650.508	3.39
650.837	3.63
651.165	3.23
651.494	3.2
651.822	3.82
652.151	3.03
652.479	3.79
652.808	3.6
653.136	3.37
653.465	3.29
653.793	3.25
654.121	3.21
654.449	3.33
654.777	3.19
655.105	3.34
655.433	3.54
655.761	4.07
656.089	3.97
656.417	3.05
656.745	3.2
657.073	3.62
657.4	4
657.728	3.92
658.056	3.69
658.383	3.54
658.711	4.25
659.038	2.99
659.365	3.57
659.693	3.62
660.02	3.59
660.347	3.67
660.674	3.25
661.001	3.7
661.329	3.66
661.656	3.69
661.982	3.57
662.309	3.91
662.636	3.61
662.963	3.61
663.29	3.07
663.616	3.16
663.943	3.64
664.27	3.3
664.596	3.09
664.923	3.58
665.249	4
665.576	3.26
665.902	3.09
666.228	3.98
666.554	3.61
666.881	3.16
667.207	3.55
667.533	3.79
667.859	3.69
668.185	3.97
668.511	3.09
668.837	3.09
669.162	3.57
669.488	3.57
669.814	3.2
670.139	3.14
670.465	3.94
670.791	3.5
671.116	3.25
671.442	3.41
671.767	3.97
672.092	3.11
672.418	3.38
672.743	3.64
673.068	4.07
673.393	3.41
673.718	3.32
674.043	3.98
674.368	3.67
674.693	3.48
675.018	3.59
675.343	3.77
675.667	4.39
675.992	3.45
676.317	2.98
676.641	3.25
676.966	3.28
677.29	2.95
677.615	3.31
677.939	3.59
678.264	3.67
678.588	3.59
678.912	3.31
679.236	4.11
679.56	3.34
679.885	3.53
680.209	3.44
680.532	3.66
680.856	3.79
681.18	3.36
681.504	3
681.828	3.6
682.152	3.18
682.475	3.41
682.799	3.67
683.122	3.73
683.446	3.6
683.769	3.91
684.093	3.94
684.416	4.21
684.739	3.49
685.062	3.82
685.386	4.05
685.709	3.14
686.032	4.04
686.355	3.72
686.678	3.93
687.001	3.89
687.324	4
687.646	3.18
687.969	3.12
688.292	4.19
688.614	3.4
688.937	4.51
689.26	3.35
689.582	3.52
689.904	3.81
690.227	3.72
690.549	3.48
690.871	3.81
691.194	3.4
691.516	3.76
691.838	2.96
692.16	3.52
692.482	3.63
692.804	4.42
