Data from 18SC-1_forehead_Reflection__3__104.txt Node

Date: Fri Sep 30 18:34:39 CDT 2022
User: ToomeyLab
Spectrometer: FLMS14357
Trigger mode: 0
Integration Time (sec): 1.000000E-2
Scans to average: 100
Electric dark correction enabled: true
Nonlinearity correction enabled: false
Boxcar width: 0
XAxis mode: Wavelengths
Number of Pixels in Spectrum: 2048
>>>>>Begin Spectral Data<<<<<
189.047	132000
189.435	132000
189.823	132000
190.211	20.9
190.599	-30.43
190.987	137.35
191.375	54.47
191.763	261.05
192.151	41.81
192.538	16.19
192.926	-1351.11
193.314	-14.15
193.702	807.96
194.089	-63.95
194.477	97.03
194.864	86.94
195.252	-533.33
195.639	-14.33
196.027	113.79
196.414	37.65
196.801	124.95
197.189	576.82
197.576	7.83
197.963	-990.73
198.351	18.05
198.738	40.17
199.125	70.75
199.512	17.83
199.899	35.77
200.286	45.73
200.673	60.95
201.06	47.8
201.447	32.34
201.833	45.14
202.22	25.81
202.607	58.73
202.994	54.8
203.38	58.4
203.767	196
204.154	35.78
204.54	33.33
204.927	30.42
205.313	-8.82
205.699	31.78
206.086	-15.93
206.472	14.02
206.858	51.88
207.245	-32.16
207.631	-10.17
208.017	-41.66
208.403	39.87
208.789	-8.27
209.175	51.93
209.561	-31.96
209.947	18.07
210.333	-28.03
210.719	23.97
211.105	13.15
211.491	28.25
211.876	55.59
212.262	21.22
212.648	27.06
213.034	3.97
213.419	23.17
213.805	17.73
214.19	-30.78
214.576	-2.36
214.961	25.6
215.346	21.75
215.732	18.02
216.117	6.64
216.502	45.89
216.888	33.4
217.273	1.28
217.658	36.61
218.043	3.91
218.428	36.28
218.813	31.64
219.198	39.27
219.583	59.35
219.968	58.7
220.353	20.28
220.738	25.08
221.122	14.63
221.507	27.53
221.892	17.85
222.276	-4.83
222.661	29.65
223.046	-19.15
223.43	-17.21
223.815	-0.47
224.199	23.7
224.583	3.48
224.968	-5.06
225.352	11.64
225.736	13.27
226.121	13.98
226.505	5.36
226.889	8.57
227.273	-4.01
227.657	7.36
228.041	-0.71
228.425	9.86
228.809	8.07
229.193	7.8
229.577	0.53
229.961	3.84
230.344	2.88
230.728	2.41
231.112	2.26
231.495	2.36
231.879	4.67
232.263	2.97
232.646	1.22
233.03	4.54
233.413	3.58
233.797	4.14
234.18	4.83
234.563	6.78
234.946	6.23
235.33	1.68
235.713	5.09
236.096	5.11
236.479	6.07
236.862	3.38
237.245	4.98
237.628	4.41
238.011	5.23
238.394	3.72
238.777	1.37
239.16	1.17
239.543	2.69
239.925	2.89
240.308	3.17
240.691	4.88
241.073	5.06
241.456	3.71
241.838	3.94
242.221	3.78
242.603	4.14
242.986	4.61
243.368	1.87
243.75	3.05
244.133	3.68
244.515	3.45
244.897	2.98
245.279	3.42
245.661	3.55
246.043	2.72
246.425	1.92
246.807	4.43
247.189	4.85
247.571	4.24
247.953	3.81
248.335	2.69
248.717	3.09
249.098	3.37
249.48	3.03
249.862	2.79
250.243	3.03
250.625	3.72
251.006	4.08
251.388	2.06
251.769	4.88
252.151	2.08
252.532	4.07
252.913	2.76
253.295	4.23
253.676	3.34
254.057	3.27
254.438	2.76
254.819	4.4
255.2	4.26
255.581	2.3
255.962	4.28
256.343	3.96
256.724	5.69
257.105	5.32
257.486	3.98
257.867	3.62
258.247	3.48
258.628	3.92
259.009	4.38
259.389	3.49
259.77	4.97
260.15	3.46
260.531	4.17
260.911	3.59
261.292	3.12
261.672	3.01
262.052	3.1
262.432	3.09
262.813	3.84
263.193	3.59
263.573	3.7
263.953	3.45
264.333	4.45
264.713	2.3
265.093	2.91
265.473	3.75
265.853	2.53
266.233	2.35
266.612	3.62
266.992	3.13
267.372	2.23
267.752	3.2
268.131	3.27
268.511	2.73
268.89	2.54
269.27	3.74
269.649	2.71
270.029	3.32
270.408	2.44
270.787	2.84
271.167	3.64
271.546	2.9
271.925	3.68
272.304	3.57
272.683	2.86
273.062	3.63
273.441	3.01
273.82	2.25
274.199	3.03
274.578	2.37
274.957	3.14
275.336	3.28
275.715	3.56
276.093	3.79
276.472	3.49
276.851	3.27
277.229	2.84
277.608	3.2
277.986	3.16
278.365	3.41
278.743	2.98
279.122	3.54
279.5	4.48
279.878	3.38
280.257	3.21
280.635	3.77
281.013	3.52
281.391	3.18
281.769	3.27
282.147	2.67
282.525	3.49
282.903	3.29
283.281	2.47
283.659	3.48
284.037	3.17
284.415	2.89
284.792	3.27
285.17	2.74
285.548	3.24
285.925	3.24
286.303	3.12
286.68	2.54
287.058	3.18
287.435	3.18
287.813	2.84
288.19	3.08
288.567	2.85
288.945	2.64
289.322	2.65
289.699	2.97
290.076	3
290.453	3.26
290.83	3.15
291.207	3.32
291.584	3.38
291.961	3.15
292.338	3.58
292.715	3.57
293.092	3.38
293.469	3.12
293.845	3.8
294.222	3.25
294.599	4.08
294.975	4.44
295.352	3.71
295.728	3.98
296.105	3.36
296.481	3.29
296.858	3.59
297.234	3.66
297.61	3.54
297.986	3.21
298.363	3.34
298.739	3.38
299.115	3.7
299.491	3.52
299.867	3.92
300.243	3.49
300.619	2.64
300.995	4.4
301.371	3.86
301.746	4.47
302.122	4.2
302.498	4.41
302.874	4.42
303.249	3.42
303.625	4.04
304	4.3
304.376	3.86
304.751	4.49
305.127	4.09
305.502	4.3
305.878	4.63
306.253	3.68
306.628	4.47
307.003	4.08
307.378	4.37
307.754	4.14
308.129	4.79
308.504	4.42
308.879	4.91
309.254	4.49
309.629	4.21
310.003	4.05
310.378	4.32
310.753	3.92
311.128	4.72
311.502	4.38
311.877	4.64
312.252	4.44
312.626	4.07
313.001	4.04
313.375	4.53
313.75	5.06
314.124	4.52
314.498	4.72
314.873	5.19
315.247	4.51
315.621	5.55
315.995	5.35
316.369	3.88
316.743	5.1
317.117	5.69
317.491	6.42
317.865	6.89
318.239	5.91
318.613	5.17
318.987	5.87
319.361	5.44
319.734	5.56
320.108	5.36
320.482	4.55
320.855	5.08
321.229	5.88
321.602	5.3
321.976	6
322.349	5.62
322.723	5.78
323.096	5.89
323.469	6.09
323.843	5.38
324.216	4.98
324.589	6.05
324.962	6.02
325.335	5.71
325.708	6.07
326.081	5.63
326.454	5.69
326.827	5.48
327.2	5.26
327.573	5.45
327.945	6.08
328.318	6.19
328.691	6.4
329.063	6.48
329.436	5.8
329.809	6.38
330.181	6.34
330.553	6.59
330.926	6.91
331.298	5.73
331.671	5.89
332.043	5.98
332.415	6.48
332.787	5.92
333.159	6.8
333.532	6.46
333.904	6.36
334.276	6.72
334.648	5.52
335.02	5.99
335.391	6.51
335.763	6.75
336.135	6.36
336.507	7.37
336.879	6.67
337.25	6.09
337.622	6.34
337.993	6.2
338.365	6.39
338.736	7.17
339.108	6.66
339.479	6.36
339.851	6.57
340.222	7.79
340.593	6.48
340.964	5.97
341.336	7.35
341.707	6.49
342.078	6.93
342.449	6.53
342.82	6.94
343.191	6.91
343.562	7.09
343.933	6.76
344.303	6.72
344.674	7.29
345.045	6.94
345.416	6.86
345.786	6.97
346.157	7.76
346.527	7.34
346.898	6.99
347.268	6.72
347.639	7.01
348.009	7.46
348.38	7.66
348.75	8.09
349.12	7.4
349.49	7.61
349.861	7.4
350.231	7.21
350.601	8.06
350.971	7.58
351.341	7.39
351.711	7.6
352.081	7.02
352.45	7.53
352.82	7.52
353.19	8.19
353.56	7.77
353.929	7.12
354.299	7.75
354.669	7.48
355.038	7.84
355.408	7.82
355.777	7.73
356.147	7.74
356.516	7.59
356.885	7.55
357.254	8
357.624	7.94
357.993	7.22
358.362	8.05
358.731	7.44
359.1	7.73
359.469	7.5
359.838	8.2
360.207	8.18
360.576	7.69
360.945	8.34
361.314	7.84
361.682	8.16
362.051	8.07
362.42	8.07
362.788	7.83
363.157	7.85
363.525	7.93
363.894	8.19
364.262	8.34
364.631	8.74
364.999	7.9
365.367	8.61
365.735	7.98
366.104	7.88
366.472	8.62
366.84	8.59
367.208	8.74
367.576	9.06
367.944	8.62
368.312	8.01
368.68	8.71
369.048	8.26
369.416	8.64
369.783	9.06
370.151	8.61
370.519	8.83
370.886	8.85
371.254	8.46
371.621	8.76
371.989	8.79
372.356	9.13
372.724	9
373.091	9
373.458	9.12
373.826	9.45
374.193	9.23
374.56	9.5
374.927	9.67
375.294	9.42
375.661	9.46
376.028	9.08
376.395	8.79
376.762	8.9
377.129	9.54
377.496	9.57
377.863	8.95
378.229	9.84
378.596	9.31
378.963	9.48
379.329	9.4
379.696	9.59
380.062	9.53
380.429	9.67
380.795	9.2
381.161	9.75
381.528	9.22
381.894	9.37
382.26	9.37
382.626	9.75
382.993	9.31
383.359	9.68
383.725	9.87
384.091	9.45
384.457	9.79
384.823	10.06
385.188	9.62
385.554	9.59
385.92	10.27
386.286	10
386.651	9.68
387.017	9.68
387.383	9.92
387.748	9.41
388.114	10.37
388.479	10.03
388.845	10.02
389.21	9.77
389.575	10.07
389.94	9.89
390.306	10.24
390.671	10.22
391.036	10.04
391.401	10.21
391.766	10.52
392.131	10.28
392.496	10.3
392.861	10.54
393.226	10.2
393.591	10.19
393.956	10.35
394.32	10.32
394.685	10.27
395.05	10.37
395.414	10.68
395.779	10.48
396.143	10.68
396.508	10.11
396.872	10.86
397.236	10.81
397.601	10.47
397.965	11.06
398.329	10.56
398.694	11.08
399.058	10.67
399.422	11.31
399.786	10.69
400.15	11.17
400.514	11.03
400.878	11.32
401.242	10.4
401.605	11.32
401.969	10.8
402.333	11.26
402.697	11.2
403.06	10.94
403.424	11.29
403.787	11.72
404.151	11.13
404.514	11.24
404.878	11.1
405.241	11.67
405.604	11.29
405.968	11.22
406.331	11.15
406.694	11.17
407.057	11.23
407.42	11.59
407.783	10.73
408.146	11.26
408.509	11.48
408.872	11.42
409.235	11.68
409.598	11.77
409.961	11.49
410.323	11.87
410.686	12.08
411.049	11.32
411.411	11.67
411.774	11.65
412.136	11.71
412.499	11.54
412.861	11.78
413.223	11.64
413.586	11.38
413.948	12.07
414.31	11.92
414.672	12
415.035	12.33
415.397	12.13
415.759	12.2
416.121	11.55
416.483	11.94
416.845	12.07
417.206	12
417.568	12
417.93	11.99
418.292	12.01
418.653	11.71
419.015	12.36
419.377	12.18
419.738	11.98
420.1	12.15
420.461	12.12
420.822	12.15
421.184	12.19
421.545	11.85
421.906	11.99
422.267	12.2
422.629	12.23
422.99	12.12
423.351	12.16
423.712	12.15
424.073	12.17
424.434	12.23
424.795	12.28
425.155	12.27
425.516	12.25
425.877	12.56
426.238	12.46
426.598	12.46
426.959	12.32
427.32	12.72
427.68	12.7
428.041	12.55
428.401	12.65
428.761	13.03
429.122	12.94
429.482	12.78
429.842	12.92
430.202	13.02
430.563	13.11
430.923	13.07
431.283	13.36
431.643	13.32
432.003	13.21
432.363	13.16
432.722	13.43
433.082	13.25
433.442	13.48
433.802	13.45
434.161	13.42
434.521	13.39
434.881	13.19
435.24	13.21
435.6	13.42
435.959	13.37
436.319	13.57
436.678	13.39
437.037	13.59
437.396	13.55
437.756	13.67
438.115	13.57
438.474	13.96
438.833	13.91
439.192	13.81
439.551	13.75
439.91	13.8
440.269	13.63
440.628	13.99
440.987	14.09
441.345	13.87
441.704	13.95
442.063	14.12
442.421	14.15
442.78	13.95
443.138	13.9
443.497	14.02
443.855	14.14
444.214	14.16
444.572	14.15
444.93	14.21
445.288	14.25
445.647	14.03
446.005	14.47
446.363	14.43
446.721	14.25
447.079	14.33
447.437	14.44
447.795	14.33
448.153	14.21
448.51	14.15
448.868	14.24
449.226	14.42
449.584	14.36
449.941	14.51
450.299	14.57
450.656	14.67
451.014	14.88
451.371	14.76
451.729	14.94
452.086	14.98
452.443	14.89
452.801	15.06
453.158	14.88
453.515	15.14
453.872	15.18
454.229	14.95
454.586	15.21
454.943	15.14
455.3	15.18
455.657	15.29
456.014	15.25
456.371	15.2
456.727	15.27
457.084	15.37
457.441	15.41
457.797	15.48
458.154	15.21
458.51	15.38
458.867	15.41
459.223	15.67
459.58	15.57
459.936	15.89
460.292	15.52
460.648	15.68
461.005	15.57
461.361	15.49
461.717	15.5
462.073	15.38
462.429	15.35
462.785	15.54
463.141	15.77
463.496	15.61
463.852	15.72
464.208	16.05
464.564	15.8
464.919	16.1
465.275	16.37
465.631	16.23
465.986	16.12
466.342	16.27
466.697	16.22
467.052	16.61
467.408	16.35
467.763	16.42
468.118	16.6
468.473	16.34
468.829	16.26
469.184	16.56
469.539	16.38
469.894	16.6
470.249	16.49
470.603	16.75
470.958	16.49
471.313	16.81
471.668	16.85
472.023	16.83
472.377	17.04
472.732	17.23
473.086	16.91
473.441	17.12
473.795	16.84
474.15	17.06
474.504	17.02
474.859	17.02
475.213	16.94
475.567	17.08
475.921	16.96
476.275	17.04
476.63	17.44
476.984	17.14
477.338	17.06
477.692	17.38
478.045	17.55
478.399	17.13
478.753	17.25
479.107	17.17
479.461	17.48
479.814	17.53
480.168	17.36
480.521	17.38
480.875	17.7
481.228	17.47
481.582	17.72
481.935	17.69
482.289	17.95
482.642	17.54
482.995	17.59
483.348	17.8
483.701	17.79
484.055	17.71
484.408	17.66
484.761	17.51
485.114	17.35
485.466	17.29
485.819	17
486.172	16.88
486.525	17
486.878	17.12
487.23	17.13
487.583	17.42
487.936	17.82
488.288	17.92
488.641	17.6
488.993	17.69
489.345	17.61
489.698	17.54
490.05	17.55
490.402	17.6
490.754	17.6
491.107	17.78
491.459	18.06
491.811	18.1
492.163	18.33
492.515	18.33
492.866	18.37
493.218	18.17
493.57	18.08
493.922	17.9
494.274	17.9
494.625	18.25
494.977	18.4
495.328	18.63
495.68	18.62
496.031	18.9
496.383	18.86
496.734	19.2
497.086	18.99
497.437	19.22
497.788	19.34
498.139	19.07
498.49	19.17
498.842	19.12
499.193	19.21
499.544	19.18
499.894	19.29
500.245	19.14
500.596	19.34
500.947	19.48
501.298	19.58
501.648	19.58
501.999	19.67
502.35	19.47
502.7	19.68
503.051	19.83
503.401	19.84
503.752	19.78
504.102	19.9
504.452	19.78
504.803	20.28
505.153	20.28
505.503	19.9
505.853	20.12
506.203	19.93
506.553	19.87
506.903	20.21
507.253	20.05
507.603	20.48
507.953	20.33
508.303	20.26
508.652	20.51
509.002	20.4
509.352	20.41
509.701	20.44
510.051	20.6
510.4	20.43
510.75	20.61
511.099	20.5
511.449	20.49
511.798	20.61
512.147	20.59
512.496	20.6
512.846	20.58
513.195	20.67
513.544	20.85
513.893	20.9
514.242	20.79
514.591	20.81
514.939	21.04
515.288	21.3
515.637	21.2
515.986	21.08
516.334	21.07
516.683	20.99
517.032	21.14
517.38	21.22
517.729	21.5
518.077	21.5
518.426	21.52
518.774	21.49
519.122	21.43
519.47	21.6
519.819	21.37
520.167	21.47
520.515	21.26
520.863	21.15
521.211	21.41
521.559	21.35
521.907	21.47
522.255	21.39
522.602	21.81
522.95	21.76
523.298	22
523.645	21.91
523.993	22.09
524.341	22.18
524.688	22.05
525.036	22.01
525.383	22
525.73	22.15
526.078	22.4
526.425	22.12
526.772	22.3
527.119	22.11
527.466	22.12
527.814	21.89
528.161	21.87
528.508	22.02
528.854	22.11
529.201	22.11
529.548	22.31
529.895	22.16
530.242	21.88
530.588	21.86
530.935	21.76
531.282	21.66
531.628	21.76
531.975	21.97
532.321	22.06
532.667	22.36
533.014	22.58
533.36	22.62
533.706	22.8
534.052	22.74
534.399	22.78
534.745	22.78
535.091	22.71
535.437	22.78
535.783	22.55
536.129	22.69
536.474	22.76
536.82	22.88
537.166	23.21
537.512	23.29
537.857	23.48
538.203	23.37
538.549	23.38
538.894	23.48
539.239	23.23
539.585	23.4
539.93	23.62
540.276	23.59
540.621	23.84
540.966	24.02
541.311	23.96
541.656	24.13
542.001	24.18
542.346	24.11
542.691	23.75
543.036	23.64
543.381	23.47
543.726	23.49
544.071	23.54
544.415	23.59
544.76	23.98
545.105	23.85
545.449	23.93
545.794	23.99
546.138	24.1
546.483	24.49
546.827	24.51
547.171	24.6
547.516	24.72
547.86	24.75
548.204	24.55
548.548	24.57
548.892	24.76
549.236	24.61
549.58	24.91
549.924	24.86
550.268	24.92
550.612	25.11
550.956	25.38
551.3	25.39
551.643	25.67
551.987	25.4
552.33	25.79
552.674	25.67
553.017	25.8
553.361	25.62
553.704	25.94
554.048	25.77
554.391	25.82
554.734	25.94
555.077	25.75
555.42	25.84
555.764	25.82
556.107	26.03
556.45	26.13
556.793	26.08
557.135	26.68
557.478	26.35
557.821	26.51
558.164	26.4
558.507	26.63
558.849	26.62
559.192	26.22
559.534	26.39
559.877	26.71
560.219	26.58
560.562	26.7
560.904	26.68
561.246	26.93
561.589	26.88
561.931	27.28
562.273	27.43
562.615	26.95
562.957	27.51
563.299	27.39
563.641	26.96
563.983	27.22
564.325	27.33
564.667	27.21
565.008	27.19
565.35	27.42
565.692	27.61
566.033	27.33
566.375	27.44
566.716	27.55
567.058	27.84
567.399	27.66
567.741	27.55
568.082	27.89
568.423	27.9
568.764	27.66
569.105	27.71
569.447	27.55
569.788	28.11
570.129	27.9
570.47	28.04
570.811	28.06
571.151	28.04
571.492	28.2
571.833	28.03
572.174	28
572.514	28.2
572.855	28.32
573.195	28.15
573.536	28.35
573.876	28.4
574.217	28.07
574.557	28.41
574.898	28.33
575.238	28.55
575.578	28.94
575.918	28.58
576.258	28.73
576.598	28.77
576.938	28.83
577.278	28.74
577.618	28.87
577.958	28.95
578.298	28.74
578.638	29.11
578.977	29.05
579.317	29.11
579.657	29.45
579.996	29.23
580.336	29.15
580.675	29.57
581.014	29.05
581.354	29.28
581.693	29.63
582.032	30.09
582.372	29.66
582.711	29.9
583.05	29.71
583.389	29.35
583.728	29.79
584.067	30.26
584.406	30.02
584.745	30.34
585.083	29.8
585.422	30.01
585.761	30.18
586.1	30.16
586.438	30.84
586.777	30.62
587.115	30.67
587.454	30.48
587.792	29.81
588.13	30.66
588.469	30.66
588.807	30.78
589.145	30.37
589.483	30.8
589.821	30.64
590.159	31.01
590.497	31.21
590.835	31.02
591.173	31.16
591.511	30.53
591.849	31.05
592.187	31.31
592.524	30.84
592.862	31.16
593.2	31.17
593.537	31.14
593.875	31.48
594.212	31.16
594.55	31.12
594.887	31.28
595.224	31.52
595.561	31.42
595.899	31.48
596.236	31.65
596.573	31.53
596.91	31.6
597.247	31.51
597.584	31.71
597.921	31.32
598.258	31.72
598.594	31.45
598.931	31.86
599.268	31.79
599.604	31.47
599.941	31.7
600.277	31.57
600.614	31.79
600.95	31.98
601.287	32.05
601.623	32.6
601.959	32.43
602.296	32.52
602.632	32.47
602.968	32.21
603.304	32.54
603.64	32.47
603.976	32.63
604.312	32.97
604.648	32.74
604.984	33.15
605.319	32.92
605.655	32.78
605.991	32.66
606.326	32.93
606.662	32.74
606.998	32.91
607.333	32.63
607.668	32.66
608.004	32.95
608.339	32.8
608.674	32.81
609.01	33.12
609.345	33.12
609.68	33.56
610.015	33.73
610.35	33.17
610.685	33.22
611.02	33.45
611.355	33.47
611.689	32.97
612.024	33.62
612.359	33.26
612.694	33.32
613.028	33.72
613.363	33.63
613.697	33.75
614.032	33.98
614.366	34.2
614.7	34.02
615.035	33.61
615.369	33.96
615.703	34.38
616.037	33.65
616.371	33.89
616.705	33.93
617.039	34.29
617.373	34.77
617.707	34.11
618.041	34.36
618.375	34.87
618.709	34.73
619.042	34.93
619.376	34.99
619.71	34.95
620.043	34.91
620.377	35.01
620.71	35.15
621.043	34.7
621.377	35.48
621.71	34.93
622.043	35.19
622.376	35.03
622.709	35.27
623.043	35.92
623.376	35.57
623.709	35.47
624.041	35.31
624.374	35.99
624.707	34.61
625.04	35.86
625.373	35.89
625.705	35.52
626.038	36.09
626.37	35.82
626.703	36.38
627.035	36.18
627.368	36.05
627.7	35.47
628.032	35.96
628.365	35.15
628.697	36.19
629.029	35.71
629.361	36.04
629.693	35.89
630.025	36.15
630.357	36.3
630.689	36.01
631.021	35.73
631.353	36.54
631.684	36.41
632.016	36.83
632.348	35.96
632.679	36.35
633.011	36.38
633.342	36.89
633.674	37.08
634.005	36.43
634.336	36.81
634.668	37.16
634.999	37.3
635.33	37.52
635.661	36.53
635.992	37.12
636.323	36.88
636.654	36.72
636.985	36.64
637.316	37.35
637.647	37.18
637.977	37.09
638.308	37
638.639	37.07
638.969	37.53
639.3	37.22
639.63	36.9
639.961	37.55
640.291	37.16
640.622	37.91
640.952	38.78
641.282	37.34
641.612	38.24
641.943	38.49
642.273	37.68
642.603	38.28
642.933	38.05
643.263	37.64
643.592	37.59
643.922	38.38
644.252	38.52
644.582	38.63
644.911	37.57
645.241	38.09
645.571	38.58
645.9	38.89
646.23	37.91
646.559	38.3
646.888	38.95
647.218	38.21
647.547	38.09
647.876	38.08
648.205	38.1
648.534	38.52
648.863	38.59
649.192	38.42
649.521	38.73
649.85	38.99
650.179	38.79
650.508	38.99
650.837	38.95
651.165	38.72
651.494	39.04
651.822	39.1
652.151	39.68
652.479	39.8
652.808	38.76
653.136	38.89
653.465	39.45
653.793	39.11
654.121	38.88
654.449	39.66
654.777	38.75
655.105	39.98
655.433	38.67
655.761	39.83
656.089	40.1
656.417	40.14
656.745	40.12
657.073	39.15
657.4	40
657.728	39.82
658.056	40.38
658.383	40.1
658.711	39.69
659.038	39.63
659.365	40
659.693	40.01
660.02	40.27
660.347	39.75
660.674	40.29
661.001	40.58
661.329	40.47
661.656	39.51
661.982	39.87
662.309	40.49
662.636	40.58
662.963	39.62
663.29	40.83
663.616	39.35
663.943	40.99
664.27	40.81
664.596	40.13
664.923	40.93
665.249	41.06
665.576	41.04
665.902	40.99
666.228	41.35
666.554	40.14
666.881	40.7
667.207	41.18
667.533	40.89
667.859	40.94
668.185	41.47
668.511	41.43
668.837	41.56
669.162	40.79
669.488	41.45
669.814	41.79
670.139	40.72
670.465	41.87
670.791	41.01
671.116	40.95
671.442	41.32
671.767	41.31
672.092	41.69
672.418	41.78
672.743	41.27
673.068	41.83
673.393	42.19
