Data from 0017_crown_Reflection__1__72.txt Node

Date: Mon Oct 17 14:59:09 CDT 2022
User: ToomeyLab
Spectrometer: FLMS14357
Trigger mode: 0
Integration Time (sec): 1.000000E-2
Scans to average: 100
Electric dark correction enabled: true
Nonlinearity correction enabled: false
Boxcar width: 0
XAxis mode: Wavelengths
Number of Pixels in Spectrum: 2048
>>>>>Begin Spectral Data<<<<<
189.047	-143.69
189.435	-143.69
189.823	-143.69
190.211	554.66
190.599	-218.16
190.987	956.5
191.375	117.5
191.763	-314.53
192.151	-163.43
192.538	325.86
192.926	18.21
193.314	846.55
193.702	-2251.5
194.089	-86.26
194.477	35.32
194.864	-53.36
195.252	609.81
195.639	-186.05
196.027	56.31
196.414	102.42
196.801	47.95
197.189	66.52
197.576	124.12
197.963	-22.69
198.351	-204.81
198.738	2.85
199.125	-27.45
199.512	-78.92
199.899	30.28
200.286	14.79
200.673	3.16
201.06	4.86
201.447	8.86
201.833	28.53
202.22	0.82
202.607	-41.39
202.994	-7.76
203.38	13.91
203.767	-8.93
204.154	14.4
204.54	-53.73
204.927	-2.44
205.313	3.16
205.699	47.6
206.086	-5.03
206.472	1.07
206.858	-5.67
207.245	25.76
207.631	18.46
208.017	18.87
208.403	10.48
208.789	21.92
209.175	-4.98
209.561	-73.1
209.947	-30.52
210.333	20
210.719	13.96
211.105	7.5
211.491	-23.61
211.876	-43.44
212.262	15.43
212.648	-7.33
213.034	-12.91
213.419	8.13
213.805	-23.85
214.19	12.52
214.576	1.65
214.961	1.11
215.346	-49.23
215.732	-7.29
216.117	-23.1
216.502	2.21
216.888	-3.63
217.273	0.82
217.658	8.98
218.043	-6.84
218.428	-3.13
218.813	-12.14
219.198	-8.67
219.583	-17.69
219.968	4.61
220.353	-17.02
220.738	-4.11
221.122	-13.58
221.507	14.79
221.892	18.43
222.276	-7.27
222.661	11.59
223.046	0.16
223.43	8.04
223.815	-6.94
224.199	6.67
224.583	-7.64
224.968	-6.57
225.352	-7.76
225.736	-3.01
226.121	-2.61
226.505	-2.8
226.889	-3
227.273	3.74
227.657	9.48
228.041	1.24
228.425	5.22
228.809	2.42
229.193	1.01
229.577	5.15
229.961	5.5
230.344	3.34
230.728	3.55
231.112	3.62
231.495	3.67
231.879	3.76
232.263	3.87
232.646	4.59
233.03	2.87
233.413	0.34
233.797	1.97
234.18	3.12
234.563	0.19
234.946	3.15
235.33	2.08
235.713	1.95
236.096	3.84
236.479	1.63
236.862	3.61
237.245	2.53
237.628	3.7
238.011	3.38
238.394	3.32
238.777	3.82
239.16	3.31
239.543	2.47
239.925	3.04
240.308	2.14
240.691	1.75
241.073	2.99
241.456	2.69
241.838	4.14
242.221	2.67
242.603	2.45
242.986	2.36
243.368	3.23
243.75	3.07
244.133	2.97
244.515	3.13
244.897	3.8
245.279	3.5
245.661	2.44
246.043	3.29
246.425	1.91
246.807	2.69
247.189	3.81
247.571	3.4
247.953	3.17
248.335	2.85
248.717	3.16
249.098	3.22
249.48	3.27
249.862	3.02
250.243	2.75
250.625	3.11
251.006	2.86
251.388	2.99
251.769	2.67
252.151	2.72
252.532	2.85
252.913	1.7
253.295	2.23
253.676	3.34
254.057	3.29
254.438	2.58
254.819	3.99
255.2	3.32
255.581	2.7
255.962	1.89
256.343	1.53
256.724	1.56
257.105	3.13
257.486	1.96
257.867	2.05
258.247	2.83
258.628	2.91
259.009	2.78
259.389	2.68
259.77	3.59
260.15	3.38
260.531	2.5
260.911	2.95
261.292	2.82
261.672	2.72
262.052	3.02
262.432	2.71
262.813	2.72
263.193	2.99
263.573	2.98
263.953	3.11
264.333	2.96
264.713	2.76
265.093	2.69
265.473	2.77
265.853	3.03
266.233	3.74
266.612	2.62
266.992	2.65
267.372	3.01
267.752	3.14
268.131	2.89
268.511	2.84
268.89	3.09
269.27	2.74
269.649	3.25
270.029	2.8
270.408	2.96
270.787	2.78
271.167	2.7
271.546	2.81
271.925	2.83
272.304	2.69
272.683	3.07
273.062	2.6
273.441	2.34
273.82	2.49
274.199	2.78
274.578	3.16
274.957	2.58
275.336	2.74
275.715	2.81
276.093	2.46
276.472	2.17
276.851	2.99
277.229	2.39
277.608	2.35
277.986	2.54
278.365	3.03
278.743	2.93
279.122	2.3
279.5	2.79
279.878	2.75
280.257	2.25
280.635	2.55
281.013	2.95
281.391	2.32
281.769	2.31
282.147	2.91
282.525	2.47
282.903	1.85
283.281	2.63
283.659	2.52
284.037	2.33
284.415	2.5
284.792	2.83
285.17	2.27
285.548	1.9
285.925	2.76
286.303	2.64
286.68	2.79
287.058	2.65
287.435	2.6
287.813	2.35
288.19	2.65
288.567	2.52
288.945	2.3
289.322	3.01
289.699	2.64
290.076	2.32
290.453	2.24
290.83	2.74
291.207	2.43
291.584	2.47
291.961	2.32
292.338	2.63
292.715	2.48
293.092	2.4
293.469	2.34
293.845	2.55
294.222	2.87
294.599	3.1
294.975	2.37
295.352	1.86
295.728	2.22
296.105	1.88
296.481	2.23
296.858	2.38
297.234	2.35
297.61	1.97
297.986	2.19
298.363	2.46
298.739	2.69
299.115	2.48
299.491	2.5
299.867	2.46
300.243	2.42
300.619	2.16
300.995	2.61
301.371	2.28
301.746	2.45
302.122	2.12
302.498	2.48
302.874	2.66
303.249	2.52
303.625	2.85
304	2.64
304.376	2.55
304.751	2.65
305.127	2.51
305.502	2.26
305.878	2.64
306.253	2.24
306.628	2.62
307.003	2.15
307.378	3.06
307.754	2.49
308.129	2.38
308.504	3.17
308.879	2.41
309.254	2.6
309.629	2.59
310.003	2.38
310.378	2.34
310.753	2.3
311.128	2.31
311.502	2.23
311.877	2.57
312.252	2.44
312.626	2.41
313.001	2.41
313.375	2.16
313.75	2.27
314.124	2.6
314.498	2.92
314.873	2.48
315.247	2.38
315.621	2.74
315.995	2.3
316.369	1.97
316.743	2.53
317.117	2.9
317.491	2.31
317.865	2.53
318.239	2.78
318.613	2.53
318.987	2.11
319.361	2.48
319.734	2.89
320.108	3.11
320.482	3.07
320.855	1.81
321.229	2.43
321.602	2.55
321.976	2.25
322.349	2.53
322.723	2.32
323.096	2.42
323.469	2.87
323.843	2.35
324.216	2.85
324.589	2.71
324.962	2.56
325.335	2.33
325.708	2.53
326.081	2.64
326.454	3.21
326.827	2.46
327.2	2.4
327.573	2.23
327.945	2.17
328.318	2.59
328.691	2.22
329.063	2.72
329.436	2.16
329.809	2.05
330.181	2.97
330.553	2.41
330.926	2.69
331.298	2.96
331.671	3.14
332.043	2.2
332.415	2.55
332.787	2.17
333.159	2.36
333.532	2.48
333.904	2.76
334.276	2.42
334.648	2.1
335.02	2.26
335.391	2.79
335.763	2.7
336.135	1.83
336.507	2.57
336.879	2.78
337.25	2.8
337.622	2.11
337.993	2.88
338.365	2.86
338.736	2.72
339.108	2.78
339.479	2.49
339.851	2.72
340.222	2.2
340.593	2.33
340.964	2.26
341.336	2.77
341.707	2.83
342.078	2.82
342.449	2.85
342.82	2.63
343.191	2.52
343.562	2.31
343.933	2.71
344.303	2.23
344.674	3.01
345.045	2.73
345.416	2.99
345.786	2.65
346.157	2.65
346.527	2.49
346.898	2.6
347.268	2.97
347.639	2.5
348.009	2.59
348.38	2.76
348.75	2.77
349.12	2.86
349.49	2.78
349.861	2.74
350.231	2.64
350.601	2.43
350.971	2.28
351.341	2.16
351.711	2.38
352.081	2.82
352.45	2.95
352.82	2.95
353.19	2.48
353.56	2.12
353.929	2.74
354.299	2.59
354.669	2.68
355.038	3.21
355.408	2.74
355.777	2.32
356.147	2.83
356.516	3.06
356.885	2.82
357.254	2.79
357.624	2.67
357.993	3.05
358.362	2.59
358.731	2.41
359.1	2.56
359.469	2.77
359.838	2.91
360.207	2.68
360.576	2.71
360.945	2.77
361.314	2.75
361.682	2.6
362.051	2.76
362.42	2.56
362.788	2.69
363.157	2.71
363.525	2.62
363.894	2.96
364.262	2.8
364.631	2.88
364.999	2.85
365.367	2.46
365.735	2.96
366.104	2.48
366.472	2.7
366.84	2.74
367.208	2.91
367.576	2.93
367.944	2.61
368.312	2.88
368.68	2.81
369.048	2.83
369.416	3
369.783	2.77
370.151	2.64
370.519	2.97
370.886	2.93
371.254	2.43
371.621	2.65
371.989	2.77
372.356	2.81
372.724	2.92
373.091	2.71
373.458	2.73
373.826	2.92
374.193	3.15
374.56	2.74
374.927	2.79
375.294	3.09
375.661	2.76
376.028	3.08
376.395	2.66
376.762	2.96
377.129	2.84
377.496	2.37
377.863	2.69
378.229	2.79
378.596	2.61
378.963	2.89
379.329	2.73
379.696	2.87
380.062	3.16
380.429	2.41
380.795	2.94
381.161	2.92
381.528	2.57
381.894	2.91
382.26	2.72
382.626	3.01
382.993	2.92
383.359	2.94
383.725	2.83
384.091	2.99
384.457	2.85
384.823	2.49
385.188	2.51
385.554	2.88
385.92	2.85
386.286	2.8
386.651	2.8
387.017	2.74
387.383	2.91
387.748	2.79
388.114	2.54
388.479	2.93
388.845	2.92
389.21	2.57
389.575	2.8
389.94	2.99
390.306	2.93
390.671	3.08
391.036	2.84
391.401	2.85
391.766	2.79
392.131	2.92
392.496	2.94
392.861	2.72
393.226	2.84
393.591	2.76
393.956	2.91
394.32	2.93
394.685	3.02
395.05	2.82
395.414	2.97
395.779	3.02
396.143	2.93
396.508	2.9
396.872	2.92
397.236	2.83
397.601	2.64
397.965	2.86
398.329	2.95
398.694	2.94
399.058	2.97
399.422	3.02
399.786	2.8
400.15	2.98
400.514	2.59
400.878	2.79
401.242	2.86
401.605	3.15
401.969	2.89
402.333	2.8
402.697	2.76
403.06	2.95
403.424	2.94
403.787	2.72
404.151	2.79
404.514	3
404.878	3
405.241	2.91
405.604	2.86
405.968	3.02
406.331	2.75
406.694	2.91
407.057	2.73
407.42	2.76
407.783	2.91
408.146	3.15
408.509	3.05
408.872	2.97
409.235	3.04
409.598	2.83
409.961	2.59
410.323	2.79
410.686	3
411.049	2.71
411.411	3.1
411.774	2.93
412.136	2.74
412.499	3.02
412.861	2.99
413.223	3.2
413.586	2.88
413.948	2.91
414.31	3.14
414.672	2.75
415.035	2.8
415.397	3.11
415.759	2.99
416.121	2.86
416.483	3.09
416.845	2.89
417.206	2.99
417.568	3.15
417.93	2.8
418.292	3.15
418.653	2.84
419.015	3.11
419.377	2.92
419.738	2.9
420.1	2.93
420.461	2.93
420.822	2.9
421.184	2.95
421.545	2.88
421.906	2.84
422.267	2.94
422.629	2.78
422.99	2.84
423.351	2.95
423.712	2.85
424.073	2.91
424.434	2.86
424.795	2.98
425.155	2.96
425.516	2.79
425.877	2.87
426.238	2.96
426.598	2.95
426.959	2.8
427.32	2.94
427.68	2.9
428.041	2.86
428.401	3.02
428.761	2.85
429.122	3.09
429.482	2.91
429.842	2.86
430.202	3.05
430.563	2.92
430.923	3.02
431.283	2.97
431.643	2.84
432.003	2.96
432.363	3.04
432.722	2.93
433.082	2.92
433.442	3.03
433.802	2.82
434.161	3.01
434.521	3.06
434.881	2.84
435.24	2.78
435.6	3.07
435.959	2.91
436.319	3.05
436.678	2.92
437.037	3.01
437.396	2.9
437.756	3.02
438.115	2.84
438.474	2.85
438.833	2.94
439.192	2.88
439.551	2.92
439.91	2.85
440.269	2.93
440.628	2.81
440.987	2.83
441.345	2.84
441.704	3.02
442.063	2.75
442.421	2.84
442.78	2.94
443.138	2.97
443.497	3.06
443.855	3.04
444.214	2.9
444.572	3
444.93	2.9
445.288	3.03
445.647	2.97
446.005	3.07
446.363	2.98
446.721	2.89
447.079	2.84
447.437	2.93
447.795	2.93
448.153	3.01
448.51	2.86
448.868	3.03
449.226	2.98
449.584	3.03
449.941	2.97
450.299	3
450.656	2.76
451.014	2.93
451.371	3.03
451.729	3
452.086	3.04
452.443	3.19
452.801	3.07
453.158	2.98
453.515	2.88
453.872	2.87
454.229	2.89
454.586	2.93
454.943	2.91
455.3	3.12
455.657	2.83
456.014	3.02
456.371	3.05
456.727	3
457.084	2.9
457.441	2.83
457.797	3.1
458.154	3.13
458.51	3.08
458.867	2.83
459.223	3
459.58	2.84
459.936	2.89
460.292	3.1
460.648	2.97
461.005	2.91
461.361	2.94
461.717	2.84
462.073	2.87
462.429	2.98
462.785	3.09
463.141	3.14
463.496	2.92
463.852	3.13
464.208	3.01
464.564	2.99
464.919	3.05
465.275	2.76
465.631	3.16
465.986	2.98
466.342	3.02
466.697	2.93
467.052	2.97
467.408	3
467.763	2.77
468.118	2.96
468.473	3.11
468.829	2.97
469.184	3.04
469.539	2.95
469.894	2.84
470.249	2.91
470.603	3.08
470.958	3.09
471.313	2.88
471.668	2.88
472.023	3.01
472.377	3.08
472.732	2.95
473.086	3
473.441	2.99
473.795	2.99
474.15	3
474.504	3
474.859	3.03
475.213	3.04
475.567	3.11
475.921	2.85
476.275	2.89
476.63	3.08
476.984	3.03
477.338	2.98
477.692	3
478.045	3.04
478.399	2.94
478.753	3.01
479.107	2.99
479.461	3.06
479.814	2.98
480.168	2.91
480.521	2.9
480.875	2.95
481.228	2.85
481.582	3.02
481.935	2.96
482.289	2.94
482.642	2.97
482.995	3.03
483.348	2.95
483.701	2.9
484.055	2.82
484.408	2.92
484.761	2.83
485.114	2.77
485.466	2.72
485.819	2.69
486.172	2.73
486.525	2.82
486.878	2.91
487.23	2.93
487.583	2.95
487.936	2.95
488.288	2.85
488.641	2.77
488.993	2.79
489.345	2.76
489.698	2.78
490.05	2.82
490.402	2.85
490.754	2.87
491.107	2.86
491.459	2.95
491.811	3.01
492.163	2.96
492.515	2.84
492.866	2.8
493.218	2.81
493.57	2.81
493.922	2.89
494.274	2.92
494.625	2.95
494.977	2.98
495.328	2.95
495.68	3.01
496.031	3.01
496.383	2.94
496.734	2.92
497.086	2.84
497.437	2.8
497.788	2.89
498.139	2.94
498.49	2.97
498.842	2.87
499.193	2.89
499.544	2.89
499.894	2.93
500.245	2.88
500.596	2.86
500.947	3.08
501.298	2.96
501.648	2.89
501.999	2.96
502.35	2.97
502.7	3.03
503.051	3.08
503.401	3.04
503.752	3.03
504.102	2.97
504.452	2.96
504.803	2.99
505.153	3.07
505.503	2.98
505.853	2.87
506.203	2.95
506.553	3.06
506.903	2.98
507.253	2.93
507.603	2.88
507.953	2.95
508.303	3.04
508.652	3
509.002	2.96
509.352	2.89
509.701	2.87
510.051	2.97
510.4	2.9
510.75	2.97
511.099	2.94
511.449	2.9
511.798	2.96
512.147	2.99
512.496	3.02
512.846	2.91
513.195	2.92
513.544	2.93
513.893	2.93
514.242	3.05
514.591	2.87
514.939	2.98
515.288	2.85
515.637	2.9
515.986	3.02
516.334	2.95
516.683	3.05
517.032	3.01
517.38	2.84
517.729	2.92
518.077	2.92
518.426	2.81
518.774	2.76
519.122	2.87
519.47	2.97
519.819	2.95
520.167	2.87
520.515	2.89
520.863	2.9
521.211	2.86
521.559	2.95
521.907	3.1
522.255	2.92
522.602	2.91
522.95	2.95
523.298	2.9
523.645	2.97
523.993	2.96
524.341	3.03
524.688	2.9
525.036	2.96
525.383	2.99
525.73	3
526.078	2.94
526.425	2.86
526.772	2.82
527.119	2.84
527.466	2.73
527.814	2.86
528.161	2.89
528.508	2.87
528.854	2.82
529.201	2.83
529.548	2.84
529.895	2.77
530.242	2.71
530.588	2.7
530.935	2.76
531.282	2.8
531.628	2.91
531.975	2.91
532.321	2.84
532.667	2.97
533.014	2.99
533.36	2.94
533.706	2.97
534.052	2.95
534.399	2.83
534.745	2.83
535.091	2.8
535.437	2.84
535.783	2.85
536.129	2.89
536.474	2.99
536.82	2.94
537.166	3.04
537.512	2.91
537.857	3
538.203	2.87
538.549	2.84
538.894	2.93
539.239	2.94
539.585	2.98
539.93	2.93
540.276	2.82
540.621	2.91
540.966	2.91
541.311	2.81
541.656	2.9
542.001	2.93
542.346	2.87
542.691	2.91
543.036	2.73
543.381	2.83
543.726	2.77
544.071	2.9
544.415	2.9
544.76	2.94
545.105	2.87
545.449	2.96
545.794	2.87
546.138	2.89
546.483	2.95
546.827	2.94
547.171	2.98
547.516	2.93
547.86	3
548.204	2.87
548.548	2.89
548.892	2.93
549.236	2.93
549.58	2.96
549.924	2.98
550.268	3.08
550.612	2.98
550.956	3.09
551.3	2.94
551.643	2.98
551.987	2.97
552.33	2.84
552.674	3
553.017	3.09
553.361	2.96
553.704	2.87
554.048	2.86
554.391	2.96
554.734	2.96
555.077	3.01
555.42	2.85
555.764	2.89
556.107	2.9
556.45	2.85
556.793	2.93
557.135	3.05
557.478	2.95
557.821	2.93
558.164	2.89
558.507	2.88
558.849	2.86
559.192	2.92
559.534	2.96
559.877	2.8
560.219	2.93
560.562	2.53
560.904	2.87
561.246	3.1
561.589	2.96
561.931	2.82
562.273	3.07
562.615	2.86
562.957	3.06
563.299	2.82
563.641	3.02
563.983	2.98
564.325	3.15
564.667	3.18
565.008	3.16
565.35	3.1
565.692	3.11
566.033	2.95
566.375	2.9
566.716	2.95
567.058	2.67
567.399	2.91
567.741	2.91
568.082	2.87
568.423	2.88
568.764	2.95
569.105	2.84
569.447	2.9
569.788	3
570.129	3.14
570.47	2.89
570.811	2.94
571.151	2.93
571.492	3.08
571.833	2.84
572.174	3.03
572.514	3.06
572.855	2.94
573.195	2.9
573.536	2.84
573.876	2.91
574.217	2.8
574.557	2.78
574.898	2.96
575.238	3
575.578	2.96
575.918	2.8
576.258	3.1
576.598	2.93
576.938	3.07
577.278	2.95
577.618	2.99
577.958	2.9
578.298	2.86
578.638	2.88
578.977	3.07
579.317	2.93
579.657	2.82
579.996	2.89
580.336	3.04
580.675	2.87
581.014	2.8
581.354	2.95
581.693	2.73
582.032	3.09
582.372	2.96
582.711	2.85
583.05	2.84
583.389	2.93
583.728	3.11
584.067	3.09
584.406	2.69
584.745	3.12
585.083	3.15
585.422	3.02
585.761	3.01
586.1	2.99
586.438	3.14
586.777	3.16
587.115	2.93
587.454	3.01
587.792	3.09
588.13	2.98
588.469	3.17
588.807	3
589.145	2.98
589.483	2.86
589.821	2.99
590.159	2.72
590.497	3.22
590.835	2.89
591.173	3.07
591.511	2.92
591.849	2.84
592.187	2.89
592.524	2.83
592.862	3.07
593.2	3.09
593.537	3.07
593.875	3.23
594.212	3.16
594.55	2.91
594.887	2.83
595.224	3.1
595.561	2.99
595.899	3.2
596.236	3.16
596.573	3.05
596.91	3.08
597.247	3.01
597.584	3
597.921	3.06
598.258	2.95
598.594	2.91
598.931	2.87
599.268	2.9
599.604	2.87
599.941	3.04
600.277	2.86
600.614	2.94
600.95	3.12
601.287	2.9
601.623	3.21
601.959	3
602.296	3.01
602.632	2.77
602.968	3.03
603.304	2.97
603.64	2.8
603.976	3.08
604.312	3.01
604.648	3.13
604.984	3
605.319	2.83
605.655	2.86
605.991	3.19
606.326	2.98
606.662	2.97
606.998	2.93
607.333	3.01
607.668	2.95
608.004	2.92
608.339	2.9
608.674	3
609.01	3.15
609.345	3.04
609.68	2.93
610.015	3.24
610.35	2.9
610.685	2.76
611.02	3.05
611.355	2.98
611.689	2.85
612.024	3.14
612.359	2.9
612.694	3.14
613.028	2.8
613.363	3.08
613.697	2.86
614.032	3.13
614.366	2.87
614.7	3.04
615.035	2.94
615.369	3.23
615.703	3.14
616.037	3.36
616.371	2.98
616.705	3.1
617.039	3.31
617.373	3.35
617.707	2.92
618.041	3.2
618.375	2.78
618.709	3.2
619.042	2.95
619.376	3.08
619.71	3.11
620.043	3.23
620.377	3.11
620.71	3.15
621.043	3.43
621.377	3.39
621.71	3.49
622.043	3.13
622.376	2.94
622.709	3.4
623.043	3
623.376	3
623.709	2.93
624.041	2.75
624.374	3.13
624.707	3.03
625.04	3.03
625.373	3.32
625.705	3.01
626.038	2.67
626.37	3.3
626.703	3.38
627.035	3.06
627.368	3.12
627.7	3.15
628.032	3.1
628.365	3.03
628.697	3.11
629.029	3.28
629.361	3.23
629.693	3.06
630.025	2.98
630.357	3.06
630.689	2.79
631.021	2.84
631.353	2.9
631.684	3.02
632.016	2.95
632.348	3.12
632.679	3.05
633.011	2.94
633.342	3.21
633.674	3.2
634.005	2.92
634.336	2.9
634.668	3.55
634.999	3.12
635.33	2.86
635.661	3.39
635.992	2.95
636.323	2.8
636.654	3.03
636.985	2.72
637.316	3.03
637.647	3.13
637.977	3.01
638.308	3.14
638.639	3
638.969	3.11
639.3	2.91
639.63	3.34
639.961	3.17
640.291	3.05
640.622	2.91
640.952	2.91
641.282	3.24
641.612	2.91
641.943	3.08
642.273	2.87
642.603	3.38
642.933	3.11
643.263	3.5
643.592	2.98
643.922	3.03
644.252	3.14
644.582	3.09
644.911	3.58
645.241	3.42
645.571	3.05
645.9	3.3
646.23	2.94
646.559	2.85
646.888	2.95
647.218	2.9
647.547	3.28
647.876	3.32
648.205	2.86
648.534	3.43
648.863	3.2
649.192	2.94
649.521	3.47
649.85	2.79
650.179	3.41
650.508	2.86
650.837	3.18
651.165	3.48
651.494	3.3
651.822	3.21
652.151	3.41
652.479	3.18
652.808	2.75
653.136	3.34
653.465	2.78
653.793	3.23
654.121	3.2
654.449	3.45
654.777	3.12
655.105	3.03
655.433	3.2
655.761	3.64
656.089	2.89
656.417	3.04
656.745	2.56
657.073	3.64
657.4	3.17
657.728	3.01
658.056	2.81
658.383	3.15
658.711	3.3
659.038	3.29
659.365	2.89
659.693	3.23
660.02	2.97
660.347	3.82
660.674	2.93
661.001	3.02
661.329	2.67
661.656	3.37
661.982	3.51
662.309	3.63
662.636	3.02
662.963	2.82
663.29	3.23
663.616	3.4
663.943	3.01
664.27	3.14
664.596	3.18
664.923	2.96
665.249	3.09
665.576	3.26
665.902	2.76
666.228	3.03
666.554	3.12
666.881	3.3
667.207	3.5
667.533	3.83
667.859	3.32
668.185	3.91
668.511	3.08
668.837	3.2
669.162	3.16
669.488	2.92
669.814	3.76
670.139	2.76
670.465	3.51
670.791	3.18
671.116	3.83
671.442	3.63
671.767	3.3
672.092	2.61
672.418	3.32
672.743	2.98
673.068	3.21
673.393	3.06
673.718	3.05
674.043	3.32
674.368	3.13
674.693	3.27
675.018	3.2
675.343	3.72
675.667	3.4
675.992	2.85
676.317	3.31
676.641	3.07
676.966	3.28
677.29	3.2
677.615	3.48
677.939	3.24
678.264	3.55
678.588	2.89
678.912	3.32
679.236	3.5
679.56	2.51
679.885	3.68
680.209	3.82
680.532	3.03
680.856	3.27
681.18	3.24
681.504	3.69
681.828	3.42
682.152	3.14
682.475	3.49
682.799	3.24
683.122	3.25
683.446	3.74
683.769	3.73
684.093	2.87
684.416	3.18
684.739	3.44
685.062	3.72
685.386	3.5
685.709	3.78
686.032	4.5
686.355	2.86
686.678	2.53
687.001	3.12
687.324	3.33
687.646	3.12
687.969	2.88
688.292	3.93
688.614	3.73
688.937	4.12
689.26	3.5
689.582	3.43
689.904	3.48
690.227	3.34
690.549	4.07
690.871	3.18
691.194	2.84
691.516	3.83
691.838	3.44
692.16	3.61
692.482	3.44
692.804	2.94
693.126	3.7
693.448	3.14
693.769	3.82
694.091	2.79
