Data from 0017_chest_Reflection__0__66.txt Node

Date: Mon Oct 17 14:57:10 CDT 2022
User: ToomeyLab
Spectrometer: FLMS14357
Trigger mode: 0
Integration Time (sec): 1.000000E-2
Scans to average: 100
Electric dark correction enabled: true
Nonlinearity correction enabled: false
Boxcar width: 0
XAxis mode: Wavelengths
Number of Pixels in Spectrum: 2048
>>>>>Begin Spectral Data<<<<<
189.047	-101.67
189.435	-101.67
189.823	-101.67
190.211	946.57
190.599	-275.94
190.987	13
191.375	3.8
191.763	87.16
192.151	278.97
192.538	238.74
192.926	61.73
193.314	604.52
193.702	-1259
194.089	-81.34
194.477	309.5
194.864	76
195.252	246.51
195.639	-325.24
196.027	106.98
196.414	2.87
196.801	-78.05
197.189	102.44
197.576	163.08
197.963	144.51
198.351	-97.32
198.738	46.79
199.125	-82.67
199.512	-85.88
199.899	8.59
200.286	-13.13
200.673	-13.01
201.06	45.61
201.447	37.98
201.833	24.69
202.22	11.83
202.607	-44.91
202.994	-36.49
203.38	-19.94
203.767	72.18
204.154	45.38
204.54	11.19
204.927	-31.19
205.313	-6.94
205.699	-10.56
206.086	-16.35
206.472	-4.14
206.858	-1.12
207.245	8.06
207.631	-6.34
208.017	14.63
208.403	62.65
208.789	6.16
209.175	26.41
209.561	-48.04
209.947	-135.81
210.333	20.86
210.719	5.99
211.105	25.39
211.491	28.36
211.876	20.6
212.262	35.29
212.648	21.04
213.034	-21.37
213.419	52.78
213.805	-16.29
214.19	-18.87
214.576	-19.82
214.961	-12.57
215.346	-8.6
215.732	-16.06
216.117	18.71
216.502	0.12
216.888	2.2
217.273	3.34
217.658	-5.2
218.043	-21.72
218.428	-23.67
218.813	5.71
219.198	11.98
219.583	-24.59
219.968	-7.25
220.353	1.59
220.738	-20.36
221.122	13.94
221.507	-1.43
221.892	-4.45
222.276	0.86
222.661	2.3
223.046	9.36
223.43	5.82
223.815	-4.76
224.199	-1.18
224.583	1.41
224.968	-5.5
225.352	-24.07
225.736	9.15
226.121	-3.83
226.505	-4.54
226.889	0.93
227.273	0.9
227.657	5.65
228.041	-1.58
228.425	1.65
228.809	0.66
229.193	-1.45
229.577	1.76
229.961	1.06
230.344	0.28
230.728	0.41
231.112	0.79
231.495	0.31
231.879	0.77
232.263	1.21
232.646	1.32
233.03	0.99
233.413	-0.75
233.797	0.57
234.18	0.38
234.563	-3.05
234.946	0.96
235.33	0.57
235.713	0.57
236.096	0.51
236.479	-0.15
236.862	0.64
237.245	-0.82
237.628	-0.47
238.011	0.11
238.394	2.42
238.777	1.95
239.16	1.2
239.543	0.57
239.925	0.88
240.308	-0.86
240.691	-0.4
241.073	1.48
241.456	-0.34
241.838	0.21
242.221	-0.24
242.603	0.61
242.986	0.04
243.368	0.86
243.75	0.91
244.133	0.93
244.515	1.34
244.897	1.18
245.279	1.22
245.661	1.05
246.043	1.03
246.425	-0.77
246.807	0.2
247.189	0.6
247.571	0.82
247.953	0.92
248.335	0.74
248.717	0.76
249.098	0.97
249.48	0.94
249.862	0.93
250.243	0.53
250.625	1.31
251.006	0.29
251.388	0.89
251.769	1.16
252.151	0.03
252.532	0.35
252.913	0.71
253.295	0.71
253.676	0.34
254.057	1.38
254.438	1.07
254.819	2.55
255.2	1.17
255.581	0.75
255.962	1.15
256.343	0.11
256.724	0.11
257.105	-0.26
257.486	-0.23
257.867	0.79
258.247	0.73
258.628	1.59
259.009	0.94
259.389	0.69
259.77	1.55
260.15	1.64
260.531	0.79
260.911	0.88
261.292	0.97
261.672	0.81
262.052	0.92
262.432	0.81
262.813	1.06
263.193	0.71
263.573	0.65
263.953	0.42
264.333	0.94
264.713	1.05
265.093	0.79
265.473	0.86
265.853	1.32
266.233	1.62
266.612	0.25
266.992	1.42
267.372	0.67
267.752	0.61
268.131	1.49
268.511	1.04
268.89	1.5
269.27	0.91
269.649	1.19
270.029	0.61
270.408	1.04
270.787	0.76
271.167	0.97
271.546	0.87
271.925	0.94
272.304	0.84
272.683	1.2
273.062	1.03
273.441	0.86
273.82	1.02
274.199	1.22
274.578	0.89
274.957	0.94
275.336	0.97
275.715	1.09
276.093	1.12
276.472	1.2
276.851	0.94
277.229	0.08
277.608	1.08
277.986	1.13
278.365	0.81
278.743	0.88
279.122	0.22
279.5	0.98
279.878	0.99
280.257	0.89
280.635	0.85
281.013	1.24
281.391	0.24
281.769	0.43
282.147	1.12
282.525	1.08
282.903	0.13
283.281	0.56
283.659	0.87
284.037	0.71
284.415	0.87
284.792	0.61
285.17	0.18
285.548	0.71
285.925	1.11
286.303	0.79
286.68	1.18
287.058	1.11
287.435	0.96
287.813	1.04
288.19	0.83
288.567	0.92
288.945	0.9
289.322	1.22
289.699	0.96
290.076	0.65
290.453	0.55
290.83	0.77
291.207	1.23
291.584	0.97
291.961	1
292.338	0.62
292.715	1.16
293.092	0.94
293.469	0.85
293.845	1.09
294.222	1.33
294.599	1.55
294.975	0.77
295.352	0.6
295.728	1
296.105	0.83
296.481	1.12
296.858	1.15
297.234	0.75
297.61	0.89
297.986	0.79
298.363	1.07
298.739	1.4
299.115	0.99
299.491	1.11
299.867	0.85
300.243	0.91
300.619	0.49
300.995	1.07
301.371	0.72
301.746	0.88
302.122	0.85
302.498	1.36
302.874	1.32
303.249	1.45
303.625	1.47
304	1.11
304.376	1.82
304.751	1.27
305.127	0.95
305.502	0.82
305.878	1.51
306.253	0.99
306.628	1.55
307.003	1.35
307.378	1.18
307.754	1.02
308.129	1.41
308.504	0.94
308.879	0.71
309.254	1.14
309.629	0.8
310.003	1.28
310.378	1.31
310.753	1.01
311.128	1.5
311.502	1.4
311.877	1.42
312.252	1.21
312.626	1.04
313.001	1.4
313.375	1.05
313.75	1.27
314.124	1.27
314.498	1.05
314.873	1.48
315.247	1.15
315.621	1.71
315.995	1.11
316.369	1.09
316.743	1.37
317.117	2.02
317.491	1.01
317.865	1.43
318.239	1.63
318.613	1.29
318.987	1.25
319.361	1.14
319.734	1.51
320.108	1.46
320.482	1.24
320.855	0.84
321.229	0.76
321.602	1.07
321.976	0.64
322.349	1.24
322.723	1.06
323.096	1.27
323.469	1.57
323.843	1.27
324.216	1.8
324.589	1.6
324.962	1.33
325.335	1.43
325.708	1.19
326.081	1.25
326.454	1.23
326.827	0.96
327.2	1.16
327.573	1.28
327.945	1.17
328.318	1.21
328.691	1.46
329.063	1.17
329.436	1.11
329.809	1.58
330.181	1.97
330.553	0.71
330.926	1.33
331.298	0.94
331.671	1.22
332.043	1.19
332.415	1.43
332.787	1.34
333.159	1.69
333.532	0.78
333.904	1.26
334.276	1.21
334.648	1.23
335.02	0.99
335.391	1.64
335.763	1.1
336.135	1.41
336.507	1.45
336.879	1.1
337.25	1.75
337.622	1.45
337.993	1.18
338.365	1.47
338.736	1.37
339.108	1.69
339.479	1.37
339.851	1.55
340.222	1.63
340.593	1.36
340.964	1.37
341.336	1.42
341.707	1.35
342.078	1.82
342.449	1.75
342.82	1.42
343.191	1.29
343.562	1.31
343.933	1.23
344.303	0.86
344.674	1.62
345.045	1.64
345.416	1.44
345.786	1.47
346.157	1.43
346.527	1.58
346.898	1.89
347.268	1.36
347.639	1.23
348.009	1.59
348.38	1.6
348.75	1.37
349.12	1.57
349.49	1.45
349.861	1.83
350.231	1.27
350.601	1.55
350.971	1.22
351.341	1.29
351.711	1.26
352.081	1.73
352.45	1.5
352.82	1.71
353.19	1.1
353.56	1.39
353.929	1.43
354.299	1.3
354.669	1.56
355.038	1.8
355.408	1.46
355.777	1.28
356.147	1.31
356.516	1.68
356.885	1.8
357.254	1.7
357.624	1.74
357.993	1.66
358.362	1.64
358.731	1.33
359.1	1.56
359.469	1.4
359.838	1.56
360.207	1.8
360.576	1.29
360.945	1.3
361.314	1.48
361.682	1.49
362.051	1.42
362.42	1.49
362.788	1.7
363.157	1.63
363.525	1.25
363.894	1.62
364.262	1.71
364.631	1.46
364.999	1.57
365.367	1.38
365.735	1.42
366.104	1.5
366.472	1.32
366.84	1.48
367.208	1.63
367.576	1.66
367.944	1.02
368.312	1.63
368.68	1.68
369.048	1.63
369.416	1.71
369.783	1.7
370.151	1.74
370.519	1.58
370.886	1.6
371.254	1.51
371.621	1.49
371.989	1.68
372.356	1.57
372.724	1.55
373.091	1.85
373.458	1.51
373.826	1.72
374.193	2.06
374.56	1.52
374.927	1.6
375.294	1.57
375.661	1.59
376.028	1.66
376.395	1.56
376.762	1.72
377.129	1.75
377.496	1.32
377.863	1.3
378.229	1.6
378.596	1.72
378.963	1.46
379.329	1.39
379.696	1.35
380.062	1.9
380.429	1.59
380.795	1.91
381.161	1.81
381.528	1.61
381.894	1.34
382.26	1.77
382.626	1.83
382.993	1.85
383.359	1.56
383.725	1.49
384.091	1.87
384.457	1.54
384.823	1.32
385.188	1.35
385.554	1.75
385.92	1.69
386.286	1.72
386.651	1.64
387.017	1.48
387.383	1.63
387.748	1.43
388.114	1.61
388.479	1.94
388.845	1.83
389.21	1.62
389.575	1.48
389.94	1.72
390.306	1.5
390.671	1.79
391.036	1.94
391.401	1.57
391.766	1.85
392.131	1.82
392.496	1.9
392.861	1.55
393.226	1.77
393.591	1.71
393.956	1.75
394.32	1.7
394.685	1.67
395.05	1.74
395.414	1.95
395.779	1.83
396.143	1.82
396.508	1.71
396.872	1.81
397.236	1.6
397.601	2.05
397.965	1.7
398.329	1.84
398.694	1.57
399.058	1.66
399.422	1.77
399.786	1.9
400.15	1.75
400.514	1.6
400.878	1.73
401.242	1.87
401.605	2.01
401.969	1.79
402.333	1.79
402.697	1.74
403.06	1.58
403.424	1.52
403.787	1.8
404.151	1.94
404.514	1.92
404.878	1.95
405.241	1.74
405.604	1.74
405.968	1.89
406.331	1.62
406.694	1.76
407.057	1.6
407.42	1.79
407.783	2.07
408.146	1.97
408.509	1.95
408.872	1.74
409.235	1.68
409.598	1.73
409.961	1.52
410.323	1.95
410.686	1.79
411.049	1.89
411.411	2.04
411.774	1.88
412.136	1.8
412.499	2.06
412.861	1.88
413.223	1.78
413.586	1.62
413.948	1.87
414.31	1.84
414.672	1.88
415.035	1.93
415.397	2.07
415.759	1.87
416.121	1.6
416.483	1.98
416.845	1.94
417.206	1.77
417.568	2.03
417.93	1.82
418.292	2.11
418.653	1.88
419.015	1.96
419.377	1.99
419.738	1.75
420.1	1.92
420.461	1.94
420.822	1.93
421.184	1.79
421.545	1.84
421.906	1.85
422.267	1.78
422.629	1.8
422.99	1.81
423.351	1.93
423.712	1.84
424.073	1.82
424.434	1.95
424.795	1.95
425.155	1.97
425.516	1.73
425.877	1.81
426.238	1.87
426.598	1.85
426.959	1.93
427.32	1.92
427.68	1.94
428.041	1.82
428.401	1.93
428.761	1.9
429.122	2.04
429.482	2.01
429.842	2.06
430.202	1.94
430.563	2.06
430.923	2.1
431.283	2.1
431.643	1.85
432.003	1.93
432.363	2.05
432.722	2
433.082	2.08
433.442	2.09
433.802	1.85
434.161	1.81
434.521	2.16
434.881	1.95
435.24	1.93
435.6	2.09
435.959	2
436.319	2.09
436.678	1.99
437.037	1.96
437.396	2.01
437.756	2.09
438.115	1.94
438.474	1.91
438.833	1.92
439.192	1.98
439.551	1.94
439.91	1.97
440.269	2.01
440.628	1.9
440.987	1.94
441.345	2.09
441.704	1.97
442.063	1.88
442.421	2.06
442.78	1.92
443.138	2.03
443.497	2.03
443.855	2.08
444.214	2.02
444.572	1.88
444.93	2.18
445.288	1.98
445.647	2.12
446.005	2.23
446.363	2.13
446.721	2.08
447.079	2.09
447.437	1.91
447.795	1.96
448.153	2.07
448.51	2.04
448.868	2.11
449.226	1.99
449.584	2.12
449.941	2.1
450.299	2.25
450.656	1.94
451.014	1.98
451.371	2.16
451.729	2.2
452.086	2.13
452.443	2.11
452.801	2.2
453.158	2.23
453.515	2.02
453.872	2.15
454.229	1.98
454.586	2.06
454.943	2.14
455.3	2.21
455.657	2.09
456.014	2.2
456.371	2.23
456.727	2.13
457.084	2.01
457.441	2.13
457.797	2.21
458.154	2.35
458.51	2.21
458.867	2.21
459.223	2.12
459.58	2.14
459.936	2.04
460.292	2.25
460.648	2.11
461.005	2.13
461.361	2.1
461.717	2.06
462.073	2.08
462.429	2.21
462.785	2.31
463.141	2.35
463.496	2.14
463.852	2.12
464.208	2.4
464.564	2.27
464.919	2.17
465.275	2.22
465.631	2.37
465.986	2.21
466.342	2.31
466.697	2.28
467.052	2.11
467.408	2.09
467.763	2.13
468.118	2.41
468.473	2.39
468.829	2.29
469.184	2.25
469.539	2.17
469.894	2.14
470.249	2.27
470.603	2.27
470.958	2.31
471.313	2.15
471.668	2.39
472.023	2.29
472.377	2.25
472.732	2.16
473.086	2.37
473.441	2.19
473.795	2.32
474.15	2.35
474.504	2.39
474.859	2.35
475.213	2.26
475.567	2.55
475.921	2.24
476.275	2.3
476.63	2.4
476.984	2.32
477.338	2.39
477.692	2.24
478.045	2.46
478.399	2.52
478.753	2.3
479.107	2.32
479.461	2.34
479.814	2.28
480.168	2.34
480.521	2.3
480.875	2.26
481.228	2.28
481.582	2.44
481.935	2.46
482.289	2.28
482.642	2.32
482.995	2.41
483.348	2.4
483.701	2.34
484.055	2.25
484.408	2.39
484.761	2.25
485.114	2.2
485.466	2.15
485.819	2.17
486.172	2.24
486.525	2.31
486.878	2.34
487.23	2.35
487.583	2.44
487.936	2.41
488.288	2.38
488.641	2.26
488.993	2.21
489.345	2.24
489.698	2.31
490.05	2.3
490.402	2.33
490.754	2.39
491.107	2.37
491.459	2.46
491.811	2.56
492.163	2.47
492.515	2.45
492.866	2.31
493.218	2.31
493.57	2.36
493.922	2.37
494.274	2.44
494.625	2.47
494.977	2.55
495.328	2.53
495.68	2.58
496.031	2.59
496.383	2.59
496.734	2.59
497.086	2.51
497.437	2.49
497.788	2.48
498.139	2.42
498.49	2.52
498.842	2.46
499.193	2.43
499.544	2.52
499.894	2.64
500.245	2.53
500.596	2.56
500.947	2.68
501.298	2.63
501.648	2.58
501.999	2.57
502.35	2.63
502.7	2.68
503.051	2.78
503.401	2.73
503.752	2.76
504.102	2.65
504.452	2.62
504.803	2.74
505.153	2.67
505.503	2.8
505.853	2.66
506.203	2.75
506.553	2.78
506.903	2.66
507.253	2.64
507.603	2.65
507.953	2.7
508.303	2.68
508.652	2.7
509.002	2.85
509.352	2.69
509.701	2.59
510.051	2.86
510.4	2.67
510.75	2.74
511.099	2.71
511.449	2.76
511.798	2.75
512.147	2.75
512.496	2.79
512.846	2.66
513.195	2.7
513.544	2.72
513.893	2.75
514.242	2.94
514.591	2.8
514.939	2.73
515.288	2.83
515.637	2.82
515.986	2.81
516.334	2.86
516.683	2.88
517.032	2.86
517.38	2.91
517.729	2.97
518.077	2.85
518.426	2.84
518.774	2.95
519.122	2.78
519.47	2.9
519.819	2.95
520.167	2.86
520.515	2.86
520.863	2.91
521.211	2.89
521.559	2.92
521.907	2.98
522.255	3.06
522.602	2.96
522.95	3.07
523.298	3.02
523.645	3.02
523.993	3.11
524.341	3.27
524.688	2.95
525.036	3.01
525.383	2.97
525.73	3.11
526.078	2.98
526.425	2.99
526.772	3.03
527.119	2.98
527.466	2.98
527.814	3.05
528.161	3.03
528.508	3
528.854	2.98
529.201	3
529.548	3.04
529.895	2.97
530.242	2.86
530.588	2.86
530.935	2.96
531.282	3.02
531.628	3.09
531.975	3.14
532.321	3.16
532.667	3.25
533.014	3.22
533.36	3.21
533.706	3.27
534.052	3.2
534.399	3.13
534.745	3.08
535.091	3.1
535.437	3.13
535.783	3.21
536.129	3.24
536.474	3.32
536.82	3.35
537.166	3.42
537.512	3.31
537.857	3.33
538.203	3.3
538.549	3.33
538.894	3.33
539.239	3.37
539.585	3.4
539.93	3.51
540.276	3.4
540.621	3.36
540.966	3.41
541.311	3.46
541.656	3.36
542.001	3.49
542.346	3.37
542.691	3.38
543.036	3.27
543.381	3.38
543.726	3.4
544.071	3.46
544.415	3.54
544.76	3.53
545.105	3.44
545.449	3.58
545.794	3.53
546.138	3.59
546.483	3.61
546.827	3.69
547.171	3.63
547.516	3.65
547.86	3.8
548.204	3.63
548.548	3.67
548.892	3.65
549.236	3.74
549.58	3.83
549.924	3.75
550.268	3.86
550.612	3.86
550.956	3.97
551.3	3.97
551.643	3.96
551.987	3.87
552.33	3.86
552.674	3.88
553.017	3.99
553.361	3.94
553.704	3.9
554.048	3.82
554.391	4
554.734	4
555.077	3.92
555.42	4.1
555.764	4.08
556.107	4.02
556.45	4.11
556.793	4.23
557.135	4.26
557.478	4.12
557.821	4.26
558.164	4.24
558.507	4.2
558.849	4.07
559.192	4.32
559.534	4.17
559.877	4.13
560.219	4.07
560.562	3.96
560.904	4.23
561.246	4.36
561.589	4.39
561.931	4.29
562.273	4.37
562.615	4.14
562.957	4.25
563.299	4.23
563.641	4.3
563.983	4.44
564.325	4.54
564.667	4.48
565.008	4.62
565.35	4.47
565.692	4.61
566.033	4.42
566.375	4.35
566.716	4.49
567.058	4.48
567.399	4.41
567.741	4.54
568.082	4.67
568.423	4.52
568.764	4.63
569.105	4.71
569.447	4.73
569.788	4.68
570.129	4.83
570.47	4.88
570.811	4.79
571.151	4.7
571.492	4.88
571.833	4.74
572.174	4.88
572.514	4.91
572.855	4.87
573.195	4.83
573.536	4.81
573.876	4.91
574.217	4.89
574.557	4.79
574.898	4.92
575.238	4.92
575.578	5.16
575.918	5.05
576.258	5.03
576.598	5
576.938	4.89
577.278	5.09
577.618	5.26
577.958	5.04
578.298	5.13
578.638	5.01
578.977	5.3
579.317	5.2
579.657	5.24
579.996	5.19
580.336	5.43
580.675	5.28
581.014	5.09
581.354	5.33
581.693	5.28
582.032	5.45
582.372	5.47
582.711	5.35
583.05	5.56
583.389	5.39
583.728	5.73
584.067	5.68
584.406	5.39
584.745	5.77
585.083	5.59
585.422	5.53
585.761	5.66
586.1	5.73
586.438	5.79
586.777	5.94
587.115	5.48
587.454	5.89
587.792	6
588.13	5.99
588.469	5.97
588.807	5.78
589.145	5.89
589.483	6.05
589.821	5.73
590.159	5.9
590.497	6.08
590.835	5.96
591.173	6.17
591.511	6
591.849	6.13
592.187	6.08
592.524	5.93
592.862	6.04
593.2	6.4
593.537	6.42
593.875	6.1
594.212	6.33
594.55	6.23
594.887	6.16
595.224	6.56
595.561	6.13
595.899	6.44
596.236	6.51
596.573	6.36
596.91	6.6
597.247	6.5
597.584	6.32
597.921	6.41
598.258	6.51
598.594	6.43
598.931	6.43
599.268	6.48
599.604	6.42
599.941	6.61
600.277	6.78
600.614	6.57
600.95	6.47
601.287	6.66
601.623	6.81
601.959	6.69
602.296	6.84
602.632	6.68
602.968	6.74
603.304	6.82
603.64	6.82
603.976	6.9
604.312	7.01
604.648	6.95
604.984	7.06
605.319	6.65
605.655	6.84
605.991	6.92
606.326	6.78
606.662	7.16
606.998	7.04
607.333	7.14
607.668	7.17
608.004	7.16
608.339	7.33
608.674	7.3
609.01	7.48
609.345	7.59
609.68	7.71
610.015	7.57
610.35	7.3
610.685	7.09
611.02	7.29
611.355	7.28
611.689	7.37
612.024	7.56
612.359	7.76
612.694	7.62
613.028	7.58
613.363	7.81
613.697	7.57
614.032	7.71
614.366	7.72
614.7	7.96
615.035	7.71
615.369	7.95
615.703	7.94
616.037	7.98
616.371	8
616.705	8.03
617.039	8.36
617.373	8.14
617.707	8.15
618.041	8
618.375	7.98
618.709	8.2
619.042	8.42
619.376	8.12
619.71	7.74
620.043	8.12
620.377	8.16
620.71	8.42
621.043	8.45
621.377	8.56
621.71	8.58
622.043	8.61
622.376	8.5
622.709	8.5
623.043	8.74
623.376	8.43
623.709	8.41
624.041	8.62
624.374	8.79
624.707	8.55
625.04	8.73
625.373	9
625.705	9.05
626.038	8.45
626.37	8.67
626.703	8.96
627.035	8.73
627.368	8.76
627.7	8.87
628.032	8.5
628.365	8.73
628.697	9.03
629.029	8.89
629.361	8.83
629.693	8.93
630.025	9.2
630.357	8.91
630.689	8.88
631.021	8.78
631.353	9.02
631.684	9.13
632.016	9.16
632.348	9.51
632.679	9.32
633.011	9.15
633.342	9.29
633.674	9.32
634.005	9.09
634.336	8.86
634.668	9.71
634.999	9.15
635.33	9.29
635.661	9.45
635.992	9.39
636.323	9.65
636.654	9.51
636.985	9.39
637.316	9.75
637.647	9.8
637.977	9.66
638.308	9.53
638.639	9.68
638.969	9.65
639.3	9.55
639.63	10.02
639.961	9.7
640.291	9.6
640.622	9.88
640.952	9.29
641.282	10.05
641.612	9.92
641.943	9.6
642.273	9.9
642.603	9.95
642.933	10.38
643.263	10.37
643.592	10.07
643.922	10.3
644.252	10.45
644.582	10.88
644.911	10.74
645.241	10.59
645.571	10.15
645.9	10.13
646.23	10.3
646.559	10.42
646.888	10.46
647.218	10.38
647.547	10.35
647.876	10.5
648.205	10.03
648.534	10.93
648.863	10.62
649.192	10.65
649.521	10.87
649.85	10.67
650.179	11.2
650.508	10.67
650.837	11.04
651.165	11.04
651.494	11.03
651.822	10.9
652.151	10.92
652.479	11.24
652.808	10.06
653.136	10.9
653.465	10.66
653.793	10.77
654.121	11.06
654.449	11.53
654.777	11.07
655.105	10.69
655.433	11.54
655.761	11.37
656.089	11.1
656.417	11.23
656.745	11
657.073	11.14
657.4	11.22
657.728	11.61
658.056	11.36
658.383	11.58
658.711	11.62
659.038	11.26
659.365	11.49
659.693	11.15
660.02	11.26
660.347	11.87
660.674	11.78
661.001	11.4
661.329	11.71
661.656	11.67
661.982	11.6
662.309	12.04
662.636	12.12
662.963	11.44
663.29	12.06
663.616	11.88
663.943	11.31
664.27	12.25
664.596	11.78
664.923	11.61
665.249	12.2
665.576	11.77
665.902	12.32
666.228	12.35
666.554	11.96
666.881	12.51
667.207	12.27
667.533	12.55
667.859	12.34
668.185	12.33
668.511	12.65
668.837	12.7
669.162	12.23
669.488	13.25
669.814	13.34
670.139	12.63
670.465	12.17
670.791	12.37
671.116	12.61
671.442	12.43
671.767	12.8
672.092	12.36
672.418	12.64
672.743	12.41
673.068	13.25
673.393	12.87
673.718	13.08
674.043	13.35
674.368	12.4
674.693	12.8
675.018	12.84
675.343	13.59
675.667	13.04
675.992	12.67
676.317	13.15
676.641	12.87
676.966	13.26
677.29	12.76
677.615	13.09
677.939	13.32
678.264	12.69
678.588	13.09
678.912	13.21
679.236	14.05
679.56	13.04
679.885	13.12
680.209	13.73
680.532	13.31
680.856	13.76
681.18	13.49
681.504	13.52
681.828	13.67
682.152	13.37
682.475	13.94
682.799	13.4
683.122	13.65
683.446	13.7
683.769	13.56
684.093	12.92
684.416	14.3
684.739	13.76
685.062	14.24
685.386	14.28
685.709	13.28
686.032	14.66
686.355	14.05
686.678	13.7
687.001	13.63
687.324	13.99
687.646	13.63
687.969	14.21
688.292	14.38
688.614	14.99
688.937	14.4
689.26	14.57
