Data from 0017_chest_Reflection__4__70.txt Node

Date: Mon Oct 17 14:58:04 CDT 2022
User: ToomeyLab
Spectrometer: FLMS14357
Trigger mode: 0
Integration Time (sec): 1.000000E-2
Scans to average: 100
Electric dark correction enabled: true
Nonlinearity correction enabled: false
Boxcar width: 0
XAxis mode: Wavelengths
Number of Pixels in Spectrum: 2048
>>>>>Begin Spectral Data<<<<<
189.047	376.43
189.435	376.43
189.823	376.43
190.211	-873.04
190.599	-323.74
190.987	-315
191.375	192.6
191.763	-138.06
192.151	70.5
192.538	275.38
192.926	53.94
193.314	212.14
193.702	277
194.089	-59.85
194.477	-1.42
194.864	14.96
195.252	91.67
195.639	-140.7
196.027	62.7
196.414	43.18
196.801	-104.42
197.189	108.75
197.576	92.09
197.963	-297.3
198.351	-229.44
198.738	-6.68
199.125	-86.41
199.512	-86.15
199.899	31.28
200.286	-9.93
200.673	-23.52
201.06	-54.05
201.447	56.26
201.833	17.27
202.22	39.3
202.607	-71.59
202.994	-44.84
203.38	-0.14
203.767	31.43
204.154	40.08
204.54	-33.48
204.927	-4.81
205.313	-40
205.699	-6.47
206.086	-43.92
206.472	20.82
206.858	-9.23
207.245	11.73
207.631	5.06
208.017	41.51
208.403	24.68
208.789	12.73
209.175	-18.29
209.561	-101.04
209.947	-52.41
210.333	30.14
210.719	38.31
211.105	29.16
211.491	12.69
211.876	-13.16
212.262	-2.79
212.648	-8.66
213.034	-20.35
213.419	-11.38
213.805	-2.25
214.19	1.94
214.576	-24.98
214.961	-17.87
215.346	-3.59
215.732	-6.73
216.117	3.35
216.502	7.08
216.888	-7.2
217.273	12.14
217.658	17.58
218.043	0.22
218.428	-31.89
218.813	21.5
219.198	2.82
219.583	-9.52
219.968	-2.92
220.353	15.53
220.738	-7.36
221.122	1.33
221.507	-29.78
221.892	1.81
222.276	-16.46
222.661	-11.82
223.046	-0.73
223.43	5.52
223.815	-10.05
224.199	9.24
224.583	-6.3
224.968	-17
225.352	-13.96
225.736	7.15
226.121	-2.88
226.505	-1.72
226.889	-5.72
227.273	0.16
227.657	1.41
228.041	7.97
228.425	0.31
228.809	1.55
229.193	3.64
229.577	4.15
229.961	5.46
230.344	2.92
230.728	2.91
231.112	2.95
231.495	2.44
231.879	2.48
232.263	3.31
232.646	4.42
233.03	2.47
233.413	0.47
233.797	2.74
234.18	5.14
234.563	-2.38
234.946	2.22
235.33	2.41
235.713	2.52
236.096	2.55
236.479	1.46
236.862	2.25
237.245	3.09
237.628	1.82
238.011	2.18
238.394	2.91
238.777	3.84
239.16	4.1
239.543	1.8
239.925	2.42
240.308	1.59
240.691	1.42
241.073	4.16
241.456	2.79
241.838	2.25
242.221	2.49
242.603	2.89
242.986	2.82
243.368	3.41
243.75	3.21
244.133	3.38
244.515	3.41
244.897	3.15
245.279	3.72
245.661	3.35
246.043	3.42
246.425	2
246.807	2.71
247.189	3.39
247.571	2.71
247.953	2.9
248.335	3.05
248.717	3.37
249.098	3.43
249.48	3.42
249.862	3.38
250.243	3.01
250.625	3.52
251.006	3.17
251.388	3.54
251.769	3.05
252.151	2.48
252.532	2.07
252.913	3.21
253.295	2.5
253.676	3.42
254.057	3.69
254.438	3.7
254.819	3.71
255.2	2.67
255.581	3.39
255.962	2.32
256.343	2.38
256.724	2.26
257.105	2.68
257.486	2.02
257.867	2.72
258.247	2.82
258.628	3.43
259.009	4
259.389	3.4
259.77	3.07
260.15	3.11
260.531	2.73
260.911	3.36
261.292	3.06
261.672	3.02
262.052	3.27
262.432	3.13
262.813	2.97
263.193	2.99
263.573	3.19
263.953	2.99
264.333	3.15
264.713	2.59
265.093	2.97
265.473	3.17
265.853	2.47
266.233	4.63
266.612	2.58
266.992	3.43
267.372	3.66
267.752	3.46
268.131	3.42
268.511	3.19
268.89	3.04
269.27	3.12
269.649	2.92
270.029	3.25
270.408	3.78
270.787	2.78
271.167	2.75
271.546	3.27
271.925	3.56
272.304	2.89
272.683	3.06
273.062	2.87
273.441	3
273.82	3.05
274.199	3.4
274.578	2.9
274.957	2.71
275.336	2.88
275.715	2.87
276.093	2.72
276.472	3.06
276.851	3.28
277.229	2.58
277.608	2.95
277.986	3.14
278.365	3.34
278.743	2.69
279.122	2.79
279.5	3.17
279.878	2.65
280.257	3.21
280.635	2.62
281.013	3.32
281.391	2.99
281.769	3.26
282.147	3.51
282.525	3.24
282.903	2.96
283.281	2.91
283.659	2.9
284.037	2.54
284.415	3.1
284.792	2.97
285.17	2.66
285.548	2.47
285.925	3.07
286.303	2.77
286.68	2.87
287.058	3.16
287.435	3.01
287.813	2.91
288.19	2.83
288.567	3
288.945	2.7
289.322	3.45
289.699	3.21
290.076	3
290.453	3.02
290.83	2.66
291.207	2.73
291.584	3.12
291.961	3.01
292.338	3.47
292.715	3.05
293.092	3.24
293.469	2.77
293.845	3.33
294.222	3.22
294.599	3.24
294.975	2.46
295.352	2.27
295.728	3
296.105	2.74
296.481	3
296.858	3.38
297.234	2.93
297.61	2.89
297.986	2.76
298.363	3.11
298.739	3.54
299.115	2.95
299.491	3.27
299.867	3.24
300.243	2.89
300.619	2.99
300.995	3.22
301.371	3.15
301.746	3.2
302.122	3.06
302.498	3.16
302.874	3.66
303.249	3.27
303.625	3.39
304	3.29
304.376	3.53
304.751	3.41
305.127	3.36
305.502	3.37
305.878	3.69
306.253	3.18
306.628	3.29
307.003	3.07
307.378	3.46
307.754	2.85
308.129	2.82
308.504	2.95
308.879	3.27
309.254	3.43
309.629	2.95
310.003	3.51
310.378	3.37
310.753	2.87
311.128	3.12
311.502	3.68
311.877	3.38
312.252	3.27
312.626	3.39
313.001	3.33
313.375	3.02
313.75	3.27
314.124	3.4
314.498	3.08
314.873	3.15
315.247	2.61
315.621	3.52
315.995	2.89
316.369	2.8
316.743	3.48
317.117	3.26
317.491	2.95
317.865	3.81
318.239	3.53
318.613	3.37
318.987	2.93
319.361	3.2
319.734	3.41
320.108	3.18
320.482	3.46
320.855	3.01
321.229	2.84
321.602	3.5
321.976	2.55
322.349	3.19
322.723	3.16
323.096	3.51
323.469	3.55
323.843	3.62
324.216	3.58
324.589	2.93
324.962	3.64
325.335	3.16
325.708	3.35
326.081	2.76
326.454	3.15
326.827	3.2
327.2	2.92
327.573	3.19
327.945	3.18
328.318	3.53
328.691	3.05
329.063	3.24
329.436	2.86
329.809	3.02
330.181	4.11
330.553	3.41
330.926	3.72
331.298	3.54
331.671	3.95
332.043	3.32
332.415	3.41
332.787	3.64
333.159	3.87
333.532	3.2
333.904	3.34
334.276	3.43
334.648	3.33
335.02	3.5
335.391	3.04
335.763	3.71
336.135	3.05
336.507	3.46
336.879	3.26
337.25	3.9
337.622	3.03
337.993	3.49
338.365	3.62
338.736	3.34
339.108	3.54
339.479	3.05
339.851	3.57
340.222	2.94
340.593	3.33
340.964	3.48
341.336	3.39
341.707	3.58
342.078	3.71
342.449	3.7
342.82	3.47
343.191	3.27
343.562	3.52
343.933	3.55
344.303	3.25
344.674	3.81
345.045	3.67
345.416	3.29
345.786	3.49
346.157	3.21
346.527	3.03
346.898	3.69
347.268	3.5
347.639	3.29
348.009	3.33
348.38	3.26
348.75	3.51
349.12	3.25
349.49	3.59
349.861	3.79
350.231	3.48
350.601	3.17
350.971	3.1
351.341	3.3
351.711	3.18
352.081	3.63
352.45	3.87
352.82	3.76
353.19	3.32
353.56	2.91
353.929	3.39
354.299	3.5
354.669	3.81
355.038	3.61
355.408	3.65
355.777	3.31
356.147	3.34
356.516	3.43
356.885	3.54
357.254	3.88
357.624	3.59
357.993	3.56
358.362	3.21
358.731	3.5
359.1	3.56
359.469	3.66
359.838	3.55
360.207	3.86
360.576	3.23
360.945	3.63
361.314	3.99
361.682	3.89
362.051	3.63
362.42	3.45
362.788	3.7
363.157	3.83
363.525	3.32
363.894	3.6
364.262	3.89
364.631	3.49
364.999	3.74
365.367	3.46
365.735	3.63
366.104	3.47
366.472	3.45
366.84	3.54
367.208	3.7
367.576	3.8
367.944	3.46
368.312	3.67
368.68	3.91
369.048	3.71
369.416	3.57
369.783	3.73
370.151	3.75
370.519	3.7
370.886	3.77
371.254	3.8
371.621	3.44
371.989	3.55
372.356	3.92
372.724	3.74
373.091	3.73
373.458	3.81
373.826	3.95
374.193	4
374.56	3.42
374.927	3.87
375.294	3.72
375.661	3.61
376.028	3.86
376.395	3.64
376.762	3.78
377.129	3.63
377.496	3.6
377.863	3.24
378.229	3.65
378.596	3.63
378.963	3.68
379.329	3.59
379.696	3.72
380.062	3.86
380.429	3.48
380.795	3.61
381.161	3.9
381.528	3.46
381.894	3.3
382.26	3.71
382.626	3.79
382.993	3.88
383.359	3.94
383.725	3.73
384.091	3.82
384.457	3.56
384.823	3.48
385.188	3.61
385.554	3.6
385.92	3.75
386.286	3.79
386.651	3.64
387.017	3.57
387.383	3.6
387.748	3.65
388.114	3.68
388.479	3.86
388.845	4.06
389.21	3.62
389.575	3.77
389.94	3.98
390.306	3.85
390.671	4.11
391.036	3.89
391.401	3.94
391.766	3.72
392.131	3.83
392.496	4.03
392.861	3.76
393.226	3.65
393.591	3.72
393.956	3.67
394.32	3.86
394.685	3.79
395.05	3.71
395.414	4
395.779	3.89
396.143	3.75
396.508	3.82
396.872	3.86
397.236	3.71
397.601	4.09
397.965	3.6
398.329	3.96
398.694	4.12
399.058	3.82
399.422	3.99
399.786	3.85
400.15	3.92
400.514	3.56
400.878	3.88
401.242	3.75
401.605	3.95
401.969	3.86
402.333	4.06
402.697	3.92
403.06	3.68
403.424	4.03
403.787	3.67
404.151	3.92
404.514	3.9
404.878	3.92
405.241	4.08
405.604	4.12
405.968	4.16
406.331	3.99
406.694	3.89
407.057	3.98
407.42	3.95
407.783	4.02
408.146	4.12
408.509	4.16
408.872	3.8
409.235	3.97
409.598	3.71
409.961	3.85
410.323	3.87
410.686	3.88
411.049	3.95
411.411	4.05
411.774	3.83
412.136	3.89
412.499	4.12
412.861	4.11
413.223	3.9
413.586	3.95
413.948	4.01
414.31	3.91
414.672	3.93
415.035	3.99
415.397	4.04
415.759	3.88
416.121	4.02
416.483	4.06
416.845	4.21
417.206	4.02
417.568	4.26
417.93	4.07
418.292	4.24
418.653	3.97
419.015	4.21
419.377	4.1
419.738	3.94
420.1	4.19
420.461	3.95
420.822	4.19
421.184	4.01
421.545	4.04
421.906	4.05
422.267	4.01
422.629	4.01
422.99	4.08
423.351	4.04
423.712	3.96
424.073	4.07
424.434	4.11
424.795	4.06
425.155	4.12
425.516	3.96
425.877	4.06
426.238	4.01
426.598	4.08
426.959	4.04
427.32	4.1
427.68	4.11
428.041	4.1
428.401	4.24
428.761	4.15
429.122	4.13
429.482	4.08
429.842	4.11
430.202	4.22
430.563	4.11
430.923	4.08
431.283	4.36
431.643	4.18
432.003	4.19
432.363	4.09
432.722	4.33
433.082	4.02
433.442	4.28
433.802	4.15
434.161	4.06
434.521	4.36
434.881	4.25
435.24	4.04
435.6	4.4
435.959	4.14
436.319	4.31
436.678	4.22
437.037	4.33
437.396	4.11
437.756	4.56
438.115	4.18
438.474	4.08
438.833	4.11
439.192	4.16
439.551	4.05
439.91	4.18
440.269	4.27
440.628	4.21
440.987	4.22
441.345	4.23
441.704	4.13
442.063	4.15
442.421	4.24
442.78	4.15
443.138	4.22
443.497	4.27
443.855	4.34
444.214	4.25
444.572	4.14
444.93	4.3
445.288	4.3
445.647	4.31
446.005	4.43
446.363	4.39
446.721	4.3
447.079	4.28
447.437	4.28
447.795	4.3
448.153	4.33
448.51	4.22
448.868	4.41
449.226	4.23
449.584	4.25
449.941	4.29
450.299	4.4
450.656	4.41
451.014	4.31
451.371	4.46
451.729	4.27
452.086	4.35
452.443	4.43
452.801	4.4
453.158	4.51
453.515	4.26
453.872	4.43
454.229	4.31
454.586	4.25
454.943	4.47
455.3	4.43
455.657	4.36
456.014	4.64
456.371	4.59
456.727	4.5
457.084	4.39
457.441	4.31
457.797	4.32
458.154	4.63
458.51	4.43
458.867	4.36
459.223	4.55
459.58	4.32
459.936	4.49
460.292	4.46
460.648	4.39
461.005	4.4
461.361	4.42
461.717	4.36
462.073	4.36
462.429	4.42
462.785	4.44
463.141	4.57
463.496	4.54
463.852	4.56
464.208	4.5
464.564	4.43
464.919	4.58
465.275	4.33
465.631	4.62
465.986	4.51
466.342	4.59
466.697	4.55
467.052	4.58
467.408	4.34
467.763	4.51
468.118	4.54
468.473	4.58
468.829	4.49
469.184	4.52
469.539	4.39
469.894	4.52
470.249	4.64
470.603	4.59
470.958	4.65
471.313	4.59
471.668	4.62
472.023	4.63
472.377	4.79
472.732	4.49
473.086	4.6
473.441	4.7
473.795	4.6
474.15	4.6
474.504	4.68
474.859	4.69
475.213	4.69
475.567	4.93
475.921	4.58
476.275	4.65
476.63	4.75
476.984	4.68
477.338	4.79
477.692	4.58
478.045	4.85
478.399	4.74
478.753	4.85
479.107	4.8
479.461	4.65
479.814	4.8
480.168	4.73
480.521	4.7
480.875	4.76
481.228	4.73
481.582	4.91
481.935	4.85
482.289	4.66
482.642	4.79
482.995	4.85
483.348	4.84
483.701	4.68
484.055	4.71
484.408	4.75
484.761	4.64
485.114	4.57
485.466	4.51
485.819	4.51
486.172	4.54
486.525	4.59
486.878	4.58
487.23	4.64
487.583	4.72
487.936	4.71
488.288	4.71
488.641	4.65
488.993	4.65
489.345	4.62
489.698	4.64
490.05	4.67
490.402	4.6
490.754	4.7
491.107	4.74
491.459	4.79
491.811	4.86
492.163	4.84
492.515	4.82
492.866	4.69
493.218	4.72
493.57	4.78
493.922	4.77
494.274	4.8
494.625	4.79
494.977	4.95
495.328	4.88
495.68	4.95
496.031	5.03
496.383	5.08
496.734	5.04
497.086	4.86
497.437	4.96
497.788	5.03
498.139	4.92
498.49	5.04
498.842	4.94
499.193	4.96
499.544	4.97
499.894	4.95
500.245	5.03
500.596	5.04
500.947	5.11
501.298	5.13
501.648	5.09
501.999	5.07
502.35	5.24
502.7	5.15
503.051	5.21
503.401	5.3
503.752	5.16
504.102	5.03
504.452	5.07
504.803	5.35
505.153	5.18
505.503	5.23
505.853	5.19
506.203	5
506.553	5.14
506.903	5.19
507.253	5.23
507.603	5.15
507.953	5.11
508.303	5.21
508.652	5.32
509.002	5.32
509.352	5.2
509.701	5.22
510.051	5.32
510.4	5.23
510.75	5.25
511.099	5.27
511.449	5.31
511.798	5.29
512.147	5.3
512.496	5.35
512.846	5.37
513.195	5.33
513.544	5.31
513.893	5.27
514.242	5.33
514.591	5.36
514.939	5.36
515.288	5.34
515.637	5.39
515.986	5.39
516.334	5.46
516.683	5.5
517.032	5.47
517.38	5.51
517.729	5.48
518.077	5.5
518.426	5.4
518.774	5.45
519.122	5.45
519.47	5.46
519.819	5.57
520.167	5.46
520.515	5.49
520.863	5.48
521.211	5.46
521.559	5.49
521.907	5.57
522.255	5.58
522.602	5.59
522.95	5.65
523.298	5.59
523.645	5.66
523.993	5.68
524.341	5.75
524.688	5.61
525.036	5.66
525.383	5.7
525.73	5.78
526.078	5.71
526.425	5.68
526.772	5.76
527.119	5.64
527.466	5.52
527.814	5.64
528.161	5.61
528.508	5.71
528.854	5.63
529.201	5.63
529.548	5.64
529.895	5.57
530.242	5.57
530.588	5.53
530.935	5.56
531.282	5.59
531.628	5.64
531.975	5.67
532.321	5.71
532.667	5.84
533.014	5.92
533.36	5.93
533.706	5.88
534.052	5.82
534.399	5.84
534.745	5.73
535.091	5.74
535.437	5.8
535.783	5.88
536.129	5.85
536.474	5.97
536.82	5.99
537.166	6.06
537.512	5.99
537.857	6.1
538.203	5.99
538.549	6.03
538.894	5.99
539.239	6.12
539.585	6.01
539.93	6.04
540.276	6.11
540.621	6.15
540.966	6.16
541.311	6.12
541.656	6.19
542.001	6.23
542.346	6.14
542.691	6.16
543.036	6
543.381	6.08
543.726	6.12
544.071	6.09
544.415	6.21
544.76	6.18
545.105	6.15
545.449	6.27
545.794	6.28
546.138	6.35
546.483	6.31
546.827	6.39
547.171	6.32
547.516	6.5
547.86	6.52
548.204	6.41
548.548	6.46
548.892	6.49
549.236	6.49
549.58	6.52
549.924	6.61
550.268	6.69
550.612	6.64
550.956	6.9
551.3	6.57
551.643	6.93
551.987	6.83
552.33	6.74
552.674	6.61
553.017	6.66
553.361	6.76
553.704	6.84
554.048	6.75
554.391	6.84
554.734	6.76
555.077	6.93
555.42	6.99
555.764	6.92
556.107	7.1
556.45	6.96
556.793	7.09
557.135	7.12
557.478	7.05
557.821	7.11
558.164	7.12
558.507	7.03
558.849	7.05
559.192	7.09
559.534	7.21
559.877	7.07
560.219	6.93
560.562	7.03
560.904	7.13
561.246	7.3
561.589	7.15
561.931	7.26
562.273	7.47
562.615	7.22
562.957	7.38
563.299	7.29
563.641	7.33
563.983	7.21
564.325	7.56
564.667	7.59
565.008	7.53
565.35	7.48
565.692	7.57
566.033	7.26
566.375	7.32
566.716	7.58
567.058	7.5
567.399	7.52
567.741	7.59
568.082	7.6
568.423	7.55
568.764	7.61
569.105	7.56
569.447	7.58
569.788	7.82
570.129	7.83
570.47	7.91
570.811	7.74
571.151	7.67
571.492	7.96
571.833	7.77
572.174	8.02
572.514	7.92
572.855	8.02
573.195	7.88
573.536	7.73
573.876	7.91
574.217	8
574.557	7.76
574.898	7.93
575.238	7.91
575.578	8.03
575.918	8
576.258	8.05
576.598	8.05
576.938	8.19
577.278	8.1
577.618	8.23
577.958	8.18
578.298	8.34
578.638	8.18
578.977	8.42
579.317	8.24
579.657	8.14
579.996	8.46
580.336	8.48
580.675	8.33
581.014	8.22
581.354	8.3
581.693	8.32
582.032	8.39
582.372	8.61
582.711	8.49
583.05	8.69
583.389	8.49
583.728	8.71
584.067	8.64
584.406	8.56
584.745	8.94
585.083	8.73
585.422	9
585.761	8.87
586.1	9
586.438	8.96
586.777	9.07
587.115	8.78
587.454	8.99
587.792	9.03
588.13	8.9
588.469	9.07
588.807	8.81
589.145	9.14
589.483	9.02
589.821	9.17
590.159	9.06
590.497	9.37
590.835	9.25
591.173	9.33
591.511	9.26
591.849	9.2
592.187	9.09
592.524	9.48
592.862	9.17
593.2	9.54
593.537	9.46
593.875	9.44
594.212	9.36
594.55	9.31
594.887	9.63
595.224	9.7
595.561	9.45
595.899	9.61
596.236	9.75
596.573	9.73
596.91	9.57
597.247	9.7
597.584	9.62
597.921	9.63
598.258	9.71
598.594	9.78
598.931	9.55
599.268	9.75
599.604	9.56
599.941	9.71
600.277	9.79
600.614	9.74
600.95	9.76
601.287	9.67
601.623	10
601.959	10.06
602.296	10.11
602.632	9.75
602.968	9.85
603.304	10.07
603.64	10.12
603.976	10.01
604.312	10.28
604.648	10.32
604.984	10.14
605.319	10.06
605.655	10.29
605.991	10.4
606.326	10.12
606.662	10.42
606.998	10.1
607.333	10.2
607.668	10.13
608.004	10.54
608.339	10.38
608.674	10.55
609.01	10.85
609.345	10.54
609.68	10.65
610.015	10.92
610.35	10.6
610.685	10.51
611.02	10.82
611.355	10.83
611.689	10.67
612.024	10.82
612.359	10.56
612.694	10.94
613.028	10.74
613.363	10.99
613.697	10.74
614.032	10.91
614.366	10.91
614.7	10.84
615.035	10.89
615.369	11.27
615.703	10.86
616.037	11.33
616.371	11.22
616.705	11.5
617.039	11.56
617.373	11.22
617.707	11.31
618.041	11.53
618.375	11.29
618.709	11.87
619.042	11.43
619.376	11.44
619.71	11.7
620.043	11.21
620.377	11.55
620.71	11.6
621.043	11.72
621.377	11.94
621.71	11.93
622.043	11.7
622.376	12.02
622.709	11.8
623.043	11.42
623.376	11.68
623.709	11.83
624.041	11.9
624.374	11.84
624.707	11.65
625.04	11.77
625.373	11.97
625.705	11.81
626.038	11.72
626.37	12.06
626.703	12.39
627.035	11.87
627.368	12.07
627.7	11.99
628.032	12.25
628.365	12.2
628.697	12.26
629.029	12.38
629.361	12.41
629.693	12.22
630.025	12.21
630.357	12.17
630.689	12.13
631.021	12.14
631.353	12.26
631.684	12.42
632.016	12.29
632.348	12.56
632.679	12.8
633.011	12.44
633.342	12.61
633.674	12.79
634.005	12.63
634.336	12.73
634.668	12.81
634.999	12.84
635.33	12.48
635.661	13.07
635.992	12.86
636.323	13.01
636.654	12.79
636.985	12.76
637.316	12.83
637.647	12.85
637.977	12.98
638.308	12.96
638.639	12.88
638.969	13.04
639.3	12.86
639.63	13.13
639.961	13.01
640.291	13.22
640.622	13.08
640.952	12.99
641.282	13.23
641.612	13.2
641.943	13.29
642.273	13.02
642.603	13.16
642.933	12.86
643.263	13.39
643.592	13.37
643.922	13.44
644.252	13.37
644.582	13.8
644.911	14.13
645.241	13.8
645.571	13.29
645.9	14.05
646.23	13.34
646.559	13.19
646.888	13.24
647.218	13.38
647.547	13.79
647.876	13.71
648.205	14.11
648.534	13.87
648.863	13.88
649.192	13.62
649.521	13.76
649.85	13.97
650.179	13.93
650.508	14.07
650.837	13.78
651.165	14.13
651.494	13.86
651.822	14.39
652.151	14.03
652.479	14.39
652.808	13.91
653.136	14.3
653.465	14.01
653.793	14.39
654.121	14.46
654.449	14.37
654.777	14.72
655.105	14.3
655.433	14.57
655.761	14.42
656.089	14.84
656.417	14.64
656.745	13.62
657.073	14.45
657.4	13.95
657.728	14.72
658.056	13.97
658.383	15.08
658.711	14.75
659.038	14.6
659.365	14.22
659.693	14.69
660.02	14.09
660.347	15.14
660.674	14.62
661.001	14.71
661.329	15.03
661.656	14.68
661.982	15.11
662.309	15.1
662.636	15.07
662.963	15.09
663.29	15.09
663.616	15.23
663.943	14.68
664.27	15.45
664.596	14.88
664.923	15.35
665.249	15
665.576	14.98
665.902	14.95
666.228	15.4
666.554	15.37
666.881	15.39
667.207	15.62
667.533	15.78
667.859	15.6
668.185	15.02
668.511	15.95
668.837	15.64
669.162	15.4
669.488	15.3
669.814	15.88
670.139	15.32
670.465	15.63
670.791	15.52
671.116	15.98
671.442	15.63
671.767	16.01
672.092	15.31
672.418	15.83
672.743	15.26
673.068	15.5
673.393	15.76
673.718	15.8
674.043	15.85
674.368	16.29
674.693	15.78
675.018	16.44
675.343	16.19
675.667	16.2
675.992	15.3
676.317	16.37
676.641	15.78
676.966	16.38
677.29	15.85
677.615	16.08
677.939	16.33
678.264	16.18
678.588	16.56
678.912	16.57
679.236	16.67
679.56	16.33
679.885	16.29
680.209	16.63
680.532	16.58
680.856	16.4
681.18	16.38
681.504	16.66
681.828	16.62
682.152	16.36
682.475	16.96
682.799	16.78
683.122	16.43
683.446	16.78
683.769	17.09
684.093	16.04
684.416	17.17
684.739	16.35
685.062	16.71
685.386	17.05
685.709	16.62
686.032	17.35
686.355	16.82
686.678	16.5
