Data from 0017_crown_Reflection__0__71.txt Node

Date: Mon Oct 17 14:58:58 CDT 2022
User: ToomeyLab
Spectrometer: FLMS14357
Trigger mode: 0
Integration Time (sec): 1.000000E-2
Scans to average: 100
Electric dark correction enabled: true
Nonlinearity correction enabled: false
Boxcar width: 0
XAxis mode: Wavelengths
Number of Pixels in Spectrum: 2048
>>>>>Begin Spectral Data<<<<<
189.047	-111.9
189.435	-111.9
189.823	-111.9
190.211	355.88
190.599	-286.48
190.987	962
191.375	513.2
191.763	320.27
192.151	110.32
192.538	259.16
192.926	48.41
193.314	420.48
193.702	-246
194.089	137.6
194.477	136.9
194.864	39.56
195.252	886.56
195.639	-285.27
196.027	172
196.414	-79.64
196.801	-7.56
197.189	271.14
197.576	102.85
197.963	13.76
198.351	-107.63
198.738	8.75
199.125	-137.05
199.512	-91.66
199.899	17.38
200.286	63.84
200.673	-19.97
201.06	-44.22
201.447	30.93
201.833	12.93
202.22	33.92
202.607	-21.67
202.994	-21.28
203.38	25.72
203.767	6.34
204.154	17.65
204.54	-59.78
204.927	35.19
205.313	8.24
205.699	-7.38
206.086	-4.66
206.472	4.94
206.858	4.35
207.245	22.01
207.631	33.53
208.017	43.76
208.403	43.01
208.789	9.72
209.175	13.99
209.561	-11.26
209.947	-98.13
210.333	36.51
210.719	50.59
211.105	8.35
211.491	3.58
211.876	-30.85
212.262	12.39
212.648	-19.04
213.034	-28.76
213.419	4.47
213.805	-14.86
214.19	-0.46
214.576	13.86
214.961	-35.27
215.346	-16.88
215.732	-22.79
216.117	6.8
216.502	22.66
216.888	6.18
217.273	-3.68
217.658	15.84
218.043	-12.05
218.428	-8.32
218.813	-13.18
219.198	-13.94
219.583	-38.52
219.968	12.38
220.353	13.18
220.738	-11.77
221.122	6.16
221.507	-19.23
221.892	2.34
222.276	2.35
222.661	-0.01
223.046	-1.65
223.43	1.21
223.815	0.79
224.199	-0.68
224.583	-1.6
224.968	-11.14
225.352	-19.52
225.736	4.62
226.121	-3.66
226.505	2.02
226.889	4.67
227.273	-0.86
227.657	3.69
228.041	4.05
228.425	0.07
228.809	3.13
229.193	4
229.577	4.04
229.961	4.38
230.344	2.57
230.728	4
231.112	3.98
231.495	3.96
231.879	2.65
232.263	3.51
232.646	3.68
233.03	3.42
233.413	1.15
233.797	3.93
234.18	5.57
234.563	2.62
234.946	2.85
235.33	2.89
235.713	2.59
236.096	3.62
236.479	2.01
236.862	3.61
237.245	2.37
237.628	1.55
238.011	3.17
238.394	2.47
238.777	4.23
239.16	4.73
239.543	1.72
239.925	2.89
240.308	4.59
240.691	2
241.073	4.21
241.456	2.98
241.838	3.39
242.221	2.99
242.603	3.13
242.986	2.97
243.368	4
243.75	3.16
244.133	3.6
244.515	3.65
244.897	3.94
245.279	3.68
245.661	3.69
246.043	3.92
246.425	2.12
246.807	2.32
247.189	4.11
247.571	3.3
247.953	3.22
248.335	3.45
248.717	3.68
249.098	3.77
249.48	3.66
249.862	3.31
250.243	3.36
250.625	3.46
251.006	2.77
251.388	3.84
251.769	3.47
252.151	2.82
252.532	2.83
252.913	3.71
253.295	2.58
253.676	3.71
254.057	3.78
254.438	3.76
254.819	4.84
255.2	4.92
255.581	1.8
255.962	3.22
256.343	2.57
256.724	3.22
257.105	3.16
257.486	2.8
257.867	2.52
258.247	3.05
258.628	2.85
259.009	3.92
259.389	3.62
259.77	4.04
260.15	3.43
260.531	3.16
260.911	3.25
261.292	3.42
261.672	3.33
262.052	3.36
262.432	3.31
262.813	3.45
263.193	2.98
263.573	3.32
263.953	3.2
264.333	3.47
264.713	3.3
265.093	3.05
265.473	3.04
265.853	3.31
266.233	4.31
266.612	3.31
266.992	3.84
267.372	2.77
267.752	3.83
268.131	4.04
268.511	3.22
268.89	3.6
269.27	3.5
269.649	3.36
270.029	2.81
270.408	3.43
270.787	3.24
271.167	2.86
271.546	2.66
271.925	3.29
272.304	3.4
272.683	3.5
273.062	3.26
273.441	3.26
273.82	3.31
274.199	3.22
274.578	3.55
274.957	3
275.336	3.47
275.715	2.97
276.093	3.48
276.472	2.88
276.851	3.37
277.229	2.68
277.608	3.15
277.986	3.05
278.365	3.36
278.743	3.48
279.122	3.18
279.5	4.02
279.878	3.28
280.257	3.13
280.635	3.08
281.013	3.26
281.391	2.75
281.769	3.07
282.147	3.42
282.525	2.7
282.903	2.67
283.281	3.29
283.659	3.04
284.037	2.77
284.415	3.11
284.792	3.06
285.17	2.46
285.548	2.65
285.925	2.95
286.303	2.8
286.68	3.3
287.058	3.26
287.435	3.2
287.813	2.95
288.19	3.08
288.567	2.95
288.945	2.78
289.322	3.64
289.699	3.17
290.076	2.8
290.453	2.96
290.83	2.91
291.207	3.1
291.584	2.85
291.961	2.98
292.338	3.03
292.715	2.82
293.092	2.82
293.469	2.97
293.845	2.84
294.222	3.37
294.599	3.46
294.975	2.62
295.352	2.45
295.728	2.78
296.105	2.56
296.481	2.97
296.858	2.92
297.234	2.94
297.61	2.63
297.986	2.51
298.363	2.72
298.739	3.15
299.115	2.82
299.491	2.68
299.867	2.91
300.243	2.83
300.619	2.75
300.995	3.02
301.371	2.94
301.746	2.79
302.122	2.63
302.498	2.88
302.874	3.19
303.249	2.85
303.625	2.98
304	3.23
304.376	3.22
304.751	3.29
305.127	2.82
305.502	2.65
305.878	2.77
306.253	2.63
306.628	2.74
307.003	2.86
307.378	2.55
307.754	2.58
308.129	2.23
308.504	3.26
308.879	2.77
309.254	2.6
309.629	2.67
310.003	3.19
310.378	2.66
310.753	2.49
311.128	2.86
311.502	2.69
311.877	2.66
312.252	2.94
312.626	2.66
313.001	2.76
313.375	2.55
313.75	2.82
314.124	2.95
314.498	2.48
314.873	2.88
315.247	2.41
315.621	3.2
315.995	2.68
316.369	2.66
316.743	2.58
317.117	3.14
317.491	2.63
317.865	2.37
318.239	3.11
318.613	3.05
318.987	2.67
319.361	2.44
319.734	2.92
320.108	2.67
320.482	2.57
320.855	2.61
321.229	2.38
321.602	2.43
321.976	1.73
322.349	2.47
322.723	2.9
323.096	2.95
323.469	2.44
323.843	2.6
324.216	3.33
324.589	2.43
324.962	2.71
325.335	2.39
325.708	2.62
326.081	2.46
326.454	2.81
326.827	2.8
327.2	2.27
327.573	2.07
327.945	2.22
328.318	2.31
328.691	2.5
329.063	2.61
329.436	2.54
329.809	2.42
330.181	3.11
330.553	2.25
330.926	2.37
331.298	2.73
331.671	3.05
332.043	2.93
332.415	2.7
332.787	2.44
333.159	2.39
333.532	2.72
333.904	2.46
334.276	2.64
334.648	2.38
335.02	2.62
335.391	2.78
335.763	2.34
336.135	2.52
336.507	2.51
336.879	2.49
337.25	3.05
337.622	2.56
337.993	2.92
338.365	2.52
338.736	2.8
339.108	3.02
339.479	2.6
339.851	2.9
340.222	2.79
340.593	2.51
340.964	2.54
341.336	2.98
341.707	2.71
342.078	2.95
342.449	2.42
342.82	2.7
343.191	2.9
343.562	2.61
343.933	2.89
344.303	2.13
344.674	2.71
345.045	3.12
345.416	2.66
345.786	2.65
346.157	2.36
346.527	2.53
346.898	2.89
347.268	2.92
347.639	2.46
348.009	2.6
348.38	2.33
348.75	2.39
349.12	2.8
349.49	2.63
349.861	2.8
350.231	2.67
350.601	2.47
350.971	2.92
351.341	2.18
351.711	2.52
352.081	2.56
352.45	2.97
352.82	2.77
353.19	2.41
353.56	2.52
353.929	2.86
354.299	2.68
354.669	2.76
355.038	2.88
355.408	2.77
355.777	2.67
356.147	2.58
356.516	2.74
356.885	2.49
357.254	2.69
357.624	2.97
357.993	2.63
358.362	2.4
358.731	2.28
359.1	2.52
359.469	2.93
359.838	2.62
360.207	2.75
360.576	2.84
360.945	2.64
361.314	2.96
361.682	3.02
362.051	2.81
362.42	2.77
362.788	2.83
363.157	2.9
363.525	2.54
363.894	2.87
364.262	2.87
364.631	3.21
364.999	2.87
365.367	2.55
365.735	2.72
366.104	2.46
366.472	2.63
366.84	2.54
367.208	2.86
367.576	2.71
367.944	2.52
368.312	2.8
368.68	2.93
369.048	2.97
369.416	2.94
369.783	2.79
370.151	2.83
370.519	2.72
370.886	3.03
371.254	2.65
371.621	2.71
371.989	2.69
372.356	2.63
372.724	2.82
373.091	2.72
373.458	2.64
373.826	3.05
374.193	3.29
374.56	2.82
374.927	2.94
375.294	2.73
375.661	3.05
376.028	3.22
376.395	2.86
376.762	2.73
377.129	2.89
377.496	2.77
377.863	2.63
378.229	2.87
378.596	2.89
378.963	2.93
379.329	2.74
379.696	2.9
380.062	3.05
380.429	2.64
380.795	3.01
381.161	2.79
381.528	2.91
381.894	2.86
382.26	3.08
382.626	2.93
382.993	2.99
383.359	2.92
383.725	3.11
384.091	3.25
384.457	2.89
384.823	2.7
385.188	2.61
385.554	3.07
385.92	3.14
386.286	3.06
386.651	3.01
387.017	2.59
387.383	2.92
387.748	2.92
388.114	2.83
388.479	2.78
388.845	3.07
389.21	2.74
389.575	2.95
389.94	3.26
390.306	3.18
390.671	3.28
391.036	3.19
391.401	3.05
391.766	3.19
392.131	3.11
392.496	3.16
392.861	2.89
393.226	2.99
393.591	2.92
393.956	2.92
394.32	3.02
394.685	3.11
395.05	2.99
395.414	3.23
395.779	2.94
396.143	3.17
396.508	3.14
396.872	2.93
397.236	3.37
397.601	3.09
397.965	3.02
398.329	3.08
398.694	3.12
399.058	2.99
399.422	3.33
399.786	2.88
400.15	3.11
400.514	2.95
400.878	2.92
401.242	2.85
401.605	3.13
401.969	3.24
402.333	2.95
402.697	3.07
403.06	2.9
403.424	3.13
403.787	3.14
404.151	2.98
404.514	3.28
404.878	3.14
405.241	3.13
405.604	3.18
405.968	3.1
406.331	3.09
406.694	3
407.057	2.97
407.42	3.03
407.783	3.22
408.146	3.13
408.509	3.41
408.872	2.92
409.235	3.06
409.598	3
409.961	3.1
410.323	3
410.686	3.2
411.049	2.95
411.411	3.03
411.774	3.15
412.136	2.95
412.499	3.23
412.861	3.29
413.223	3.12
413.586	3.18
413.948	3.24
414.31	3
414.672	3.02
415.035	3.28
415.397	3.21
415.759	3.15
416.121	3.33
416.483	3.37
416.845	3.28
417.206	3.17
417.568	3.3
417.93	3.12
418.292	3.18
418.653	3.16
419.015	2.96
419.377	3.17
419.738	3.16
420.1	3.18
420.461	3.06
420.822	3.15
421.184	3.21
421.545	3.15
421.906	3.13
422.267	3.12
422.629	3.08
422.99	3.1
423.351	3.16
423.712	3.18
424.073	3.22
424.434	3.2
424.795	3.19
425.155	3.29
425.516	3.02
425.877	3.12
426.238	3.24
426.598	3.18
426.959	3.1
427.32	3.32
427.68	3.22
428.041	3.07
428.401	3.29
428.761	3.32
429.122	3.33
429.482	3.28
429.842	3.06
430.202	3.32
430.563	3.39
430.923	3.36
431.283	3.21
431.643	3.37
432.003	3.33
432.363	3.39
432.722	3.3
433.082	3.31
433.442	3.38
433.802	3.34
434.161	3.18
434.521	3.37
434.881	3.31
435.24	3.13
435.6	3.32
435.959	3.31
436.319	3.36
436.678	3.26
437.037	3.43
437.396	3.32
437.756	3.41
438.115	3.22
438.474	3.16
438.833	3.1
439.192	3.31
439.551	3.32
439.91	3.31
440.269	3.33
440.628	3.2
440.987	3.18
441.345	3.33
441.704	3.24
442.063	3.18
442.421	3.24
442.78	3.19
443.138	3.33
443.497	3.52
443.855	3.42
444.214	3.48
444.572	3.26
444.93	3.45
445.288	3.35
445.647	3.46
446.005	3.45
446.363	3.38
446.721	3.19
447.079	3.28
447.437	3.23
447.795	3.29
448.153	3.29
448.51	3.27
448.868	3.38
449.226	3.36
449.584	3.53
449.941	3.33
450.299	3.46
450.656	3.24
451.014	3.42
451.371	3.54
451.729	3.48
452.086	3.49
452.443	3.48
452.801	3.32
453.158	3.49
453.515	3.35
453.872	3.38
454.229	3.21
454.586	3.36
454.943	3.31
455.3	3.45
455.657	3.45
456.014	3.49
456.371	3.4
456.727	3.37
457.084	3.44
457.441	3.48
457.797	3.48
458.154	3.5
458.51	3.59
458.867	3.57
459.223	3.22
459.58	3.19
459.936	3.46
460.292	3.53
460.648	3.46
461.005	3.39
461.361	3.33
461.717	3.37
462.073	3.27
462.429	3.38
462.785	3.43
463.141	3.68
463.496	3.44
463.852	3.56
464.208	3.74
464.564	3.5
464.919	3.51
465.275	3.49
465.631	3.53
465.986	3.33
466.342	3.46
466.697	3.57
467.052	3.51
467.408	3.48
467.763	3.38
468.118	3.55
468.473	3.62
468.829	3.64
469.184	3.55
469.539	3.42
469.894	3.63
470.249	3.66
470.603	3.64
470.958	3.51
471.313	3.52
471.668	3.41
472.023	3.53
472.377	3.65
472.732	3.41
473.086	3.61
473.441	3.63
473.795	3.48
474.15	3.58
474.504	3.64
474.859	3.49
475.213	3.68
475.567	3.7
475.921	3.45
476.275	3.48
476.63	3.46
476.984	3.69
477.338	3.52
477.692	3.47
478.045	3.59
478.399	3.53
478.753	3.54
479.107	3.52
479.461	3.42
479.814	3.58
480.168	3.53
480.521	3.43
480.875	3.62
481.228	3.6
481.582	3.61
481.935	3.66
482.289	3.43
482.642	3.47
482.995	3.54
483.348	3.54
483.701	3.5
484.055	3.46
484.408	3.43
484.761	3.37
485.114	3.2
485.466	3.17
485.819	3.19
486.172	3.31
486.525	3.47
486.878	3.59
487.23	3.63
487.583	3.65
487.936	3.6
488.288	3.46
488.641	3.31
488.993	3.29
489.345	3.32
489.698	3.39
490.05	3.43
490.402	3.47
490.754	3.54
491.107	3.54
491.459	3.64
491.811	3.64
492.163	3.59
492.515	3.5
492.866	3.37
493.218	3.34
493.57	3.38
493.922	3.48
494.274	3.59
494.625	3.7
494.977	3.71
495.328	3.75
495.68	3.63
496.031	3.79
496.383	3.64
496.734	3.73
497.086	3.49
497.437	3.66
497.788	3.59
498.139	3.42
498.49	3.53
498.842	3.56
499.193	3.55
499.544	3.63
499.894	3.63
500.245	3.6
500.596	3.59
500.947	3.7
501.298	3.71
501.648	3.66
501.999	3.66
502.35	3.67
502.7	3.75
503.051	3.68
503.401	3.74
503.752	3.72
504.102	3.64
504.452	3.68
504.803	3.6
505.153	3.62
505.503	3.72
505.853	3.65
506.203	3.58
506.553	3.83
506.903	3.78
507.253	3.67
507.603	3.71
507.953	3.65
508.303	3.76
508.652	3.68
509.002	3.79
509.352	3.62
509.701	3.63
510.051	3.72
510.4	3.54
510.75	3.57
511.099	3.58
511.449	3.62
511.798	3.59
512.147	3.72
512.496	3.67
512.846	3.63
513.195	3.73
513.544	3.66
513.893	3.6
514.242	3.81
514.591	3.63
514.939	3.68
515.288	3.63
515.637	3.71
515.986	3.82
516.334	3.77
516.683	3.81
517.032	3.68
517.38	3.68
517.729	3.68
518.077	3.69
518.426	3.56
518.774	3.63
519.122	3.53
519.47	3.62
519.819	3.66
520.167	3.54
520.515	3.54
520.863	3.62
521.211	3.7
521.559	3.73
521.907	3.73
522.255	3.7
522.602	3.73
522.95	3.8
523.298	3.66
523.645	3.74
523.993	3.63
524.341	3.82
524.688	3.73
525.036	3.65
525.383	3.78
525.73	3.69
526.078	3.67
526.425	3.62
526.772	3.58
527.119	3.56
527.466	3.41
527.814	3.57
528.161	3.59
528.508	3.64
528.854	3.54
529.201	3.58
529.548	3.47
529.895	3.41
530.242	3.34
530.588	3.33
530.935	3.45
531.282	3.55
531.628	3.69
531.975	3.77
532.321	3.7
532.667	3.76
533.014	3.74
533.36	3.72
533.706	3.76
534.052	3.61
534.399	3.59
534.745	3.45
535.091	3.48
535.437	3.56
535.783	3.59
536.129	3.75
536.474	3.86
536.82	3.84
537.166	3.74
537.512	3.68
537.857	3.69
538.203	3.54
538.549	3.55
538.894	3.55
539.239	3.77
539.585	3.73
539.93	3.83
540.276	3.68
540.621	3.82
540.966	3.68
541.311	3.67
541.656	3.65
542.001	3.61
542.346	3.52
542.691	3.41
543.036	3.38
543.381	3.47
543.726	3.51
544.071	3.62
544.415	3.68
544.76	3.7
545.105	3.64
545.449	3.65
545.794	3.64
546.138	3.79
546.483	3.69
546.827	3.77
547.171	3.6
547.516	3.78
547.86	3.74
548.204	3.57
548.548	3.61
548.892	3.64
549.236	3.67
549.58	3.76
549.924	3.69
550.268	3.88
550.612	3.88
550.956	3.89
551.3	3.74
551.643	3.94
551.987	3.78
552.33	3.72
552.674	3.77
553.017	3.85
553.361	3.74
553.704	3.63
554.048	3.54
554.391	3.75
554.734	3.62
555.077	3.78
555.42	3.66
555.764	3.76
556.107	3.76
556.45	3.73
556.793	3.86
557.135	3.98
557.478	3.72
557.821	3.92
558.164	3.82
558.507	3.73
558.849	3.69
559.192	3.63
559.534	3.81
559.877	3.52
560.219	3.59
560.562	3.62
560.904	3.66
561.246	3.78
561.589	3.72
561.931	3.75
562.273	3.72
562.615	3.67
562.957	3.67
563.299	3.56
563.641	3.66
563.983	3.69
564.325	4.09
564.667	3.69
565.008	3.98
565.35	3.83
565.692	3.92
566.033	3.67
566.375	3.49
566.716	3.89
567.058	3.51
567.399	3.59
567.741	3.59
568.082	3.64
568.423	3.56
568.764	3.71
569.105	3.65
569.447	3.54
569.788	3.74
570.129	4.01
570.47	3.77
570.811	3.82
571.151	3.62
571.492	3.62
571.833	3.8
572.174	3.78
572.514	3.81
572.855	3.85
573.195	3.68
573.536	3.63
573.876	3.59
574.217	3.7
574.557	3.57
574.898	3.56
575.238	3.7
575.578	3.78
575.918	3.92
576.258	3.48
576.598	3.54
576.938	3.55
577.278	3.65
577.618	3.74
577.958	3.6
578.298	3.75
578.638	3.65
578.977	3.78
579.317	3.71
579.657	3.78
579.996	3.56
580.336	3.67
580.675	3.72
581.014	3.47
581.354	3.6
581.693	3.57
582.032	3.45
582.372	3.76
582.711	3.53
583.05	3.71
583.389	3.68
583.728	3.85
584.067	3.61
584.406	3.51
584.745	4
585.083	3.81
585.422	3.83
585.761	3.62
586.1	3.76
586.438	3.8
586.777	3.82
587.115	3.76
587.454	3.65
587.792	3.8
588.13	3.78
588.469	3.7
588.807	3.75
589.145	3.76
589.483	3.53
589.821	3.85
590.159	3.62
590.497	3.82
590.835	3.84
591.173	3.73
591.511	3.75
591.849	3.65
592.187	3.81
592.524	3.69
592.862	3.68
593.2	3.69
593.537	3.94
593.875	3.62
594.212	3.8
594.55	3.54
594.887	3.81
595.224	3.72
595.561	3.67
595.899	3.8
596.236	3.91
596.573	3.82
596.91	3.87
597.247	3.73
597.584	3.57
597.921	3.63
598.258	3.65
598.594	3.48
598.931	3.51
599.268	3.6
599.604	3.57
599.941	3.68
600.277	3.72
600.614	3.77
600.95	3.67
601.287	3.43
601.623	3.79
601.959	3.72
602.296	3.59
602.632	3.52
602.968	3.56
603.304	3.68
603.64	3.61
603.976	3.56
604.312	3.7
604.648	3.46
604.984	3.64
605.319	3.43
605.655	3.76
605.991	3.71
606.326	3.31
606.662	3.54
606.998	3.51
607.333	3.89
607.668	3.58
608.004	3.6
608.339	3.81
608.674	3.74
609.01	3.86
609.345	3.92
609.68	3.82
610.015	3.82
610.35	3.57
610.685	3.53
611.02	3.78
611.355	3.65
611.689	3.73
612.024	3.79
612.359	3.68
612.694	3.75
613.028	3.46
613.363	3.97
613.697	3.48
614.032	3.61
614.366	3.94
614.7	3.6
615.035	3.6
615.369	3.55
615.703	3.46
616.037	3.87
616.371	3.62
616.705	3.78
617.039	4.05
617.373	3.96
617.707	3.73
618.041	3.5
618.375	3.39
618.709	3.89
619.042	3.85
619.376	3.57
619.71	3.74
620.043	3.56
620.377	3.94
620.71	3.71
621.043	4.14
621.377	3.91
621.71	3.83
622.043	3.78
622.376	3.45
622.709	3.86
623.043	3.48
623.376	3.26
623.709	3.97
624.041	3.59
624.374	3.9
624.707	3.59
625.04	3.5
625.373	3.7
625.705	3.63
626.038	3.06
626.37	3.64
626.703	3.8
627.035	3.45
627.368	3.67
627.7	3.61
628.032	3.74
628.365	3.71
628.697	3.43
629.029	3.64
629.361	3.66
629.693	3.77
630.025	3.45
630.357	3.69
630.689	3.47
631.021	3.44
631.353	3.52
631.684	3.46
632.016	3.35
632.348	3.75
632.679	3.66
633.011	3.45
633.342	3.83
633.674	3.92
634.005	3.61
634.336	3.65
634.668	4.02
634.999	3.73
635.33	3.63
635.661	3.75
635.992	3.56
636.323	3.78
636.654	3.65
636.985	3.55
637.316	3.67
637.647	3.44
637.977	3.73
638.308	3.82
638.639	3.53
638.969	3.81
639.3	3.17
639.63	3.76
639.961	3.83
640.291	3.57
640.622	3.62
640.952	3.72
641.282	3.82
641.612	3.75
641.943	3.75
642.273	3.88
642.603	3.59
642.933	3.88
643.263	3.54
643.592	3.82
643.922	3.18
644.252	3.9
644.582	4.06
644.911	4.14
645.241	3.65
645.571	3.58
645.9	3.75
646.23	3.46
646.559	3.45
646.888	3.64
647.218	3.52
647.547	3.68
647.876	3.69
648.205	3.46
648.534	3.73
648.863	4.06
649.192	3.64
649.521	3.37
649.85	3.33
650.179	3.82
650.508	3.29
650.837	3.67
651.165	4.1
651.494	3.9
651.822	3.99
652.151	3.73
652.479	3.57
652.808	3.24
653.136	3.79
653.465	3.4
653.793	3.64
654.121	3.51
654.449	3.74
654.777	3.85
655.105	3.37
655.433	3.71
655.761	3.94
656.089	4.02
656.417	3.68
656.745	3.73
657.073	3.62
657.4	3.26
657.728	3.75
658.056	3.35
658.383	3.88
658.711	3.71
659.038	3.6
659.365	3.3
659.693	3.42
660.02	3.45
660.347	3.99
660.674	3.62
661.001	3.34
661.329	3.59
661.656	3.83
661.982	3.67
662.309	3.89
662.636	3.97
662.963	3.59
663.29	3.76
663.616	3.45
663.943	3.89
664.27	3.71
664.596	3.51
664.923	3.65
665.249	3.69
665.576	3.76
665.902	3.19
666.228	3.54
666.554	3.79
666.881	3.9
667.207	4.17
667.533	4.06
667.859	3.94
668.185	3.61
668.511	4
668.837	3.81
669.162	3.86
669.488	3.95
669.814	4.19
670.139	3.59
670.465	4.01
670.791	3.72
671.116	4.06
671.442	3.84
671.767	3.53
672.092	2.95
672.418	3.49
672.743	3.62
673.068	3.73
673.393	3.37
673.718	3.48
674.043	4.14
674.368	3.83
674.693	3.68
675.018	4.01
675.343	3.89
675.667	3.56
675.992	3.48
676.317	3.32
676.641	3.82
676.966	3.91
677.29	3.4
677.615	3.51
677.939	3.7
678.264	2.95
678.588	3.19
678.912	3.92
679.236	3.98
679.56	3.58
679.885	3.41
680.209	3.98
680.532	3.91
680.856	3.15
681.18	3.98
681.504	4.14
681.828	4.03
682.152	3.85
682.475	4.21
682.799	3.34
683.122	3.61
683.446	3.95
683.769	3.56
684.093	3.51
684.416	3.93
684.739	3.46
685.062	4.12
685.386	3.87
685.709	3.55
686.032	4.72
686.355	3.65
686.678	2.91
687.001	3.38
687.324	3.9
687.646	3.6
687.969	3.1
688.292	4.55
688.614	3.67
688.937	4.76
689.26	3.96
689.582	3.67
689.904	4.64
690.227	4.36
690.549	4.66
690.871	3.02
691.194	3.52
691.516	3.7
691.838	3.87
692.16	4.09
