Data from 0017_forehead_Reflection__2__78.txt Node

Date: Mon Oct 17 15:00:58 CDT 2022
User: ToomeyLab
Spectrometer: FLMS14357
Trigger mode: 0
Integration Time (sec): 1.000000E-2
Scans to average: 100
Electric dark correction enabled: true
Nonlinearity correction enabled: false
Boxcar width: 0
XAxis mode: Wavelengths
Number of Pixels in Spectrum: 2048
>>>>>Begin Spectral Data<<<<<
189.047	173.57
189.435	173.57
189.823	173.57
190.211	442.65
190.599	-272.8
190.987	465
191.375	287.8
191.763	169.14
192.151	62.57
192.538	13.55
192.926	43.85
193.314	620.71
193.702	113
194.089	46.76
194.477	88.1
194.864	-24
195.252	342.2
195.639	-132.49
196.027	112.92
196.414	-67.89
196.801	138.99
197.189	118.53
197.576	9.3
197.963	84.23
198.351	-177.73
198.738	30.46
199.125	57.2
199.512	-20.59
199.899	-1.44
200.286	-5.78
200.673	42.41
201.06	-1.16
201.447	132.42
201.833	14.37
202.22	36.36
202.607	-51.24
202.994	4.68
203.38	18.38
203.767	-4.53
204.154	47.2
204.54	21.5
204.927	40.51
205.313	5.03
205.699	34.63
206.086	-2.73
206.472	6.2
206.858	29.06
207.245	22.8
207.631	19.65
208.017	28.07
208.403	37.32
208.789	67.18
209.175	17.72
209.561	-30.61
209.947	-93.47
210.333	12.28
210.719	23.99
211.105	23.05
211.491	7.77
211.876	-25.61
212.262	13.59
212.648	-14.67
213.034	-16.01
213.419	34.72
213.805	9.25
214.19	18.02
214.576	-7.92
214.961	3.52
215.346	20.47
215.732	-1.15
216.117	6.6
216.502	-1.01
216.888	5.63
217.273	15.84
217.658	21.33
218.043	5.04
218.428	-24.66
218.813	26.65
219.198	-1.81
219.583	2.01
219.968	0.92
220.353	-11.24
220.738	15.8
221.122	-7.43
221.507	-8.38
221.892	1.67
222.276	1.04
222.661	-3.68
223.046	4.62
223.43	11.58
223.815	1.45
224.199	4.37
224.583	1.56
224.968	-4.25
225.352	0.48
225.736	4.57
226.121	-5.63
226.505	5.22
226.889	6.5
227.273	9.69
227.657	9.67
228.041	6.83
228.425	3.57
228.809	3.42
229.193	5.04
229.577	6.22
229.961	5.6
230.344	3.57
230.728	3.95
231.112	4.22
231.495	4.03
231.879	4.86
232.263	5.16
232.646	5.19
233.03	4.84
233.413	3.12
233.797	3.77
234.18	5.4
234.563	3.61
234.946	5.96
235.33	3.87
235.713	2.36
236.096	4.95
236.479	3.04
236.862	4.27
237.245	3.66
237.628	3.3
238.011	3.62
238.394	5.23
238.777	4.64
239.16	5.52
239.543	4.2
239.925	4.07
240.308	5.16
240.691	3.78
241.073	4.3
241.456	3.6
241.838	4.92
242.221	3.61
242.603	4.36
242.986	3.48
243.368	4.48
243.75	3.78
244.133	4.06
244.515	3.82
244.897	4.54
245.279	4.37
245.661	5.27
246.043	5.02
246.425	3.41
246.807	3.42
247.189	4.73
247.571	4.38
247.953	3.95
248.335	4.39
248.717	4.47
249.098	4.5
249.48	4.29
249.862	4.38
250.243	4.21
250.625	4.55
251.006	3.92
251.388	4.64
251.769	4.41
252.151	4.21
252.532	4.28
252.913	4.83
253.295	4.36
253.676	4.9
254.057	4.56
254.438	4.62
254.819	5.58
255.2	5.19
255.581	5.41
255.962	3.96
256.343	4.76
256.724	3.94
257.105	4.59
257.486	3.82
257.867	4.54
258.247	4.41
258.628	5.23
259.009	5.8
259.389	4.75
259.77	4.55
260.15	4.12
260.531	4.11
260.911	4.57
261.292	4.79
261.672	4.55
262.052	4.52
262.432	4.31
262.813	4.68
263.193	4.37
263.573	4.73
263.953	4.45
264.333	4.46
264.713	4.48
265.093	4.31
265.473	4.93
265.853	4.01
266.233	5.9
266.612	4.26
266.992	5.72
267.372	5.22
267.752	4.53
268.131	5.06
268.511	4.96
268.89	4.86
269.27	4.41
269.649	4.47
270.029	4.35
270.408	4.74
270.787	4.11
271.167	4
271.546	4.19
271.925	4.48
272.304	4.88
272.683	4.57
273.062	4.63
273.441	4.24
273.82	4.63
274.199	4.91
274.578	4.79
274.957	4.44
275.336	4.83
275.715	4.45
276.093	4.77
276.472	4.36
276.851	4.73
277.229	4.56
277.608	4.53
277.986	4.55
278.365	4.8
278.743	4.88
279.122	4
279.5	5.1
279.878	5
280.257	5.07
280.635	4.65
281.013	4.57
281.391	4.26
281.769	4.65
282.147	5.32
282.525	4.62
282.903	4.02
283.281	4.44
283.659	4.5
284.037	4.43
284.415	4.73
284.792	4.3
285.17	4.11
285.548	4.03
285.925	4.68
286.303	4.69
286.68	4.65
287.058	5.12
287.435	4.78
287.813	4.9
288.19	4.66
288.567	4.54
288.945	4.65
289.322	5.12
289.699	5.31
290.076	4.9
290.453	5.07
290.83	4.94
291.207	5.11
291.584	5.25
291.961	5.21
292.338	4.95
292.715	4.98
293.092	4.83
293.469	4.91
293.845	5.26
294.222	5.63
294.599	5.75
294.975	5.52
295.352	5.13
295.728	5.53
296.105	5.17
296.481	5.62
296.858	5.83
297.234	5.76
297.61	5.14
297.986	5.6
298.363	5.77
298.739	6.15
299.115	5.8
299.491	5.84
299.867	5.99
300.243	6.01
300.619	5.42
300.995	5.65
301.371	6.49
301.746	6.05
302.122	5.73
302.498	5.85
302.874	6.5
303.249	6.3
303.625	6.83
304	6.48
304.376	6.72
304.751	6.56
305.127	7.08
305.502	6.42
305.878	6.64
306.253	6.6
306.628	7.08
307.003	6.5
307.378	7.29
307.754	6.49
308.129	6.88
308.504	7.23
308.879	7.51
309.254	7.17
309.629	7.43
310.003	7.37
310.378	7.49
310.753	7.47
311.128	7.49
311.502	7.54
311.877	7.5
312.252	7.63
312.626	7.39
313.001	7.41
313.375	7.46
313.75	7.86
314.124	7.75
314.498	7.94
314.873	7.65
315.247	8.43
315.621	8.81
315.995	8.26
316.369	7.9
316.743	7.88
317.117	8.89
317.491	8.35
317.865	8.73
318.239	8.86
318.613	8.69
318.987	8.23
319.361	8.24
319.734	9.36
320.108	9.07
320.482	9.13
320.855	8.66
321.229	8.94
321.602	8.76
321.976	8.85
322.349	9.2
322.723	9.39
323.096	9.32
323.469	9.55
323.843	9.26
324.216	9.27
324.589	9.39
324.962	9.57
325.335	9.76
325.708	9.94
326.081	9.59
326.454	9.47
326.827	9.94
327.2	9.59
327.573	9.72
327.945	10.05
328.318	10.04
328.691	9.67
329.063	9.57
329.436	9.75
329.809	9.7
330.181	10.17
330.553	9.76
330.926	10.57
331.298	10.16
331.671	10.61
332.043	10.99
332.415	10.57
332.787	11.25
333.159	10.6
333.532	10.05
333.904	10.48
334.276	11.55
334.648	10.75
335.02	11.04
335.391	11.08
335.763	11.06
336.135	11.09
336.507	11.56
336.879	11.06
337.25	11.79
337.622	10.9
337.993	11.55
338.365	11.28
338.736	11.15
339.108	11.38
339.479	10.91
339.851	11.7
340.222	11.6
340.593	11.89
340.964	11.36
341.336	11.33
341.707	12.41
342.078	12.31
342.449	11.87
342.82	11.53
343.191	11.97
343.562	11.93
343.933	11.96
344.303	11.74
344.674	12.72
345.045	12.37
345.416	12.25
345.786	12.29
346.157	12.02
346.527	11.88
346.898	12.65
347.268	12.9
347.639	12.31
348.009	12.53
348.38	12.22
348.75	12.36
349.12	12.79
349.49	12.47
349.861	13.12
350.231	12.71
350.601	13.07
350.971	13.03
351.341	12.96
351.711	12.7
352.081	12.93
352.45	13.55
352.82	13.37
353.19	13.09
353.56	13.27
353.929	13.59
354.299	13.77
354.669	13.68
355.038	13.71
355.408	13.65
355.777	13.62
356.147	13.69
356.516	13.68
356.885	13.41
357.254	13.83
357.624	14.19
357.993	14.23
358.362	13.65
358.731	13.6
359.1	14.03
359.469	14.16
359.838	14.07
360.207	14.11
360.576	14.03
360.945	14.26
361.314	14.38
361.682	14.64
362.051	14.46
362.42	14.64
362.788	14.65
363.157	14.82
363.525	14.63
363.894	14.79
364.262	14.6
364.631	14.55
364.999	14.49
365.367	14.79
365.735	14.88
366.104	14.73
366.472	14.79
366.84	15.12
367.208	15.54
367.576	15.26
367.944	15.19
368.312	15.07
368.68	15.48
369.048	15.27
369.416	15.31
369.783	15.59
370.151	15.54
370.519	15.65
370.886	15.72
371.254	15.47
371.621	15.88
371.989	15.81
372.356	16.04
372.724	15.71
373.091	16.01
373.458	16
373.826	16.34
374.193	16.21
374.56	15.72
374.927	16.2
375.294	16.02
375.661	16.22
376.028	16.45
376.395	16.33
376.762	16.41
377.129	16.55
377.496	16.53
377.863	16.35
378.229	16.53
378.596	16.63
378.963	16.69
379.329	16.64
379.696	16.75
380.062	16.87
380.429	17.01
380.795	17.06
381.161	17.12
381.528	17.28
381.894	16.99
382.26	17.18
382.626	17.31
382.993	17.44
383.359	17.58
383.725	17.51
384.091	17.37
384.457	17.45
384.823	17.7
385.188	17.51
385.554	17.48
385.92	17.68
386.286	17.79
386.651	17.76
387.017	17.53
387.383	18.08
387.748	17.66
388.114	17.88
388.479	18.51
388.845	18.17
389.21	18.04
389.575	17.89
389.94	18.31
390.306	18.41
390.671	18.46
391.036	18.3
391.401	18.57
391.766	18.5
392.131	18.54
392.496	18.3
392.861	18.27
393.226	18.59
393.591	18.39
393.956	18.47
394.32	18.65
394.685	18.6
395.05	18.79
395.414	19.14
395.779	19.06
396.143	19.26
396.508	18.68
396.872	18.84
397.236	18.91
397.601	18.96
397.965	19.13
398.329	19.37
398.694	19.5
399.058	19.37
399.422	19.42
399.786	19.42
400.15	19.42
400.514	19.7
400.878	19.66
401.242	19.49
401.605	20.02
401.969	19.63
402.333	19.66
402.697	19.59
403.06	19.71
403.424	19.98
403.787	19.63
404.151	19.66
404.514	20.15
404.878	20.06
405.241	20.09
405.604	20.18
405.968	20.22
406.331	19.98
406.694	20.16
407.057	20.27
407.42	20.22
407.783	20.32
408.146	20.76
408.509	20.59
408.872	20.63
409.235	20.67
409.598	20.47
409.961	20.47
410.323	20.88
410.686	20.7
411.049	20.71
411.411	21.08
411.774	20.89
412.136	20.92
412.499	21
412.861	20.98
413.223	20.92
413.586	21.08
413.948	21.1
414.31	21.35
414.672	21.18
415.035	21.59
415.397	21.44
415.759	21.52
416.121	21.34
416.483	21.65
416.845	21.52
417.206	21.53
417.568	21.65
417.93	21.52
418.292	21.82
418.653	21.6
419.015	21.71
419.377	21.85
419.738	21.59
420.1	21.72
420.461	21.64
420.822	21.79
421.184	21.6
421.545	21.64
421.906	21.73
422.267	21.73
422.629	21.7
422.99	21.77
423.351	21.75
423.712	21.7
424.073	21.88
424.434	21.92
424.795	22.12
425.155	22.13
425.516	21.98
425.877	22.18
426.238	22.2
426.598	22.14
426.959	22.15
427.32	22.32
427.68	22.3
428.041	22.25
428.401	22.71
428.761	22.7
429.122	22.65
429.482	22.85
429.842	22.66
430.202	23.17
430.563	22.83
430.923	23.14
431.283	22.95
431.643	23.2
432.003	23.29
432.363	23.37
432.722	23.31
433.082	23.33
433.442	23.29
433.802	23.48
434.161	23.51
434.521	23.73
434.881	23.32
435.24	23.32
435.6	23.54
435.959	23.43
436.319	23.4
436.678	23.4
437.037	23.66
437.396	23.72
437.756	23.95
438.115	24.01
438.474	23.75
438.833	23.78
439.192	23.79
439.551	24.11
439.91	24.05
440.269	24.03
440.628	23.88
440.987	24.01
441.345	23.93
441.704	24.2
442.063	23.92
442.421	24.2
442.78	24.02
443.138	24.09
443.497	24.25
443.855	24.3
444.214	24.31
444.572	24.14
444.93	24.41
445.288	24.52
445.647	24.7
446.005	24.67
446.363	24.85
446.721	24.77
447.079	24.84
447.437	24.69
447.795	24.67
448.153	24.72
448.51	24.57
448.868	24.67
449.226	24.62
449.584	24.68
449.941	24.83
450.299	25.03
450.656	25.01
451.014	25.13
451.371	25.38
451.729	24.93
452.086	25.29
452.443	25.45
452.801	25.47
453.158	25.6
453.515	25.59
453.872	25.61
454.229	25.5
454.586	25.61
454.943	25.49
455.3	25.6
455.657	25.81
456.014	25.64
456.371	25.97
456.727	25.74
457.084	26.07
457.441	26.03
457.797	26.03
458.154	26.1
458.51	26.29
458.867	26.14
459.223	26.17
459.58	26.24
459.936	26.31
460.292	26.33
460.648	26.2
461.005	26.19
461.361	26.02
461.717	26.02
462.073	25.99
462.429	25.96
462.785	26.06
463.141	26.35
463.496	26.4
463.852	26.55
464.208	26.74
464.564	26.76
464.919	26.63
465.275	26.96
465.631	26.93
465.986	26.85
466.342	26.81
466.697	27.06
467.052	27.03
467.408	27.1
467.763	26.93
468.118	27.24
468.473	27.13
468.829	27.2
469.184	27.49
469.539	27.34
469.894	27.35
470.249	27.29
470.603	27.49
470.958	27.46
471.313	27.55
471.668	27.49
472.023	27.66
472.377	27.59
472.732	27.69
473.086	27.96
473.441	27.81
473.795	27.69
474.15	27.86
474.504	28.06
474.859	28.06
475.213	28
475.567	28.05
475.921	28.1
476.275	27.91
476.63	28.26
476.984	28.24
477.338	28.16
477.692	28.28
478.045	28.47
478.399	28.38
478.753	28.29
479.107	28.53
479.461	28.33
479.814	28.33
480.168	28.36
480.521	28.47
480.875	28.29
481.228	28.57
481.582	28.7
481.935	28.72
482.289	28.65
482.642	28.65
482.995	28.73
483.348	28.69
483.701	28.51
484.055	28.38
484.408	28.36
484.761	28.15
485.114	27.99
485.466	28.13
485.819	28.15
486.172	28
486.525	27.78
486.878	27.69
487.23	27.98
487.583	28.15
487.936	28.3
488.288	28.37
488.641	28.38
488.993	28.54
489.345	28.45
489.698	28.47
490.05	28.45
490.402	28.36
490.754	28.61
491.107	28.63
491.459	28.73
491.811	28.99
492.163	29.17
492.515	29.19
492.866	29.04
493.218	29.09
493.57	29.05
493.922	29.03
494.274	29.02
494.625	28.92
494.977	29.28
495.328	29.42
495.68	29.77
496.031	30.02
496.383	30.01
496.734	30.17
497.086	30.11
497.437	30.16
497.788	30.23
498.139	30.26
498.49	30.18
498.842	29.99
499.193	30.14
499.544	30.16
499.894	30.21
500.245	30.52
500.596	30.42
500.947	30.47
501.298	30.72
501.648	30.51
501.999	30.48
502.35	30.7
502.7	30.72
503.051	30.76
503.401	30.93
503.752	31.09
504.102	31.09
504.452	31.08
504.803	31.17
505.153	31.33
505.503	31.22
505.853	31.16
506.203	31.28
506.553	31.23
506.903	31.26
507.253	31.45
507.603	31.51
507.953	31.56
508.303	31.42
508.652	31.61
509.002	31.61
509.352	31.52
509.701	31.56
510.051	31.59
510.4	31.53
510.75	31.59
511.099	31.67
511.449	31.71
511.798	31.68
512.147	31.65
512.496	31.93
512.846	31.77
513.195	31.94
513.544	32.01
513.893	31.88
514.242	32.01
514.591	31.99
514.939	32.03
515.288	32.04
515.637	32.19
515.986	32.46
516.334	32.18
516.683	32.4
517.032	32.52
517.38	32.39
517.729	32.56
518.077	32.36
518.426	32.44
518.774	32.39
519.122	32.33
519.47	32.45
519.819	32.37
520.167	32.44
520.515	32.28
520.863	32.31
521.211	32.31
521.559	32.35
521.907	32.49
522.255	32.53
522.602	32.72
522.95	32.8
523.298	32.86
523.645	32.97
523.993	33.19
524.341	33.26
524.688	33.06
525.036	33.17
525.383	33.37
525.73	33.36
526.078	33.22
526.425	33.27
526.772	33.14
527.119	33.17
527.466	33.06
527.814	33.09
528.161	33.05
528.508	33.13
528.854	33
529.201	32.95
529.548	33
529.895	32.83
530.242	32.95
530.588	32.93
530.935	32.82
531.282	32.58
531.628	32.67
531.975	32.73
532.321	33.06
532.667	33.32
533.014	33.51
533.36	33.53
533.706	33.53
534.052	33.59
534.399	33.68
534.745	33.49
535.091	33.53
535.437	33.51
535.783	33.5
536.129	33.57
536.474	33.59
536.82	33.72
537.166	34.08
537.512	34.15
537.857	34.19
538.203	34.24
538.549	34.32
538.894	34.16
539.239	34.28
539.585	34.33
539.93	34.46
540.276	34.46
540.621	34.76
540.966	34.84
541.311	34.85
541.656	34.86
542.001	34.65
542.346	34.58
542.691	34.66
543.036	34.41
543.381	34.39
543.726	34.32
544.071	34.19
544.415	34.4
544.76	34.44
545.105	34.61
545.449	34.8
545.794	34.74
546.138	34.85
546.483	35.1
546.827	35.37
547.171	35.27
547.516	35.47
547.86	35.55
548.204	35.48
548.548	35.34
548.892	35.46
549.236	35.38
549.58	35.59
549.924	35.83
550.268	35.85
550.612	35.97
550.956	36.2
551.3	36.04
551.643	36.43
551.987	36.31
552.33	36.42
552.674	36.4
553.017	36.48
553.361	36.51
553.704	36.53
554.048	36.48
554.391	36.53
554.734	36.31
555.077	36.47
555.42	36.43
555.764	36.58
556.107	36.56
556.45	36.88
556.793	36.91
557.135	36.93
557.478	36.81
557.821	37.13
558.164	37.07
558.507	36.97
558.849	37.05
559.192	37.07
559.534	37.23
559.877	37.25
560.219	36.99
560.562	37.13
560.904	37.5
561.246	37.44
561.589	37.3
561.931	37.53
562.273	37.67
562.615	37.58
562.957	37.53
563.299	37.83
563.641	37.67
563.983	37.32
564.325	37.67
564.667	37.8
565.008	37.87
565.35	37.82
565.692	37.97
566.033	37.86
566.375	37.8
566.716	38.12
567.058	37.99
567.399	38.02
567.741	37.97
568.082	37.93
568.423	37.95
568.764	37.89
569.105	37.89
569.447	37.96
569.788	38.05
570.129	38.29
570.47	38.2
570.811	38.22
571.151	38.39
571.492	38.52
571.833	38.37
572.174	38.36
572.514	38.57
572.855	38.29
573.195	38.54
573.536	38.33
573.876	38.48
574.217	38.6
574.557	38.37
574.898	38.49
575.238	38.58
575.578	38.72
575.918	38.76
576.258	38.72
576.598	38.79
576.938	38.75
577.278	38.62
577.618	38.84
577.958	38.7
578.298	38.93
578.638	39.07
578.977	39.2
579.317	39.12
579.657	39.15
579.996	39.25
580.336	39.64
580.675	39.48
581.014	39.26
581.354	39.46
581.693	39.45
582.032	39.71
582.372	39.6
582.711	39.38
583.05	39.6
583.389	40.06
583.728	40.01
584.067	39.79
584.406	39.84
584.745	39.99
585.083	39.7
585.422	40.02
585.761	40.19
586.1	39.8
586.438	40.42
586.777	40.42
587.115	40.15
587.454	40.13
587.792	40.18
588.13	40.31
588.469	40.36
588.807	39.92
589.145	40.37
589.483	40.46
589.821	40.29
590.159	40.39
590.497	40.56
590.835	40.45
591.173	40.67
591.511	40.54
591.849	40.89
592.187	40.72
592.524	40.39
592.862	40.48
593.2	40.49
593.537	40.8
593.875	41.16
594.212	41.02
594.55	40.5
594.887	41.02
595.224	41.24
595.561	41.02
595.899	40.92
596.236	41.29
596.573	40.82
596.91	41.07
597.247	41.12
597.584	40.94
597.921	41.13
598.258	41.06
598.594	41.17
598.931	41.1
599.268	41.13
599.604	40.97
599.941	41.42
600.277	41.28
600.614	41.6
600.95	41.26
601.287	41.64
601.623	41.62
601.959	41.61
602.296	41.67
602.632	41.66
602.968	41.83
603.304	42.26
603.64	41.77
603.976	42.05
604.312	41.82
604.648	41.83
604.984	41.81
605.319	41.72
605.655	41.86
605.991	41.84
606.326	41.74
606.662	42.05
606.998	41.68
607.333	41.9
607.668	41.59
608.004	41.85
608.339	41.85
608.674	42.28
609.01	42.3
609.345	42.26
609.68	42.29
610.015	42.43
610.35	42.28
610.685	42.49
611.02	42.38
611.355	42.43
611.689	42.46
612.024	42.45
612.359	42.53
612.694	42.73
613.028	42.68
613.363	42.76
613.697	42.46
614.032	42.74
614.366	42.77
614.7	42.83
615.035	42.93
615.369	43.38
615.703	43.29
616.037	43.09
616.371	43.27
616.705	43.25
617.039	43.54
617.373	43.42
617.707	43.02
618.041	43.53
618.375	43.02
618.709	43.35
619.042	43.37
619.376	43.35
619.71	43.34
620.043	43.59
620.377	43.61
620.71	43.97
621.043	43.84
621.377	43.79
621.71	43.83
622.043	43.72
622.376	43.63
622.709	43.81
623.043	44.09
623.376	43.46
623.709	44.03
624.041	44.05
624.374	43.86
624.707	43.98
625.04	43.93
625.373	43.93
625.705	44.21
626.038	43.92
626.37	44.06
626.703	44.34
627.035	44.14
627.368	43.85
627.7	44.17
628.032	44.49
628.365	44.3
628.697	44.37
629.029	44.33
629.361	44.19
629.693	44.45
630.025	44.24
630.357	44.14
630.689	44.07
631.021	44.44
631.353	44.52
631.684	44.46
632.016	44.34
632.348	45.13
632.679	44.48
633.011	44.48
633.342	44.94
633.674	44.84
634.005	44.63
634.336	44.77
634.668	44.82
634.999	45.33
635.33	44.64
635.661	44.78
635.992	44.68
636.323	45.09
636.654	44.89
636.985	45.32
637.316	44.8
637.647	45.12
637.977	45.01
638.308	45.05
638.639	45.08
638.969	45.32
639.3	44.92
639.63	45.61
639.961	44.96
640.291	45.28
640.622	45.55
640.952	45.44
641.282	45.83
641.612	45.51
641.943	45.3
642.273	45.49
642.603	45.92
642.933	45.54
643.263	45.38
643.592	45.93
643.922	45.57
644.252	46.38
644.582	46.17
644.911	46.28
645.241	46.2
645.571	45.31
645.9	45.63
646.23	46.18
646.559	45.89
646.888	46.26
647.218	46.1
647.547	45.94
647.876	46.06
648.205	46.11
648.534	45.89
648.863	46.53
649.192	46.49
649.521	46.09
649.85	46.24
650.179	46.57
650.508	46.15
650.837	46.35
651.165	46.59
651.494	46.23
651.822	46.51
652.151	46.06
652.479	46.17
652.808	46.25
653.136	46.16
653.465	46.2
653.793	46.5
654.121	46.82
654.449	46.65
654.777	46.29
655.105	46.71
655.433	46.55
655.761	46.33
656.089	46.44
656.417	46.32
656.745	46.98
657.073	46.26
657.4	46.27
657.728	46.74
658.056	46.78
658.383	47.16
658.711	47.28
659.038	47.44
659.365	46.79
659.693	47.26
660.02	46.98
660.347	46.78
660.674	46.72
661.001	46.7
661.329	47.79
661.656	47.15
661.982	47.11
662.309	47.19
662.636	47
662.963	46.52
663.29	47.72
663.616	47.47
663.943	46.91
664.27	47.18
664.596	47.59
664.923	47.83
665.249	47.14
665.576	47.82
665.902	46.67
666.228	47.34
666.554	47.79
666.881	47.96
667.207	47.2
667.533	47.57
667.859	47.21
668.185	47.21
668.511	47.98
668.837	48.07
669.162	47.61
669.488	47.37
669.814	47.3
670.139	47.74
