Data from 0017_forehead_Reflection__0__76.txt Node

Date: Mon Oct 17 15:00:29 CDT 2022
User: ToomeyLab
Spectrometer: FLMS14357
Trigger mode: 0
Integration Time (sec): 1.000000E-2
Scans to average: 100
Electric dark correction enabled: true
Nonlinearity correction enabled: false
Boxcar width: 0
XAxis mode: Wavelengths
Number of Pixels in Spectrum: 2048
>>>>>Begin Spectral Data<<<<<
189.047	483.33
189.435	483.33
189.823	483.33
190.211	1169.61
190.599	277.67
190.987	78
191.375	453.2
191.763	364.41
192.151	-25.66
192.538	272.14
192.926	28.41
193.314	46.19
193.702	6
194.089	0.69
194.477	-25.11
194.864	5.42
195.252	274.73
195.639	-249.03
196.027	107.31
196.414	-45.26
196.801	31.35
197.189	60.73
197.576	131.85
197.963	-68.12
198.351	-95.1
198.738	74.76
199.125	-23.76
199.512	-75.23
199.899	5.12
200.286	7.08
200.673	-14.24
201.06	-16.02
201.447	115.56
201.833	54.15
202.22	-11.89
202.607	-39.87
202.994	3
203.38	70.02
203.767	48.69
204.154	34.66
204.54	-32.6
204.927	47.64
205.313	13.66
205.699	-0.08
206.086	14.22
206.472	7.82
206.858	-24.13
207.245	24.07
207.631	21.32
208.017	26.09
208.403	29.61
208.789	25.75
209.175	6.74
209.561	-41.95
209.947	-55.79
210.333	38.88
210.719	77.51
211.105	31.29
211.491	-3.19
211.876	3.35
212.262	20.14
212.648	1.62
213.034	33.38
213.419	19.65
213.805	-10.33
214.19	9.99
214.576	8.25
214.961	-24.96
215.346	-5.09
215.732	-19.33
216.117	13.36
216.502	17.19
216.888	-7.97
217.273	6.9
217.658	25.92
218.043	-14.02
218.428	-4.6
218.813	14.83
219.198	24.27
219.583	-6.59
219.968	-12.3
220.353	2.4
220.738	11.91
221.122	11.44
221.507	2.09
221.892	-2.11
222.276	-1.25
222.661	0.24
223.046	6.46
223.43	6.74
223.815	-2.93
224.199	7.44
224.583	-9.53
224.968	-8.55
225.352	-9.69
225.736	7.18
226.121	-0.94
226.505	-0.94
226.889	-2.52
227.273	0.91
227.657	8.66
228.041	6.1
228.425	0.52
228.809	3.36
229.193	2.92
229.577	2.44
229.961	4.51
230.344	2.56
230.728	2.1
231.112	3.04
231.495	3.12
231.879	3.2
232.263	3.17
232.646	2.93
233.03	3.57
233.413	1.05
233.797	3.57
234.18	3.21
234.563	-0.77
234.946	3.77
235.33	3.82
235.713	1.65
236.096	4.19
236.479	2.74
236.862	2.3
237.245	1.85
237.628	3.92
238.011	3.93
238.394	2.94
238.777	2.94
239.16	3.19
239.543	2.08
239.925	3.87
240.308	3.05
240.691	1.48
241.073	3.11
241.456	3.44
241.838	2.75
242.221	1.93
242.603	2.58
242.986	2.38
243.368	3.25
243.75	2.3
244.133	3.07
244.515	3.02
244.897	3.26
245.279	3.14
245.661	3.43
246.043	3.16
246.425	2.75
246.807	2.8
247.189	3.62
247.571	3.01
247.953	2.85
248.335	3.11
248.717	3.19
249.098	3.18
249.48	3.25
249.862	3.27
250.243	2.54
250.625	3.28
251.006	3.14
251.388	3.5
251.769	3.1
252.151	3.59
252.532	3.12
252.913	3.14
253.295	2.58
253.676	3.39
254.057	3.48
254.438	3.3
254.819	3.86
255.2	3.11
255.581	3.47
255.962	2.18
256.343	2.82
256.724	3.39
257.105	3.23
257.486	2.42
257.867	2.41
258.247	3.51
258.628	4.3
259.009	3.64
259.389	2.6
259.77	3.89
260.15	3.19
260.531	2.71
260.911	3.13
261.292	3.21
261.672	3.16
262.052	3.32
262.432	3.12
262.813	2.79
263.193	3.26
263.573	3.56
263.953	3.41
264.333	3.17
264.713	3
265.093	3.52
265.473	2.62
265.853	3.47
266.233	5.08
266.612	2.48
266.992	3.67
267.372	3.14
267.752	3.67
268.131	3.38
268.511	3.52
268.89	3.76
269.27	3.12
269.649	3.44
270.029	3.36
270.408	4.21
270.787	3.12
271.167	2.93
271.546	2.93
271.925	3.28
272.304	3.18
272.683	2.62
273.062	3.33
273.441	3.57
273.82	3.38
274.199	3.56
274.578	3.34
274.957	3.07
275.336	3.33
275.715	3.32
276.093	3.25
276.472	2.53
276.851	3.17
277.229	2.82
277.608	3.18
277.986	3.01
278.365	3.4
278.743	2.74
279.122	2.51
279.5	3.36
279.878	3.21
280.257	3.42
280.635	2.96
281.013	3.62
281.391	3.21
281.769	3.57
282.147	3.66
282.525	3.06
282.903	2.55
283.281	3.22
283.659	3.1
284.037	3.13
284.415	3.12
284.792	3
285.17	2.74
285.548	3.03
285.925	3.45
286.303	3.05
286.68	3.34
287.058	3.62
287.435	3.28
287.813	3.16
288.19	3.36
288.567	2.98
288.945	3.51
289.322	3.73
289.699	3.69
290.076	3.16
290.453	3.56
290.83	3.54
291.207	3.54
291.584	3.39
291.961	3.48
292.338	3.42
292.715	3.27
293.092	3.21
293.469	3.25
293.845	3.79
294.222	4.58
294.599	4.2
294.975	3.33
295.352	3.57
295.728	3.68
296.105	3.87
296.481	3.65
296.858	4.45
297.234	3.78
297.61	3.69
297.986	3.92
298.363	3.86
298.739	4.12
299.115	4.1
299.491	4.1
299.867	4.23
300.243	4.37
300.619	3.74
300.995	4.13
301.371	4.01
301.746	4.17
302.122	3.83
302.498	4.27
302.874	4.4
303.249	4.43
303.625	4.46
304	4.66
304.376	4.66
304.751	4.76
305.127	4.57
305.502	4.69
305.878	4.94
306.253	4.35
306.628	4.56
307.003	4.78
307.378	4.74
307.754	4.28
308.129	4.8
308.504	4.74
308.879	4.91
309.254	4.99
309.629	4.89
310.003	5.46
310.378	4.95
310.753	4.89
311.128	5.26
311.502	5.12
311.877	5.39
312.252	5.05
312.626	5.17
313.001	4.92
313.375	5.25
313.75	5.17
314.124	5.51
314.498	5.34
314.873	5.21
315.247	6.05
315.621	5.84
315.995	5.69
316.369	5.28
316.743	5.67
317.117	5.82
317.491	5.2
317.865	5.76
318.239	6.01
318.613	6.17
318.987	5.51
319.361	5.23
319.734	5.97
320.108	5.52
320.482	5.45
320.855	4.9
321.229	5.78
321.602	6.05
321.976	5.63
322.349	6.1
322.723	6.09
323.096	6.34
323.469	6.18
323.843	6.15
324.216	6.61
324.589	6.1
324.962	6.28
325.335	6.39
325.708	6.82
326.081	6.55
326.454	6.41
326.827	6.31
327.2	6.45
327.573	6.01
327.945	6.16
328.318	6.36
328.691	6.2
329.063	6.56
329.436	6.71
329.809	6.59
330.181	6.83
330.553	6.4
330.926	6.91
331.298	6.89
331.671	7.35
332.043	7.05
332.415	6.75
332.787	6.81
333.159	6.91
333.532	6.98
333.904	7.14
334.276	7.12
334.648	6.6
335.02	6.81
335.391	7.13
335.763	6.99
336.135	6.67
336.507	7.19
336.879	7.16
337.25	7.51
337.622	6.95
337.993	6.84
338.365	6.98
338.736	6.97
339.108	7.27
339.479	6.97
339.851	7.46
340.222	7.45
340.593	7.46
340.964	7.23
341.336	7.48
341.707	7.8
342.078	7.51
342.449	7.76
342.82	7.14
343.191	7.21
343.562	7.48
343.933	7.57
344.303	7.37
344.674	7.8
345.045	7.81
345.416	7.6
345.786	7.67
346.157	7.48
346.527	7.65
346.898	7.72
347.268	7.82
347.639	7.86
348.009	7.69
348.38	7.81
348.75	7.9
349.12	7.82
349.49	8.02
349.861	8.19
350.231	7.8
350.601	8.15
350.971	7.99
351.341	7.81
351.711	7.86
352.081	8.26
352.45	8.39
352.82	8.48
353.19	7.59
353.56	8.08
353.929	8.39
354.299	8.32
354.669	8.57
355.038	8.46
355.408	8.33
355.777	8.26
356.147	8.6
356.516	8.47
356.885	8.48
357.254	8.29
357.624	8.67
357.993	8.51
358.362	8.42
358.731	8.55
359.1	8.34
359.469	8.56
359.838	8.66
360.207	8.68
360.576	8.24
360.945	8.64
361.314	8.95
361.682	8.8
362.051	8.58
362.42	8.74
362.788	8.79
363.157	9.08
363.525	8.68
363.894	9.18
364.262	8.68
364.631	8.91
364.999	8.81
365.367	8.92
365.735	8.93
366.104	9.04
366.472	9.01
366.84	9.36
367.208	9.05
367.576	8.91
367.944	9.11
368.312	9.22
368.68	9.23
369.048	9.44
369.416	9.23
369.783	9.26
370.151	9.59
370.519	9.59
370.886	9.48
371.254	9.02
371.621	9.56
371.989	9.54
372.356	9.65
372.724	9.24
373.091	9.65
373.458	9.53
373.826	9.54
374.193	9.87
374.56	9.56
374.927	9.5
375.294	9.68
375.661	9.57
376.028	9.91
376.395	9.57
376.762	9.96
377.129	9.69
377.496	9.58
377.863	9.62
378.229	10.12
378.596	9.71
378.963	9.87
379.329	9.99
379.696	9.77
380.062	10.34
380.429	9.57
380.795	10.16
381.161	10.41
381.528	9.86
381.894	9.95
382.26	10.26
382.626	10.24
382.993	10.37
383.359	10.4
383.725	10.2
384.091	10.58
384.457	10.58
384.823	10.26
385.188	10.22
385.554	10.76
385.92	10.73
386.286	10.49
386.651	10.49
387.017	10.25
387.383	10.59
387.748	10.43
388.114	10.49
388.479	10.51
388.845	10.67
389.21	10.5
389.575	10.61
389.94	10.83
390.306	10.77
390.671	11.04
391.036	10.84
391.401	10.99
391.766	11.04
392.131	10.93
392.496	10.93
392.861	10.95
393.226	10.61
393.591	10.8
393.956	10.9
394.32	11.25
394.685	10.95
395.05	11.05
395.414	11.27
395.779	11.05
396.143	11.33
396.508	11.06
396.872	10.98
397.236	11.15
397.601	11.47
397.965	11.19
398.329	11.16
398.694	11.34
399.058	11.49
399.422	11.68
399.786	11.57
400.15	11.32
400.514	11.27
400.878	11.58
401.242	11.41
401.605	11.7
401.969	11.59
402.333	11.54
402.697	11.51
403.06	11.46
403.424	11.79
403.787	11.63
404.151	11.42
404.514	11.83
404.878	11.7
405.241	11.75
405.604	11.8
405.968	11.89
406.331	11.65
406.694	11.84
407.057	11.75
407.42	11.66
407.783	11.93
408.146	11.98
408.509	12.26
408.872	11.75
409.235	11.9
409.598	11.99
409.961	12.12
410.323	12.14
410.686	11.79
411.049	12.07
411.411	12.26
411.774	12.02
412.136	12.11
412.499	12.23
412.861	12.31
413.223	12.16
413.586	12.2
413.948	12.26
414.31	12.28
414.672	12.18
415.035	12.73
415.397	12.65
415.759	12.55
416.121	12.38
416.483	12.63
416.845	12.57
417.206	12.63
417.568	12.65
417.93	12.63
418.292	12.66
418.653	12.51
419.015	12.52
419.377	12.78
419.738	12.44
420.1	12.73
420.461	12.54
420.822	12.7
421.184	12.55
421.545	12.41
421.906	12.6
422.267	12.62
422.629	12.48
422.99	12.48
423.351	12.62
423.712	12.75
424.073	12.76
424.434	12.73
424.795	12.9
425.155	12.93
425.516	12.62
425.877	12.69
426.238	12.88
426.598	12.9
426.959	12.96
427.32	13.01
427.68	13.07
428.041	13.08
428.401	13.37
428.761	13.29
429.122	13.3
429.482	13.38
429.842	13.24
430.202	13.44
430.563	13.28
430.923	13.44
431.283	13.7
431.643	13.47
432.003	13.61
432.363	13.49
432.722	13.55
433.082	13.55
433.442	13.48
433.802	13.51
434.161	13.46
434.521	13.58
434.881	13.65
435.24	13.55
435.6	13.68
435.959	13.62
436.319	13.85
436.678	13.63
437.037	13.88
437.396	13.89
437.756	13.92
438.115	13.81
438.474	13.95
438.833	13.66
439.192	13.9
439.551	13.84
439.91	13.88
440.269	13.99
440.628	13.87
440.987	13.81
441.345	13.85
441.704	13.94
442.063	13.82
442.421	13.93
442.78	13.88
443.138	14.02
443.497	14.08
443.855	14.21
444.214	14.24
444.572	14.16
444.93	14.21
445.288	14.27
445.647	14.26
446.005	14.47
446.363	14.41
446.721	14.26
447.079	14.29
447.437	14.39
447.795	14.29
448.153	14.26
448.51	14.11
448.868	14.21
449.226	14.36
449.584	14.44
449.941	14.42
450.299	14.61
450.656	14.57
451.014	14.64
451.371	14.86
451.729	14.57
452.086	14.63
452.443	14.7
452.801	14.89
453.158	15.01
453.515	14.85
453.872	14.68
454.229	14.86
454.586	14.78
454.943	14.88
455.3	14.87
455.657	14.91
456.014	15
456.371	14.97
456.727	15.09
457.084	15.15
457.441	15.27
457.797	15.11
458.154	15.16
458.51	15.19
458.867	15.29
459.223	15.26
459.58	15.09
459.936	15.19
460.292	15.39
460.648	15.18
461.005	15.17
461.361	15.01
461.717	15
462.073	15.01
462.429	15.24
462.785	15.27
463.141	15.4
463.496	15.45
463.852	15.56
464.208	15.65
464.564	15.48
464.919	15.56
465.275	15.54
465.631	15.74
465.986	15.72
466.342	15.7
466.697	15.88
467.052	15.73
467.408	15.66
467.763	15.78
468.118	15.83
468.473	15.84
468.829	15.82
469.184	15.95
469.539	15.88
469.894	15.88
470.249	16.12
470.603	15.97
470.958	15.95
471.313	15.96
471.668	16.11
472.023	15.95
472.377	16.32
472.732	16.01
473.086	16.22
473.441	16.19
473.795	16.15
474.15	16.23
474.504	16.21
474.859	16.34
475.213	16.37
475.567	16.49
475.921	16.49
476.275	16.35
476.63	16.6
476.984	16.53
477.338	16.59
477.692	16.5
478.045	16.45
478.399	16.41
478.753	16.48
479.107	16.69
479.461	16.46
479.814	16.6
480.168	16.55
480.521	16.67
480.875	16.53
481.228	16.77
481.582	16.92
481.935	16.92
482.289	16.77
482.642	16.64
482.995	16.76
483.348	16.67
483.701	16.61
484.055	16.45
484.408	16.52
484.761	16.36
485.114	16.13
485.466	16.01
485.819	16.04
486.172	16.28
486.525	16.32
486.878	16.41
487.23	16.59
487.583	16.61
487.936	16.66
488.288	16.61
488.641	16.57
488.993	16.5
489.345	16.49
489.698	16.48
490.05	16.53
490.402	16.68
490.754	16.89
491.107	16.91
491.459	17.07
491.811	17.21
492.163	17.14
492.515	17.1
492.866	16.94
493.218	16.72
493.57	16.84
493.922	17
494.274	17.06
494.625	17.16
494.977	17.48
495.328	17.53
495.68	17.52
496.031	17.67
496.383	17.73
496.734	17.75
497.086	17.65
497.437	17.67
497.788	17.77
498.139	17.68
498.49	17.69
498.842	17.76
499.193	17.7
499.544	17.86
499.894	17.89
500.245	17.94
500.596	17.97
500.947	18.17
501.298	18.19
501.648	18.19
501.999	18.22
502.35	18.16
502.7	18.2
503.051	18.36
503.401	18.22
503.752	18.37
504.102	18.44
504.452	18.43
504.803	18.41
505.153	18.5
505.503	18.55
505.853	18.27
506.203	18.44
506.553	18.6
506.903	18.6
507.253	18.61
507.603	18.56
507.953	18.69
508.303	18.7
508.652	18.71
509.002	18.76
509.352	18.72
509.701	18.72
510.051	18.76
510.4	18.59
510.75	18.76
511.099	18.86
511.449	18.75
511.798	18.73
512.147	18.79
512.496	18.83
512.846	18.97
513.195	19.04
513.544	18.99
513.893	18.92
514.242	19
514.591	18.99
514.939	19.05
515.288	19.11
515.637	19.23
515.986	19.23
516.334	19.3
516.683	19.45
517.032	19.3
517.38	19.33
517.729	19.54
518.077	19.48
518.426	19.28
518.774	19.31
519.122	19.19
519.47	19.35
519.819	19.3
520.167	19.14
520.515	19.14
520.863	19.26
521.211	19.35
521.559	19.42
521.907	19.5
522.255	19.47
522.602	19.66
522.95	19.68
523.298	19.66
523.645	19.73
523.993	19.89
524.341	20.05
524.688	19.81
525.036	19.94
525.383	20.08
525.73	19.88
526.078	19.96
526.425	20
526.772	20
527.119	19.85
527.466	19.67
527.814	19.8
528.161	19.75
528.508	19.88
528.854	19.98
529.201	19.83
529.548	19.86
529.895	19.51
530.242	19.47
530.588	19.53
530.935	19.64
531.282	19.7
531.628	19.85
531.975	19.94
532.321	20.01
532.667	20.2
533.014	20.28
533.36	20.24
533.706	20.33
534.052	20.38
534.399	20.25
534.745	19.97
535.091	20.03
535.437	20.13
535.783	20.27
536.129	20.39
536.474	20.53
536.82	20.67
537.166	20.74
537.512	20.57
537.857	20.77
538.203	20.66
538.549	20.56
538.894	20.76
539.239	20.89
539.585	20.82
539.93	21.02
540.276	21
540.621	21.12
540.966	21.17
541.311	21.26
541.656	21.11
542.001	21.06
542.346	20.88
542.691	20.83
543.036	20.66
543.381	20.71
543.726	20.82
544.071	20.83
544.415	21.03
544.76	21.06
545.105	21.08
545.449	21.31
545.794	21.23
546.138	21.36
546.483	21.47
546.827	21.58
547.171	21.68
547.516	21.72
547.86	21.65
548.204	21.61
548.548	21.56
548.892	21.68
549.236	21.79
549.58	21.79
549.924	21.85
550.268	22.01
550.612	21.99
550.956	22.29
551.3	22.24
551.643	22.37
551.987	22.33
552.33	22.32
552.674	22.3
553.017	22.61
553.361	22.39
553.704	22.31
554.048	22.14
554.391	22.42
554.734	22.31
555.077	22.61
555.42	22.42
555.764	22.49
556.107	22.54
556.45	22.66
556.793	22.87
557.135	22.92
557.478	22.86
557.821	23.11
558.164	22.83
558.507	22.75
558.849	22.88
559.192	22.9
559.534	22.95
559.877	22.89
560.219	22.9
560.562	23.2
560.904	23.27
561.246	23.21
561.589	23.25
561.931	22.98
562.273	23.17
562.615	23.35
562.957	23.01
563.299	23.42
563.641	23.25
563.983	23.3
564.325	23.42
564.667	23.52
565.008	23.59
565.35	23.52
565.692	23.64
566.033	23.64
566.375	23.69
566.716	23.61
567.058	23.83
567.399	23.55
567.741	23.75
568.082	23.53
568.423	23.55
568.764	23.75
569.105	23.66
569.447	24.01
569.788	23.97
570.129	23.88
570.47	23.8
570.811	23.98
571.151	23.94
571.492	24.13
571.833	24.11
572.174	24.02
572.514	23.86
572.855	23.93
573.195	24.03
573.536	23.88
573.876	24.08
574.217	24.03
574.557	23.98
574.898	24.36
575.238	24.27
575.578	23.99
575.918	24.35
576.258	24.34
576.598	24.28
576.938	24.35
577.278	24.52
577.618	24.49
577.958	24.27
578.298	24.46
578.638	24.65
578.977	24.62
579.317	24.37
579.657	24.65
579.996	24.89
580.336	25.05
580.675	24.92
581.014	24.65
581.354	24.76
581.693	24.87
582.032	24.91
582.372	24.82
582.711	24.89
583.05	25
583.389	24.89
583.728	25.19
584.067	25.19
584.406	25.25
584.745	25.53
585.083	24.94
585.422	25.32
585.761	25.19
586.1	25.3
586.438	25.46
586.777	25.56
587.115	25.2
587.454	25.59
587.792	25.32
588.13	25.61
588.469	25.56
588.807	25.47
589.145	25.45
589.483	25.56
589.821	25.51
590.159	25.94
590.497	25.7
590.835	25.65
591.173	25.86
591.511	25.63
591.849	25.89
592.187	25.7
592.524	26.11
592.862	25.78
593.2	25.85
593.537	26.22
593.875	26.07
594.212	25.97
594.55	26.19
594.887	26.18
595.224	26.2
595.561	26.14
595.899	26.06
596.236	26.3
596.573	26.01
596.91	26.26
597.247	26.26
597.584	26.18
597.921	26.25
598.258	26.35
598.594	26.15
598.931	26.16
599.268	26.24
599.604	26.34
599.941	26.55
600.277	26.51
600.614	26.36
600.95	26.33
601.287	26.21
601.623	26.66
601.959	26.76
602.296	26.73
602.632	26.43
602.968	26.7
603.304	26.88
603.64	27.02
603.976	26.62
604.312	27.05
604.648	26.65
604.984	26.78
605.319	26.59
605.655	26.58
605.991	26.7
606.326	26.93
606.662	27.06
606.998	26.72
607.333	27.09
607.668	26.88
608.004	26.96
608.339	26.98
608.674	27.19
609.01	27.24
609.345	27.29
609.68	27.18
610.015	27.39
610.35	27.06
610.685	27.13
611.02	27.22
611.355	27.21
611.689	27.34
612.024	27.29
612.359	27.5
612.694	27.6
613.028	27.58
613.363	27.64
613.697	27.36
614.032	27.76
614.366	27.45
614.7	27.56
615.035	27.83
615.369	27.61
615.703	27.73
616.037	27.73
616.371	27.82
616.705	28.21
617.039	28.11
617.373	28.05
617.707	27.57
618.041	27.8
618.375	27.69
618.709	28.29
619.042	28.15
619.376	27.98
619.71	28.3
620.043	27.86
620.377	28.34
620.71	28.45
621.043	28.65
621.377	28.89
621.71	28.59
622.043	28.34
622.376	28.01
622.709	28.34
623.043	28.15
623.376	28.34
623.709	28.31
624.041	28.29
624.374	28.48
624.707	28.46
625.04	28.47
625.373	28.45
625.705	28.14
626.038	28.29
626.37	28.63
626.703	28.79
627.035	28.56
627.368	28.6
627.7	28.87
628.032	28.81
628.365	28.62
628.697	28.75
629.029	28.72
629.361	28.49
629.693	28.92
630.025	28.86
630.357	28.63
630.689	28.65
631.021	28.82
631.353	28.76
631.684	28.76
632.016	28.81
632.348	29.52
632.679	29.36
633.011	28.86
633.342	28.94
633.674	29.45
634.005	29.26
634.336	29.09
634.668	29.11
634.999	29.37
635.33	29.35
635.661	28.99
635.992	29.48
636.323	29.4
636.654	29.31
636.985	29.15
637.316	29.34
637.647	29.79
637.977	29.21
638.308	29.22
638.639	29.59
638.969	29.63
639.3	29.25
639.63	29.94
639.961	29.77
640.291	29.64
640.622	29.16
640.952	29.68
641.282	29.77
641.612	29.44
641.943	29.78
642.273	29.95
642.603	30.06
642.933	30.24
643.263	29.25
643.592	30.24
643.922	29.65
644.252	30.16
644.582	30.14
644.911	30.24
645.241	30.37
645.571	30.12
645.9	30.23
646.23	30.01
646.559	30
646.888	30.36
647.218	29.87
647.547	30.12
647.876	30.44
648.205	29.85
648.534	30.16
648.863	30.11
649.192	30.71
649.521	30.62
649.85	29.93
650.179	30.3
650.508	30.55
650.837	30.07
651.165	30.88
651.494	30.31
651.822	30.56
652.151	30.23
652.479	30.29
652.808	29.68
653.136	30.8
653.465	30.74
653.793	30.81
654.121	30.87
654.449	30.96
654.777	30.58
655.105	30.57
655.433	30.79
655.761	30.84
656.089	30.35
656.417	30.76
656.745	30.51
657.073	30.97
657.4	30.66
657.728	30.75
658.056	30.4
658.383	31.05
658.711	31.12
659.038	31.25
659.365	30.97
659.693	31.23
660.02	30.28
660.347	31.49
660.674	31.06
661.001	31.03
661.329	31.64
661.656	31.35
661.982	30.91
662.309	30.81
662.636	31.14
662.963	31.15
663.29	31.29
663.616	31.61
663.943	31.49
664.27	31.44
664.596	30.67
664.923	31.37
665.249	30.69
665.576	31.24
665.902	31.46
666.228	31.41
666.554	31.53
666.881	31.31
667.207	31.36
667.533	31.22
667.859	31.32
668.185	31.88
668.511	31.36
668.837	32.17
669.162	31.87
669.488	31.75
669.814	31.85
670.139	32.02
670.465	32.08
670.791	31.2
671.116	32.23
671.442	31.51
671.767	31.28
672.092	31.5
672.418	31.9
672.743	32.05
