Data from 0017_chest_Reflection__2__68.txt Node

Date: Mon Oct 17 14:57:34 CDT 2022
User: ToomeyLab
Spectrometer: FLMS14357
Trigger mode: 0
Integration Time (sec): 1.000000E-2
Scans to average: 100
Electric dark correction enabled: true
Nonlinearity correction enabled: false
Boxcar width: 0
XAxis mode: Wavelengths
Number of Pixels in Spectrum: 2048
>>>>>Begin Spectral Data<<<<<
189.047	-257.5
189.435	-257.5
189.823	-257.5
190.211	490.93
190.599	-292.06
190.987	-1745.5
191.375	110.7
191.763	77.82
192.151	0.86
192.538	-211.93
192.926	46.79
193.314	834.64
193.702	-881.5
194.089	72.83
194.477	270.91
194.864	-9.79
195.252	-11.16
195.639	-414.31
196.027	102.98
196.414	121.59
196.801	252.61
197.189	82.77
197.576	51.34
197.963	-77.22
198.351	-213.13
198.738	5.6
199.125	-41.16
199.512	-52.55
199.899	12.6
200.286	11.75
200.673	31.41
201.06	-46.16
201.447	64.42
201.833	44.41
202.22	24.63
202.607	-54.49
202.994	5.95
203.38	7.87
203.767	32.15
204.154	14.27
204.54	-6.78
204.927	-14.27
205.313	-17.59
205.699	62.7
206.086	3.54
206.472	40.22
206.858	23.53
207.245	1.8
207.631	33.84
208.017	79.03
208.403	41.76
208.789	12.71
209.175	-0.46
209.561	-67.24
209.947	-17.45
210.333	24.72
210.719	31.51
211.105	14.21
211.491	-10.01
211.876	-28.34
212.262	78.2
212.648	-19.91
213.034	-17.11
213.419	-2.75
213.805	5.29
214.19	-2.15
214.576	-24.27
214.961	15.34
215.346	1.94
215.732	1.44
216.117	15.38
216.502	7.07
216.888	0.39
217.273	-4.16
217.658	12.42
218.043	19.11
218.428	15.42
218.813	14.5
219.198	-4.02
219.583	-51.34
219.968	17.76
220.353	-16.22
220.738	-4.12
221.122	-15.84
221.507	-9.59
221.892	15.51
222.276	-3.24
222.661	1.85
223.046	-4.05
223.43	23.59
223.815	-2.52
224.199	7.44
224.583	-4.62
224.968	-10.89
225.352	-14.1
225.736	8.19
226.121	0.63
226.505	2.84
226.889	6.42
227.273	1.18
227.657	4.21
228.041	1.94
228.425	3
228.809	2.19
229.193	1.17
229.577	1.83
229.961	2.57
230.344	0.76
230.728	0.74
231.112	1.71
231.495	1.74
231.879	1.88
232.263	1.7
232.646	1.87
233.03	1.33
233.413	-0.66
233.797	2.04
234.18	2.41
234.563	0.96
234.946	1.22
235.33	1.47
235.713	1.26
236.096	1.95
236.479	1.1
236.862	1.24
237.245	0.31
237.628	2.37
238.011	2.63
238.394	2.34
238.777	0.93
239.16	1.43
239.543	0.4
239.925	1.45
240.308	1.07
240.691	0.87
241.073	3.27
241.456	0.71
241.838	1.06
242.221	0.97
242.603	1.61
242.986	1.28
243.368	2.18
243.75	1.7
244.133	1.59
244.515	1.49
244.897	1.43
245.279	2.27
245.661	1.62
246.043	1.79
246.425	0.6
246.807	0.87
247.189	2.26
247.571	1.24
247.953	1.65
248.335	1.66
248.717	1.66
249.098	1.87
249.48	1.67
249.862	1.47
250.243	1.46
250.625	1.73
251.006	1.15
251.388	2.35
251.769	1.85
252.151	1.36
252.532	1.73
252.913	2.39
253.295	0.87
253.676	1.9
254.057	1.9
254.438	2.13
254.819	3.11
255.2	2.04
255.581	3.02
255.962	1.23
256.343	0.67
256.724	2.47
257.105	1.38
257.486	-0.09
257.867	1.19
258.247	0.83
258.628	1.5
259.009	2.49
259.389	1.86
259.77	1.08
260.15	1.46
260.531	0.98
260.911	1.6
261.292	1.74
261.672	1.67
262.052	1.68
262.432	1.76
262.813	1.71
263.193	1.3
263.573	2.18
263.953	1.7
264.333	1.76
264.713	1.64
265.093	2.05
265.473	1.92
265.853	1.49
266.233	2.4
266.612	1.33
266.992	2.22
267.372	1.95
267.752	1.82
268.131	1.74
268.511	1.51
268.89	2.24
269.27	1.44
269.649	1.71
270.029	1.46
270.408	1.97
270.787	1.35
271.167	1.25
271.546	1.37
271.925	1.71
272.304	1.34
272.683	1.84
273.062	1.39
273.441	1.57
273.82	1.53
274.199	2.13
274.578	2.02
274.957	1.53
275.336	2.13
275.715	1.52
276.093	1.86
276.472	1.72
276.851	1.83
277.229	1.45
277.608	1.27
277.986	1.72
278.365	1.8
278.743	1.73
279.122	1.43
279.5	1.81
279.878	1.85
280.257	1.49
280.635	1.41
281.013	1.7
281.391	1.41
281.769	1.32
282.147	1.78
282.525	1.72
282.903	1.22
283.281	1.33
283.659	1.48
284.037	1.49
284.415	1.77
284.792	1.71
285.17	1.14
285.548	1.15
285.925	1.53
286.303	1.39
286.68	1.66
287.058	1.73
287.435	1.78
287.813	1.5
288.19	1.4
288.567	1.63
288.945	1.49
289.322	2.01
289.699	1.8
290.076	1.81
290.453	1.87
290.83	1.67
291.207	1.84
291.584	1.58
291.961	1.65
292.338	1.82
292.715	1.55
293.092	1.62
293.469	1.54
293.845	1.97
294.222	2.11
294.599	2.22
294.975	1.64
295.352	1.51
295.728	1.45
296.105	1.6
296.481	1.69
296.858	2.14
297.234	1.49
297.61	1.4
297.986	1.42
298.363	1.85
298.739	2.03
299.115	1.65
299.491	1.8
299.867	1.67
300.243	2.04
300.619	1.6
300.995	2.08
301.371	1.64
301.746	1.82
302.122	1.51
302.498	1.73
302.874	2.21
303.249	1.91
303.625	1.6
304	1.69
304.376	1.83
304.751	2.42
305.127	2.09
305.502	2.16
305.878	2.07
306.253	1.89
306.628	1.83
307.003	1.97
307.378	2.27
307.754	1.34
308.129	1.46
308.504	2.02
308.879	2.46
309.254	1.88
309.629	1.77
310.003	2.32
310.378	1.62
310.753	1.79
311.128	2.07
311.502	2.07
311.877	2.09
312.252	2
312.626	1.53
313.001	1.55
313.375	1.5
313.75	2.02
314.124	2.02
314.498	2
314.873	2.03
315.247	1.98
315.621	2.35
315.995	1.8
316.369	1.51
316.743	1.92
317.117	2.25
317.491	1.65
317.865	2.3
318.239	2.57
318.613	1.81
318.987	1.69
319.361	1.78
319.734	1.81
320.108	2.28
320.482	2.03
320.855	1.79
321.229	2
321.602	1.88
321.976	1.47
322.349	2.39
322.723	2.02
323.096	2.05
323.469	2.06
323.843	1.79
324.216	2.26
324.589	1.92
324.962	1.66
325.335	1.7
325.708	2.15
326.081	1.95
326.454	2.14
326.827	1.92
327.2	1.96
327.573	1.9
327.945	2.09
328.318	2.03
328.691	2.31
329.063	2.02
329.436	1.81
329.809	1.84
330.181	2.03
330.553	1.65
330.926	2.18
331.298	1.92
331.671	2.6
332.043	2.2
332.415	2.19
332.787	1.65
333.159	1.91
333.532	1.4
333.904	1.7
334.276	1.83
334.648	1.59
335.02	1.99
335.391	2.56
335.763	2.04
336.135	1.76
336.507	2.15
336.879	2.44
337.25	2.49
337.622	2.08
337.993	1.78
338.365	2.28
338.736	1.97
339.108	2.06
339.479	1.86
339.851	2.09
340.222	1.57
340.593	2.1
340.964	1.85
341.336	2.18
341.707	2.15
342.078	2.31
342.449	2.03
342.82	1.93
343.191	2.38
343.562	1.71
343.933	1.81
344.303	1.8
344.674	2.16
345.045	2.33
345.416	2.21
345.786	2.11
346.157	1.64
346.527	1.79
346.898	2.36
347.268	2.25
347.639	1.89
348.009	2.29
348.38	1.73
348.75	2.26
349.12	2.33
349.49	1.91
349.861	2.14
350.231	2.2
350.601	2.07
350.971	2.03
351.341	1.96
351.711	2.01
352.081	2.01
352.45	2.19
352.82	2.01
353.19	2.05
353.56	1.69
353.929	2.23
354.299	2.26
354.669	2.07
355.038	2.31
355.408	2.07
355.777	2.04
356.147	2.34
356.516	2.1
356.885	1.98
357.254	1.98
357.624	2.47
357.993	2.37
358.362	2.26
358.731	1.91
359.1	2
359.469	1.87
359.838	2.34
360.207	2.08
360.576	1.82
360.945	2.22
361.314	2.31
361.682	2.03
362.051	2.2
362.42	1.94
362.788	2.26
363.157	2.34
363.525	2
363.894	2.12
364.262	2.26
364.631	2.21
364.999	2.19
365.367	2.14
365.735	2.14
366.104	2.2
366.472	2.07
366.84	2.33
367.208	2.34
367.576	2.46
367.944	2.08
368.312	2.19
368.68	2.35
369.048	2.21
369.416	2.18
369.783	2.23
370.151	2.41
370.519	2.35
370.886	2.32
371.254	2.1
371.621	2.14
371.989	2.59
372.356	2.46
372.724	2.44
373.091	2.3
373.458	2.07
373.826	2.39
374.193	2.31
374.56	2.18
374.927	2.35
375.294	2.37
375.661	2.33
376.028	2.52
376.395	1.99
376.762	2.44
377.129	2.3
377.496	2.22
377.863	2.14
378.229	2.1
378.596	2.28
378.963	2.35
379.329	2.08
379.696	2.12
380.062	2.5
380.429	2.2
380.795	2.33
381.161	2.36
381.528	2.43
381.894	2.2
382.26	2
382.626	2.57
382.993	2.37
383.359	2.11
383.725	2.33
384.091	2.44
384.457	2.06
384.823	1.92
385.188	1.91
385.554	2.22
385.92	2.44
386.286	2.56
386.651	2.37
387.017	2.02
387.383	2.23
387.748	2.18
388.114	2.02
388.479	2.26
388.845	2.44
389.21	2.07
389.575	2.36
389.94	2.64
390.306	2.44
390.671	2.56
391.036	2.56
391.401	2.21
391.766	2.43
392.131	2.39
392.496	2.53
392.861	2.16
393.226	2.49
393.591	2.27
393.956	2.25
394.32	2.3
394.685	2.27
395.05	2.51
395.414	2.39
395.779	2.31
396.143	2.33
396.508	2.26
396.872	2.19
397.236	2.33
397.601	2.56
397.965	2.31
398.329	2.44
398.694	2.4
399.058	2.28
399.422	2.7
399.786	2.33
400.15	2.56
400.514	2.32
400.878	2.35
401.242	2.27
401.605	2.6
401.969	2.33
402.333	2.3
402.697	2.32
403.06	2.25
403.424	2.44
403.787	2.32
404.151	2.48
404.514	2.48
404.878	2.52
405.241	2.54
405.604	2.45
405.968	2.53
406.331	2.3
406.694	2.34
407.057	2.24
407.42	2.42
407.783	2.43
408.146	2.35
408.509	2.57
408.872	2.43
409.235	2.52
409.598	2.33
409.961	2.28
410.323	2.31
410.686	2.42
411.049	2.33
411.411	2.65
411.774	2.26
412.136	2.44
412.499	2.47
412.861	2.56
413.223	2.43
413.586	2.47
413.948	2.49
414.31	2.25
414.672	2.33
415.035	2.45
415.397	2.49
415.759	2.63
416.121	2.34
416.483	2.73
416.845	2.49
417.206	2.39
417.568	2.71
417.93	2.42
418.292	2.58
418.653	2.45
419.015	2.33
419.377	2.54
419.738	2.45
420.1	2.57
420.461	2.49
420.822	2.55
421.184	2.36
421.545	2.39
421.906	2.42
422.267	2.35
422.629	2.34
422.99	2.34
423.351	2.36
423.712	2.38
424.073	2.48
424.434	2.49
424.795	2.56
425.155	2.55
425.516	2.35
425.877	2.39
426.238	2.43
426.598	2.42
426.959	2.4
427.32	2.53
427.68	2.39
428.041	2.43
428.401	2.65
428.761	2.41
429.122	2.56
429.482	2.6
429.842	2.36
430.202	2.56
430.563	2.54
430.923	2.53
431.283	2.69
431.643	2.62
432.003	2.45
432.363	2.67
432.722	2.41
433.082	2.53
433.442	2.62
433.802	2.47
434.161	2.49
434.521	2.79
434.881	2.52
435.24	2.46
435.6	2.64
435.959	2.53
436.319	2.64
436.678	2.54
437.037	2.48
437.396	2.49
437.756	2.64
438.115	2.5
438.474	2.52
438.833	2.23
439.192	2.43
439.551	2.51
439.91	2.47
440.269	2.56
440.628	2.38
440.987	2.53
441.345	2.48
441.704	2.57
442.063	2.5
442.421	2.54
442.78	2.47
443.138	2.61
443.497	2.62
443.855	2.62
444.214	2.66
444.572	2.55
444.93	2.57
445.288	2.62
445.647	2.66
446.005	2.76
446.363	2.63
446.721	2.52
447.079	2.52
447.437	2.63
447.795	2.65
448.153	2.64
448.51	2.61
448.868	2.63
449.226	2.58
449.584	2.65
449.941	2.66
450.299	2.56
450.656	2.62
451.014	2.66
451.371	2.72
451.729	2.64
452.086	2.66
452.443	2.78
452.801	2.62
453.158	2.87
453.515	2.68
453.872	2.63
454.229	2.65
454.586	2.64
454.943	2.65
455.3	2.75
455.657	2.67
456.014	2.7
456.371	2.72
456.727	2.53
457.084	2.71
457.441	2.77
457.797	2.68
458.154	2.69
458.51	2.61
458.867	2.77
459.223	2.73
459.58	2.69
459.936	2.7
460.292	2.78
460.648	2.61
461.005	2.68
461.361	2.72
461.717	2.66
462.073	2.67
462.429	2.67
462.785	2.77
463.141	2.77
463.496	2.7
463.852	2.72
464.208	2.8
464.564	2.73
464.919	2.75
465.275	2.87
465.631	2.85
465.986	2.72
466.342	2.9
466.697	2.84
467.052	2.63
467.408	2.8
467.763	2.54
468.118	2.84
468.473	2.99
468.829	2.82
469.184	2.74
469.539	2.72
469.894	2.78
470.249	2.85
470.603	2.9
470.958	2.89
471.313	2.85
471.668	2.74
472.023	2.73
472.377	2.99
472.732	2.77
473.086	3.07
473.441	2.87
473.795	2.83
474.15	2.82
474.504	2.97
474.859	2.9
475.213	3
475.567	3.1
475.921	2.65
476.275	2.88
476.63	3.02
476.984	3.1
477.338	2.86
477.692	2.93
478.045	2.93
478.399	2.87
478.753	2.92
479.107	2.77
479.461	2.88
479.814	2.9
480.168	2.86
480.521	2.9
480.875	2.87
481.228	2.84
481.582	3.03
481.935	2.95
482.289	2.89
482.642	2.88
482.995	2.79
483.348	2.92
483.701	2.88
484.055	2.91
484.408	2.89
484.761	2.77
485.114	2.72
485.466	2.69
485.819	2.63
486.172	2.7
486.525	2.77
486.878	2.87
487.23	2.87
487.583	2.91
487.936	2.89
488.288	2.79
488.641	2.7
488.993	2.76
489.345	2.75
489.698	2.78
490.05	2.78
490.402	2.84
490.754	2.87
491.107	2.87
491.459	2.97
491.811	2.95
492.163	2.93
492.515	2.94
492.866	2.8
493.218	2.83
493.57	2.86
493.922	2.92
494.274	2.96
494.625	3.04
494.977	3.04
495.328	2.97
495.68	3.09
496.031	3.16
496.383	3.1
496.734	3.04
497.086	2.9
497.437	3.01
497.788	3.03
498.139	2.91
498.49	3.06
498.842	3
499.193	3
499.544	3.01
499.894	3.12
500.245	2.95
500.596	2.92
500.947	3.23
501.298	3.22
501.648	3.01
501.999	3.12
502.35	3.21
502.7	3.13
503.051	3.22
503.401	3.33
503.752	3.29
504.102	3.21
504.452	3.1
504.803	3.25
505.153	3.15
505.503	3.22
505.853	3.05
506.203	3.18
506.553	3.13
506.903	3.24
507.253	3.14
507.603	3.22
507.953	3.21
508.303	3.29
508.652	3.18
509.002	3.31
509.352	3.15
509.701	3.29
510.051	3.32
510.4	3.07
510.75	3.23
511.099	3.27
511.449	3.26
511.798	3.27
512.147	3.29
512.496	3.22
512.846	3.22
513.195	3.37
513.544	3.27
513.893	3.22
514.242	3.28
514.591	3.22
514.939	3.28
515.288	3.17
515.637	3.26
515.986	3.29
516.334	3.39
516.683	3.49
517.032	3.38
517.38	3.27
517.729	3.4
518.077	3.39
518.426	3.43
518.774	3.32
519.122	3.35
519.47	3.39
519.819	3.46
520.167	3.32
520.515	3.31
520.863	3.36
521.211	3.39
521.559	3.46
521.907	3.46
522.255	3.5
522.602	3.42
522.95	3.54
523.298	3.43
523.645	3.54
523.993	3.53
524.341	3.62
524.688	3.49
525.036	3.48
525.383	3.48
525.73	3.49
526.078	3.48
526.425	3.49
526.772	3.46
527.119	3.44
527.466	3.42
527.814	3.44
528.161	3.49
528.508	3.58
528.854	3.39
529.201	3.49
529.548	3.48
529.895	3.41
530.242	3.37
530.588	3.41
530.935	3.47
531.282	3.48
531.628	3.53
531.975	3.55
532.321	3.48
532.667	3.75
533.014	3.71
533.36	3.74
533.706	3.7
534.052	3.64
534.399	3.65
534.745	3.56
535.091	3.57
535.437	3.64
535.783	3.66
536.129	3.69
536.474	3.78
536.82	3.86
537.166	3.84
537.512	3.79
537.857	3.85
538.203	3.75
538.549	3.78
538.894	3.83
539.239	3.82
539.585	3.84
539.93	3.9
540.276	3.95
540.621	3.93
540.966	3.96
541.311	3.91
541.656	3.88
542.001	3.95
542.346	3.86
542.691	3.89
543.036	3.76
543.381	3.8
543.726	3.85
544.071	3.93
544.415	4.02
544.76	3.98
545.105	3.96
545.449	4.04
545.794	3.97
546.138	4.06
546.483	4.1
546.827	4.2
547.171	3.93
547.516	4.21
547.86	4.18
548.204	4.1
548.548	4.15
548.892	4.2
549.236	4.24
549.58	4.21
549.924	4.24
550.268	4.31
550.612	4.39
550.956	4.45
551.3	4.24
551.643	4.3
551.987	4.3
552.33	4.52
552.674	4.39
553.017	4.53
553.361	4.41
553.704	4.37
554.048	4.36
554.391	4.63
554.734	4.41
555.077	4.5
555.42	4.56
555.764	4.48
556.107	4.57
556.45	4.58
556.793	4.6
557.135	4.73
557.478	4.6
557.821	4.66
558.164	4.62
558.507	4.68
558.849	4.55
559.192	4.39
559.534	4.69
559.877	4.54
560.219	4.5
560.562	4.46
560.904	4.69
561.246	4.79
561.589	4.99
561.931	4.81
562.273	4.83
562.615	4.68
562.957	4.95
563.299	4.84
563.641	4.88
563.983	4.86
564.325	5.08
564.667	5.21
565.008	5.15
565.35	4.87
565.692	5.05
566.033	5.1
566.375	4.99
566.716	5.1
567.058	5
567.399	4.93
567.741	5.05
568.082	4.94
568.423	5.01
568.764	5.03
569.105	5.16
569.447	5.26
569.788	5.22
570.129	5.11
570.47	5.2
570.811	5.39
571.151	5.29
571.492	5.34
571.833	5.32
572.174	5.4
572.514	5.33
572.855	5.32
573.195	5.56
573.536	5.43
573.876	5.41
574.217	5.35
574.557	5.28
574.898	5.34
575.238	5.63
575.578	5.57
575.918	5.65
576.258	5.42
576.598	5.5
576.938	5.48
577.278	5.67
577.618	5.66
577.958	5.62
578.298	5.64
578.638	5.63
578.977	5.86
579.317	5.52
579.657	5.75
579.996	5.81
580.336	5.94
580.675	5.95
581.014	5.78
581.354	5.97
581.693	5.86
582.032	5.82
582.372	5.94
582.711	5.9
583.05	6.11
583.389	5.91
583.728	6.04
584.067	6.06
584.406	6.04
584.745	6.33
585.083	6.39
585.422	6.36
585.761	6.44
586.1	6.28
586.438	6.33
586.777	6.25
587.115	6.28
587.454	6.34
587.792	6.55
588.13	6.4
588.469	6.39
588.807	6.44
589.145	6.36
589.483	6.34
589.821	6.33
590.159	6.53
590.497	6.53
590.835	6.63
591.173	6.67
591.511	6.5
591.849	6.5
592.187	6.49
592.524	6.72
592.862	6.43
593.2	6.92
593.537	6.9
593.875	6.88
594.212	7.06
594.55	6.67
594.887	6.87
595.224	7
595.561	6.96
595.899	6.84
596.236	7.19
596.573	6.91
596.91	6.81
597.247	6.86
597.584	6.83
597.921	7.05
598.258	7.05
598.594	7.01
598.931	6.85
599.268	6.98
599.604	6.98
599.941	7.1
600.277	7.24
600.614	7.41
600.95	7.34
601.287	7.06
601.623	7.24
601.959	7.28
602.296	7.39
602.632	7.35
602.968	7.52
603.304	7.58
603.64	7.44
603.976	7.49
604.312	7.5
604.648	7.3
604.984	7.52
605.319	7.3
605.655	7.7
605.991	7.62
606.326	7.63
606.662	7.6
606.998	7.55
607.333	7.57
607.668	7.77
608.004	7.9
608.339	7.84
608.674	7.91
609.01	8.06
609.345	7.97
609.68	7.89
610.015	8.31
610.35	7.78
610.685	7.98
611.02	8.14
611.355	7.95
611.689	7.96
612.024	8.26
612.359	8.08
612.694	8.41
613.028	7.93
613.363	8.41
613.697	8.25
614.032	8.4
614.366	8.45
614.7	8.45
615.035	8.36
615.369	8.7
615.703	8.24
616.037	8.76
616.371	8.48
616.705	8.65
617.039	8.84
617.373	8.58
617.707	8.56
618.041	8.74
618.375	8.5
618.709	8.91
619.042	8.73
619.376	8.73
619.71	8.78
620.043	8.67
620.377	9.28
620.71	9.19
621.043	9.09
621.377	9.16
621.71	9.13
622.043	9.08
622.376	8.8
622.709	9.38
623.043	9.02
623.376	9
623.709	9.33
624.041	8.82
624.374	9.47
624.707	9.2
625.04	9.36
625.373	9.48
625.705	8.94
626.038	9
626.37	9.59
626.703	9.52
627.035	9.2
627.368	9.53
627.7	9.56
628.032	9.9
628.365	9.46
628.697	9.56
629.029	9.32
629.361	9.42
629.693	9.73
630.025	9.6
630.357	9.47
630.689	9.62
631.021	9.73
631.353	9.41
631.684	9.56
632.016	10.03
632.348	10.29
632.679	9.99
633.011	9.58
633.342	9.94
633.674	10.25
634.005	9.92
634.336	9.68
634.668	10.5
634.999	10.38
635.33	10.23
635.661	10.31
635.992	10.03
636.323	10.47
636.654	10.23
636.985	10.2
637.316	10.11
637.647	10.5
637.977	10.17
638.308	10.28
638.639	10.24
638.969	10.48
639.3	10.48
639.63	10.6
639.961	10.36
640.291	10.54
640.622	10.7
640.952	10.83
641.282	10.49
641.612	10.74
641.943	10.38
642.273	10.63
642.603	10.43
642.933	11.17
643.263	11.31
643.592	10.61
643.922	11.11
644.252	10.74
644.582	11.35
644.911	11.66
645.241	11.56
645.571	10.85
645.9	11.47
646.23	11.04
646.559	11.14
646.888	11.46
647.218	11.47
647.547	11.27
647.876	11.86
648.205	11.22
648.534	11.36
648.863	11.08
649.192	11.48
649.521	11.6
649.85	11.58
650.179	12
650.508	11.15
650.837	11.71
651.165	11.85
651.494	11.41
651.822	11.56
652.151	11.64
652.479	12.25
652.808	11.58
653.136	12.04
653.465	11.55
653.793	11.43
654.121	11.79
654.449	11.85
654.777	12.23
655.105	11.65
655.433	12.01
655.761	12.07
656.089	12.02
656.417	12.64
656.745	11.64
657.073	12.32
657.4	11.6
657.728	12.09
658.056	11.71
658.383	12.21
658.711	12.43
659.038	12.13
659.365	12.06
659.693	12.39
660.02	12.28
660.347	12.67
660.674	12.28
661.001	11.87
661.329	12.58
661.656	12.16
661.982	12.57
662.309	12.63
662.636	12.58
662.963	12.43
663.29	12.53
663.616	12.55
663.943	12.75
664.27	12.77
664.596	12.4
664.923	12.99
665.249	12.51
665.576	12.6
665.902	12.88
666.228	12.74
666.554	13.15
666.881	12.99
667.207	13.42
667.533	12.79
667.859	13.18
668.185	13.27
668.511	13.43
668.837	13.19
669.162	13.21
669.488	12.94
669.814	13.62
670.139	13.36
670.465	13.44
670.791	13.36
671.116	13.82
671.442	13.66
671.767	13.65
672.092	12.95
672.418	14.27
672.743	13.43
673.068	13.71
673.393	13.4
673.718	13.7
674.043	13.69
674.368	13.23
674.693	13.44
675.018	13.92
675.343	14.35
675.667	14.12
675.992	12.96
676.317	13.67
676.641	13.93
676.966	14.01
677.29	14.19
677.615	13.71
677.939	14.14
678.264	14.32
678.588	14.43
678.912	14.6
679.236	14.79
679.56	14.03
679.885	14.27
680.209	14.3
680.532	14.16
680.856	14.45
681.18	14.46
681.504	14.38
681.828	14.55
682.152	14.2
682.475	14.77
682.799	14.59
683.122	14.29
683.446	14.67
683.769	14.88
684.093	14.7
684.416	14.87
684.739	14.5
685.062	15.09
685.386	14.84
685.709	14.84
686.032	15.56
686.355	14.52
686.678	14.37
687.001	15.67
687.324	14.52
687.646	14.88
687.969	14.68
688.292	15.74
688.614	15.11
688.937	16.45
