Data from 0017_forehead_Reflection__3__79.txt Node

Date: Mon Oct 17 15:01:12 CDT 2022
User: ToomeyLab
Spectrometer: FLMS14357
Trigger mode: 0
Integration Time (sec): 1.000000E-2
Scans to average: 100
Electric dark correction enabled: true
Nonlinearity correction enabled: false
Boxcar width: 0
XAxis mode: Wavelengths
Number of Pixels in Spectrum: 2048
>>>>>Begin Spectral Data<<<<<
189.047	173.93
189.435	173.93
189.823	173.93
190.211	936.03
190.599	199.14
190.987	-197.5
191.375	133.9
191.763	-14.98
192.151	190.81
192.538	-47.81
192.926	65.02
193.314	393.69
193.702	1402.5
194.089	1.48
194.477	179.64
194.864	-112.2
195.252	114.65
195.639	-161.65
196.027	80.84
196.414	-111.22
196.801	59.36
197.189	89.39
197.576	146.57
197.963	-78.27
198.351	-249.35
198.738	-28.32
199.125	-53.6
199.512	-84.46
199.899	-14.65
200.286	55.52
200.673	-6.51
201.06	-13.21
201.447	37.27
201.833	27.84
202.22	14.9
202.607	-26.55
202.994	-15.02
203.38	62.07
203.767	9.89
204.154	58.42
204.54	43.35
204.927	9.83
205.313	-11.41
205.699	9.21
206.086	-75.11
206.472	-18.22
206.858	16.85
207.245	8.54
207.631	18.5
208.017	12.45
208.403	21.7
208.789	13.22
209.175	-12.38
209.561	-71.62
209.947	-45.13
210.333	21.01
210.719	-7.4
211.105	9
211.491	-13.56
211.876	-15.37
212.262	8.95
212.648	-7.57
213.034	-15.7
213.419	53.17
213.805	-6.5
214.19	-1.5
214.576	-9.46
214.961	-15.12
215.346	-21.26
215.732	-35.24
216.117	25.35
216.502	15.43
216.888	5.61
217.273	14.6
217.658	14.48
218.043	18.33
218.428	-36.91
218.813	16.51
219.198	2.85
219.583	3.83
219.968	6.72
220.353	-5.52
220.738	-9.26
221.122	2.91
221.507	-4.48
221.892	9.94
222.276	-2.8
222.661	8.37
223.046	2.93
223.43	0.52
223.815	-2.12
224.199	1.89
224.583	-9.48
224.968	-2.58
225.352	-7.58
225.736	-0.55
226.121	-5.31
226.505	2.65
226.889	-3.43
227.273	-1.63
227.657	3.02
228.041	3.29
228.425	-2.52
228.809	3.97
229.193	1.14
229.577	1.29
229.961	3.22
230.344	0.42
230.728	1.07
231.112	0.87
231.495	0.75
231.879	0.79
232.263	1.99
232.646	0.7
233.03	0.05
233.413	0.24
233.797	2.03
234.18	3.18
234.563	-1.12
234.946	2.23
235.33	2.63
235.713	0.28
236.096	1.7
236.479	1.34
236.862	0.97
237.245	1.61
237.628	0.09
238.011	1.03
238.394	0.89
238.777	1
239.16	1.59
239.543	1.26
239.925	1.55
240.308	0.55
240.691	0.31
241.073	0.27
241.456	0.58
241.838	0.62
242.221	0.13
242.603	1.22
242.986	0.64
243.368	1.79
243.75	0.99
244.133	1.04
244.515	0.99
244.897	1.77
245.279	2.1
245.661	1.76
246.043	2.16
246.425	0.23
246.807	0.59
247.189	1.54
247.571	0.68
247.953	1.07
248.335	1.21
248.717	1.4
249.098	1.38
249.48	1.14
249.862	1.03
250.243	0.76
250.625	1.33
251.006	0.86
251.388	1.71
251.769	1.19
252.151	0.97
252.532	1.56
252.913	1.14
253.295	0.87
253.676	1.75
254.057	1.58
254.438	1.34
254.819	2.44
255.2	1.78
255.581	1.68
255.962	0.03
256.343	0.77
256.724	0.56
257.105	1.6
257.486	0.32
257.867	0.47
258.247	0.58
258.628	1.72
259.009	2.07
259.389	0.64
259.77	1.08
260.15	1.4
260.531	1.27
260.911	0.97
261.292	1.46
261.672	1.26
262.052	1.44
262.432	1.04
262.813	1.1
263.193	1.03
263.573	1.86
263.953	1.37
264.333	1.12
264.713	0.67
265.093	1.33
265.473	1.24
265.853	0.92
266.233	1.86
266.612	1.37
266.992	1.76
267.372	1.05
267.752	1.25
268.131	1.55
268.511	1.28
268.89	1.85
269.27	1.3
269.649	1.67
270.029	1.17
270.408	1.59
270.787	0.6
271.167	1.1
271.546	1.42
271.925	1.22
272.304	1.83
272.683	1.28
273.062	1.12
273.441	1
273.82	1.51
274.199	1.53
274.578	1.25
274.957	1.11
275.336	1.43
275.715	0.98
276.093	0.82
276.472	1.3
276.851	1.26
277.229	1.32
277.608	1.36
277.986	1.6
278.365	1.53
278.743	1.12
279.122	0.84
279.5	1.65
279.878	2.23
280.257	1.09
280.635	1.25
281.013	1.35
281.391	1.06
281.769	0.82
282.147	1.38
282.525	1.04
282.903	0.91
283.281	1.01
283.659	1.33
284.037	0.97
284.415	1.6
284.792	1.15
285.17	1.06
285.548	0.95
285.925	1.41
286.303	1.3
286.68	1.65
287.058	1.56
287.435	1.74
287.813	1.27
288.19	1.39
288.567	1.44
288.945	1.54
289.322	1.63
289.699	1.7
290.076	1.53
290.453	1.34
290.83	1.71
291.207	1.6
291.584	1.33
291.961	1.68
292.338	1.33
292.715	1.32
293.092	1.45
293.469	1.61
293.845	1.38
294.222	2.16
294.599	1.38
294.975	1.05
295.352	1.24
295.728	1.59
296.105	1.66
296.481	1.89
296.858	2.35
297.234	1.68
297.61	1.7
297.986	1.65
298.363	1.76
298.739	2.01
299.115	1.6
299.491	1.76
299.867	1.95
300.243	1.83
300.619	1.85
300.995	1.91
301.371	1.9
301.746	1.99
302.122	1.75
302.498	2.02
302.874	2.01
303.249	1.96
303.625	2.47
304	2.08
304.376	2.08
304.751	2.59
305.127	1.92
305.502	1.85
305.878	2.01
306.253	1.55
306.628	2.17
307.003	2.18
307.378	2.4
307.754	1.87
308.129	2.11
308.504	2.38
308.879	2.3
309.254	2.25
309.629	1.97
310.003	2.56
310.378	2.46
310.753	2.26
311.128	2.24
311.502	2.6
311.877	2.66
312.252	2.45
312.626	2.34
313.001	2.39
313.375	2.27
313.75	2.47
314.124	2.49
314.498	2.48
314.873	2.15
315.247	2.56
315.621	3.26
315.995	1.94
316.369	2.37
316.743	2.63
317.117	2.73
317.491	2.58
317.865	2.96
318.239	3.38
318.613	2.85
318.987	2.11
319.361	2.75
319.734	2.86
320.108	2.52
320.482	2.62
320.855	2.26
321.229	2.55
321.602	3.04
321.976	2.89
322.349	3.06
322.723	2.93
323.096	3.01
323.469	2.83
323.843	2.49
324.216	3.19
324.589	2.61
324.962	2.89
325.335	2.82
325.708	2.92
326.081	2.98
326.454	3.45
326.827	2.56
327.2	2.46
327.573	2.91
327.945	3.15
328.318	3.03
328.691	2.94
329.063	3.11
329.436	3.21
329.809	2.68
330.181	3.66
330.553	2.85
330.926	3.46
331.298	3.34
331.671	3.54
332.043	2.93
332.415	3.3
332.787	2.78
333.159	3.47
333.532	2.92
333.904	3.31
334.276	3.51
334.648	3.35
335.02	3.7
335.391	3.45
335.763	3.12
336.135	3.42
336.507	3.94
336.879	3.48
337.25	3.69
337.622	3.38
337.993	3.48
338.365	3.45
338.736	3.32
339.108	3.78
339.479	3.39
339.851	4.02
340.222	3.38
340.593	3.52
340.964	3.45
341.336	3.35
341.707	3.51
342.078	3.8
342.449	3.88
342.82	3.58
343.191	3.24
343.562	3.51
343.933	3.72
344.303	3.66
344.674	3.99
345.045	3.97
345.416	3.42
345.786	3.84
346.157	3.22
346.527	3.87
346.898	4.22
347.268	3.77
347.639	3.37
348.009	3.83
348.38	3.96
348.75	3.85
349.12	3.97
349.49	3.68
349.861	4.3
350.231	3.71
350.601	4.11
350.971	3.87
351.341	3.59
351.711	3.41
352.081	3.89
352.45	3.96
352.82	4.36
353.19	3.34
353.56	3.74
353.929	4.32
354.299	4.08
354.669	3.81
355.038	4.21
355.408	4.02
355.777	3.55
356.147	3.66
356.516	3.9
356.885	4.19
357.254	4.17
357.624	4.26
357.993	3.92
358.362	3.82
358.731	3.9
359.1	3.66
359.469	3.9
359.838	4.13
360.207	4.21
360.576	4
360.945	4.1
361.314	4.34
361.682	4.01
362.051	3.91
362.42	3.89
362.788	4.28
363.157	4.2
363.525	3.94
363.894	4.31
364.262	4.43
364.631	4.47
364.999	4.42
365.367	4.07
365.735	4.14
366.104	4.18
366.472	3.94
366.84	4.14
367.208	4.49
367.576	4.29
367.944	4.34
368.312	4.38
368.68	4.58
369.048	4.21
369.416	4.46
369.783	4.83
370.151	4.73
370.519	4.35
370.886	4.84
371.254	4.33
371.621	4.49
371.989	4.5
372.356	4.77
372.724	4.79
373.091	4.52
373.458	4.38
373.826	4.7
374.193	4.71
374.56	4.63
374.927	4.43
375.294	4.27
375.661	4.65
376.028	4.94
376.395	4.58
376.762	4.65
377.129	4.89
377.496	4.64
377.863	4.36
378.229	4.71
378.596	4.77
378.963	4.69
379.329	4.52
379.696	4.73
380.062	5.11
380.429	4.85
380.795	5.03
381.161	4.71
381.528	4.75
381.894	4.78
382.26	4.67
382.626	4.98
382.993	5.27
383.359	4.91
383.725	5.15
384.091	5
384.457	4.92
384.823	4.64
385.188	4.84
385.554	4.95
385.92	4.85
386.286	5.13
386.651	5.05
387.017	4.85
387.383	5.17
387.748	5.18
388.114	4.96
388.479	5.35
388.845	5.4
389.21	5.03
389.575	5.3
389.94	5.25
390.306	5.38
390.671	5.21
391.036	5.33
391.401	4.88
391.766	5.29
392.131	5.42
392.496	5.07
392.861	4.98
393.226	5.21
393.591	5.08
393.956	5.23
394.32	5.24
394.685	5.29
395.05	5.33
395.414	5.48
395.779	5.27
396.143	5.31
396.508	5.3
396.872	5.22
397.236	5.35
397.601	5.37
397.965	5.39
398.329	5.59
398.694	5.5
399.058	5.53
399.422	5.44
399.786	5.7
400.15	5.58
400.514	5.2
400.878	5.5
401.242	5.53
401.605	5.58
401.969	5.5
402.333	5.61
402.697	5.42
403.06	5.54
403.424	5.6
403.787	5.44
404.151	5.66
404.514	5.81
404.878	5.73
405.241	5.55
405.604	5.7
405.968	5.78
406.331	5.42
406.694	5.66
407.057	5.67
407.42	5.74
407.783	5.7
408.146	5.79
408.509	6.04
408.872	5.52
409.235	5.75
409.598	5.68
409.961	5.78
410.323	5.94
410.686	5.77
411.049	5.81
411.411	5.81
411.774	5.92
412.136	5.71
412.499	5.9
412.861	6.13
413.223	5.95
413.586	5.99
413.948	5.98
414.31	5.86
414.672	6
415.035	5.93
415.397	6.14
415.759	6
416.121	5.88
416.483	6.08
416.845	6.1
417.206	6.06
417.568	6.07
417.93	5.94
418.292	6.13
418.653	5.99
419.015	5.94
419.377	6.05
419.738	5.82
420.1	6.11
420.461	5.9
420.822	6.09
421.184	5.94
421.545	6.07
421.906	6.01
422.267	6.04
422.629	5.74
422.99	6.04
423.351	6
423.712	6.12
424.073	6.27
424.434	6.11
424.795	6.19
425.155	6.2
425.516	5.98
425.877	5.98
426.238	6.06
426.598	6.21
426.959	6.16
427.32	6.21
427.68	6.25
428.041	6.26
428.401	6.5
428.761	6.48
429.122	6.43
429.482	6.35
429.842	6.48
430.202	6.65
430.563	6.43
430.923	6.38
431.283	6.55
431.643	6.54
432.003	6.48
432.363	6.75
432.722	6.52
433.082	6.49
433.442	6.59
433.802	6.31
434.161	6.34
434.521	6.5
434.881	6.38
435.24	6.38
435.6	6.67
435.959	6.48
436.319	6.67
436.678	6.59
437.037	6.61
437.396	6.61
437.756	6.89
438.115	6.66
438.474	6.6
438.833	6.55
439.192	6.58
439.551	6.56
439.91	6.69
440.269	6.85
440.628	6.58
440.987	6.61
441.345	6.64
441.704	6.56
442.063	6.52
442.421	6.57
442.78	6.65
443.138	6.7
443.497	6.83
443.855	6.94
444.214	6.88
444.572	6.86
444.93	6.85
445.288	6.9
445.647	6.93
446.005	7.05
446.363	6.99
446.721	6.76
447.079	6.77
447.437	6.85
447.795	6.79
448.153	6.69
448.51	6.83
448.868	6.92
449.226	6.93
449.584	7.09
449.941	7.13
450.299	7.22
450.656	7
451.014	7.18
451.371	7.22
451.729	7.15
452.086	7.21
452.443	7.28
452.801	7.38
453.158	7.28
453.515	7.18
453.872	7.2
454.229	7
454.586	7.16
454.943	7.3
455.3	7.21
455.657	7.37
456.014	7.25
456.371	7.53
456.727	7.33
457.084	7.23
457.441	7.44
457.797	7.57
458.154	7.38
458.51	7.52
458.867	7.61
459.223	7.46
459.58	7.38
459.936	7.36
460.292	7.53
460.648	7.31
461.005	7.14
461.361	7.19
461.717	7
462.073	7.22
462.429	7.6
462.785	7.7
463.141	7.95
463.496	7.59
463.852	7.83
464.208	7.79
464.564	7.63
464.919	7.81
465.275	7.83
465.631	7.75
465.986	7.73
466.342	7.77
466.697	7.68
467.052	7.65
467.408	7.8
467.763	7.78
468.118	7.67
468.473	7.81
468.829	7.77
469.184	7.95
469.539	7.7
469.894	7.92
470.249	8.03
470.603	7.93
470.958	7.96
471.313	7.91
471.668	7.78
472.023	7.81
472.377	8.07
472.732	7.78
473.086	8.11
473.441	8.1
473.795	8.07
474.15	8.08
474.504	8.11
474.859	7.94
475.213	8.07
475.567	8.36
475.921	8.15
476.275	8.23
476.63	8.23
476.984	8.2
477.338	8.13
477.692	8.11
478.045	8.26
478.399	8.06
478.753	8.18
479.107	8.14
479.461	8.16
479.814	8.1
480.168	8.05
480.521	8.09
480.875	8.28
481.228	8.28
481.582	8.52
481.935	8.35
482.289	8.29
482.642	8.11
482.995	8.27
483.348	8.2
483.701	8.09
484.055	8.2
484.408	8.04
484.761	7.74
485.114	7.52
485.466	7.33
485.819	7.38
486.172	7.71
486.525	8.12
486.878	8.44
487.23	8.6
487.583	8.55
487.936	8.5
488.288	8.18
488.641	7.94
488.993	7.74
489.345	7.85
489.698	7.88
490.05	8.08
490.402	8.27
490.754	8.54
491.107	8.66
491.459	8.77
491.811	8.73
492.163	8.66
492.515	8.38
492.866	8.13
493.218	7.9
493.57	8
493.922	8.33
494.274	8.61
494.625	9
494.977	9.12
495.328	9.11
495.68	9.06
496.031	9.16
496.383	8.99
496.734	8.91
497.086	8.83
497.437	8.63
497.788	8.82
498.139	8.63
498.49	8.66
498.842	8.63
499.193	8.71
499.544	8.84
499.894	9.07
500.245	8.94
500.596	8.95
500.947	9.09
501.298	9.14
501.648	9.1
501.999	9.2
502.35	9.2
502.7	9.33
503.051	9.16
503.401	9.4
503.752	9.28
504.102	9.21
504.452	9.19
504.803	9.32
505.153	9.28
505.503	9.23
505.853	9.25
506.203	9.26
506.553	9.25
506.903	9.26
507.253	9.34
507.603	9.31
507.953	9.56
508.303	9.3
508.652	9.44
509.002	9.54
509.352	9.3
509.701	9.24
510.051	9.34
510.4	9.31
510.75	9.32
511.099	9.37
511.449	9.41
511.798	9.41
512.147	9.39
512.496	9.5
512.846	9.5
513.195	9.51
513.544	9.47
513.893	9.47
514.242	9.66
514.591	9.55
514.939	9.61
515.288	9.63
515.637	9.78
515.986	9.69
516.334	9.77
516.683	9.78
517.032	9.66
517.38	9.62
517.729	9.86
518.077	9.84
518.426	9.72
518.774	9.64
519.122	9.6
519.47	9.57
519.819	9.55
520.167	9.4
520.515	9.46
520.863	9.61
521.211	9.84
521.559	9.94
521.907	10.09
522.255	10.01
522.602	10
522.95	10.18
523.298	10.01
523.645	10.09
523.993	10.01
524.341	10.22
524.688	10.05
525.036	10.14
525.383	10.11
525.73	10.19
526.078	9.98
526.425	9.98
526.772	9.84
527.119	9.67
527.466	9.58
527.814	9.81
528.161	9.96
528.508	10.09
528.854	10.08
529.201	9.97
529.548	9.79
529.895	9.31
530.242	9.16
530.588	9.26
530.935	9.6
531.282	10.01
531.628	10.42
531.975	10.52
532.321	10.6
532.667	10.61
533.014	10.53
533.36	10.43
533.706	10.31
534.052	10.24
534.399	10.07
534.745	9.78
535.091	9.76
535.437	9.93
535.783	10.19
536.129	10.53
536.474	10.81
536.82	10.85
537.166	10.9
537.512	10.63
537.857	10.48
538.203	10.25
538.549	10.23
538.894	10.46
539.239	10.71
539.585	10.82
539.93	11.09
540.276	11.07
540.621	10.95
540.966	10.9
541.311	10.69
541.656	10.66
542.001	10.55
542.346	10.34
542.691	10.11
543.036	9.88
543.381	10.05
543.726	10.39
544.071	10.66
544.415	10.98
544.76	11
545.105	10.95
545.449	11.01
545.794	11.06
546.138	11.14
546.483	11.22
546.827	11.31
547.171	11.02
547.516	11.11
547.86	11.16
548.204	10.86
548.548	10.81
548.892	11.01
549.236	11.22
549.58	11.3
549.924	11.49
550.268	11.61
550.612	11.66
550.956	11.73
551.3	11.52
551.643	11.68
551.987	11.38
552.33	11.5
552.674	11.63
553.017	11.55
553.361	11.37
553.704	11.47
554.048	11.25
554.391	11.36
554.734	11.28
555.077	11.57
555.42	11.67
555.764	11.75
556.107	11.78
556.45	11.77
556.793	11.8
557.135	11.84
557.478	11.61
557.821	11.9
558.164	11.8
558.507	11.76
558.849	11.88
559.192	11.87
559.534	12
559.877	11.74
560.219	11.97
560.562	11.77
560.904	11.85
561.246	11.9
561.589	12.07
561.931	12.05
562.273	12.09
562.615	11.97
562.957	11.97
563.299	12
563.641	11.85
563.983	12.08
564.325	12.39
564.667	12.27
565.008	12.39
565.35	12.2
565.692	12.38
566.033	12.19
566.375	12.34
566.716	12.28
567.058	12.26
567.399	11.89
567.741	11.99
568.082	12.01
568.423	11.97
568.764	12.36
569.105	12.29
569.447	12.56
569.788	12.76
570.129	12.72
570.47	12.53
570.811	12.51
571.151	12.39
571.492	12.44
571.833	12.52
572.174	12.5
572.514	12.31
572.855	12.38
573.195	12.15
573.536	12
573.876	12.25
574.217	12.32
574.557	12.35
574.898	12.59
575.238	12.94
575.578	12.67
575.918	12.9
576.258	12.7
576.598	12.55
576.938	12.64
577.278	12.54
577.618	12.76
577.958	12.61
578.298	12.86
578.638	12.94
578.977	13.01
579.317	12.83
579.657	12.95
579.996	13.01
580.336	13.17
580.675	13.16
581.014	12.87
581.354	12.93
581.693	13.16
582.032	12.96
582.372	13.11
582.711	13.06
583.05	13.13
583.389	13.2
583.728	13.38
584.067	13.34
584.406	13.02
584.745	13.27
585.083	13.33
585.422	13.4
585.761	13.53
586.1	13.28
586.438	13.41
586.777	13.52
587.115	13.42
587.454	13.62
587.792	13.58
588.13	13.64
588.469	13.62
588.807	13.61
589.145	13.61
589.483	13.44
589.821	13.42
590.159	13.55
590.497	13.74
590.835	13.48
591.173	13.66
591.511	13.51
591.849	13.59
592.187	13.75
592.524	13.42
592.862	13.68
593.2	13.56
593.537	13.96
593.875	13.73
594.212	13.75
594.55	13.61
594.887	13.88
595.224	13.96
595.561	13.45
595.899	13.64
596.236	13.79
596.573	13.67
596.91	13.92
597.247	13.83
597.584	13.44
597.921	13.67
598.258	13.5
598.594	13.36
598.931	13.34
599.268	13.4
599.604	13.76
599.941	13.95
600.277	14.22
600.614	14.61
600.95	14.32
601.287	14.23
601.623	14.21
601.959	14.34
602.296	14.14
602.632	14.08
602.968	14.28
603.304	14.35
603.64	14.09
603.976	14.01
604.312	14.19
604.648	14.15
604.984	13.84
605.319	13.64
605.655	14.06
605.991	14.03
606.326	13.86
606.662	13.91
606.998	13.79
607.333	14.13
607.668	14.24
608.004	14.54
608.339	14.49
608.674	14.58
609.01	14.82
609.345	14.62
609.68	14.47
610.015	14.56
610.35	14.27
610.685	13.89
611.02	14.27
611.355	14.1
611.689	14.15
612.024	14.41
612.359	14.66
612.694	14.58
613.028	14.67
613.363	14.79
613.697	14.71
614.032	15.02
614.366	14.83
614.7	14.64
615.035	14.96
615.369	14.79
615.703	15.08
616.037	14.78
616.371	14.91
616.705	15.11
617.039	15.21
617.373	15.36
617.707	14.75
618.041	15.17
618.375	14.91
618.709	15.26
619.042	14.99
619.376	15.28
619.71	15.01
620.043	15.27
620.377	15.14
620.71	15.54
621.043	15.21
621.377	15.49
621.71	15.56
622.043	15.21
622.376	15.13
622.709	15.21
623.043	15.08
623.376	15.07
623.709	15.62
624.041	15.15
624.374	15.4
624.707	15.33
625.04	14.98
625.373	15.2
625.705	14.94
626.038	15.14
626.37	15.41
626.703	15.45
627.035	15.15
627.368	15
627.7	15.25
628.032	14.95
628.365	14.81
628.697	14.91
629.029	15.37
629.361	15.11
629.693	15.43
630.025	15.39
630.357	15.38
630.689	15.28
631.021	15.45
631.353	15.4
631.684	15.61
632.016	15.75
632.348	15.98
632.679	15.9
633.011	15.6
633.342	15.68
633.674	16.09
634.005	15.53
634.336	15.73
634.668	15.68
634.999	15.52
635.33	15.31
635.661	15.62
635.992	15.61
636.323	15.74
636.654	15.6
636.985	15.71
637.316	15.76
637.647	15.97
637.977	15.95
638.308	15.8
638.639	15.74
638.969	15.67
639.3	15.88
639.63	16.25
639.961	15.91
640.291	15.9
640.622	15.8
640.952	15.6
641.282	15.96
641.612	15.83
641.943	15.89
642.273	16.04
642.603	16.01
642.933	15.93
643.263	16.08
643.592	16.62
643.922	16.02
644.252	16.5
644.582	16.14
644.911	16.55
645.241	16.67
645.571	16.04
645.9	16.24
646.23	15.79
646.559	16
646.888	16.2
647.218	16.14
647.547	16.32
647.876	16.66
648.205	15.88
648.534	15.8
648.863	16.37
649.192	16.33
649.521	15.82
649.85	16.2
650.179	16.69
650.508	16.06
650.837	16.43
651.165	17.06
651.494	16.31
651.822	16.01
652.151	16.12
652.479	16.26
652.808	16.47
653.136	16.3
653.465	15.91
653.793	16.39
654.121	16.52
654.449	16.55
654.777	16.6
655.105	16.07
655.433	16.55
655.761	16.44
656.089	16.43
656.417	16.27
656.745	16.56
657.073	16.71
657.4	16.34
657.728	16.94
658.056	16.12
658.383	17.07
658.711	16.52
659.038	16.91
659.365	16.58
659.693	16.23
660.02	16.63
660.347	16.74
660.674	16.23
661.001	16.39
661.329	16.51
661.656	16.59
661.982	16.94
662.309	16.92
662.636	17.15
662.963	16.81
663.29	16.47
663.616	17.07
663.943	16.85
664.27	16.92
664.596	16.56
664.923	17.27
665.249	17.23
665.576	16.9
665.902	16.84
666.228	17.29
666.554	17.26
666.881	17.15
667.207	17.39
667.533	17.29
667.859	17.56
668.185	17.63
668.511	16.58
668.837	17.57
669.162	17.77
669.488	17.44
669.814	17.08
670.139	17.1
670.465	16.95
670.791	17.14
671.116	17.43
671.442	17.27
671.767	16.61
672.092	16.66
672.418	17.05
672.743	17.01
673.068	17.74
673.393	17.35
673.718	17.08
674.043	17.72
674.368	16.9
674.693	17.47
675.018	17.54
675.343	17.62
675.667	17.25
675.992	16.67
676.317	16.86
676.641	17.41
676.966	17.59
677.29	17.37
677.615	17.11
677.939	17.2
678.264	17.43
678.588	17.65
678.912	18.39
679.236	17.28
679.56	17.27
679.885	17.79
680.209	17.89
680.532	17.05
680.856	17.48
681.18	17.18
681.504	17.42
681.828	17.61
682.152	17.48
