Data from 0017_forehead_Reflection__1__77.txt Node

Date: Mon Oct 17 15:00:43 CDT 2022
User: ToomeyLab
Spectrometer: FLMS14357
Trigger mode: 0
Integration Time (sec): 1.000000E-2
Scans to average: 100
Electric dark correction enabled: true
Nonlinearity correction enabled: false
Boxcar width: 0
XAxis mode: Wavelengths
Number of Pixels in Spectrum: 2048
>>>>>Begin Spectral Data<<<<<
189.047	294.52
189.435	294.52
189.823	294.52
190.211	-88.73
190.599	-99.84
190.987	3333
191.375	103
191.763	-15.54
192.151	-205.69
192.538	301.34
192.926	70.58
193.314	103.57
193.702	-2091
194.089	37.67
194.477	78.93
194.864	-34.84
195.252	409.95
195.639	90.22
196.027	53.73
196.414	137.25
196.801	187.54
197.189	-49.61
197.576	112.75
197.963	-163.5
198.351	-252.22
198.738	36.1
199.125	-13.16
199.512	-46.09
199.899	-59.3
200.286	-12.27
200.673	1.8
201.06	-23.7
201.447	74.27
201.833	26.12
202.22	40.81
202.607	2.6
202.994	12.95
203.38	-21.09
203.767	-44.44
204.154	5.55
204.54	-38.5
204.927	37.34
205.313	-35.92
205.699	-20.64
206.086	-79.94
206.472	33.13
206.858	24.58
207.245	25.42
207.631	9.56
208.017	6.18
208.403	-9.32
208.789	-18.43
209.175	-11.94
209.561	-88.4
209.947	-52.41
210.333	19.46
210.719	8.72
211.105	14.39
211.491	-18.45
211.876	-22.56
212.262	24.17
212.648	-13.55
213.034	-41.08
213.419	6.04
213.805	-11.71
214.19	8.01
214.576	-10.22
214.961	-2.55
215.346	-4.65
215.732	-20.02
216.117	12.52
216.502	9.43
216.888	-23
217.273	12.31
217.658	6.36
218.043	11.69
218.428	5.25
218.813	-14.53
219.198	-7.6
219.583	-12.18
219.968	15.91
220.353	11.76
220.738	-8.03
221.122	4.45
221.507	11.94
221.892	4.5
222.276	17.71
222.661	19.97
223.046	-2.83
223.43	14
223.815	-11.47
224.199	2.81
224.583	-3.86
224.968	-14.29
225.352	-10.41
225.736	4.24
226.121	-3.21
226.505	-7.5
226.889	-0.56
227.273	7.28
227.657	7.67
228.041	3.04
228.425	1.35
228.809	2.05
229.193	0.98
229.577	4.12
229.961	4.01
230.344	2.11
230.728	2.33
231.112	2.42
231.495	2.32
231.879	3.35
232.263	0.52
232.646	4.12
233.03	2.51
233.413	-0.29
233.797	1.63
234.18	0.65
234.563	1.37
234.946	3.53
235.33	2.69
235.713	1.46
236.096	2.02
236.479	1.35
236.862	3.6
237.245	3.14
237.628	0.44
238.011	2.23
238.394	2.88
238.777	0.96
239.16	3.53
239.543	1.25
239.925	2.95
240.308	1.92
240.691	0.87
241.073	2.77
241.456	2.13
241.838	2.52
242.221	2.17
242.603	2.16
242.986	1.48
243.368	3.11
243.75	2.18
244.133	2.04
244.515	2.54
244.897	2.77
245.279	2.39
245.661	2.5
246.043	2.52
246.425	0.66
246.807	2.25
247.189	2.29
247.571	2.4
247.953	2.45
248.335	2.31
248.717	2.53
249.098	2.6
249.48	2.43
249.862	2.01
250.243	2.11
250.625	2.62
251.006	2.13
251.388	2.57
251.769	1.79
252.151	2.4
252.532	2.38
252.913	1.8
253.295	2.21
253.676	3.05
254.057	2.81
254.438	2.52
254.819	3.03
255.2	3.3
255.581	3.64
255.962	1.7
256.343	2.43
256.724	1.8
257.105	3.04
257.486	2
257.867	2.79
258.247	1.67
258.628	2.9
259.009	2.67
259.389	2.38
259.77	3.43
260.15	3.19
260.531	2.25
260.911	2.48
261.292	2.76
261.672	2.55
262.052	2.57
262.432	2.6
262.813	2.58
263.193	2.58
263.573	3.15
263.953	2.21
264.333	2.84
264.713	1.93
265.093	2.52
265.473	2.65
265.853	2.21
266.233	3.92
266.612	2.33
266.992	2.83
267.372	2.39
267.752	3.01
268.131	2.84
268.511	2.5
268.89	2.91
269.27	2.49
269.649	2.42
270.029	2.3
270.408	2.58
270.787	2.06
271.167	2.38
271.546	2.52
271.925	2.45
272.304	2.37
272.683	2.58
273.062	2.28
273.441	2.36
273.82	2.67
274.199	2.85
274.578	2.54
274.957	2.53
275.336	2.56
275.715	2.78
276.093	2.43
276.472	2.22
276.851	2.57
277.229	1.87
277.608	2.53
277.986	2.2
278.365	2.73
278.743	2.41
279.122	2.61
279.5	2.54
279.878	2.49
280.257	2.45
280.635	2.86
281.013	3.42
281.391	2.38
281.769	2.82
282.147	2.32
282.525	2.89
282.903	2.5
283.281	2.62
283.659	2.47
284.037	2.23
284.415	2.64
284.792	2.71
285.17	1.64
285.548	1.73
285.925	2.95
286.303	2.5
286.68	2.71
287.058	2.92
287.435	2.57
287.813	2.86
288.19	2.58
288.567	2.56
288.945	3.1
289.322	2.96
289.699	2.94
290.076	3.1
290.453	2.55
290.83	2.54
291.207	3.08
291.584	2.8
291.961	2.74
292.338	3.01
292.715	3.14
293.092	2.7
293.469	2.89
293.845	2.88
294.222	3.11
294.599	3.43
294.975	2.58
295.352	2.95
295.728	2.69
296.105	2.81
296.481	3.32
296.858	3.39
297.234	3.25
297.61	3.08
297.986	3
298.363	3.1
298.739	3.43
299.115	3.27
299.491	3.23
299.867	3.24
300.243	3.2
300.619	2.96
300.995	3.7
301.371	3.21
301.746	3.56
302.122	3.24
302.498	3.82
302.874	3.6
303.249	3.55
303.625	3.63
304	3.68
304.376	4.05
304.751	3.98
305.127	3.22
305.502	3.73
305.878	4.12
306.253	3.74
306.628	3.98
307.003	3.99
307.378	3.62
307.754	3.74
308.129	3.75
308.504	4.22
308.879	4.19
309.254	3.63
309.629	3.94
310.003	4.34
310.378	3.89
310.753	3.73
311.128	4.5
311.502	4.36
311.877	4.35
312.252	4.44
312.626	4.27
313.001	4.25
313.375	4.59
313.75	4.72
314.124	4.73
314.498	4.5
314.873	4.36
315.247	4.99
315.621	4.91
315.995	4.66
316.369	4.52
316.743	4.83
317.117	4.82
317.491	4.75
317.865	5.19
318.239	5.23
318.613	5.12
318.987	4.74
319.361	4.93
319.734	5.83
320.108	5.35
320.482	5.34
320.855	5
321.229	4.87
321.602	5.41
321.976	4.93
322.349	5.48
322.723	5.07
323.096	5.42
323.469	5.14
323.843	5.43
324.216	5.58
324.589	5.3
324.962	6.02
325.335	5.5
325.708	5.87
326.081	5.48
326.454	5.82
326.827	5.61
327.2	5.67
327.573	5.58
327.945	5.62
328.318	5.79
328.691	6.12
329.063	5.53
329.436	6.05
329.809	6.14
330.181	6.42
330.553	5.33
330.926	6.08
331.298	6.47
331.671	5.98
332.043	6.09
332.415	6.47
332.787	5.97
333.159	6.04
333.532	6.35
333.904	6.27
334.276	6.04
334.648	6.27
335.02	6.7
335.391	6.47
335.763	6.62
336.135	6.74
336.507	6.64
336.879	6.59
337.25	6.95
337.622	6.54
337.993	6.67
338.365	6.85
338.736	6.78
339.108	6.82
339.479	6.67
339.851	7.05
340.222	6.6
340.593	7.2
340.964	7.21
341.336	6.95
341.707	6.81
342.078	7.55
342.449	6.97
342.82	6.93
343.191	7.41
343.562	7.38
343.933	7.46
344.303	7.35
344.674	7.86
345.045	7.59
345.416	7.8
345.786	7.56
346.157	7.49
346.527	7.31
346.898	7.92
347.268	7.93
347.639	7.52
348.009	7.65
348.38	7.59
348.75	7.67
349.12	7.57
349.49	7.46
349.861	7.96
350.231	7.75
350.601	7.53
350.971	8.08
351.341	7.92
351.711	8.05
352.081	7.84
352.45	7.61
352.82	8.23
353.19	7.94
353.56	7.72
353.929	8.71
354.299	8.29
354.669	8.38
355.038	8.54
355.408	8.57
355.777	8.01
356.147	8.45
356.516	8.61
356.885	8.51
357.254	8.57
357.624	8.9
357.993	8.5
358.362	8.56
358.731	8.54
359.1	8.52
359.469	8.46
359.838	8.73
360.207	8.93
360.576	8.7
360.945	9.09
361.314	8.86
361.682	9.12
362.051	8.84
362.42	9
362.788	9.04
363.157	9.08
363.525	9.01
363.894	9.4
364.262	9.3
364.631	9.33
364.999	9.12
365.367	9.07
365.735	9.19
366.104	8.87
366.472	9.25
366.84	9.09
367.208	9.61
367.576	9.25
367.944	9.53
368.312	9.66
368.68	9.69
369.048	9.76
369.416	9.6
369.783	10.04
370.151	9.75
370.519	9.88
370.886	10.01
371.254	9.65
371.621	9.78
371.989	10.03
372.356	10.1
372.724	10.47
373.091	10.12
373.458	9.83
373.826	10.23
374.193	10.32
374.56	10.41
374.927	10.06
375.294	10.35
375.661	10.27
376.028	10.63
376.395	10.4
376.762	10.27
377.129	10.73
377.496	10.5
377.863	10.39
378.229	10.63
378.596	10.63
378.963	10.82
379.329	10.67
379.696	10.65
380.062	10.89
380.429	10.66
380.795	10.61
381.161	10.9
381.528	10.64
381.894	10.79
382.26	10.79
382.626	11.03
382.993	11.4
383.359	11.3
383.725	11.35
384.091	10.99
384.457	10.95
384.823	10.82
385.188	11.04
385.554	11.4
385.92	11.58
386.286	11.23
386.651	11.15
387.017	11.18
387.383	11.48
387.748	11.4
388.114	11.44
388.479	11.81
388.845	12.08
389.21	11.72
389.575	11.55
389.94	11.57
390.306	11.94
390.671	11.99
391.036	11.73
391.401	11.92
391.766	12.06
392.131	12.23
392.496	12.15
392.861	12.09
393.226	12.27
393.591	12
393.956	12
394.32	12.15
394.685	12.17
395.05	12.1
395.414	12.19
395.779	12.44
396.143	12.51
396.508	12.3
396.872	12.31
397.236	12.17
397.601	12.52
397.965	12.33
398.329	12.61
398.694	12.74
399.058	12.76
399.422	12.9
399.786	12.83
400.15	12.89
400.514	12.5
400.878	12.87
401.242	12.62
401.605	13.1
401.969	12.93
402.333	12.97
402.697	12.84
403.06	12.97
403.424	12.81
403.787	12.83
404.151	12.77
404.514	13.31
404.878	13.18
405.241	13.25
405.604	13.11
405.968	13.35
406.331	13.15
406.694	13.11
407.057	13.21
407.42	13.24
407.783	13.44
408.146	13.39
408.509	13.58
408.872	13.23
409.235	13.65
409.598	13.68
409.961	13.51
410.323	13.63
410.686	13.85
411.049	13.87
411.411	13.83
411.774	13.72
412.136	13.61
412.499	13.95
412.861	13.67
413.223	13.87
413.586	13.71
413.948	14.05
414.31	13.96
414.672	14.03
415.035	14.36
415.397	14.32
415.759	14.25
416.121	14.23
416.483	14.38
416.845	14.33
417.206	14.22
417.568	14.42
417.93	14.15
418.292	14.53
418.653	14.22
419.015	14.25
419.377	14.49
419.738	14.56
420.1	14.54
420.461	14.39
420.822	14.42
421.184	14.42
421.545	14.47
421.906	14.5
422.267	14.52
422.629	14.46
422.99	14.49
423.351	14.36
423.712	14.47
424.073	14.69
424.434	14.58
424.795	14.81
425.155	14.81
425.516	14.73
425.877	14.86
426.238	14.74
426.598	14.78
426.959	14.74
427.32	14.92
427.68	14.83
428.041	14.89
428.401	14.98
428.761	15.25
429.122	15.05
429.482	15.3
429.842	15.24
430.202	15.42
430.563	15.44
430.923	15.34
431.283	15.38
431.643	15.52
432.003	15.54
432.363	15.63
432.722	15.49
433.082	15.36
433.442	15.48
433.802	15.62
434.161	15.71
434.521	15.89
434.881	15.81
435.24	15.62
435.6	15.96
435.959	15.79
436.319	15.83
436.678	15.69
437.037	15.95
437.396	15.81
437.756	16.05
438.115	15.91
438.474	15.91
438.833	15.86
439.192	16.01
439.551	15.92
439.91	16.1
440.269	16.15
440.628	16.1
440.987	16.24
441.345	16.19
441.704	16.29
442.063	16.17
442.421	16.31
442.78	16.21
443.138	16.26
443.497	16.29
443.855	16.26
444.214	16.24
444.572	16.31
444.93	16.41
445.288	16.44
445.647	16.69
446.005	16.76
446.363	16.59
446.721	16.62
447.079	16.79
447.437	16.62
447.795	16.64
448.153	16.66
448.51	16.57
448.868	16.68
449.226	16.49
449.584	16.5
449.941	16.64
450.299	16.9
450.656	16.71
451.014	16.81
451.371	17.01
451.729	16.83
452.086	17.1
452.443	17.24
452.801	17.1
453.158	17.36
453.515	17.27
453.872	17.23
454.229	17.32
454.586	17.27
454.943	17.24
455.3	17.21
455.657	17.28
456.014	17.49
456.371	17.34
456.727	17.46
457.084	17.65
457.441	17.6
457.797	17.67
458.154	17.65
458.51	17.89
458.867	17.78
459.223	17.66
459.58	17.75
459.936	17.7
460.292	18.06
460.648	17.69
461.005	17.76
461.361	17.73
461.717	17.59
462.073	17.58
462.429	17.61
462.785	17.56
463.141	17.83
463.496	17.77
463.852	17.9
464.208	17.82
464.564	18.05
464.919	18.11
465.275	18.21
465.631	18.13
465.986	18.35
466.342	18.26
466.697	18.49
467.052	18.34
467.408	18.26
467.763	18.26
468.118	18.44
468.473	18.49
468.829	18.59
469.184	18.49
469.539	18.41
469.894	18.55
470.249	18.6
470.603	18.69
470.958	18.54
471.313	18.61
471.668	18.78
472.023	18.69
472.377	18.79
472.732	18.64
473.086	18.96
473.441	19.05
473.795	18.83
474.15	18.83
474.504	19.23
474.859	19.17
475.213	19.06
475.567	19.25
475.921	19.01
476.275	19.03
476.63	19.1
476.984	19.19
477.338	19.22
477.692	19.19
478.045	19.43
478.399	19.34
478.753	19.34
479.107	19.38
479.461	19.25
479.814	19.27
480.168	19.34
480.521	19.24
480.875	19.37
481.228	19.38
481.582	19.36
481.935	19.54
482.289	19.42
482.642	19.47
482.995	19.68
483.348	19.55
483.701	19.45
484.055	19.46
484.408	19.42
484.761	19.22
485.114	19.06
485.466	19.19
485.819	19.18
486.172	18.91
486.525	18.65
486.878	18.55
487.23	18.55
487.583	18.85
487.936	19.21
488.288	19.32
488.641	19.49
488.993	19.47
489.345	19.33
489.698	19.28
490.05	19.27
490.402	19.16
490.754	19.23
491.107	19.24
491.459	19.4
491.811	19.56
492.163	19.88
492.515	19.84
492.866	19.88
493.218	19.85
493.57	19.92
493.922	19.74
494.274	19.55
494.625	19.45
494.977	19.71
495.328	19.96
495.68	20.23
496.031	20.3
496.383	20.41
496.734	20.54
497.086	20.51
497.437	20.51
497.788	20.73
498.139	20.65
498.49	20.66
498.842	20.69
499.193	20.39
499.544	20.4
499.894	20.7
500.245	20.62
500.596	20.79
500.947	20.79
501.298	21.01
501.648	20.94
501.999	20.79
502.35	21.09
502.7	21.05
503.051	21.05
503.401	21.06
503.752	21.23
504.102	21.14
504.452	21.08
504.803	21.27
505.153	21.34
505.503	21.3
505.853	21.36
506.203	21.3
506.553	21.34
506.903	21.43
507.253	21.35
507.603	21.6
507.953	21.51
508.303	21.48
508.652	21.7
509.002	21.58
509.352	21.57
509.701	21.53
510.051	21.71
510.4	21.58
510.75	21.64
511.099	21.48
511.449	21.52
511.798	21.73
512.147	21.66
512.496	21.82
512.846	21.59
513.195	21.63
513.544	21.78
513.893	21.8
514.242	21.78
514.591	21.8
514.939	21.82
515.288	21.76
515.637	21.88
515.986	22.11
516.334	21.9
516.683	22.13
517.032	22.21
517.38	22.11
517.729	22.23
518.077	22.24
518.426	22.31
518.774	22.14
519.122	22.14
519.47	22.28
519.819	22.1
520.167	22.22
520.515	22.13
520.863	22.2
521.211	21.97
521.559	21.94
521.907	22.18
522.255	22.06
522.602	22.22
522.95	22.42
523.298	22.3
523.645	22.45
523.993	22.65
524.341	22.65
524.688	22.63
525.036	22.72
525.383	22.83
525.73	22.83
526.078	22.79
526.425	22.85
526.772	22.75
527.119	22.77
527.466	22.84
527.814	22.73
528.161	22.54
528.508	22.59
528.854	22.38
529.201	22.49
529.548	22.64
529.895	22.59
530.242	22.61
530.588	22.56
530.935	22.38
531.282	22.05
531.628	21.87
531.975	21.97
532.321	22.09
532.667	22.4
533.014	22.64
533.36	22.86
533.706	23.01
534.052	22.95
534.399	23.18
534.745	23.11
535.091	23.1
535.437	22.95
535.783	22.74
536.129	22.6
536.474	22.65
536.82	22.66
537.166	23.08
537.512	23.24
537.857	23.46
538.203	23.49
538.549	23.49
538.894	23.35
539.239	23.45
539.585	23.3
539.93	23.34
540.276	23.29
540.621	23.56
540.966	23.75
541.311	23.74
541.656	23.82
542.001	23.94
542.346	23.79
542.691	23.92
543.036	23.7
543.381	23.67
543.726	23.36
544.071	23.22
544.415	23.28
544.76	23.21
545.105	23.62
545.449	23.68
545.794	23.74
546.138	23.55
546.483	23.87
546.827	23.86
547.171	24.01
547.516	24.3
547.86	24.34
548.204	24.19
548.548	24.16
548.892	24.19
549.236	24.3
549.58	24.01
549.924	24.16
550.268	24.3
550.612	24.32
550.956	24.57
551.3	24.68
551.643	24.78
551.987	24.79
552.33	24.99
552.674	25.05
553.017	25.14
553.361	25.07
553.704	25.1
554.048	24.94
554.391	25.08
554.734	25.22
555.077	24.96
555.42	25.03
555.764	24.94
556.107	24.9
556.45	25.08
556.793	25.2
557.135	25.27
557.478	25.25
557.821	25.51
558.164	25.16
558.507	25.32
558.849	25.38
559.192	25.51
559.534	25.36
559.877	25.37
560.219	25.33
560.562	25.35
560.904	25.5
561.246	25.6
561.589	25.75
561.931	25.58
562.273	25.68
562.615	25.69
562.957	25.58
563.299	25.79
563.641	25.71
563.983	25.67
564.325	25.82
564.667	25.76
565.008	25.99
565.35	26.04
565.692	26.03
566.033	25.83
566.375	26.03
566.716	26.26
567.058	26.02
567.399	26
567.741	26.22
568.082	26.12
568.423	26.06
568.764	25.86
569.105	26.04
569.447	25.65
569.788	26.02
570.129	26.07
570.47	26.17
570.811	26.25
571.151	26.32
571.492	26.29
571.833	26.13
572.174	26.32
572.514	26.36
572.855	26.37
573.195	26.36
573.536	26.45
573.876	26.4
574.217	26.24
574.557	26.36
574.898	26.15
575.238	26.34
575.578	26.24
575.918	26.4
576.258	26.56
576.598	26.66
576.938	26.8
577.278	26.81
577.618	26.62
577.958	26.61
578.298	26.5
578.638	26.75
578.977	26.81
579.317	26.68
579.657	26.76
579.996	26.7
580.336	27.01
580.675	26.91
581.014	26.55
581.354	27.01
581.693	26.92
582.032	26.99
582.372	27.38
582.711	27.13
583.05	27.13
583.389	27.17
583.728	27.51
584.067	27.31
584.406	27.4
584.745	27.36
585.083	27.31
585.422	27.51
585.761	27.71
586.1	27.58
586.438	27.79
586.777	27.42
587.115	27.45
587.454	27.51
587.792	27.4
588.13	27.58
588.469	27.67
588.807	27.62
589.145	27.67
589.483	27.63
589.821	27.37
590.159	27.66
590.497	28.03
590.835	27.9
591.173	28.14
591.511	28.03
591.849	27.78
592.187	27.75
592.524	27.86
592.862	27.99
593.2	27.84
593.537	28.11
593.875	28.11
594.212	28.19
594.55	27.78
594.887	27.97
595.224	28.42
595.561	28.38
595.899	28.38
596.236	28.41
596.573	28.23
596.91	28.1
597.247	28.21
597.584	28.17
597.921	28.4
598.258	28.35
598.594	28.63
598.931	28.39
599.268	28.24
599.604	28.14
599.941	28.12
600.277	28.14
600.614	28.01
600.95	27.94
601.287	28.01
601.623	28.77
601.959	28.45
602.296	28.55
602.632	28.51
602.968	28.43
603.304	28.74
603.64	28.77
603.976	28.6
604.312	28.87
604.648	29.27
604.984	28.85
605.319	28.66
605.655	28.69
605.991	28.86
606.326	28.96
606.662	29.01
606.998	28.65
607.333	28.98
607.668	28.48
608.004	28.46
608.339	28.64
608.674	28.84
609.01	28.65
609.345	29.08
609.68	29.36
610.015	29.27
610.35	29.01
610.685	29.44
611.02	29.48
611.355	29.27
611.689	29.14
612.024	29.43
612.359	29.26
612.694	29.21
613.028	29.32
613.363	29.16
613.697	29.01
614.032	29.38
614.366	29.58
614.7	29.4
615.035	29.41
615.369	29.63
615.703	29.62
616.037	29.73
616.371	29.39
616.705	29.73
617.039	30.05
617.373	29.66
617.707	29.61
618.041	29.66
618.375	30.05
618.709	30
619.042	30.23
619.376	29.9
619.71	29.77
620.043	29.33
620.377	29.49
620.71	30.12
621.043	30.17
621.377	30.24
621.71	30.14
622.043	30.01
622.376	30.1
622.709	30.07
623.043	30.02
623.376	30.08
623.709	30.46
624.041	29.77
624.374	30.24
624.707	30.19
625.04	30.46
625.373	30.41
625.705	30.36
626.038	30.16
626.37	30.56
626.703	30.67
627.035	30.3
627.368	30.23
627.7	30.26
628.032	30.39
628.365	30.79
628.697	30.77
629.029	30.62
629.361	30.49
629.693	30.2
630.025	30.17
630.357	30.18
630.689	30.34
631.021	30.35
631.353	30.55
631.684	30.67
632.016	30.45
632.348	30.86
632.679	30.72
633.011	30.63
633.342	30.53
633.674	31.12
634.005	30.43
634.336	30.34
634.668	30.92
634.999	31.15
635.33	30.87
635.661	31.1
635.992	31.1
636.323	31.19
636.654	31.07
636.985	30.97
637.316	30.98
637.647	31.01
637.977	31.02
638.308	31.33
638.639	30.77
638.969	31.12
639.3	31.1
639.63	31.51
639.961	30.91
640.291	30.97
640.622	31.35
640.952	31.18
641.282	31.35
641.612	31.26
641.943	31.4
642.273	31.54
642.603	31.02
642.933	31.49
643.263	31.6
643.592	31.58
643.922	31.82
644.252	31.07
644.582	31.8
644.911	31.98
645.241	32.23
645.571	31.24
645.9	31.91
646.23	32.07
646.559	31.78
646.888	31.92
647.218	31.44
647.547	31.75
647.876	31.72
648.205	31.58
648.534	31.69
648.863	31.83
649.192	32.17
649.521	31.9
649.85	31.68
650.179	32.11
650.508	31.81
650.837	31.66
651.165	32.22
651.494	32.15
651.822	31.86
652.151	31.81
652.479	32.2
652.808	31.72
653.136	31.77
653.465	31.97
653.793	32.18
654.121	32.11
654.449	32.61
654.777	31.99
655.105	32.25
655.433	32.71
655.761	32.29
656.089	31.94
656.417	32.09
656.745	31.93
657.073	32.03
657.4	32.35
657.728	32.39
658.056	32.05
658.383	32.45
658.711	32.71
659.038	32.83
659.365	32.23
659.693	32.11
660.02	32.43
660.347	32.65
660.674	33.05
661.001	32.76
661.329	32.81
661.656	32.34
661.982	32.43
662.309	32.53
662.636	32.33
662.963	32.6
663.29	32.73
663.616	32.97
663.943	32.31
664.27	32.89
664.596	32.64
664.923	32.65
665.249	32.38
665.576	32.41
665.902	33.16
666.228	33.01
666.554	33.1
666.881	33.13
667.207	33
667.533	33.33
667.859	32.93
668.185	32.97
668.511	33.44
668.837	33.07
669.162	33.19
669.488	32.81
669.814	33.89
670.139	33.02
670.465	33.61
670.791	33.22
671.116	33.53
671.442	33.36
671.767	32.6
672.092	33.14
