Data from 0017_crown_Reflection__2__73.txt Node

Date: Mon Oct 17 14:59:24 CDT 2022
User: ToomeyLab
Spectrometer: FLMS14357
Trigger mode: 0
Integration Time (sec): 1.000000E-2
Scans to average: 100
Electric dark correction enabled: true
Nonlinearity correction enabled: false
Boxcar width: 0
XAxis mode: Wavelengths
Number of Pixels in Spectrum: 2048
>>>>>Begin Spectral Data<<<<<
189.047	414.05
189.435	414.05
189.823	414.05
190.211	273.04
190.599	52.04
190.987	-317
191.375	135.4
191.763	420.95
192.151	-1.72
192.538	-26.53
192.926	44.12
193.314	-259.76
193.702	-1765
194.089	44.97
194.477	201.42
194.864	89.46
195.252	628.76
195.639	-313.41
196.027	-11.47
196.414	107.02
196.801	25.32
197.189	197.24
197.576	151.09
197.963	-74.13
198.351	-108.6
198.738	-20.71
199.125	-34.88
199.512	-169.66
199.899	-1.49
200.286	15.04
200.673	2.64
201.06	-31.8
201.447	44.67
201.833	-13.97
202.22	26.21
202.607	-38.05
202.994	-56.64
203.38	4.52
203.767	-32.75
204.154	35.43
204.54	-42.94
204.927	-12.58
205.313	-16.04
205.699	20.22
206.086	-33.69
206.472	-12.13
206.858	-8.69
207.245	15.21
207.631	4.96
208.017	20.4
208.403	53.97
208.789	9.36
209.175	6.31
209.561	-80.61
209.947	-87.61
210.333	12.26
210.719	13.27
211.105	-7.42
211.491	-5.78
211.876	-17.82
212.262	27.51
212.648	-19.59
213.034	-46.58
213.419	-1.31
213.805	-2.63
214.19	-3.33
214.576	-8.1
214.961	-37.99
215.346	-10.92
215.732	-30.87
216.117	-2.07
216.502	-12.69
216.888	-24.58
217.273	-6.21
217.658	-10.15
218.043	0.42
218.428	-19.12
218.813	-6.04
219.198	-4.43
219.583	-6.65
219.968	-5.84
220.353	-16.43
220.738	-3.06
221.122	-2.08
221.507	-36.99
221.892	7.7
222.276	1.97
222.661	-2.75
223.046	-3.15
223.43	-6.51
223.815	-9.28
224.199	6.74
224.583	-13.85
224.968	-11.65
225.352	-21.86
225.736	-1.2
226.121	-10.12
226.505	-0.75
226.889	-3.61
227.273	4.15
227.657	2.36
228.041	1.44
228.425	-0.76
228.809	0.5
229.193	0.3
229.577	2.05
229.961	1.99
230.344	0.96
230.728	0.64
231.112	1.31
231.495	1.05
231.879	1.5
232.263	0.77
232.646	1.49
233.03	-0.02
233.413	-2.34
233.797	0.97
234.18	3.02
234.563	-1.27
234.946	-0.31
235.33	-0.21
235.713	-1.46
236.096	1.84
236.479	-0.03
236.862	1.21
237.245	-0.81
237.628	1.07
238.011	1.88
238.394	1.36
238.777	0.36
239.16	1.54
239.543	-0.75
239.925	2.36
240.308	1.57
240.691	-1.69
241.073	1.74
241.456	0.71
241.838	0.59
242.221	-0.42
242.603	1.27
242.986	0.09
243.368	1.6
243.75	0.93
244.133	1.36
244.515	1.52
244.897	1.24
245.279	1.8
245.661	1.87
246.043	0.65
246.425	-0.8
246.807	0.66
247.189	0.27
247.571	0.94
247.953	0.96
248.335	0.75
248.717	1.17
249.098	1.38
249.48	1.42
249.862	1.25
250.243	0.98
250.625	1.35
251.006	1.2
251.388	1.33
251.769	0.19
252.151	-0.22
252.532	1.11
252.913	1.16
253.295	0.61
253.676	1.34
254.057	1.56
254.438	1.14
254.819	1.91
255.2	1.69
255.581	1.14
255.962	0.51
256.343	-0.89
256.724	0.64
257.105	0.83
257.486	-0.59
257.867	1
258.247	0.98
258.628	1.19
259.009	0.74
259.389	1.13
259.77	0.79
260.15	0.91
260.531	0.88
260.911	1.11
261.292	1.12
261.672	0.93
262.052	1.01
262.432	0.99
262.813	1.31
263.193	1.2
263.573	1
263.953	0.83
264.333	0.86
264.713	0.47
265.093	0.57
265.473	1.48
265.853	1.44
266.233	1.42
266.612	0.13
266.992	1.17
267.372	0.39
267.752	1.26
268.131	1.15
268.511	1.39
268.89	1.07
269.27	1.19
269.649	1
270.029	1.06
270.408	1.61
270.787	0.79
271.167	0.85
271.546	1.13
271.925	0.93
272.304	0.86
272.683	1.01
273.062	0.78
273.441	1.04
273.82	0.92
274.199	1.25
274.578	1.18
274.957	1.08
275.336	1.03
275.715	0.77
276.093	0.68
276.472	0.95
276.851	0.93
277.229	0.52
277.608	0.71
277.986	0.92
278.365	1.13
278.743	1.1
279.122	0.68
279.5	0.83
279.878	1.13
280.257	0.58
280.635	1.01
281.013	0.67
281.391	0.87
281.769	0.65
282.147	1.16
282.525	0.92
282.903	0.43
283.281	0.49
283.659	0.8
284.037	0.6
284.415	0.92
284.792	0.89
285.17	0.32
285.548	0.18
285.925	1.29
286.303	0.8
286.68	0.98
287.058	1.47
287.435	1.06
287.813	0.9
288.19	1.14
288.567	0.87
288.945	1.07
289.322	1.49
289.699	0.46
290.076	0.98
290.453	0.7
290.83	0.71
291.207	0.99
291.584	0.9
291.961	0.64
292.338	0.69
292.715	0.88
293.092	1.1
293.469	1.29
293.845	1.19
294.222	1.14
294.599	1.3
294.975	0.37
295.352	0.89
295.728	1.13
296.105	1.06
296.481	0.69
296.858	1.33
297.234	0.29
297.61	0.63
297.986	0.93
298.363	1.04
298.739	1.13
299.115	1.06
299.491	1.01
299.867	1.07
300.243	1.11
300.619	0.89
300.995	0.66
301.371	0.86
301.746	0.77
302.122	0.26
302.498	0.91
302.874	1.16
303.249	1.12
303.625	1.17
304	1.17
304.376	1.12
304.751	0.96
305.127	0.91
305.502	0.9
305.878	0.78
306.253	0.86
306.628	0.87
307.003	0.9
307.378	1.25
307.754	0.85
308.129	0.43
308.504	0.92
308.879	1.47
309.254	0.97
309.629	0.63
310.003	1.16
310.378	0.93
310.753	0.77
311.128	1.23
311.502	1.05
311.877	0.94
312.252	0.78
312.626	0.7
313.001	0.72
313.375	1.01
313.75	0.73
314.124	1.16
314.498	0.79
314.873	0.39
315.247	0.66
315.621	1.6
315.995	0.83
316.369	0.62
316.743	1.36
317.117	1.71
317.491	0.69
317.865	1.04
318.239	1.44
318.613	1.09
318.987	0.9
319.361	1.1
319.734	1.27
320.108	0.79
320.482	0.72
320.855	0.83
321.229	0.96
321.602	0.56
321.976	0.38
322.349	1.28
322.723	0.59
323.096	1.52
323.469	0.71
323.843	0.74
324.216	1.17
324.589	1.19
324.962	0.96
325.335	0.36
325.708	1.4
326.081	0.7
326.454	0.91
326.827	0.49
327.2	0.98
327.573	0.73
327.945	0.82
328.318	0.74
328.691	0.9
329.063	0.75
329.436	0.74
329.809	1.35
330.181	0.98
330.553	0.86
330.926	1.02
331.298	1.28
331.671	1.11
332.043	1.04
332.415	1.09
332.787	0.6
333.159	0.76
333.532	1.04
333.904	0.82
334.276	0.64
334.648	0.83
335.02	1.01
335.391	0.87
335.763	1.07
336.135	1.18
336.507	1.37
336.879	1
337.25	1.23
337.622	0.81
337.993	1.31
338.365	0.87
338.736	0.73
339.108	0.76
339.479	1.18
339.851	1.15
340.222	0.88
340.593	1.16
340.964	0.91
341.336	0.66
341.707	0.92
342.078	1.07
342.449	0.98
342.82	0.98
343.191	1.01
343.562	1.12
343.933	0.92
344.303	0.84
344.674	1.38
345.045	1.58
345.416	0.97
345.786	1.28
346.157	0.41
346.527	0.79
346.898	1.14
347.268	1.3
347.639	0.93
348.009	1.05
348.38	1.06
348.75	0.76
349.12	1.16
349.49	0.66
349.861	1.33
350.231	1.09
350.601	0.87
350.971	1.24
351.341	0.53
351.711	0.77
352.081	1.19
352.45	1.33
352.82	1.08
353.19	0.44
353.56	1.09
353.929	1.16
354.299	0.72
354.669	1.07
355.038	1.58
355.408	1.01
355.777	0.74
356.147	0.99
356.516	1.22
356.885	1.07
357.254	1.2
357.624	1.24
357.993	1.29
358.362	0.83
358.731	1.01
359.1	0.93
359.469	1.13
359.838	1.24
360.207	1.27
360.576	0.96
360.945	0.99
361.314	1.17
361.682	1.43
362.051	0.82
362.42	1.14
362.788	1.18
363.157	1.1
363.525	0.97
363.894	1.24
364.262	1.43
364.631	1.29
364.999	1.14
365.367	1.06
365.735	0.92
366.104	0.68
366.472	0.86
366.84	1.11
367.208	0.96
367.576	1.16
367.944	0.84
368.312	0.79
368.68	1.3
369.048	0.88
369.416	1.42
369.783	0.88
370.151	1.17
370.519	1.21
370.886	1.19
371.254	1.19
371.621	1.02
371.989	1.5
372.356	1.41
372.724	1.25
373.091	1.34
373.458	1.21
373.826	1.21
374.193	1.49
374.56	0.89
374.927	1.24
375.294	1.17
375.661	0.69
376.028	1.53
376.395	1.09
376.762	1.49
377.129	1.12
377.496	1.03
377.863	0.98
378.229	1.05
378.596	1.27
378.963	0.86
379.329	1.37
379.696	0.9
380.062	1.53
380.429	0.94
380.795	1.02
381.161	1.49
381.528	0.92
381.894	1.41
382.26	1.32
382.626	1.37
382.993	1.38
383.359	1.13
383.725	1.18
384.091	1.23
384.457	1.14
384.823	1.18
385.188	1.09
385.554	1.23
385.92	1.06
386.286	1.1
386.651	1.29
387.017	1.14
387.383	1.26
387.748	1.08
388.114	1.11
388.479	1.14
388.845	1.21
389.21	1.15
389.575	1.01
389.94	1.28
390.306	1.32
390.671	1.3
391.036	1.66
391.401	1.17
391.766	0.99
392.131	1.23
392.496	1.39
392.861	1.18
393.226	1.22
393.591	1.2
393.956	1.13
394.32	1.29
394.685	1.07
395.05	1.21
395.414	1.44
395.779	1.14
396.143	1.27
396.508	1.26
396.872	1.11
397.236	1.12
397.601	1.16
397.965	1.28
398.329	1.54
398.694	1.48
399.058	1.26
399.422	1.33
399.786	1.32
400.15	1.31
400.514	1.06
400.878	1.17
401.242	1.05
401.605	1.46
401.969	1.31
402.333	1.15
402.697	1.14
403.06	1.02
403.424	1.06
403.787	1.06
404.151	1.54
404.514	1.3
404.878	1.39
405.241	1.23
405.604	1.26
405.968	1.5
406.331	1.16
406.694	1.21
407.057	1.1
407.42	1.18
407.783	1.34
408.146	1.42
408.509	1.37
408.872	0.98
409.235	1.08
409.598	1.25
409.961	1.01
410.323	1.28
410.686	1.46
411.049	1.27
411.411	1.39
411.774	1.08
412.136	1.18
412.499	1.27
412.861	1.29
413.223	1.15
413.586	1.2
413.948	1.23
414.31	1.13
414.672	1.21
415.035	1.3
415.397	1.34
415.759	1.44
416.121	1.26
416.483	1.31
416.845	1.45
417.206	1.41
417.568	1.64
417.93	1.16
418.292	1.39
418.653	1.04
419.015	1.41
419.377	1.4
419.738	1.18
420.1	1.42
420.461	1.32
420.822	1.34
421.184	1.24
421.545	1.34
421.906	1.35
422.267	1.33
422.629	1.24
422.99	1.26
423.351	1.31
423.712	1.33
424.073	1.31
424.434	1.23
424.795	1.37
425.155	1.36
425.516	1.2
425.877	1.31
426.238	1.29
426.598	1.31
426.959	1.25
427.32	1.42
427.68	1.34
428.041	1.25
428.401	1.35
428.761	1.4
429.122	1.54
429.482	1.33
429.842	1.38
430.202	1.47
430.563	1.41
430.923	1.4
431.283	1.57
431.643	1.35
432.003	1.31
432.363	1.47
432.722	1.3
433.082	1.34
433.442	1.45
433.802	1.18
434.161	1.11
434.521	1.38
434.881	1.39
435.24	1.3
435.6	1.4
435.959	1.28
436.319	1.41
436.678	1.35
437.037	1.35
437.396	1.34
437.756	1.52
438.115	1.24
438.474	1.26
438.833	1.29
439.192	1.36
439.551	1.12
439.91	1.26
440.269	1.43
440.628	1.31
440.987	1.33
441.345	1.39
441.704	1.35
442.063	1.25
442.421	1.29
442.78	1.21
443.138	1.38
443.497	1.4
443.855	1.53
444.214	1.36
444.572	1.29
444.93	1.4
445.288	1.28
445.647	1.27
446.005	1.53
446.363	1.47
446.721	1.37
447.079	1.27
447.437	1.38
447.795	1.42
448.153	1.4
448.51	1.32
448.868	1.43
449.226	1.4
449.584	1.43
449.941	1.41
450.299	1.38
450.656	1.28
451.014	1.35
451.371	1.6
451.729	1.36
452.086	1.46
452.443	1.51
452.801	1.47
453.158	1.67
453.515	1.38
453.872	1.46
454.229	1.4
454.586	1.45
454.943	1.26
455.3	1.39
455.657	1.36
456.014	1.53
456.371	1.56
456.727	1.37
457.084	1.26
457.441	1.52
457.797	1.46
458.154	1.43
458.51	1.38
458.867	1.48
459.223	1.34
459.58	1.4
459.936	1.27
460.292	1.52
460.648	1.38
461.005	1.38
461.361	1.36
461.717	1.31
462.073	1.35
462.429	1.42
462.785	1.54
463.141	1.62
463.496	1.34
463.852	1.43
464.208	1.58
464.564	1.38
464.919	1.46
465.275	1.31
465.631	1.41
465.986	1.46
466.342	1.37
466.697	1.45
467.052	1.41
467.408	1.39
467.763	1.21
468.118	1.43
468.473	1.55
468.829	1.41
469.184	1.5
469.539	1.56
469.894	1.43
470.249	1.55
470.603	1.47
470.958	1.56
471.313	1.28
471.668	1.63
472.023	1.35
472.377	1.4
472.732	1.44
473.086	1.5
473.441	1.57
473.795	1.48
474.15	1.35
474.504	1.56
474.859	1.42
475.213	1.52
475.567	1.64
475.921	1.31
476.275	1.42
476.63	1.46
476.984	1.56
477.338	1.5
477.692	1.59
478.045	1.55
478.399	1.54
478.753	1.61
479.107	1.35
479.461	1.37
479.814	1.5
480.168	1.46
480.521	1.53
480.875	1.4
481.228	1.45
481.582	1.48
481.935	1.55
482.289	1.36
482.642	1.41
482.995	1.41
483.348	1.47
483.701	1.45
484.055	1.44
484.408	1.5
484.761	1.43
485.114	1.34
485.466	1.32
485.819	1.3
486.172	1.37
486.525	1.43
486.878	1.51
487.23	1.51
487.583	1.46
487.936	1.48
488.288	1.45
488.641	1.37
488.993	1.29
489.345	1.34
489.698	1.42
490.05	1.41
490.402	1.42
490.754	1.41
491.107	1.45
491.459	1.51
491.811	1.54
492.163	1.47
492.515	1.49
492.866	1.37
493.218	1.4
493.57	1.42
493.922	1.44
494.274	1.47
494.625	1.58
494.977	1.52
495.328	1.53
495.68	1.5
496.031	1.53
496.383	1.5
496.734	1.48
497.086	1.39
497.437	1.55
497.788	1.59
498.139	1.42
498.49	1.52
498.842	1.42
499.193	1.43
499.544	1.43
499.894	1.57
500.245	1.44
500.596	1.37
500.947	1.64
501.298	1.6
501.648	1.56
501.999	1.48
502.35	1.56
502.7	1.52
503.051	1.52
503.401	1.7
503.752	1.62
504.102	1.51
504.452	1.49
504.803	1.59
505.153	1.52
505.503	1.43
505.853	1.45
506.203	1.55
506.553	1.55
506.903	1.49
507.253	1.55
507.603	1.41
507.953	1.64
508.303	1.48
508.652	1.61
509.002	1.62
509.352	1.49
509.701	1.47
510.051	1.61
510.4	1.42
510.75	1.55
511.099	1.55
511.449	1.56
511.798	1.64
512.147	1.53
512.496	1.53
512.846	1.46
513.195	1.59
513.544	1.49
513.893	1.5
514.242	1.64
514.591	1.46
514.939	1.56
515.288	1.55
515.637	1.57
515.986	1.63
516.334	1.52
516.683	1.62
517.032	1.5
517.38	1.55
517.729	1.6
518.077	1.54
518.426	1.43
518.774	1.48
519.122	1.54
519.47	1.5
519.819	1.62
520.167	1.49
520.515	1.52
520.863	1.56
521.211	1.58
521.559	1.54
521.907	1.63
522.255	1.5
522.602	1.6
522.95	1.6
523.298	1.54
523.645	1.52
523.993	1.63
524.341	1.6
524.688	1.57
525.036	1.52
525.383	1.54
525.73	1.53
526.078	1.53
526.425	1.51
526.772	1.5
527.119	1.48
527.466	1.47
527.814	1.52
528.161	1.59
528.508	1.53
528.854	1.49
529.201	1.48
529.548	1.52
529.895	1.43
530.242	1.42
530.588	1.4
530.935	1.43
531.282	1.51
531.628	1.61
531.975	1.57
532.321	1.51
532.667	1.66
533.014	1.64
533.36	1.6
533.706	1.64
534.052	1.55
534.399	1.55
534.745	1.47
535.091	1.49
535.437	1.52
535.783	1.51
536.129	1.62
536.474	1.63
536.82	1.67
537.166	1.69
537.512	1.63
537.857	1.58
538.203	1.46
538.549	1.45
538.894	1.56
539.239	1.6
539.585	1.59
539.93	1.64
540.276	1.54
540.621	1.59
540.966	1.59
541.311	1.52
541.656	1.56
542.001	1.53
542.346	1.53
542.691	1.55
543.036	1.43
543.381	1.5
543.726	1.53
544.071	1.58
544.415	1.64
544.76	1.6
545.105	1.48
545.449	1.59
545.794	1.62
546.138	1.53
546.483	1.56
546.827	1.61
547.171	1.57
547.516	1.65
547.86	1.56
548.204	1.51
548.548	1.52
548.892	1.52
549.236	1.6
549.58	1.58
549.924	1.53
550.268	1.72
550.612	1.65
550.956	1.76
551.3	1.4
551.643	1.76
551.987	1.63
552.33	1.61
552.674	1.6
553.017	1.67
553.361	1.61
553.704	1.5
554.048	1.38
554.391	1.57
554.734	1.49
555.077	1.64
555.42	1.65
555.764	1.62
556.107	1.55
556.45	1.69
556.793	1.5
557.135	1.72
557.478	1.59
557.821	1.61
558.164	1.52
558.507	1.63
558.849	1.49
559.192	1.57
559.534	1.64
559.877	1.53
560.219	1.67
560.562	1.35
560.904	1.59
561.246	1.56
561.589	1.55
561.931	1.45
562.273	1.72
562.615	1.53
562.957	1.61
563.299	1.65
563.641	1.65
563.983	1.43
564.325	1.87
564.667	1.66
565.008	1.77
565.35	1.66
565.692	1.78
566.033	1.65
566.375	1.42
566.716	1.58
567.058	1.46
567.399	1.43
567.741	1.58
568.082	1.6
568.423	1.56
568.764	1.66
569.105	1.61
569.447	1.59
569.788	1.7
570.129	1.68
570.47	1.69
570.811	1.72
571.151	1.64
571.492	1.63
571.833	1.61
572.174	1.66
572.514	1.67
572.855	1.66
573.195	1.6
573.536	1.65
573.876	1.48
574.217	1.56
574.557	1.5
574.898	1.62
575.238	1.64
575.578	1.72
575.918	1.67
576.258	1.53
576.598	1.67
576.938	1.64
577.278	1.61
577.618	1.67
577.958	1.52
578.298	1.69
578.638	1.65
578.977	1.65
579.317	1.44
579.657	1.56
579.996	1.63
580.336	1.64
580.675	1.63
581.014	1.43
581.354	1.57
581.693	1.56
582.032	1.77
582.372	1.66
582.711	1.63
583.05	1.55
583.389	1.46
583.728	1.71
584.067	1.68
584.406	1.33
584.745	1.78
585.083	1.74
585.422	1.51
585.761	1.52
586.1	1.83
586.438	1.87
586.777	1.54
587.115	1.52
587.454	1.64
587.792	1.68
588.13	1.68
588.469	1.68
588.807	1.77
589.145	1.58
589.483	1.47
589.821	1.56
590.159	1.47
590.497	1.82
590.835	1.77
591.173	1.85
591.511	1.77
591.849	1.53
592.187	1.71
592.524	1.75
592.862	1.53
593.2	1.64
593.537	1.79
593.875	1.58
594.212	1.59
594.55	1.65
594.887	1.65
595.224	1.56
595.561	1.64
595.899	1.8
596.236	1.87
596.573	1.72
596.91	1.66
597.247	1.73
597.584	1.72
597.921	1.82
598.258	1.7
598.594	1.72
598.931	1.68
599.268	1.58
599.604	1.7
599.941	1.68
600.277	1.67
600.614	1.84
600.95	1.43
601.287	1.77
601.623	1.55
601.959	1.47
602.296	1.55
602.632	1.3
602.968	1.57
603.304	1.55
603.64	1.53
603.976	1.46
604.312	1.92
604.648	1.7
604.984	1.53
605.319	1.42
605.655	1.59
605.991	1.68
606.326	1.62
606.662	1.55
606.998	1.47
607.333	1.86
607.668	1.4
608.004	1.66
608.339	1.6
608.674	1.9
609.01	1.83
609.345	1.88
609.68	1.78
610.015	1.68
610.35	1.63
610.685	1.47
611.02	1.73
611.355	1.65
611.689	1.61
612.024	1.75
612.359	1.51
612.694	1.83
613.028	1.68
613.363	1.95
613.697	1.44
614.032	1.84
614.366	1.71
614.7	1.73
615.035	1.84
615.369	1.93
615.703	1.71
616.037	1.81
616.371	1.64
616.705	1.6
617.039	1.81
617.373	1.92
617.707	1.74
618.041	1.72
618.375	1.62
618.709	2.09
619.042	1.61
619.376	1.69
619.71	1.72
620.043	1.62
620.377	1.88
620.71	1.81
621.043	1.92
621.377	1.8
621.71	1.89
622.043	2.08
622.376	1.87
622.709	1.72
623.043	1.52
623.376	1.44
623.709	1.77
624.041	1.62
624.374	2.06
624.707	1.48
625.04	1.55
625.373	1.77
625.705	1.43
626.038	1.44
626.37	1.59
626.703	2.02
627.035	1.84
627.368	1.8
627.7	1.72
628.032	1.44
628.365	1.63
628.697	1.57
629.029	1.58
629.361	2.1
629.693	1.69
630.025	1.73
630.357	1.88
630.689	1.61
631.021	1.7
631.353	1.76
631.684	1.31
632.016	1.74
632.348	2.11
632.679	1.79
633.011	1.61
633.342	1.96
633.674	1.99
634.005	1.61
634.336	1.66
634.668	1.99
634.999	1.74
635.33	1.6
635.661	2.02
635.992	1.56
636.323	1.77
636.654	1.76
636.985	1.42
637.316	1.88
637.647	1.89
637.977	1.79
638.308	1.78
638.639	1.56
638.969	1.58
639.3	1.52
639.63	1.92
639.961	1.56
640.291	1.72
640.622	1.51
640.952	1.8
641.282	1.86
641.612	1.9
641.943	1.88
642.273	1.17
642.603	1.94
642.933	1.96
643.263	2.13
643.592	1.54
643.922	1.16
644.252	1.63
644.582	1.72
644.911	2.07
645.241	2
645.571	1.56
645.9	1.75
646.23	1.68
646.559	1.5
646.888	1.55
647.218	1.68
647.547	1.66
647.876	1.52
648.205	1.11
648.534	1.51
648.863	1.62
649.192	1.87
649.521	1.65
649.85	1.53
650.179	2.14
650.508	1.54
650.837	1.69
651.165	1.75
651.494	1.73
651.822	1.75
652.151	1.86
652.479	2.06
652.808	1.16
653.136	2.05
653.465	2.14
653.793	1.4
654.121	1.84
654.449	2.33
654.777	1.48
655.105	1.28
655.433	2.25
655.761	1.69
656.089	1.28
656.417	1.39
656.745	1.18
657.073	1.72
657.4	1.2
657.728	2.08
658.056	1.25
658.383	1.94
658.711	1.4
659.038	1.79
659.365	1.25
659.693	1.69
660.02	1.62
660.347	2.15
660.674	1.68
661.001	1.87
661.329	1.7
661.656	1.73
661.982	1.79
662.309	2.1
662.636	1.83
662.963	1.85
663.29	2.05
663.616	1.75
663.943	1.35
664.27	1.76
664.596	1.43
664.923	1.58
665.249	1.53
665.576	1.6
665.902	1.26
666.228	1.71
666.554	1.84
666.881	1.8
667.207	1.91
667.533	1.79
667.859	1.54
668.185	2.46
668.511	2.11
668.837	2.01
669.162	1.9
669.488	1.9
669.814	2.44
670.139	1.84
670.465	2.12
670.791	1.84
671.116	1.4
671.442	1.75
671.767	1.42
672.092	1.59
672.418	1.75
672.743	1.49
673.068	1.65
673.393	1.86
673.718	1.43
674.043	2.16
674.368	1.64
674.693	1.97
675.018	2.24
675.343	1.69
675.667	1.75
675.992	0.85
676.317	1.56
676.641	1.51
676.966	1.29
677.29	2
677.615	2.03
677.939	2.24
678.264	1.67
678.588	1.02
678.912	1.74
679.236	2.3
679.56	1.39
679.885	2.13
680.209	2.01
680.532	1.82
680.856	1.64
681.18	1.83
681.504	2.11
681.828	1.57
682.152	1.61
682.475	1.54
682.799	1.88
683.122	1.47
683.446	1.74
683.769	1.87
684.093	1.41
684.416	2.1
684.739	1.2
685.062	1.98
685.386	2.26
685.709	1.76
686.032	2.52
686.355	2.04
686.678	1.41
687.001	1.79
687.324	2.11
687.646	2.18
687.969	1.62
688.292	2.82
688.614	2.01
688.937	2.88
689.26	2.2
689.582	1.67
689.904	2.31
690.227	2.65
690.549	2.26
690.871	1.84
691.194	1.29
691.516	1.72
