Data from 0059_crown_Reflection__4__172.txt Node

Date: Fri Dec 16 15:22:32 CST 2022
User: ToomeyLab
Spectrometer: FLMS14357
Trigger mode: 0
Integration Time (sec): 1.000000E-2
Scans to average: 100
Electric dark correction enabled: true
Nonlinearity correction enabled: false
Boxcar width: 0
XAxis mode: Wavelengths
Number of Pixels in Spectrum: 2048
>>>>>Begin Spectral Data<<<<<
189.047	164
189.435	164
189.823	164
190.211	-1149.14
190.599	-55.8
190.987	468.1
191.375	-9.49
191.763	91.69
192.151	334.04
192.538	51.24
192.926	48.38
193.314	-25710.71
193.702	31.89
194.089	-9.9
194.477	-426.66
194.864	-966.86
195.252	-25.69
195.639	141.7
196.027	-382.43
196.414	315.7
196.801	-247.22
197.189	95.98
197.576	149.04
197.963	-38.56
198.351	13.96
198.738	-5.52
199.125	46.17
199.512	22.18
199.899	-26.02
200.286	-28.81
200.673	17.72
201.06	22.92
201.447	-15.85
201.833	-67.75
202.22	36.7
202.607	-11.33
202.994	28.89
203.38	-43.35
203.767	-84.42
204.154	-11.72
204.54	33.88
204.927	0.74
205.313	34.95
205.699	54.09
206.086	-35.63
206.472	1.04
206.858	29.72
207.245	41.36
207.631	-25.72
208.017	46.26
208.403	4.96
208.789	7.67
209.175	46.9
209.561	33.19
209.947	-21.53
210.333	-49.9
210.719	-5.93
211.105	-6.59
211.491	-9.79
211.876	-38.28
212.262	-52.78
212.648	-25.73
213.034	17.85
213.419	15.3
213.805	-11.06
214.19	-4.84
214.576	-5.51
214.961	6.9
215.346	-25.11
215.732	-2.76
216.117	-9.21
216.502	-16.99
216.888	-37.58
217.273	25.38
217.658	32.98
218.043	-8.93
218.428	16.85
218.813	-4.51
219.198	-11.35
219.583	-0.69
219.968	-18.1
220.353	3.18
220.738	-38.32
221.122	8.99
221.507	-5.77
221.892	5.79
222.276	10.25
222.661	-3.92
223.046	14.62
223.43	-0.2
223.815	6.34
224.199	8.8
224.583	-15.03
224.968	1.51
225.352	-0.73
225.736	5.03
226.121	-1.64
226.505	0.76
226.889	10.61
227.273	4.37
227.657	4.76
228.041	4.26
228.425	6.44
228.809	3.27
229.193	2.08
229.577	1.04
229.961	3.87
230.344	2.62
230.728	2.66
231.112	2.61
231.495	2.3
231.879	1.74
232.263	0.97
232.646	2.44
233.03	1.62
233.413	-0.86
233.797	5.58
234.18	1.57
234.563	2.35
234.946	2.35
235.33	1.99
235.713	3.75
236.096	2.88
236.479	4.25
236.862	2.48
237.245	4.3
237.628	3.43
238.011	1.46
238.394	6.1
238.777	1.9
239.16	-0.44
239.543	1.92
239.925	1.13
240.308	2.94
240.691	2.75
241.073	2.58
241.456	1.88
241.838	2.4
242.221	2.88
242.603	2.77
242.986	3.42
243.368	2.48
243.75	1.92
244.133	2.25
244.515	2.66
244.897	2.55
245.279	1.97
245.661	1.93
246.043	2.41
246.425	1.08
246.807	2.91
247.189	1.71
247.571	2.58
247.953	2.34
248.335	2.66
248.717	2.43
249.098	2.44
249.48	2.11
249.862	2.61
250.243	2.12
250.625	2.25
251.006	2.29
251.388	3.29
251.769	1.65
252.151	2.64
252.532	2.12
252.913	2.48
253.295	2.15
253.676	2.63
254.057	1.88
254.438	2.58
254.819	3.3
255.2	1.94
255.581	0.42
255.962	1.75
256.343	3.75
256.724	1.49
257.105	2.65
257.486	3.16
257.867	0.82
258.247	2.25
258.628	2.58
259.009	2.38
259.389	2.24
259.77	2.25
260.15	2.58
260.531	2.24
260.911	2.5
261.292	2.17
261.672	2.12
262.052	2.07
262.432	1.92
262.813	2.64
263.193	1.5
263.573	1.97
263.953	2.48
264.333	2.18
264.713	2.59
265.093	1.57
265.473	3.01
265.853	2.83
266.233	2.63
266.612	1.44
266.992	1.74
267.372	2.07
267.752	2.19
268.131	2.84
268.511	2.43
268.89	2.37
269.27	2.66
269.649	2.73
270.029	1.91
270.408	2.28
270.787	2.26
271.167	2.43
271.546	1.1
271.925	2.26
272.304	2.47
272.683	1.65
273.062	2.37
273.441	1.92
273.82	2.39
274.199	2.32
274.578	1.79
274.957	2.29
275.336	2.41
275.715	2.78
276.093	2.85
276.472	2.18
276.851	2.42
277.229	2.97
277.608	2.03
277.986	1.81
278.365	2.03
278.743	2.22
279.122	1.46
279.5	2.01
279.878	1.81
280.257	2.36
280.635	2.25
281.013	2.44
281.391	2.19
281.769	1.81
282.147	2.44
282.525	2.08
282.903	2.05
283.281	2.29
283.659	2.24
284.037	2.35
284.415	2.37
284.792	2.26
285.17	2.05
285.548	1.94
285.925	1.81
286.303	1.66
286.68	2.13
287.058	1.68
287.435	1.71
287.813	1.99
288.19	2.72
288.567	1.78
288.945	2.18
289.322	1.66
289.699	1.81
290.076	2.34
290.453	2.11
290.83	2.41
291.207	2.09
291.584	2.03
291.961	2.23
292.338	2.25
292.715	2.16
293.092	2.49
293.469	2.45
293.845	2.37
294.222	2.32
294.599	2.53
294.975	2.5
295.352	1.66
295.728	2.11
296.105	2.32
296.481	2.43
296.858	1.95
297.234	2.43
297.61	2.22
297.986	2.07
298.363	1.49
298.739	2.05
299.115	1.78
299.491	2.02
299.867	2.21
300.243	2.05
300.619	2.06
300.995	1.99
301.371	2.69
301.746	1.94
302.122	2.36
302.498	2.64
302.874	2.24
303.249	2.58
303.625	2.09
304	1.95
304.376	1.88
304.751	1.68
305.127	1.98
305.502	2.31
305.878	2.21
306.253	1.88
306.628	1.94
307.003	2.02
307.378	1.76
307.754	2.12
308.129	1.47
308.504	2.08
308.879	2.31
309.254	2.36
309.629	2.32
310.003	2.58
310.378	2.34
310.753	2.25
311.128	1.99
311.502	1.91
311.877	2.51
312.252	1.85
312.626	1.69
313.001	1.78
313.375	2.13
313.75	1.82
314.124	2.33
314.498	1.58
314.873	1.71
315.247	2.27
315.621	2.71
315.995	2.24
316.369	2.15
316.743	2.35
317.117	1.98
317.491	2.34
317.865	1.59
318.239	2.56
318.613	1.7
318.987	2.21
319.361	2.03
319.734	2.26
320.108	1.96
320.482	2.49
320.855	2.38
321.229	2.52
321.602	2
321.976	1.96
322.349	1.7
322.723	1.58
323.096	2
323.469	2.41
323.843	1.81
324.216	1.74
324.589	2.26
324.962	1.67
325.335	2.18
325.708	2.23
326.081	2.55
326.454	2.35
326.827	2.43
327.2	2.2
327.573	2.38
327.945	2.41
328.318	2.39
328.691	2
329.063	2.05
329.436	2.13
329.809	1.9
330.181	2.43
330.553	2.37
330.926	2.5
331.298	1.96
331.671	2.02
332.043	2.77
332.415	2.61
332.787	2.33
333.159	2.15
333.532	1.97
333.904	1.55
334.276	1.84
334.648	1.93
335.02	1.84
335.391	2.11
335.763	2.14
336.135	2.01
336.507	1.72
336.879	1.78
337.25	2.39
337.622	2.34
337.993	2.12
338.365	2.09
338.736	1.91
339.108	2.05
339.479	2.29
339.851	2.3
340.222	1.84
340.593	1.84
340.964	2.01
341.336	2.01
341.707	2.21
342.078	2.01
342.449	2.14
342.82	1.95
343.191	2.06
343.562	1.96
343.933	2.11
344.303	2.18
344.674	2.14
345.045	2.11
345.416	1.87
345.786	1.77
346.157	2.09
346.527	2.02
346.898	2.27
347.268	1.76
347.639	2.21
348.009	2.25
348.38	2.06
348.75	2.21
349.12	2.25
349.49	2.13
349.861	2.19
350.231	2.42
350.601	1.99
350.971	1.69
351.341	2.1
351.711	2.22
352.081	2.41
352.45	2.43
352.82	2.29
353.19	2.04
353.56	1.96
353.929	2.09
354.299	2.08
354.669	2.16
355.038	1.98
355.408	2.56
355.777	1.81
356.147	2.38
356.516	2.43
356.885	2.25
357.254	2.32
357.624	2.09
357.993	1.86
358.362	2.28
358.731	1.86
359.1	2.37
359.469	2.01
359.838	2
360.207	2.29
360.576	2.13
360.945	1.88
361.314	2.06
361.682	1.92
362.051	1.84
362.42	2.44
362.788	2.13
363.157	2.05
363.525	2
363.894	1.86
364.262	2.18
364.631	2.75
364.999	2.07
365.367	2.44
365.735	1.91
366.104	2.04
366.472	2.18
366.84	2.33
367.208	1.68
367.576	2.35
367.944	2.19
368.312	2.01
368.68	2.05
369.048	2.38
369.416	2.25
369.783	2.27
370.151	2.17
370.519	2.11
370.886	2.09
371.254	1.95
371.621	2.29
371.989	2.29
372.356	2.25
372.724	2.44
373.091	2.09
373.458	2.08
373.826	2.02
374.193	2.5
374.56	2.03
374.927	2.34
375.294	2.51
375.661	2.58
376.028	2.25
376.395	2.12
376.762	2.27
377.129	2.13
377.496	2.21
377.863	2.07
378.229	2.12
378.596	2.04
378.963	1.96
379.329	2.15
379.696	2.06
380.062	2.26
380.429	2.1
380.795	1.98
381.161	2.11
381.528	1.86
381.894	2.19
382.26	2.07
382.626	2.01
382.993	2.09
383.359	1.91
383.725	2.28
384.091	2.14
384.457	2.41
384.823	2.38
385.188	2.21
385.554	2.11
385.92	2.34
386.286	2.26
386.651	2.06
387.017	2.34
387.383	2.14
387.748	2.07
388.114	2.18
388.479	2.35
388.845	2.13
389.21	2.32
389.575	2.31
389.94	2.38
390.306	2.22
390.671	2.21
391.036	2.09
391.401	2.5
391.766	2.21
392.131	2.1
392.496	2.15
392.861	2.02
393.226	2.23
393.591	2.26
393.956	2.15
394.32	2.19
394.685	2.24
395.05	1.96
395.414	2.12
395.779	2.2
396.143	2.33
396.508	2.31
396.872	2.48
397.236	2.09
397.601	2.22
397.965	1.97
398.329	2.25
398.694	1.92
399.058	2.32
399.422	2.44
399.786	2.3
400.15	2.02
400.514	2.38
400.878	2.11
401.242	2.33
401.605	2.28
401.969	2.3
402.333	2.33
402.697	2.51
403.06	2.37
403.424	2.27
403.787	2.59
404.151	2.19
404.514	2.26
404.878	2.2
405.241	2.23
405.604	2.22
405.968	2.17
406.331	2.31
406.694	2.12
407.057	2.61
407.42	2.11
407.783	2.12
408.146	2.12
408.509	2.04
408.872	2.17
409.235	2.27
409.598	2.41
409.961	2.32
410.323	2.04
410.686	2.37
411.049	1.93
411.411	2.1
411.774	2.18
412.136	2.21
412.499	2.02
412.861	2.25
413.223	2.36
413.586	2.14
413.948	2.17
414.31	2.4
414.672	2.13
415.035	2.5
415.397	2.43
415.759	2.26
416.121	2.58
416.483	2.34
416.845	2.27
417.206	2.33
417.568	2.23
417.93	2.12
418.292	2.21
418.653	2.23
419.015	2.28
419.377	2.27
419.738	2.19
420.1	2.24
420.461	2.18
420.822	2.31
421.184	2.23
421.545	2.28
421.906	2.25
422.267	2.15
422.629	2.25
422.99	2.22
423.351	2.28
423.712	2.16
424.073	2.38
424.434	2.21
424.795	2.15
425.155	2.29
425.516	2.26
425.877	2.35
426.238	2.11
426.598	2.25
426.959	2.12
427.32	2.34
427.68	2.25
428.041	2.26
428.401	2.22
428.761	2.22
429.122	2.31
429.482	2.27
429.842	2.41
430.202	2.26
430.563	2.19
430.923	2.27
431.283	2.33
431.643	2.28
432.003	2.38
432.363	2.36
432.722	2.27
433.082	2.46
433.442	2.17
433.802	2.25
434.161	2.08
434.521	2.31
434.881	2.35
435.24	2.23
435.6	2.37
435.959	2.36
436.319	2.29
436.678	2.29
437.037	2.22
437.396	2.32
437.756	2.28
438.115	2.4
438.474	2.42
438.833	2.49
439.192	2.41
439.551	2.49
439.91	2.44
440.269	2.48
440.628	2.37
440.987	2.18
441.345	2.26
441.704	2.46
442.063	2.37
442.421	2.4
442.78	2.27
443.138	2.35
443.497	2.26
443.855	2.27
444.214	2.4
444.572	2.3
444.93	2.44
445.288	2.34
445.647	2.35
446.005	2.4
446.363	2.4
446.721	2.21
447.079	2.45
447.437	2.3
447.795	2.36
448.153	2.37
448.51	2.26
448.868	2.37
449.226	2.37
449.584	2.35
449.941	2.4
450.299	2.23
450.656	2.5
451.014	2.33
451.371	2.33
451.729	2.39
452.086	2.34
452.443	2.42
452.801	2.55
453.158	2.45
453.515	2.48
453.872	2.57
454.229	2.23
454.586	2.32
454.943	2.42
455.3	2.47
455.657	2.32
456.014	2.48
456.371	2.45
456.727	2.35
457.084	2.26
457.441	2.53
457.797	2.44
458.154	2.33
458.51	2.43
458.867	2.39
459.223	2.36
459.58	2.32
459.936	2.39
460.292	2.48
460.648	2.35
461.005	2.35
461.361	2.44
461.717	2.32
462.073	2.5
462.429	2.46
462.785	2.53
463.141	2.45
463.496	2.43
463.852	2.58
464.208	2.53
464.564	2.38
464.919	2.33
465.275	2.46
465.631	2.36
465.986	2.47
466.342	2.56
466.697	2.37
467.052	2.42
467.408	2.43
467.763	2.34
468.118	2.54
468.473	2.57
468.829	2.46
469.184	2.75
469.539	2.48
469.894	2.37
470.249	2.52
470.603	2.48
470.958	2.53
471.313	2.33
471.668	2.62
472.023	2.68
472.377	2.48
472.732	2.36
473.086	2.39
473.441	2.56
473.795	2.72
474.15	2.47
474.504	2.44
474.859	2.46
475.213	2.52
475.567	2.45
475.921	2.65
476.275	2.45
476.63	2.58
476.984	2.44
477.338	2.78
477.692	2.34
478.045	2.5
478.399	2.57
478.753	2.44
479.107	2.44
479.461	2.5
479.814	2.46
480.168	2.37
480.521	2.43
480.875	2.7
481.228	2.6
481.582	2.49
481.935	2.47
482.289	2.38
482.642	2.56
482.995	2.48
483.348	2.53
483.701	2.47
484.055	2.42
484.408	2.41
484.761	2.26
485.114	2.27
485.466	2.3
485.819	2.37
486.172	2.39
486.525	2.5
486.878	2.48
487.23	2.45
487.583	2.42
487.936	2.5
488.288	2.43
488.641	2.4
488.993	2.33
489.345	2.38
489.698	2.44
490.05	2.48
490.402	2.56
490.754	2.55
491.107	2.55
491.459	2.55
491.811	2.63
492.163	2.55
492.515	2.47
492.866	2.39
493.218	2.4
493.57	2.5
493.922	2.5
494.274	2.56
494.625	2.5
494.977	2.58
495.328	2.63
495.68	2.78
496.031	2.66
496.383	2.54
496.734	2.7
497.086	2.48
497.437	2.64
497.788	2.53
498.139	2.58
498.49	2.57
498.842	2.57
499.193	2.52
499.544	2.78
499.894	2.58
500.245	2.57
500.596	2.62
500.947	2.59
501.298	2.52
501.648	2.55
501.999	2.73
502.35	2.76
502.7	2.63
503.051	2.64
503.401	2.61
503.752	2.57
504.102	2.51
504.452	2.59
504.803	2.55
505.153	2.7
505.503	2.56
505.853	2.59
506.203	2.68
506.553	2.69
506.903	2.59
507.253	2.75
507.603	2.72
507.953	2.82
508.303	2.65
508.652	2.6
509.002	2.66
509.352	2.59
509.701	2.7
510.051	2.62
510.4	2.68
510.75	2.69
511.099	2.58
511.449	2.62
511.798	2.8
512.147	2.6
512.496	2.75
512.846	2.55
513.195	2.61
513.544	2.67
513.893	2.49
514.242	2.73
514.591	2.82
514.939	2.56
515.288	2.66
515.637	2.83
515.986	2.69
516.334	2.72
516.683	2.72
517.032	2.74
517.38	2.7
517.729	2.66
518.077	2.81
518.426	2.57
518.774	2.62
519.122	2.76
519.47	2.67
519.819	2.68
520.167	2.66
520.515	2.63
520.863	2.76
521.211	2.69
521.559	2.61
521.907	2.78
522.255	2.78
522.602	2.69
522.95	2.78
523.298	2.74
523.645	2.67
523.993	2.74
524.341	2.58
524.688	2.6
525.036	2.75
525.383	2.8
525.73	2.76
526.078	2.71
526.425	2.64
526.772	2.54
527.119	2.66
527.466	2.62
527.814	2.63
528.161	2.72
528.508	2.72
528.854	2.59
529.201	2.58
529.548	2.56
529.895	2.51
530.242	2.56
530.588	2.62
530.935	2.65
531.282	2.71
531.628	2.67
531.975	2.74
532.321	2.68
532.667	2.73
533.014	2.69
533.36	2.72
533.706	2.74
534.052	2.69
534.399	2.57
534.745	2.56
535.091	2.62
535.437	2.74
535.783	2.78
536.129	2.72
536.474	2.85
536.82	2.73
537.166	2.8
537.512	2.72
537.857	2.72
538.203	2.72
538.549	2.79
538.894	2.76
539.239	2.93
539.585	2.96
539.93	2.95
540.276	2.86
540.621	2.85
540.966	2.76
541.311	2.85
541.656	2.72
542.001	2.75
542.346	2.64
542.691	2.61
543.036	2.65
543.381	2.74
543.726	2.78
544.071	2.81
544.415	2.81
544.76	2.73
545.105	2.77
545.449	2.86
545.794	2.81
546.138	2.86
546.483	2.9
546.827	2.79
547.171	2.85
547.516	2.89
547.86	2.88
548.204	2.78
548.548	2.96
548.892	2.84
549.236	2.85
549.58	2.91
549.924	2.89
550.268	2.99
550.612	2.94
550.956	2.77
551.3	2.88
551.643	2.92
551.987	2.77
552.33	2.82
552.674	2.86
553.017	2.94
553.361	2.89
553.704	2.77
554.048	2.91
554.391	2.81
554.734	2.82
555.077	2.96
555.42	2.91
555.764	2.95
556.107	3.05
556.45	2.74
556.793	3.08
557.135	3.05
557.478	3.09
557.821	2.81
558.164	2.94
558.507	2.93
558.849	2.99
559.192	3
559.534	2.91
559.877	2.91
560.219	3.23
560.562	3.03
560.904	2.99
561.246	3.22
561.589	2.97
561.931	3.11
562.273	3.02
562.615	3.11
562.957	3.09
563.299	3.06
563.641	3.03
563.983	3.1
564.325	2.88
564.667	2.95
565.008	2.84
565.35	3.25
565.692	3.24
566.033	3
566.375	2.84
566.716	3.06
567.058	3.12
567.399	3.13
567.741	3.21
568.082	2.92
568.423	2.92
568.764	3.03
569.105	3
569.447	3.09
569.788	3.16
570.129	3.08
570.47	3.07
570.811	3.05
571.151	3.14
571.492	3.34
571.833	3.05
572.174	2.95
572.514	2.97
572.855	3.16
573.195	3.08
573.536	2.96
573.876	3.04
574.217	3.1
574.557	3.14
574.898	2.94
575.238	3.02
575.578	3.17
575.918	3.02
576.258	3.04
576.598	2.86
576.938	3.2
577.278	3.07
577.618	2.98
577.958	2.99
578.298	3.08
578.638	3.09
578.977	3.14
579.317	3.22
579.657	2.98
579.996	3.19
580.336	3.2
580.675	3.21
581.014	3.1
581.354	3.48
581.693	3.02
582.032	3.06
582.372	3.42
582.711	3.03
583.05	3.21
583.389	3.01
583.728	3.24
584.067	3.19
584.406	3.25
584.745	3.09
585.083	3.22
585.422	3.06
585.761	3.21
586.1	3.19
586.438	3.21
586.777	3.06
587.115	3.25
587.454	3.01
587.792	3.03
588.13	3.29
588.469	3.46
588.807	3.3
589.145	3.28
589.483	3.26
589.821	3.32
590.159	3.05
590.497	3.14
590.835	3.23
591.173	3.33
591.511	3.25
591.849	3.3
592.187	3.26
592.524	3.15
592.862	3.35
593.2	3.16
593.537	2.97
593.875	3.25
594.212	3.34
594.55	3.28
594.887	3.27
595.224	3.18
595.561	3.33
595.899	3.32
596.236	3.44
596.573	3.13
596.91	3.23
597.247	3.21
597.584	3.22
597.921	3.18
598.258	3.22
598.594	3
598.931	3.23
599.268	3.16
599.604	3.46
599.941	3.27
600.277	3.33
600.614	3.13
600.95	3.53
601.287	3.37
601.623	3.36
601.959	3.03
602.296	3.37
602.632	3.5
602.968	3.41
603.304	3.31
603.64	3.27
603.976	3.3
604.312	3.41
604.648	3.22
604.984	3.14
605.319	3.26
605.655	3.32
605.991	3.28
606.326	3.15
606.662	3.27
606.998	3.27
607.333	3.31
607.668	3.36
608.004	3.27
608.339	3.49
608.674	3.16
609.01	3.32
609.345	3.32
609.68	3.05
610.015	3.39
610.35	3.38
610.685	3.29
611.02	3.63
611.355	3.35
611.689	3.1
612.024	3.52
612.359	3.51
612.694	3.57
613.028	3.54
613.363	3.23
613.697	3.43
614.032	3.72
614.366	2.91
614.7	3.55
615.035	3.19
615.369	3.52
615.703	3.94
616.037	3.22
616.371	3.41
616.705	3.23
617.039	3.62
617.373	3.47
617.707	3.22
618.041	3.76
618.375	2.9
618.709	3.54
619.042	3.57
619.376	3.49
619.71	3.41
620.043	3.19
620.377	3.42
620.71	3.21
621.043	3.6
621.377	3.25
621.71	3.73
622.043	3.72
622.376	3.45
622.709	3.74
623.043	3.68
623.376	3.58
623.709	3.64
624.041	3.38
624.374	3.47
624.707	3.39
625.04	3.89
625.373	3.34
625.705	3.31
626.038	3.44
626.37	3.28
626.703	3.33
627.035	3.67
627.368	3.34
627.7	3.73
628.032	3.71
628.365	3.48
628.697	3.48
629.029	3.6
629.361	3.4
629.693	3.92
630.025	3.64
630.357	3.35
630.689	3.9
631.021	3.48
631.353	3.89
631.684	3.75
632.016	3.34
632.348	3.63
632.679	3.13
633.011	3.74
633.342	3.32
633.674	3.51
634.005	3.66
634.336	3.62
634.668	3.47
634.999	3.43
635.33	3.66
635.661	3.73
635.992	3.47
636.323	3.68
636.654	3.97
636.985	3.51
637.316	3.66
637.647	3.69
637.977	3.59
638.308	3.69
638.639	3.56
638.969	3.89
639.3	3.79
639.63	3.32
639.961	3.78
640.291	3.67
640.622	3.56
640.952	3.72
641.282	3.23
641.612	3.53
641.943	3.79
642.273	3.69
642.603	4
642.933	3.81
643.263	3.62
643.592	4.07
643.922	4.04
644.252	3.89
644.582	3.43
644.911	3.66
645.241	3.63
645.571	3.55
645.9	4.18
646.23	3.29
646.559	3.77
646.888	3.93
647.218	4.06
647.547	3.96
647.876	4.1
648.205	3.54
648.534	3.53
648.863	3.91
649.192	3.54
649.521	3.35
649.85	4.15
650.179	3
650.508	4.04
650.837	3.56
651.165	3.87
651.494	3.67
651.822	3.9
652.151	4.29
652.479	4.31
652.808	3.47
653.136	3.79
653.465	3.93
653.793	4.13
654.121	3.93
654.449	3.83
654.777	3.96
655.105	4.12
655.433	3.85
655.761	3.77
656.089	3.91
656.417	3.63
656.745	4.65
657.073	3.91
657.4	4.2
657.728	4.25
658.056	3.89
658.383	3.87
658.711	3.57
659.038	3.8
659.365	4.16
659.693	4.22
660.02	3.53
660.347	4.19
660.674	3.65
661.001	3.44
661.329	3.89
661.656	3.87
661.982	4.01
662.309	3.94
662.636	3.85
662.963	4.05
663.29	3.76
663.616	3.79
663.943	4.17
664.27	3.93
664.596	3.71
664.923	4.67
665.249	3.99
665.576	3.84
665.902	3.64
666.228	3.89
666.554	3.91
666.881	4.04
667.207	3.69
667.533	4.32
667.859	3.7
668.185	4.26
668.511	3.05
668.837	3.24
669.162	4.05
669.488	3.97
669.814	4.72
670.139	4.67
670.465	4.05
670.791	3.83
671.116	3.59
671.442	4.09
671.767	3.91
672.092	4.49
672.418	3.94
672.743	3.88
673.068	4.19
673.393	3.97
673.718	4.23
674.043	4.16
674.368	4.39
674.693	4.04
675.018	3.95
675.343	4.38
675.667	4.03
675.992	3.73
676.317	4.71
676.641	4.12
676.966	4.4
677.29	3.26
677.615	4.44
677.939	3.85
678.264	4.06
678.588	3.71
678.912	4.02
679.236	4.15
679.56	3.76
679.885	3.9
680.209	3.4
680.532	4.2
680.856	4.87
681.18	4.14
681.504	4.17
681.828	3.74
682.152	3.94
682.475	4.41
682.799	4.25
683.122	4.13
683.446	3.64
683.769	4.02
684.093	4.55
684.416	3.65
684.739	4.12
685.062	3.74
685.386	3.76
685.709	3.68
686.032	4.23
686.355	3.78
686.678	4.43
687.001	3.54
687.324	3.98
687.646	3.62
687.969	4.19
688.292	4.3
688.614	4.48
688.937	4.15
689.26	3.87
689.582	3.67
689.904	3.88
690.227	4.26
690.549	4.4
690.871	4.21
691.194	4.45
691.516	4.38
691.838	4.41
