Data from 0059_chest_Reflection__2__165.txt Node

Date: Fri Dec 16 15:20:21 CST 2022
User: ToomeyLab
Spectrometer: FLMS14357
Trigger mode: 0
Integration Time (sec): 1.000000E-2
Scans to average: 100
Electric dark correction enabled: true
Nonlinearity correction enabled: false
Boxcar width: 0
XAxis mode: Wavelengths
Number of Pixels in Spectrum: 2048
>>>>>Begin Spectral Data<<<<<
189.047	-40.52
189.435	-40.52
189.823	-40.52
190.211	-743.39
190.599	60.22
190.987	-2252.59
191.375	60.08
191.763	117.75
192.151	295.08
192.538	283.36
192.926	-43.1
193.314	-27067.86
193.702	-94.78
194.089	-34.59
194.477	-278.46
194.864	644.77
195.252	-16.69
195.639	141.79
196.027	-84.04
196.414	-381.28
196.801	-671.03
197.189	108.38
197.576	-99.04
197.963	-31.51
198.351	-18.83
198.738	-51.75
199.125	14.58
199.512	-36.22
199.899	-28.59
200.286	-33.72
200.673	13.37
201.06	46.39
201.447	54.36
201.833	-19.89
202.22	-0.19
202.607	-27.64
202.994	32.1
203.38	-22.67
203.767	-66.77
204.154	-42.09
204.54	14.82
204.927	30.55
205.313	43.48
205.699	13.7
206.086	-39.04
206.472	-9.97
206.858	3.29
207.245	5.41
207.631	-4.99
208.017	31.51
208.403	-22.21
208.789	27.9
209.175	34.71
209.561	-18.61
209.947	-7.12
210.333	-48.52
210.719	-13.3
211.105	-53.08
211.491	-7.82
211.876	-26.14
212.262	-33.97
212.648	-48.38
213.034	-12.4
213.419	-12.51
213.805	-25.48
214.19	-17.09
214.576	-9.14
214.961	-13.25
215.346	-48.09
215.732	-31.16
216.117	4.18
216.502	-28.73
216.888	-32.35
217.273	12.04
217.658	-26.42
218.043	15.09
218.428	-0.69
218.813	-7.82
219.198	-30.44
219.583	-4.24
219.968	-46.93
220.353	0.57
220.738	-4.07
221.122	-7.56
221.507	-14.68
221.892	-4.6
222.276	-0.38
222.661	-10.17
223.046	-7.21
223.43	-6.83
223.815	13.63
224.199	4.35
224.583	-7.07
224.968	7.43
225.352	-7.01
225.736	7.68
226.121	-7.36
226.505	-5.42
226.889	10.43
227.273	-1.72
227.657	-2.23
228.041	5.63
228.425	4.13
228.809	3.39
229.193	1.64
229.577	1.66
229.961	2.95
230.344	3.74
230.728	2.85
231.112	2.5
231.495	2.93
231.879	1.65
232.263	2.71
232.646	1.96
233.03	2.47
233.413	-0.7
233.797	6.4
234.18	0.35
234.563	-1.58
234.946	3.42
235.33	4.76
235.713	3.54
236.096	2.55
236.479	3.5
236.862	3.98
237.245	3.92
237.628	1.48
238.011	3.41
238.394	3.73
238.777	3.71
239.16	-0.38
239.543	2.07
239.925	3.9
240.308	3.7
240.691	1.51
241.073	1.9
241.456	2.25
241.838	2.8
242.221	3.8
242.603	3.75
242.986	4.66
243.368	3.92
243.75	3.46
244.133	3.47
244.515	3.25
244.897	3.33
245.279	3.45
245.661	3.53
246.043	3.11
246.425	2.88
246.807	3.61
247.189	3.21
247.571	3.68
247.953	3.58
248.335	3.84
248.717	3.34
249.098	3.76
249.48	3.47
249.862	3.54
250.243	3.32
250.625	3.46
251.006	4.16
251.388	3.06
251.769	4.64
252.151	3.45
252.532	3.22
252.913	2.59
253.295	3.18
253.676	3.27
254.057	3.61
254.438	2.95
254.819	3.2
255.2	2.71
255.581	2.97
255.962	3.21
256.343	2.83
256.724	3.66
257.105	3.43
257.486	2.83
257.867	1.56
258.247	3.49
258.628	3.64
259.009	3.32
259.389	3.85
259.77	3.4
260.15	3.85
260.531	3.69
260.911	3.49
261.292	3.2
261.672	3.19
262.052	3.19
262.432	2.81
262.813	2.95
263.193	2.76
263.573	3.17
263.953	3.16
264.333	2.97
264.713	2.51
265.093	3.05
265.473	3.38
265.853	3.24
266.233	2.83
266.612	3.54
266.992	3.23
267.372	3.27
267.752	2.85
268.131	2.59
268.511	2.88
268.89	3.42
269.27	3.27
269.649	3.59
270.029	3.06
270.408	3.12
270.787	2.7
271.167	3.2
271.546	2.43
271.925	2.95
272.304	3.51
272.683	3.01
273.062	3.49
273.441	3.45
273.82	3.66
274.199	2.99
274.578	3.17
274.957	2.7
275.336	3.14
275.715	3.18
276.093	3.22
276.472	3.31
276.851	3.59
277.229	3.65
277.608	2.36
277.986	2.79
278.365	2.45
278.743	3.05
279.122	2.48
279.5	3.02
279.878	2.2
280.257	2.91
280.635	2.14
281.013	3
281.391	2.89
281.769	2.74
282.147	3.39
282.525	2.73
282.903	2.63
283.281	2.76
283.659	3.25
284.037	3.11
284.415	3.12
284.792	3.04
285.17	2.54
285.548	2.58
285.925	2.34
286.303	2.9
286.68	3.07
287.058	3.13
287.435	2.75
287.813	2.95
288.19	3.39
288.567	2.78
288.945	2.91
289.322	2.84
289.699	2.69
290.076	2.98
290.453	2.94
290.83	3.17
291.207	2.72
291.584	2.92
291.961	2.93
292.338	2.72
292.715	3.04
293.092	2.95
293.469	3.16
293.845	2.89
294.222	2.98
294.599	3.12
294.975	3.07
295.352	2.71
295.728	3.56
296.105	3.2
296.481	3.4
296.858	3.09
297.234	2.72
297.61	3.12
297.986	3.46
298.363	2.71
298.739	3.17
299.115	2.89
299.491	2.86
299.867	2.97
300.243	3
300.619	3.05
300.995	3.18
301.371	3.03
301.746	2.54
302.122	3.28
302.498	2.88
302.874	3.11
303.249	3.28
303.625	2.95
304	2.49
304.376	2.95
304.751	2.35
305.127	2.83
305.502	2.92
305.878	2.61
306.253	3.05
306.628	3.23
307.003	2.76
307.378	2.43
307.754	3.3
308.129	2.05
308.504	2.67
308.879	2.62
309.254	2.97
309.629	3.18
310.003	3.35
310.378	3.05
310.753	3.09
311.128	3.11
311.502	2.8
311.877	2.64
312.252	2.76
312.626	2.95
313.001	3.02
313.375	3.12
313.75	3.02
314.124	3.5
314.498	2.7
314.873	3.12
315.247	3.18
315.621	2.98
315.995	3.02
316.369	3.06
316.743	2.92
317.117	3
317.491	3.18
317.865	2.06
318.239	3.09
318.613	2.76
318.987	2.8
319.361	3.39
319.734	2.7
320.108	2.9
320.482	2.7
320.855	3.1
321.229	3.17
321.602	2.94
321.976	3.41
322.349	2.05
322.723	2.41
323.096	3.01
323.469	2.52
323.843	3.05
324.216	2.4
324.589	3.44
324.962	2.72
325.335	2.88
325.708	3.17
326.081	3.71
326.454	3.05
326.827	3.45
327.2	3.48
327.573	2.96
327.945	2.84
328.318	3.36
328.691	2.88
329.063	2.99
329.436	2.73
329.809	2.84
330.181	2.61
330.553	2.87
330.926	3.64
331.298	2.24
331.671	3.07
332.043	3.09
332.415	3.13
332.787	3.98
333.159	3.07
333.532	3.28
333.904	3.15
334.276	3.19
334.648	3
335.02	2.72
335.391	3.19
335.763	3.05
336.135	3.3
336.507	2.9
336.879	2.98
337.25	2.95
337.622	3.05
337.993	2.96
338.365	3.05
338.736	3.08
339.108	2.65
339.479	3.07
339.851	3.25
340.222	3.01
340.593	2.62
340.964	2.48
341.336	2.7
341.707	3.2
342.078	2.74
342.449	2.95
342.82	2.94
343.191	2.43
343.562	3.19
343.933	2.81
344.303	2.99
344.674	2.67
345.045	3.51
345.416	2.53
345.786	2.64
346.157	3.07
346.527	2.85
346.898	2.9
347.268	3.16
347.639	2.96
348.009	3.55
348.38	2.67
348.75	2.96
349.12	3.06
349.49	2.75
349.861	3.19
350.231	3.48
350.601	3.2
350.971	2.88
351.341	2.96
351.711	3.02
352.081	2.89
352.45	2.8
352.82	2.78
353.19	3.06
353.56	2.66
353.929	3.42
354.299	2.96
354.669	3.02
355.038	3.01
355.408	3.29
355.777	2.89
356.147	3.08
356.516	3.15
356.885	2.76
357.254	3.24
357.624	3.32
357.993	2.94
358.362	3.31
358.731	3.05
359.1	3.31
359.469	3.28
359.838	2.96
360.207	2.85
360.576	2.84
360.945	2.7
361.314	3.4
361.682	2.69
362.051	2.92
362.42	3.24
362.788	3.27
363.157	3.01
363.525	2.92
363.894	2.81
364.262	3.05
364.631	3.75
364.999	2.64
365.367	3.57
365.735	2.81
366.104	3.12
366.472	3.56
366.84	3.19
367.208	2.92
367.576	3.21
367.944	3.5
368.312	2.97
368.68	3.14
369.048	3.41
369.416	3.19
369.783	3.05
370.151	3.19
370.519	3.25
370.886	3.53
371.254	3
371.621	3.13
371.989	3.06
372.356	3.37
372.724	3.34
373.091	3.41
373.458	3.26
373.826	2.94
374.193	3.02
374.56	2.89
374.927	3.06
375.294	3.58
375.661	3.09
376.028	3.02
376.395	3.21
376.762	3.08
377.129	3.65
377.496	3.05
377.863	3.07
378.229	3.05
378.596	3.24
378.963	3.04
379.329	3.17
379.696	3.17
380.062	3.41
380.429	3.05
380.795	3.18
381.161	3.16
381.528	2.95
381.894	3.43
382.26	2.83
382.626	3.12
382.993	2.95
383.359	3.22
383.725	3.73
384.091	3.08
384.457	3.47
384.823	3.17
385.188	3.36
385.554	3.18
385.92	3.64
386.286	3.43
386.651	3.34
387.017	3.43
387.383	3.13
387.748	3.12
388.114	3.34
388.479	3.44
388.845	3.19
389.21	3.41
389.575	3.25
389.94	3.38
390.306	3.26
390.671	3.35
391.036	3.52
391.401	3.38
391.766	3.27
392.131	3.11
392.496	3.17
392.861	3.04
393.226	3.43
393.591	3.58
393.956	3.42
394.32	3.19
394.685	3.65
395.05	3.16
395.414	3.4
395.779	3.33
396.143	3.51
396.508	3.39
396.872	3.46
397.236	2.97
397.601	3.23
397.965	3.11
398.329	3.47
398.694	3.08
399.058	3.22
399.422	3.24
399.786	3.23
400.15	3.15
400.514	3.38
400.878	3.34
401.242	3.44
401.605	3.33
401.969	3.44
402.333	3.34
402.697	3.39
403.06	3.57
403.424	3.23
403.787	3.61
404.151	3.27
404.514	3.44
404.878	3.47
405.241	3.39
405.604	3.45
405.968	3.37
406.331	3.44
406.694	3.59
407.057	3.67
407.42	3.45
407.783	3.35
408.146	3.25
408.509	3.12
408.872	3.2
409.235	3.48
409.598	3.57
409.961	3.41
410.323	3.43
410.686	3.36
411.049	3.26
411.411	3.32
411.774	3.16
412.136	3.42
412.499	3.4
412.861	3.21
413.223	3.62
413.586	3.45
413.948	3.43
414.31	3.47
414.672	3.46
415.035	3.47
415.397	3.36
415.759	3.3
416.121	3.5
416.483	3.49
416.845	3.57
417.206	3.42
417.568	3.38
417.93	3.32
418.292	3.39
418.653	3.42
419.015	3.45
419.377	3.57
419.738	3.43
420.1	3.29
420.461	3.34
420.822	3.44
421.184	3.4
421.545	3.4
421.906	3.39
422.267	3.29
422.629	3.4
422.99	3.45
423.351	3.47
423.712	3.42
424.073	3.46
424.434	3.43
424.795	3.41
425.155	3.46
425.516	3.41
425.877	3.34
426.238	3.38
426.598	3.51
426.959	3.39
427.32	3.52
427.68	3.59
428.041	3.54
428.401	3.49
428.761	3.46
429.122	3.41
429.482	3.47
429.842	3.41
430.202	3.43
430.563	3.56
430.923	3.71
431.283	3.57
431.643	3.59
432.003	3.56
432.363	3.6
432.722	3.51
433.082	3.52
433.442	3.37
433.802	3.44
434.161	3.38
434.521	3.51
434.881	3.61
435.24	3.48
435.6	3.39
435.959	3.43
436.319	3.37
436.678	3.45
437.037	3.71
437.396	3.6
437.756	3.37
438.115	3.55
438.474	3.6
438.833	3.57
439.192	3.7
439.551	3.59
439.91	3.69
440.269	3.68
440.628	3.62
440.987	3.44
441.345	3.54
441.704	3.57
442.063	3.59
442.421	3.59
442.78	3.5
443.138	3.53
443.497	3.51
443.855	3.47
444.214	3.56
444.572	3.64
444.93	3.66
445.288	3.54
445.647	3.61
446.005	3.44
446.363	3.57
446.721	3.44
447.079	3.64
447.437	3.49
447.795	3.47
448.153	3.59
448.51	3.5
448.868	3.67
449.226	3.58
449.584	3.64
449.941	3.7
450.299	3.57
450.656	3.67
451.014	3.62
451.371	3.6
451.729	3.64
452.086	3.52
452.443	3.64
452.801	3.65
453.158	3.63
453.515	3.6
453.872	3.73
454.229	3.67
454.586	3.63
454.943	3.53
455.3	3.8
455.657	3.55
456.014	3.77
456.371	3.88
456.727	3.66
457.084	3.5
457.441	3.62
457.797	3.73
458.154	3.7
458.51	3.69
458.867	3.61
459.223	3.76
459.58	3.58
459.936	3.64
460.292	3.68
460.648	3.56
461.005	3.58
461.361	3.63
461.717	3.61
462.073	3.64
462.429	3.75
462.785	3.75
463.141	3.77
463.496	3.68
463.852	3.85
464.208	3.68
464.564	3.66
464.919	3.53
465.275	3.76
465.631	3.79
465.986	3.65
466.342	3.71
466.697	3.61
467.052	3.82
467.408	3.65
467.763	3.58
468.118	3.69
468.473	3.96
468.829	3.65
469.184	3.83
469.539	3.67
469.894	3.78
470.249	3.69
470.603	3.81
470.958	3.9
471.313	3.74
471.668	3.78
472.023	3.98
472.377	3.69
472.732	3.74
473.086	3.59
473.441	3.76
473.795	3.96
474.15	3.61
474.504	3.61
474.859	3.86
475.213	3.78
475.567	3.54
475.921	3.68
476.275	3.89
476.63	3.83
476.984	3.63
477.338	4.05
477.692	3.73
478.045	3.72
478.399	3.78
478.753	3.62
479.107	3.77
479.461	3.79
479.814	3.71
480.168	3.86
480.521	3.74
480.875	3.96
481.228	3.91
481.582	3.78
481.935	3.8
482.289	3.68
482.642	3.82
482.995	3.66
483.348	3.83
483.701	3.77
484.055	3.67
484.408	3.75
484.761	3.6
485.114	3.61
485.466	3.55
485.819	3.64
486.172	3.69
486.525	3.7
486.878	3.77
487.23	3.78
487.583	3.74
487.936	3.79
488.288	3.77
488.641	3.7
488.993	3.61
489.345	3.68
489.698	3.78
490.05	3.66
490.402	3.84
490.754	3.84
491.107	3.84
491.459	3.91
491.811	3.9
492.163	3.86
492.515	3.81
492.866	3.71
493.218	3.71
493.57	3.78
493.922	3.81
494.274	3.89
494.625	3.9
494.977	3.83
495.328	4.01
495.68	4.03
496.031	4.02
496.383	3.89
496.734	3.96
497.086	3.86
497.437	3.95
497.788	3.92
498.139	3.93
498.49	3.92
498.842	3.89
499.193	3.88
499.544	4.05
499.894	3.89
500.245	3.94
500.596	3.97
500.947	4.03
501.298	3.84
501.648	3.94
501.999	4.15
502.35	4.09
502.7	4.15
503.051	4.14
503.401	3.98
503.752	4.04
504.102	4.04
504.452	3.93
504.803	3.9
505.153	4.03
505.503	4.02
505.853	3.97
506.203	4
506.553	4.11
506.903	4.09
507.253	4.22
507.603	4.06
507.953	4.18
508.303	4.11
508.652	4.08
509.002	4.15
509.352	4.1
509.701	4.07
510.051	4.1
510.4	4.09
510.75	4.02
511.099	4.08
511.449	4.12
511.798	4.18
512.147	4.13
512.496	4.07
512.846	4.1
513.195	4.12
513.544	4.12
513.893	3.99
514.242	4.14
514.591	4.22
514.939	4.19
515.288	4.21
515.637	4.26
515.986	4.2
516.334	4.28
516.683	4.21
517.032	4.17
517.38	4.18
517.729	4.2
518.077	4.24
518.426	4.19
518.774	4.28
519.122	4.19
519.47	4.15
519.819	4.23
520.167	4.2
520.515	4.2
520.863	4.21
521.211	4.18
521.559	4.2
521.907	4.18
522.255	4.28
522.602	4.35
522.95	4.33
523.298	4.32
523.645	4.28
523.993	4.35
524.341	4.33
524.688	4.37
525.036	4.4
525.383	4.37
525.73	4.35
526.078	4.36
526.425	4.44
526.772	4.19
527.119	4.28
527.466	4.23
527.814	4.31
528.161	4.36
528.508	4.3
528.854	4.29
529.201	4.28
529.548	4.25
529.895	4.15
530.242	4.16
530.588	4.28
530.935	4.28
531.282	4.35
531.628	4.37
531.975	4.48
532.321	4.38
532.667	4.47
533.014	4.46
533.36	4.39
533.706	4.51
534.052	4.28
534.399	4.34
534.745	4.32
535.091	4.32
535.437	4.38
535.783	4.5
536.129	4.51
536.474	4.62
536.82	4.57
537.166	4.55
537.512	4.56
537.857	4.5
538.203	4.54
538.549	4.6
538.894	4.54
539.239	4.69
539.585	4.66
539.93	4.6
540.276	4.57
540.621	4.77
540.966	4.74
541.311	4.77
541.656	4.74
542.001	4.73
542.346	4.6
542.691	4.48
543.036	4.48
543.381	4.53
543.726	4.67
544.071	4.75
544.415	4.7
544.76	4.62
545.105	4.72
545.449	4.69
545.794	4.79
546.138	4.89
546.483	4.82
546.827	4.84
547.171	4.89
547.516	4.9
547.86	4.79
548.204	4.84
548.548	4.97
548.892	5
549.236	5.03
549.58	5.01
549.924	4.93
550.268	5.13
550.612	5.02
550.956	4.79
551.3	4.97
551.643	4.96
551.987	4.98
552.33	5.09
552.674	5.22
553.017	5.04
553.361	5.13
553.704	4.92
554.048	5.15
554.391	5.06
554.734	5.19
555.077	5.14
555.42	5.12
555.764	5.23
556.107	5.13
556.45	5.14
556.793	5.2
557.135	5.34
557.478	5.25
557.821	5.26
558.164	5.17
558.507	5.24
558.849	5.23
559.192	5.35
559.534	5.12
559.877	5.44
560.219	5.58
560.562	5.36
560.904	5.42
561.246	5.41
561.589	5.42
561.931	5.51
562.273	5.41
562.615	5.43
562.957	5.52
563.299	5.48
563.641	5.68
563.983	5.5
564.325	5.4
564.667	5.44
565.008	5.38
565.35	5.69
565.692	5.74
566.033	5.65
566.375	5.44
566.716	5.59
567.058	5.77
567.399	5.66
567.741	5.8
568.082	5.63
568.423	5.66
568.764	5.69
569.105	5.75
569.447	5.8
569.788	5.83
570.129	5.79
570.47	5.82
570.811	5.86
571.151	5.68
571.492	5.85
571.833	5.81
572.174	5.87
572.514	5.75
572.855	5.82
573.195	5.83
573.536	5.94
573.876	6.02
574.217	5.92
574.557	6.1
574.898	5.94
575.238	5.96
575.578	6.06
575.918	5.88
576.258	6.12
576.598	6.03
576.938	6.14
577.278	6.04
577.618	6.05
577.958	6.27
578.298	6.16
578.638	6.22
578.977	6.45
579.317	6.16
579.657	6.33
579.996	6.23
580.336	6.01
580.675	6.33
581.014	6.32
581.354	6.28
581.693	6.27
582.032	6.14
582.372	6.24
582.711	6.44
583.05	6.42
583.389	6.6
583.728	6.41
584.067	6.46
584.406	6.82
584.745	6.49
585.083	6.55
585.422	6.53
585.761	6.7
586.1	6.74
586.438	6.79
586.777	6.84
587.115	6.63
587.454	6.71
587.792	6.49
588.13	6.88
588.469	6.93
588.807	6.95
589.145	6.8
589.483	6.67
589.821	6.91
590.159	6.88
590.497	6.65
590.835	6.87
591.173	6.98
591.511	6.95
591.849	6.97
592.187	6.96
592.524	6.75
592.862	6.95
593.2	7.06
593.537	6.97
593.875	7.1
594.212	7.08
594.55	7.05
594.887	7.32
595.224	7.23
595.561	7.21
595.899	7.09
596.236	7.18
596.573	7.14
596.91	7.33
597.247	7.07
597.584	7.42
597.921	7.51
598.258	7.37
598.594	7.06
598.931	7.06
599.268	7.12
599.604	7.54
599.941	7.37
600.277	7.36
600.614	7.6
600.95	7.43
601.287	7.54
601.623	7.76
601.959	7.35
602.296	7.69
602.632	7.92
602.968	7.44
603.304	7.46
603.64	7.67
603.976	7.58
604.312	7.75
604.648	7.81
604.984	7.78
605.319	7.81
605.655	7.79
605.991	7.78
606.326	7.62
606.662	7.67
606.998	7.82
607.333	7.86
607.668	8.01
608.004	7.93
608.339	7.91
608.674	8
609.01	8.11
609.345	8.04
609.68	7.84
610.015	7.85
610.35	8.16
610.685	8.17
611.02	8.05
611.355	8.22
611.689	8.05
612.024	8.29
612.359	8.16
612.694	8.35
613.028	8.55
613.363	8.09
613.697	8.54
614.032	8.4
614.366	8.35
614.7	8.68
615.035	8.26
615.369	8.55
615.703	8.84
616.037	8.23
616.371	8.45
616.705	8.13
617.039	8.7
617.373	8.42
617.707	8.23
618.041	8.74
618.375	8.32
618.709	8.67
619.042	8.36
619.376	8.6
619.71	8.52
620.043	8.71
620.377	8.63
620.71	8.74
621.043	8.44
621.377	8.71
621.71	8.93
622.043	8.84
622.376	8.82
622.709	8.95
623.043	9.04
623.376	9.23
623.709	9.13
624.041	8.74
624.374	8.89
624.707	8.92
625.04	9.52
625.373	9.17
625.705	9.06
626.038	9.19
626.37	8.86
626.703	9.11
627.035	9.27
627.368	9.21
627.7	9.35
628.032	9.32
628.365	9.18
628.697	9.3
629.029	9.6
629.361	9.09
629.693	9.4
630.025	9.44
630.357	9.43
630.689	9.79
631.021	9.48
631.353	9.79
631.684	9.77
632.016	9.1
632.348	9.81
632.679	9.64
633.011	9.6
633.342	9.62
633.674	9.49
634.005	9.83
634.336	9.55
634.668	9.79
634.999	9.72
635.33	9.84
635.661	10.07
635.992	9.47
636.323	9.69
636.654	10.1
636.985	9.93
637.316	9.73
637.647	9.86
637.977	9.7
638.308	10.09
638.639	10
638.969	10.22
639.3	9.98
639.63	9.88
639.961	9.94
640.291	10.35
640.622	10.28
640.952	10.27
641.282	9.89
641.612	10.23
641.943	10.6
642.273	10.63
642.603	10.56
642.933	10.08
643.263	11.2
643.592	10.53
643.922	10.55
644.252	10.78
644.582	10.08
644.911	10.39
645.241	10.46
645.571	10.69
645.9	10.71
646.23	10.54
646.559	10.7
646.888	10.64
647.218	10.64
647.547	11.08
647.876	10.7
648.205	10.16
648.534	10.35
648.863	10.96
649.192	10.58
649.521	10.54
649.85	11.44
650.179	10.5
650.508	10.99
650.837	10.68
651.165	11.21
651.494	10.8
651.822	11.2
652.151	11.74
652.479	11.79
652.808	10.73
653.136	11.17
653.465	11.57
653.793	11.82
654.121	11.34
654.449	11.53
654.777	11.13
655.105	11.58
655.433	11.51
655.761	11.12
656.089	11.42
656.417	11.1
656.745	11.81
657.073	12.25
657.4	11.6
657.728	11.38
658.056	11.73
658.383	11.33
658.711	11.63
659.038	11.92
659.365	11.5
659.693	11.58
660.02	11.58
660.347	11.47
660.674	11.37
661.001	11.11
661.329	11.81
661.656	11.66
661.982	12.1
662.309	12.27
662.636	11.96
662.963	11.74
663.29	12.13
663.616	12.15
663.943	12.6
664.27	12.01
664.596	12.32
664.923	12.38
665.249	12.02
665.576	11.76
665.902	11.83
666.228	12.15
666.554	11.93
666.881	11.99
667.207	11.65
667.533	12.77
667.859	12.02
668.185	12.39
668.511	12.56
668.837	12
669.162	12.01
669.488	12.29
669.814	12.82
670.139	12.97
670.465	12.78
670.791	12.42
671.116	12.45
671.442	12.62
671.767	12.48
672.092	13.01
672.418	12.16
672.743	12.46
673.068	12.3
673.393	12.9
673.718	12.64
674.043	12.51
674.368	13.37
674.693	12.85
675.018	12.79
675.343	13.14
675.667	13
675.992	12.38
676.317	13.46
676.641	12.87
676.966	13.19
677.29	13.07
677.615	13.45
677.939	13.6
678.264	13.31
678.588	13.33
678.912	13.42
679.236	13.83
679.56	12.83
679.885	13.9
680.209	12.45
680.532	12.96
680.856	13.59
681.18	13.11
681.504	13.34
681.828	12.7
682.152	13.23
682.475	13.27
682.799	13.57
683.122	13.08
683.446	13.47
683.769	13.55
684.093	13.47
684.416	13.12
684.739	13.86
685.062	13.31
685.386	13.7
685.709	13.53
686.032	13.2
686.355	13.52
686.678	13.64
687.001	12.66
687.324	13.47
687.646	13.73
687.969	13.83
688.292	14.07
