Data from 0059_crown_Reflection__1__169.txt Node

Date: Fri Dec 16 15:21:53 CST 2022
User: ToomeyLab
Spectrometer: FLMS14357
Trigger mode: 0
Integration Time (sec): 1.000000E-2
Scans to average: 100
Electric dark correction enabled: true
Nonlinearity correction enabled: false
Boxcar width: 0
XAxis mode: Wavelengths
Number of Pixels in Spectrum: 2048
>>>>>Begin Spectral Data<<<<<
189.047	83.34
189.435	83.34
189.823	83.34
190.211	-1030.17
190.599	-65.76
190.987	4621.55
191.375	116.43
191.763	202.22
192.151	-274.6
192.538	148.24
192.926	-114.21
193.314	-20860.71
193.702	-119
194.089	159.81
194.477	29.99
194.864	511.05
195.252	50.02
195.639	88.52
196.027	-22.39
196.414	216.96
196.801	-1295.63
197.189	120.89
197.576	155.25
197.963	-120.58
198.351	24.38
198.738	-50.34
199.125	17.57
199.512	18.92
199.899	-43.07
200.286	-36.41
200.673	23.68
201.06	-2.04
201.447	34.02
201.833	51.99
202.22	23.3
202.607	4.96
202.994	-4.12
203.38	-59.97
203.767	-63.02
204.154	-64.2
204.54	43.02
204.927	17.04
205.313	-1.35
205.699	2.83
206.086	-31.92
206.472	-25.65
206.858	16.76
207.245	-3.29
207.631	-11.29
208.017	39.65
208.403	3.43
208.789	-43.75
209.175	47.83
209.561	-17.67
209.947	-26.93
210.333	-54.69
210.719	10.87
211.105	-35.36
211.491	-36.42
211.876	9.91
212.262	-59.97
212.648	-97.03
213.034	6.39
213.419	12.19
213.805	3.61
214.19	-8.28
214.576	-20.7
214.961	15.36
215.346	-51.91
215.732	-14.28
216.117	-15.66
216.502	-69.07
216.888	-48.81
217.273	40.71
217.658	-49.01
218.043	-5.18
218.428	-1.73
218.813	-40.98
219.198	-26.46
219.583	8.17
219.968	-0.32
220.353	3.71
220.738	-33.38
221.122	-16.15
221.507	-7.26
221.892	-11.09
222.276	16.15
222.661	-21.02
223.046	0.78
223.43	-16.73
223.815	-9.5
224.199	0.45
224.583	4.31
224.968	4.78
225.352	-13.04
225.736	-9.17
226.121	0
226.505	1.32
226.889	5.61
227.273	-0.7
227.657	-3.81
228.041	4.27
228.425	2.95
228.809	-0.38
229.193	0.51
229.577	0.5
229.961	1.44
230.344	2.24
230.728	2.03
231.112	1.36
231.495	1.7
231.879	0.9
232.263	0.46
232.646	1.99
233.03	-0.53
233.413	0.61
233.797	2.03
234.18	-2.34
234.563	-0.65
234.946	-0.66
235.33	1.16
235.713	2.05
236.096	1.35
236.479	2.43
236.862	-0.14
237.245	2.98
237.628	0.86
238.011	2.03
238.394	4.49
238.777	1.56
239.16	-1.05
239.543	0.6
239.925	0.57
240.308	2.46
240.691	1.45
241.073	2.15
241.456	1.79
241.838	1.33
242.221	1.51
242.603	1.51
242.986	3.03
243.368	1.94
243.75	1.66
244.133	1.61
244.515	2.37
244.897	1.89
245.279	1.74
245.661	1.27
246.043	1.56
246.425	2.14
246.807	1.75
247.189	1.24
247.571	2.05
247.953	1.86
248.335	2
248.717	1.86
249.098	2.04
249.48	1.99
249.862	1.74
250.243	1.42
250.625	1.46
251.006	1.22
251.388	1.49
251.769	1.39
252.151	1.59
252.532	2.05
252.913	1.75
253.295	2
253.676	1.99
254.057	1.42
254.438	1.2
254.819	1.98
255.2	0.83
255.581	0.84
255.962	0.61
256.343	1.42
256.724	0.81
257.105	1.5
257.486	1.6
257.867	0.24
258.247	1.25
258.628	2.01
259.009	1.42
259.389	1.44
259.77	1.61
260.15	2.07
260.531	1.95
260.911	1.59
261.292	1.7
261.672	1.67
262.052	1.78
262.432	1.58
262.813	1.78
263.193	1.4
263.573	1.27
263.953	1.21
264.333	1.63
264.713	1.75
265.093	1.29
265.473	1.43
265.853	1.45
266.233	1.14
266.612	2.16
266.992	1.66
267.372	1.29
267.752	1.55
268.131	1.59
268.511	2.04
268.89	2.22
269.27	1.94
269.649	2.04
270.029	1.87
270.408	1.24
270.787	1.49
271.167	2.24
271.546	0.78
271.925	1.55
272.304	1.73
272.683	1.28
273.062	1.7
273.441	1.7
273.82	2.19
274.199	1.82
274.578	1.46
274.957	1.8
275.336	1.44
275.715	1.84
276.093	2.2
276.472	1.66
276.851	1.85
277.229	1.73
277.608	1.76
277.986	1.05
278.365	1.12
278.743	1.97
279.122	1.18
279.5	1.42
279.878	0.69
280.257	1.79
280.635	0.83
281.013	1.99
281.391	1.14
281.769	1.34
282.147	1.92
282.525	1.47
282.903	1.7
283.281	1.24
283.659	1.96
284.037	1.82
284.415	1.72
284.792	1.49
285.17	1.18
285.548	1.43
285.925	1.45
286.303	1.13
286.68	1.88
287.058	1.72
287.435	1.17
287.813	1.58
288.19	1.64
288.567	1.38
288.945	1.24
289.322	0.89
289.699	1.54
290.076	1.71
290.453	1.71
290.83	1.69
291.207	1.67
291.584	1.52
291.961	1.55
292.338	1.72
292.715	1.48
293.092	1.41
293.469	1.77
293.845	1.55
294.222	1.83
294.599	1.94
294.975	1.75
295.352	1.08
295.728	1.38
296.105	1.49
296.481	1.65
296.858	1.46
297.234	1.42
297.61	1.54
297.986	1.72
298.363	0.93
298.739	1.66
299.115	1
299.491	1.63
299.867	1.63
300.243	1.44
300.619	1.23
300.995	1.45
301.371	1.87
301.746	1.61
302.122	1.57
302.498	1.59
302.874	1.69
303.249	1.97
303.625	1.6
304	1.06
304.376	0.98
304.751	1.75
305.127	1.53
305.502	1.64
305.878	1.22
306.253	1.11
306.628	1.69
307.003	1.65
307.378	1.14
307.754	1.48
308.129	0.94
308.504	1.24
308.879	1.61
309.254	1.44
309.629	1.24
310.003	1.76
310.378	1.66
310.753	1.73
311.128	1.23
311.502	1.15
311.877	1.32
312.252	1.48
312.626	1.38
313.001	1.24
313.375	1.86
313.75	1.24
314.124	1.94
314.498	1.41
314.873	1.29
315.247	0.99
315.621	1.54
315.995	1.42
316.369	1.7
316.743	1.97
317.117	1.4
317.491	1.9
317.865	0.82
318.239	1.73
318.613	1.57
318.987	1.37
319.361	1.18
319.734	2.03
320.108	1.62
320.482	1.42
320.855	1.89
321.229	1.54
321.602	1.34
321.976	1.16
322.349	1.31
322.723	0.85
323.096	0.96
323.469	0.93
323.843	1.31
324.216	1.35
324.589	1.81
324.962	1.37
325.335	1.27
325.708	1.27
326.081	1.6
326.454	1.56
326.827	1.75
327.2	1.34
327.573	1.98
327.945	1.58
328.318	1.4
328.691	1.51
329.063	1.17
329.436	1.55
329.809	1.17
330.181	0.96
330.553	1.87
330.926	1.87
331.298	1.04
331.671	1.44
332.043	1.13
332.415	1.98
332.787	2.07
333.159	1.36
333.532	1.22
333.904	1.34
334.276	1.3
334.648	1.56
335.02	1.26
335.391	1.47
335.763	1.57
336.135	0.89
336.507	2.32
336.879	1.62
337.25	2.1
337.622	1.38
337.993	1.84
338.365	1.46
338.736	1.8
339.108	1.31
339.479	1.21
339.851	1.65
340.222	1.47
340.593	1.28
340.964	1.77
341.336	1.31
341.707	1.47
342.078	1.2
342.449	1.7
342.82	1.58
343.191	1.13
343.562	1.46
343.933	1.54
344.303	1.86
344.674	1.47
345.045	1.78
345.416	1.46
345.786	1.46
346.157	1.22
346.527	1.21
346.898	1.38
347.268	1.15
347.639	1.49
348.009	1.89
348.38	1.81
348.75	1.8
349.12	1.94
349.49	1.51
349.861	2.15
350.231	1.74
350.601	1.7
350.971	1.35
351.341	1.83
351.711	1.42
352.081	1.99
352.45	1.58
352.82	1.48
353.19	1.53
353.56	1.43
353.929	1.51
354.299	1.43
354.669	1.6
355.038	1.74
355.408	2.17
355.777	1.47
356.147	1.75
356.516	1.95
356.885	1.5
357.254	2.14
357.624	1.61
357.993	1.43
358.362	1.82
358.731	1.57
359.1	1.72
359.469	1.86
359.838	1.66
360.207	1.28
360.576	1.56
360.945	1.29
361.314	1.74
361.682	1.41
362.051	1.46
362.42	1.91
362.788	1.67
363.157	1.48
363.525	1.52
363.894	1.36
364.262	1.21
364.631	2.24
364.999	1.43
365.367	1.89
365.735	1.36
366.104	1.15
366.472	1.86
366.84	1.55
367.208	1.48
367.576	1.29
367.944	1.89
368.312	1.17
368.68	1.65
369.048	1.63
369.416	1.79
369.783	1.48
370.151	1.33
370.519	1.29
370.886	1.31
371.254	1.65
371.621	1.73
371.989	1.67
372.356	1.65
372.724	1.6
373.091	1.52
373.458	1.59
373.826	1.62
374.193	2.17
374.56	1.58
374.927	1.46
375.294	1.96
375.661	1.74
376.028	1.42
376.395	1.84
376.762	1.88
377.129	2.05
377.496	1.69
377.863	1.67
378.229	1.67
378.596	1.47
378.963	1.49
379.329	1.56
379.696	1.76
380.062	2.16
380.429	1.58
380.795	1.35
381.161	1.55
381.528	1.33
381.894	1.63
382.26	1.58
382.626	1.6
382.993	1.51
383.359	1.58
383.725	1.76
384.091	1.65
384.457	1.8
384.823	1.63
385.188	1.72
385.554	2.04
385.92	1.96
386.286	1.93
386.651	1.69
387.017	1.76
387.383	1.86
387.748	1.56
388.114	1.66
388.479	1.7
388.845	1.82
389.21	1.82
389.575	1.94
389.94	1.56
390.306	1.6
390.671	1.6
391.036	1.94
391.401	1.79
391.766	1.74
392.131	1.52
392.496	1.61
392.861	1.63
393.226	1.66
393.591	1.82
393.956	1.72
394.32	1.67
394.685	1.81
395.05	1.62
395.414	1.84
395.779	1.59
396.143	1.87
396.508	1.9
396.872	1.73
397.236	1.34
397.601	1.83
397.965	1.55
398.329	1.89
398.694	1.59
399.058	1.73
399.422	1.87
399.786	1.83
400.15	1.88
400.514	1.69
400.878	1.76
401.242	1.9
401.605	1.72
401.969	1.74
402.333	1.61
402.697	1.97
403.06	1.74
403.424	1.7
403.787	1.73
404.151	1.7
404.514	1.89
404.878	1.68
405.241	1.86
405.604	1.88
405.968	1.64
406.331	1.76
406.694	1.72
407.057	2.13
407.42	1.68
407.783	1.63
408.146	1.68
408.509	1.49
408.872	1.56
409.235	1.92
409.598	2.05
409.961	1.84
410.323	1.74
410.686	1.87
411.049	1.46
411.411	1.83
411.774	1.66
412.136	1.77
412.499	1.62
412.861	1.52
413.223	1.92
413.586	1.71
413.948	1.83
414.31	2
414.672	1.81
415.035	1.91
415.397	1.83
415.759	1.82
416.121	1.92
416.483	2.05
416.845	1.77
417.206	1.77
417.568	1.71
417.93	1.85
418.292	1.78
418.653	1.82
419.015	1.87
419.377	1.8
419.738	1.76
420.1	1.79
420.461	1.7
420.822	1.83
421.184	1.74
421.545	1.72
421.906	1.81
422.267	1.65
422.629	1.75
422.99	1.84
423.351	1.74
423.712	1.76
424.073	1.87
424.434	1.79
424.795	1.8
425.155	1.8
425.516	1.75
425.877	1.79
426.238	1.71
426.598	1.82
426.959	1.73
427.32	1.85
427.68	1.93
428.041	1.85
428.401	1.96
428.761	1.7
429.122	1.77
429.482	1.61
429.842	1.88
430.202	1.78
430.563	1.74
430.923	1.75
431.283	1.86
431.643	1.78
432.003	1.93
432.363	1.97
432.722	1.65
433.082	1.77
433.442	1.65
433.802	1.89
434.161	1.7
434.521	1.93
434.881	1.84
435.24	1.74
435.6	1.77
435.959	1.74
436.319	1.76
436.678	1.84
437.037	1.86
437.396	1.9
437.756	1.88
438.115	1.89
438.474	1.86
438.833	1.76
439.192	2.02
439.551	1.83
439.91	1.89
440.269	1.96
440.628	1.85
440.987	1.76
441.345	1.81
441.704	1.84
442.063	1.92
442.421	1.92
442.78	1.78
443.138	1.87
443.497	1.77
443.855	1.87
444.214	1.94
444.572	1.9
444.93	1.88
445.288	1.89
445.647	1.94
446.005	1.71
446.363	1.81
446.721	1.64
447.079	1.79
447.437	1.87
447.795	1.93
448.153	1.92
448.51	1.8
448.868	1.88
449.226	1.93
449.584	1.81
449.941	1.87
450.299	1.88
450.656	1.8
451.014	1.77
451.371	1.96
451.729	1.85
452.086	1.68
452.443	1.69
452.801	1.97
453.158	1.78
453.515	1.75
453.872	1.97
454.229	1.78
454.586	1.87
454.943	1.77
455.3	2.04
455.657	1.76
456.014	1.9
456.371	2.04
456.727	1.76
457.084	1.79
457.441	1.82
457.797	1.86
458.154	1.91
458.51	1.87
458.867	1.75
459.223	1.85
459.58	1.89
459.936	1.79
460.292	1.9
460.648	1.77
461.005	1.81
461.361	1.83
461.717	1.86
462.073	1.86
462.429	1.84
462.785	1.82
463.141	1.97
463.496	1.86
463.852	1.83
464.208	1.85
464.564	1.84
464.919	2
465.275	1.82
465.631	1.97
465.986	1.75
466.342	1.89
466.697	1.84
467.052	1.89
467.408	1.93
467.763	1.79
468.118	1.99
468.473	1.88
468.829	1.73
469.184	1.98
469.539	1.88
469.894	1.81
470.249	1.85
470.603	1.91
470.958	2.01
471.313	1.9
471.668	2.03
472.023	1.99
472.377	1.93
472.732	1.75
473.086	1.75
473.441	1.97
473.795	2.08
474.15	1.74
474.504	1.97
474.859	1.98
475.213	1.85
475.567	1.97
475.921	2.18
476.275	2.03
476.63	1.92
476.984	1.77
477.338	2.04
477.692	1.94
478.045	1.9
478.399	2
478.753	1.81
479.107	2.01
479.461	1.98
479.814	1.93
480.168	1.98
480.521	1.85
480.875	1.99
481.228	1.96
481.582	1.88
481.935	1.89
482.289	1.93
482.642	1.94
482.995	1.9
483.348	1.89
483.701	1.88
484.055	1.85
484.408	1.85
484.761	1.71
485.114	1.76
485.466	1.75
485.819	1.8
486.172	1.87
486.525	1.91
486.878	1.91
487.23	1.88
487.583	1.85
487.936	1.85
488.288	1.83
488.641	1.79
488.993	1.75
489.345	1.78
489.698	1.88
490.05	1.88
490.402	1.95
490.754	2.01
491.107	1.97
491.459	1.97
491.811	1.99
492.163	1.98
492.515	1.87
492.866	1.76
493.218	1.84
493.57	1.93
493.922	1.91
494.274	1.9
494.625	1.94
494.977	1.91
495.328	1.96
495.68	2.12
496.031	2.04
496.383	2.03
496.734	1.99
497.086	1.93
497.437	2.01
497.788	1.91
498.139	1.89
498.49	1.94
498.842	1.94
499.193	1.92
499.544	1.99
499.894	1.99
500.245	1.95
500.596	1.97
500.947	1.96
501.298	1.9
501.648	1.9
501.999	2.12
502.35	2.07
502.7	1.94
503.051	2.28
503.401	2.01
503.752	1.98
504.102	2.02
504.452	1.86
504.803	1.85
505.153	2
505.503	1.95
505.853	1.92
506.203	2.04
506.553	2.02
506.903	1.93
507.253	1.97
507.603	1.89
507.953	2.15
508.303	2.04
508.652	1.9
509.002	2.02
509.352	1.99
509.701	1.9
510.051	2.01
510.4	2
510.75	1.95
511.099	1.97
511.449	1.9
511.798	2.09
512.147	1.99
512.496	2.04
512.846	1.87
513.195	2.05
513.544	1.96
513.893	1.92
514.242	2.05
514.591	2.02
514.939	2.08
515.288	1.99
515.637	2.07
515.986	1.98
516.334	2.08
516.683	2.1
517.032	1.99
517.38	2.08
517.729	2.06
518.077	2.07
518.426	2.02
518.774	1.99
519.122	1.91
519.47	1.88
519.819	1.98
520.167	1.97
520.515	1.93
520.863	1.98
521.211	2.01
521.559	2.03
521.907	2.02
522.255	2.02
522.602	2.04
522.95	1.99
523.298	2.01
523.645	1.99
523.993	2.07
524.341	2
524.688	1.91
525.036	2.06
525.383	1.93
525.73	2.07
526.078	2
526.425	2.01
526.772	1.84
527.119	1.97
527.466	1.99
527.814	1.95
528.161	1.91
528.508	2.03
528.854	1.88
529.201	1.9
529.548	1.84
529.895	1.85
530.242	1.85
530.588	1.9
530.935	1.97
531.282	1.99
531.628	2.01
531.975	2.05
532.321	1.99
532.667	2.05
533.014	2
533.36	2.02
533.706	1.94
534.052	1.92
534.399	1.88
534.745	1.86
535.091	1.93
535.437	1.98
535.783	2.07
536.129	2.03
536.474	2.04
536.82	1.99
537.166	1.95
537.512	2.04
537.857	1.93
538.203	1.95
538.549	2.07
538.894	2
539.239	2.11
539.585	2.09
539.93	2.12
540.276	1.97
540.621	1.95
540.966	1.96
541.311	2.12
541.656	1.84
542.001	2.04
542.346	1.99
542.691	1.9
543.036	1.85
543.381	1.98
543.726	2.01
544.071	2.04
544.415	2.06
544.76	1.97
545.105	2.04
545.449	2
545.794	1.96
546.138	2.15
546.483	1.94
546.827	2.04
547.171	1.98
547.516	2.17
547.86	1.99
548.204	1.97
548.548	2.13
548.892	2.11
549.236	2.06
549.58	1.95
549.924	2.05
550.268	2.17
550.612	2.24
550.956	1.91
551.3	2.03
551.643	2.11
551.987	2.09
552.33	2.14
552.674	2.14
553.017	2.03
553.361	1.95
553.704	1.92
554.048	2.18
554.391	1.98
554.734	2.04
555.077	2.06
555.42	2.05
555.764	2.07
556.107	2.09
556.45	2.05
556.793	2.25
557.135	2.13
557.478	2.26
557.821	2.03
558.164	2.29
558.507	2.07
558.849	2.12
559.192	2.15
559.534	2.08
559.877	2.29
560.219	2.15
560.562	2.26
560.904	2.09
561.246	2.3
561.589	2.08
561.931	2.28
562.273	2.01
562.615	2.2
562.957	2.11
563.299	1.98
563.641	2.13
563.983	1.96
564.325	1.99
564.667	2.1
565.008	2.21
565.35	2.16
565.692	2.21
566.033	2.18
566.375	1.86
566.716	2.13
567.058	2.22
567.399	2.09
567.741	2.19
568.082	2.05
568.423	1.92
568.764	2.15
569.105	2.14
569.447	2.15
569.788	1.99
570.129	2.21
570.47	2.22
570.811	2.03
571.151	2.13
571.492	2.14
571.833	2.3
572.174	2.02
572.514	1.92
572.855	2.22
573.195	2.03
573.536	2.03
573.876	2.14
574.217	2.16
574.557	2.17
574.898	1.96
575.238	2.07
575.578	2.22
575.918	2.1
576.258	1.98
576.598	2.1
576.938	2.19
577.278	2.08
577.618	2.2
577.958	2.09
578.298	2.2
578.638	2.11
578.977	2.3
579.317	2.07
579.657	2.14
579.996	2.17
580.336	2.26
580.675	2.16
581.014	2.18
581.354	2.2
581.693	2.01
582.032	1.82
582.372	2.23
582.711	2.01
583.05	2.22
583.389	2.29
583.728	2.23
584.067	2.1
584.406	2.36
584.745	2.09
585.083	2.36
585.422	2.19
585.761	2.42
586.1	2.23
586.438	2.17
586.777	2.13
587.115	2.3
587.454	2.24
587.792	2.18
588.13	2.32
588.469	2.26
588.807	2.33
589.145	2.35
589.483	2.01
589.821	2.07
590.159	2.2
590.497	2
590.835	1.91
591.173	2.28
591.511	2.22
591.849	2.21
592.187	2.1
592.524	2.37
592.862	2.21
593.2	2.3
593.537	2.09
593.875	2.14
594.212	2.13
594.55	2.18
594.887	2.46
595.224	2.02
595.561	2.02
595.899	2.02
596.236	2.08
596.573	2.16
596.91	2.07
597.247	2
597.584	2.38
597.921	2.14
598.258	2.11
598.594	1.88
598.931	2.1
599.268	2.1
599.604	2.24
599.941	2.24
600.277	2.17
600.614	1.95
600.95	2.13
601.287	2.24
601.623	2.29
601.959	2.19
602.296	2.14
602.632	2.4
602.968	2.28
603.304	2.21
603.64	2.2
603.976	2.14
604.312	2.26
604.648	2.33
604.984	2.31
605.319	2.17
605.655	2.35
605.991	2.34
606.326	2.07
606.662	2.2
606.998	2.2
607.333	2.1
607.668	2.39
608.004	2.18
608.339	2.33
608.674	2.18
609.01	2.48
609.345	2.38
609.68	2
610.015	2.39
610.35	2.27
610.685	2.22
611.02	2.46
611.355	2.27
611.689	1.95
612.024	2.35
612.359	2.38
612.694	2.38
613.028	2.46
613.363	2.24
613.697	2.36
614.032	2.67
614.366	2.07
614.7	2.6
615.035	2.11
615.369	2.13
615.703	2.76
616.037	2.41
616.371	2.1
616.705	2.43
617.039	2.47
617.373	2.36
617.707	2.08
618.041	2.47
618.375	2.19
618.709	2.24
619.042	2.52
619.376	2.52
619.71	2.33
620.043	2.06
620.377	2.11
620.71	2.29
621.043	1.9
621.377	2.32
621.71	2.58
622.043	2.79
622.376	2.23
622.709	2.5
623.043	2.26
623.376	2.46
623.709	2.49
624.041	1.94
624.374	2.1
624.707	2.21
625.04	2.48
625.373	2.11
625.705	2.49
626.038	2.19
626.37	2.21
626.703	2.1
627.035	2.46
627.368	2.36
627.7	2.22
628.032	2.31
628.365	2.04
628.697	2.22
629.029	2.62
629.361	2.37
629.693	2.58
630.025	2.07
630.357	2.11
630.689	2.52
631.021	2.54
631.353	2.56
631.684	2.46
632.016	2.16
632.348	2.45
632.679	2.42
633.011	2.5
633.342	2.29
633.674	2.52
634.005	2.42
634.336	2.42
634.668	2.32
634.999	2.36
635.33	2.07
635.661	2.43
635.992	2.22
636.323	2.57
636.654	2.37
636.985	2.42
637.316	2.22
637.647	2.46
637.977	2.2
638.308	2.06
638.639	2.06
638.969	2.38
639.3	2.4
639.63	2.19
639.961	2.23
640.291	2.84
640.622	2.33
640.952	2.04
641.282	1.58
641.612	2.01
641.943	2.46
642.273	2.28
642.603	2.23
642.933	2.57
643.263	2.58
643.592	2.4
643.922	2.56
644.252	2.58
644.582	2.15
644.911	2.23
645.241	2.29
645.571	2.51
645.9	2.67
646.23	2.07
646.559	2.33
646.888	1.91
647.218	2.41
647.547	2.25
647.876	2.31
648.205	2.01
648.534	1.88
648.863	2.81
649.192	2.08
649.521	2.22
649.85	2.4
650.179	2.02
650.508	2.59
650.837	2.29
651.165	2.45
651.494	2.5
651.822	2.76
652.151	2.89
652.479	2.67
652.808	2.1
653.136	2.36
653.465	2.79
653.793	2.53
654.121	2.49
654.449	2.43
654.777	2.53
655.105	2.76
655.433	2.75
655.761	2.33
656.089	2.09
656.417	2.54
656.745	3.25
657.073	2.88
657.4	2.48
657.728	2.57
658.056	2.28
658.383	2.5
658.711	2.41
659.038	2.86
659.365	2.63
659.693	2.17
660.02	2.27
660.347	2.52
660.674	2.11
661.001	2.35
661.329	2.23
661.656	2.39
661.982	2.16
662.309	2.81
662.636	2.25
662.963	2.7
663.29	2.4
663.616	2.69
663.943	2.8
664.27	2.45
664.596	2.48
664.923	2.94
665.249	1.98
665.576	2.16
665.902	2.34
666.228	2.14
666.554	2.31
666.881	2.9
667.207	2.12
667.533	3.14
667.859	2.23
668.185	2.43
668.511	1.96
668.837	1.49
669.162	2.26
669.488	2.18
669.814	2.86
670.139	2.81
670.465	2.85
670.791	2.93
671.116	1.97
671.442	2.37
671.767	2.06
672.092	2.45
672.418	2.57
672.743	2.23
673.068	2.1
673.393	2.69
673.718	1.93
674.043	2.21
674.368	2.89
674.693	2.46
675.018	2.28
675.343	2.74
675.667	2.54
675.992	2.67
676.317	2.86
676.641	2.63
676.966	2.29
677.29	2.21
677.615	3.14
677.939	2.09
678.264	2.81
678.588	2.59
678.912	2.95
679.236	2.61
679.56	1.94
679.885	2.72
680.209	2.2
680.532	2.33
680.856	3.13
681.18	3.01
681.504	2.28
681.828	2.16
682.152	2.46
682.475	2.68
682.799	2.47
683.122	2.35
683.446	2.19
683.769	2.45
684.093	2.73
684.416	2.5
684.739	3.02
685.062	2.78
685.386	2.67
685.709	2.67
686.032	2.72
686.355	2.64
686.678	2.32
687.001	1.82
687.324	1.81
687.646	2.28
687.969	2.39
688.292	2.88
688.614	3.04
688.937	3.04
689.26	2.12
689.582	2.1
689.904	3.1
690.227	2.57
690.549	2.59
690.871	2.67
691.194	2.58
691.516	2.45
691.838	2.32
