Data from 0059_chest_Reflection__0__163.txt Node

Date: Fri Dec 16 15:19:53 CST 2022
User: ToomeyLab
Spectrometer: FLMS14357
Trigger mode: 0
Integration Time (sec): 1.000000E-2
Scans to average: 100
Electric dark correction enabled: true
Nonlinearity correction enabled: false
Boxcar width: 0
XAxis mode: Wavelengths
Number of Pixels in Spectrum: 2048
>>>>>Begin Spectral Data<<<<<
189.047	73.06
189.435	73.06
189.823	73.06
190.211	615.23
190.599	-38.76
190.987	2.59
191.375	-2.84
191.763	195.44
192.151	-131.43
192.538	9.2
192.926	-9.22
193.314	-22010.71
193.702	-204.11
194.089	-98.18
194.477	-102.84
194.864	-587.79
195.252	76.71
195.639	99.25
196.027	-174.8
196.414	214.7
196.801	-788.49
197.189	76.25
197.576	-7.39
197.963	-17.77
198.351	29.99
198.738	-68.93
199.125	41.23
199.512	64.81
199.899	-8.31
200.286	-47.21
200.673	33.74
201.06	18.58
201.447	84.02
201.833	-28.44
202.22	25.68
202.607	13.44
202.994	28.36
203.38	-1.17
203.767	16.88
204.154	-42.15
204.54	27.92
204.927	8.11
205.313	16.09
205.699	-11.38
206.086	-6.55
206.472	-13.43
206.858	3.58
207.245	-7.3
207.631	-5.28
208.017	14.21
208.403	8.41
208.789	22.45
209.175	24.9
209.561	-2.65
209.947	5.44
210.333	-65.36
210.719	15.25
211.105	-28.76
211.491	-4.58
211.876	-13.29
212.262	-1.28
212.648	-84.36
213.034	-26.75
213.419	9.99
213.805	19.68
214.19	5.05
214.576	-36.61
214.961	-1.88
215.346	-55.34
215.732	-3.72
216.117	-20.35
216.502	-19
216.888	-32.4
217.273	20.82
217.658	-48.77
218.043	21.23
218.428	-1.61
218.813	-37.31
219.198	-51.54
219.583	-8.06
219.968	-8.43
220.353	13.34
220.738	-14.26
221.122	8.47
221.507	-9.08
221.892	6.24
222.276	21.34
222.661	-1.7
223.046	4.88
223.43	-4.65
223.815	9.87
224.199	7.42
224.583	2.65
224.968	4.75
225.352	-2.17
225.736	3.43
226.121	-6.68
226.505	6.96
226.889	0.93
227.273	7.65
227.657	1.61
228.041	7.55
228.425	9.85
228.809	5.17
229.193	4.04
229.577	4
229.961	5.57
230.344	4.31
230.728	5.13
231.112	4.03
231.495	4.08
231.879	4.25
232.263	3.96
232.646	2.29
233.03	2.93
233.413	3.61
233.797	6.92
234.18	1.44
234.563	2.81
234.946	4.53
235.33	5.29
235.713	5.75
236.096	4.39
236.479	4.33
236.862	2.61
237.245	3.89
237.628	4.79
238.011	4.1
238.394	5.16
238.777	5.91
239.16	2.48
239.543	4.65
239.925	4.12
240.308	5.56
240.691	4.72
241.073	4.04
241.456	3.91
241.838	4.08
242.221	4.12
242.603	4.54
242.986	5.02
243.368	4.2
243.75	3.97
244.133	4.31
244.515	4.46
244.897	4.53
245.279	3.79
245.661	4.17
246.043	3.92
246.425	4.13
246.807	3.79
247.189	4.11
247.571	4.12
247.953	4.46
248.335	4.41
248.717	4.34
249.098	4.27
249.48	4.16
249.862	4.14
250.243	4.53
250.625	4.17
251.006	4.17
251.388	5.06
251.769	4.05
252.151	4.77
252.532	4.14
252.913	4.22
253.295	3.85
253.676	4.31
254.057	3.95
254.438	3.76
254.819	4.22
255.2	2.79
255.581	3.4
255.962	4.4
256.343	3.61
256.724	4.52
257.105	4.04
257.486	4
257.867	2.88
258.247	4.29
258.628	5.13
259.009	4.09
259.389	5.41
259.77	3.79
260.15	4.45
260.531	4.33
260.911	4.32
261.292	4
261.672	3.91
262.052	4.15
262.432	4.04
262.813	4.06
263.193	3.69
263.573	4.04
263.953	4.1
264.333	4.18
264.713	4.03
265.093	3.59
265.473	4.24
265.853	3.96
266.233	3.79
266.612	5.21
266.992	3.61
267.372	4.21
267.752	3.89
268.131	4.3
268.511	4.17
268.89	4.51
269.27	4.37
269.649	4.56
270.029	4.35
270.408	3.8
270.787	3.66
271.167	3.82
271.546	3.21
271.925	3.99
272.304	3.94
272.683	4.02
273.062	4.35
273.441	4.11
273.82	4.37
274.199	4.02
274.578	3.93
274.957	3.85
275.336	3.65
275.715	4.45
276.093	4.48
276.472	3.58
276.851	4.01
277.229	4.52
277.608	3.71
277.986	3.7
278.365	3.71
278.743	3.99
279.122	2.8
279.5	3.18
279.878	3.36
280.257	4.21
280.635	3.85
281.013	3.95
281.391	3.58
281.769	3.58
282.147	4.06
282.525	3.47
282.903	4.13
283.281	4.14
283.659	3.96
284.037	4
284.415	4.06
284.792	3.87
285.17	4.12
285.548	3.91
285.925	3.96
286.303	3.92
286.68	4.16
287.058	4.27
287.435	3.53
287.813	3.7
288.19	4.07
288.567	3.6
288.945	3.45
289.322	3.59
289.699	4.2
290.076	4.11
290.453	3.48
290.83	3.88
291.207	3.69
291.584	3.64
291.961	3.51
292.338	3.88
292.715	3.68
293.092	3.54
293.469	4.11
293.845	3.92
294.222	3.97
294.599	4.17
294.975	4.04
295.352	3.84
295.728	3.58
296.105	3.47
296.481	4.45
296.858	3.87
297.234	3.72
297.61	4.06
297.986	3.69
298.363	3.09
298.739	3.96
299.115	3.42
299.491	3.61
299.867	3.51
300.243	3.98
300.619	3.9
300.995	4.23
301.371	3.93
301.746	3.52
302.122	3.82
302.498	3.85
302.874	3.42
303.249	3.91
303.625	4.08
304	3.62
304.376	3.33
304.751	3.91
305.127	3.82
305.502	4.03
305.878	3.89
306.253	3.51
306.628	4.08
307.003	3.77
307.378	3.99
307.754	4.14
308.129	3.43
308.504	3.33
308.879	3.26
309.254	3.93
309.629	3.69
310.003	4.29
310.378	3.92
310.753	3.9
311.128	3.5
311.502	3.4
311.877	3.68
312.252	3.54
312.626	3.5
313.001	3.6
313.375	3.32
313.75	3.64
314.124	3.92
314.498	3.53
314.873	3.6
315.247	3.42
315.621	4.2
315.995	3.24
316.369	3.66
316.743	4.02
317.117	3.66
317.491	3.63
317.865	3.01
318.239	3.38
318.613	3.12
318.987	3.43
319.361	3.76
319.734	4.01
320.108	3.92
320.482	3.49
320.855	3.56
321.229	4.07
321.602	3.6
321.976	3.53
322.349	3.19
322.723	3.19
323.096	3.69
323.469	3.39
323.843	3.32
324.216	2.87
324.589	3.87
324.962	3.59
325.335	3.5
325.708	3.38
326.081	3.43
326.454	3.6
326.827	3.51
327.2	3.77
327.573	3.71
327.945	3.73
328.318	3.38
328.691	3.75
329.063	3.29
329.436	3.42
329.809	3.12
330.181	3.29
330.553	3.73
330.926	3.42
331.298	3.35
331.671	3.93
332.043	3.14
332.415	3.64
332.787	3.54
333.159	3.5
333.532	3.21
333.904	3.94
334.276	3.49
334.648	3.79
335.02	3.53
335.391	3.25
335.763	3.17
336.135	3.67
336.507	3.67
336.879	3.45
337.25	3.2
337.622	3.86
337.993	3.45
338.365	3.63
338.736	3.16
339.108	3.2
339.479	3.56
339.851	3.38
340.222	3.59
340.593	3.2
340.964	3.36
341.336	2.74
341.707	3.18
342.078	3.18
342.449	3.7
342.82	3.37
343.191	3.12
343.562	3.38
343.933	3.18
344.303	3.82
344.674	3.44
345.045	3.78
345.416	3.27
345.786	3.22
346.157	3.25
346.527	3.2
346.898	3.43
347.268	3.26
347.639	3.39
348.009	3.86
348.38	3.45
348.75	3.7
349.12	3.38
349.49	4.03
349.861	3.92
350.231	3.45
350.601	3.49
350.971	3.68
351.341	3.53
351.711	3.26
352.081	3.31
352.45	3.56
352.82	3.78
353.19	3.17
353.56	3.42
353.929	3.63
354.299	3.43
354.669	3.64
355.038	3.72
355.408	3.91
355.777	3.39
356.147	3.95
356.516	3.88
356.885	3.53
357.254	3.46
357.624	3.24
357.993	3.84
358.362	3.88
358.731	3.53
359.1	3.71
359.469	3.43
359.838	3.18
360.207	3.05
360.576	3.55
360.945	3.28
361.314	3.75
361.682	3.27
362.051	3.54
362.42	3.92
362.788	3.38
363.157	3.4
363.525	3.41
363.894	3.1
364.262	3.25
364.631	3.85
364.999	3.33
365.367	3.7
365.735	3.21
366.104	3.53
366.472	3.65
366.84	3.56
367.208	3.27
367.576	3.64
367.944	3.78
368.312	3.48
368.68	3.76
369.048	3.41
369.416	3.16
369.783	3.54
370.151	3.46
370.519	3.19
370.886	3.65
371.254	3.48
371.621	3.49
371.989	3.83
372.356	3.72
372.724	3.92
373.091	3.55
373.458	3.53
373.826	3.06
374.193	3.89
374.56	3.29
374.927	3.48
375.294	3.59
375.661	3.46
376.028	3.44
376.395	3.64
376.762	3.69
377.129	3.38
377.496	3.37
377.863	3.43
378.229	3.23
378.596	3.83
378.963	3.41
379.329	3.4
379.696	3.36
380.062	3.81
380.429	3.68
380.795	3.25
381.161	3.44
381.528	3.25
381.894	3.73
382.26	3.21
382.626	3.52
382.993	3.33
383.359	3.33
383.725	3.86
384.091	3.66
384.457	3.6
384.823	3.6
385.188	3.84
385.554	3.55
385.92	3.85
386.286	3.84
386.651	3.5
387.017	3.81
387.383	3.66
387.748	3.42
388.114	3.78
388.479	3.74
388.845	3.85
389.21	3.85
389.575	3.66
389.94	3.52
390.306	3.7
390.671	3.61
391.036	3.58
391.401	4
391.766	3.61
392.131	3.45
392.496	3.6
392.861	3.4
393.226	3.55
393.591	3.56
393.956	3.86
394.32	3.53
394.685	3.82
395.05	3.5
395.414	3.66
395.779	3.49
396.143	3.69
396.508	3.72
396.872	3.64
397.236	3.36
397.601	3.6
397.965	3.34
398.329	3.78
398.694	3.52
399.058	3.49
399.422	3.69
399.786	3.78
400.15	3.71
400.514	3.75
400.878	3.63
401.242	3.95
401.605	3.79
401.969	3.85
402.333	3.73
402.697	3.89
403.06	3.84
403.424	3.5
403.787	3.79
404.151	3.46
404.514	3.7
404.878	3.63
405.241	3.75
405.604	3.77
405.968	3.71
406.331	3.68
406.694	3.66
407.057	3.88
407.42	3.33
407.783	3.66
408.146	3.59
408.509	3.48
408.872	3.52
409.235	3.66
409.598	3.87
409.961	3.74
410.323	3.84
410.686	3.66
411.049	3.68
411.411	3.59
411.774	3.7
412.136	3.87
412.499	3.74
412.861	3.56
413.223	3.77
413.586	3.53
413.948	3.69
414.31	3.8
414.672	3.64
415.035	3.7
415.397	3.82
415.759	3.82
416.121	3.95
416.483	3.86
416.845	3.8
417.206	3.79
417.568	3.77
417.93	3.54
418.292	3.65
418.653	3.83
419.015	3.77
419.377	3.83
419.738	3.68
420.1	3.67
420.461	3.77
420.822	3.73
421.184	3.71
421.545	3.74
421.906	3.77
422.267	3.58
422.629	3.68
422.99	3.68
423.351	3.74
423.712	3.73
424.073	3.81
424.434	3.62
424.795	3.82
425.155	3.77
425.516	3.59
425.877	3.71
426.238	3.62
426.598	3.76
426.959	3.72
427.32	3.74
427.68	3.87
428.041	3.81
428.401	3.71
428.761	3.76
429.122	3.65
429.482	3.68
429.842	3.88
430.202	3.84
430.563	3.74
430.923	3.65
431.283	3.7
431.643	3.66
432.003	3.85
432.363	3.98
432.722	3.71
433.082	3.65
433.442	3.85
433.802	3.96
434.161	3.82
434.521	3.8
434.881	3.86
435.24	3.67
435.6	3.78
435.959	3.79
436.319	3.95
436.678	3.88
437.037	3.98
437.396	3.88
437.756	3.67
438.115	3.73
438.474	3.84
438.833	3.95
439.192	3.9
439.551	3.76
439.91	3.94
440.269	3.98
440.628	3.81
440.987	3.69
441.345	3.85
441.704	3.89
442.063	3.78
442.421	3.87
442.78	3.75
443.138	3.68
443.497	3.71
443.855	3.83
444.214	3.82
444.572	3.76
444.93	3.92
445.288	3.98
445.647	3.85
446.005	3.77
446.363	3.87
446.721	3.71
447.079	3.81
447.437	3.76
447.795	3.74
448.153	3.78
448.51	3.74
448.868	3.83
449.226	3.79
449.584	3.74
449.941	3.89
450.299	3.85
450.656	3.94
451.014	3.88
451.371	3.83
451.729	3.85
452.086	3.84
452.443	3.75
452.801	3.89
453.158	3.87
453.515	3.74
453.872	3.9
454.229	3.86
454.586	3.88
454.943	3.84
455.3	3.97
455.657	3.64
456.014	3.84
456.371	3.94
456.727	3.76
457.084	3.87
457.441	3.73
457.797	3.82
458.154	3.96
458.51	3.91
458.867	3.76
459.223	3.87
459.58	3.88
459.936	3.85
460.292	3.93
460.648	3.83
461.005	3.82
461.361	3.8
461.717	3.79
462.073	3.86
462.429	3.91
462.785	3.98
463.141	3.95
463.496	3.87
463.852	4.13
464.208	4.02
464.564	3.83
464.919	3.92
465.275	3.88
465.631	3.9
465.986	3.92
466.342	4.02
466.697	3.94
467.052	3.94
467.408	3.91
467.763	3.71
468.118	4.02
468.473	4.08
468.829	3.95
469.184	4.12
469.539	3.87
469.894	3.81
470.249	3.94
470.603	4.03
470.958	4.11
471.313	3.85
471.668	3.99
472.023	4.22
472.377	4.04
472.732	3.95
473.086	3.8
473.441	4.05
473.795	4.22
474.15	3.92
474.504	4.11
474.859	3.95
475.213	3.95
475.567	4
475.921	4.07
476.275	4.07
476.63	4
476.984	3.78
477.338	4.29
477.692	3.98
478.045	3.92
478.399	4.02
478.753	3.99
479.107	3.98
479.461	4.11
479.814	4.08
480.168	4.08
480.521	3.91
480.875	4.16
481.228	4.19
481.582	3.91
481.935	3.99
482.289	3.91
482.642	4.04
482.995	4.04
483.348	3.96
483.701	3.98
484.055	3.95
484.408	3.89
484.761	3.79
485.114	3.8
485.466	3.76
485.819	3.75
486.172	3.78
486.525	3.91
486.878	3.9
487.23	3.95
487.583	3.96
487.936	3.94
488.288	3.96
488.641	3.9
488.993	3.83
489.345	3.83
489.698	3.89
490.05	3.87
490.402	3.99
490.754	4.03
491.107	3.99
491.459	4.07
491.811	4.09
492.163	4.12
492.515	4.03
492.866	3.85
493.218	3.91
493.57	3.98
493.922	3.94
494.274	3.96
494.625	3.96
494.977	4.02
495.328	4.08
495.68	4.2
496.031	4.07
496.383	4.11
496.734	4.19
497.086	4.08
497.437	4.15
497.788	4.04
498.139	4.18
498.49	4.12
498.842	4.11
499.193	4.08
499.544	4.2
499.894	4.14
500.245	4.12
500.596	4.18
500.947	4.19
501.298	4.11
501.648	4.25
501.999	4.39
502.35	4.38
502.7	4.24
503.051	4.15
503.401	4.3
503.752	4.14
504.102	4.13
504.452	4.16
504.803	4.16
505.153	4.26
505.503	3.98
505.853	4.16
506.203	4.23
506.553	4.21
506.903	4.18
507.253	4.2
507.603	4.05
507.953	4.4
508.303	4.28
508.652	4.22
509.002	4.26
509.352	4.19
509.701	4.16
510.051	4.23
510.4	4.24
510.75	4.17
511.099	4.14
511.449	4.24
511.798	4.43
512.147	4.21
512.496	4.4
512.846	4.17
513.195	4.27
513.544	4.21
513.893	4.14
514.242	4.26
514.591	4.36
514.939	4.33
515.288	4.26
515.637	4.37
515.986	4.28
516.334	4.42
516.683	4.39
517.032	4.26
517.38	4.27
517.729	4.3
518.077	4.3
518.426	4.24
518.774	4.26
519.122	4.25
519.47	4.31
519.819	4.22
520.167	4.21
520.515	4.25
520.863	4.29
521.211	4.26
521.559	4.29
521.907	4.25
522.255	4.31
522.602	4.3
522.95	4.39
523.298	4.27
523.645	4.43
523.993	4.41
524.341	4.3
524.688	4.5
525.036	4.41
525.383	4.42
525.73	4.43
526.078	4.54
526.425	4.38
526.772	4.26
527.119	4.25
527.466	4.31
527.814	4.29
528.161	4.33
528.508	4.37
528.854	4.25
529.201	4.27
529.548	4.24
529.895	4.22
530.242	4.19
530.588	4.23
530.935	4.27
531.282	4.3
531.628	4.35
531.975	4.39
532.321	4.38
532.667	4.41
533.014	4.47
533.36	4.44
533.706	4.42
534.052	4.42
534.399	4.34
534.745	4.3
535.091	4.33
535.437	4.4
535.783	4.42
536.129	4.44
536.474	4.45
536.82	4.46
537.166	4.55
537.512	4.62
537.857	4.44
538.203	4.48
538.549	4.65
538.894	4.42
539.239	4.64
539.585	4.53
539.93	4.67
540.276	4.54
540.621	4.66
540.966	4.65
541.311	4.65
541.656	4.64
542.001	4.63
542.346	4.54
542.691	4.39
543.036	4.41
543.381	4.49
543.726	4.55
544.071	4.66
544.415	4.52
544.76	4.53
545.105	4.62
545.449	4.62
545.794	4.64
546.138	4.83
546.483	4.66
546.827	4.62
547.171	4.72
547.516	4.79
547.86	4.71
548.204	4.72
548.548	4.83
548.892	4.75
549.236	4.77
549.58	4.88
549.924	4.84
550.268	4.91
550.612	4.84
550.956	4.76
551.3	5
551.643	5
551.987	4.92
552.33	4.88
552.674	5.1
553.017	4.94
553.361	4.84
553.704	4.92
554.048	4.96
554.391	4.95
554.734	4.99
555.077	4.99
555.42	4.89
555.764	4.99
556.107	5.1
556.45	4.94
556.793	5.16
557.135	5.04
557.478	5.09
557.821	5.08
558.164	5.07
558.507	4.99
558.849	4.98
559.192	5.09
559.534	4.98
559.877	5.1
560.219	5.3
560.562	5.14
560.904	5.18
561.246	5.31
561.589	5.18
561.931	5.45
562.273	5.2
562.615	5.29
562.957	5.23
563.299	5.26
563.641	5.32
563.983	5.27
564.325	5.17
564.667	5.32
565.008	5.24
565.35	5.33
565.692	5.32
566.033	5.48
566.375	5
566.716	5.31
567.058	5.46
567.399	5.47
567.741	5.46
568.082	5.25
568.423	5.38
568.764	5.44
569.105	5.5
569.447	5.36
569.788	5.49
570.129	5.5
570.47	5.44
570.811	5.54
571.151	5.55
571.492	5.55
571.833	5.51
572.174	5.41
572.514	5.4
572.855	5.58
573.195	5.49
573.536	5.33
573.876	5.62
574.217	5.57
574.557	5.7
574.898	5.58
575.238	5.56
575.578	5.8
575.918	5.58
576.258	5.6
576.598	5.65
576.938	5.78
577.278	5.68
577.618	5.75
577.958	5.78
578.298	5.79
578.638	5.69
578.977	5.97
579.317	5.74
579.657	5.81
579.996	5.85
580.336	5.76
580.675	5.98
581.014	5.81
581.354	6.04
581.693	6.04
582.032	5.86
582.372	5.96
582.711	5.99
583.05	6.12
583.389	5.91
583.728	6.26
584.067	6
584.406	6.17
584.745	6.04
585.083	6.25
585.422	6.08
585.761	6.27
586.1	6.19
586.438	6.24
586.777	6.13
587.115	6.27
587.454	6.24
587.792	6.05
588.13	6.39
588.469	6.48
588.807	6.26
589.145	6.27
589.483	6.26
589.821	6.63
590.159	6.27
590.497	6.1
590.835	6.45
591.173	6.53
591.511	6.33
591.849	6.44
592.187	6.41
592.524	6.42
592.862	6.57
593.2	6.65
593.537	6.4
593.875	6.47
594.212	6.47
594.55	6.43
594.887	6.62
595.224	6.64
595.561	6.71
595.899	6.52
596.236	6.59
596.573	6.46
596.91	6.63
597.247	6.8
597.584	6.73
597.921	6.73
598.258	6.64
598.594	6.49
598.931	6.61
599.268	6.47
599.604	6.97
599.941	6.6
600.277	6.86
600.614	6.76
600.95	6.88
601.287	6.95
601.623	6.88
601.959	6.72
602.296	7.2
602.632	7.08
602.968	6.8
603.304	7
603.64	6.86
603.976	6.88
604.312	7.14
604.648	7.27
604.984	6.95
605.319	7.07
605.655	7.11
605.991	7.13
606.326	6.92
606.662	7.05
606.998	7.03
607.333	6.84
607.668	7.23
608.004	7.13
608.339	7.02
608.674	7.21
609.01	7.48
609.345	7.53
609.68	6.97
610.015	7.24
610.35	7.47
610.685	7.4
611.02	7.42
611.355	7.45
611.689	7.22
612.024	7.68
612.359	7.76
612.694	7.59
613.028	7.67
613.363	7.42
613.697	7.71
614.032	7.75
614.366	7.4
614.7	7.96
615.035	7.66
615.369	7.8
615.703	7.99
616.037	7.7
616.371	7.82
616.705	7.72
617.039	7.96
617.373	7.85
617.707	7.67
618.041	8.34
618.375	7.56
618.709	8
619.042	7.6
619.376	7.82
619.71	7.88
620.043	7.56
620.377	8.12
620.71	8.01
621.043	7.91
621.377	8.11
621.71	8.25
622.043	7.99
622.376	8.2
622.709	8.59
623.043	8.19
623.376	8.21
623.709	8.39
624.041	8.32
624.374	7.83
624.707	7.97
625.04	8.28
625.373	8.09
625.705	8.26
626.038	8.03
626.37	8.41
626.703	8.6
627.035	8.19
627.368	8.23
627.7	8.44
628.032	8.37
628.365	8.21
628.697	8.63
629.029	8.74
629.361	8.46
629.693	8.73
630.025	8.72
630.357	8.36
630.689	8.97
631.021	8.5
631.353	8.5
631.684	8.71
632.016	8.49
632.348	9.02
632.679	8.67
633.011	8.38
633.342	8.75
633.674	8.8
634.005	8.8
634.336	9.13
634.668	8.79
634.999	8.82
635.33	8.85
635.661	8.91
635.992	8.76
636.323	8.79
636.654	8.9
636.985	8.86
637.316	8.86
637.647	9.09
637.977	9.1
638.308	8.62
638.639	8.85
638.969	8.97
639.3	9.04
639.63	8.89
639.961	9.31
640.291	9.58
640.622	9.7
640.952	9.24
641.282	8.94
641.612	9.37
641.943	9.44
642.273	9.32
642.603	9.35
642.933	9.15
643.263	9.87
643.592	9.36
643.922	9.75
644.252	9.83
644.582	9.51
644.911	9.13
645.241	9.15
645.571	9.36
645.9	10.15
646.23	9.28
646.559	9.68
646.888	8.87
647.218	9.36
647.547	9.59
647.876	9.88
648.205	9.64
648.534	9.74
648.863	9.72
649.192	9.71
649.521	9.72
649.85	9.89
650.179	9.63
650.508	9.94
650.837	9.85
651.165	10.18
651.494	10.17
651.822	10.13
652.151	10.37
652.479	10.28
652.808	10
653.136	9.75
653.465	10.3
653.793	10.2
654.121	10.1
654.449	9.92
654.777	9.91
655.105	10.37
655.433	10.32
655.761	9.67
656.089	10.14
656.417	10
656.745	10.67
657.073	10.7
657.4	10.78
657.728	10.59
658.056	10.47
658.383	10.81
658.711	10.56
659.038	10.75
659.365	10.47
659.693	10.44
660.02	10.79
660.347	10.44
660.674	10.6
661.001	10.24
661.329	10.67
661.656	10.54
661.982	10.58
662.309	11.07
662.636	10.53
662.963	10.55
663.29	10.58
663.616	10.63
663.943	11.31
664.27	11.4
664.596	10.68
664.923	10.62
665.249	10.48
665.576	10.42
665.902	10.88
666.228	10.78
666.554	10.9
666.881	11.25
667.207	11.54
667.533	11.76
667.859	11.09
668.185	11.82
668.511	11.13
668.837	10.53
669.162	11.38
669.488	11.04
669.814	11.49
670.139	11.63
670.465	11.21
670.791	11.87
671.116	11.5
671.442	11.5
671.767	11.72
672.092	11.89
672.418	11.96
672.743	10.99
673.068	11.11
673.393	11.69
673.718	11.53
674.043	11.71
674.368	12.2
674.693	11.51
675.018	12.01
675.343	12.1
675.667	12.07
675.992	11.58
676.317	11.68
676.641	12.13
676.966	11.78
677.29	12.09
677.615	11.97
677.939	11.79
678.264	11.7
678.588	12.03
678.912	12.34
679.236	12.04
679.56	11.58
679.885	11.92
680.209	12.09
680.532	11.88
680.856	12.42
681.18	12.21
681.504	11.85
681.828	11.95
682.152	11.37
682.475	12.26
682.799	12.22
683.122	12.03
683.446	12.23
683.769	12.68
684.093	13.33
684.416	12.5
684.739	13.02
685.062	12.84
685.386	12.31
685.709	12.22
686.032	12.36
686.355	12.48
686.678	12.1
687.001	12.51
687.324	12.55
687.646	12.5
687.969	12.46
688.292	13.27
688.614	13.25
688.937	12.4
689.26	12.32
689.582	12.56
689.904	12.9
690.227	12.81
