Data from 0059_crown_Reflection__2__170.txt Node

Date: Fri Dec 16 15:22:07 CST 2022
User: ToomeyLab
Spectrometer: FLMS14357
Trigger mode: 0
Integration Time (sec): 1.000000E-2
Scans to average: 100
Electric dark correction enabled: true
Nonlinearity correction enabled: false
Boxcar width: 0
XAxis mode: Wavelengths
Number of Pixels in Spectrum: 2048
>>>>>Begin Spectral Data<<<<<
189.047	3.65
189.435	3.65
189.823	3.65
190.211	-887.64
190.599	-18.94
190.987	-812.93
191.375	20.13
191.763	113.61
192.151	-216.77
192.538	138.84
192.926	-6.56
193.314	-29032.14
193.702	204.56
194.089	9.9
194.477	-64.2
194.864	901.74
195.252	110.35
195.639	155.9
196.027	91.67
196.414	-215.2
196.801	-1498.81
197.189	120.6
197.576	162.47
197.963	-21.39
198.351	2.49
198.738	-55.07
199.125	18.58
199.512	29.27
199.899	6.03
200.286	-25.74
200.673	25.51
201.06	1.77
201.447	45.06
201.833	3.71
202.22	11.8
202.607	-17.04
202.994	31.25
203.38	-31.84
203.767	-78.99
204.154	-36.38
204.54	32.85
204.927	-41.65
205.313	8.46
205.699	-8.33
206.086	-28.71
206.472	9.85
206.858	1.96
207.245	17.82
207.631	10.73
208.017	6.11
208.403	18.21
208.789	-9.82
209.175	11.8
209.561	-33.31
209.947	-64.14
210.333	12.66
210.719	7.48
211.105	-4.15
211.491	-5.53
211.876	14.48
212.262	-24.08
212.648	-41.25
213.034	-11.04
213.419	25.51
213.805	-8.73
214.19	-10.05
214.576	-13.16
214.961	-12.25
215.346	21
215.732	-7.38
216.117	-17.52
216.502	-38.19
216.888	-39.91
217.273	9.96
217.658	-28.88
218.043	-4.46
218.428	0.66
218.813	-44.14
219.198	-60.94
219.583	-10.14
219.968	-25.56
220.353	-0.07
220.738	-35.16
221.122	-12.3
221.507	-8.01
221.892	20.62
222.276	-6.25
222.661	-9.27
223.046	1.11
223.43	-8.66
223.815	-0.03
224.199	4.28
224.583	-3.62
224.968	7.12
225.352	-11.85
225.736	12.04
226.121	3.54
226.505	5.95
226.889	8.69
227.273	2.52
227.657	2.77
228.041	3.17
228.425	3
228.809	2.25
229.193	2.27
229.577	3.08
229.961	4.66
230.344	6.3
230.728	5.45
231.112	5.07
231.495	4.42
231.879	6.89
232.263	3.92
232.646	4.92
233.03	1.78
233.413	4.31
233.797	6.28
234.18	0.21
234.563	0.81
234.946	3.86
235.33	5.37
235.713	4.74
236.096	6.68
236.479	5.01
236.862	4.64
237.245	5.78
237.628	4.5
238.011	5.52
238.394	6.29
238.777	5.92
239.16	2.07
239.543	3.6
239.925	5.64
240.308	6.1
240.691	4.18
241.073	4.71
241.456	3.62
241.838	4.31
242.221	4.84
242.603	4.53
242.986	5.43
243.368	5.01
243.75	4.16
244.133	4.59
244.515	5.08
244.897	4.73
245.279	4.14
245.661	4.65
246.043	4.6
246.425	4.13
246.807	4.59
247.189	4.6
247.571	5.08
247.953	4.4
248.335	4.84
248.717	4.65
249.098	4.83
249.48	4.17
249.862	4.94
250.243	4.57
250.625	4.77
251.006	4.2
251.388	5.25
251.769	5.15
252.151	4.74
252.532	4.2
252.913	4.68
253.295	4.56
253.676	4.88
254.057	4.1
254.438	4.32
254.819	4.37
255.2	2.98
255.581	2.95
255.962	3.56
256.343	5.13
256.724	3.55
257.105	3.66
257.486	4.45
257.867	3.49
258.247	5.01
258.628	5.12
259.009	3.91
259.389	4.19
259.77	3.9
260.15	4.5
260.531	4.1
260.911	4.17
261.292	4.14
261.672	4.45
262.052	4.45
262.432	4.35
262.813	4.06
263.193	3.7
263.573	3.93
263.953	4.25
264.333	4.57
264.713	4.47
265.093	3.88
265.473	4.82
265.853	3.91
266.233	3.59
266.612	4.01
266.992	3.79
267.372	4.42
267.752	3.4
268.131	4.2
268.511	4.14
268.89	4.75
269.27	4.18
269.649	4.25
270.029	4.06
270.408	3.98
270.787	3.85
271.167	3.74
271.546	3.57
271.925	4.25
272.304	4.31
272.683	4.01
273.062	4.47
273.441	4.43
273.82	4.2
274.199	4.12
274.578	3.71
274.957	4.36
275.336	3.9
275.715	4.42
276.093	3.91
276.472	4.39
276.851	4.35
277.229	4.21
277.608	3.92
277.986	3.84
278.365	3.75
278.743	4.17
279.122	3.58
279.5	3.88
279.878	3.38
280.257	3.75
280.635	3.7
281.013	4.47
281.391	3.97
281.769	3.38
282.147	3.66
282.525	3.74
282.903	3.92
283.281	3.62
283.659	3.94
284.037	3.82
284.415	4.15
284.792	3.8
285.17	3.63
285.548	3.4
285.925	3.85
286.303	3.69
286.68	4.35
287.058	3.78
287.435	3.4
287.813	3.86
288.19	4.08
288.567	3.44
288.945	3.43
289.322	3.47
289.699	3.69
290.076	4.27
290.453	3.52
290.83	3.9
291.207	3.63
291.584	3.27
291.961	4.02
292.338	3.84
292.715	3.62
293.092	3.43
293.469	4.02
293.845	3.52
294.222	4.09
294.599	3.85
294.975	3.67
295.352	3.38
295.728	3.86
296.105	3.5
296.481	3.65
296.858	3.75
297.234	3.6
297.61	3.68
297.986	3.51
298.363	3.2
298.739	3.74
299.115	3.26
299.491	3.5
299.867	3.66
300.243	3.29
300.619	3.57
300.995	3.84
301.371	3.39
301.746	3.43
302.122	3.37
302.498	3.24
302.874	3.31
303.249	3.74
303.625	3.52
304	3.23
304.376	3.55
304.751	3.77
305.127	3.19
305.502	3.81
305.878	3.39
306.253	2.74
306.628	3.43
307.003	3.74
307.378	3.38
307.754	3.74
308.129	2.95
308.504	2.49
308.879	3.78
309.254	3.44
309.629	3.46
310.003	3.73
310.378	3.38
310.753	3.18
311.128	3.49
311.502	3.02
311.877	3.24
312.252	3.19
312.626	3.06
313.001	3.36
313.375	3.12
313.75	3.32
314.124	3.71
314.498	2.81
314.873	3.03
315.247	3.49
315.621	3.36
315.995	2.99
316.369	3.42
316.743	3.71
317.117	2.89
317.491	3.31
317.865	2.71
318.239	3.72
318.613	3.36
318.987	2.89
319.361	3.03
319.734	3.54
320.108	3.24
320.482	2.99
320.855	3.43
321.229	3.53
321.602	3.32
321.976	2.73
322.349	2.1
322.723	2.63
323.096	2.96
323.469	2.96
323.843	3.04
324.216	3.17
324.589	3.41
324.962	3.28
325.335	3.15
325.708	3.28
326.081	3.68
326.454	3.1
326.827	3.39
327.2	3.5
327.573	3.3
327.945	3.14
328.318	3.42
328.691	3.43
329.063	3.22
329.436	2.88
329.809	2.68
330.181	2.92
330.553	3.26
330.926	3.11
331.298	2.87
331.671	3.02
332.043	3.71
332.415	3.64
332.787	3.55
333.159	3.1
333.532	3.02
333.904	3.37
334.276	3.05
334.648	2.99
335.02	3.13
335.391	3.39
335.763	3.06
336.135	3.85
336.507	3.25
336.879	3.13
337.25	3.17
337.622	3.19
337.993	3.44
338.365	3.46
338.736	3.47
339.108	3.18
339.479	3.04
339.851	3.48
340.222	3.13
340.593	3.01
340.964	2.63
341.336	3.03
341.707	3.44
342.078	2.61
342.449	3.44
342.82	3.11
343.191	2.47
343.562	3.06
343.933	3.22
344.303	3.27
344.674	3.1
345.045	3.46
345.416	3.35
345.786	2.66
346.157	2.94
346.527	3.1
346.898	3.05
347.268	3.29
347.639	3.05
348.009	3.3
348.38	3.05
348.75	3.24
349.12	3.21
349.49	2.77
349.861	3.62
350.231	3.62
350.601	2.8
350.971	3.02
351.341	3.2
351.711	3.26
352.081	3.34
352.45	3.65
352.82	3.39
353.19	3.23
353.56	3.53
353.929	3.74
354.299	3.23
354.669	3.15
355.038	2.86
355.408	3.52
355.777	2.94
356.147	3.7
356.516	3.43
356.885	3.24
357.254	3.3
357.624	3.33
357.993	3.07
358.362	3.14
358.731	3.26
359.1	3.48
359.469	3.54
359.838	3.22
360.207	3.46
360.576	3.21
360.945	3.35
361.314	3.43
361.682	2.99
362.051	3.16
362.42	3.55
362.788	3.21
363.157	3.16
363.525	3.24
363.894	3.08
364.262	3.32
364.631	3.88
364.999	3.32
365.367	3.63
365.735	3.14
366.104	3.13
366.472	3.53
366.84	3.14
367.208	3.07
367.576	3.23
367.944	3.74
368.312	3.05
368.68	3.63
369.048	3.38
369.416	3.42
369.783	3.31
370.151	3.25
370.519	3.31
370.886	3.21
371.254	3.59
371.621	3.21
371.989	3.35
372.356	3.17
372.724	3.36
373.091	3.49
373.458	3.38
373.826	3.38
374.193	3.79
374.56	3.33
374.927	3.34
375.294	3.85
375.661	3.25
376.028	3.59
376.395	3.2
376.762	3.69
377.129	3.85
377.496	3.39
377.863	3.54
378.229	3.43
378.596	3.01
378.963	3.42
379.329	3.59
379.696	3.39
380.062	3.78
380.429	3.52
380.795	3.14
381.161	3.16
381.528	2.98
381.894	3.68
382.26	3.43
382.626	3.31
382.993	3.17
383.359	3.32
383.725	3.41
384.091	3.43
384.457	3.5
384.823	3.56
385.188	3.73
385.554	3.26
385.92	3.46
386.286	3.51
386.651	3.37
387.017	3.46
387.383	3.25
387.748	3.33
388.114	3.57
388.479	3.73
388.845	3.58
389.21	3.44
389.575	3.6
389.94	3.56
390.306	3.44
390.671	3.41
391.036	3.61
391.401	3.74
391.766	3.62
392.131	3.6
392.496	3.51
392.861	3.33
393.226	3.4
393.591	3.73
393.956	3.51
394.32	3.57
394.685	3.58
395.05	3.45
395.414	3.69
395.779	3.61
396.143	3.69
396.508	3.73
396.872	3.69
397.236	3.2
397.601	3.66
397.965	3.26
398.329	3.59
398.694	3.29
399.058	3.52
399.422	3.53
399.786	3.78
400.15	3.68
400.514	3.65
400.878	3.56
401.242	3.66
401.605	3.54
401.969	3.36
402.333	3.52
402.697	3.82
403.06	3.92
403.424	3.4
403.787	3.6
404.151	3.5
404.514	3.5
404.878	3.37
405.241	3.52
405.604	3.74
405.968	3.64
406.331	3.63
406.694	3.64
407.057	3.88
407.42	3.55
407.783	3.78
408.146	3.46
408.509	3.67
408.872	3.32
409.235	4.04
409.598	3.59
409.961	3.75
410.323	3.45
410.686	3.64
411.049	3.51
411.411	3.68
411.774	3.49
412.136	3.74
412.499	3.51
412.861	3.47
413.223	3.9
413.586	3.54
413.948	3.82
414.31	3.85
414.672	3.47
415.035	3.69
415.397	3.89
415.759	3.75
416.121	3.75
416.483	3.9
416.845	3.6
417.206	3.7
417.568	3.62
417.93	3.69
418.292	3.71
418.653	3.7
419.015	3.68
419.377	3.69
419.738	3.67
420.1	3.56
420.461	3.43
420.822	3.77
421.184	3.58
421.545	3.6
421.906	3.66
422.267	3.63
422.629	3.63
422.99	3.6
423.351	3.74
423.712	3.66
424.073	3.79
424.434	3.56
424.795	3.54
425.155	3.5
425.516	3.55
425.877	3.66
426.238	3.58
426.598	3.77
426.959	3.62
427.32	3.6
427.68	3.77
428.041	3.69
428.401	3.71
428.761	3.58
429.122	3.74
429.482	3.57
429.842	3.74
430.202	3.64
430.563	3.74
430.923	3.6
431.283	3.68
431.643	3.7
432.003	3.73
432.363	3.77
432.722	3.76
433.082	3.67
433.442	3.52
433.802	3.61
434.161	3.6
434.521	3.68
434.881	3.68
435.24	3.77
435.6	3.86
435.959	3.77
436.319	3.68
436.678	3.75
437.037	3.78
437.396	3.74
437.756	3.62
438.115	3.79
438.474	3.87
438.833	3.81
439.192	3.94
439.551	3.68
439.91	3.79
440.269	3.75
440.628	3.72
440.987	3.59
441.345	3.63
441.704	3.67
442.063	3.7
442.421	3.7
442.78	3.76
443.138	3.72
443.497	3.76
443.855	3.72
444.214	3.86
444.572	3.76
444.93	3.85
445.288	3.73
445.647	3.91
446.005	3.62
446.363	3.71
446.721	3.58
447.079	3.71
447.437	3.67
447.795	3.66
448.153	3.68
448.51	3.68
448.868	3.88
449.226	3.75
449.584	3.74
449.941	3.82
450.299	3.71
450.656	3.76
451.014	3.63
451.371	3.79
451.729	3.88
452.086	3.7
452.443	3.69
452.801	3.72
453.158	3.81
453.515	3.59
453.872	3.76
454.229	3.78
454.586	3.73
454.943	3.76
455.3	3.91
455.657	3.69
456.014	3.75
456.371	3.87
456.727	3.78
457.084	3.65
457.441	3.63
457.797	3.8
458.154	3.78
458.51	3.83
458.867	3.76
459.223	3.84
459.58	3.77
459.936	3.7
460.292	3.76
460.648	3.58
461.005	3.53
461.361	3.72
461.717	3.72
462.073	3.73
462.429	3.85
462.785	3.87
463.141	3.79
463.496	3.8
463.852	3.86
464.208	3.74
464.564	3.8
464.919	3.73
465.275	3.79
465.631	3.74
465.986	3.8
466.342	3.79
466.697	3.67
467.052	3.85
467.408	3.74
467.763	3.69
468.118	3.82
468.473	3.95
468.829	3.77
469.184	3.9
469.539	3.76
469.894	3.98
470.249	3.76
470.603	3.99
470.958	3.91
471.313	3.77
471.668	3.91
472.023	3.89
472.377	3.56
472.732	3.77
473.086	3.73
473.441	3.81
473.795	3.87
474.15	3.71
474.504	3.83
474.859	3.87
475.213	3.74
475.567	3.74
475.921	3.96
476.275	3.91
476.63	3.74
476.984	3.89
477.338	3.99
477.692	3.77
478.045	3.76
478.399	3.8
478.753	3.74
479.107	3.7
479.461	3.86
479.814	3.79
480.168	3.91
480.521	3.75
480.875	3.9
481.228	3.89
481.582	3.7
481.935	3.87
482.289	3.75
482.642	3.78
482.995	3.76
483.348	3.76
483.701	3.69
484.055	3.66
484.408	3.6
484.761	3.45
485.114	3.45
485.466	3.49
485.819	3.61
486.172	3.74
486.525	3.77
486.878	3.79
487.23	3.82
487.583	3.71
487.936	3.74
488.288	3.65
488.641	3.7
488.993	3.59
489.345	3.63
489.698	3.73
490.05	3.74
490.402	3.78
490.754	3.87
491.107	3.79
491.459	3.8
491.811	3.86
492.163	3.8
492.515	3.68
492.866	3.51
493.218	3.62
493.57	3.77
493.922	3.81
494.274	3.88
494.625	3.85
494.977	3.83
495.328	3.9
495.68	3.98
496.031	3.87
496.383	3.93
496.734	3.93
497.086	3.75
497.437	3.92
497.788	3.78
498.139	3.73
498.49	3.78
498.842	3.89
499.193	3.78
499.544	3.91
499.894	3.81
500.245	3.9
500.596	3.88
500.947	3.98
501.298	3.93
501.648	3.92
501.999	3.97
502.35	4.01
502.7	3.81
503.051	3.99
503.401	3.94
503.752	3.82
504.102	3.87
504.452	3.81
504.803	3.69
505.153	3.88
505.503	3.81
505.853	3.75
506.203	3.88
506.553	3.97
506.903	3.94
507.253	3.96
507.603	3.74
507.953	3.94
508.303	4.02
508.652	3.88
509.002	3.88
509.352	3.86
509.701	3.87
510.051	3.97
510.4	3.82
510.75	3.83
511.099	3.81
511.449	3.85
511.798	4.04
512.147	3.96
512.496	3.97
512.846	3.9
513.195	3.85
513.544	3.87
513.893	3.78
514.242	3.9
514.591	3.81
514.939	3.84
515.288	4
515.637	4
515.986	3.83
516.334	4.05
516.683	3.87
517.032	3.95
517.38	3.86
517.729	3.83
518.077	3.92
518.426	3.73
518.774	3.79
519.122	3.75
519.47	3.83
519.819	3.82
520.167	3.81
520.515	3.8
520.863	3.83
521.211	3.9
521.559	3.88
521.907	3.8
522.255	3.97
522.602	3.92
522.95	3.97
523.298	3.82
523.645	3.84
523.993	3.97
524.341	3.85
524.688	3.89
525.036	3.94
525.383	3.81
525.73	3.92
526.078	3.94
526.425	3.82
526.772	3.61
527.119	3.77
527.466	3.87
527.814	3.75
528.161	3.88
528.508	3.82
528.854	3.78
529.201	3.67
529.548	3.63
529.895	3.54
530.242	3.58
530.588	3.71
530.935	3.82
531.282	3.83
531.628	3.86
531.975	3.86
532.321	3.9
532.667	3.86
533.014	3.95
533.36	3.86
533.706	3.82
534.052	3.75
534.399	3.66
534.745	3.65
535.091	3.76
535.437	3.84
535.783	3.91
536.129	3.92
536.474	3.97
536.82	3.88
537.166	3.93
537.512	3.93
537.857	3.74
538.203	3.82
538.549	3.86
538.894	3.88
539.239	3.96
539.585	3.93
539.93	3.9
540.276	3.81
540.621	3.83
540.966	3.9
541.311	3.84
541.656	3.81
542.001	3.81
542.346	3.69
542.691	3.64
543.036	3.66
543.381	3.77
543.726	3.85
544.071	3.9
544.415	3.82
544.76	3.75
545.105	3.78
545.449	3.8
545.794	3.94
546.138	4.01
546.483	3.92
546.827	3.89
547.171	3.78
547.516	3.88
547.86	3.82
548.204	3.79
548.548	3.91
548.892	3.96
549.236	3.99
549.58	4.01
549.924	3.93
550.268	4.1
550.612	3.99
550.956	3.8
551.3	3.88
551.643	3.99
551.987	3.99
552.33	3.88
552.674	3.95
553.017	3.87
553.361	3.8
553.704	3.84
554.048	3.95
554.391	3.87
554.734	3.89
555.077	3.92
555.42	3.88
555.764	3.93
556.107	4.02
556.45	3.91
556.793	3.95
557.135	4.12
557.478	3.98
557.821	4.01
558.164	3.98
558.507	3.77
558.849	3.93
559.192	4
559.534	3.65
559.877	3.87
560.219	4.06
560.562	3.9
560.904	3.88
561.246	3.82
561.589	4.03
561.931	4.09
562.273	4.03
562.615	3.89
562.957	3.9
563.299	3.95
563.641	4.08
563.983	3.86
564.325	3.8
564.667	3.92
565.008	3.94
565.35	3.95
565.692	4.01
566.033	3.9
566.375	3.79
566.716	3.94
567.058	3.89
567.399	3.99
567.741	4
568.082	3.95
568.423	3.91
568.764	4.03
569.105	3.96
569.447	3.99
569.788	3.92
570.129	3.93
570.47	3.77
570.811	3.82
571.151	3.87
571.492	4.18
571.833	3.91
572.174	3.85
572.514	3.87
572.855	3.89
573.195	3.75
573.536	3.92
573.876	3.99
574.217	3.98
574.557	3.83
574.898	3.76
575.238	3.85
575.578	3.9
575.918	3.85
576.258	3.87
576.598	3.84
576.938	4.04
577.278	3.87
577.618	3.73
577.958	3.94
578.298	4.14
578.638	3.75
578.977	4.05
579.317	4.02
579.657	3.91
579.996	3.96
580.336	3.9
580.675	4.02
581.014	3.89
581.354	3.93
581.693	3.82
582.032	3.84
582.372	3.97
582.711	3.97
583.05	4.03
583.389	3.85
583.728	3.93
584.067	3.98
584.406	4.15
584.745	3.89
585.083	4.04
585.422	3.88
585.761	4.12
586.1	4.28
586.438	4
586.777	3.93
587.115	3.97
587.454	3.89
587.792	3.92
588.13	4.19
588.469	3.97
588.807	4.1
589.145	4.09
589.483	3.88
589.821	4.02
590.159	3.79
590.497	3.65
590.835	4.06
591.173	4.02
591.511	3.95
591.849	3.95
592.187	3.91
592.524	4.02
592.862	4.1
593.2	3.95
593.537	3.82
593.875	4.15
594.212	3.88
594.55	3.84
594.887	4.02
595.224	3.92
595.561	3.87
595.899	3.69
596.236	4.07
596.573	3.74
596.91	4.04
597.247	3.83
597.584	3.99
597.921	3.81
598.258	3.95
598.594	3.73
598.931	4.03
599.268	3.97
599.604	3.96
599.941	3.96
600.277	3.87
600.614	4.15
600.95	3.95
601.287	3.88
601.623	3.94
601.959	3.76
602.296	3.9
602.632	3.95
602.968	3.67
603.304	4
603.64	3.84
603.976	4.14
604.312	4.28
604.648	3.9
604.984	3.95
605.319	3.95
605.655	3.78
605.991	3.79
606.326	3.73
606.662	3.77
606.998	3.97
607.333	3.98
607.668	3.89
608.004	3.99
608.339	3.87
608.674	3.88
609.01	4.15
609.345	4.04
609.68	3.75
610.015	3.83
610.35	3.83
610.685	3.92
611.02	3.93
611.355	3.95
611.689	3.75
612.024	4.08
612.359	3.99
612.694	4
613.028	4.24
613.363	3.74
613.697	3.96
614.032	3.95
614.366	3.85
614.7	4.29
615.035	3.81
615.369	3.96
615.703	3.98
616.037	3.71
616.371	3.92
616.705	4.2
617.039	4.04
617.373	3.8
617.707	3.91
618.041	4.28
618.375	3.94
618.709	4.18
619.042	3.78
619.376	3.97
619.71	4.04
620.043	3.99
620.377	4.08
620.71	3.81
621.043	3.55
621.377	4.14
621.71	3.96
622.043	4.22
622.376	3.89
622.709	4.21
623.043	3.95
623.376	4.03
623.709	4
624.041	4
624.374	3.91
624.707	3.81
625.04	4.36
625.373	4.04
625.705	3.73
626.038	3.88
626.37	3.9
626.703	3.81
627.035	3.95
627.368	4.05
627.7	4.04
628.032	3.84
628.365	3.53
628.697	3.9
629.029	4.18
629.361	3.76
629.693	4.14
630.025	4.08
630.357	3.89
630.689	4.19
631.021	3.85
631.353	4.03
631.684	3.94
632.016	3.68
632.348	4.02
632.679	3.63
633.011	4.2
633.342	4.38
633.674	3.9
634.005	3.93
634.336	4.23
634.668	3.69
634.999	4.09
635.33	3.92
635.661	3.93
635.992	3.75
636.323	3.89
636.654	4.25
636.985	3.75
637.316	3.84
637.647	3.94
637.977	3.85
638.308	3.55
638.639	3.77
638.969	4.06
639.3	3.9
639.63	3.7
639.961	3.7
640.291	4.16
640.622	4.24
640.952	4.07
641.282	3.5
641.612	3.58
641.943	3.75
642.273	3.83
642.603	4.28
642.933	3.94
643.263	4.16
643.592	4.05
643.922	4.38
644.252	4.48
644.582	3.61
644.911	3.74
645.241	3.97
645.571	3.8
645.9	4.38
646.23	3.66
646.559	4.23
646.888	3.85
647.218	4.04
647.547	4.25
647.876	4.13
648.205	3.61
648.534	3.88
648.863	4.23
649.192	3.94
649.521	3.81
649.85	4.13
650.179	3.09
650.508	3.82
650.837	4.11
651.165	4.05
651.494	4.26
651.822	3.91
652.151	4.53
652.479	4.37
652.808	3.91
653.136	3.66
653.465	4.44
653.793	3.92
654.121	4.11
654.449	4.05
654.777	3.83
655.105	4.66
655.433	4.67
655.761	3.89
656.089	4.28
656.417	4.01
656.745	4.43
657.073	4.19
657.4	4.02
657.728	4.28
658.056	3.46
658.383	4.07
658.711	3.84
659.038	4.61
659.365	3.72
659.693	3.92
660.02	3.69
660.347	3.93
660.674	3.85
661.001	3.82
661.329	3.96
661.656	3.91
661.982	4.05
662.309	4.06
662.636	3.73
662.963	4.28
663.29	4.25
663.616	3.85
663.943	4.41
664.27	4.07
664.596	3.77
664.923	4.14
665.249	4.02
665.576	3.87
665.902	3.93
666.228	3.95
666.554	3.64
666.881	4.19
667.207	4.06
667.533	4.54
667.859	3.97
668.185	4.44
668.511	3.83
668.837	3.61
669.162	4.25
669.488	3.91
669.814	4.46
670.139	4.4
670.465	4.18
670.791	4.24
671.116	3.82
671.442	4.61
671.767	4.32
672.092	4.52
672.418	4
672.743	4.1
673.068	3.44
673.393	4.49
673.718	3.99
674.043	4.23
674.368	4.21
674.693	4.1
675.018	3.71
675.343	4.44
675.667	4.32
675.992	3.49
676.317	4.15
676.641	4.23
676.966	4.67
677.29	4.5
677.615	3.93
677.939	4.12
678.264	3.65
678.588	4.25
678.912	5.13
679.236	4.48
679.56	3.38
679.885	4.45
680.209	3.6
680.532	4.07
680.856	4.37
681.18	3.87
681.504	3.92
681.828	3.82
682.152	3.92
682.475	4.03
682.799	4.48
683.122	3.88
683.446	3.54
683.769	4.2
684.093	4.33
684.416	4.45
684.739	4.63
685.062	4.24
685.386	4.14
685.709	4.34
686.032	4.34
686.355	3.86
686.678	4.13
687.001	3.35
687.324	3.76
687.646	3.79
687.969	3.97
688.292	4.44
688.614	4.51
688.937	4.29
689.26	3.93
689.582	4.47
689.904	4.23
690.227	3.93
690.549	4.5
690.871	4.42
691.194	4.64
691.516	4.17
691.838	3.61
692.16	3.74
692.482	4.25
