Data from 0059_chest_Reflection__1__164.txt Node

Date: Fri Dec 16 15:20:09 CST 2022
User: ToomeyLab
Spectrometer: FLMS14357
Trigger mode: 0
Integration Time (sec): 1.000000E-2
Scans to average: 100
Electric dark correction enabled: true
Nonlinearity correction enabled: false
Boxcar width: 0
XAxis mode: Wavelengths
Number of Pixels in Spectrum: 2048
>>>>>Begin Spectral Data<<<<<
189.047	-59.22
189.435	-59.22
189.823	-59.22
190.211	-1211.78
190.599	88.24
190.987	1469.83
191.375	169.9
191.763	29.06
192.151	10.54
192.538	430.74
192.926	14.55
193.314	-9632.14
193.702	168.11
194.089	231.22
194.477	-27.08
194.864	906.4
195.252	-92.05
195.639	99.88
196.027	61.95
196.414	115.45
196.801	-771.83
197.189	125.44
197.576	138.54
197.963	-4.44
198.351	-10.31
198.738	-101.36
199.125	35.99
199.512	19.66
199.899	-6.68
200.286	-44.26
200.673	23.95
201.06	37.46
201.447	56.94
201.833	15.95
202.22	1.26
202.607	-1.7
202.994	-28.72
203.38	-0.77
203.767	-65.29
204.154	12.91
204.54	37.48
204.927	-17.96
205.313	25.73
205.699	-7.17
206.086	-34.73
206.472	-3.07
206.858	-9.35
207.245	-9.97
207.631	-18.85
208.017	12.67
208.403	30.63
208.789	-34
209.175	29.08
209.561	-11.5
209.947	-8.81
210.333	-20.75
210.719	18.97
211.105	-1.67
211.491	-7.95
211.876	27.14
212.262	-28.42
212.648	-114.97
213.034	-23.48
213.419	15.04
213.805	-22.41
214.19	-10.69
214.576	15.03
214.961	-6.12
215.346	-53.1
215.732	-17.87
216.117	-7.19
216.502	-35.34
216.888	-47.93
217.273	-1.17
217.658	-48.96
218.043	7.24
218.428	-2.44
218.813	-22.19
219.198	-25.32
219.583	8.3
219.968	5.69
220.353	13.59
220.738	-2.11
221.122	-15.34
221.507	-15.44
221.892	7.63
222.276	9.87
222.661	-1.24
223.046	0.56
223.43	-7.39
223.815	2.96
224.199	1.25
224.583	-2.43
224.968	-1.45
225.352	-0.7
225.736	14.09
226.121	-3.07
226.505	3.78
226.889	4.47
227.273	2.19
227.657	1.98
228.041	-0.81
228.425	1.19
228.809	-0.49
229.193	-0.51
229.577	1.83
229.961	2.12
230.344	2.2
230.728	1.85
231.112	2.47
231.495	1.71
231.879	3.36
232.263	2.75
232.646	1.75
233.03	1.08
233.413	1.79
233.797	4.4
234.18	1.15
234.563	2.71
234.946	1.02
235.33	1.4
235.713	2.28
236.096	2.93
236.479	4.27
236.862	2.98
237.245	3.51
237.628	2.59
238.011	0.84
238.394	1.45
238.777	2.26
239.16	1.14
239.543	0.61
239.925	1.57
240.308	4.35
240.691	2.95
241.073	2.75
241.456	1.82
241.838	2.44
242.221	2.15
242.603	1.92
242.986	2.84
243.368	2.64
243.75	2.61
244.133	2.21
244.515	2.95
244.897	1.9
245.279	2.22
245.661	2.26
246.043	2.71
246.425	1.78
246.807	1.7
247.189	1.85
247.571	2.3
247.953	2.56
248.335	2.6
248.717	2.57
249.098	2.56
249.48	2.21
249.862	2.83
250.243	2.32
250.625	2.73
251.006	2.51
251.388	2.47
251.769	2.57
252.151	2.92
252.532	2.61
252.913	2.43
253.295	2.81
253.676	2.88
254.057	1.91
254.438	2.36
254.819	2.66
255.2	1.56
255.581	2.57
255.962	2.48
256.343	3.51
256.724	2.08
257.105	2.08
257.486	2.57
257.867	1.15
258.247	2.56
258.628	3.16
259.009	2.26
259.389	3.3
259.77	2.29
260.15	2.85
260.531	2.45
260.911	2.44
261.292	2.42
261.672	2.48
262.052	2.23
262.432	2.03
262.813	2.41
263.193	1.76
263.573	3
263.953	2.04
264.333	2.78
264.713	1.75
265.093	2.68
265.473	3.13
265.853	2.04
266.233	1.96
266.612	2.53
266.992	1.97
267.372	1.9
267.752	2.46
268.131	2.18
268.511	2.5
268.89	2.98
269.27	2.24
269.649	2.51
270.029	2.33
270.408	1.87
270.787	2.31
271.167	2.18
271.546	1.56
271.925	2.19
272.304	2.24
272.683	2.17
273.062	2.36
273.441	2.69
273.82	2.73
274.199	2.66
274.578	1.94
274.957	2.42
275.336	1.86
275.715	2.48
276.093	2.44
276.472	2.61
276.851	2.78
277.229	2.76
277.608	1.87
277.986	2.09
278.365	1.94
278.743	2.05
279.122	1.83
279.5	2.18
279.878	1.88
280.257	2.12
280.635	2.36
281.013	2.74
281.391	2.18
281.769	1.83
282.147	2.31
282.525	2.24
282.903	2.08
283.281	2.25
283.659	2.33
284.037	2.23
284.415	2.13
284.792	2.15
285.17	1.54
285.548	2.14
285.925	2.13
286.303	1.96
286.68	2.25
287.058	2.18
287.435	1.94
287.813	2.46
288.19	2.61
288.567	1.95
288.945	2.24
289.322	1.79
289.699	2.24
290.076	2.34
290.453	1.95
290.83	2.19
291.207	1.92
291.584	2.09
291.961	2.75
292.338	2.22
292.715	1.94
293.092	2.33
293.469	2.43
293.845	2.59
294.222	2.01
294.599	2.47
294.975	1.95
295.352	1.78
295.728	2.59
296.105	2.24
296.481	2.28
296.858	1.75
297.234	2.1
297.61	2.43
297.986	2.25
298.363	1.77
298.739	2.47
299.115	1.59
299.491	2.02
299.867	2.35
300.243	2.04
300.619	2.48
300.995	2.34
301.371	2.38
301.746	1.86
302.122	2.3
302.498	2.23
302.874	2.29
303.249	2.65
303.625	2.42
304	1.81
304.376	2.13
304.751	2.15
305.127	2.34
305.502	2.51
305.878	2.2
306.253	2.03
306.628	2.39
307.003	2.6
307.378	1.76
307.754	2.59
308.129	1.57
308.504	1.77
308.879	2.06
309.254	2.79
309.629	2.32
310.003	2.39
310.378	2.29
310.753	2.21
311.128	1.81
311.502	1.96
311.877	2.18
312.252	1.97
312.626	1.89
313.001	2.22
313.375	2.06
313.75	2.03
314.124	2.26
314.498	2.02
314.873	2.06
315.247	1.88
315.621	2.74
315.995	1.81
316.369	2.19
316.743	2.42
317.117	1.99
317.491	2.24
317.865	1.54
318.239	2.27
318.613	2.41
318.987	2.27
319.361	2.18
319.734	2.32
320.108	2.16
320.482	1.97
320.855	2.39
321.229	2.62
321.602	1.69
321.976	1.96
322.349	1.3
322.723	1.65
323.096	1.98
323.469	1.73
323.843	1.6
324.216	1.62
324.589	2.08
324.962	2.31
325.335	1.83
325.708	1.87
326.081	2.7
326.454	1.89
326.827	2.24
327.2	2.68
327.573	2.41
327.945	2.02
328.318	2.53
328.691	2.47
329.063	2.43
329.436	2.44
329.809	1.53
330.181	2.54
330.553	2.27
330.926	2.09
331.298	1.8
331.671	2.24
332.043	2.27
332.415	2.92
332.787	2.55
333.159	2.25
333.532	1.94
333.904	2.33
334.276	1.97
334.648	2.19
335.02	1.82
335.391	2.6
335.763	1.76
336.135	2.32
336.507	2.52
336.879	1.99
337.25	2.35
337.622	2.47
337.993	2.4
338.365	2.54
338.736	2.1
339.108	1.86
339.479	2.11
339.851	2.41
340.222	2.23
340.593	2.15
340.964	2.35
341.336	1.79
341.707	2.23
342.078	1.63
342.449	2.27
342.82	2.01
343.191	1.58
343.562	2.37
343.933	2.5
344.303	1.88
344.674	2.02
345.045	2.29
345.416	2.34
345.786	1.99
346.157	2.47
346.527	1.88
346.898	1.97
347.268	2.17
347.639	2.43
348.009	2.56
348.38	2.01
348.75	2.63
349.12	2.33
349.49	2.06
349.861	2.59
350.231	2.63
350.601	2.27
350.971	2.39
351.341	2.1
351.711	2.08
352.081	2.26
352.45	2.36
352.82	2.03
353.19	2.07
353.56	2.13
353.929	2.52
354.299	2.09
354.669	2.01
355.038	2.25
355.408	2.89
355.777	1.79
356.147	2.67
356.516	2.37
356.885	2.14
357.254	2.62
357.624	2.37
357.993	2.42
358.362	2.42
358.731	2.36
359.1	2.69
359.469	2.55
359.838	2.15
360.207	2.19
360.576	2.43
360.945	2.23
361.314	2.58
361.682	2.23
362.051	2.35
362.42	2.55
362.788	2.39
363.157	1.9
363.525	2.5
363.894	2.03
364.262	2.09
364.631	2.68
364.999	2.07
365.367	2.51
365.735	2.12
366.104	1.86
366.472	2.39
366.84	2.35
367.208	2.02
367.576	2.13
367.944	2.64
368.312	2.1
368.68	2.39
369.048	2.32
369.416	2.22
369.783	2.24
370.151	2.21
370.519	2.25
370.886	2.44
371.254	2.36
371.621	2.36
371.989	2.49
372.356	2.1
372.724	2.41
373.091	2.52
373.458	2.27
373.826	2.12
374.193	2.72
374.56	2.21
374.927	2.25
375.294	2.52
375.661	2.35
376.028	2.71
376.395	2.49
376.762	2.77
377.129	2.48
377.496	2.21
377.863	2.37
378.229	2.25
378.596	2.31
378.963	2.21
379.329	2.37
379.696	2.27
380.062	2.52
380.429	2.17
380.795	2.25
381.161	2.36
381.528	1.9
381.894	2.41
382.26	2.23
382.626	2.4
382.993	1.98
383.359	2.36
383.725	2.68
384.091	2.12
384.457	2.62
384.823	2.53
385.188	2.68
385.554	2.4
385.92	2.51
386.286	2.53
386.651	2.18
387.017	2.36
387.383	2.42
387.748	2.16
388.114	2.62
388.479	2.32
388.845	2.65
389.21	2.26
389.575	2.58
389.94	2.36
390.306	2.49
390.671	2.39
391.036	2.62
391.401	2.73
391.766	2.35
392.131	2.38
392.496	2.12
392.861	2.27
393.226	2.69
393.591	2.55
393.956	2.69
394.32	2.35
394.685	2.55
395.05	2.19
395.414	2.57
395.779	2.26
396.143	2.52
396.508	2.63
396.872	2.46
397.236	2.29
397.601	2.61
397.965	2.21
398.329	2.53
398.694	2.13
399.058	2.42
399.422	2.47
399.786	2.45
400.15	2.22
400.514	2.53
400.878	2.43
401.242	2.75
401.605	2.44
401.969	2.51
402.333	2.35
402.697	2.52
403.06	2.81
403.424	2.13
403.787	2.76
404.151	2.44
404.514	2.6
404.878	2.57
405.241	2.47
405.604	2.53
405.968	2.42
406.331	2.49
406.694	2.28
407.057	2.79
407.42	2.41
407.783	2.29
408.146	2.76
408.509	2.34
408.872	2.31
409.235	2.46
409.598	2.71
409.961	2.59
410.323	2.55
410.686	2.36
411.049	2.3
411.411	2.53
411.774	2.56
412.136	2.44
412.499	2.38
412.861	2.41
413.223	2.45
413.586	2.5
413.948	2.59
414.31	2.76
414.672	2.32
415.035	2.63
415.397	2.62
415.759	2.5
416.121	2.7
416.483	2.78
416.845	2.58
417.206	2.7
417.568	2.45
417.93	2.55
418.292	2.66
418.653	2.71
419.015	2.56
419.377	2.71
419.738	2.5
420.1	2.48
420.461	2.46
420.822	2.6
421.184	2.4
421.545	2.49
421.906	2.59
422.267	2.41
422.629	2.53
422.99	2.51
423.351	2.51
423.712	2.48
424.073	2.64
424.434	2.53
424.795	2.43
425.155	2.63
425.516	2.48
425.877	2.49
426.238	2.41
426.598	2.57
426.959	2.52
427.32	2.59
427.68	2.61
428.041	2.69
428.401	2.46
428.761	2.56
429.122	2.53
429.482	2.56
429.842	2.62
430.202	2.48
430.563	2.57
430.923	2.62
431.283	2.64
431.643	2.59
432.003	2.54
432.363	2.61
432.722	2.57
433.082	2.45
433.442	2.42
433.802	2.61
434.161	2.45
434.521	2.6
434.881	2.65
435.24	2.44
435.6	2.53
435.959	2.49
436.319	2.46
436.678	2.59
437.037	2.57
437.396	2.68
437.756	2.55
438.115	2.55
438.474	2.61
438.833	2.74
439.192	2.72
439.551	2.58
439.91	2.62
440.269	2.73
440.628	2.64
440.987	2.4
441.345	2.53
441.704	2.64
442.063	2.62
442.421	2.59
442.78	2.57
443.138	2.65
443.497	2.58
443.855	2.56
444.214	2.49
444.572	2.51
444.93	2.65
445.288	2.78
445.647	2.66
446.005	2.39
446.363	2.65
446.721	2.47
447.079	2.6
447.437	2.54
447.795	2.53
448.153	2.66
448.51	2.53
448.868	2.64
449.226	2.61
449.584	2.58
449.941	2.73
450.299	2.58
450.656	2.71
451.014	2.58
451.371	2.71
451.729	2.67
452.086	2.42
452.443	2.55
452.801	2.69
453.158	2.57
453.515	2.68
453.872	2.71
454.229	2.54
454.586	2.57
454.943	2.67
455.3	2.75
455.657	2.51
456.014	2.65
456.371	2.63
456.727	2.39
457.084	2.51
457.441	2.55
457.797	2.61
458.154	2.47
458.51	2.62
458.867	2.59
459.223	2.8
459.58	2.5
459.936	2.62
460.292	2.65
460.648	2.63
461.005	2.58
461.361	2.58
461.717	2.67
462.073	2.66
462.429	2.73
462.785	2.65
463.141	2.7
463.496	2.6
463.852	2.82
464.208	2.75
464.564	2.5
464.919	2.58
465.275	2.83
465.631	2.73
465.986	2.59
466.342	2.68
466.697	2.51
467.052	2.83
467.408	2.75
467.763	2.7
468.118	2.74
468.473	2.86
468.829	2.59
469.184	2.79
469.539	2.63
469.894	2.76
470.249	2.73
470.603	2.69
470.958	2.89
471.313	2.75
471.668	2.83
472.023	2.74
472.377	2.75
472.732	2.61
473.086	2.52
473.441	2.73
473.795	2.84
474.15	2.77
474.504	2.83
474.859	2.77
475.213	2.72
475.567	2.68
475.921	2.73
476.275	2.85
476.63	2.69
476.984	2.67
477.338	2.91
477.692	2.78
478.045	2.53
478.399	2.73
478.753	2.5
479.107	2.61
479.461	2.74
479.814	2.68
480.168	2.76
480.521	2.64
480.875	2.87
481.228	2.74
481.582	2.63
481.935	2.58
482.289	2.61
482.642	2.72
482.995	2.65
483.348	2.71
483.701	2.67
484.055	2.63
484.408	2.6
484.761	2.51
485.114	2.49
485.466	2.49
485.819	2.56
486.172	2.61
486.525	2.66
486.878	2.64
487.23	2.65
487.583	2.66
487.936	2.67
488.288	2.63
488.641	2.58
488.993	2.5
489.345	2.58
489.698	2.6
490.05	2.66
490.402	2.69
490.754	2.77
491.107	2.72
491.459	2.81
491.811	2.75
492.163	2.69
492.515	2.7
492.866	2.56
493.218	2.59
493.57	2.69
493.922	2.69
494.274	2.8
494.625	2.77
494.977	2.71
495.328	2.77
495.68	2.89
496.031	2.74
496.383	2.75
496.734	2.79
497.086	2.66
497.437	2.84
497.788	2.7
498.139	2.75
498.49	2.77
498.842	2.81
499.193	2.77
499.544	2.84
499.894	2.81
500.245	2.78
500.596	2.8
500.947	2.75
501.298	2.81
501.648	2.91
501.999	2.96
502.35	2.89
502.7	2.92
503.051	3.02
503.401	2.76
503.752	2.87
504.102	2.93
504.452	2.77
504.803	2.55
505.153	2.89
505.503	2.76
505.853	2.69
506.203	2.85
506.553	2.91
506.903	2.8
507.253	2.94
507.603	2.73
507.953	2.98
508.303	2.85
508.652	2.78
509.002	2.83
509.352	2.73
509.701	2.88
510.051	2.77
510.4	2.8
510.75	2.83
511.099	2.84
511.449	2.81
511.798	3.02
512.147	2.83
512.496	2.88
512.846	2.86
513.195	2.81
513.544	2.88
513.893	2.78
514.242	3.08
514.591	2.9
514.939	2.9
515.288	2.93
515.637	3.03
515.986	2.89
516.334	3
516.683	2.89
517.032	2.89
517.38	2.91
517.729	2.96
518.077	2.93
518.426	2.84
518.774	2.91
519.122	2.83
519.47	2.89
519.819	2.92
520.167	2.87
520.515	2.87
520.863	2.9
521.211	2.87
521.559	2.89
521.907	2.93
522.255	3.01
522.602	3.01
522.95	2.95
523.298	2.81
523.645	2.93
523.993	3.02
524.341	2.97
524.688	2.95
525.036	2.96
525.383	2.97
525.73	2.95
526.078	2.94
526.425	2.93
526.772	2.86
527.119	2.82
527.466	2.9
527.814	2.85
528.161	2.94
528.508	2.93
528.854	2.89
529.201	2.88
529.548	2.83
529.895	2.79
530.242	2.79
530.588	2.84
530.935	2.9
531.282	2.94
531.628	2.97
531.975	3.01
532.321	2.95
532.667	2.98
533.014	2.97
533.36	2.98
533.706	2.96
534.052	2.92
534.399	2.88
534.745	2.85
535.091	2.9
535.437	2.96
535.783	3.08
536.129	3.05
536.474	3.15
536.82	3.02
537.166	3.06
537.512	3.07
537.857	3.02
538.203	3.01
538.549	3.1
538.894	3.05
539.239	3.28
539.585	3.17
539.93	3.13
540.276	3.12
540.621	3.19
540.966	3.16
541.311	3.12
541.656	3.11
542.001	3.11
542.346	3.05
542.691	2.99
543.036	2.99
543.381	3.03
543.726	3.08
544.071	3.14
544.415	3.12
544.76	3.1
545.105	3.2
545.449	3.09
545.794	3.09
546.138	3.27
546.483	3.14
546.827	3.25
547.171	3.22
547.516	3.28
547.86	3.21
548.204	3.19
548.548	3.26
548.892	3.23
549.236	3.25
549.58	3.21
549.924	3.31
550.268	3.4
550.612	3.31
550.956	3.21
551.3	3.37
551.643	3.29
551.987	3.24
552.33	3.34
552.674	3.33
553.017	3.52
553.361	3.29
553.704	3.31
554.048	3.4
554.391	3.39
554.734	3.4
555.077	3.41
555.42	3.35
555.764	3.46
556.107	3.38
556.45	3.41
556.793	3.62
557.135	3.59
557.478	3.57
557.821	3.49
558.164	3.63
558.507	3.36
558.849	3.51
559.192	3.53
559.534	3.41
559.877	3.65
560.219	3.66
560.562	3.63
560.904	3.5
561.246	3.59
561.589	3.55
561.931	3.65
562.273	3.58
562.615	3.76
562.957	3.51
563.299	3.48
563.641	3.76
563.983	3.65
564.325	3.4
564.667	3.65
565.008	3.49
565.35	3.72
565.692	3.69
566.033	3.65
566.375	3.59
566.716	3.57
567.058	3.66
567.399	3.65
567.741	3.77
568.082	3.59
568.423	3.72
568.764	3.78
569.105	3.73
569.447	3.75
569.788	3.73
570.129	3.7
570.47	3.87
570.811	3.81
571.151	3.8
571.492	3.93
571.833	3.79
572.174	3.66
572.514	3.62
572.855	3.86
573.195	3.86
573.536	3.74
573.876	3.78
574.217	3.85
574.557	3.87
574.898	3.83
575.238	3.77
575.578	4.04
575.918	4
576.258	3.99
576.598	3.87
576.938	4.08
577.278	3.93
577.618	3.98
577.958	4.09
578.298	4.13
578.638	3.88
578.977	4.07
579.317	4.15
579.657	4.02
579.996	3.97
580.336	3.97
580.675	4.16
581.014	4.21
581.354	4.37
581.693	3.95
582.032	4.01
582.372	4.2
582.711	4.11
583.05	4.22
583.389	4.3
583.728	4.19
584.067	4.05
584.406	4.4
584.745	4
585.083	4.47
585.422	4.3
585.761	4.11
586.1	4.58
586.438	4.11
586.777	4.43
587.115	4.32
587.454	4.16
587.792	4.4
588.13	4.5
588.469	4.47
588.807	4.48
589.145	4.58
589.483	4.11
589.821	4.43
590.159	4.41
590.497	4.27
590.835	4.43
591.173	4.66
591.511	4.43
591.849	4.53
592.187	4.59
592.524	4.32
592.862	4.39
593.2	4.46
593.537	4.49
593.875	4.61
594.212	4.57
594.55	4.63
594.887	4.89
595.224	4.44
595.561	4.52
595.899	4.6
596.236	4.58
596.573	4.46
596.91	4.44
597.247	4.34
597.584	4.71
597.921	4.63
598.258	4.67
598.594	4.52
598.931	4.59
599.268	4.7
599.604	5.18
599.941	4.77
600.277	4.8
600.614	4.8
600.95	4.82
601.287	4.84
601.623	4.86
601.959	4.78
602.296	4.92
602.632	5.09
602.968	4.97
603.304	4.67
603.64	4.89
603.976	4.75
604.312	5.05
604.648	4.96
604.984	4.75
605.319	4.97
605.655	4.83
605.991	5.05
606.326	5
606.662	4.73
606.998	5.09
607.333	5.05
607.668	4.99
608.004	4.89
608.339	5.01
608.674	5
609.01	5.13
609.345	5.28
609.68	5.23
610.015	4.94
610.35	5.25
610.685	5.24
611.02	5.24
611.355	5.24
611.689	5.03
612.024	5.37
612.359	5.47
612.694	5.55
613.028	5.47
613.363	5.22
613.697	5.42
614.032	5.66
614.366	5.32
614.7	5.7
615.035	5.09
615.369	5.44
615.703	5.98
616.037	5.34
616.371	5.36
616.705	5.18
617.039	5.63
617.373	5.46
617.707	5.77
618.041	5.57
618.375	5.34
618.709	5.22
619.042	5.57
619.376	5.62
619.71	5.73
620.043	5.69
620.377	5.54
620.71	5.83
621.043	5.33
621.377	5.53
621.71	5.28
622.043	5.88
622.376	5.68
622.709	5.92
623.043	5.7
623.376	5.72
623.709	6.3
624.041	5.85
624.374	5.47
624.707	5.39
625.04	6.08
625.373	5.59
625.705	6.01
626.038	5.74
626.37	5.96
626.703	5.84
627.035	6.04
627.368	6.2
627.7	6.18
628.032	5.85
628.365	5.52
628.697	5.92
629.029	6.29
629.361	6.02
629.693	6.39
630.025	6.07
630.357	5.96
630.689	6.47
631.021	6.21
631.353	6.39
631.684	6.24
632.016	6.1
632.348	5.92
632.679	6.22
633.011	6.1
633.342	6.24
633.674	6.17
634.005	6.11
634.336	6.36
634.668	6.19
634.999	6.34
635.33	6.32
635.661	6.53
635.992	6.2
636.323	6.46
636.654	6.38
636.985	6.32
637.316	6.41
637.647	6.84
637.977	6.51
638.308	6.17
638.639	6.32
638.969	6.32
639.3	6.86
639.63	6.48
639.961	6.43
640.291	6.97
640.622	6.47
640.952	6.69
641.282	6.25
641.612	6.36
641.943	6.75
642.273	7.1
642.603	6.77
642.933	6.82
643.263	7.04
643.592	7.07
643.922	7.07
644.252	6.94
644.582	6.8
644.911	6.8
645.241	6.56
645.571	6.85
645.9	7.19
646.23	6.63
646.559	7
646.888	6.8
647.218	7.03
647.547	7.33
647.876	7.17
648.205	6.89
648.534	6.84
648.863	7.28
649.192	6.97
649.521	6.95
649.85	7.45
650.179	6.79
650.508	7.06
650.837	7.09
651.165	7.03
651.494	7.11
651.822	7.06
652.151	7.7
652.479	7.62
652.808	7.27
653.136	7.27
653.465	7.6
653.793	7.6
654.121	7.48
654.449	7.44
654.777	7.48
655.105	7.75
655.433	7.44
655.761	6.97
656.089	7.56
656.417	7.32
656.745	7.62
657.073	8.09
657.4	7.56
657.728	7.21
658.056	7.14
658.383	8.01
658.711	7.72
659.038	8.01
659.365	7.95
659.693	7.48
660.02	7.62
660.347	7.8
660.674	7.49
661.001	7.35
661.329	7.81
661.656	7.55
661.982	7.71
662.309	7.69
662.636	7.55
662.963	7.95
663.29	7.9
663.616	7.73
663.943	8.08
664.27	8.14
664.596	7.69
664.923	8.45
665.249	8.09
665.576	7.56
665.902	7.85
666.228	7.93
666.554	7.33
666.881	8.61
667.207	8.19
667.533	8.31
667.859	7.69
668.185	8.48
668.511	7.3
668.837	7.71
669.162	8.2
669.488	7.9
669.814	8.53
670.139	8.4
670.465	8.4
670.791	8.52
671.116	8.09
671.442	7.91
671.767	8.3
672.092	8.54
672.418	8.71
672.743	8.33
673.068	8.58
673.393	8.4
673.718	8.18
674.043	8.45
674.368	8.15
674.693	8.27
675.018	9.01
675.343	9.31
675.667	8.25
675.992	7.84
676.317	8.33
676.641	8.56
676.966	8.97
677.29	9.1
677.615	8.5
677.939	8.3
678.264	8.38
678.588	8.62
678.912	8.73
679.236	8.78
679.56	8.41
679.885	8.91
680.209	8.68
680.532	8.73
680.856	9.6
681.18	8.78
681.504	8.42
681.828	8.65
682.152	8.96
682.475	8.98
682.799	9.07
683.122	9.06
683.446	8.63
683.769	9.44
684.093	9.02
684.416	9.04
684.739	9.29
685.062	9.07
685.386	9.08
685.709	8.94
686.032	9.04
686.355	9.77
686.678	8.89
687.001	8.26
687.324	8.87
687.646	9.32
687.969	9.23
688.292	9.46
688.614	9.7
688.937	9.32
689.26	8.63
689.582	9.65
689.904	9.52
690.227	8.98
690.549	9.48
690.871	9.69
691.194	9.66
691.516	9.79
