Data from 0059_chest_Reflection__4__167.txt Node

Date: Fri Dec 16 15:20:50 CST 2022
User: ToomeyLab
Spectrometer: FLMS14357
Trigger mode: 0
Integration Time (sec): 1.000000E-2
Scans to average: 100
Electric dark correction enabled: true
Nonlinearity correction enabled: false
Boxcar width: 0
XAxis mode: Wavelengths
Number of Pixels in Spectrum: 2048
>>>>>Begin Spectral Data<<<<<
189.047	125.81
189.435	125.81
189.823	125.81
190.211	353.45
190.599	496.82
190.987	-1432.76
191.375	124.15
191.763	188.53
192.151	-218.27
192.538	105.35
192.926	-9.24
193.314	-24464.29
193.702	-254
194.089	111.46
194.477	-271.33
194.864	-1768.6
195.252	2.7
195.639	121.22
196.027	413.05
196.414	751.51
196.801	-1384.92
197.189	132.91
197.576	130.81
197.963	-136.26
198.351	32.62
198.738	-84.43
199.125	6.71
199.512	-32.7
199.899	-51.8
200.286	-40.67
200.673	10.61
201.06	21.27
201.447	9.1
201.833	-3.31
202.22	16.83
202.607	-4.94
202.994	-21.52
203.38	-42.97
203.767	-55.02
204.154	-20.13
204.54	0.67
204.927	6.48
205.313	4.5
205.699	7.62
206.086	-16.19
206.472	-30.85
206.858	-4.69
207.245	-17.36
207.631	-38.04
208.017	35.42
208.403	-11.13
208.789	-23.47
209.175	50.41
209.561	-1.26
209.947	-53.16
210.333	-38.82
210.719	-9.71
211.105	-52.57
211.491	-35.71
211.876	3.26
212.262	-40.29
212.648	-67.78
213.034	-13.16
213.419	9.83
213.805	-11.42
214.19	-7.38
214.576	-42.49
214.961	-29.38
215.346	-95.38
215.732	-47.86
216.117	-18.98
216.502	-38.62
216.888	-50.09
217.273	-2.33
217.658	-76.64
218.043	-3.18
218.428	28.95
218.813	-8.38
219.198	-66.07
219.583	-5.49
219.968	-13.74
220.353	-12.73
220.738	-21.36
221.122	-33.83
221.507	-14.45
221.892	-14.95
222.276	-5.83
222.661	-23.33
223.046	-16.59
223.43	-3.4
223.815	1.84
224.199	0.94
224.583	-4.41
224.968	0.83
225.352	-0.38
225.736	-0.36
226.121	-4.66
226.505	-5.13
226.889	8.55
227.273	4.76
227.657	2.15
228.041	2.69
228.425	0.92
228.809	5.63
229.193	2.83
229.577	4
229.961	5.62
230.344	4.63
230.728	4.95
231.112	3.93
231.495	5.15
231.879	5.36
232.263	3.84
232.646	4.6
233.03	1.94
233.413	1.49
233.797	7.98
234.18	3.04
234.563	1.95
234.946	3.38
235.33	4.68
235.713	5.54
236.096	5.13
236.479	5.85
236.862	4.87
237.245	4.91
237.628	3.78
238.011	5.35
238.394	5.67
238.777	4.43
239.16	2.4
239.543	4.23
239.925	4.42
240.308	4.11
240.691	4.01
241.073	4.1
241.456	4.88
241.838	3.82
242.221	4.17
242.603	4.59
242.986	6.04
243.368	4.32
243.75	4.68
244.133	4.56
244.515	4.78
244.897	4.43
245.279	4.58
245.661	4.11
246.043	5.81
246.425	3.8
246.807	4.45
247.189	4.67
247.571	5.1
247.953	4.98
248.335	4.93
248.717	4.87
249.098	4.66
249.48	4.23
249.862	4.37
250.243	4.42
250.625	4.16
251.006	4.36
251.388	5.08
251.769	4.38
252.151	4.29
252.532	4.05
252.913	4.28
253.295	4.66
253.676	4.47
254.057	4.4
254.438	4.55
254.819	3.95
255.2	3.24
255.581	2.9
255.962	2.56
256.343	4.31
256.724	2.8
257.105	3.76
257.486	4.3
257.867	2.73
258.247	4.38
258.628	5.01
259.009	4
259.389	4.93
259.77	3.89
260.15	5
260.531	4.87
260.911	4.56
261.292	4.49
261.672	4.44
262.052	4.41
262.432	4.14
262.813	4.38
263.193	4.31
263.573	4.77
263.953	4.4
264.333	4.48
264.713	3.79
265.093	4.29
265.473	4.67
265.853	4.3
266.233	3.09
266.612	4.22
266.992	4.58
267.372	4.17
267.752	3.96
268.131	4.53
268.511	3.88
268.89	4.51
269.27	4.39
269.649	4.11
270.029	4.71
270.408	4.22
270.787	3.66
271.167	4.3
271.546	4.07
271.925	3.93
272.304	3.86
272.683	4.25
273.062	4.69
273.441	4.06
273.82	4.42
274.199	4.17
274.578	3.95
274.957	4.28
275.336	3.85
275.715	4.71
276.093	4.43
276.472	5.17
276.851	4.53
277.229	4.11
277.608	3.88
277.986	4.57
278.365	3.15
278.743	4.27
279.122	4.1
279.5	3.42
279.878	3.68
280.257	3.88
280.635	3.97
281.013	3.86
281.391	3.23
281.769	3.65
282.147	4.33
282.525	4.04
282.903	4.3
283.281	4.05
283.659	3.92
284.037	3.93
284.415	4.49
284.792	4.1
285.17	4.44
285.548	4.18
285.925	3.98
286.303	3.71
286.68	4.16
287.058	4.03
287.435	4.25
287.813	3.88
288.19	4.38
288.567	3.76
288.945	3.57
289.322	3.84
289.699	4.16
290.076	4.33
290.453	3.92
290.83	4.31
291.207	3.84
291.584	3.7
291.961	4.1
292.338	4.42
292.715	4.03
293.092	3.94
293.469	4.33
293.845	4.56
294.222	4.05
294.599	4.47
294.975	4.04
295.352	3.8
295.728	4.24
296.105	4.04
296.481	4.06
296.858	4.39
297.234	4.3
297.61	4.23
297.986	4.49
298.363	3.91
298.739	4.04
299.115	3.82
299.491	4.23
299.867	4.23
300.243	4.22
300.619	4.06
300.995	4.31
301.371	4.48
301.746	4.28
302.122	4.11
302.498	4.21
302.874	4.19
303.249	4.01
303.625	3.98
304	3.67
304.376	4.31
304.751	3.76
305.127	3.65
305.502	4.29
305.878	3.97
306.253	3.76
306.628	3.9
307.003	3.98
307.378	3.64
307.754	4.35
308.129	3.32
308.504	4.31
308.879	4.2
309.254	4.56
309.629	3.89
310.003	4.41
310.378	4.26
310.753	4.26
311.128	4.05
311.502	3.79
311.877	4.24
312.252	3.8
312.626	4.09
313.001	3.69
313.375	3.9
313.75	3.95
314.124	4.44
314.498	3.99
314.873	4.25
315.247	4.08
315.621	4.21
315.995	3.8
316.369	3.63
316.743	4.32
317.117	4.16
317.491	3.92
317.865	3.49
318.239	4.16
318.613	3.28
318.987	4.1
319.361	3.62
319.734	3.55
320.108	3.85
320.482	3.73
320.855	4.01
321.229	4.43
321.602	3.81
321.976	3.62
322.349	2.81
322.723	3.25
323.096	3.73
323.469	3.59
323.843	3.94
324.216	3.55
324.589	4.23
324.962	4.12
325.335	3.87
325.708	3.81
326.081	4.48
326.454	3.89
326.827	3.99
327.2	4.11
327.573	3.99
327.945	3.9
328.318	3.81
328.691	4.05
329.063	3.83
329.436	3.96
329.809	3.41
330.181	3.79
330.553	4.29
330.926	3.87
331.298	3.4
331.671	3.4
332.043	3.92
332.415	4.35
332.787	4.38
333.159	4.1
333.532	3.62
333.904	4.06
334.276	3.93
334.648	4.41
335.02	3.64
335.391	3.44
335.763	4.1
336.135	4.39
336.507	4.38
336.879	4
337.25	3.99
337.622	3.83
337.993	3.9
338.365	4.08
338.736	3.93
339.108	3.56
339.479	3.91
339.851	4.49
340.222	3.97
340.593	4.01
340.964	3.69
341.336	3.47
341.707	3.72
342.078	3.36
342.449	4.18
342.82	3.76
343.191	3.84
343.562	3.78
343.933	3.76
344.303	3.95
344.674	4.16
345.045	4.07
345.416	3.9
345.786	3.71
346.157	3.84
346.527	3.72
346.898	4
347.268	4.04
347.639	3.79
348.009	4.11
348.38	3.72
348.75	3.83
349.12	4.37
349.49	3.81
349.861	4.02
350.231	3.97
350.601	3.88
350.971	4.08
351.341	4.07
351.711	4.02
352.081	3.86
352.45	4.06
352.82	4.16
353.19	3.66
353.56	3.98
353.929	3.88
354.299	3.95
354.669	4.1
355.038	3.65
355.408	4.41
355.777	3.71
356.147	4.27
356.516	4.05
356.885	3.76
357.254	3.9
357.624	3.84
357.993	4.11
358.362	3.91
358.731	3.88
359.1	3.87
359.469	4.09
359.838	3.82
360.207	3.68
360.576	3.91
360.945	4.25
361.314	4.14
361.682	3.58
362.051	4.15
362.42	4.17
362.788	4.22
363.157	3.79
363.525	3.93
363.894	3.73
364.262	3.92
364.631	4.51
364.999	3.82
365.367	4.28
365.735	3.6
366.104	3.76
366.472	4.15
366.84	4.16
367.208	4.04
367.576	4.22
367.944	4.24
368.312	3.68
368.68	4.1
369.048	3.93
369.416	3.82
369.783	4
370.151	4.06
370.519	3.9
370.886	4.15
371.254	4.09
371.621	3.97
371.989	4.13
372.356	3.97
372.724	4.34
373.091	3.92
373.458	4.13
373.826	3.86
374.193	4.27
374.56	3.67
374.927	3.55
375.294	4.49
375.661	4.15
376.028	4.01
376.395	3.92
376.762	4.12
377.129	4.11
377.496	3.92
377.863	4.1
378.229	3.97
378.596	4.03
378.963	3.86
379.329	3.82
379.696	3.89
380.062	4.44
380.429	4.05
380.795	4.03
381.161	4.06
381.528	3.56
381.894	4.01
382.26	4.01
382.626	4.07
382.993	3.73
383.359	3.74
383.725	4.16
384.091	4.21
384.457	4.19
384.823	4.09
385.188	4.23
385.554	4.09
385.92	4.36
386.286	4.36
386.651	3.91
387.017	4.22
387.383	4
387.748	3.95
388.114	4.23
388.479	3.97
388.845	4.35
389.21	4.04
389.575	4.24
389.94	4
390.306	3.89
390.671	4.22
391.036	4.32
391.401	4.42
391.766	4.15
392.131	4.22
392.496	4.25
392.861	3.92
393.226	4.2
393.591	4.26
393.956	4.21
394.32	4.22
394.685	4.5
395.05	4.08
395.414	4.22
395.779	4.25
396.143	4.17
396.508	4.21
396.872	4.26
397.236	3.8
397.601	4.26
397.965	3.76
398.329	4.32
398.694	4.1
399.058	4.33
399.422	4.16
399.786	4.2
400.15	4.06
400.514	4.21
400.878	4.28
401.242	4.46
401.605	4.18
401.969	4.29
402.333	4.05
402.697	4.5
403.06	4.36
403.424	4.33
403.787	4.48
404.151	4.21
404.514	4.32
404.878	4.23
405.241	4.43
405.604	4.25
405.968	4.31
406.331	4.29
406.694	4.16
407.057	4.32
407.42	4.29
407.783	4.12
408.146	4.25
408.509	4.2
408.872	4.2
409.235	4.36
409.598	4.48
409.961	4.44
410.323	4.21
410.686	4.17
411.049	4.2
411.411	4.13
411.774	4.23
412.136	4.29
412.499	4.25
412.861	4.22
413.223	4.4
413.586	4.26
413.948	4.17
414.31	4.34
414.672	4.27
415.035	4.52
415.397	4.49
415.759	4.36
416.121	4.39
416.483	4.52
416.845	4.25
417.206	4.42
417.568	4.53
417.93	4.48
418.292	4.36
418.653	4.38
419.015	4.45
419.377	4.39
419.738	4.29
420.1	4.39
420.461	4.22
420.822	4.41
421.184	4.4
421.545	4.26
421.906	4.38
422.267	4.24
422.629	4.36
422.99	4.29
423.351	4.31
423.712	4.34
424.073	4.54
424.434	4.3
424.795	4.27
425.155	4.42
425.516	4.35
425.877	4.44
426.238	4.25
426.598	4.42
426.959	4.4
427.32	4.49
427.68	4.48
428.041	4.44
428.401	4.35
428.761	4.36
429.122	4.37
429.482	4.21
429.842	4.45
430.202	4.29
430.563	4.37
430.923	4.49
431.283	4.4
431.643	4.37
432.003	4.53
432.363	4.56
432.722	4.21
433.082	4.44
433.442	4.43
433.802	4.49
434.161	4.44
434.521	4.53
434.881	4.57
435.24	4.41
435.6	4.43
435.959	4.54
436.319	4.43
436.678	4.49
437.037	4.54
437.396	4.56
437.756	4.54
438.115	4.61
438.474	4.64
438.833	4.61
439.192	4.72
439.551	4.64
439.91	4.58
440.269	4.76
440.628	4.49
440.987	4.4
441.345	4.49
441.704	4.6
442.063	4.58
442.421	4.59
442.78	4.54
443.138	4.4
443.497	4.49
443.855	4.51
444.214	4.62
444.572	4.61
444.93	4.68
445.288	4.58
445.647	4.68
446.005	4.49
446.363	4.51
446.721	4.51
447.079	4.58
447.437	4.58
447.795	4.62
448.153	4.51
448.51	4.47
448.868	4.62
449.226	4.47
449.584	4.49
449.941	4.63
450.299	4.59
450.656	4.69
451.014	4.6
451.371	4.71
451.729	4.59
452.086	4.53
452.443	4.53
452.801	4.76
453.158	4.64
453.515	4.52
453.872	4.83
454.229	4.65
454.586	4.55
454.943	4.53
455.3	4.79
455.657	4.66
456.014	4.72
456.371	4.71
456.727	4.52
457.084	4.67
457.441	4.7
457.797	4.75
458.154	4.69
458.51	4.84
458.867	4.55
459.223	4.84
459.58	4.5
459.936	4.64
460.292	4.72
460.648	4.64
461.005	4.7
461.361	4.66
461.717	4.6
462.073	4.68
462.429	4.66
462.785	4.69
463.141	4.71
463.496	4.73
463.852	4.8
464.208	4.82
464.564	4.72
464.919	4.88
465.275	4.86
465.631	4.73
465.986	4.58
466.342	4.64
466.697	4.79
467.052	4.76
467.408	4.57
467.763	4.71
468.118	4.82
468.473	5.02
468.829	4.74
469.184	4.9
469.539	4.65
469.894	4.82
470.249	4.72
470.603	4.88
470.958	4.84
471.313	4.72
471.668	4.97
472.023	4.93
472.377	4.69
472.732	4.77
473.086	4.82
473.441	4.91
473.795	5.13
474.15	4.7
474.504	4.87
474.859	4.94
475.213	4.98
475.567	4.86
475.921	4.91
476.275	4.8
476.63	4.81
476.984	4.84
477.338	5.15
477.692	4.9
478.045	4.82
478.399	4.89
478.753	4.8
479.107	4.86
479.461	4.9
479.814	4.94
480.168	4.98
480.521	4.89
480.875	5.06
481.228	5.02
481.582	4.93
481.935	4.89
482.289	4.93
482.642	5.05
482.995	4.91
483.348	4.93
483.701	4.86
484.055	4.93
484.408	4.91
484.761	4.81
485.114	4.78
485.466	4.75
485.819	4.74
486.172	4.71
486.525	4.75
486.878	4.81
487.23	4.85
487.583	4.88
487.936	4.94
488.288	5
488.641	4.89
488.993	4.8
489.345	4.83
489.698	4.87
490.05	4.88
490.402	4.91
490.754	5.02
491.107	4.89
491.459	4.99
491.811	5.06
492.163	5.05
492.515	5.05
492.866	4.86
493.218	4.94
493.57	4.96
493.922	4.89
494.274	4.96
494.625	4.97
494.977	5.03
495.328	5.1
495.68	5.07
496.031	5.05
496.383	5.06
496.734	5.19
497.086	5.06
497.437	5.32
497.788	5.09
498.139	5.29
498.49	5.21
498.842	5.26
499.193	5.13
499.544	5.17
499.894	5.1
500.245	5.21
500.596	5.15
500.947	5.27
501.298	5.21
501.648	5.16
501.999	5.39
502.35	5.38
502.7	5.38
503.051	5.27
503.401	5.22
503.752	5.23
504.102	5.23
504.452	5.32
504.803	5.08
505.153	5.39
505.503	5.39
505.853	5.21
506.203	5.33
506.553	5.43
506.903	5.31
507.253	5.41
507.603	5.37
507.953	5.51
508.303	5.43
508.652	5.41
509.002	5.32
509.352	5.4
509.701	5.34
510.051	5.43
510.4	5.29
510.75	5.42
511.099	5.4
511.449	5.4
511.798	5.57
512.147	5.46
512.496	5.51
512.846	5.48
513.195	5.52
513.544	5.45
513.893	5.37
514.242	5.53
514.591	5.66
514.939	5.52
515.288	5.5
515.637	5.63
515.986	5.51
516.334	5.69
516.683	5.56
517.032	5.53
517.38	5.44
517.729	5.6
518.077	5.72
518.426	5.51
518.774	5.58
519.122	5.6
519.47	5.6
519.819	5.63
520.167	5.66
520.515	5.55
520.863	5.59
521.211	5.57
521.559	5.6
521.907	5.55
522.255	5.68
522.602	5.68
522.95	5.75
523.298	5.64
523.645	5.69
523.993	5.84
524.341	5.65
524.688	5.75
525.036	5.83
525.383	5.84
525.73	5.91
526.078	5.78
526.425	5.88
526.772	5.65
527.119	5.72
527.466	5.79
527.814	5.76
528.161	5.83
528.508	5.76
528.854	5.69
529.201	5.77
529.548	5.85
529.895	5.78
530.242	5.72
530.588	5.73
530.935	5.71
531.282	5.71
531.628	5.72
531.975	5.85
532.321	5.87
532.667	5.88
533.014	5.93
533.36	5.92
533.706	6.04
534.052	6.06
534.399	5.97
534.745	5.99
535.091	6
535.437	5.97
535.783	5.98
536.129	6
536.474	6.08
536.82	6.01
537.166	6.22
537.512	6.14
537.857	6.18
538.203	6.2
538.549	6.18
538.894	6.13
539.239	6.29
539.585	6.22
539.93	6.31
540.276	6.25
540.621	6.27
540.966	6.32
541.311	6.31
541.656	6.35
542.001	6.53
542.346	6.34
542.691	6.29
543.036	6.25
543.381	6.24
543.726	6.29
544.071	6.27
544.415	6.31
544.76	6.26
545.105	6.36
545.449	6.4
545.794	6.38
546.138	6.5
546.483	6.58
546.827	6.55
547.171	6.56
547.516	6.61
547.86	6.63
548.204	6.5
548.548	6.74
548.892	6.6
549.236	6.65
549.58	6.58
549.924	6.74
550.268	6.76
550.612	6.86
550.956	6.55
551.3	6.61
551.643	6.95
551.987	6.79
552.33	6.8
552.674	6.99
553.017	6.8
553.361	7
553.704	6.9
554.048	7.06
554.391	6.89
554.734	6.98
555.077	6.81
555.42	6.83
555.764	6.98
556.107	7.05
556.45	7.13
556.793	7.26
557.135	7.23
557.478	7.23
557.821	7.05
558.164	7.29
558.507	7.12
558.849	7.22
559.192	7.19
559.534	7.26
559.877	7.5
560.219	7.4
560.562	7.42
560.904	7.42
561.246	7.49
561.589	7.46
561.931	7.52
562.273	7.43
562.615	7.41
562.957	7.57
563.299	7.53
563.641	7.46
563.983	7.42
564.325	7.55
564.667	7.57
565.008	7.43
565.35	7.65
565.692	7.81
566.033	7.6
566.375	7.62
566.716	7.68
567.058	7.78
567.399	7.78
567.741	7.84
568.082	7.78
568.423	7.72
568.764	8
569.105	7.88
569.447	7.85
569.788	7.98
570.129	7.99
570.47	8.15
570.811	8.09
571.151	8.02
571.492	8.23
571.833	8.04
572.174	7.95
572.514	8.03
572.855	8.24
573.195	8.14
573.536	8.19
573.876	8.21
574.217	8.2
574.557	8.24
574.898	8.17
575.238	8.24
575.578	8.53
575.918	8.29
576.258	8.42
576.598	8.44
576.938	8.55
577.278	8.49
577.618	8.4
577.958	8.36
578.298	8.71
578.638	8.52
578.977	8.7
579.317	8.66
579.657	8.68
579.996	8.78
580.336	8.79
580.675	8.77
581.014	8.77
581.354	8.83
581.693	8.96
582.032	8.73
582.372	8.92
582.711	8.97
583.05	8.94
583.389	9.15
583.728	9.09
584.067	8.96
584.406	9.08
584.745	9.11
585.083	9.42
585.422	8.92
585.761	9.23
586.1	9.37
586.438	9.18
586.777	9.29
587.115	9.37
587.454	9.38
587.792	9.23
588.13	9.83
588.469	9.54
588.807	9.68
589.145	9.39
589.483	9.39
589.821	9.57
590.159	9.35
590.497	9.44
590.835	9.57
591.173	9.82
591.511	9.54
591.849	9.93
592.187	9.59
592.524	9.56
592.862	9.78
593.2	9.86
593.537	9.72
593.875	9.68
594.212	9.86
594.55	9.86
594.887	10.22
595.224	9.78
595.561	9.88
595.899	9.96
596.236	10.31
596.573	10.02
596.91	10.12
597.247	10.07
597.584	10.26
597.921	10.22
598.258	10.28
598.594	10.23
598.931	10.29
599.268	10.19
599.604	10.31
599.941	10.27
600.277	10.35
600.614	10.42
600.95	10.65
601.287	10.31
601.623	10.79
601.959	10.41
602.296	10.3
602.632	10.93
602.968	10.73
603.304	10.54
603.64	10.87
603.976	10.81
604.312	11.02
604.648	11.06
604.984	10.88
605.319	10.97
605.655	10.77
605.991	10.99
606.326	10.93
606.662	10.83
606.998	10.93
607.333	10.93
607.668	11.01
608.004	10.94
608.339	10.96
608.674	11.13
609.01	11.42
609.345	11.14
609.68	11.02
610.015	11.49
610.35	11.48
610.685	11.53
611.02	11.35
611.355	11.66
611.689	11.48
612.024	11.8
612.359	11.59
612.694	11.74
613.028	11.55
613.363	11.59
613.697	11.74
614.032	11.6
614.366	11.71
614.7	11.68
615.035	11.55
615.369	11.7
615.703	12.13
616.037	12.14
616.371	12.14
616.705	12.05
617.039	12.46
617.373	12.1
617.707	12.26
618.041	12.17
618.375	11.99
618.709	12.47
619.042	12.21
619.376	12.1
619.71	12.2
620.043	12.12
620.377	12.06
620.71	12.16
621.043	11.99
621.377	12.58
621.71	12.63
622.043	12.57
622.376	12.33
622.709	12.71
623.043	12.45
623.376	12.63
623.709	12.64
624.041	12.65
624.374	12.43
624.707	12.52
625.04	12.97
625.373	12.96
625.705	12.98
626.038	12.77
626.37	12.77
626.703	12.7
627.035	13.18
627.368	13.23
627.7	13.3
628.032	13.38
628.365	12.98
628.697	13.03
629.029	13.41
629.361	12.94
629.693	13.34
630.025	13.34
630.357	12.89
630.689	13.34
631.021	13.43
631.353	13.65
631.684	13.5
632.016	13.24
632.348	13.48
632.679	13.31
633.011	13.4
633.342	13.62
633.674	13.67
634.005	13.41
634.336	13.63
634.668	13.51
634.999	13.58
635.33	13.78
635.661	13.94
635.992	13.77
636.323	13.95
636.654	13.94
636.985	13.82
637.316	13.81
637.647	14.41
637.977	13.85
638.308	13.79
638.639	14.06
638.969	14.17
639.3	14
639.63	14.01
639.961	14.33
640.291	14.43
640.622	14.34
640.952	14.61
641.282	14.02
641.612	14.35
641.943	14.7
642.273	14.11
642.603	14.44
642.933	14.6
643.263	14.52
643.592	14.52
643.922	14.92
644.252	14.56
644.582	14.27
644.911	14.65
645.241	14.7
645.571	14.66
645.9	15.15
646.23	15.06
646.559	14.72
646.888	14.46
647.218	15.17
647.547	14.99
647.876	15.27
648.205	15.1
648.534	15.32
648.863	15.57
649.192	15.14
649.521	15.12
649.85	15.59
650.179	14.92
650.508	15.56
650.837	15.47
651.165	15.3
651.494	15.4
651.822	15.89
652.151	15.86
652.479	15.83
652.808	15.15
653.136	15.51
653.465	15.84
653.793	15.87
654.121	15.63
654.449	15.67
654.777	15.79
655.105	15.84
655.433	15.8
655.761	15.5
656.089	16.33
656.417	15.38
656.745	16.52
657.073	16.36
657.4	16.18
657.728	15.96
658.056	16.04
658.383	16.63
658.711	16.04
659.038	16.46
659.365	16.19
659.693	16.4
660.02	16.29
660.347	16.31
660.674	16.43
661.001	16.19
661.329	16.53
661.656	16.23
661.982	16.55
662.309	16.84
662.636	16.72
662.963	16.87
663.29	16.51
663.616	16.68
663.943	16.78
664.27	16.38
664.596	16.96
664.923	16.55
665.249	17.12
665.576	16.51
665.902	16.54
666.228	16.71
666.554	16.75
666.881	17.25
667.207	16.58
667.533	17.63
667.859	16.59
668.185	17.19
668.511	16.8
668.837	16.6
669.162	17.5
669.488	17.27
669.814	17.21
670.139	17.82
670.465	17.43
670.791	17.52
671.116	17.62
671.442	18.06
671.767	16.87
672.092	17.36
672.418	17.43
672.743	17.22
673.068	17.13
673.393	17.77
673.718	17.48
674.043	17.5
674.368	17.85
674.693	17.85
675.018	17.55
675.343	17.23
675.667	17.7
675.992	17.26
676.317	17.33
676.641	17.86
676.966	18.08
677.29	18.51
677.615	17.62
677.939	17.65
678.264	17.71
678.588	18.86
678.912	18.07
679.236	18.16
679.56	17.89
679.885	18.78
680.209	17.59
680.532	18.25
680.856	18.89
681.18	18.55
681.504	18.09
681.828	18.02
682.152	18.49
682.475	18.56
682.799	18.65
683.122	18.7
683.446	17.91
683.769	19.02
684.093	18.85
684.416	18.83
684.739	19
685.062	19.14
685.386	18.62
685.709	18.33
