Data from 0059_forehead_Reflection__4__177.txt Node

Date: Fri Dec 16 15:23:43 CST 2022
User: ToomeyLab
Spectrometer: FLMS14357
Trigger mode: 0
Integration Time (sec): 1.000000E-2
Scans to average: 100
Electric dark correction enabled: true
Nonlinearity correction enabled: false
Boxcar width: 0
XAxis mode: Wavelengths
Number of Pixels in Spectrum: 2048
>>>>>Begin Spectral Data<<<<<
189.047	84.12
189.435	84.12
189.823	84.12
190.211	-260.06
190.599	213.09
190.987	-1206.03
191.375	99.59
191.763	146.37
192.151	286.85
192.538	285.57
192.926	-6.75
193.314	-21689.29
193.702	153.89
194.089	34.41
194.477	-127.91
194.864	-275
195.252	3.58
195.639	175.34
196.027	-574.2
196.414	-35.3
196.801	-1717.86
197.189	82.89
197.576	159.31
197.963	-55.46
198.351	61.24
198.738	-55.2
199.125	45.32
199.512	5.52
199.899	-42.01
200.286	-29.63
200.673	33.89
201.06	31.15
201.447	46.94
201.833	75.96
202.22	37.09
202.607	-27.43
202.994	35.1
203.38	-17.41
203.767	14.58
204.154	-40.85
204.54	14.93
204.927	22.33
205.313	22.29
205.699	-28.39
206.086	-17.4
206.472	-24.09
206.858	25.32
207.245	3.38
207.631	-19.65
208.017	-7.08
208.403	31.51
208.789	18.82
209.175	30.18
209.561	39.63
209.947	6.6
210.333	-19.5
210.719	20.81
211.105	-26.75
211.491	-10.43
211.876	-11.7
212.262	-17.61
212.648	-22.28
213.034	22.45
213.419	8.65
213.805	14.08
214.19	1.93
214.576	3.06
214.961	2.33
215.346	13.32
215.732	-15.21
216.117	1.92
216.502	-2.41
216.888	-2.86
217.273	35.18
217.658	5.07
218.043	4.88
218.428	5.07
218.813	2.74
219.198	-50.27
219.583	-11.81
219.968	7.86
220.353	-19.07
220.738	-19.35
221.122	-17.34
221.507	-6.89
221.892	0.61
222.276	13.62
222.661	-9.4
223.046	-0.41
223.43	-16.95
223.815	5.49
224.199	-2.87
224.583	3.61
224.968	4.08
225.352	2.89
225.736	3.57
226.121	2.01
226.505	-2.71
226.889	15.88
227.273	6.67
227.657	1.3
228.041	4.64
228.425	6.92
228.809	3.3
229.193	4.88
229.577	4.08
229.961	3.63
230.344	4.25
230.728	4.07
231.112	4.32
231.495	5.14
231.879	4.92
232.263	3.71
232.646	2.87
233.03	3.13
233.413	3.74
233.797	6.89
234.18	1.72
234.563	2.72
234.946	2.77
235.33	2.78
235.713	4.26
236.096	4.14
236.479	3.31
236.862	5.18
237.245	6.02
237.628	3.63
238.011	5.27
238.394	7.31
238.777	3.95
239.16	2.18
239.543	1.15
239.925	4.33
240.308	3.17
240.691	3.68
241.073	3.82
241.456	3.98
241.838	4.08
242.221	4.31
242.603	4.38
242.986	5.55
243.368	4.57
243.75	3.74
244.133	4.58
244.515	4.03
244.897	4.28
245.279	4.1
245.661	4.75
246.043	4.12
246.425	4.19
246.807	4.47
247.189	3.62
247.571	4.28
247.953	4.17
248.335	4.48
248.717	4.29
249.098	4.39
249.48	4.05
249.862	4.23
250.243	4.13
250.625	4.32
251.006	4.71
251.388	4.93
251.769	3.75
252.151	4.86
252.532	4.3
252.913	4.47
253.295	3.96
253.676	4.35
254.057	4.06
254.438	3.77
254.819	5.01
255.2	4.66
255.581	3.42
255.962	4.06
256.343	5.52
256.724	4.39
257.105	4.31
257.486	3.95
257.867	2.96
258.247	4.34
258.628	4.29
259.009	3.05
259.389	4.46
259.77	4.17
260.15	4.76
260.531	4.06
260.911	4.1
261.292	3.88
261.672	4.05
262.052	4.14
262.432	4.61
262.813	3.96
263.193	3
263.573	4.3
263.953	4.24
264.333	4.36
264.713	4.26
265.093	3.42
265.473	5
265.853	3.94
266.233	4.01
266.612	4.68
266.992	3.92
267.372	4
267.752	4.28
268.131	3.63
268.511	4.51
268.89	4.38
269.27	4.43
269.649	4.37
270.029	4.11
270.408	4.09
270.787	3.54
271.167	4.64
271.546	3.3
271.925	4.04
272.304	4.03
272.683	4
273.062	3.88
273.441	3.94
273.82	4.43
274.199	4.35
274.578	3.99
274.957	4.27
275.336	3.93
275.715	5.2
276.093	4.42
276.472	4.09
276.851	4.78
277.229	4.68
277.608	4.11
277.986	4.03
278.365	4.33
278.743	4.21
279.122	3.66
279.5	3.76
279.878	2.39
280.257	4.29
280.635	3.7
281.013	4.48
281.391	4.18
281.769	3.92
282.147	3.73
282.525	4.34
282.903	3.72
283.281	4.21
283.659	4.37
284.037	3.75
284.415	4.32
284.792	3.85
285.17	4.04
285.548	4.07
285.925	4.02
286.303	3.73
286.68	4.04
287.058	4.04
287.435	3.86
287.813	4.05
288.19	4.36
288.567	3.78
288.945	3.92
289.322	4.11
289.699	3.91
290.076	4.45
290.453	4.07
290.83	4.1
291.207	3.86
291.584	4.13
291.961	4.36
292.338	4.35
292.715	4.05
293.092	4.17
293.469	4.67
293.845	4.4
294.222	4.76
294.599	4.9
294.975	4.79
295.352	4.14
295.728	4.51
296.105	4.68
296.481	4.69
296.858	4.64
297.234	4.26
297.61	4.8
297.986	4.6
298.363	4.38
298.739	4.8
299.115	4.39
299.491	4.68
299.867	5.04
300.243	4.7
300.619	4.3
300.995	4.72
301.371	4.84
301.746	4.78
302.122	4.84
302.498	5
302.874	4.96
303.249	5.28
303.625	5.22
304	4.62
304.376	5
304.751	5.4
305.127	5.15
305.502	5.15
305.878	4.99
306.253	4.82
306.628	5.61
307.003	5.51
307.378	4.93
307.754	4.98
308.129	4.54
308.504	5.17
308.879	5.5
309.254	5.65
309.629	5.19
310.003	5.72
310.378	5.72
310.753	5.71
311.128	5.09
311.502	5.31
311.877	5.55
312.252	5.58
312.626	5.75
313.001	5.52
313.375	5.41
313.75	5.7
314.124	5.82
314.498	5.74
314.873	5.41
315.247	5.3
315.621	6.5
315.995	5.61
316.369	5.94
316.743	6.14
317.117	6.1
317.491	6.21
317.865	5.65
318.239	6.48
318.613	6.46
318.987	6.3
319.361	5.9
319.734	5.86
320.108	6.32
320.482	6.25
320.855	6.35
321.229	6.63
321.602	6.44
321.976	6.55
322.349	5.96
322.723	6.05
323.096	6.35
323.469	6.11
323.843	6.9
324.216	6.15
324.589	6.83
324.962	6.88
325.335	6.37
325.708	6.97
326.081	6.83
326.454	6.85
326.827	6.71
327.2	6.53
327.573	6.9
327.945	6.73
328.318	7.02
328.691	6.92
329.063	6.56
329.436	6.98
329.809	6.6
330.181	6.88
330.553	7.29
330.926	7.49
331.298	7.44
331.671	6.96
332.043	6.98
332.415	7.52
332.787	7.22
333.159	7.4
333.532	7.19
333.904	7.2
334.276	7.21
334.648	7.45
335.02	7.43
335.391	7.65
335.763	6.7
336.135	7.56
336.507	7.94
336.879	7.73
337.25	7.26
337.622	7.77
337.993	7.53
338.365	7.92
338.736	7.78
339.108	7.69
339.479	7.7
339.851	7.94
340.222	7.76
340.593	7.56
340.964	7.93
341.336	7.42
341.707	7.77
342.078	7.72
342.449	7.66
342.82	8.2
343.191	7.96
343.562	8.03
343.933	7.98
344.303	8.07
344.674	8.03
345.045	8.26
345.416	8.08
345.786	7.7
346.157	8.28
346.527	8.06
346.898	8.08
347.268	8.29
347.639	8.1
348.009	8.42
348.38	8.27
348.75	8.85
349.12	8.51
349.49	8.22
349.861	8.58
350.231	8.51
350.601	8.57
350.971	8.25
351.341	8.47
351.711	8.56
352.081	8.79
352.45	8.85
352.82	8.99
353.19	8.41
353.56	8.75
353.929	8.71
354.299	8.92
354.669	8.84
355.038	8.53
355.408	9.44
355.777	8.7
356.147	9.22
356.516	9.15
356.885	8.74
357.254	9.09
357.624	8.88
357.993	8.96
358.362	9.4
358.731	9.02
359.1	9.57
359.469	9.31
359.838	9.1
360.207	9.26
360.576	9.25
360.945	9.32
361.314	9.63
361.682	9.31
362.051	9.55
362.42	9.54
362.788	9.6
363.157	9.36
363.525	9.41
363.894	9.37
364.262	9.49
364.631	10.42
364.999	9.4
365.367	9.74
365.735	9.29
366.104	9.55
366.472	9.85
366.84	9.81
367.208	9.32
367.576	9.85
367.944	10.06
368.312	9.63
368.68	9.84
369.048	9.83
369.416	10
369.783	9.93
370.151	9.83
370.519	10.08
370.886	10.07
371.254	10.12
371.621	10.11
371.989	10.53
372.356	10.28
372.724	10.38
373.091	10.26
373.458	10.09
373.826	10.32
374.193	10.71
374.56	10.1
374.927	10.56
375.294	11.05
375.661	10.48
376.028	10.42
376.395	10.82
376.762	10.91
377.129	10.99
377.496	10.75
377.863	10.79
378.229	10.78
378.596	10.82
378.963	10.76
379.329	10.9
379.696	10.86
380.062	10.96
380.429	11.03
380.795	10.81
381.161	11.4
381.528	10.78
381.894	11.15
382.26	10.79
382.626	11.09
382.993	10.89
383.359	10.92
383.725	11.05
384.091	11.12
384.457	11.62
384.823	11.61
385.188	11.29
385.554	11.25
385.92	11.55
386.286	11.37
386.651	11.53
387.017	11.68
387.383	11.42
387.748	11.53
388.114	11.73
388.479	11.77
388.845	11.78
389.21	11.87
389.575	11.8
389.94	11.91
390.306	12.13
390.671	11.69
391.036	12.05
391.401	11.98
391.766	12.1
392.131	12.08
392.496	11.79
392.861	11.93
393.226	11.9
393.591	12.08
393.956	12.11
394.32	12.04
394.685	12.25
395.05	12.06
395.414	12.15
395.779	12.34
396.143	12.42
396.508	12.37
396.872	12.38
397.236	12.19
397.601	12.47
397.965	12.39
398.329	12.57
398.694	12.55
399.058	12.54
399.422	12.8
399.786	12.62
400.15	12.73
400.514	12.66
400.878	12.66
401.242	12.93
401.605	12.8
401.969	12.85
402.333	12.85
402.697	13.08
403.06	13.1
403.424	12.91
403.787	13.15
404.151	13.02
404.514	13.12
404.878	12.74
405.241	13
405.604	13.06
405.968	13.17
406.331	13.03
406.694	12.95
407.057	13.38
407.42	13.23
407.783	13.26
408.146	13.12
408.509	13.16
408.872	13.14
409.235	13.58
409.598	13.63
409.961	13.6
410.323	13.44
410.686	13.66
411.049	13.27
411.411	13.22
411.774	13.5
412.136	13.58
412.499	13.55
412.861	13.52
413.223	13.76
413.586	13.73
413.948	13.76
414.31	13.79
414.672	13.66
415.035	14.1
415.397	14.36
415.759	13.75
416.121	14.2
416.483	14.06
416.845	14.01
417.206	14.13
417.568	14.06
417.93	13.87
418.292	13.81
418.653	14.13
419.015	14.08
419.377	14.17
419.738	13.92
420.1	14.06
420.461	14.01
420.822	14.11
421.184	14.21
421.545	14.25
421.906	14.4
422.267	14.01
422.629	14.17
422.99	14.19
423.351	14.36
423.712	14.31
424.073	14.58
424.434	14.55
424.795	14.6
425.155	14.54
425.516	14.36
425.877	14.5
426.238	14.54
426.598	14.74
426.959	14.81
427.32	14.86
427.68	14.87
428.041	15.13
428.401	15.06
428.761	15.17
429.122	15.15
429.482	15.32
429.842	15.27
430.202	15.18
430.563	15.31
430.923	15.36
431.283	15.53
431.643	15.58
432.003	15.68
432.363	15.52
432.722	15.4
433.082	15.43
433.442	15.79
433.802	15.67
434.161	15.63
434.521	15.74
434.881	15.73
435.24	15.7
435.6	15.67
435.959	15.85
436.319	15.92
436.678	16.06
437.037	16.03
437.396	16.1
437.756	16.07
438.115	16.22
438.474	16.09
438.833	16.35
439.192	16.24
439.551	16.08
439.91	16.25
440.269	16.28
440.628	16.1
440.987	16.24
441.345	16.28
441.704	16.51
442.063	16.37
442.421	16.42
442.78	16.41
443.138	16.46
443.497	16.66
443.855	16.64
444.214	16.65
444.572	16.72
444.93	16.8
445.288	16.94
445.647	16.98
446.005	16.92
446.363	16.95
446.721	16.73
447.079	16.88
447.437	16.71
447.795	16.83
448.153	16.82
448.51	16.89
448.868	17.08
449.226	17.11
449.584	17.09
449.941	17.43
450.299	17.1
450.656	17.43
451.014	17.39
451.371	17.7
451.729	17.52
452.086	17.72
452.443	17.7
452.801	17.79
453.158	17.57
453.515	17.56
453.872	17.96
454.229	17.91
454.586	17.89
454.943	17.81
455.3	18.01
455.657	18.08
456.014	17.97
456.371	18.2
456.727	18.15
457.084	18.18
457.441	18.24
457.797	18.48
458.154	18.33
458.51	18.39
458.867	18.36
459.223	18.67
459.58	18.34
459.936	18.39
460.292	18.45
460.648	18.26
461.005	18.17
461.361	18.25
461.717	18.24
462.073	18.55
462.429	18.55
462.785	18.87
463.141	18.87
463.496	18.88
463.852	19.06
464.208	19.23
464.564	18.91
464.919	19.04
465.275	19.26
465.631	19.13
465.986	19.25
466.342	19.37
466.697	19.21
467.052	19.47
467.408	19.22
467.763	19.26
468.118	19.42
468.473	19.57
468.829	19.63
469.184	19.68
469.539	19.63
469.894	19.78
470.249	19.67
470.603	19.8
470.958	19.94
471.313	19.87
471.668	19.88
472.023	20.02
472.377	19.85
472.732	20.04
473.086	20.07
473.441	20.42
473.795	20.29
474.15	20.17
474.504	20.34
474.859	20.29
475.213	20.49
475.567	20.42
475.921	20.64
476.275	20.52
476.63	20.62
476.984	20.59
477.338	20.68
477.692	20.73
478.045	20.69
478.399	20.76
478.753	20.57
479.107	20.65
479.461	20.76
479.814	20.69
480.168	20.97
480.521	20.86
480.875	21.04
481.228	21.15
481.582	20.88
481.935	20.89
482.289	20.87
482.642	21.13
482.995	21.14
483.348	20.9
483.701	20.88
484.055	20.68
484.408	20.59
484.761	20.23
485.114	20.15
485.466	20.26
485.819	20.43
486.172	20.58
486.525	20.8
486.878	20.99
487.23	21.01
487.583	21.22
487.936	21.18
488.288	20.93
488.641	20.76
488.993	20.77
489.345	20.95
489.698	21.01
490.05	21.14
490.402	21.47
490.754	21.66
491.107	21.92
491.459	22.08
491.811	21.95
492.163	21.84
492.515	21.63
492.866	21.35
493.218	21.36
493.57	21.63
493.922	21.85
494.274	21.96
494.625	22.29
494.977	22.44
495.328	22.71
495.68	22.72
496.031	22.94
496.383	22.9
496.734	22.96
497.086	22.86
497.437	22.92
497.788	22.82
498.139	22.83
498.49	22.77
498.842	22.9
499.193	22.91
499.544	23.02
499.894	23.17
500.245	23.33
500.596	23.4
500.947	23.36
501.298	23.62
501.648	23.44
501.999	23.51
502.35	23.72
502.7	23.79
503.051	23.81
503.401	23.87
503.752	23.85
504.102	23.98
504.452	24.15
504.803	23.99
505.153	24.17
505.503	23.89
505.853	23.89
506.203	24.11
506.553	24.19
506.903	24.29
507.253	24.32
507.603	24.39
507.953	24.51
508.303	24.52
508.652	24.5
509.002	24.51
509.352	24.46
509.701	24.49
510.051	24.48
510.4	24.47
510.75	24.62
511.099	24.59
511.449	24.65
511.798	24.8
512.147	24.71
512.496	24.89
512.846	24.75
513.195	24.86
513.544	24.93
513.893	24.75
514.242	25.18
514.591	25.18
514.939	25.26
515.288	25.35
515.637	25.39
515.986	25.43
516.334	25.64
516.683	25.48
517.032	25.65
517.38	25.64
517.729	25.64
518.077	25.71
518.426	25.58
518.774	25.42
519.122	25.51
519.47	25.28
519.819	25.39
520.167	25.5
520.515	25.48
520.863	25.63
521.211	25.68
521.559	25.79
521.907	26.12
522.255	26.16
522.602	26.14
522.95	26.36
523.298	26.37
523.645	26.47
523.993	26.66
524.341	26.44
524.688	26.55
525.036	26.66
525.383	26.69
525.73	26.48
526.078	26.58
526.425	26.4
526.772	26.16
527.119	26.13
527.466	26.38
527.814	26.28
528.161	26.4
528.508	26.43
528.854	26.23
529.201	26.25
529.548	25.93
529.895	25.77
530.242	25.88
530.588	26.08
530.935	26.26
531.282	26.39
531.628	26.58
531.975	26.73
532.321	26.93
532.667	27.07
533.014	27.27
533.36	27.27
533.706	27.19
534.052	27.05
534.399	26.79
534.745	26.66
535.091	26.81
535.437	27.11
535.783	27.39
536.129	27.47
536.474	27.65
536.82	27.73
537.166	27.88
537.512	27.82
537.857	27.57
538.203	27.66
538.549	27.87
538.894	28
539.239	28.2
539.585	28.38
539.93	28.32
540.276	28.47
540.621	28.75
540.966	28.53
541.311	28.6
541.656	28.45
542.001	28.36
542.346	28.05
542.691	27.75
543.036	27.76
543.381	27.98
543.726	28.16
544.071	28.35
544.415	28.42
544.76	28.44
545.105	28.7
545.449	28.77
545.794	28.98
546.138	29.06
546.483	29.3
546.827	29.21
547.171	29.26
547.516	29.42
547.86	29.39
548.204	29.27
548.548	29.41
548.892	29.51
549.236	29.73
549.58	29.79
549.924	29.9
550.268	30.17
550.612	30.18
550.956	30.25
551.3	30.37
551.643	30.51
551.987	30.46
552.33	30.49
552.674	30.52
553.017	30.54
553.361	30.58
553.704	30.53
554.048	30.55
554.391	30.66
554.734	30.72
555.077	30.85
555.42	30.86
555.764	30.77
556.107	31.12
556.45	31.16
556.793	31.04
557.135	31.3
557.478	31.52
557.821	31.33
558.164	31.67
558.507	31.4
558.849	31.42
559.192	31.21
559.534	31.4
559.877	31.57
560.219	31.89
560.562	31.83
560.904	32.02
561.246	31.99
561.589	32.05
561.931	32.08
562.273	32
562.615	31.88
562.957	31.91
563.299	31.84
563.641	32.4
563.983	32.18
564.325	32.38
564.667	32.4
565.008	32.54
565.35	32.67
565.692	32.75
566.033	32.62
566.375	32.52
566.716	32.56
567.058	32.75
567.399	32.5
567.741	32.46
568.082	32.64
568.423	32.69
568.764	32.81
569.105	32.95
569.447	33.18
569.788	33.14
570.129	33.28
570.47	33.06
570.811	33.28
571.151	33.41
571.492	33.39
571.833	33.32
572.174	33.17
572.514	33.5
572.855	33.46
573.195	33.29
573.536	33.35
573.876	33.46
574.217	33.56
574.557	33.58
574.898	33.76
575.238	33.45
575.578	33.87
575.918	33.77
576.258	33.76
576.598	33.5
576.938	33.79
577.278	33.92
577.618	33.87
577.958	34.05
578.298	34.04
578.638	34.16
578.977	34.31
579.317	34.59
579.657	34.94
579.996	34.77
580.336	34.92
580.675	34.75
581.014	35.04
581.354	35.01
581.693	35.06
582.032	34.77
582.372	35.26
582.711	35.24
583.05	35.06
583.389	35.37
583.728	35.33
584.067	35.3
584.406	35.31
584.745	35.57
585.083	35.41
585.422	35.46
585.761	35.53
586.1	35.64
586.438	36.13
586.777	35.93
587.115	35.69
587.454	35.96
587.792	35.8
588.13	35.88
588.469	36.37
588.807	36.21
589.145	36.09
589.483	35.88
589.821	36.14
590.159	35.84
590.497	36.11
590.835	36.51
591.173	36.51
591.511	36.53
591.849	36.48
592.187	36.25
592.524	36.45
592.862	36.55
593.2	36.89
593.537	36.4
593.875	37.04
594.212	36.99
594.55	36.67
594.887	37.26
595.224	36.98
595.561	36.82
595.899	36.78
596.236	37.18
596.573	36.74
596.91	37.26
597.247	36.89
597.584	36.9
597.921	36.84
598.258	37.1
598.594	36.89
598.931	36.92
599.268	37.06
599.604	37.51
599.941	37.36
600.277	37.62
600.614	37.65
600.95	37.63
601.287	37.94
601.623	38.29
601.959	37.95
602.296	37.7
602.632	38.18
602.968	38.07
603.304	37.91
603.64	38.09
603.976	37.89
604.312	38.48
604.648	38.15
604.984	38.25
605.319	38.02
605.655	38.46
605.991	38.08
606.326	37.91
606.662	37.91
606.998	38.16
607.333	38.29
607.668	38.49
608.004	38.46
608.339	38.61
608.674	38.79
609.01	38.9
609.345	39.09
609.68	38.83
610.015	38.99
610.35	39.26
610.685	38.97
611.02	39.14
611.355	39.14
611.689	39.06
612.024	39.23
612.359	39.45
612.694	39.33
613.028	39.79
613.363	39.78
613.697	39.42
614.032	39.83
614.366	39.65
614.7	39.66
615.035	39.9
615.369	39.64
615.703	40.39
616.037	40.06
616.371	40.29
616.705	40.25
617.039	40.26
617.373	40.38
617.707	40.69
618.041	40.78
618.375	40.68
618.709	40.67
619.042	40.42
619.376	40.57
619.71	40.27
620.043	40.76
620.377	40.87
620.71	40.62
621.043	40.61
621.377	40.54
621.71	40.82
622.043	41.33
622.376	40.94
622.709	41.02
623.043	40.76
623.376	41.36
623.709	41.46
624.041	40.94
624.374	41.34
624.707	41.45
625.04	41.62
625.373	40.92
625.705	41.13
626.038	41.1
626.37	41.6
626.703	41.7
627.035	41.88
627.368	41.63
627.7	41.73
628.032	41.78
628.365	41.51
628.697	41.38
629.029	42.32
629.361	41.91
629.693	42.08
630.025	42.26
630.357	42.11
630.689	42.44
631.021	42.04
631.353	42.52
631.684	42.25
632.016	42.4
632.348	42.49
632.679	42.27
633.011	42.48
633.342	42.59
633.674	42.7
634.005	42.29
634.336	42.85
634.668	43
634.999	42.59
635.33	42.86
635.661	42.99
635.992	42.77
636.323	42.97
636.654	43.61
636.985	43.01
637.316	43.16
637.647	43.53
637.977	43.33
638.308	43.05
638.639	43.15
638.969	43.56
639.3	43.61
639.63	43.62
639.961	43.28
640.291	43.89
640.622	43.72
640.952	43.74
641.282	43.79
641.612	44.13
641.943	44.07
642.273	43.64
642.603	44.14
642.933	44.25
643.263	44.57
643.592	44.06
643.922	44.32
644.252	44.9
644.582	44.24
644.911	44.7
645.241	44.1
645.571	44.31
645.9	44.45
646.23	44.1
646.559	45.05
646.888	44.5
647.218	44.57
647.547	44.78
647.876	44.72
648.205	44.73
648.534	44.91
648.863	45.08
649.192	44.61
649.521	45.04
649.85	45.2
650.179	44.96
650.508	45.19
650.837	45.26
651.165	45.37
651.494	45.47
651.822	45.16
652.151	45.74
652.479	45.43
652.808	44.97
653.136	45.45
653.465	45.67
653.793	45.1
654.121	45.79
654.449	45.58
654.777	45.63
655.105	46.31
655.433	45.89
655.761	45.9
656.089	46.03
656.417	46
656.745	46.2
657.073	46.19
657.4	46.59
657.728	46.06
658.056	46.23
658.383	46.4
658.711	46.14
659.038	46.4
659.365	45.81
659.693	46.28
660.02	46.35
660.347	46.46
660.674	46.61
661.001	46.25
661.329	46.86
661.656	46.12
661.982	46.91
662.309	46.91
662.636	47.17
662.963	46.38
663.29	46.83
663.616	46.47
663.943	47.31
664.27	47.4
664.596	47.31
664.923	47.25
665.249	47.68
665.576	46.83
665.902	47.49
666.228	47.07
666.554	47.68
666.881	47.69
667.207	47.3
667.533	47.94
667.859	47.47
668.185	47.67
668.511	47.06
668.837	47.54
669.162	47.91
669.488	47.3
669.814	47.8
670.139	47.12
670.465	48.24
670.791	47.89
671.116	47.76
671.442	47.81
671.767	48.39
672.092	48.33
