Data from 0059_forehead_Reflection__0__173.txt Node

Date: Fri Dec 16 15:22:59 CST 2022
User: ToomeyLab
Spectrometer: FLMS14357
Trigger mode: 0
Integration Time (sec): 1.000000E-2
Scans to average: 100
Electric dark correction enabled: true
Nonlinearity correction enabled: false
Boxcar width: 0
XAxis mode: Wavelengths
Number of Pixels in Spectrum: 2048
>>>>>Begin Spectral Data<<<<<
189.047	47.64
189.435	47.64
189.823	47.64
190.211	-1039.37
190.599	321.1
190.987	-2399.14
191.375	83.35
191.763	41.22
192.151	504.52
192.538	157.64
192.926	38.75
193.314	-23660.71
193.702	87.22
194.089	105.82
194.477	-134
194.864	1571.51
195.252	-37.72
195.639	100.07
196.027	-247.29
196.414	136.56
196.801	-324.21
197.189	94.19
197.576	51.41
197.963	17.51
198.351	31.67
198.738	4.21
199.125	47.61
199.512	-5.42
199.899	-25.41
200.286	-8.68
200.673	12.98
201.06	47.72
201.447	40.51
201.833	75.13
202.22	38.64
202.607	-30.24
202.994	25.56
203.38	-33.04
203.767	-17.04
204.154	-13.21
204.54	57.75
204.927	21.64
205.313	32.46
205.699	4.55
206.086	-18.12
206.472	-15.14
206.858	5.4
207.245	-11.05
207.631	-28.82
208.017	16.58
208.403	5.86
208.789	28.88
209.175	38.25
209.561	4.97
209.947	6.26
210.333	0.72
210.719	0.29
211.105	-4.96
211.491	24.88
211.876	12.58
212.262	-41.94
212.648	-78.37
213.034	10.01
213.419	12.72
213.805	29.05
214.19	-14.78
214.576	-18.31
214.961	2.51
215.346	-0.42
215.732	-11.81
216.117	-12.33
216.502	-3.21
216.888	-24.58
217.273	33.78
217.658	-8.64
218.043	10.93
218.428	15.78
218.813	-4.98
219.198	-41.28
219.583	18.06
219.968	-15.27
220.353	12.3
220.738	-14.08
221.122	-14.38
221.507	-1.01
221.892	18.11
222.276	0.84
222.661	3.37
223.046	9.08
223.43	-1.75
223.815	8.37
224.199	-3.05
224.583	9.02
224.968	9.49
225.352	2.07
225.736	15.72
226.121	1.7
226.505	7.8
226.889	4.86
227.273	7.37
227.657	2.06
228.041	6.82
228.425	2.73
228.809	5.1
229.193	2.12
229.577	3.78
229.961	2.87
230.344	3.52
230.728	3.26
231.112	2.35
231.495	2.93
231.879	0.46
232.263	1.92
232.646	3.35
233.03	2.35
233.413	2.44
233.797	6.02
234.18	-1.7
234.563	1.67
234.946	2.88
235.33	4.9
235.713	2.43
236.096	2.9
236.479	4.01
236.862	2.63
237.245	4.11
237.628	1.87
238.011	3.22
238.394	4.42
238.777	1.49
239.16	2.42
239.543	2.08
239.925	3.79
240.308	5.33
240.691	4.27
241.073	3.84
241.456	2.14
241.838	2.67
242.221	3.41
242.603	2.8
242.986	3.6
243.368	3.29
243.75	2.94
244.133	3.18
244.515	3.15
244.897	3.49
245.279	3.02
245.661	3.03
246.043	3.48
246.425	2.93
246.807	2.92
247.189	3.02
247.571	3.28
247.953	2.9
248.335	3.17
248.717	3.23
249.098	3.43
249.48	2.97
249.862	3.64
250.243	3.53
250.625	3.5
251.006	3.45
251.388	3.69
251.769	2.55
252.151	3.37
252.532	2.93
252.913	4
253.295	3.21
253.676	3.24
254.057	3.14
254.438	3.39
254.819	3.27
255.2	2.6
255.581	2.64
255.962	3.89
256.343	3.77
256.724	3.07
257.105	3.09
257.486	3.08
257.867	1.92
258.247	4.28
258.628	3.97
259.009	3.46
259.389	3.65
259.77	3.17
260.15	3.68
260.531	3.39
260.911	3.2
261.292	3.02
261.672	2.99
262.052	3.15
262.432	3.36
262.813	3.49
263.193	3.03
263.573	3.64
263.953	3
264.333	3.54
264.713	3.75
265.093	3.85
265.473	3.78
265.853	3.52
266.233	3.67
266.612	4.42
266.992	3.44
267.372	3.16
267.752	2.94
268.131	3.61
268.511	3.58
268.89	3.67
269.27	3.35
269.649	3.23
270.029	3.37
270.408	3.11
270.787	2.89
271.167	3.48
271.546	2.49
271.925	3.32
272.304	3.78
272.683	3.16
273.062	3.35
273.441	3.52
273.82	3.34
274.199	3.49
274.578	3.07
274.957	3.43
275.336	3.83
275.715	4
276.093	3.94
276.472	3.47
276.851	3.04
277.229	3.51
277.608	3.14
277.986	3.22
278.365	2.87
278.743	3.26
279.122	2.77
279.5	2.47
279.878	2.74
280.257	3.62
280.635	3.2
281.013	2.82
281.391	3.13
281.769	2.75
282.147	3.34
282.525	3.04
282.903	3.31
283.281	3.25
283.659	3.3
284.037	3.17
284.415	3.53
284.792	3.11
285.17	3.06
285.548	2.81
285.925	2.94
286.303	2.9
286.68	3.21
287.058	3.17
287.435	3.03
287.813	3.14
288.19	3.88
288.567	3.14
288.945	3.31
289.322	3.21
289.699	3.12
290.076	3.52
290.453	3.19
290.83	3.47
291.207	2.97
291.584	2.78
291.961	3.42
292.338	3.18
292.715	2.9
293.092	3.33
293.469	3.21
293.845	3.49
294.222	3.41
294.599	3.74
294.975	3.39
295.352	3.32
295.728	3.67
296.105	3.79
296.481	3.83
296.858	3.81
297.234	3.7
297.61	3.84
297.986	3.38
298.363	3.27
298.739	3.71
299.115	3.53
299.491	3.37
299.867	3.78
300.243	3.66
300.619	3.31
300.995	3.8
301.371	3.45
301.746	3.52
302.122	4.21
302.498	3.5
302.874	4
303.249	4.37
303.625	4.2
304	3.53
304.376	4.03
304.751	4.28
305.127	3.76
305.502	4.34
305.878	3.98
306.253	3.66
306.628	4
307.003	4.26
307.378	4.55
307.754	4.27
308.129	3.76
308.504	3.93
308.879	4.43
309.254	4.55
309.629	4.05
310.003	4.27
310.378	4.44
310.753	4.08
311.128	4.06
311.502	4.24
311.877	4.28
312.252	4.19
312.626	4.4
313.001	4.77
313.375	4.62
313.75	4.48
314.124	4.82
314.498	4.31
314.873	4.69
315.247	4.85
315.621	4.98
315.995	4.8
316.369	4.86
316.743	4.91
317.117	4.98
317.491	5.3
317.865	5.13
318.239	5.19
318.613	5.06
318.987	5.07
319.361	4.97
319.734	5.05
320.108	4.85
320.482	5.29
320.855	5.41
321.229	5.36
321.602	4.9
321.976	5.18
322.349	4.92
322.723	4.65
323.096	4.85
323.469	4.89
323.843	4.95
324.216	5.16
324.589	5.37
324.962	5.34
325.335	5.27
325.708	5.23
326.081	5.98
326.454	5.71
326.827	5.52
327.2	5.98
327.573	5.83
327.945	5.3
328.318	5.74
328.691	5.68
329.063	5.69
329.436	6.17
329.809	5.35
330.181	5.82
330.553	5.97
330.926	6.12
331.298	5.35
331.671	5.99
332.043	5.95
332.415	6.51
332.787	6.61
333.159	5.93
333.532	6.04
333.904	6.13
334.276	5.89
334.648	5.91
335.02	6.11
335.391	6.16
335.763	6.11
336.135	6.38
336.507	6.09
336.879	5.94
337.25	6.29
337.622	6.28
337.993	6.48
338.365	6.85
338.736	6.39
339.108	5.91
339.479	6.51
339.851	6.7
340.222	6.56
340.593	6.56
340.964	6.18
341.336	6.5
341.707	6.47
342.078	6.4
342.449	6.77
342.82	6.48
343.191	6.38
343.562	6.65
343.933	6.77
344.303	6.82
344.674	6.74
345.045	6.73
345.416	6.49
345.786	6.26
346.157	6.53
346.527	6.52
346.898	6.82
347.268	6.75
347.639	6.72
348.009	7.05
348.38	6.85
348.75	7.01
349.12	6.97
349.49	6.98
349.861	7.67
350.231	7.95
350.601	7.05
350.971	7.26
351.341	7.21
351.711	7.04
352.081	7.34
352.45	7.8
352.82	7.37
353.19	7.41
353.56	7.23
353.929	7.61
354.299	7.18
354.669	7.32
355.038	7.79
355.408	7.84
355.777	7.57
356.147	7.77
356.516	7.92
356.885	7.7
357.254	7.75
357.624	7.87
357.993	7.58
358.362	7.77
358.731	7.92
359.1	7.77
359.469	7.7
359.838	7.58
360.207	8
360.576	7.8
360.945	7.9
361.314	8.23
361.682	7.59
362.051	8.04
362.42	8.01
362.788	8.13
363.157	7.94
363.525	7.99
363.894	8.05
364.262	8.28
364.631	8.98
364.999	7.89
365.367	8.64
365.735	8.2
366.104	8.19
366.472	8.74
366.84	8.49
367.208	8.2
367.576	8.39
367.944	8.73
368.312	8.13
368.68	8.84
369.048	8.58
369.416	8.59
369.783	8.72
370.151	8.78
370.519	8.43
370.886	8.48
371.254	8.61
371.621	8.71
371.989	9.06
372.356	8.79
372.724	9.1
373.091	8.58
373.458	8.88
373.826	8.81
374.193	9.31
374.56	9.25
374.927	9.32
375.294	9.21
375.661	9.33
376.028	9.16
376.395	9.08
376.762	9.18
377.129	9.28
377.496	9.36
377.863	9.41
378.229	9.44
378.596	9.27
378.963	9.39
379.329	9.31
379.696	9.51
380.062	9.77
380.429	9.84
380.795	9.48
381.161	9.49
381.528	9.4
381.894	9.65
382.26	9.55
382.626	9.44
382.993	9.72
383.359	9.82
383.725	10.16
384.091	10.04
384.457	10.02
384.823	9.81
385.188	10.07
385.554	10.13
385.92	10.21
386.286	10.23
386.651	10.03
387.017	10.34
387.383	10.17
387.748	10.25
388.114	10.44
388.479	10.41
388.845	10.4
389.21	10.42
389.575	10.55
389.94	10.48
390.306	10.45
390.671	10.27
391.036	10.77
391.401	10.84
391.766	10.69
392.131	10.72
392.496	10.59
392.861	10.59
393.226	10.64
393.591	10.98
393.956	10.74
394.32	10.86
394.685	10.93
395.05	10.68
395.414	10.75
395.779	10.72
396.143	10.87
396.508	10.95
396.872	11.09
397.236	10.61
397.601	11.29
397.965	11.09
398.329	11.05
398.694	11.11
399.058	11.31
399.422	11.47
399.786	11.5
400.15	11.32
400.514	11.34
400.878	11.42
401.242	11.52
401.605	11.34
401.969	11.47
402.333	11.49
402.697	11.88
403.06	11.59
403.424	11.46
403.787	11.63
404.151	11.39
404.514	11.71
404.878	11.79
405.241	11.92
405.604	11.8
405.968	11.64
406.331	11.89
406.694	11.88
407.057	12.04
407.42	11.93
407.783	11.84
408.146	12.16
408.509	11.83
408.872	12.03
409.235	12.28
409.598	12.47
409.961	11.96
410.323	12.24
410.686	12.16
411.049	12.1
411.411	12.29
411.774	12.18
412.136	12.32
412.499	12.29
412.861	12.14
413.223	12.54
413.586	12.45
413.948	12.7
414.31	12.76
414.672	12.35
415.035	12.72
415.397	12.9
415.759	12.7
416.121	12.83
416.483	12.67
416.845	12.67
417.206	12.68
417.568	12.81
417.93	12.6
418.292	12.65
418.653	12.86
419.015	12.71
419.377	13.01
419.738	12.58
420.1	12.74
420.461	12.79
420.822	12.79
421.184	12.86
421.545	12.8
421.906	13.01
422.267	12.77
422.629	12.83
422.99	12.87
423.351	13.05
423.712	13.16
424.073	13.26
424.434	13.17
424.795	13.16
425.155	13.17
425.516	13.14
425.877	13.25
426.238	13.2
426.598	13.43
426.959	13.44
427.32	13.56
427.68	13.65
428.041	13.85
428.401	13.91
428.761	13.71
429.122	14.01
429.482	13.87
429.842	14.02
430.202	14.18
430.563	14.04
430.923	14.24
431.283	14.19
431.643	14.41
432.003	14.44
432.363	14.54
432.722	14.38
433.082	14.44
433.442	14.41
433.802	14.33
434.161	14.39
434.521	14.41
434.881	14.46
435.24	14.33
435.6	14.5
435.959	14.65
436.319	14.48
436.678	14.75
437.037	14.84
437.396	14.91
437.756	14.92
438.115	15.09
438.474	15.05
438.833	15.1
439.192	15.07
439.551	15.03
439.91	15.13
440.269	15.23
440.628	15.16
440.987	15.1
441.345	15.1
441.704	15.22
442.063	15.14
442.421	15.3
442.78	15.17
443.138	15.35
443.497	15.33
443.855	15.49
444.214	15.5
444.572	15.64
444.93	15.77
445.288	15.69
445.647	15.76
446.005	15.72
446.363	15.83
446.721	15.62
447.079	15.62
447.437	15.56
447.795	15.7
448.153	15.64
448.51	15.64
448.868	15.79
449.226	15.95
449.584	15.94
449.941	16.07
450.299	16.08
450.656	16.31
451.014	16.24
451.371	16.42
451.729	16.59
452.086	16.41
452.443	16.68
452.801	16.64
453.158	16.54
453.515	16.66
453.872	16.84
454.229	16.73
454.586	16.71
454.943	16.67
455.3	17.02
455.657	16.88
456.014	17.01
456.371	17.08
456.727	16.95
457.084	17.05
457.441	17.05
457.797	17.42
458.154	17.24
458.51	17.37
458.867	17.31
459.223	17.35
459.58	17.26
459.936	17.27
460.292	17.33
460.648	17.17
461.005	17.04
461.361	17.22
461.717	17.11
462.073	17.35
462.429	17.52
462.785	17.68
463.141	17.76
463.496	17.91
463.852	18.07
464.208	18.12
464.564	17.95
464.919	18.13
465.275	18.07
465.631	18.18
465.986	18.1
466.342	18.09
466.697	18.4
467.052	18.68
467.408	18.36
467.763	18.35
468.118	18.52
468.473	18.51
468.829	18.47
469.184	18.54
469.539	18.54
469.894	18.53
470.249	18.67
470.603	19.05
470.958	18.88
471.313	18.72
471.668	19.09
472.023	19.15
472.377	18.95
472.732	18.97
473.086	19.1
473.441	19.19
473.795	19.19
474.15	19.12
474.504	19.19
474.859	19.43
475.213	19.26
475.567	19.47
475.921	19.47
476.275	19.68
476.63	19.54
476.984	19.34
477.338	19.8
477.692	19.85
478.045	19.61
478.399	19.71
478.753	19.66
479.107	19.74
479.461	19.75
479.814	19.74
480.168	19.99
480.521	19.87
480.875	20.15
481.228	20.18
481.582	20.04
481.935	20.27
482.289	20.04
482.642	20.16
482.995	20.06
483.348	19.94
483.701	19.93
484.055	19.81
484.408	19.54
484.761	19.27
485.114	19.18
485.466	19.18
485.819	19.42
486.172	19.59
486.525	19.73
486.878	19.86
487.23	20.09
487.583	20.14
487.936	20.12
488.288	20.01
488.641	19.89
488.993	19.79
489.345	19.95
489.698	20.05
490.05	20.15
490.402	20.48
490.754	20.63
491.107	20.75
491.459	20.93
491.811	21.04
492.163	20.9
492.515	20.78
492.866	20.47
493.218	20.41
493.57	20.72
493.922	20.93
494.274	21.07
494.625	21.21
494.977	21.49
495.328	21.74
495.68	22.06
496.031	21.89
496.383	21.99
496.734	21.91
497.086	22.03
497.437	22.16
497.788	22.07
498.139	22.08
498.49	21.77
498.842	22.05
499.193	22
499.544	22.28
499.894	22.37
500.245	22.32
500.596	22.51
500.947	22.51
501.298	22.56
501.648	22.75
501.999	22.87
502.35	22.88
502.7	22.99
503.051	23.22
503.401	23.06
503.752	23.12
504.102	22.87
504.452	23.07
504.803	23.07
505.153	23.4
505.503	23.19
505.853	23.08
506.203	23.25
506.553	23.2
506.903	23.4
507.253	23.56
507.603	23.5
507.953	23.66
508.303	23.61
508.652	23.65
509.002	23.65
509.352	23.89
509.701	23.55
510.051	23.86
510.4	23.76
510.75	23.71
511.099	23.67
511.449	23.9
511.798	23.93
512.147	23.96
512.496	23.93
512.846	24.07
513.195	24.09
513.544	24.11
513.893	24.14
514.242	24.39
514.591	24.25
514.939	24.45
515.288	24.57
515.637	24.49
515.986	24.59
516.334	24.67
516.683	24.87
517.032	24.74
517.38	24.7
517.729	24.98
518.077	24.74
518.426	24.8
518.774	24.94
519.122	24.73
519.47	24.5
519.819	24.61
520.167	24.53
520.515	24.72
520.863	24.81
521.211	24.95
521.559	25.05
521.907	25.24
522.255	25.53
522.602	25.45
522.95	25.45
523.298	25.52
523.645	25.56
523.993	25.73
524.341	25.55
524.688	25.88
525.036	25.89
525.383	25.84
525.73	25.74
526.078	25.8
526.425	25.76
526.772	25.5
527.119	25.41
527.466	25.6
527.814	25.54
528.161	25.61
528.508	25.8
528.854	25.51
529.201	25.5
529.548	25.2
529.895	25.07
530.242	25.12
530.588	25.28
530.935	25.43
531.282	25.6
531.628	25.74
531.975	25.9
532.321	26.05
532.667	26.35
533.014	26.41
533.36	26.34
533.706	26.47
534.052	26.26
534.399	26.12
534.745	25.85
535.091	26.1
535.437	26.24
535.783	26.56
536.129	26.65
536.474	26.86
536.82	26.92
537.166	27.28
537.512	27.17
537.857	26.93
538.203	26.96
538.549	27.23
538.894	27.21
539.239	27.33
539.585	27.53
539.93	27.68
540.276	27.63
540.621	27.91
540.966	28.03
541.311	27.88
541.656	27.71
542.001	27.55
542.346	27.28
542.691	26.97
543.036	27.02
543.381	27.17
543.726	27.42
544.071	27.65
544.415	27.59
544.76	27.71
545.105	27.87
545.449	28
545.794	28.14
546.138	28.43
546.483	28.41
546.827	28.44
547.171	28.62
547.516	28.66
547.86	28.67
548.204	28.62
548.548	28.76
548.892	28.66
549.236	28.98
549.58	29.07
549.924	29.31
550.268	29.46
550.612	29.41
550.956	29.55
551.3	29.78
551.643	29.95
551.987	29.64
552.33	29.68
552.674	30.02
553.017	30.07
553.361	29.93
553.704	29.79
554.048	29.96
554.391	30.06
554.734	30
555.077	30.06
555.42	29.97
555.764	30.34
556.107	30.4
556.45	30.54
556.793	30.55
557.135	30.64
557.478	30.84
557.821	30.71
558.164	30.83
558.507	30.74
558.849	30.76
559.192	30.84
559.534	30.9
559.877	30.95
560.219	31.36
560.562	31.27
560.904	31.26
561.246	31.27
561.589	31.43
561.931	31.69
562.273	31.28
562.615	31.59
562.957	31.45
563.299	31.63
563.641	31.62
563.983	31.6
564.325	31.64
564.667	31.71
565.008	31.82
565.35	32.01
565.692	31.88
566.033	32.1
566.375	32.03
566.716	32.02
567.058	32.16
567.399	31.82
567.741	31.89
568.082	31.81
568.423	31.8
568.764	32.06
569.105	32.13
569.447	32.24
569.788	32.42
570.129	32.4
570.47	32.41
570.811	32.4
571.151	32.59
571.492	32.72
571.833	32.75
572.174	32.6
572.514	32.6
572.855	32.8
573.195	32.61
573.536	32.68
573.876	32.72
574.217	32.69
574.557	33.02
574.898	32.84
575.238	32.99
575.578	33.34
575.918	33.24
576.258	33.21
576.598	33.01
576.938	33.13
577.278	33.2
577.618	33.43
577.958	33.52
578.298	33.43
578.638	33.44
578.977	33.86
579.317	33.8
579.657	34
579.996	34.03
580.336	33.88
580.675	34.36
581.014	34.45
581.354	34.34
581.693	34.45
582.032	34.36
582.372	34.37
582.711	34.59
583.05	34.84
583.389	34.57
583.728	34.57
584.067	34.51
584.406	34.59
584.745	34.82
585.083	35.14
585.422	34.9
585.761	35.04
586.1	35.15
586.438	35.25
586.777	35.22
587.115	35.31
587.454	35.21
587.792	35.36
588.13	35.43
588.469	35.7
588.807	35.51
589.145	35.46
589.483	35.69
589.821	35.75
590.159	35.29
590.497	35.58
590.835	35.55
591.173	35.78
591.511	35.62
591.849	35.99
592.187	35.87
592.524	35.9
592.862	36.34
593.2	36.27
593.537	35.87
593.875	36.25
594.212	36.13
594.55	36.49
594.887	36.74
595.224	36.24
595.561	36.36
595.899	36.36
596.236	36.71
596.573	36.15
596.91	36.71
597.247	36.58
597.584	36.75
597.921	36.4
598.258	36.45
598.594	36.31
598.931	36.28
599.268	36.63
599.604	36.95
599.941	36.71
600.277	37.1
600.614	37.08
600.95	37.35
601.287	37.23
601.623	37.78
601.959	37.49
602.296	37.4
602.632	37.58
602.968	37.77
603.304	37.35
603.64	37.7
603.976	37.56
604.312	37.73
604.648	37.71
604.984	37.66
605.319	37.74
605.655	37.43
605.991	37.5
606.326	37.33
606.662	37.53
606.998	37.54
607.333	37.81
607.668	37.94
608.004	37.85
608.339	38.24
608.674	38.37
609.01	38.65
609.345	38.5
609.68	38.18
610.015	38.38
610.35	38.7
610.685	38.58
611.02	38.14
611.355	38.45
611.689	38.33
612.024	38.77
612.359	38.73
612.694	38.71
613.028	38.67
613.363	38.95
613.697	38.93
614.032	39.08
614.366	39.42
614.7	39.34
615.035	39.15
615.369	39.55
615.703	39.6
616.037	39.51
616.371	39.64
616.705	39.48
617.039	39.66
617.373	39.55
617.707	39.73
618.041	40.07
618.375	39.72
618.709	39.91
619.042	39.71
619.376	39.9
619.71	39.46
620.043	40.03
620.377	40.55
620.71	39.87
621.043	40.51
621.377	40.06
621.71	40.48
622.043	40.43
622.376	40.26
622.709	41.09
623.043	40.66
623.376	40.77
623.709	41.31
624.041	40.17
624.374	40.93
624.707	40.89
625.04	40.9
625.373	40.61
625.705	41.3
626.038	41.1
626.37	41.33
626.703	40.72
627.035	41.29
627.368	41.14
627.7	41.2
628.032	41.21
628.365	41.18
628.697	41.41
629.029	41.52
629.361	41.29
629.693	41.54
630.025	41.4
630.357	40.98
630.689	41.84
631.021	41.76
631.353	41.75
631.684	41.77
632.016	41.61
632.348	42.12
632.679	41.87
633.011	41.99
633.342	42.3
633.674	41.98
634.005	41.96
634.336	42.14
634.668	42.52
634.999	42.41
635.33	42.41
635.661	42.4
635.992	42.52
636.323	42.48
636.654	42.74
636.985	42.44
637.316	42.44
637.647	42.76
637.977	42.86
638.308	42.85
638.639	42.55
638.969	43.01
639.3	42.88
639.63	42.75
639.961	42.56
640.291	43.37
640.622	43.32
640.952	43.28
641.282	43.04
641.612	43.7
641.943	43.08
642.273	43.13
642.603	43.68
642.933	43.6
643.263	43.82
643.592	43.76
643.922	43.9
644.252	43.68
644.582	43.79
644.911	43.48
645.241	43.12
645.571	44.05
645.9	44.48
646.23	43.49
646.559	44.31
646.888	44.42
647.218	44.16
647.547	44.41
647.876	44.05
648.205	44.13
648.534	44.31
648.863	44.22
649.192	43.7
649.521	43.76
649.85	44.75
650.179	44.37
650.508	45.03
650.837	44.74
651.165	44.89
651.494	45.42
651.822	44.54
652.151	45.09
652.479	45.25
652.808	44.75
653.136	44.67
653.465	44.72
653.793	44.88
654.121	45.3
654.449	45.2
654.777	45.05
655.105	45.17
655.433	45.48
655.761	45.27
656.089	45.26
656.417	44.91
656.745	45.75
657.073	45.61
657.4	45.99
657.728	45.9
658.056	45.37
658.383	45.67
658.711	45.61
659.038	46.19
659.365	45.98
659.693	45.68
660.02	46.35
660.347	46.07
660.674	45.59
661.001	45.71
661.329	46.01
661.656	45.68
661.982	46.16
662.309	46.22
662.636	46.09
662.963	46.24
663.29	46.28
663.616	46.59
663.943	47.18
664.27	46.53
664.596	46.99
664.923	47.18
665.249	47.01
665.576	46.26
665.902	46.57
666.228	46.54
666.554	46.51
666.881	46.53
667.207	46.48
667.533	47.42
667.859	46.77
668.185	46.85
668.511	46.9
668.837	46.58
669.162	47.62
669.488	47.05
669.814	47.14
670.139	47.32
670.465	46.51
670.791	47.64
671.116	47.32
671.442	47.66
671.767	48.07
672.092	47.23
672.418	47.36
672.743	47.75
