Data from 0059_forehead_Reflection__1__174.txt Node

Date: Fri Dec 16 15:23:10 CST 2022
User: ToomeyLab
Spectrometer: FLMS14357
Trigger mode: 0
Integration Time (sec): 1.000000E-2
Scans to average: 100
Electric dark correction enabled: true
Nonlinearity correction enabled: false
Boxcar width: 0
XAxis mode: Wavelengths
Number of Pixels in Spectrum: 2048
>>>>>Begin Spectral Data<<<<<
189.047	36.97
189.435	36.97
189.823	36.97
190.211	-631.9
190.599	147.48
190.987	3343.97
191.375	103.06
191.763	67.04
192.151	-469.98
192.538	30.87
192.926	6.75
193.314	-36082.14
193.702	237.22
194.089	249.07
194.477	-410.6
194.864	-543.6
195.252	6.36
195.639	203.87
196.027	-193.67
196.414	-557.66
196.801	-440.87
197.189	116.97
197.576	210.89
197.963	-99.04
198.351	22.73
198.738	-27.43
199.125	21.16
199.512	-34.12
199.899	-1.08
200.286	-16.09
200.673	37.66
201.06	39.31
201.447	45.11
201.833	97.72
202.22	38.69
202.607	-0.94
202.994	48.58
203.38	8.43
203.767	15.85
204.154	-24.62
204.54	35.77
204.927	66.58
205.313	11.32
205.699	39.43
206.086	-28.49
206.472	21.63
206.858	1.2
207.245	-5.11
207.631	-12.29
208.017	42.62
208.403	8.43
208.789	48.74
209.175	64.27
209.561	3.36
209.947	19.5
210.333	12.91
210.719	40.39
211.105	-19.02
211.491	-35.2
211.876	30.35
212.262	-2.06
212.648	-47.19
213.034	-4.37
213.419	22.19
213.805	31.28
214.19	2.61
214.576	-31.32
214.961	33.26
215.346	-46.63
215.732	10.98
216.117	-7.79
216.502	-16.91
216.888	-26.05
217.273	4.41
217.658	-2.11
218.043	11.97
218.428	-10.83
218.813	13.19
219.198	-29.42
219.583	-0.82
219.968	-11.22
220.353	8.48
220.738	-19.16
221.122	4.34
221.507	-6.83
221.892	10.98
222.276	8.01
222.661	-16.09
223.046	4.85
223.43	-5.24
223.815	4.82
224.199	-2.43
224.583	-3.38
224.968	3.29
225.352	12.14
225.736	6.46
226.121	2.01
226.505	3.86
226.889	6.79
227.273	7.91
227.657	5.46
228.041	5.31
228.425	5.25
228.809	5.79
229.193	2.38
229.577	4.5
229.961	5.13
230.344	5.46
230.728	5.97
231.112	4.86
231.495	5.42
231.879	5.6
232.263	4.62
232.646	3
233.03	2.17
233.413	5.77
233.797	8.8
234.18	5.64
234.563	2.59
234.946	6.09
235.33	5.87
235.713	5.18
236.096	2.96
236.479	6.21
236.862	6.34
237.245	5.93
237.628	5.8
238.011	5.03
238.394	5.93
238.777	5.54
239.16	3.66
239.543	4.43
239.925	5.05
240.308	4.29
240.691	5.15
241.073	5.07
241.456	4
241.838	4.55
242.221	5.18
242.603	5.85
242.986	5.73
243.368	5.88
243.75	5.31
244.133	5.03
244.515	5.01
244.897	4.64
245.279	4.64
245.661	5.71
246.043	5.79
246.425	4.65
246.807	5.62
247.189	5.39
247.571	5.55
247.953	5.2
248.335	5.21
248.717	5.01
249.098	5.33
249.48	4.77
249.862	5.39
250.243	5.16
250.625	5.34
251.006	4.98
251.388	5.33
251.769	5.2
252.151	5.66
252.532	4.74
252.913	5.76
253.295	5.13
253.676	5.76
254.057	4.76
254.438	4.15
254.819	4.97
255.2	5.14
255.581	4
255.962	5.03
256.343	5.69
256.724	4.15
257.105	4.4
257.486	5.19
257.867	3.47
258.247	5.77
258.628	5.96
259.009	5.34
259.389	5.95
259.77	5.45
260.15	5.67
260.531	5.04
260.911	5.22
261.292	4.96
261.672	4.89
262.052	4.83
262.432	4.8
262.813	5.34
263.193	4.61
263.573	5.51
263.953	5.18
264.333	5.46
264.713	4.7
265.093	5.45
265.473	5.86
265.853	5.33
266.233	4.64
266.612	5.9
266.992	5.18
267.372	4.74
267.752	4.7
268.131	5.17
268.511	5.12
268.89	5.5
269.27	5.2
269.649	5.58
270.029	5.29
270.408	4.76
270.787	4.84
271.167	5.56
271.546	4.35
271.925	4.86
272.304	5.36
272.683	5.03
273.062	4.82
273.441	5.22
273.82	5.19
274.199	5.21
274.578	4.56
274.957	4.59
275.336	4.87
275.715	5.58
276.093	5.6
276.472	5.21
276.851	4.6
277.229	5.7
277.608	5.12
277.986	5.2
278.365	4.88
278.743	4.9
279.122	5
279.5	4.71
279.878	5.02
280.257	4.75
280.635	4.68
281.013	5.29
281.391	4.86
281.769	4.8
282.147	4.87
282.525	4.79
282.903	4.72
283.281	4.34
283.659	5.27
284.037	4.91
284.415	5.2
284.792	4.96
285.17	4.75
285.548	4.6
285.925	4.73
286.303	4.75
286.68	5.31
287.058	4.82
287.435	4.68
287.813	5.12
288.19	5.37
288.567	4.39
288.945	4.71
289.322	4.29
289.699	5.11
290.076	5.28
290.453	4.83
290.83	4.92
291.207	5.1
291.584	4.88
291.961	5.29
292.338	4.91
292.715	5.35
293.092	5
293.469	5.24
293.845	5.09
294.222	5.44
294.599	5.82
294.975	5.49
295.352	5.15
295.728	5.42
296.105	5.32
296.481	5.57
296.858	5.42
297.234	5.37
297.61	5.61
297.986	5.15
298.363	4.84
298.739	5.43
299.115	5.14
299.491	5.16
299.867	5.26
300.243	5.41
300.619	5.35
300.995	5.52
301.371	6.2
301.746	5.29
302.122	5.99
302.498	5.79
302.874	6.12
303.249	5.53
303.625	5.62
304	5.28
304.376	5.84
304.751	5.35
305.127	5.63
305.502	6.26
305.878	5.58
306.253	5.8
306.628	6.22
307.003	5.89
307.378	6.1
307.754	6.35
308.129	5.11
308.504	5.99
308.879	5.83
309.254	6.48
309.629	6.14
310.003	6.37
310.378	6.37
310.753	6.57
311.128	6.4
311.502	5.98
311.877	6.65
312.252	6.05
312.626	6.19
313.001	6.16
313.375	6.16
313.75	6.26
314.124	6.55
314.498	6.33
314.873	6.56
315.247	6.26
315.621	6.8
315.995	6.42
316.369	6.99
316.743	6.54
317.117	7.2
317.491	6.81
317.865	6.01
318.239	6.54
318.613	6.59
318.987	6.88
319.361	7.01
319.734	6.92
320.108	7.12
320.482	6.85
320.855	6.86
321.229	7.36
321.602	6.76
321.976	6.6
322.349	7.02
322.723	7.01
323.096	6.99
323.469	6.91
323.843	7.06
324.216	6.92
324.589	7.68
324.962	7.53
325.335	7.38
325.708	7.52
326.081	8.04
326.454	7.38
326.827	7.7
327.2	7.95
327.573	7.59
327.945	7.71
328.318	7.72
328.691	7.5
329.063	7.73
329.436	7.56
329.809	7.37
330.181	7.67
330.553	7.56
330.926	7.97
331.298	7.77
331.671	7.83
332.043	7.74
332.415	8.36
332.787	7.97
333.159	7.73
333.532	8.23
333.904	7.99
334.276	7.53
334.648	8.16
335.02	7.88
335.391	8.13
335.763	8.24
336.135	8.94
336.507	8.43
336.879	8.8
337.25	8.14
337.622	8.06
337.993	8.03
338.365	8.52
338.736	8.36
339.108	8.96
339.479	8.36
339.851	8.26
340.222	8.86
340.593	8.23
340.964	8.36
341.336	8.33
341.707	8.7
342.078	8.49
342.449	8.67
342.82	8.66
343.191	8.69
343.562	8.66
343.933	8.76
344.303	8.94
344.674	8.67
345.045	9.02
345.416	8.87
345.786	8.76
346.157	8.91
346.527	8.69
346.898	9.08
347.268	9.02
347.639	8.93
348.009	9.24
348.38	9.06
348.75	9.28
349.12	9.37
349.49	8.95
349.861	9.51
350.231	9.48
350.601	8.99
350.971	9.11
351.341	9.56
351.711	9.5
352.081	9.22
352.45	9.41
352.82	9.67
353.19	9.25
353.56	9.36
353.929	10.08
354.299	9.23
354.669	9.72
355.038	9.21
355.408	9.89
355.777	9.99
356.147	9.85
356.516	10.25
356.885	9.8
357.254	10.02
357.624	9.8
357.993	10.2
358.362	10.67
358.731	10.12
359.1	9.96
359.469	9.91
359.838	10.02
360.207	10.17
360.576	10.24
360.945	9.78
361.314	10.67
361.682	10.09
362.051	10.44
362.42	10.35
362.788	10.46
363.157	10.15
363.525	10.12
363.894	10.16
364.262	10.48
364.631	11.01
364.999	10.31
365.367	10.8
365.735	10.55
366.104	10.35
366.472	10.9
366.84	10.51
367.208	10.37
367.576	10.86
367.944	10.91
368.312	10.62
368.68	10.71
369.048	10.85
369.416	11
369.783	10.86
370.151	11.29
370.519	10.9
370.886	11.04
371.254	11.1
371.621	11.29
371.989	11.23
372.356	11.24
372.724	11.05
373.091	11.03
373.458	11.02
373.826	11.31
374.193	11.6
374.56	11.23
374.927	11.33
375.294	11.69
375.661	11.47
376.028	11.53
376.395	11.26
376.762	11.84
377.129	11.77
377.496	11.63
377.863	11.87
378.229	11.48
378.596	11.88
378.963	11.8
379.329	11.72
379.696	12.04
380.062	12.03
380.429	11.97
380.795	11.55
381.161	11.85
381.528	11.9
381.894	12.18
382.26	11.92
382.626	12.08
382.993	11.89
383.359	12.15
383.725	12.33
384.091	12.18
384.457	12.46
384.823	12.21
385.188	12.46
385.554	12.58
385.92	12.44
386.286	12.41
386.651	12.26
387.017	12.52
387.383	12.49
387.748	12.39
388.114	12.61
388.479	12.86
388.845	12.52
389.21	13.02
389.575	12.86
389.94	12.89
390.306	12.88
390.671	12.8
391.036	13.01
391.401	13.12
391.766	13.13
392.131	12.97
392.496	12.96
392.861	12.98
393.226	13.08
393.591	13.24
393.956	13.13
394.32	13.13
394.685	13.32
395.05	13.31
395.414	13.46
395.779	13.46
396.143	13.39
396.508	13.31
396.872	13.52
397.236	13.34
397.601	13.65
397.965	13.52
398.329	13.78
398.694	13.86
399.058	13.44
399.422	13.99
399.786	13.75
400.15	13.87
400.514	14.03
400.878	13.66
401.242	14.15
401.605	13.96
401.969	13.95
402.333	13.91
402.697	14.19
403.06	14.39
403.424	14.09
403.787	14.26
404.151	13.94
404.514	14.04
404.878	14.25
405.241	14.36
405.604	14.48
405.968	14.28
406.331	14.26
406.694	14.29
407.057	14.34
407.42	14.23
407.783	14.28
408.146	14.42
408.509	14.41
408.872	14.5
409.235	14.65
409.598	15.05
409.961	14.82
410.323	14.79
410.686	14.88
411.049	14.66
411.411	15
411.774	14.89
412.136	15.04
412.499	14.88
412.861	14.81
413.223	15.36
413.586	14.82
413.948	14.89
414.31	15.34
414.672	14.89
415.035	15.25
415.397	15.4
415.759	15.26
416.121	15.51
416.483	15.49
416.845	15.64
417.206	15.37
417.568	15.38
417.93	15.39
418.292	15.45
418.653	15.5
419.015	15.64
419.377	15.66
419.738	15.49
420.1	15.56
420.461	15.45
420.822	15.6
421.184	15.48
421.545	15.6
421.906	15.68
422.267	15.68
422.629	15.63
422.99	15.55
423.351	15.71
423.712	15.78
424.073	15.97
424.434	15.93
424.795	15.9
425.155	16.07
425.516	15.89
425.877	16.03
426.238	15.93
426.598	16.1
426.959	16.1
427.32	16.21
427.68	16.27
428.041	16.48
428.401	16.45
428.761	16.46
429.122	16.58
429.482	16.7
429.842	16.66
430.202	16.75
430.563	16.83
430.923	16.87
431.283	16.93
431.643	16.88
432.003	16.98
432.363	17.11
432.722	17.19
433.082	17.12
433.442	17.23
433.802	17.27
434.161	17.15
434.521	17.23
434.881	17.34
435.24	17.39
435.6	17.28
435.959	17.29
436.319	17.22
436.678	17.6
437.037	17.66
437.396	17.67
437.756	17.62
438.115	17.71
438.474	17.9
438.833	17.87
439.192	17.99
439.551	17.98
439.91	17.84
440.269	17.97
440.628	17.88
440.987	17.71
441.345	17.85
441.704	18.03
442.063	17.93
442.421	18.03
442.78	17.95
443.138	18.01
443.497	18.08
443.855	18.14
444.214	18.37
444.572	18.24
444.93	18.36
445.288	18.51
445.647	18.67
446.005	18.41
446.363	18.63
446.721	18.53
447.079	18.52
447.437	18.46
447.795	18.59
448.153	18.43
448.51	18.55
448.868	18.67
449.226	18.63
449.584	18.84
449.941	18.94
450.299	18.79
450.656	19.05
451.014	18.91
451.371	19.14
451.729	19.04
452.086	19.02
452.443	19.37
452.801	19.45
453.158	19.43
453.515	19.48
453.872	19.57
454.229	19.46
454.586	19.43
454.943	19.51
455.3	19.73
455.657	19.57
456.014	19.71
456.371	19.93
456.727	19.86
457.084	19.88
457.441	19.87
457.797	20.02
458.154	20.03
458.51	20.26
458.867	20.1
459.223	20.25
459.58	20.21
459.936	20.32
460.292	20.15
460.648	20.18
461.005	20.22
461.361	20.2
461.717	20.04
462.073	20.13
462.429	20.09
462.785	20.27
463.141	20.6
463.496	20.69
463.852	20.93
464.208	20.85
464.564	20.67
464.919	20.82
465.275	21.07
465.631	21.02
465.986	21.13
466.342	21.06
466.697	21.17
467.052	21.28
467.408	21.21
467.763	21.25
468.118	21.29
468.473	21.55
468.829	21.52
469.184	21.35
469.539	21.54
469.894	21.57
470.249	21.61
470.603	21.62
470.958	21.75
471.313	21.83
471.668	21.93
472.023	22.04
472.377	22.05
472.732	21.97
473.086	22.05
473.441	22.23
473.795	22.24
474.15	22.12
474.504	22.31
474.859	22.4
475.213	22.01
475.567	22.22
475.921	22.33
476.275	22.25
476.63	22.45
476.984	22.58
477.338	22.74
477.692	22.51
478.045	22.26
478.399	22.57
478.753	22.41
479.107	22.72
479.461	22.7
479.814	22.57
480.168	22.8
480.521	22.67
480.875	23.06
481.228	23.03
481.582	23.02
481.935	22.92
482.289	22.95
482.642	23.03
482.995	22.98
483.348	22.92
483.701	22.81
484.055	22.8
484.408	22.67
484.761	22.51
485.114	22.54
485.466	22.44
485.819	22.3
486.172	22.24
486.525	22.4
486.878	22.47
487.23	22.75
487.583	23.08
487.936	23.08
488.288	23.06
488.641	23.04
488.993	22.9
489.345	22.99
489.698	23.04
490.05	22.96
490.402	23.13
490.754	23.4
491.107	23.48
491.459	23.63
491.811	23.87
492.163	23.91
492.515	23.89
492.866	23.59
493.218	23.57
493.57	23.57
493.922	23.73
494.274	23.66
494.625	23.95
494.977	24.21
495.328	24.42
495.68	24.66
496.031	24.6
496.383	25
496.734	24.81
497.086	24.8
497.437	24.95
497.788	24.94
498.139	24.82
498.49	24.94
498.842	24.85
499.193	24.84
499.544	24.95
499.894	25.08
500.245	25.33
500.596	25.29
500.947	25.32
501.298	25.17
501.648	25.65
501.999	25.45
502.35	25.69
502.7	25.78
503.051	25.85
503.401	25.97
503.752	25.94
504.102	25.73
504.452	26.03
504.803	26.04
505.153	26.06
505.503	26
505.853	25.86
506.203	25.97
506.553	26.22
506.903	26.12
507.253	26.36
507.603	26.18
507.953	26.47
508.303	26.57
508.652	26.42
509.002	26.63
509.352	26.44
509.701	26.52
510.051	26.59
510.4	26.54
510.75	26.71
511.099	26.71
511.449	26.59
511.798	26.73
512.147	26.74
512.496	26.84
512.846	26.83
513.195	26.92
513.544	26.94
513.893	26.73
514.242	26.98
514.591	27.22
514.939	27.23
515.288	27.22
515.637	27.29
515.986	27.36
516.334	27.43
516.683	27.75
517.032	27.5
517.38	27.6
517.729	27.72
518.077	27.72
518.426	27.63
518.774	27.76
519.122	27.63
519.47	27.47
519.819	27.57
520.167	27.48
520.515	27.53
520.863	27.48
521.211	27.44
521.559	27.76
521.907	27.86
522.255	28.07
522.602	28.11
522.95	28.11
523.298	28.29
523.645	28.35
523.993	28.5
524.341	28.34
524.688	28.6
525.036	28.51
525.383	28.68
525.73	28.52
526.078	28.57
526.425	28.51
526.772	28.38
527.119	28.28
527.466	28.32
527.814	28.18
528.161	28.3
528.508	28.51
528.854	28.5
529.201	28.25
529.548	28.29
529.895	28.14
530.242	28.25
530.588	28.15
530.935	28.05
531.282	28
531.628	28.2
531.975	28.33
532.321	28.65
532.667	29.01
533.014	28.93
533.36	29.08
533.706	29.2
534.052	29.14
534.399	28.99
534.745	28.88
535.091	28.96
535.437	29.03
535.783	29.02
536.129	29.08
536.474	29.4
536.82	29.49
537.166	29.96
537.512	29.82
537.857	29.69
538.203	29.78
538.549	29.75
538.894	29.74
539.239	29.99
539.585	30.09
539.93	30.34
540.276	30.27
540.621	30.55
540.966	30.42
541.311	30.61
541.656	30.52
542.001	30.41
542.346	30.23
542.691	30.12
543.036	29.9
543.381	29.89
543.726	29.97
544.071	30.01
544.415	30.24
544.76	30.29
545.105	30.52
545.449	30.54
545.794	30.69
546.138	30.83
546.483	31.06
546.827	31.16
547.171	31.19
547.516	31.3
547.86	31.31
548.204	31.24
548.548	31.4
548.892	31.22
549.236	31.37
549.58	31.59
549.924	31.71
550.268	31.92
550.612	32.02
550.956	32.1
551.3	32.01
551.643	32.49
551.987	32.41
552.33	32.35
552.674	32.47
553.017	32.46
553.361	32.49
553.704	32.44
554.048	32.68
554.391	32.62
554.734	32.54
555.077	32.78
555.42	32.67
555.764	32.73
556.107	32.65
556.45	32.72
556.793	33.03
557.135	33.18
557.478	33.53
557.821	33.11
558.164	33.27
558.507	33.05
558.849	33.42
559.192	33.58
559.534	33.08
559.877	33.67
560.219	33.59
560.562	33.65
560.904	33.53
561.246	33.71
561.589	33.8
561.931	33.71
562.273	33.61
562.615	34.03
562.957	33.77
563.299	33.73
563.641	33.88
563.983	33.98
564.325	34.02
564.667	34.03
565.008	34.02
565.35	34.43
565.692	34.62
566.033	34.36
566.375	34.22
566.716	34.42
567.058	34.58
567.399	34.44
567.741	34.25
568.082	34.39
568.423	34.12
568.764	34.48
569.105	34.45
569.447	34.44
569.788	34.69
570.129	34.6
570.47	34.69
570.811	34.83
571.151	34.89
571.492	34.99
571.833	35
572.174	34.87
572.514	34.91
572.855	35.05
573.195	35.04
573.536	35.08
573.876	35
574.217	35.2
574.557	35
574.898	35.21
575.238	35.25
575.578	35.51
575.918	35.52
576.258	35.54
576.598	35.58
576.938	35.6
577.278	35.47
577.618	35.4
577.958	35.57
578.298	35.94
578.638	35.9
578.977	35.93
579.317	36.2
579.657	36.2
579.996	36.21
580.336	36.19
580.675	36.4
581.014	36.68
581.354	36.47
581.693	36.59
582.032	36.67
582.372	36.7
582.711	37.03
583.05	36.71
583.389	36.75
583.728	36.61
584.067	36.74
584.406	37
584.745	36.77
585.083	37.21
585.422	37.18
585.761	37.22
586.1	37.28
586.438	37.21
586.777	37.38
587.115	37.33
587.454	37.44
587.792	37.4
588.13	37.48
588.469	37.66
588.807	37.86
589.145	37.84
589.483	37.49
589.821	37.7
590.159	37.62
590.497	37.74
590.835	37.92
591.173	38.2
591.511	37.76
591.849	37.97
592.187	37.95
592.524	37.91
592.862	37.86
593.2	38.48
593.537	37.88
593.875	38.16
594.212	38.23
594.55	38.34
594.887	38.44
595.224	38.25
595.561	38.25
595.899	38.24
596.236	38.41
596.573	38.41
596.91	38.6
597.247	38.42
597.584	38.35
597.921	38.55
598.258	38.87
598.594	38.44
598.931	38.42
599.268	38.19
599.604	38.71
599.941	38.53
600.277	38.53
600.614	38.84
600.95	38.85
601.287	39.35
601.623	39.18
601.959	39.12
602.296	39.41
602.632	39.37
602.968	39.21
603.304	39.13
603.64	39.55
603.976	39.47
604.312	39.77
604.648	39.67
604.984	39.5
605.319	39.71
605.655	39.67
605.991	39.55
606.326	39.3
606.662	39.48
606.998	39.33
607.333	39.45
607.668	39.51
608.004	39.55
608.339	39.71
608.674	39.92
609.01	40.17
609.345	40.33
609.68	40.47
610.015	40.4
610.35	40.43
610.685	40.45
611.02	40.49
611.355	40.05
611.689	40.16
612.024	40.77
612.359	40.24
612.694	40.31
613.028	40.54
613.363	40.41
613.697	40.88
614.032	40.92
614.366	40.88
614.7	41.54
615.035	41.51
615.369	41.23
615.703	41.39
616.037	41.12
616.371	41.05
616.705	41
617.039	41.51
617.373	41.28
617.707	41.94
618.041	41.9
618.375	41.37
618.709	41.73
619.042	41.67
619.376	41.55
619.71	41.49
620.043	41.4
620.377	41.71
620.71	41.96
621.043	42.29
621.377	41.87
621.71	41.8
622.043	42.48
622.376	41.79
622.709	42.31
623.043	41.96
623.376	42.34
623.709	42.86
624.041	42.22
624.374	42.22
624.707	42.57
625.04	42.86
625.373	42.37
625.705	42.31
626.038	42.64
626.37	42.67
626.703	42.35
627.035	42.58
627.368	42.86
627.7	42.72
628.032	42.88
628.365	42.78
628.697	42.86
629.029	42.98
629.361	42.74
629.693	43.12
630.025	43.27
630.357	42.89
630.689	43.43
631.021	43.14
631.353	43.1
631.684	43.23
632.016	43.12
632.348	43.7
632.679	43.41
633.011	43.52
633.342	43.64
633.674	43.67
634.005	43.44
634.336	43.84
634.668	43.38
634.999	43.36
635.33	43.99
635.661	43.79
635.992	43.63
636.323	43.71
636.654	43.91
636.985	43.92
637.316	44.11
637.647	44.22
637.977	44.49
638.308	43.85
638.639	44.23
638.969	43.77
639.3	44.23
639.63	44.55
639.961	44.36
640.291	44.67
640.622	44.57
640.952	44.74
641.282	44.34
641.612	44.63
641.943	45.04
642.273	44.56
642.603	44.89
642.933	44.82
643.263	45.11
643.592	45.12
643.922	45.79
644.252	45.02
644.582	44.79
644.911	44.76
645.241	45.12
645.571	44.82
645.9	44.99
646.23	44.78
646.559	45.7
646.888	45.52
647.218	45.49
647.547	45.83
647.876	45.75
648.205	45.07
648.534	45.47
648.863	46.27
649.192	45.42
649.521	45.52
649.85	45.93
650.179	45.61
650.508	45.78
650.837	45.76
651.165	46.45
651.494	46.51
651.822	45.85
652.151	46.48
652.479	46.22
652.808	46.07
653.136	46.03
653.465	46.34
653.793	46.38
654.121	45.84
654.449	46.42
654.777	46.55
655.105	46.56
655.433	46.27
655.761	46.28
656.089	46.66
656.417	46.17
656.745	47.1
657.073	47.24
657.4	47.38
657.728	47.11
658.056	47.17
658.383	47.07
658.711	47.01
659.038	47.5
659.365	46.72
659.693	47.05
660.02	46.73
660.347	47.05
660.674	47.11
661.001	47.17
661.329	47.33
661.656	46.79
661.982	47.38
662.309	47.33
662.636	47.06
662.963	47.27
663.29	47.29
663.616	47.46
663.943	47.92
664.27	47.75
664.596	47.66
664.923	47.82
665.249	47.6
665.576	47.09
665.902	47.06
666.228	47.74
666.554	47.78
666.881	48.41
667.207	48.06
667.533	48.18
667.859	47.68
668.185	48.29
668.511	48.53
668.837	48.09
669.162	48.11
669.488	48.24
669.814	49.03
670.139	49.04
670.465	48.59
670.791	48.33
671.116	48.62
671.442	48.21
