Data from 0059_crown_Reflection__0__168.txt Node

Date: Fri Dec 16 15:21:40 CST 2022
User: ToomeyLab
Spectrometer: FLMS14357
Trigger mode: 0
Integration Time (sec): 1.000000E-2
Scans to average: 100
Electric dark correction enabled: true
Nonlinearity correction enabled: false
Boxcar width: 0
XAxis mode: Wavelengths
Number of Pixels in Spectrum: 2048
>>>>>Begin Spectral Data<<<<<
189.047	105.82
189.435	105.82
189.823	105.82
190.211	-696.55
190.599	-77.62
190.987	4544.83
191.375	-163.37
191.763	-49.61
192.151	-238.55
192.538	218.8
192.926	18.78
193.314	-38314.29
193.702	363.56
194.089	169.45
194.477	-90.3
194.864	-1855.81
195.252	-55.36
195.639	164.97
196.027	-174.3
196.414	356.78
196.801	-853.97
197.189	125.17
197.576	-23.93
197.963	-43
198.351	-25.69
198.738	-73.57
199.125	0.46
199.512	3.53
199.899	-51.92
200.286	-16.38
200.673	35.29
201.06	44.14
201.447	37.97
201.833	-27.66
202.22	22.48
202.607	1.92
202.994	22.37
203.38	-57.05
203.767	-9.39
204.154	-17.44
204.54	33.69
204.927	4.91
205.313	46.91
205.699	-8.28
206.086	8.42
206.472	-26.93
206.858	3.85
207.245	-1.22
207.631	6.86
208.017	22.47
208.403	7.23
208.789	54.13
209.175	47.68
209.561	-19.4
209.947	7.84
210.333	-17.55
210.719	-9.09
211.105	-35.89
211.491	0.65
211.876	-35.13
212.262	11.39
212.648	-83.05
213.034	-9.46
213.419	3.31
213.805	5.46
214.19	-19.08
214.576	-36.46
214.961	-46.12
215.346	25.42
215.732	-9.9
216.117	-11.7
216.502	-30.66
216.888	-15.16
217.273	10.9
217.658	-24.96
218.043	-18.17
218.428	16.15
218.813	-25.48
219.198	-74.63
219.583	-9.16
219.968	-6.44
220.353	5.07
220.738	-28.52
221.122	-14.42
221.507	-20.6
221.892	13.92
222.276	-4.92
222.661	-17.24
223.046	-1.62
223.43	-0.78
223.815	18.32
224.199	6.3
224.583	3.04
224.968	9.25
225.352	0.82
225.736	0.18
226.121	-13.3
226.505	-1.56
226.889	10.85
227.273	8
227.657	-0.83
228.041	4.52
228.425	4.26
228.809	-0.11
229.193	-2.04
229.577	2.59
229.961	3.18
230.344	3.73
230.728	1.96
231.112	3.1
231.495	2.16
231.879	1.93
232.263	2.19
232.646	1.35
233.03	1.21
233.413	1.5
233.797	5.91
234.18	3.83
234.563	0.48
234.946	2.31
235.33	3.74
235.713	1.86
236.096	2.17
236.479	5.02
236.862	1.67
237.245	1.98
237.628	1.92
238.011	2.7
238.394	4.62
238.777	2.33
239.16	-2.33
239.543	0.4
239.925	3.58
240.308	3.67
240.691	2.78
241.073	2.87
241.456	2.35
241.838	3.29
242.221	2.89
242.603	3.47
242.986	3.64
243.368	2.58
243.75	2.59
244.133	2.95
244.515	3
244.897	2.66
245.279	2.37
245.661	2.48
246.043	2.48
246.425	2.28
246.807	2.18
247.189	2.34
247.571	2.92
247.953	2.71
248.335	2.86
248.717	2.66
249.098	2.96
249.48	2.34
249.862	2.96
250.243	2.58
250.625	2.75
251.006	2.15
251.388	3.03
251.769	2.18
252.151	2.6
252.532	2.43
252.913	3.21
253.295	2.98
253.676	2.91
254.057	2.27
254.438	2.58
254.819	2.18
255.2	2.73
255.581	1.79
255.962	1.75
256.343	2.66
256.724	2.35
257.105	2.49
257.486	2.46
257.867	1.2
258.247	2.45
258.628	2.52
259.009	2.34
259.389	2.88
259.77	2.66
260.15	3.45
260.531	2.25
260.911	2.58
261.292	2.58
261.672	2.68
262.052	2.37
262.432	2.34
262.813	2.53
263.193	1.7
263.573	3.21
263.953	2.14
264.333	2.62
264.713	2.4
265.093	2.72
265.473	3.15
265.853	2.22
266.233	2.67
266.612	2.61
266.992	2.25
267.372	2.19
267.752	1.74
268.131	2.61
268.511	2.43
268.89	3.08
269.27	2.03
269.649	2.69
270.029	2.54
270.408	2.18
270.787	1.87
271.167	1.96
271.546	1.46
271.925	2.58
272.304	2.49
272.683	2.33
273.062	2.41
273.441	2.44
273.82	3.01
274.199	2.87
274.578	2.37
274.957	2.12
275.336	2.19
275.715	2.78
276.093	2.81
276.472	2.52
276.851	2.62
277.229	2.95
277.608	2.46
277.986	2.45
278.365	2.32
278.743	2.84
279.122	2.3
279.5	1.7
279.878	1.43
280.257	3.18
280.635	2.23
281.013	2.45
281.391	2.44
281.769	2.34
282.147	2.57
282.525	2.51
282.903	3.11
283.281	2.08
283.659	2.58
284.037	2.58
284.415	2.38
284.792	2.7
285.17	2.5
285.548	2.14
285.925	2.39
286.303	1.93
286.68	2.56
287.058	2.27
287.435	1.93
287.813	2.5
288.19	3.08
288.567	2.52
288.945	2.35
289.322	1.9
289.699	2.6
290.076	2.77
290.453	2.12
290.83	2.16
291.207	2.35
291.584	2.23
291.961	2.56
292.338	2.69
292.715	2.44
293.092	2.47
293.469	2.42
293.845	2.58
294.222	3.05
294.599	2.27
294.975	2.46
295.352	2.12
295.728	2.43
296.105	2.41
296.481	2.88
296.858	2.93
297.234	2.26
297.61	2.31
297.986	2.46
298.363	2.08
298.739	2.27
299.115	2.25
299.491	2.43
299.867	2.52
300.243	2.58
300.619	2.44
300.995	2.63
301.371	2.55
301.746	2.25
302.122	2.48
302.498	2.45
302.874	2.5
303.249	2.32
303.625	2.5
304	2.06
304.376	2.51
304.751	2.52
305.127	2.4
305.502	2.53
305.878	2.17
306.253	2.15
306.628	2.6
307.003	3.17
307.378	1.84
307.754	2.55
308.129	2.15
308.504	2.44
308.879	2.29
309.254	2.33
309.629	2.11
310.003	2.48
310.378	2.6
310.753	2.65
311.128	2.31
311.502	2.08
311.877	2.22
312.252	2.38
312.626	2.58
313.001	2.42
313.375	2.19
313.75	2.22
314.124	2.75
314.498	1.93
314.873	1.82
315.247	1.71
315.621	2.39
315.995	2.36
316.369	2.49
316.743	2.69
317.117	2.63
317.491	2.61
317.865	2.1
318.239	2.36
318.613	2.63
318.987	2.1
319.361	2.21
319.734	2.21
320.108	2.86
320.482	2.2
320.855	2.36
321.229	2.88
321.602	2.57
321.976	2.43
322.349	2.17
322.723	1.51
323.096	2.13
323.469	1.52
323.843	2.51
324.216	1.54
324.589	2.34
324.962	2.49
325.335	2.25
325.708	3.03
326.081	2.84
326.454	2.38
326.827	2.59
327.2	3.22
327.573	2.82
327.945	2.27
328.318	2.43
328.691	2.28
329.063	2.27
329.436	2.09
329.809	2.11
330.181	1.95
330.553	2.52
330.926	2
331.298	2.06
331.671	2.62
332.043	2.26
332.415	2.33
332.787	2.48
333.159	2.28
333.532	2.34
333.904	2.64
334.276	2.65
334.648	2.43
335.02	2.17
335.391	2.53
335.763	2.29
336.135	2.29
336.507	2.65
336.879	2.21
337.25	2.51
337.622	2.37
337.993	2.51
338.365	2.56
338.736	1.86
339.108	2.28
339.479	2.5
339.851	2.71
340.222	2.32
340.593	1.93
340.964	2.45
341.336	2.07
341.707	2.41
342.078	1.99
342.449	2.48
342.82	2.02
343.191	2.09
343.562	2.53
343.933	2.23
344.303	2.59
344.674	2.3
345.045	2.39
345.416	2.51
345.786	2.15
346.157	2.16
346.527	2.37
346.898	2.29
347.268	1.93
347.639	2.13
348.009	2.56
348.38	2.02
348.75	2.51
349.12	2.35
349.49	2.27
349.861	3.06
350.231	2.46
350.601	2.26
350.971	1.97
351.341	2.75
351.711	2.4
352.081	2.45
352.45	2.44
352.82	2.52
353.19	2.47
353.56	2.5
353.929	2.82
354.299	2.51
354.669	2.39
355.038	2.45
355.408	2.54
355.777	2.34
356.147	2.69
356.516	2.67
356.885	2.31
357.254	2.58
357.624	2.53
357.993	2.31
358.362	2.53
358.731	2.2
359.1	2.67
359.469	2.21
359.838	2.23
360.207	2.23
360.576	2.32
360.945	2.37
361.314	2.65
361.682	2.16
362.051	2.45
362.42	2.66
362.788	2.53
363.157	2.33
363.525	2.27
363.894	2.25
364.262	2.18
364.631	3.04
364.999	2.32
365.367	2.72
365.735	2.24
366.104	2.42
366.472	2.86
366.84	2.44
367.208	2.19
367.576	2.2
367.944	2.83
368.312	2.44
368.68	2.21
369.048	2.61
369.416	2.14
369.783	2.35
370.151	2.54
370.519	2.65
370.886	2.65
371.254	2.51
371.621	2.22
371.989	2.19
372.356	2.3
372.724	2.58
373.091	2.43
373.458	2.25
373.826	2.33
374.193	2.67
374.56	2.29
374.927	2.35
375.294	2.38
375.661	2.6
376.028	2.24
376.395	2.46
376.762	2.7
377.129	2.85
377.496	2.47
377.863	2.65
378.229	2.64
378.596	2.67
378.963	2.54
379.329	2.36
379.696	2.44
380.062	2.62
380.429	2.52
380.795	2.32
381.161	2.61
381.528	1.94
381.894	2.68
382.26	2.63
382.626	2.49
382.993	2.26
383.359	2.32
383.725	2.62
384.091	2.21
384.457	2.46
384.823	2.29
385.188	2.75
385.554	2.35
385.92	2.72
386.286	2.62
386.651	2.5
387.017	2.55
387.383	2.4
387.748	2.46
388.114	2.64
388.479	2.54
388.845	2.31
389.21	2.63
389.575	2.65
389.94	2.78
390.306	2.37
390.671	2.47
391.036	2.68
391.401	2.9
391.766	2.71
392.131	2.55
392.496	2.27
392.861	2.49
393.226	2.69
393.591	2.48
393.956	2.69
394.32	2.58
394.685	2.67
395.05	2.43
395.414	2.51
395.779	2.5
396.143	2.4
396.508	2.58
396.872	2.69
397.236	2.13
397.601	2.5
397.965	2.45
398.329	2.76
398.694	2.47
399.058	2.67
399.422	2.63
399.786	2.58
400.15	2.7
400.514	2.46
400.878	2.57
401.242	2.56
401.605	2.68
401.969	2.66
402.333	2.61
402.697	2.94
403.06	2.65
403.424	2.4
403.787	2.77
404.151	2.52
404.514	2.75
404.878	2.47
405.241	2.83
405.604	2.55
405.968	2.66
406.331	2.69
406.694	2.57
407.057	2.93
407.42	2.55
407.783	2.45
408.146	2.55
408.509	2.26
408.872	2.49
409.235	2.75
409.598	2.62
409.961	2.91
410.323	2.61
410.686	2.46
411.049	2.46
411.411	2.57
411.774	2.44
412.136	2.45
412.499	2.69
412.861	2.47
413.223	2.77
413.586	2.58
413.948	2.74
414.31	2.75
414.672	2.59
415.035	2.96
415.397	2.77
415.759	2.49
416.121	2.63
416.483	2.76
416.845	2.72
417.206	2.63
417.568	2.64
417.93	2.65
418.292	2.57
418.653	2.71
419.015	2.77
419.377	2.67
419.738	2.51
420.1	2.62
420.461	2.46
420.822	2.6
421.184	2.68
421.545	2.55
421.906	2.57
422.267	2.49
422.629	2.58
422.99	2.58
423.351	2.67
423.712	2.53
424.073	2.76
424.434	2.57
424.795	2.63
425.155	2.52
425.516	2.56
425.877	2.64
426.238	2.53
426.598	2.64
426.959	2.54
427.32	2.71
427.68	2.72
428.041	2.73
428.401	2.64
428.761	2.68
429.122	2.54
429.482	2.62
429.842	2.72
430.202	2.58
430.563	2.64
430.923	2.6
431.283	2.6
431.643	2.7
432.003	2.72
432.363	2.7
432.722	2.74
433.082	2.71
433.442	2.83
433.802	2.66
434.161	2.71
434.521	2.61
434.881	2.73
435.24	2.64
435.6	2.66
435.959	2.74
436.319	2.66
436.678	2.72
437.037	2.71
437.396	2.78
437.756	2.85
438.115	2.7
438.474	2.76
438.833	2.86
439.192	2.86
439.551	2.66
439.91	2.86
440.269	2.78
440.628	2.62
440.987	2.61
441.345	2.68
441.704	2.77
442.063	2.71
442.421	2.67
442.78	2.64
443.138	2.69
443.497	2.62
443.855	2.61
444.214	2.83
444.572	2.75
444.93	2.87
445.288	2.85
445.647	2.8
446.005	2.49
446.363	2.71
446.721	2.58
447.079	2.76
447.437	2.69
447.795	2.68
448.153	2.69
448.51	2.68
448.868	2.81
449.226	2.69
449.584	2.79
449.941	2.89
450.299	2.73
450.656	2.77
451.014	2.81
451.371	2.86
451.729	2.89
452.086	2.68
452.443	2.69
452.801	2.86
453.158	2.75
453.515	2.77
453.872	2.78
454.229	2.77
454.586	2.76
454.943	2.72
455.3	2.82
455.657	2.69
456.014	2.85
456.371	2.85
456.727	2.74
457.084	2.86
457.441	2.72
457.797	2.91
458.154	2.94
458.51	2.71
458.867	2.8
459.223	2.66
459.58	2.79
459.936	2.6
460.292	2.79
460.648	2.64
461.005	2.64
461.361	2.71
461.717	2.69
462.073	2.82
462.429	2.79
462.785	2.84
463.141	2.88
463.496	2.8
463.852	2.88
464.208	2.8
464.564	2.8
464.919	2.65
465.275	2.75
465.631	2.89
465.986	2.8
466.342	2.92
466.697	2.75
467.052	2.77
467.408	2.76
467.763	2.57
468.118	2.78
468.473	2.94
468.829	2.82
469.184	2.88
469.539	2.75
469.894	2.92
470.249	2.77
470.603	2.7
470.958	2.85
471.313	2.71
471.668	2.98
472.023	3.04
472.377	2.74
472.732	2.83
473.086	2.74
473.441	2.81
473.795	3.03
474.15	2.75
474.504	2.79
474.859	2.95
475.213	2.84
475.567	2.89
475.921	3.06
476.275	2.9
476.63	2.8
476.984	2.81
477.338	3.2
477.692	3
478.045	2.86
478.399	2.94
478.753	2.81
479.107	2.77
479.461	2.93
479.814	2.86
480.168	2.9
480.521	2.92
480.875	3
481.228	2.95
481.582	2.78
481.935	2.81
482.289	2.81
482.642	2.92
482.995	2.84
483.348	2.82
483.701	2.79
484.055	2.8
484.408	2.77
484.761	2.65
485.114	2.69
485.466	2.65
485.819	2.68
486.172	2.77
486.525	2.83
486.878	2.84
487.23	2.87
487.583	2.85
487.936	2.87
488.288	2.8
488.641	2.77
488.993	2.71
489.345	2.76
489.698	2.81
490.05	2.79
490.402	2.89
490.754	2.93
491.107	2.88
491.459	2.95
491.811	2.94
492.163	2.93
492.515	2.85
492.866	2.68
493.218	2.76
493.57	2.9
493.922	2.86
494.274	2.95
494.625	2.94
494.977	2.88
495.328	2.99
495.68	3.09
496.031	2.96
496.383	2.95
496.734	2.99
497.086	2.79
497.437	3.07
497.788	2.92
498.139	2.94
498.49	2.98
498.842	2.96
499.193	3.06
499.544	2.99
499.894	2.96
500.245	2.99
500.596	3.1
500.947	3.01
501.298	2.83
501.648	3.02
501.999	3.09
502.35	3.06
502.7	2.94
503.051	3.16
503.401	3
503.752	2.93
504.102	3.05
504.452	2.98
504.803	2.92
505.153	3.05
505.503	2.94
505.853	2.84
506.203	3.04
506.553	3.05
506.903	3.02
507.253	3.03
507.603	3
507.953	3.11
508.303	3.13
508.652	3.17
509.002	3.06
509.352	2.98
509.701	2.94
510.051	3.05
510.4	2.98
510.75	3.05
511.099	2.89
511.449	3.05
511.798	3.09
512.147	3.05
512.496	3.05
512.846	2.89
513.195	2.98
513.544	2.95
513.893	2.94
514.242	3.13
514.591	3.11
514.939	2.92
515.288	3.07
515.637	3.09
515.986	3.01
516.334	3.16
516.683	3.16
517.032	3.13
517.38	3.06
517.729	2.98
518.077	3.08
518.426	2.98
518.774	3.03
519.122	2.94
519.47	2.98
519.819	3.01
520.167	3.03
520.515	3
520.863	3.03
521.211	3.04
521.559	3.08
521.907	3.09
522.255	3.11
522.602	3.09
522.95	3.2
523.298	3.13
523.645	3.01
523.993	3.16
524.341	3.21
524.688	3.22
525.036	3.15
525.383	3.22
525.73	3.18
526.078	3.13
526.425	3.06
526.772	2.92
527.119	2.96
527.466	3.09
527.814	3.03
528.161	3.1
528.508	3.05
528.854	3
529.201	2.96
529.548	2.9
529.895	2.87
530.242	2.88
530.588	2.96
530.935	2.97
531.282	3.03
531.628	3.05
531.975	3.09
532.321	3.12
532.667	3.08
533.014	3.08
533.36	3.03
533.706	3.12
534.052	3.05
534.399	2.97
534.745	2.96
535.091	2.94
535.437	3
535.783	3.13
536.129	3.12
536.474	3.19
536.82	3.09
537.166	3.14
537.512	3.08
537.857	3.05
538.203	3.06
538.549	3.09
538.894	3.08
539.239	3.27
539.585	3.16
539.93	3.22
540.276	3.19
540.621	3.17
540.966	3.11
541.311	3.17
541.656	3.18
542.001	3.12
542.346	3.05
542.691	2.97
543.036	2.98
543.381	3.08
543.726	3.11
544.071	3.18
544.415	3.2
544.76	3.02
545.105	3.11
545.449	3.16
545.794	3.24
546.138	3.24
546.483	3.12
546.827	3.1
547.171	3.08
547.516	3.26
547.86	3.22
548.204	3.06
548.548	3.2
548.892	3.17
549.236	3.27
549.58	3.18
549.924	3.31
550.268	3.35
550.612	3.33
550.956	3.21
551.3	3.3
551.643	3.27
551.987	3.23
552.33	3.15
552.674	3.26
553.017	3.41
553.361	3.26
553.704	3.01
554.048	3.31
554.391	3.13
554.734	3.23
555.077	3.23
555.42	3.21
555.764	3.19
556.107	3.39
556.45	3.21
556.793	3.52
557.135	3.37
557.478	3.52
557.821	3.23
558.164	3.34
558.507	3.12
558.849	3.3
559.192	3.33
559.534	3.22
559.877	3.29
560.219	3.48
560.562	3.34
560.904	3.28
561.246	3.38
561.589	3.5
561.931	3.58
562.273	3.28
562.615	3.47
562.957	3.42
563.299	3.32
563.641	3.4
563.983	3.31
564.325	3.25
564.667	3.27
565.008	3.23
565.35	3.55
565.692	3.48
566.033	3.27
566.375	3.36
566.716	3.38
567.058	3.46
567.399	3.28
567.741	3.36
568.082	3.36
568.423	3.38
568.764	3.38
569.105	3.48
569.447	3.34
569.788	3.35
570.129	3.48
570.47	3.34
570.811	3.46
571.151	3.37
571.492	3.56
571.833	3.37
572.174	3.4
572.514	3.3
572.855	3.54
573.195	3.3
573.536	3.37
573.876	3.37
574.217	3.53
574.557	3.32
574.898	3.47
575.238	3.26
575.578	3.47
575.918	3.39
576.258	3.46
576.598	3.4
576.938	3.54
577.278	3.4
577.618	3.29
577.958	3.44
578.298	3.55
578.638	3.37
578.977	3.45
579.317	3.48
579.657	3.44
579.996	3.4
580.336	3.42
580.675	3.52
581.014	3.5
581.354	3.58
581.693	3.43
582.032	3.33
582.372	3.71
582.711	3.47
583.05	3.6
583.389	3.62
583.728	3.63
584.067	3.46
584.406	3.52
584.745	3.51
585.083	3.68
585.422	3.4
585.761	3.73
586.1	3.7
586.438	3.44
586.777	3.67
587.115	3.57
587.454	3.61
587.792	3.32
588.13	3.58
588.469	3.54
588.807	3.7
589.145	3.63
589.483	3.54
589.821	3.56
590.159	3.41
590.497	3.29
590.835	3.48
591.173	3.6
591.511	3.59
591.849	3.7
592.187	3.62
592.524	3.55
592.862	3.62
593.2	3.6
593.537	3.54
593.875	3.73
594.212	3.73
594.55	3.71
594.887	3.66
595.224	3.56
595.561	3.62
595.899	3.75
596.236	3.61
596.573	3.37
596.91	3.59
597.247	3.44
597.584	3.49
597.921	3.55
598.258	3.52
598.594	3.47
598.931	3.46
599.268	3.54
599.604	3.85
599.941	3.66
600.277	3.48
600.614	3.65
600.95	3.56
601.287	3.5
601.623	3.61
601.959	3.68
602.296	3.62
602.632	4.11
602.968	3.47
603.304	3.66
603.64	3.67
603.976	3.69
604.312	3.75
604.648	3.73
604.984	3.78
605.319	3.66
605.655	3.84
605.991	3.6
606.326	3.58
606.662	3.45
606.998	3.77
607.333	3.6
607.668	3.65
608.004	3.76
608.339	3.58
608.674	3.66
609.01	3.93
609.345	3.75
609.68	3.47
610.015	3.7
610.35	3.52
610.685	3.65
611.02	3.77
611.355	3.75
611.689	3.63
612.024	3.82
612.359	3.8
612.694	3.87
613.028	4
613.363	3.7
613.697	3.86
614.032	4.08
614.366	3.88
614.7	4.03
615.035	3.52
615.369	3.77
615.703	3.94
616.037	3.66
616.371	3.66
616.705	3.66
617.039	3.99
617.373	3.84
617.707	3.63
618.041	3.43
618.375	3.63
618.709	4.05
619.042	3.75
619.376	3.65
619.71	3.67
620.043	3.65
620.377	4.12
620.71	3.76
621.043	3.38
621.377	3.81
621.71	4.24
622.043	3.9
622.376	3.68
622.709	3.71
623.043	3.99
623.376	4.09
623.709	4.13
624.041	3.68
624.374	3.64
624.707	3.54
625.04	3.99
625.373	3.91
625.705	3.93
626.038	3.75
626.37	3.95
626.703	3.72
627.035	3.81
627.368	3.84
627.7	3.89
628.032	3.82
628.365	3.67
628.697	3.85
629.029	3.83
629.361	3.76
629.693	3.97
630.025	3.97
630.357	3.75
630.689	4.21
631.021	4.08
631.353	4.06
631.684	3.87
632.016	3.72
632.348	4.12
632.679	3.74
633.011	3.55
633.342	3.66
633.674	3.86
634.005	4.01
634.336	3.78
634.668	3.85
634.999	3.6
635.33	4.02
635.661	4.12
635.992	3.82
636.323	3.78
636.654	4.08
636.985	3.62
637.316	4
637.647	3.91
637.977	3.77
638.308	3.8
638.639	3.79
638.969	3.98
639.3	4.29
639.63	3.96
639.961	3.8
640.291	4.36
640.622	3.86
640.952	4.02
641.282	3.45
641.612	3.55
641.943	4.07
642.273	3.88
642.603	3.72
642.933	3.97
643.263	4.13
643.592	4.04
643.922	4.66
644.252	4.29
644.582	3.62
644.911	3.56
645.241	3.94
645.571	4.2
645.9	3.85
646.23	3.81
646.559	3.89
646.888	3.94
647.218	4.03
647.547	3.61
647.876	4.59
648.205	3.83
648.534	3.95
648.863	4.41
649.192	3.66
649.521	3.5
649.85	4.01
650.179	3.85
650.508	4.04
650.837	3.93
651.165	4.38
651.494	3.85
651.822	3.96
652.151	4.42
652.479	4.06
652.808	4.1
653.136	3.81
653.465	4.19
653.793	4.19
654.121	4.2
654.449	3.85
654.777	3.9
655.105	4.17
655.433	3.92
655.761	3.97
656.089	4.17
656.417	3.84
656.745	4.41
657.073	4.36
657.4	4.19
657.728	4.22
658.056	3.78
658.383	4.05
658.711	4.06
659.038	4.47
659.365	4.24
659.693	3.94
660.02	3.91
660.347	4.22
660.674	4.05
661.001	3.72
661.329	4.16
661.656	4.12
661.982	4
662.309	4.01
662.636	4.44
662.963	4.09
663.29	4.36
663.616	4.73
663.943	4.43
664.27	4.23
664.596	4.18
664.923	4.51
665.249	4.37
665.576	4.28
665.902	4.4
666.228	3.48
666.554	3.83
666.881	4.58
667.207	3.77
667.533	4.62
667.859	4.36
668.185	4.33
668.511	3.8
668.837	3.86
669.162	4.39
669.488	4.5
669.814	4.83
670.139	4.46
670.465	4.22
670.791	4.62
671.116	3.71
671.442	4.03
671.767	3.84
672.092	4.6
672.418	4.62
672.743	3.88
673.068	4.66
673.393	4.93
673.718	4.25
674.043	4.68
674.368	4.9
674.693	4.48
675.018	4.3
675.343	4.14
675.667	4.64
675.992	4.07
676.317	4.18
676.641	4.39
676.966	4.37
677.29	4.37
677.615	4.03
677.939	4.43
678.264	4.64
678.588	4.6
678.912	4.38
679.236	4.23
679.56	3.51
679.885	4.25
680.209	3.71
680.532	4.3
680.856	5.1
681.18	4.68
681.504	3.75
681.828	3.63
682.152	4.43
682.475	4.8
682.799	4.59
683.122	4.29
683.446	4.52
683.769	4.66
684.093	4.36
684.416	4.01
684.739	4.93
685.062	4.37
685.386	4.36
685.709	4.08
686.032	4.25
686.355	4.84
686.678	4.48
687.001	3.87
687.324	4.06
687.646	4.46
687.969	4.26
688.292	5.18
688.614	4.63
688.937	4.56
689.26	3.98
689.582	4.46
689.904	5.01
690.227	4.34
690.549	4.79
690.871	4.19
691.194	4.47
691.516	4.45
691.838	4.26
692.16	4.7
