Data from 0188_crown_Reflection__3__150.txt Node

Date: Fri Sep 22 21:29:11 CDT 2023
User: ToomeyLab
Spectrometer: FLMS14357
Trigger mode: 0
Integration Time (sec): 1.000000E-2
Scans to average: 100
Electric dark correction enabled: true
Nonlinearity correction enabled: false
Boxcar width: 0
XAxis mode: Wavelengths
Number of Pixels in Spectrum: 2048
>>>>>Begin Spectral Data<<<<<
189.047	-1.53
189.435	-1.53
189.823	-1.53
190.211	-48.63
190.599	-984.76
190.987	72.11
191.375	-0.48
191.763	-1608.37
192.151	649.17
192.538	-67.05
192.926	112.76
193.314	-32.49
193.702	436.04
194.089	23.17
194.477	-848.79
194.864	69.27
195.252	103.32
195.639	144.45
196.027	-314.29
196.414	-1.85
196.801	-8.28
197.189	-244.37
197.576	90.35
197.963	570.84
198.351	66.77
198.738	0.91
199.125	17.3
199.512	104.5
199.899	53.56
200.286	7.31
200.673	29.01
201.06	25.25
201.447	44.24
201.833	-77.36
202.22	43.86
202.607	68.89
202.994	57.98
203.38	11.73
203.767	21.26
204.154	49.19
204.54	49.18
204.927	-21.68
205.313	21.03
205.699	70.55
206.086	60.99
206.472	65.2
206.858	35.81
207.245	26.26
207.631	26.77
208.017	37.76
208.403	17.5
208.789	27.32
209.175	68.79
209.561	48.85
209.947	57.5
210.333	46.44
210.719	42.4
211.105	72.43
211.491	36.91
211.876	66.21
212.262	31.4
212.648	49.49
213.034	53.69
213.419	35.36
213.805	11.04
214.19	52.35
214.576	28.58
214.961	-0.42
215.346	41.88
215.732	60.29
216.117	16.16
216.502	41.24
216.888	83.64
217.273	36.79
217.658	9.89
218.043	50.26
218.428	26.58
218.813	-3.25
219.198	10.44
219.583	39.12
219.968	11.27
220.353	52.61
220.738	17.74
221.122	41.4
221.507	18.15
221.892	11.48
222.276	11.01
222.661	-11.72
223.046	46.03
223.43	12.7
223.815	12.98
224.199	17.1
224.583	18.25
224.968	19
225.352	8.19
225.736	18.63
226.121	8.26
226.505	13.26
226.889	16.03
227.273	16.85
227.657	13.86
228.041	16.41
228.425	18.5
228.809	12.34
229.193	13.34
229.577	15.94
229.961	14.1
230.344	13.81
230.728	11.44
231.112	12.89
231.495	12.1
231.879	12.48
232.263	12.6
232.646	10.77
233.03	10.89
233.413	12.04
233.797	14.16
234.18	14.59
234.563	16.34
234.946	13.4
235.33	11.87
235.713	10.77
236.096	13.44
236.479	11.55
236.862	12.89
237.245	12.36
237.628	13.26
238.011	13.97
238.394	12.62
238.777	13.32
239.16	13.49
239.543	12.8
239.925	11.96
240.308	12.86
240.691	12.46
241.073	14.22
241.456	10.06
241.838	13.62
242.221	12.62
242.603	11.47
242.986	11.47
243.368	11.01
243.75	12.15
244.133	12.01
244.515	11.17
244.897	11.11
245.279	11.16
245.661	11.6
246.043	11.09
246.425	11.24
246.807	11.62
247.189	10.88
247.571	11.83
247.953	11.81
248.335	11.2
248.717	10.96
249.098	10.93
249.48	10.51
249.862	10.65
250.243	10.39
250.625	11
251.006	10.6
251.388	10.51
251.769	10.75
252.151	10.82
252.532	10.66
252.913	11.1
253.295	11.35
253.676	11.82
254.057	11.04
254.438	11.25
254.819	10.11
255.2	10.69
255.581	10.65
255.962	10.61
256.343	9.25
256.724	10.39
257.105	10.5
257.486	10.59
257.867	10.39
258.247	10.62
258.628	12.18
259.009	10.24
259.389	9.95
259.77	10.12
260.15	10.49
260.531	9.66
260.911	9.55
261.292	10.22
261.672	9.93
262.052	9.7
262.432	9.87
262.813	9.82
263.193	9.37
263.573	9.99
263.953	9.34
264.333	10.58
264.713	10.04
265.093	9.73
265.473	9.69
265.853	9.51
266.233	9.44
266.612	9.59
266.992	10.46
267.372	9.16
267.752	9.94
268.131	9.49
268.511	9.28
268.89	10.14
269.27	9.68
269.649	9.27
270.029	9.52
270.408	9.41
270.787	9.23
271.167	9.44
271.546	9.51
271.925	9.82
272.304	8.92
272.683	9.94
273.062	9.8
273.441	9.51
273.82	9.58
274.199	9.45
274.578	9.25
274.957	9.03
275.336	8.97
275.715	9.04
276.093	8.53
276.472	9.02
276.851	9.13
277.229	8.73
277.608	9.7
277.986	8.98
278.365	8.66
278.743	8.7
279.122	9.33
279.5	10.29
279.878	8.38
280.257	10.1
280.635	9.39
281.013	9.39
281.391	8.44
281.769	9.14
282.147	9.35
282.525	9.65
282.903	8.53
283.281	8.65
283.659	9.18
284.037	8.68
284.415	8.76
284.792	8.35
285.17	8.8
285.548	9.01
285.925	9.07
286.303	8.54
286.68	8.08
287.058	8.86
287.435	8.88
287.813	8.29
288.19	8.29
288.567	8.53
288.945	8.18
289.322	8.13
289.699	8.33
290.076	8.31
290.453	8.06
290.83	8.18
291.207	8.59
291.584	8.21
291.961	8.18
292.338	8.34
292.715	8.45
293.092	7.86
293.469	8.26
293.845	7.84
294.222	8.3
294.599	8.62
294.975	8.37
295.352	7.91
295.728	7.43
296.105	8.04
296.481	8.14
296.858	7.7
297.234	8.19
297.61	7.65
297.986	7.86
298.363	7.33
298.739	7.92
299.115	7.78
299.491	7.88
299.867	7.49
300.243	7.37
300.619	7.72
300.995	7.46
301.371	7.72
301.746	7.89
302.122	7.67
302.498	7.47
302.874	7.56
303.249	7.92
303.625	7.48
304	8.09
304.376	7.61
304.751	7.26
305.127	7.5
305.502	7.91
305.878	7.45
306.253	7.53
306.628	6.81
307.003	7.44
307.378	6.92
307.754	6.85
308.129	6.93
308.504	6.95
308.879	7.12
309.254	7.59
309.629	6.98
310.003	7.52
310.378	7.98
310.753	7.25
311.128	7.14
311.502	7.4
311.877	6.63
312.252	6.94
312.626	7.05
313.001	7.21
313.375	7.02
313.75	7.06
314.124	7.53
314.498	6.77
314.873	6.6
315.247	7.26
315.621	7.22
315.995	7.19
316.369	7.22
316.743	7.06
317.117	7.16
317.491	7.33
317.865	6.9
318.239	6.8
318.613	7.1
318.987	6.85
319.361	6.58
319.734	6.58
320.108	6.9
320.482	6.61
320.855	6.55
321.229	7.84
321.602	7.6
321.976	7.06
322.349	6.98
322.723	6.94
323.096	6.59
323.469	6.98
323.843	6.56
324.216	7.21
324.589	6.97
324.962	6.45
325.335	6.61
325.708	6.45
326.081	6.95
326.454	6.37
326.827	6.77
327.2	6.76
327.573	7.56
327.945	7.01
328.318	6.72
328.691	6.8
329.063	6.4
329.436	6.4
329.809	6.37
330.181	6.73
330.553	5.98
330.926	6.69
331.298	6.61
331.671	6.87
332.043	5.73
332.415	7.11
332.787	7
333.159	6.87
333.532	6.51
333.904	6.85
334.276	6.46
334.648	5.86
335.02	6.73
335.391	6.53
335.763	6.97
336.135	6.74
336.507	6.59
336.879	6
337.25	6.85
337.622	6.69
337.993	6.57
338.365	7
338.736	6.67
339.108	7.03
339.479	6.47
339.851	6.62
340.222	6.16
340.593	6.33
340.964	6.5
341.336	6.94
341.707	6.56
342.078	6.76
342.449	6.42
342.82	6.47
343.191	6.45
343.562	6.13
343.933	6.84
344.303	6.01
344.674	6.49
345.045	6.25
345.416	6.95
345.786	6.85
346.157	6.65
346.527	6.16
346.898	6.64
347.268	6.14
347.639	6.47
348.009	6.27
348.38	6.75
348.75	7.06
349.12	6.87
349.49	6.89
349.861	6.8
350.231	6.34
350.601	6.86
350.971	6.99
351.341	6.51
351.711	6.78
352.081	6.55
352.45	6.75
352.82	6.7
353.19	6.88
353.56	6.4
353.929	6.81
354.299	6.88
354.669	6.29
355.038	6.32
355.408	6.42
355.777	6.89
356.147	6.69
356.516	6.78
356.885	6.67
357.254	7.02
357.624	6.58
357.993	6.76
358.362	6.93
358.731	6.63
359.1	6.36
359.469	6.78
359.838	5.94
360.207	6.64
360.576	6.68
360.945	6.47
361.314	6.51
361.682	6.74
362.051	6.73
362.42	6.93
362.788	6.49
363.157	6.89
363.525	6.5
363.894	6.48
364.262	6.64
364.631	6.75
364.999	6.7
365.367	6.97
365.735	7.18
366.104	6.58
366.472	7.1
366.84	6.79
367.208	7.1
367.576	7.02
367.944	6.83
368.312	7.25
368.68	6.65
369.048	6.79
369.416	6.83
369.783	6.56
370.151	6.83
370.519	6.88
370.886	7.02
371.254	6.96
371.621	6.75
371.989	6.98
372.356	6.79
372.724	7
373.091	7
373.458	6.98
373.826	7.31
374.193	7.07
374.56	6.97
374.927	7.2
375.294	6.7
375.661	6.99
376.028	7.36
376.395	7.04
376.762	6.66
377.129	7.26
377.496	7.07
377.863	7.14
378.229	7.19
378.596	7.26
378.963	7.16
379.329	7.19
379.696	7.4
380.062	6.91
380.429	7.39
380.795	7.13
381.161	7.18
381.528	7.26
381.894	6.74
382.26	7.15
382.626	7.42
382.993	7.26
383.359	7.03
383.725	7.24
384.091	7.42
384.457	7.1
384.823	6.85
385.188	7.37
385.554	7.27
385.92	7.69
386.286	7.4
386.651	7.13
387.017	7.27
387.383	7.22
387.748	7.36
388.114	7.3
388.479	7.06
388.845	6.9
389.21	7.33
389.575	7.4
389.94	7.29
390.306	7.6
390.671	7.41
391.036	6.76
391.401	7.31
391.766	7.2
392.131	7.38
392.496	7.45
392.861	7.41
393.226	7.38
393.591	7.31
393.956	7.4
394.32	7.39
394.685	7.37
395.05	7.7
395.414	7.36
395.779	7.65
396.143	7.23
396.508	7.43
396.872	7.67
397.236	7.58
397.601	7.33
397.965	7.66
398.329	7.39
398.694	7.71
399.058	7.5
399.422	7.4
399.786	7.57
400.15	7.49
400.514	7.56
400.878	7.41
401.242	7.52
401.605	7.42
401.969	7.19
402.333	7.44
402.697	7.38
403.06	7.42
403.424	7.51
403.787	8.15
404.151	7.41
404.514	7.73
404.878	7.9
405.241	7.92
405.604	7.79
405.968	7.57
406.331	7.66
406.694	7.79
407.057	7.65
407.42	7.67
407.783	7.74
408.146	7.78
408.509	7.6
408.872	7.56
409.235	7.54
409.598	7.6
409.961	7.8
410.323	7.66
410.686	7.64
411.049	8.12
411.411	7.73
411.774	7.53
412.136	7.78
412.499	7.77
412.861	7.75
413.223	7.68
413.586	7.7
413.948	7.76
414.31	7.47
414.672	7.79
415.035	7.81
415.397	7.96
415.759	8.06
416.121	7.81
416.483	7.71
416.845	7.82
417.206	7.7
417.568	7.92
417.93	7.93
418.292	7.95
418.653	7.88
419.015	7.8
419.377	7.84
419.738	7.79
420.1	7.69
420.461	7.75
420.822	7.81
421.184	7.8
421.545	7.74
421.906	7.78
422.267	7.73
422.629	7.77
422.99	7.78
423.351	7.57
423.712	7.65
424.073	7.63
424.434	7.89
424.795	7.82
425.155	7.81
425.516	7.7
425.877	7.79
426.238	7.65
426.598	7.7
426.959	7.76
427.32	7.78
427.68	7.75
428.041	7.69
428.401	7.99
428.761	8.06
429.122	7.95
429.482	8.06
429.842	7.85
430.202	7.79
430.563	8.02
430.923	8.11
431.283	8.08
431.643	8.16
432.003	8.18
432.363	8.33
432.722	7.97
433.082	8.05
433.442	8.06
433.802	8.17
434.161	8.09
434.521	8.04
434.881	8.07
435.24	7.9
435.6	7.86
435.959	7.92
436.319	7.96
436.678	8.11
437.037	8.11
437.396	7.91
437.756	8.25
438.115	8.14
438.474	8.1
438.833	8.04
439.192	7.96
439.551	8.14
439.91	8.26
440.269	8.24
440.628	7.97
440.987	8.29
441.345	8.16
441.704	8.17
442.063	8.06
442.421	7.92
442.78	8.04
443.138	8.04
443.497	8.08
443.855	8.15
444.214	7.99
444.572	8.28
444.93	8.12
445.288	8.16
445.647	8.12
446.005	8.18
446.363	8.16
446.721	8.06
447.079	8.02
447.437	8.15
447.795	8.24
448.153	7.95
448.51	8.23
448.868	7.98
449.226	7.99
449.584	8
449.941	8.05
450.299	8.25
450.656	8.12
451.014	8.15
451.371	8.15
451.729	8.14
452.086	8.27
452.443	8.25
452.801	8.3
453.158	8.19
453.515	8.36
453.872	8.22
454.229	8.16
454.586	8.3
454.943	8.09
455.3	8.14
455.657	8.19
456.014	8.25
456.371	8.25
456.727	8.44
457.084	8.29
457.441	8.3
457.797	8.27
458.154	8.25
458.51	8.19
458.867	8.3
459.223	8.39
459.58	8.3
459.936	8.47
460.292	8.3
460.648	8.38
461.005	8.34
461.361	8.19
461.717	8.17
462.073	8.26
462.429	8.05
462.785	8.14
463.141	8.27
463.496	8.33
463.852	8.22
464.208	8.35
464.564	8.46
464.919	8.19
465.275	8.36
465.631	8.43
465.986	8.44
466.342	8.53
466.697	8.45
467.052	8.33
467.408	8.47
467.763	8.41
468.118	8.59
468.473	8.33
468.829	8.29
469.184	8.43
469.539	8.53
469.894	8.45
470.249	8.35
470.603	8.12
470.958	8.42
471.313	8.5
471.668	8.6
472.023	8.54
472.377	8.53
472.732	8.44
473.086	8.81
473.441	8.27
473.795	8.78
474.15	8.41
474.504	8.29
474.859	8.57
475.213	8.34
475.567	8.41
475.921	8.58
476.275	8.47
476.63	8.41
476.984	8.4
477.338	8.49
477.692	8.51
478.045	8.46
478.399	8.63
478.753	8.39
479.107	8.31
479.461	8.33
479.814	8.55
480.168	8.52
480.521	8.45
480.875	8.6
481.228	8.45
481.582	8.38
481.935	8.42
482.289	8.36
482.642	8.32
482.995	8.37
483.348	8.47
483.701	8.51
484.055	8.49
484.408	8.42
484.761	8.42
485.114	8.2
485.466	8.25
485.819	8.08
486.172	8.07
486.525	8.05
486.878	7.95
487.23	8
487.583	8.15
487.936	8.22
488.288	8.31
488.641	8.22
488.993	8.16
489.345	8.27
489.698	8.14
490.05	8.2
490.402	8.16
490.754	8.16
491.107	8.11
491.459	8.18
491.811	8.26
492.163	8.33
492.515	8.43
492.866	8.41
493.218	8.44
493.57	8.33
493.922	8.27
494.274	8.26
494.625	8.22
494.977	8.32
495.328	8.38
495.68	8.39
496.031	8.49
496.383	8.55
496.734	8.57
497.086	8.41
497.437	8.65
497.788	8.53
498.139	8.62
498.49	8.7
498.842	8.31
499.193	8.35
499.544	8.54
499.894	8.49
500.245	8.57
500.596	8.53
500.947	8.52
501.298	8.5
501.648	8.55
501.999	8.68
502.35	8.65
502.7	8.61
503.051	8.59
503.401	8.64
503.752	8.65
504.102	8.6
504.452	8.57
504.803	8.76
505.153	8.71
505.503	8.57
505.853	8.72
506.203	8.7
506.553	8.59
506.903	8.71
507.253	8.51
507.603	8.64
507.953	8.51
508.303	8.85
508.652	8.6
509.002	8.84
509.352	8.51
509.701	8.76
510.051	8.75
510.4	8.64
510.75	8.6
511.099	8.51
511.449	8.58
511.798	8.52
512.147	8.56
512.496	8.48
512.846	8.63
513.195	8.64
513.544	8.64
513.893	8.74
514.242	8.48
514.591	8.61
514.939	8.59
515.288	8.47
515.637	8.6
515.986	8.59
516.334	8.52
516.683	8.62
517.032	8.78
517.38	8.74
517.729	8.48
518.077	8.63
518.426	8.66
518.774	8.69
519.122	8.76
519.47	8.59
519.819	8.64
520.167	8.54
520.515	8.52
520.863	8.47
521.211	8.48
521.559	8.49
521.907	8.54
522.255	8.55
522.602	8.58
522.95	8.54
523.298	8.59
523.645	8.73
523.993	8.62
524.341	8.62
524.688	8.65
525.036	8.63
525.383	8.71
525.73	8.76
526.078	8.8
526.425	8.61
526.772	8.74
527.119	8.59
527.466	8.6
527.814	8.52
528.161	8.44
528.508	8.51
528.854	8.5
529.201	8.56
529.548	8.39
529.895	8.41
530.242	8.38
530.588	8.28
530.935	8.25
531.282	8.23
531.628	8.25
531.975	8.19
532.321	8.23
532.667	8.31
533.014	8.36
533.36	8.46
533.706	8.59
534.052	8.56
534.399	8.5
534.745	8.49
535.091	8.43
535.437	8.43
535.783	8.26
536.129	8.39
536.474	8.39
536.82	8.32
537.166	8.56
537.512	8.54
537.857	8.53
538.203	8.58
538.549	8.48
538.894	8.48
539.239	8.38
539.585	8.38
539.93	8.58
540.276	8.5
540.621	8.59
540.966	8.65
541.311	8.52
541.656	8.41
542.001	8.7
542.346	8.56
542.691	8.63
543.036	8.46
543.381	8.34
543.726	8.33
544.071	8.33
544.415	8.26
544.76	8.24
545.105	8.25
545.449	8.33
545.794	8.41
546.138	8.46
546.483	8.45
546.827	8.38
547.171	8.51
547.516	8.54
547.86	8.56
548.204	8.65
548.548	8.63
548.892	8.62
549.236	8.45
549.58	8.47
549.924	8.58
550.268	8.6
550.612	8.43
550.956	8.62
551.3	8.63
551.643	8.64
551.987	8.74
552.33	8.86
552.674	8.59
553.017	8.5
553.361	8.54
553.704	8.74
554.048	8.68
554.391	8.66
554.734	8.58
555.077	8.42
555.42	8.57
555.764	8.65
556.107	8.57
556.45	8.58
556.793	8.53
557.135	8.69
557.478	8.41
557.821	8.53
558.164	8.7
558.507	8.73
558.849	8.42
559.192	8.65
559.534	8.8
559.877	8.64
560.219	8.48
560.562	8.41
560.904	8.52
561.246	8.8
561.589	8.6
561.931	8.67
562.273	8.46
562.615	8.55
562.957	8.5
563.299	8.58
563.641	8.48
563.983	8.7
564.325	8.67
564.667	8.59
565.008	8.5
565.35	8.59
565.692	8.59
566.033	8.46
566.375	8.54
566.716	8.6
567.058	8.43
567.399	8.57
567.741	8.74
568.082	8.4
568.423	8.61
568.764	8.77
569.105	8.22
569.447	8.52
569.788	8.36
570.129	8.31
570.47	8.65
570.811	8.43
571.151	8.61
571.492	8.41
571.833	8.32
572.174	8.36
572.514	8.4
572.855	8.34
573.195	8.3
573.536	8.3
573.876	8.42
574.217	8.49
574.557	8.4
574.898	8.55
575.238	8.32
575.578	8.34
575.918	8.26
576.258	8.24
576.598	8.46
576.938	8.54
577.278	8.49
577.618	8.33
577.958	8.46
578.298	8.35
578.638	8.35
578.977	8.3
579.317	8.27
579.657	8.26
579.996	8.43
580.336	8.47
580.675	8.53
581.014	8.02
581.354	8.14
581.693	8.6
582.032	8.59
582.372	8.38
582.711	8.34
583.05	8.12
583.389	8.31
583.728	8.42
584.067	8.57
584.406	8.44
584.745	8.19
585.083	8.47
585.422	8.39
585.761	8.31
586.1	8.32
586.438	8.33
586.777	8.23
587.115	8.41
587.454	8.01
587.792	8.32
588.13	8.23
588.469	8.09
588.807	8.5
589.145	8.41
589.483	8.32
589.821	8.22
590.159	8.32
590.497	8.25
590.835	8.39
591.173	8.08
591.511	8.31
591.849	8.36
592.187	8.18
592.524	8.56
592.862	8.34
593.2	8.36
593.537	7.98
593.875	8.17
594.212	8.07
594.55	8.31
594.887	8.11
595.224	8.18
595.561	8.32
595.899	8.44
596.236	8.24
596.573	8.21
596.91	8.14
597.247	8.13
597.584	8.26
597.921	8.12
598.258	8.41
598.594	8.18
598.931	8.18
599.268	8.08
599.604	8.35
599.941	8.12
600.277	7.95
600.614	8.11
600.95	8.12
601.287	8.05
601.623	8.25
601.959	8.23
602.296	8.19
602.632	7.98
602.968	8.2
603.304	8.25
603.64	8
603.976	8.22
604.312	8.22
604.648	8.01
604.984	8.18
605.319	7.7
605.655	7.83
605.991	8.15
606.326	8.15
606.662	7.99
606.998	7.99
607.333	7.98
607.668	7.98
608.004	8.03
608.339	7.93
608.674	7.97
609.01	7.89
609.345	8.1
609.68	7.97
610.015	8.04
610.35	8
610.685	7.95
611.02	8.01
611.355	8.04
611.689	7.97
612.024	7.95
612.359	7.85
612.694	7.89
613.028	8.04
613.363	7.84
613.697	7.94
614.032	8.03
614.366	8.03
614.7	7.77
615.035	8.32
615.369	7.81
615.703	7.81
616.037	8.05
616.371	8.12
616.705	8.2
617.039	8.09
617.373	7.74
617.707	7.74
618.041	7.72
618.375	8.02
618.709	7.99
619.042	7.92
619.376	8.16
619.71	7.56
620.043	7.69
620.377	7.68
620.71	7.78
621.043	7.98
621.377	8
621.71	7.65
622.043	7.84
622.376	7.84
622.709	7.88
623.043	7.93
623.376	7.8
623.709	7.87
624.041	7.75
624.374	8.19
624.707	8.04
625.04	8.04
625.373	7.45
625.705	8.02
626.038	7.95
626.37	7.88
626.703	7.94
627.035	7.97
627.368	7.77
627.7	8.17
628.032	8.24
628.365	7.95
628.697	7.41
629.029	7.83
629.361	7.89
629.693	8.05
630.025	7.74
630.357	8.01
630.689	7.76
631.021	7.79
631.353	7.67
631.684	7.69
632.016	7.72
632.348	7.69
632.679	7.61
633.011	7.85
633.342	7.71
633.674	7.94
634.005	7.46
634.336	7.89
634.668	8.05
634.999	7.9
635.33	7.91
635.661	7.92
635.992	7.79
636.323	7.8
636.654	7.5
636.985	7.43
637.316	7.39
637.647	7.92
637.977	7.49
638.308	8.23
638.639	7.66
638.969	7.84
639.3	7.5
639.63	7.96
639.961	7.53
640.291	7.55
640.622	8.07
640.952	7.85
641.282	7.69
641.612	7.53
641.943	7.83
642.273	7.77
642.603	7.4
642.933	7.36
643.263	7.29
643.592	7.5
643.922	7.69
644.252	7.44
644.582	7.81
644.911	7.7
645.241	7.84
645.571	7.58
645.9	7.69
646.23	7.81
646.559	7.57
646.888	7.86
647.218	7.55
647.547	7.32
647.876	7.75
648.205	7.63
648.534	7.72
648.863	7.77
649.192	7.34
649.521	7.61
649.85	8.1
650.179	7.72
650.508	7.7
650.837	7.71
651.165	7.56
651.494	7.69
651.822	7.55
652.151	7.33
652.479	7.52
652.808	7.18
653.136	7.96
653.465	7.55
653.793	7.59
654.121	7.68
654.449	7.59
654.777	7.76
655.105	7.6
655.433	8.24
655.761	8.34
656.089	7.51
656.417	7.53
656.745	7.34
657.073	7.87
657.4	8.18
657.728	7.03
658.056	8.03
658.383	7.93
658.711	7.87
659.038	7.37
659.365	7.58
659.693	7.3
660.02	7.68
660.347	7.88
660.674	7.35
661.001	7.06
661.329	7.53
661.656	7.71
661.982	7.24
662.309	7.76
662.636	7.71
662.963	7.35
663.29	7.47
663.616	7.77
663.943	7.56
664.27	7.9
664.596	7.21
664.923	7.63
665.249	7.78
665.576	6.77
665.902	6.86
666.228	7.5
666.554	7.35
666.881	7.81
667.207	7.08
667.533	7.25
667.859	7.81
668.185	7.5
668.511	7.49
668.837	6.86
669.162	7.51
669.488	7.37
669.814	7.46
670.139	7.59
670.465	7.64
670.791	7.38
671.116	7.2
671.442	8.05
671.767	6.88
672.092	8.18
672.418	7.94
672.743	7.8
673.068	7.6
673.393	6.96
673.718	7.62
674.043	7.64
674.368	7.66
674.693	7.36
675.018	7.54
675.343	7.94
675.667	7.45
675.992	7.48
676.317	7.8
676.641	7.21
676.966	7.44
677.29	7.09
677.615	7.61
677.939	7.71
678.264	7.66
678.588	8.31
678.912	7.68
679.236	7.69
679.56	6.94
679.885	7.43
680.209	7.96
680.532	7.58
680.856	7.26
681.18	7.18
681.504	7.21
681.828	7.89
682.152	7.85
682.475	8.15
682.799	7.67
683.122	7.67
683.446	7.32
683.769	7.38
684.093	7.08
684.416	7.37
684.739	7.68
685.062	8.59
685.386	7.37
685.709	7.61
686.032	7.21
686.355	7.24
686.678	8.06
687.001	7.47
687.324	8.18
687.646	7.75
687.969	8.13
688.292	7.9
688.614	7.88
688.937	7.94
689.26	6.84
689.582	7.5
689.904	7.19
690.227	7.62
690.549	7.85
690.871	7.55
