Data from 0188_chest_Reflection__1__143.txt Node

Date: Fri Sep 22 21:27:16 CDT 2023
User: ToomeyLab
Spectrometer: FLMS14357
Trigger mode: 0
Integration Time (sec): 1.000000E-2
Scans to average: 100
Electric dark correction enabled: true
Nonlinearity correction enabled: false
Boxcar width: 0
XAxis mode: Wavelengths
Number of Pixels in Spectrum: 2048
>>>>>Begin Spectral Data<<<<<
189.047	440.41
189.435	440.41
189.823	440.41
190.211	-71
190.599	4851.43
190.987	111.34
191.375	19.07
191.763	-1073
192.151	732.39
192.538	17.81
192.926	161.04
193.314	207.68
193.702	96.82
194.089	78.35
194.477	712.53
194.864	101.83
195.252	48.7
195.639	104.32
196.027	-583.76
196.414	5.82
196.801	55.31
197.189	-44.06
197.576	107.28
197.963	-216.4
198.351	16.98
198.738	20.07
199.125	11.15
199.512	15.65
199.899	68.27
200.286	23.01
200.673	5.63
201.06	10.31
201.447	61.14
201.833	11.56
202.22	86.44
202.607	101.31
202.994	80.38
203.38	40.12
203.767	34.57
204.154	65.96
204.54	45.94
204.927	31.01
205.313	41.66
205.699	46.88
206.086	54.36
206.472	57.21
206.858	35.3
207.245	-10.23
207.631	50.83
208.017	25.42
208.403	35.5
208.789	41.06
209.175	54.14
209.561	33.98
209.947	18.6
210.333	45.23
210.719	41.17
211.105	33.96
211.491	27.12
211.876	50.11
212.262	41.72
212.648	41.08
213.034	44.81
213.419	15.89
213.805	16.54
214.19	13.17
214.576	32.09
214.961	5.09
215.346	27.31
215.732	44.82
216.117	16.83
216.502	24.54
216.888	2.4
217.273	25.49
217.658	21.21
218.043	27.71
218.428	46.26
218.813	-3.91
219.198	37.77
219.583	26.29
219.968	4.09
220.353	23.54
220.738	14.28
221.122	8.96
221.507	21.55
221.892	4.96
222.276	-3.81
222.661	19.34
223.046	35.58
223.43	20.67
223.815	14.05
224.199	17.62
224.583	15.9
224.968	10.73
225.352	4.72
225.736	7.97
226.121	3.98
226.505	7.28
226.889	4.47
227.273	4.99
227.657	3.14
228.041	3.15
228.425	9.59
228.809	1.99
229.193	4.32
229.577	5.76
229.961	6.31
230.344	5.04
230.728	2.46
231.112	4.99
231.495	3.55
231.879	4.58
232.263	2.59
232.646	2.61
233.03	2.61
233.413	4.9
233.797	4.94
234.18	3.64
234.563	5.21
234.946	2.74
235.33	3.55
235.713	2.81
236.096	2.93
236.479	2.13
236.862	4.73
237.245	4.25
237.628	3.83
238.011	5.77
238.394	6.45
238.777	5.98
239.16	4.3
239.543	5.67
239.925	4.87
240.308	6.41
240.691	5.6
241.073	6.31
241.456	3.9
241.838	3.86
242.221	3.68
242.603	4.53
242.986	3.55
243.368	3.8
243.75	3.57
244.133	4.3
244.515	3.44
244.897	3.29
245.279	3.35
245.661	3.8
246.043	3.73
246.425	3.71
246.807	4.37
247.189	3.09
247.571	4.84
247.953	4.36
248.335	4.08
248.717	3.56
249.098	3.37
249.48	3.19
249.862	3.23
250.243	3.33
250.625	3.77
251.006	3.11
251.388	3.53
251.769	3.71
252.151	3.39
252.532	3.12
252.913	4.14
253.295	4.81
253.676	4.23
254.057	4.04
254.438	3.83
254.819	3.62
255.2	4.12
255.581	3.85
255.962	4.98
256.343	3.09
256.724	3.79
257.105	4.71
257.486	3.25
257.867	4.13
258.247	3.79
258.628	4.49
259.009	2.9
259.389	3.72
259.77	4.47
260.15	4
260.531	3.5
260.911	3.09
261.292	3.19
261.672	3.26
262.052	3.07
262.432	3.23
262.813	3.28
263.193	2.93
263.573	3.85
263.953	3.23
264.333	2.98
264.713	3.46
265.093	2.98
265.473	3.62
265.853	3.65
266.233	3.96
266.612	2.81
266.992	4.67
267.372	3.79
267.752	4.04
268.131	3.4
268.511	2.91
268.89	3.81
269.27	2.67
269.649	3.28
270.029	3.55
270.408	3.41
270.787	3.06
271.167	3.82
271.546	2.82
271.925	3.34
272.304	2.61
272.683	3.65
273.062	3.8
273.441	3.23
273.82	3.66
274.199	3.69
274.578	2.92
274.957	3.6
275.336	3.33
275.715	3.65
276.093	3.08
276.472	2.94
276.851	2.93
277.229	2.63
277.608	4.02
277.986	3.02
278.365	3.74
278.743	3.19
279.122	3.52
279.5	4.03
279.878	3.43
280.257	3.9
280.635	3.33
281.013	4
281.391	3.72
281.769	3.96
282.147	3.35
282.525	3.8
282.903	3.55
283.281	3.33
283.659	3.49
284.037	2.87
284.415	3.37
284.792	3.25
285.17	3.46
285.548	3.69
285.925	3.57
286.303	3.09
286.68	2.86
287.058	2.96
287.435	3.35
287.813	2.73
288.19	2.6
288.567	2.98
288.945	2.98
289.322	3.23
289.699	2.86
290.076	3.4
290.453	3.27
290.83	2.88
291.207	3.15
291.584	2.7
291.961	2.99
292.338	3.55
292.715	3.6
293.092	3.36
293.469	3.22
293.845	3.28
294.222	4.05
294.599	3.72
294.975	4.52
295.352	3.79
295.728	3.34
296.105	3.85
296.481	3.64
296.858	3.5
297.234	3.23
297.61	3.47
297.986	3.55
298.363	3.21
298.739	3.05
299.115	3.48
299.491	3.66
299.867	3.6
300.243	3.01
300.619	3.39
300.995	3.66
301.371	3.63
301.746	3.62
302.122	3.57
302.498	3.21
302.874	3.04
303.249	3.79
303.625	3.17
304	3.58
304.376	4.29
304.751	3.5
305.127	3.47
305.502	4.34
305.878	3.48
306.253	3.69
306.628	3.64
307.003	3.74
307.378	3.51
307.754	3.39
308.129	3.63
308.504	3.41
308.879	3.93
309.254	3.62
309.629	3.6
310.003	3.88
310.378	4.02
310.753	3.62
311.128	3.58
311.502	3.96
311.877	3.39
312.252	4.11
312.626	3.46
313.001	3.65
313.375	3.5
313.75	3.92
314.124	3.89
314.498	3.23
314.873	3.37
315.247	3.71
315.621	4.15
315.995	3.84
316.369	3.67
316.743	3.73
317.117	4.29
317.491	3.95
317.865	3.59
318.239	4.25
318.613	4.03
318.987	3.5
319.361	3.87
319.734	4.07
320.108	4.11
320.482	3.45
320.855	3.43
321.229	4.37
321.602	3.79
321.976	3.69
322.349	3.89
322.723	4.01
323.096	3.89
323.469	3.96
323.843	3.33
324.216	4.26
324.589	3.8
324.962	3.59
325.335	3.53
325.708	3.75
326.081	4.1
326.454	3.73
326.827	4
327.2	3.67
327.573	4.15
327.945	4.3
328.318	3.92
328.691	3.73
329.063	3.63
329.436	3.74
329.809	4.24
330.181	3.87
330.553	3.52
330.926	4.1
331.298	3.45
331.671	4.13
332.043	3.21
332.415	3.44
332.787	4.08
333.159	3.42
333.532	3.45
333.904	3.62
334.276	3.68
334.648	3.09
335.02	3.39
335.391	3.6
335.763	3.66
336.135	4.09
336.507	4.09
336.879	3.73
337.25	3.91
337.622	4.07
337.993	4.02
338.365	3.93
338.736	4.23
339.108	3.88
339.479	3.52
339.851	3.62
340.222	3.99
340.593	3.73
340.964	3.68
341.336	3.53
341.707	3.62
342.078	4.32
342.449	3.69
342.82	3.39
343.191	3.58
343.562	3.4
343.933	3.83
344.303	3.69
344.674	3.86
345.045	3.61
345.416	3.88
345.786	3.52
346.157	3.82
346.527	3.9
346.898	3.66
347.268	3.69
347.639	4.04
348.009	3.76
348.38	4.01
348.75	4.07
349.12	3.94
349.49	4.05
349.861	3.72
350.231	3.92
350.601	4.11
350.971	4.15
351.341	3.94
351.711	3.94
352.081	3.73
352.45	3.65
352.82	3.79
353.19	4.06
353.56	3.63
353.929	3.57
354.299	4.17
354.669	4
355.038	3.76
355.408	3.74
355.777	4.31
356.147	3.73
356.516	3.83
356.885	3.96
357.254	3.89
357.624	3.47
357.993	3.66
358.362	3.6
358.731	3.74
359.1	3.74
359.469	3.78
359.838	3.37
360.207	3.4
360.576	3.83
360.945	3.81
361.314	3.93
361.682	4.09
362.051	4.31
362.42	3.62
362.788	3.25
363.157	3.82
363.525	3.65
363.894	3.58
364.262	3.63
364.631	3.74
364.999	3.69
365.367	3.94
365.735	3.51
366.104	3.4
366.472	3.91
366.84	3.8
367.208	4.35
367.576	3.86
367.944	3.7
368.312	4.03
368.68	3.93
369.048	4.16
369.416	3.82
369.783	3.83
370.151	3.66
370.519	3.49
370.886	4.05
371.254	4.05
371.621	3.65
371.989	3.76
372.356	3.8
372.724	4.26
373.091	4.2
373.458	4.09
373.826	3.98
374.193	4.12
374.56	3.96
374.927	3.97
375.294	3.76
375.661	4.01
376.028	4.26
376.395	4.05
376.762	3.89
377.129	4.06
377.496	4.04
377.863	3.82
378.229	4.12
378.596	4.03
378.963	4.03
379.329	3.94
379.696	4.19
380.062	3.68
380.429	3.9
380.795	4.06
381.161	3.89
381.528	3.84
381.894	3.73
382.26	3.96
382.626	4.04
382.993	4.08
383.359	3.77
383.725	3.89
384.091	4.05
384.457	3.99
384.823	3.76
385.188	3.95
385.554	4.12
385.92	3.92
386.286	3.81
386.651	4
387.017	3.85
387.383	3.88
387.748	3.68
388.114	3.85
388.479	4.25
388.845	3.69
389.21	3.68
389.575	3.98
389.94	3.98
390.306	4.03
390.671	4.07
391.036	3.68
391.401	3.83
391.766	3.86
392.131	3.85
392.496	4.13
392.861	3.83
393.226	3.99
393.591	3.84
393.956	4
394.32	3.99
394.685	3.76
395.05	4.27
395.414	4.03
395.779	4.08
396.143	4.02
396.508	3.83
396.872	3.95
397.236	4.01
397.601	3.73
397.965	4.1
398.329	3.93
398.694	3.86
399.058	4.14
399.422	3.84
399.786	3.88
400.15	3.98
400.514	4.03
400.878	4.08
401.242	4.07
401.605	3.74
401.969	3.87
402.333	4.24
402.697	3.74
403.06	3.86
403.424	4
403.787	4.21
404.151	4.3
404.514	4.12
404.878	4.32
405.241	4.43
405.604	4.14
405.968	3.99
406.331	4.04
406.694	4.25
407.057	3.9
407.42	3.94
407.783	4.04
408.146	3.93
408.509	3.89
408.872	4.06
409.235	4.15
409.598	4.14
409.961	4.05
410.323	3.95
410.686	4.07
411.049	4.08
411.411	4.24
411.774	4.09
412.136	3.93
412.499	3.95
412.861	4.21
413.223	4.04
413.586	4.07
413.948	4.02
414.31	4.01
414.672	3.98
415.035	4.02
415.397	4.27
415.759	4.29
416.121	4.13
416.483	4.02
416.845	4.05
417.206	3.88
417.568	4.04
417.93	4.14
418.292	4.13
418.653	3.98
419.015	4.03
419.377	3.96
419.738	4.11
420.1	3.98
420.461	3.99
420.822	3.85
421.184	3.97
421.545	4.14
421.906	3.95
422.267	3.9
422.629	3.96
422.99	3.92
423.351	3.95
423.712	3.82
424.073	3.93
424.434	3.97
424.795	3.94
425.155	4.11
425.516	3.95
425.877	4.02
426.238	3.91
426.598	4
426.959	3.97
427.32	4
427.68	3.97
428.041	4
428.401	4.19
428.761	4.3
429.122	4.16
429.482	4.18
429.842	4.08
430.202	4.12
430.563	4.34
430.923	4.22
431.283	4.21
431.643	4.34
432.003	4.29
432.363	4.34
432.722	4.28
433.082	4.24
433.442	4.02
433.802	4.44
434.161	4.14
434.521	4.19
434.881	4.21
435.24	4.05
435.6	3.96
435.959	4.12
436.319	4.08
436.678	4.37
437.037	4.26
437.396	4.08
437.756	4.16
438.115	4.16
438.474	4.29
438.833	4.23
439.192	4.34
439.551	4.06
439.91	4.46
440.269	4.28
440.628	4.15
440.987	4.14
441.345	4.23
441.704	4.27
442.063	4.1
442.421	4.14
442.78	4.13
443.138	4.06
443.497	4.19
443.855	4.08
444.214	3.97
444.572	4.21
444.93	4.18
445.288	4.24
445.647	4.39
446.005	4.11
446.363	4.03
446.721	4.13
447.079	4.07
447.437	4.18
447.795	4.3
448.153	4.13
448.51	4.13
448.868	4.16
449.226	4.2
449.584	4.21
449.941	4.1
450.299	4.26
450.656	4.26
451.014	4.33
451.371	4.25
451.729	4.44
452.086	4.26
452.443	4.39
452.801	4.36
453.158	4.26
453.515	4.34
453.872	4.22
454.229	4.43
454.586	4.49
454.943	4.31
455.3	4.29
455.657	4.16
456.014	4.36
456.371	4.38
456.727	4.57
457.084	4.47
457.441	4.47
457.797	4.35
458.154	4.36
458.51	4.28
458.867	4.29
459.223	4.32
459.58	4.49
459.936	4.47
460.292	4.4
460.648	4.45
461.005	4.44
461.361	4.54
461.717	4.15
462.073	4.34
462.429	4.16
462.785	4.21
463.141	4.22
463.496	4.45
463.852	4.43
464.208	4.35
464.564	4.7
464.919	4.35
465.275	4.58
465.631	4.57
465.986	4.55
466.342	4.51
466.697	4.49
467.052	4.45
467.408	4.58
467.763	4.55
468.118	4.72
468.473	4.43
468.829	4.37
469.184	4.48
469.539	4.46
469.894	4.48
470.249	4.48
470.603	4.47
470.958	4.71
471.313	4.51
471.668	4.5
472.023	4.66
472.377	4.48
472.732	4.38
473.086	4.76
473.441	4.51
473.795	4.89
474.15	4.46
474.504	4.46
474.859	4.71
475.213	4.42
475.567	4.54
475.921	4.38
476.275	4.52
476.63	4.56
476.984	4.47
477.338	4.64
477.692	4.61
478.045	4.68
478.399	4.59
478.753	4.59
479.107	4.56
479.461	4.45
479.814	4.6
480.168	4.66
480.521	4.69
480.875	4.67
481.228	4.61
481.582	4.43
481.935	4.62
482.289	4.64
482.642	4.52
482.995	4.52
483.348	4.57
483.701	4.64
484.055	4.48
484.408	4.44
484.761	4.59
485.114	4.47
485.466	4.42
485.819	4.35
486.172	4.29
486.525	4.29
486.878	4.33
487.23	4.41
487.583	4.44
487.936	4.5
488.288	4.52
488.641	4.45
488.993	4.47
489.345	4.4
489.698	4.39
490.05	4.48
490.402	4.47
490.754	4.43
491.107	4.45
491.459	4.57
491.811	4.52
492.163	4.65
492.515	4.6
492.866	4.73
493.218	4.62
493.57	4.64
493.922	4.5
494.274	4.57
494.625	4.58
494.977	4.68
495.328	4.69
495.68	4.72
496.031	4.74
496.383	4.89
496.734	4.91
497.086	4.79
497.437	4.84
497.788	4.81
498.139	4.89
498.49	4.91
498.842	4.82
499.193	4.72
499.544	4.89
499.894	4.83
500.245	4.92
500.596	4.78
500.947	4.92
501.298	4.85
501.648	4.89
501.999	4.95
502.35	4.93
502.7	5.11
503.051	4.93
503.401	5
503.752	4.9
504.102	5.04
504.452	4.96
504.803	4.91
505.153	4.98
505.503	4.93
505.853	5.07
506.203	4.96
506.553	5.19
506.903	4.98
507.253	4.9
507.603	4.95
507.953	5.18
508.303	5
508.652	5.03
509.002	5.15
509.352	4.9
509.701	5.12
510.051	4.99
510.4	5.11
510.75	5.09
511.099	4.94
511.449	5.14
511.798	5.22
512.147	5.07
512.496	5.04
512.846	5.13
513.195	5.19
513.544	5.17
513.893	5.16
514.242	5.06
514.591	5.11
514.939	5.28
515.288	5.05
515.637	5.16
515.986	5.13
516.334	5.27
516.683	5.32
517.032	5.35
517.38	5.35
517.729	5.16
518.077	5.41
518.426	5.32
518.774	5.46
519.122	5.16
519.47	5.3
519.819	5.33
520.167	5.37
520.515	5.24
520.863	5.21
521.211	5.17
521.559	5.24
521.907	5.37
522.255	5.37
522.602	5.34
522.95	5.39
523.298	5.47
523.645	5.37
523.993	5.48
524.341	5.43
524.688	5.45
525.036	5.47
525.383	5.47
525.73	5.61
526.078	5.43
526.425	5.48
526.772	5.52
527.119	5.41
527.466	5.39
527.814	5.36
528.161	5.4
528.508	5.46
528.854	5.49
529.201	5.48
529.548	5.46
529.895	5.4
530.242	5.42
530.588	5.3
530.935	5.27
531.282	5.33
531.628	5.37
531.975	5.4
532.321	5.46
532.667	5.52
533.014	5.6
533.36	5.68
533.706	5.63
534.052	5.83
534.399	5.69
534.745	5.61
535.091	5.56
535.437	5.54
535.783	5.5
536.129	5.58
536.474	5.64
536.82	5.64
537.166	5.87
537.512	5.79
537.857	5.89
538.203	5.92
538.549	5.77
538.894	5.81
539.239	5.82
539.585	5.86
539.93	5.96
540.276	5.97
540.621	5.97
540.966	6.02
541.311	6.04
541.656	6
542.001	6.03
542.346	6.13
542.691	6.09
543.036	6.01
543.381	5.97
543.726	5.89
544.071	5.89
544.415	5.93
544.76	6
545.105	5.97
545.449	5.98
545.794	6.03
546.138	6.18
546.483	6.17
546.827	6.16
547.171	6.21
547.516	6.3
547.86	6.46
548.204	6.4
548.548	6.33
548.892	6.35
549.236	6.32
549.58	6.26
549.924	6.49
550.268	6.54
550.612	6.48
550.956	6.51
551.3	6.51
551.643	6.56
551.987	6.81
552.33	6.81
552.674	6.77
553.017	6.68
553.361	6.69
553.704	7.06
554.048	6.78
554.391	6.74
554.734	6.73
555.077	6.86
555.42	6.71
555.764	6.79
556.107	6.83
556.45	6.87
556.793	6.85
557.135	6.83
557.478	6.82
557.821	6.98
558.164	7.01
558.507	7.11
558.849	6.88
559.192	7.23
559.534	7.22
559.877	7.17
560.219	7.19
560.562	7.18
560.904	7.19
561.246	7.33
561.589	7.17
561.931	7.1
562.273	7.27
562.615	7.14
562.957	7.42
563.299	7.47
563.641	7.39
563.983	7.47
564.325	7.36
564.667	7.46
565.008	7.46
565.35	7.38
565.692	7.53
566.033	7.56
566.375	7.65
566.716	7.62
567.058	7.52
567.399	7.65
567.741	7.7
568.082	7.62
568.423	7.62
568.764	7.69
569.105	7.57
569.447	7.78
569.788	7.57
570.129	7.8
570.47	7.89
570.811	7.81
571.151	7.94
571.492	7.73
571.833	7.8
572.174	8.03
572.514	7.87
572.855	8.04
573.195	7.92
573.536	8.12
573.876	8.03
574.217	7.94
574.557	8.03
574.898	8.19
575.238	7.94
575.578	8.11
575.918	8.25
576.258	7.93
576.598	8.15
576.938	8.28
577.278	8.42
577.618	8.23
577.958	8.27
578.298	8.46
578.638	8.39
578.977	8.54
579.317	8.43
579.657	8.46
579.996	8.62
580.336	8.55
580.675	8.72
581.014	8.58
581.354	8.65
581.693	8.82
582.032	8.72
582.372	9.01
582.711	8.94
583.05	8.78
583.389	9.16
583.728	8.88
584.067	8.95
584.406	8.95
584.745	8.64
585.083	9.05
585.422	9.03
585.761	9.1
586.1	9.2
586.438	9.18
586.777	9.4
587.115	9.21
587.454	8.95
587.792	9.37
588.13	9.09
588.469	9.44
588.807	9.54
589.145	9.38
589.483	9.45
589.821	9.4
590.159	9.48
590.497	9.79
590.835	9.71
591.173	9.47
591.511	9.75
591.849	9.83
592.187	9.5
592.524	9.97
592.862	9.82
593.2	9.77
593.537	9.85
593.875	9.84
594.212	9.8
594.55	10.23
594.887	9.89
595.224	10.13
595.561	10.08
595.899	10.46
596.236	10.24
596.573	10.15
596.91	10.09
597.247	10.41
597.584	10.24
597.921	10.21
598.258	10.52
598.594	10.48
598.931	10.35
599.268	10.25
599.604	10.5
599.941	10.62
600.277	10.28
600.614	10.24
600.95	10.52
601.287	10.31
601.623	10.62
601.959	10.87
602.296	10.52
602.632	10.32
602.968	10.95
603.304	10.65
603.64	10.92
603.976	10.83
604.312	10.72
604.648	10.96
604.984	11.01
605.319	11.04
605.655	10.87
605.991	10.95
606.326	10.97
606.662	10.83
606.998	11
607.333	11.08
607.668	11.02
608.004	11.27
608.339	11
608.674	11.18
609.01	11.38
609.345	11.53
609.68	11.54
610.015	11.46
610.35	11.4
610.685	11.56
611.02	11.47
611.355	11.64
611.689	11.44
612.024	11.45
612.359	11.53
612.694	11.63
613.028	11.6
613.363	11.57
613.697	11.8
614.032	11.84
614.366	11.7
614.7	11.67
615.035	12.16
615.369	11.99
615.703	11.77
616.037	11.75
616.371	12.36
616.705	12.25
617.039	12.03
617.373	12.06
617.707	12.27
618.041	12.4
618.375	12.17
618.709	12.1
619.042	12.38
619.376	12.55
619.71	12.61
620.043	12.24
620.377	12.43
620.71	12.65
621.043	12.7
621.377	12.72
621.71	12.88
622.043	12.72
622.376	12.72
622.709	13.05
623.043	12.91
623.376	12.77
623.709	13.21
624.041	12.83
624.374	12.95
624.707	13.13
625.04	13.45
625.373	12.8
625.705	13.25
626.038	12.66
626.37	13.29
626.703	13.14
627.035	13.09
627.368	13.47
627.7	13.44
628.032	13.38
628.365	13.39
628.697	13.55
629.029	13.64
629.361	13.62
629.693	13.71
630.025	13.63
630.357	13.62
630.689	13.58
631.021	13.26
631.353	13.55
631.684	13.67
632.016	13.86
632.348	14
632.679	13.84
633.011	13.82
633.342	13.99
633.674	14.06
634.005	13.59
634.336	14.3
634.668	14.31
634.999	14.24
635.33	14.3
635.661	14.27
635.992	14.15
636.323	14.28
636.654	14.17
636.985	14.36
637.316	14.37
637.647	14.54
637.977	13.95
638.308	14.98
638.639	14.38
638.969	14.82
639.3	14.25
639.63	14.8
639.961	14.56
640.291	14.99
640.622	15.01
640.952	15.04
641.282	14.82
641.612	14.83
641.943	15.44
642.273	14.78
642.603	14.72
642.933	14.95
643.263	14.12
643.592	15.08
643.922	15.18
644.252	14.83
644.582	15.1
644.911	15.36
645.241	15.55
645.571	15.09
645.9	15.83
646.23	16.07
646.559	15.27
646.888	15.32
647.218	15.21
647.547	15.67
647.876	16.04
648.205	15.33
648.534	15.91
648.863	15.99
649.192	15.44
649.521	15.73
649.85	15.67
650.179	15.82
650.508	16.09
650.837	15.86
651.165	16.08
651.494	15.83
651.822	15.9
652.151	16.44
652.479	15.57
652.808	15.9
653.136	16.44
653.465	16.55
653.793	16.3
654.121	16.48
654.449	15.96
654.777	16.7
655.105	16.81
655.433	16.63
655.761	16.92
656.089	16.33
656.417	16.49
656.745	16.5
657.073	16.71
657.4	17.42
657.728	16.85
658.056	16.77
658.383	17.04
658.711	16.8
659.038	16.77
659.365	17.29
659.693	16.74
660.02	16.61
660.347	17.31
660.674	16.85
661.001	16.98
661.329	16.98
661.656	17.11
661.982	16.96
662.309	17.15
662.636	17.08
662.963	17.3
663.29	17.44
663.616	17.28
663.943	17.47
664.27	17.66
664.596	17.21
664.923	17.53
665.249	17.14
665.576	17.25
665.902	17.75
666.228	17.23
666.554	17.5
666.881	17.72
667.207	17.96
667.533	17.27
667.859	17.78
668.185	18.42
668.511	18.16
668.837	17.4
669.162	17.94
669.488	18.2
669.814	18.32
670.139	17.46
670.465	18.66
670.791	18.44
671.116	17.62
671.442	18.36
671.767	17.88
672.092	18.58
672.418	18.69
672.743	18.7
673.068	18.5
673.393	18.15
673.718	18.49
674.043	18.68
674.368	19.04
674.693	18.93
675.018	18.25
675.343	18.71
675.667	18.84
675.992	18.39
676.317	18.75
676.641	18.91
676.966	18.74
677.29	19.01
677.615	19.57
677.939	19
678.264	19.23
678.588	19.54
678.912	19.58
679.236	19.51
679.56	19.45
679.885	18.95
680.209	19.81
680.532	18.96
680.856	19.19
681.18	19.32
681.504	19.8
681.828	19.95
682.152	19.42
682.475	20.43
682.799	19.49
683.122	19.58
683.446	19.46
683.769	19.83
684.093	19.86
684.416	19.85
684.739	19.6
685.062	20.04
685.386	19.72
685.709	20.52
686.032	19.44
686.355	20.13
686.678	19.84
