Data from 0188_forehead_Reflection__3__155.txt Node

Date: Fri Sep 22 21:30:29 CDT 2023
User: ToomeyLab
Spectrometer: FLMS14357
Trigger mode: 0
Integration Time (sec): 1.000000E-2
Scans to average: 100
Electric dark correction enabled: true
Nonlinearity correction enabled: false
Boxcar width: 0
XAxis mode: Wavelengths
Number of Pixels in Spectrum: 2048
>>>>>Begin Spectral Data<<<<<
189.047	-658.82
189.435	-658.82
189.823	-658.82
190.211	3.15
190.599	-335.24
190.987	35.41
191.375	79.69
191.763	-91.25
192.151	-79.43
192.538	166.63
192.926	702.33
193.314	-67.55
193.702	-131.17
194.089	64.32
194.477	439.56
194.864	3.26
195.252	17.36
195.639	162.75
196.027	-473.98
196.414	-12.06
196.801	-8.52
197.189	-841.84
197.576	56.63
197.963	83.83
198.351	-9.1
198.738	67.04
199.125	24.52
199.512	37.83
199.899	58.46
200.286	20.65
200.673	45.5
201.06	57.28
201.447	64.44
201.833	94.29
202.22	40.86
202.607	38.76
202.994	106.54
203.38	42.42
203.767	62.11
204.154	43.7
204.54	74.07
204.927	33.9
205.313	32.46
205.699	88.81
206.086	55.46
206.472	72.38
206.858	34.37
207.245	48.73
207.631	53.64
208.017	42.35
208.403	64.15
208.789	27.92
209.175	47.74
209.561	42.94
209.947	17.7
210.333	44.73
210.719	64.2
211.105	72.2
211.491	32.36
211.876	49.19
212.262	33.32
212.648	41.76
213.034	49.66
213.419	24.28
213.805	15.7
214.19	15.74
214.576	43.22
214.961	25.26
215.346	39.64
215.732	52.76
216.117	12.15
216.502	53.92
216.888	43.74
217.273	27.98
217.658	28.18
218.043	40.77
218.428	34.12
218.813	20.18
219.198	34.89
219.583	16.01
219.968	5.58
220.353	58.01
220.738	9.93
221.122	20.41
221.507	33.36
221.892	19.23
222.276	27.21
222.661	-9.09
223.046	33.21
223.43	17.49
223.815	9.49
224.199	10.81
224.583	26.08
224.968	16.16
225.352	5
225.736	7.33
226.121	18.17
226.505	12.95
226.889	15.6
227.273	11.7
227.657	15.33
228.041	8.92
228.425	10.93
228.809	10.96
229.193	6.89
229.577	10.92
229.961	8.45
230.344	7.13
230.728	3.18
231.112	5.45
231.495	4.13
231.879	5.28
232.263	4.13
232.646	6.06
233.03	5.58
233.413	5.33
233.797	5.22
234.18	5.36
234.563	8.46
234.946	7.5
235.33	1.94
235.713	3.88
236.096	5.53
236.479	5.11
236.862	8.1
237.245	5.52
237.628	5.64
238.011	4.31
238.394	4.15
238.777	5.65
239.16	6.94
239.543	6.87
239.925	6.26
240.308	6.4
240.691	4.86
241.073	6.98
241.456	4.18
241.838	4.87
242.221	5.97
242.603	5.78
242.986	5.38
243.368	4.39
243.75	5.35
244.133	4.38
244.515	4.79
244.897	3.91
245.279	4.73
245.661	4.72
246.043	5.09
246.425	4.64
246.807	4.49
247.189	2.81
247.571	5.51
247.953	4.65
248.335	4.35
248.717	4.78
249.098	4.88
249.48	3.97
249.862	4.32
250.243	4.42
250.625	4.62
251.006	4.32
251.388	4.99
251.769	5.43
252.151	4.8
252.532	5.13
252.913	6.27
253.295	6.31
253.676	5.59
254.057	5.34
254.438	5.22
254.819	4.3
255.2	5.49
255.581	5.55
255.962	5.95
256.343	4.91
256.724	3.77
257.105	5.08
257.486	6.3
257.867	6.02
258.247	6
258.628	5.74
259.009	4.97
259.389	4.84
259.77	5.25
260.15	5.41
260.531	4.99
260.911	4.67
261.292	4.83
261.672	4.13
262.052	4.46
262.432	4.26
262.813	4.56
263.193	4.35
263.573	5.37
263.953	4.77
264.333	4.64
264.713	4.7
265.093	4.71
265.473	5.51
265.853	3.11
266.233	5.02
266.612	4.64
266.992	5.58
267.372	5.42
267.752	5.55
268.131	4.59
268.511	4.03
268.89	4.52
269.27	4.8
269.649	4.72
270.029	4.68
270.408	4.71
270.787	4.45
271.167	4.63
271.546	4.41
271.925	4.73
272.304	4.07
272.683	5.29
273.062	5.12
273.441	4.55
273.82	4.78
274.199	4.58
274.578	4.83
274.957	4.28
275.336	3.93
275.715	4.42
276.093	4.16
276.472	4.34
276.851	4.71
277.229	3.95
277.608	5.6
277.986	4.91
278.365	5.29
278.743	4.63
279.122	4.66
279.5	5.17
279.878	4.59
280.257	5.09
280.635	4.77
281.013	5.25
281.391	4.03
281.769	4.57
282.147	5.2
282.525	4.6
282.903	4.92
283.281	4.83
283.659	4.71
284.037	4.36
284.415	4.55
284.792	4.41
285.17	4.55
285.548	4.87
285.925	4.41
286.303	4.9
286.68	4.11
287.058	4.49
287.435	4.64
287.813	4.89
288.19	4.61
288.567	4.6
288.945	4.12
289.322	4.68
289.699	4.71
290.076	5.19
290.453	4.21
290.83	4.61
291.207	4.5
291.584	4.91
291.961	4.74
292.338	4.87
292.715	5.23
293.092	4.72
293.469	4.79
293.845	5.23
294.222	5.02
294.599	5.44
294.975	4.93
295.352	5.24
295.728	5.35
296.105	5.44
296.481	5.22
296.858	5.17
297.234	5.42
297.61	5.56
297.986	5.68
298.363	5.14
298.739	5.35
299.115	5.47
299.491	5.24
299.867	5.42
300.243	5.37
300.619	5.49
300.995	5.38
301.371	5.63
301.746	5.72
302.122	5.59
302.498	5.78
302.874	5.65
303.249	5.9
303.625	5.66
304	6.18
304.376	6.45
304.751	6.11
305.127	5.88
305.502	6.31
305.878	6.29
306.253	5.99
306.628	6.53
307.003	6.64
307.378	6.32
307.754	6.55
308.129	5.74
308.504	6.24
308.879	6.5
309.254	6.34
309.629	6.49
310.003	6.85
310.378	7.4
310.753	6.62
311.128	6.73
311.502	7.08
311.877	6.32
312.252	6.65
312.626	6.85
313.001	7.19
313.375	6.85
313.75	6.79
314.124	7.17
314.498	6.49
314.873	7.25
315.247	7.53
315.621	7.58
315.995	7.33
316.369	7.4
316.743	7.57
317.117	8
317.491	7.84
317.865	7.2
318.239	7.29
318.613	7.57
318.987	7.66
319.361	8.3
319.734	7.86
320.108	7.79
320.482	7.24
320.855	8.46
321.229	8.11
321.602	8.07
321.976	7.63
322.349	7.76
322.723	8.65
323.096	8.55
323.469	7.58
323.843	7.95
324.216	8.61
324.589	8.2
324.962	8.03
325.335	8.31
325.708	8.45
326.081	8.65
326.454	7.86
326.827	8.63
327.2	8.33
327.573	8.29
327.945	7.78
328.318	8.76
328.691	9.28
329.063	8.4
329.436	9.23
329.809	8.51
330.181	8.73
330.553	9.02
330.926	9.23
331.298	9.54
331.671	9.61
332.043	7.95
332.415	9.39
332.787	9.49
333.159	9.22
333.532	8.81
333.904	9.04
334.276	9.22
334.648	8.91
335.02	8.77
335.391	9.16
335.763	9.64
336.135	9.51
336.507	9.33
336.879	9.22
337.25	10
337.622	10.03
337.993	9.34
338.365	9.62
338.736	9.77
339.108	9.79
339.479	9.48
339.851	9.55
340.222	9.61
340.593	9.17
340.964	9.5
341.336	9.49
341.707	9.77
342.078	9.68
342.449	9.81
342.82	9.71
343.191	9.65
343.562	10.1
343.933	10.08
344.303	9.86
344.674	10.31
345.045	10.07
345.416	10.66
345.786	9.96
346.157	10.24
346.527	9.91
346.898	10.05
347.268	9.9
347.639	10.35
348.009	10.18
348.38	10.63
348.75	10.61
349.12	10.22
349.49	10.82
349.861	10.41
350.231	10.64
350.601	11.39
350.971	10.73
351.341	10.51
351.711	10.67
352.081	11.04
352.45	10.65
352.82	11.17
353.19	11.05
353.56	11.1
353.929	10.95
354.299	11.69
354.669	10.95
355.038	11.44
355.408	10.94
355.777	11.13
356.147	11.35
356.516	11.4
356.885	11.18
357.254	11.7
357.624	11.25
357.993	11.11
358.362	11.29
358.731	10.87
359.1	11.36
359.469	11.39
359.838	11.01
360.207	11.39
360.576	11.46
360.945	11.71
361.314	11.71
361.682	12.02
362.051	11.8
362.42	11.57
362.788	11.79
363.157	12.07
363.525	11.85
363.894	11.85
364.262	11.57
364.631	11.61
364.999	11.87
365.367	12.33
365.735	11.86
366.104	11.97
366.472	12.16
366.84	12.01
367.208	12.39
367.576	12.35
367.944	12.29
368.312	12.58
368.68	12.32
369.048	12.68
369.416	12.73
369.783	12.75
370.151	12.2
370.519	12.71
370.886	12.87
371.254	12.72
371.621	12.29
371.989	12.58
372.356	12.55
372.724	12.89
373.091	13.43
373.458	13.21
373.826	13.4
374.193	13.3
374.56	13.06
374.927	13.37
375.294	13.29
375.661	13.02
376.028	13.82
376.395	13.67
376.762	13.59
377.129	13.79
377.496	13.73
377.863	13.68
378.229	13.37
378.596	13.79
378.963	13.82
379.329	13.57
379.696	13.77
380.062	13.57
380.429	13.74
380.795	13.88
381.161	13.84
381.528	13.59
381.894	13.55
382.26	13.71
382.626	14.16
382.993	14.32
383.359	13.61
383.725	14.08
384.091	14.39
384.457	13.95
384.823	14.37
385.188	14.8
385.554	14.38
385.92	14.79
386.286	14.5
386.651	14.77
387.017	14.49
387.383	14.62
387.748	14.73
388.114	14.77
388.479	14.88
388.845	14.41
389.21	14.38
389.575	15.1
389.94	14.81
390.306	14.74
390.671	15.15
391.036	14.73
391.401	15.1
391.766	15.05
392.131	14.78
392.496	15.22
392.861	14.89
393.226	15.16
393.591	15.33
393.956	15.22
394.32	15.42
394.685	15.21
395.05	15.46
395.414	15.69
395.779	15.5
396.143	15.44
396.508	15.46
396.872	15.29
397.236	15.85
397.601	15.74
397.965	15.97
398.329	15.77
398.694	15.68
399.058	16
399.422	16.07
399.786	15.79
400.15	16.1
400.514	16.17
400.878	16.22
401.242	16.13
401.605	16.03
401.969	15.86
402.333	16.36
402.697	16.3
403.06	16.29
403.424	16.58
403.787	16.66
404.151	16.69
404.514	16.64
404.878	16.61
405.241	16.72
405.604	16.69
405.968	16.73
406.331	16.77
406.694	16.8
407.057	16.63
407.42	16.84
407.783	16.9
408.146	16.85
408.509	17.07
408.872	17.01
409.235	16.94
409.598	16.99
409.961	17.52
410.323	17.42
410.686	17.08
411.049	17.24
411.411	17.5
411.774	17.29
412.136	17.51
412.499	17.45
412.861	17.59
413.223	17.46
413.586	17.54
413.948	17.49
414.31	17.69
414.672	17.91
415.035	17.94
415.397	18.1
415.759	18.18
416.121	17.84
416.483	18.04
416.845	17.82
417.206	17.96
417.568	18.01
417.93	17.97
418.292	18.09
418.653	18.22
419.015	18.1
419.377	18.11
419.738	18.4
420.1	18.03
420.461	18.3
420.822	18.16
421.184	18.02
421.545	18.17
421.906	18.2
422.267	18.16
422.629	18.34
422.99	18.14
423.351	18.16
423.712	18.16
424.073	18.15
424.434	18.54
424.795	18.52
425.155	18.68
425.516	18.62
425.877	18.66
426.238	18.49
426.598	18.55
426.959	18.66
427.32	18.86
427.68	18.67
428.041	18.77
428.401	19.14
428.761	19.17
429.122	19.06
429.482	19.25
429.842	19.26
430.202	19.44
430.563	19.41
430.923	19.5
431.283	19.64
431.643	19.61
432.003	19.77
432.363	19.91
432.722	19.86
433.082	19.89
433.442	19.86
433.802	19.97
434.161	19.91
434.521	19.99
434.881	20.02
435.24	19.98
435.6	19.92
435.959	20.08
436.319	20.02
436.678	19.96
437.037	20.08
437.396	20.31
437.756	20.35
438.115	20.46
438.474	20.41
438.833	20.5
439.192	20.56
439.551	20.62
439.91	20.68
440.269	20.7
440.628	20.52
440.987	20.71
441.345	20.69
441.704	20.9
442.063	20.6
442.421	20.67
442.78	20.82
443.138	20.88
443.497	20.68
443.855	21
444.214	20.71
444.572	21.04
444.93	21.05
445.288	21.27
445.647	21.26
446.005	21.19
446.363	21.14
446.721	21.33
447.079	21.22
447.437	21.3
447.795	21.53
448.153	21.31
448.51	21.33
448.868	21.13
449.226	21.21
449.584	21.23
449.941	21.49
450.299	21.57
450.656	21.62
451.014	21.87
451.371	21.87
451.729	21.97
452.086	21.9
452.443	22.19
452.801	22.21
453.158	22.32
453.515	22.49
453.872	22.44
454.229	22.48
454.586	22.24
454.943	22.36
455.3	22.44
455.657	22.46
456.014	22.69
456.371	22.88
456.727	22.71
457.084	22.75
457.441	22.82
457.797	22.93
458.154	22.92
458.51	23.12
458.867	22.79
459.223	23.25
459.58	23.13
459.936	23.1
460.292	23.38
460.648	23.4
461.005	23.18
461.361	23.16
461.717	22.86
462.073	22.96
462.429	22.76
462.785	22.96
463.141	23.2
463.496	23.34
463.852	23.5
464.208	23.45
464.564	23.82
464.919	23.68
465.275	23.81
465.631	24.05
465.986	23.97
466.342	24.04
466.697	24.21
467.052	24.05
467.408	24.15
467.763	24.04
468.118	24.38
468.473	24.27
468.829	24.16
469.184	24.36
469.539	24.43
469.894	24.33
470.249	24.62
470.603	24.45
470.958	24.83
471.313	24.61
471.668	24.6
472.023	24.68
472.377	24.55
472.732	24.83
473.086	25.07
473.441	24.77
473.795	25.19
474.15	24.93
474.504	24.89
474.859	25.14
475.213	24.84
475.567	25.2
475.921	25.2
476.275	25.43
476.63	25.25
476.984	25.28
477.338	25.77
477.692	25.48
478.045	25.77
478.399	25.56
478.753	25.64
479.107	25.85
479.461	25.5
479.814	25.63
480.168	25.73
480.521	25.9
480.875	25.79
481.228	25.83
481.582	25.74
481.935	25.92
482.289	26.02
482.642	25.96
482.995	26.08
483.348	25.92
483.701	26.03
484.055	26.12
484.408	25.96
484.761	25.89
485.114	25.62
485.466	25.37
485.819	25.22
486.172	25.16
486.525	25.25
486.878	25.34
487.23	25.49
487.583	25.73
487.936	25.91
488.288	25.96
488.641	26.15
488.993	25.92
489.345	25.89
489.698	25.91
490.05	25.81
490.402	25.92
490.754	26
491.107	26.04
491.459	26.25
491.811	26.53
492.163	26.67
492.515	26.78
492.866	26.91
493.218	26.84
493.57	26.66
493.922	26.47
494.274	26.53
494.625	26.68
494.977	26.9
495.328	27.21
495.68	27.32
496.031	27.45
496.383	27.64
496.734	27.8
497.086	27.94
497.437	28.06
497.788	27.84
498.139	28.16
498.49	27.98
498.842	27.97
499.193	27.96
499.544	28.09
499.894	28.06
500.245	28.11
500.596	28.27
500.947	28.49
501.298	28.47
501.648	28.59
501.999	28.49
502.35	28.64
502.7	28.71
503.051	28.82
503.401	28.75
503.752	28.88
504.102	28.77
504.452	28.98
504.803	28.98
505.153	29.01
505.503	29.05
505.853	29.36
506.203	29.18
506.553	29.1
506.903	29.34
507.253	29.24
507.603	29.43
507.953	29.53
508.303	29.45
508.652	29.54
509.002	29.53
509.352	29.64
509.701	29.6
510.051	29.59
510.4	29.73
510.75	29.61
511.099	29.35
511.449	29.71
511.798	29.75
512.147	29.8
512.496	29.84
512.846	29.85
513.195	29.92
513.544	30.01
513.893	30.08
514.242	30.1
514.591	30.26
514.939	30.16
515.288	30.19
515.637	30.3
515.986	30.52
516.334	30.61
516.683	30.58
517.032	30.74
517.38	30.72
517.729	30.7
518.077	30.71
518.426	30.84
518.774	30.88
519.122	30.77
519.47	30.68
519.819	30.88
520.167	30.85
520.515	30.58
520.863	30.58
521.211	30.64
521.559	30.65
521.907	30.91
522.255	31
522.602	31.06
522.95	31.33
523.298	31.33
523.645	31.63
523.993	31.67
524.341	31.65
524.688	31.85
525.036	31.82
525.383	31.7
525.73	31.71
526.078	31.65
526.425	31.76
526.772	31.96
527.119	31.79
527.466	31.52
527.814	31.62
528.161	31.59
528.508	31.66
528.854	31.61
529.201	31.71
529.548	31.67
529.895	31.59
530.242	31.55
530.588	31.21
530.935	31.19
531.282	31.33
531.628	31.44
531.975	31.57
532.321	31.68
532.667	31.98
533.014	32.11
533.36	32.32
533.706	32.57
534.052	32.55
534.399	32.55
534.745	32.5
535.091	32.25
535.437	32.18
535.783	32.06
536.129	32.36
536.474	32.55
536.82	32.78
537.166	32.71
537.512	33.02
537.857	33.13
538.203	33.28
538.549	33.16
538.894	33.04
539.239	32.83
539.585	33.17
539.93	33.15
540.276	33.44
540.621	33.72
540.966	33.67
541.311	33.74
541.656	33.86
542.001	33.92
542.346	33.82
542.691	33.86
543.036	33.48
543.381	33.26
543.726	33.28
544.071	33.25
544.415	33.38
544.76	33.55
545.105	33.7
545.449	33.72
545.794	33.97
546.138	34.01
546.483	34.18
546.827	34.34
547.171	34.56
547.516	34.74
547.86	34.79
548.204	34.81
548.548	34.67
548.892	34.88
549.236	34.67
549.58	34.7
549.924	34.94
550.268	34.88
550.612	35.16
550.956	35.35
551.3	35.31
551.643	35.65
551.987	35.79
552.33	36.02
552.674	35.75
553.017	35.86
553.361	35.84
553.704	36.12
554.048	36.02
554.391	36.08
554.734	36.16
555.077	36.14
555.42	36.19
555.764	35.97
556.107	36.13
556.45	35.98
556.793	36.24
557.135	36.44
557.478	36.22
557.821	36.33
558.164	36.49
558.507	36.55
558.849	36.79
559.192	36.77
559.534	36.82
559.877	36.88
560.219	36.87
560.562	36.98
560.904	36.93
561.246	37.32
561.589	37.23
561.931	37.11
562.273	37.11
562.615	37.3
562.957	37.23
563.299	37.54
563.641	37.46
563.983	37.45
564.325	37.5
564.667	37.61
565.008	37.7
565.35	37.65
565.692	37.74
566.033	37.64
566.375	37.86
566.716	37.83
567.058	37.82
567.399	37.94
567.741	37.81
568.082	37.86
568.423	37.76
568.764	38.05
569.105	37.75
569.447	38.05
569.788	38.07
570.129	38.24
570.47	38.08
570.811	38.36
571.151	38.68
571.492	38.46
571.833	38.48
572.174	38.42
572.514	38.56
572.855	38.63
573.195	38.62
573.536	38.53
573.876	38.46
574.217	38.55
574.557	38.61
574.898	38.82
575.238	38.76
575.578	38.92
575.918	38.95
576.258	38.69
576.598	39.15
576.938	38.99
577.278	39.33
577.618	38.93
577.958	39.33
578.298	39.1
578.638	39.27
578.977	39.3
579.317	39.44
579.657	39.55
579.996	39.32
580.336	39.38
580.675	40.01
581.014	39.8
581.354	39.91
581.693	40.06
582.032	40.15
582.372	40.29
582.711	40.3
583.05	40.01
583.389	40.43
583.728	40.24
584.067	40.27
584.406	40.66
584.745	40.34
585.083	40.65
585.422	40.53
585.761	40.62
586.1	40.34
586.438	40.85
586.777	40.52
587.115	40.98
587.454	40.73
587.792	41.14
588.13	40.9
588.469	40.78
588.807	41.17
589.145	41.18
589.483	41.03
589.821	41.28
590.159	41.24
590.497	41.47
590.835	41.52
591.173	41.31
591.511	41.29
591.849	41.57
592.187	41.65
592.524	41.77
592.862	41.48
593.2	41.62
593.537	41.69
593.875	41.69
594.212	41.72
594.55	42.19
594.887	41.79
595.224	42.19
595.561	42.14
595.899	42.37
596.236	42.21
596.573	42.22
596.91	41.79
597.247	42.39
597.584	42.25
597.921	42.08
598.258	42.41
598.594	42.23
598.931	42.2
599.268	42
599.604	42.35
599.941	42.33
600.277	42.28
600.614	42.53
600.95	42.61
601.287	42.42
601.623	42.74
601.959	43.46
602.296	42.65
602.632	42.82
602.968	42.83
603.304	42.94
603.64	43.22
603.976	43.07
604.312	43.31
604.648	43.21
604.984	43.1
605.319	43.14
605.655	43.3
605.991	43.35
606.326	43.24
606.662	42.88
606.998	43.37
607.333	43.49
607.668	43.04
608.004	43.37
608.339	43.26
608.674	43.46
609.01	43.49
609.345	43.8
609.68	43.73
610.015	43.82
610.35	44.29
610.685	43.95
611.02	44.16
611.355	43.63
611.689	43.78
612.024	43.66
612.359	43.62
612.694	44.08
613.028	44.06
613.363	44.07
613.697	44.14
614.032	44.33
614.366	44.32
614.7	44.68
615.035	44.6
615.369	45.06
615.703	44.48
616.037	44.34
616.371	44.65
616.705	44.91
617.039	44.91
617.373	44.72
617.707	45.26
618.041	45.3
618.375	45.12
618.709	45.14
619.042	45.27
619.376	45.41
619.71	45.28
620.043	45.03
620.377	45.26
620.71	45.46
621.043	45.38
621.377	45.57
621.71	46.12
622.043	45.71
622.376	45.72
622.709	45.77
623.043	45.96
623.376	45.59
623.709	45.22
624.041	45.76
624.374	46.16
624.707	46.18
625.04	45.8
625.373	45.49
625.705	45.61
626.038	45.65
626.37	46.04
626.703	45.98
627.035	46.24
627.368	46.2
627.7	46.53
628.032	46.36
628.365	46.63
628.697	46.25
629.029	46.34
629.361	46.61
629.693	46.41
630.025	46.11
630.357	46.45
630.689	46.39
631.021	46.68
631.353	46.26
631.684	46.6
632.016	46.58
632.348	46.44
632.679	46.56
633.011	47.04
633.342	47.19
633.674	47.29
634.005	47.26
634.336	47.48
634.668	46.82
634.999	47.49
635.33	47.12
635.661	47.47
635.992	47.35
636.323	47.24
636.654	47.47
636.985	47.54
637.316	47.38
637.647	47.52
637.977	47.22
638.308	47.77
638.639	47.34
638.969	47.54
639.3	47.84
639.63	47.95
639.961	47.54
640.291	47.94
640.622	47.87
640.952	47.76
641.282	47.93
641.612	47.64
641.943	47.41
642.273	48.42
642.603	47.65
642.933	47.92
643.263	47.96
643.592	48.45
643.922	48.33
644.252	48.29
644.582	48.35
644.911	48.18
645.241	49.01
645.571	48.49
645.9	48.83
646.23	48.89
646.559	49.04
646.888	48.68
647.218	48.89
647.547	48.3
647.876	48.67
648.205	49.12
648.534	49.12
648.863	48.89
649.192	48.61
649.521	49.45
649.85	48.96
650.179	48.86
650.508	48.74
650.837	49.47
651.165	49.03
651.494	49.34
651.822	49.25
652.151	49.07
652.479	49.28
652.808	49.03
653.136	49.41
653.465	48.9
653.793	49.87
654.121	49.2
654.449	48.72
654.777	49.48
655.105	49.99
655.433	49.43
655.761	49.79
656.089	49.55
656.417	49.19
656.745	49.68
657.073	50.2
657.4	50.6
657.728	49.65
658.056	49.69
658.383	49.63
658.711	49.85
659.038	49.99
659.365	50.12
659.693	50.07
660.02	50.33
660.347	49.85
660.674	49.9
661.001	50.16
661.329	49.95
661.656	49.98
661.982	49.6
662.309	50.46
662.636	50.52
662.963	50.24
663.29	50.44
663.616	50.44
663.943	50.26
664.27	50.9
664.596	50.25
664.923	50.6
665.249	50.61
665.576	50.87
665.902	50.91
666.228	50.85
666.554	50.43
666.881	51.08
667.207	51.35
667.533	51.05
667.859	51.18
668.185	51.61
668.511	51.72
668.837	51.19
669.162	51.34
669.488	50.86
669.814	51.11
670.139	50.84
