Data from 0188_crown_Reflection__0__147.txt Node

Date: Fri Sep 22 21:28:44 CDT 2023
User: ToomeyLab
Spectrometer: FLMS14357
Trigger mode: 0
Integration Time (sec): 1.000000E-2
Scans to average: 100
Electric dark correction enabled: true
Nonlinearity correction enabled: false
Boxcar width: 0
XAxis mode: Wavelengths
Number of Pixels in Spectrum: 2048
>>>>>Begin Spectral Data<<<<<
189.047	951.15
189.435	951.15
189.823	951.15
190.211	93.07
190.599	-3999.05
190.987	124.51
191.375	182.36
191.763	428.52
192.151	1529.79
192.538	-28.58
192.926	247.05
193.314	110.92
193.702	-60.57
194.089	92.68
194.477	824.4
194.864	103.91
195.252	64.19
195.639	167.63
196.027	-412.48
196.414	134.53
196.801	29.21
197.189	-599.84
197.576	108.85
197.963	-257.18
198.351	60.1
198.738	13.8
199.125	-11.37
199.512	-0.53
199.899	31.11
200.286	9.46
200.673	70.09
201.06	4.92
201.447	56.91
201.833	-50.99
202.22	28.99
202.607	45.2
202.994	97.04
203.38	11.01
203.767	37.23
204.154	27.94
204.54	12.99
204.927	19.14
205.313	11.89
205.699	55.65
206.086	45.39
206.472	33.81
206.858	43.82
207.245	50.79
207.631	27.04
208.017	37.2
208.403	16.54
208.789	23.93
209.175	36.78
209.561	56.82
209.947	34.56
210.333	46.55
210.719	-55.7
211.105	-22.66
211.491	10.3
211.876	46.69
212.262	10.96
212.648	56.78
213.034	9.64
213.419	1.66
213.805	16.39
214.19	-15.99
214.576	19.95
214.961	7.27
215.346	7.92
215.732	42.05
216.117	-5.79
216.502	37.76
216.888	19.42
217.273	19.56
217.658	0.68
218.043	28.22
218.428	24.05
218.813	-23.03
219.198	14.17
219.583	15.68
219.968	19.23
220.353	30.62
220.738	15.37
221.122	3.55
221.507	-4.15
221.892	5.22
222.276	15.17
222.661	-8.96
223.046	15.17
223.43	28.72
223.815	13.57
224.199	14.9
224.583	22.43
224.968	12.27
225.352	-5.01
225.736	9.22
226.121	0.51
226.505	14.07
226.889	12.61
227.273	-1.46
227.657	9.07
228.041	6.38
228.425	11.15
228.809	10.49
229.193	0.66
229.577	9.09
229.961	7.82
230.344	8.71
230.728	4.17
231.112	5.47
231.495	5.32
231.879	5.6
232.263	5.68
232.646	6.07
233.03	4.64
233.413	6.17
233.797	4.93
234.18	6.98
234.563	5.48
234.946	4.38
235.33	5.21
235.713	2.74
236.096	4.96
236.479	6.24
236.862	7.57
237.245	4.58
237.628	7.19
238.011	6.63
238.394	5.22
238.777	6.87
239.16	6.6
239.543	9.1
239.925	5.92
240.308	7.16
240.691	7.12
241.073	5.29
241.456	4.89
241.838	5.77
242.221	6.82
242.603	5.5
242.986	4.28
243.368	4.96
243.75	5.16
244.133	5.63
244.515	5.36
244.897	4.77
245.279	4.93
245.661	4.94
246.043	5.09
246.425	4.52
246.807	5.1
247.189	4.67
247.571	5.7
247.953	5.69
248.335	5.58
248.717	5.3
249.098	4.92
249.48	4.5
249.862	4.74
250.243	4.88
250.625	5.24
251.006	4.73
251.388	5.2
251.769	5.28
252.151	4.81
252.532	4.86
252.913	4.32
253.295	6.1
253.676	5.12
254.057	5.42
254.438	4.73
254.819	4.1
255.2	4.78
255.581	5.03
255.962	5.45
256.343	5.33
256.724	4.4
257.105	4.79
257.486	5.18
257.867	5.03
258.247	4.53
258.628	4.94
259.009	4.55
259.389	5.12
259.77	5.22
260.15	3.98
260.531	4.86
260.911	5.44
261.292	4.24
261.672	4.09
262.052	4.66
262.432	4.41
262.813	4.44
263.193	4.18
263.573	5.34
263.953	4.38
264.333	4.85
264.713	4.33
265.093	3.95
265.473	4.25
265.853	4.39
266.233	4.01
266.612	4.71
266.992	5.13
267.372	5.1
267.752	5.42
268.131	4.29
268.511	3.61
268.89	4.54
269.27	4.25
269.649	4.58
270.029	4.13
270.408	4.25
270.787	4.39
271.167	4.58
271.546	3.78
271.925	4.79
272.304	3.62
272.683	5.06
273.062	5.03
273.441	4.61
273.82	4.56
274.199	4.24
274.578	4.47
274.957	3.7
275.336	4.12
275.715	4.53
276.093	3.83
276.472	4.24
276.851	4.29
277.229	3.95
277.608	4.76
277.986	3.18
278.365	4.18
278.743	4.68
279.122	3.99
279.5	4.36
279.878	4.03
280.257	5.04
280.635	3.9
281.013	4.83
281.391	3.52
281.769	4
282.147	4.35
282.525	4.26
282.903	4.35
283.281	4.55
283.659	4.37
284.037	3.63
284.415	4.35
284.792	3.98
285.17	4.19
285.548	4.66
285.925	4.09
286.303	3.91
286.68	3.43
287.058	3.62
287.435	3.94
287.813	3.69
288.19	3.58
288.567	3.9
288.945	4.13
289.322	3.48
289.699	3.4
290.076	4.08
290.453	3.82
290.83	3.5
291.207	3.46
291.584	3.47
291.961	3.25
292.338	3.79
292.715	3.64
293.092	3.83
293.469	3.99
293.845	3.68
294.222	4.11
294.599	4.21
294.975	3.67
295.352	4.37
295.728	4.04
296.105	4.02
296.481	3.81
296.858	3.69
297.234	3.59
297.61	3.78
297.986	3.48
298.363	3.24
298.739	3.81
299.115	4.07
299.491	3.71
299.867	3.7
300.243	3.37
300.619	3.39
300.995	3.78
301.371	4.11
301.746	3.91
302.122	3.87
302.498	3.44
302.874	3.25
303.249	3.58
303.625	3.51
304	3.67
304.376	3.44
304.751	3.87
305.127	3.41
305.502	3.7
305.878	3.25
306.253	3.49
306.628	3.63
307.003	3.19
307.378	3.38
307.754	3.41
308.129	3.58
308.504	3.19
308.879	3.95
309.254	4.29
309.629	3.55
310.003	3.63
310.378	4.26
310.753	3.25
311.128	3.15
311.502	3.53
311.877	2.82
312.252	3.18
312.626	3.74
313.001	3.36
313.375	3.65
313.75	3.68
314.124	3.94
314.498	2.87
314.873	3.7
315.247	3.67
315.621	3.04
315.995	3.88
316.369	3.7
316.743	3.21
317.117	4.38
317.491	3.7
317.865	3.15
318.239	3.78
318.613	3.46
318.987	3.64
319.361	3.42
319.734	2.9
320.108	3.73
320.482	3.03
320.855	3.17
321.229	3.91
321.602	3.6
321.976	3.11
322.349	3.85
322.723	3.35
323.096	3.1
323.469	3.62
323.843	3.46
324.216	3.63
324.589	4.21
324.962	2.93
325.335	3.45
325.708	2.94
326.081	3.53
326.454	3.37
326.827	3.81
327.2	3.36
327.573	3.7
327.945	3.24
328.318	3.03
328.691	3.68
329.063	3.44
329.436	3.07
329.809	3.44
330.181	3.78
330.553	3.35
330.926	3.87
331.298	3.12
331.671	3.96
332.043	2.65
332.415	3.64
332.787	3.66
333.159	3.34
333.532	2.74
333.904	3.56
334.276	3.19
334.648	3.39
335.02	3.32
335.391	3.45
335.763	3.5
336.135	3.47
336.507	3.8
336.879	3.31
337.25	3.77
337.622	3.47
337.993	3.75
338.365	3.83
338.736	3.47
339.108	3.74
339.479	3.64
339.851	3.23
340.222	3.47
340.593	3.33
340.964	3.1
341.336	3.54
341.707	2.83
342.078	3.34
342.449	3.45
342.82	3.28
343.191	2.92
343.562	3.26
343.933	3.61
344.303	3.56
344.674	3.3
345.045	3.54
345.416	3.57
345.786	3.38
346.157	3.19
346.527	3.5
346.898	2.82
347.268	2.97
347.639	3.22
348.009	3.34
348.38	3.47
348.75	3.45
349.12	3.72
349.49	4.11
349.861	3.46
350.231	3.43
350.601	3.66
350.971	3.58
351.341	3.45
351.711	3.03
352.081	3.28
352.45	3.03
352.82	3.78
353.19	3.82
353.56	3.6
353.929	3.93
354.299	3.62
354.669	3.2
355.038	3.42
355.408	3.36
355.777	3.93
356.147	3.52
356.516	3.46
356.885	3.58
357.254	3.72
357.624	3.34
357.993	3.48
358.362	3.38
358.731	3.27
359.1	3.27
359.469	3.61
359.838	3.35
360.207	3.53
360.576	3.46
360.945	3.27
361.314	3.6
361.682	3.48
362.051	3.76
362.42	3.2
362.788	2.85
363.157	3.62
363.525	3.55
363.894	3.44
364.262	3.14
364.631	3.33
364.999	3.31
365.367	3.76
365.735	3.39
366.104	3.24
366.472	3.79
366.84	3.24
367.208	3.91
367.576	3.89
367.944	3.57
368.312	3.61
368.68	3.21
369.048	3.59
369.416	3.37
369.783	3.13
370.151	2.96
370.519	3.45
370.886	3.27
371.254	3.89
371.621	3.43
371.989	3.46
372.356	3.31
372.724	3.77
373.091	3.79
373.458	3.3
373.826	3.6
374.193	3.5
374.56	3.43
374.927	3.62
375.294	3.5
375.661	3.67
376.028	4.01
376.395	3.57
376.762	3.29
377.129	3.59
377.496	3.7
377.863	3.41
378.229	4.04
378.596	3.55
378.963	3.61
379.329	3.61
379.696	3.79
380.062	3.29
380.429	3.68
380.795	3.49
381.161	3.65
381.528	3.5
381.894	3.19
382.26	3.39
382.626	3.68
382.993	3.94
383.359	3.52
383.725	3.59
384.091	3.74
384.457	3.62
384.823	3.47
385.188	3.94
385.554	3.72
385.92	3.95
386.286	3.73
386.651	3.74
387.017	3.86
387.383	3.57
387.748	3.73
388.114	3.77
388.479	3.63
388.845	3.42
389.21	3.39
389.575	4.12
389.94	3.57
390.306	3.86
390.671	3.86
391.036	3.24
391.401	3.76
391.766	3.94
392.131	3.64
392.496	3.92
392.861	3.66
393.226	3.98
393.591	3.84
393.956	3.7
394.32	3.8
394.685	3.62
395.05	3.9
395.414	3.75
395.779	3.87
396.143	3.97
396.508	3.71
396.872	3.74
397.236	3.69
397.601	3.57
397.965	3.84
398.329	3.82
398.694	3.74
399.058	3.83
399.422	3.86
399.786	3.72
400.15	3.94
400.514	3.79
400.878	3.71
401.242	3.81
401.605	3.71
401.969	3.45
402.333	3.79
402.697	3.65
403.06	3.82
403.424	3.83
403.787	3.89
404.151	3.66
404.514	4.14
404.878	3.78
405.241	3.94
405.604	3.91
405.968	3.76
406.331	3.78
406.694	3.89
407.057	3.65
407.42	3.91
407.783	3.86
408.146	3.97
408.509	3.77
408.872	3.65
409.235	3.88
409.598	3.67
409.961	4
410.323	3.8
410.686	3.96
411.049	4.05
411.411	4
411.774	3.78
412.136	3.75
412.499	3.72
412.861	3.99
413.223	3.86
413.586	3.82
413.948	3.97
414.31	3.73
414.672	3.79
415.035	3.81
415.397	4.29
415.759	4.14
416.121	3.72
416.483	3.96
416.845	3.8
417.206	3.72
417.568	3.78
417.93	3.82
418.292	3.8
418.653	3.78
419.015	3.84
419.377	3.84
419.738	3.96
420.1	3.76
420.461	3.84
420.822	3.77
421.184	3.85
421.545	3.7
421.906	3.86
422.267	3.78
422.629	3.78
422.99	3.76
423.351	3.68
423.712	3.72
424.073	3.7
424.434	3.8
424.795	3.84
425.155	3.88
425.516	3.84
425.877	3.78
426.238	3.69
426.598	3.8
426.959	3.76
427.32	3.87
427.68	3.75
428.041	3.83
428.401	3.99
428.761	4.05
429.122	3.9
429.482	3.79
429.842	3.78
430.202	3.94
430.563	3.98
430.923	4.04
431.283	4.03
431.643	3.87
432.003	4.08
432.363	3.98
432.722	3.96
433.082	4.16
433.442	3.95
433.802	4.04
434.161	3.85
434.521	4.02
434.881	3.95
435.24	3.79
435.6	3.84
435.959	3.83
436.319	4.08
436.678	4.06
437.037	3.98
437.396	3.87
437.756	4.01
438.115	4.03
438.474	4.04
438.833	3.97
439.192	3.9
439.551	3.81
439.91	4.14
440.269	4.04
440.628	3.93
440.987	3.87
441.345	4.02
441.704	4.05
442.063	3.93
442.421	3.84
442.78	3.98
443.138	4.01
443.497	3.9
443.855	3.98
444.214	3.79
444.572	4.03
444.93	3.98
445.288	3.99
445.647	4.08
446.005	3.97
446.363	3.95
446.721	4.02
447.079	3.82
447.437	4.04
447.795	4.05
448.153	3.95
448.51	3.91
448.868	3.87
449.226	3.94
449.584	3.89
449.941	3.92
450.299	3.94
450.656	4.19
451.014	3.97
451.371	3.99
451.729	4.01
452.086	4.07
452.443	4
452.801	4.05
453.158	4.07
453.515	4.19
453.872	3.96
454.229	4.23
454.586	4.02
454.943	4.03
455.3	4.03
455.657	4.07
456.014	4.12
456.371	4.07
456.727	4.19
457.084	4.14
457.441	4.06
457.797	4.17
458.154	3.99
458.51	4.07
458.867	3.96
459.223	4.06
459.58	4.14
459.936	4.21
460.292	4.09
460.648	4.21
461.005	4.16
461.361	4.21
461.717	3.82
462.073	3.92
462.429	3.86
462.785	3.9
463.141	4.02
463.496	4.22
463.852	4.09
464.208	4
464.564	4.13
464.919	4
465.275	4.42
465.631	4.44
465.986	4.17
466.342	4.23
466.697	4.31
467.052	4.12
467.408	4.15
467.763	4.07
468.118	4.27
468.473	4.16
468.829	3.95
469.184	4.12
469.539	4.16
469.894	4.11
470.249	4.3
470.603	4.19
470.958	4.15
471.313	4.39
471.668	4.28
472.023	4.24
472.377	4.24
472.732	4.13
473.086	4.34
473.441	3.76
473.795	4.42
474.15	3.96
474.504	4.04
474.859	4.27
475.213	4.07
475.567	4.11
475.921	4.27
476.275	4.19
476.63	4.16
476.984	4.06
477.338	4.16
477.692	4.16
478.045	4.27
478.399	4.36
478.753	3.99
479.107	4.03
479.461	4.09
479.814	4.26
480.168	4.23
480.521	4.17
480.875	4.31
481.228	4.19
481.582	4.04
481.935	4.24
482.289	4.04
482.642	4.15
482.995	4.17
483.348	4.22
483.701	4.17
484.055	4.06
484.408	4.07
484.761	4.07
485.114	3.96
485.466	3.85
485.819	3.83
486.172	3.79
486.525	3.84
486.878	3.88
487.23	3.97
487.583	4.02
487.936	4.04
488.288	4.08
488.641	4.1
488.993	3.99
489.345	3.88
489.698	3.91
490.05	3.89
490.402	3.95
490.754	3.89
491.107	3.95
491.459	4.06
491.811	4.07
492.163	4.14
492.515	4.06
492.866	4.03
493.218	4.03
493.57	4.06
493.922	3.93
494.274	3.96
494.625	3.97
494.977	4.15
495.328	4.18
495.68	4.22
496.031	4.12
496.383	4.31
496.734	4.28
497.086	4.23
497.437	4.31
497.788	4.14
498.139	4.32
498.49	4.36
498.842	4.12
499.193	4.07
499.544	4.22
499.894	4.14
500.245	4.3
500.596	4.25
500.947	4.15
501.298	4.31
501.648	4.26
501.999	4.41
502.35	4.35
502.7	4.41
503.051	4.38
503.401	4.35
503.752	4.23
504.102	4.23
504.452	4.19
504.803	4.22
505.153	4.19
505.503	4.33
505.853	4.3
506.203	4.26
506.553	4.32
506.903	4.18
507.253	4.28
507.603	4.25
507.953	4.3
508.303	4.29
508.652	4.33
509.002	4.34
509.352	4.23
509.701	4.29
510.051	4.3
510.4	4.18
510.75	4.2
511.099	4.18
511.449	4.27
511.798	4.3
512.147	4.28
512.496	4.15
512.846	4.17
513.195	4.19
513.544	4.23
513.893	4.28
514.242	4.25
514.591	4.25
514.939	4.23
515.288	4.06
515.637	4.25
515.986	4.22
516.334	4.19
516.683	4.31
517.032	4.42
517.38	4.3
517.729	4.21
518.077	4.38
518.426	4.27
518.774	4.29
519.122	4.31
519.47	4.26
519.819	4.29
520.167	4.23
520.515	4.12
520.863	4.11
521.211	4.14
521.559	4.15
521.907	4.17
522.255	4.23
522.602	4.27
522.95	4.22
523.298	4.29
523.645	4.23
523.993	4.2
524.341	4.15
524.688	4.24
525.036	4.29
525.383	4.27
525.73	4.3
526.078	4.2
526.425	4.25
526.772	4.31
527.119	4.17
527.466	4.07
527.814	4.14
528.161	4.1
528.508	4.13
528.854	4.13
529.201	4.19
529.548	4.14
529.895	4.05
530.242	4.03
530.588	3.95
530.935	3.9
531.282	3.89
531.628	4.01
531.975	4.03
532.321	4.09
532.667	4.13
533.014	4.1
533.36	4.19
533.706	4.1
534.052	4.28
534.399	4.16
534.745	4.22
535.091	4.03
535.437	4.05
535.783	3.94
536.129	4.06
536.474	4.19
536.82	4.07
537.166	4.25
537.512	4.2
537.857	4.17
538.203	4.28
538.549	4.16
538.894	4.07
539.239	4.08
539.585	4.09
539.93	4.21
540.276	4.18
540.621	4.29
540.966	4.32
541.311	4.27
541.656	4.02
542.001	4.3
542.346	4.17
542.691	4.17
543.036	4.11
543.381	3.96
543.726	4
544.071	3.99
544.415	4.02
544.76	3.99
545.105	4.01
545.449	4.11
545.794	4.11
546.138	4.16
546.483	4.1
546.827	4.19
547.171	4.22
547.516	4.31
547.86	4.21
548.204	4.18
548.548	4.22
548.892	4.22
549.236	4.11
549.58	4.22
549.924	4.26
550.268	4.24
550.612	4.12
550.956	4.23
551.3	4.37
551.643	4.22
551.987	4.33
552.33	4.36
552.674	4.16
553.017	4.17
553.361	4.29
553.704	4.49
554.048	4.35
554.391	4.27
554.734	4.32
555.077	4.22
555.42	4.1
555.764	4.2
556.107	4.23
556.45	4.11
556.793	4.15
557.135	4.2
557.478	4.03
557.821	4.33
558.164	4.42
558.507	4.47
558.849	4.21
559.192	4.37
559.534	4.31
559.877	4.22
560.219	4.35
560.562	4.3
560.904	4.18
561.246	4.23
561.589	4.44
561.931	4.39
562.273	4.24
562.615	4.24
562.957	4.26
563.299	4.44
563.641	4.25
563.983	4.25
564.325	4.45
564.667	4.37
565.008	4.12
565.35	4.39
565.692	4.36
566.033	4.41
566.375	4.3
566.716	4.32
567.058	4.14
567.399	4.26
567.741	4.37
568.082	4.14
568.423	4.29
568.764	4.41
569.105	4.15
569.447	4.21
569.788	4.05
570.129	4.29
570.47	4.28
570.811	4.29
571.151	4.36
571.492	4.13
571.833	4.16
572.174	4.28
572.514	4.15
572.855	4.43
573.195	4.23
573.536	4.19
573.876	4.16
574.217	4.23
574.557	4.17
574.898	4.21
575.238	4.15
575.578	4.37
575.918	4.3
576.258	4.08
576.598	4.08
576.938	4.24
577.278	4.28
577.618	4.07
577.958	4.23
578.298	4.35
578.638	4.09
578.977	4.22
579.317	4.28
579.657	4.23
579.996	4.38
580.336	4.4
580.675	4.41
581.014	4.1
581.354	4.14
581.693	4.29
582.032	4.42
582.372	4.41
582.711	4.39
583.05	4.04
583.389	4.39
583.728	4.17
584.067	4.24
584.406	4.47
584.745	4.06
585.083	4.36
585.422	4.6
585.761	4.24
586.1	4.15
586.438	4.4
586.777	4.3
587.115	4.43
587.454	4.01
587.792	4.59
588.13	4.2
588.469	4.23
588.807	4.43
589.145	4.16
589.483	4.44
589.821	4.25
590.159	4.14
590.497	4.47
590.835	4.38
591.173	4.09
591.511	4.27
591.849	4.36
592.187	4.31
592.524	4.47
592.862	4.28
593.2	4.17
593.537	4.22
593.875	4.2
594.212	4.36
594.55	4.28
594.887	4.1
595.224	4.31
595.561	4.17
595.899	4.28
596.236	4.47
596.573	4.45
596.91	4.17
597.247	4.14
597.584	4.38
597.921	4.22
598.258	4.46
598.594	4.05
598.931	4.23
599.268	4.23
599.604	4.3
599.941	4.2
600.277	4.29
600.614	4.14
600.95	4.2
601.287	4.11
601.623	4.11
601.959	4.34
602.296	4.33
602.632	3.95
602.968	4.38
603.304	4.25
603.64	4.01
603.976	4.18
604.312	4.15
604.648	4.28
604.984	4.3
605.319	4.22
605.655	4.1
605.991	4.17
606.326	4.23
606.662	4.16
606.998	4.08
607.333	4.33
607.668	4.01
608.004	4.09
608.339	4.03
608.674	4.17
609.01	4.3
609.345	4.29
609.68	4.26
610.015	4.15
610.35	4.01
610.685	4.47
611.02	4.36
611.355	4.27
611.689	4.16
612.024	4.08
612.359	4.12
612.694	4.16
613.028	4.02
613.363	4.09
613.697	4.4
614.032	4.1
614.366	4.07
614.7	4.14
615.035	4.45
615.369	4.08
615.703	4.14
616.037	4.13
616.371	4.67
616.705	4.59
617.039	4.49
617.373	4.37
617.707	4.18
618.041	4.2
618.375	4.33
618.709	4.39
619.042	4.49
619.376	4.51
619.71	4.42
620.043	3.66
620.377	3.99
620.71	4.24
621.043	4.42
621.377	4.1
621.71	4.5
622.043	4.54
622.376	4.37
622.709	4.35
623.043	4.11
623.376	4.49
623.709	4.24
624.041	4.21
624.374	4.43
624.707	4.48
625.04	4.37
625.373	3.97
625.705	4.17
626.038	4.23
626.37	4.51
626.703	4.22
627.035	4.35
627.368	4.04
627.7	4.57
628.032	4.56
628.365	4.59
628.697	4.09
629.029	4.29
629.361	4.18
629.693	4.51
630.025	4.41
630.357	4.14
630.689	4.38
631.021	4.22
631.353	4.07
631.684	4.39
632.016	4.14
632.348	4.14
632.679	4.06
633.011	4.35
633.342	4.19
633.674	4.38
634.005	3.73
634.336	4.45
634.668	4.5
634.999	4.15
635.33	4.32
635.661	4.17
635.992	4.4
636.323	4.07
636.654	3.84
636.985	3.97
637.316	4.24
637.647	4.48
637.977	3.92
638.308	4.65
638.639	4.4
638.969	4.28
639.3	4.28
639.63	4.39
639.961	4.05
640.291	4.42
640.622	4.35
640.952	4.45
641.282	4.51
641.612	4.29
641.943	4.85
642.273	4.4
642.603	4.15
642.933	4.07
643.263	3.58
643.592	4.33
643.922	4.36
644.252	3.81
644.582	4.55
644.911	4.62
645.241	4.63
645.571	3.9
645.9	4.49
646.23	4.86
646.559	4.83
646.888	4.65
647.218	4.15
647.547	4.45
647.876	4.4
648.205	4.18
648.534	4.21
648.863	4.11
649.192	3.8
649.521	4.57
649.85	4.63
650.179	4.14
650.508	3.74
650.837	4.77
651.165	4.5
651.494	4.42
651.822	4.27
652.151	4.11
652.479	4.11
652.808	4.16
653.136	4.64
653.465	4.39
653.793	3.93
654.121	4.67
654.449	4.29
654.777	4.61
655.105	4.75
655.433	4.9
655.761	4.73
656.089	4.19
656.417	4.51
656.745	4.1
657.073	4.31
657.4	5.01
657.728	4.55
658.056	4.4
658.383	5.11
658.711	3.97
659.038	4.06
659.365	4.47
659.693	4.08
660.02	4.82
660.347	4.65
660.674	4.11
661.001	4.33
661.329	4.21
661.656	4.27
661.982	4.18
662.309	4.56
662.636	4.48
662.963	4.45
663.29	4.6
663.616	4.34
663.943	4.65
664.27	4.71
664.596	4.25
664.923	4.46
665.249	4.46
665.576	4.16
665.902	4.34
666.228	4.49
666.554	4.34
666.881	4.65
667.207	4.52
667.533	4.25
667.859	4.44
668.185	4.17
668.511	4.81
668.837	4.25
669.162	4.64
669.488	3.82
669.814	4.16
670.139	4.36
670.465	4.9
670.791	4.24
671.116	4.69
671.442	4.69
671.767	4.18
672.092	4.5
672.418	5.16
672.743	4.43
673.068	4.7
673.393	4.13
673.718	4.89
674.043	4.77
674.368	4.67
674.693	4.44
675.018	4.16
675.343	4.79
675.667	4.53
675.992	4.23
676.317	5.04
676.641	4.64
676.966	4.97
677.29	4.5
677.615	4.6
677.939	5.46
678.264	4.17
678.588	5.23
678.912	4.74
679.236	4.31
679.56	4.07
679.885	4.23
680.209	5.69
680.532	4.3
680.856	4.32
681.18	4.82
681.504	4.37
681.828	4.58
682.152	4.42
682.475	5.05
682.799	4.25
683.122	4.86
683.446	4.72
683.769	4.18
684.093	5.03
684.416	4.72
684.739	4.94
685.062	5.52
685.386	4.78
685.709	4.97
686.032	4.22
686.355	4.38
686.678	4.59
687.001	4.77
687.324	5.15
687.646	4.69
687.969	5.26
688.292	4.83
688.614	5.11
688.937	4.52
689.26	3.55
689.582	4.88
689.904	4.77
690.227	5.11
690.549	4.72
690.871	5.34
691.194	4.64
691.516	4.04
691.838	5.3
692.16	4.27
