Data from 0188_chest_Reflection__3__145.txt Node

Date: Fri Sep 22 21:27:41 CDT 2023
User: ToomeyLab
Spectrometer: FLMS14357
Trigger mode: 0
Integration Time (sec): 1.000000E-2
Scans to average: 100
Electric dark correction enabled: true
Nonlinearity correction enabled: false
Boxcar width: 0
XAxis mode: Wavelengths
Number of Pixels in Spectrum: 2048
>>>>>Begin Spectral Data<<<<<
189.047	-354.48
189.435	-354.48
189.823	-354.48
190.211	29.1
190.599	268.57
190.987	33.57
191.375	28.92
191.763	-1025.86
192.151	678.49
192.538	-32.21
192.926	381.07
193.314	-73.94
193.702	402.97
194.089	79.85
194.477	170.11
194.864	334.47
195.252	29.8
195.639	74.04
196.027	-489.32
196.414	-29.39
196.801	34.49
197.189	-676.07
197.576	80.3
197.963	8.66
198.351	12.23
198.738	62.41
199.125	7
199.512	-40.08
199.899	75.66
200.286	7.62
200.673	50.69
201.06	25.88
201.447	43.56
201.833	-233.57
202.22	40.69
202.607	33.18
202.994	99.45
203.38	47.8
203.767	-28.49
204.154	17.79
204.54	47.01
204.927	6.33
205.313	53.63
205.699	76.93
206.086	35.36
206.472	58.64
206.858	3.76
207.245	-8.97
207.631	35.15
208.017	8.08
208.403	36.95
208.789	54.62
209.175	46.31
209.561	42.99
209.947	46.22
210.333	43.4
210.719	43.2
211.105	34.76
211.491	38.81
211.876	31.28
212.262	29.9
212.648	41.31
213.034	18.28
213.419	32.98
213.805	3.61
214.19	11.95
214.576	30.4
214.961	33.7
215.346	21.35
215.732	39.27
216.117	4.04
216.502	43.54
216.888	23.2
217.273	29.17
217.658	13.74
218.043	42.7
218.428	32.65
218.813	-9.42
219.198	0.19
219.583	-12.02
219.968	0.56
220.353	40.41
220.738	-7.42
221.122	36.08
221.507	4.29
221.892	8.9
222.276	19.33
222.661	-25.08
223.046	24.65
223.43	12.83
223.815	24.8
224.199	0.97
224.583	5.96
224.968	15.91
225.352	10.59
225.736	2.48
226.121	17.67
226.505	1.9
226.889	6.55
227.273	3.52
227.657	14.16
228.041	9.68
228.425	8.93
228.809	7.06
229.193	4.93
229.577	11.97
229.961	7.31
230.344	6.91
230.728	5.6
231.112	6.31
231.495	4.71
231.879	5.15
232.263	4.83
232.646	6.82
233.03	3.89
233.413	5.24
233.797	5.03
234.18	5.02
234.563	6.61
234.946	4.96
235.33	3.5
235.713	4.76
236.096	4.46
236.479	4.35
236.862	7.09
237.245	5.82
237.628	6.38
238.011	6.96
238.394	6.29
238.777	7.02
239.16	5.82
239.543	5.9
239.925	6.92
240.308	6.02
240.691	6.96
241.073	7.3
241.456	6.21
241.838	4.67
242.221	4.62
242.603	4.11
242.986	4.04
243.368	4.37
243.75	5.67
244.133	5.79
244.515	4.88
244.897	4.9
245.279	4.85
245.661	5.07
246.043	4.74
246.425	4.25
246.807	4.66
247.189	3.85
247.571	6.27
247.953	5.33
248.335	4.94
248.717	5.12
249.098	4.75
249.48	4.49
249.862	4.56
250.243	4.6
250.625	5.14
251.006	4.94
251.388	4.8
251.769	4.42
252.151	5.31
252.532	5.3
252.913	5.52
253.295	4.97
253.676	4.85
254.057	4.99
254.438	5.59
254.819	4.73
255.2	4.86
255.581	4.04
255.962	5.76
256.343	5.31
256.724	3.42
257.105	4.69
257.486	5.14
257.867	5.77
258.247	4.69
258.628	5.24
259.009	4.8
259.389	4.57
259.77	4.99
260.15	5.43
260.531	3.69
260.911	4.7
261.292	4.71
261.672	4.19
262.052	4.35
262.432	4.26
262.813	4.42
263.193	4.1
263.573	5.08
263.953	4.42
264.333	3.79
264.713	4.45
265.093	4.74
265.473	3.7
265.853	3.21
266.233	4.52
266.612	4.81
266.992	4.76
267.372	4.41
267.752	5.21
268.131	4.82
268.511	4.38
268.89	4.85
269.27	3.85
269.649	4.36
270.029	4.67
270.408	4.95
270.787	3.97
271.167	4
271.546	4.46
271.925	4.79
272.304	4.08
272.683	5.11
273.062	4.9
273.441	4.3
273.82	4.77
274.199	4.46
274.578	4.72
274.957	4.09
275.336	4.2
275.715	4.28
276.093	3.95
276.472	4.01
276.851	4.64
277.229	4.08
277.608	4.89
277.986	4.02
278.365	4.79
278.743	4.62
279.122	4.73
279.5	4.3
279.878	4.49
280.257	4.99
280.635	4.11
281.013	4.98
281.391	4.13
281.769	3.78
282.147	4.15
282.525	4.39
282.903	4.2
283.281	4.09
283.659	4.62
284.037	4.13
284.415	4.46
284.792	3.54
285.17	4.37
285.548	4.57
285.925	4.74
286.303	4.41
286.68	3.77
287.058	3.89
287.435	3.93
287.813	3.89
288.19	3.54
288.567	4.39
288.945	4.06
289.322	3.96
289.699	4.12
290.076	4.38
290.453	4.01
290.83	4.03
291.207	3.9
291.584	3.74
291.961	3.82
292.338	4.28
292.715	4.73
293.092	4.13
293.469	4.47
293.845	3.66
294.222	4.22
294.599	4.21
294.975	4.79
295.352	4.27
295.728	4.16
296.105	4.48
296.481	4.27
296.858	4.13
297.234	3.97
297.61	4.2
297.986	4.23
298.363	4.23
298.739	4.21
299.115	4.23
299.491	4.28
299.867	4.18
300.243	3.79
300.619	4.27
300.995	3.9
301.371	4.58
301.746	4.6
302.122	4.23
302.498	4
302.874	3.76
303.249	4.02
303.625	4.04
304	4.26
304.376	4.84
304.751	3.9
305.127	4.18
305.502	4.4
305.878	4.3
306.253	4.37
306.628	4.13
307.003	4.15
307.378	4.06
307.754	4.11
308.129	4.7
308.504	4.29
308.879	4.3
309.254	4.83
309.629	4.2
310.003	4.6
310.378	4.54
310.753	4.28
311.128	4.31
311.502	4.38
311.877	3.86
312.252	4.04
312.626	4.12
313.001	4.25
313.375	4.32
313.75	4.47
314.124	4.69
314.498	4.13
314.873	4.19
315.247	4.97
315.621	4.37
315.995	4.18
316.369	4.27
316.743	4.39
317.117	4.38
317.491	4.93
317.865	3.59
318.239	4.37
318.613	4.21
318.987	3.92
319.361	4.02
319.734	4
320.108	4.73
320.482	4.41
320.855	4.03
321.229	4.94
321.602	5.06
321.976	3.89
322.349	4.66
322.723	4.28
323.096	4.38
323.469	4.74
323.843	5.15
324.216	4.45
324.589	4.45
324.962	3.73
325.335	4.1
325.708	4.85
326.081	4.91
326.454	4.36
326.827	4.89
327.2	4.5
327.573	5.13
327.945	4.81
328.318	4.53
328.691	4.47
329.063	4.24
329.436	4.32
329.809	4.22
330.181	4.91
330.553	4.87
330.926	4.69
331.298	4.34
331.671	4.53
332.043	3.87
332.415	4.66
332.787	4.59
333.159	4.53
333.532	4.21
333.904	4.24
334.276	4.63
334.648	4.13
335.02	3.99
335.391	4.13
335.763	4.26
336.135	4.04
336.507	4.27
336.879	4.44
337.25	4.74
337.622	4.56
337.993	4.41
338.365	4.68
338.736	4.5
339.108	4.47
339.479	4.46
339.851	4.2
340.222	3.99
340.593	4.45
340.964	3.75
341.336	4.17
341.707	4.19
342.078	4.58
342.449	4.3
342.82	4.17
343.191	3.8
343.562	4.44
343.933	4.41
344.303	4.46
344.674	4.69
345.045	4.59
345.416	4.06
345.786	4.3
346.157	4.36
346.527	4.33
346.898	4.28
347.268	4.41
347.639	4.26
348.009	4.16
348.38	4.38
348.75	4.83
349.12	4.29
349.49	4.27
349.861	4.6
350.231	4.51
350.601	4.67
350.971	4.3
351.341	4.13
351.711	4.53
352.081	4.24
352.45	4.07
352.82	4.26
353.19	4.59
353.56	4.3
353.929	4.54
354.299	4.56
354.669	4.36
355.038	4.46
355.408	4.77
355.777	4.71
356.147	4.23
356.516	4.66
356.885	4.23
357.254	4.68
357.624	3.77
357.993	4.35
358.362	4.69
358.731	4.1
359.1	4.35
359.469	4.39
359.838	4.07
360.207	4.05
360.576	4.45
360.945	4.29
361.314	4.5
361.682	4.22
362.051	4.34
362.42	4.52
362.788	4.4
363.157	4.33
363.525	4.28
363.894	4.12
364.262	4.31
364.631	4.36
364.999	4.16
365.367	4.47
365.735	4.32
366.104	4.19
366.472	4.69
366.84	4.38
367.208	4.66
367.576	4.45
367.944	4.45
368.312	4.62
368.68	4.66
369.048	4.31
369.416	4.63
369.783	4.15
370.151	4.37
370.519	4.26
370.886	4.31
371.254	4.93
371.621	4.48
371.989	4.42
372.356	4.27
372.724	4.53
373.091	4.58
373.458	4.39
373.826	4.75
374.193	4.69
374.56	4.42
374.927	4.6
375.294	4.17
375.661	4.62
376.028	4.55
376.395	4.73
376.762	4.18
377.129	4.81
377.496	4.75
377.863	4.78
378.229	4.14
378.596	4.48
378.963	4.54
379.329	4.49
379.696	4.8
380.062	4.21
380.429	4.46
380.795	4.66
381.161	4.22
381.528	4.54
381.894	4.21
382.26	4.41
382.626	4.6
382.993	4.72
383.359	4.31
383.725	4.13
384.091	4.59
384.457	4.73
384.823	4.43
385.188	4.59
385.554	4.37
385.92	4.66
386.286	4.63
386.651	4.63
387.017	4.56
387.383	4.62
387.748	4.5
388.114	4.54
388.479	4.71
388.845	4.36
389.21	4.49
389.575	4.83
389.94	4.19
390.306	4.53
390.671	4.82
391.036	4.38
391.401	4.65
391.766	4.7
392.131	4.17
392.496	4.87
392.861	4.49
393.226	4.66
393.591	4.61
393.956	4.34
394.32	4.33
394.685	4.47
395.05	4.61
395.414	4.64
395.779	4.33
396.143	4.49
396.508	4.54
396.872	4.6
397.236	4.67
397.601	4.53
397.965	4.82
398.329	4.69
398.694	4.66
399.058	4.72
399.422	4.49
399.786	4.89
400.15	4.53
400.514	4.66
400.878	4.56
401.242	4.54
401.605	4.55
401.969	4.34
402.333	4.65
402.697	4.58
403.06	4.7
403.424	4.59
403.787	4.73
404.151	4.87
404.514	4.77
404.878	4.79
405.241	4.82
405.604	4.77
405.968	4.75
406.331	4.58
406.694	4.67
407.057	4.55
407.42	4.68
407.783	4.69
408.146	4.54
408.509	4.56
408.872	4.57
409.235	4.53
409.598	4.55
409.961	4.67
410.323	4.75
410.686	4.7
411.049	4.95
411.411	4.92
411.774	4.6
412.136	4.58
412.499	4.5
412.861	4.68
413.223	4.76
413.586	4.82
413.948	4.8
414.31	4.65
414.672	4.68
415.035	4.68
415.397	4.86
415.759	5.02
416.121	4.68
416.483	4.72
416.845	4.66
417.206	4.75
417.568	4.66
417.93	4.67
418.292	4.74
418.653	4.5
419.015	4.73
419.377	4.55
419.738	4.83
420.1	4.55
420.461	4.72
420.822	4.68
421.184	4.67
421.545	4.57
421.906	4.57
422.267	4.51
422.629	4.62
422.99	4.72
423.351	4.54
423.712	4.48
424.073	4.5
424.434	4.68
424.795	4.61
425.155	4.62
425.516	4.68
425.877	4.62
426.238	4.54
426.598	4.58
426.959	4.52
427.32	4.57
427.68	4.54
428.041	4.59
428.401	4.83
428.761	4.8
429.122	4.7
429.482	4.75
429.842	4.77
430.202	4.65
430.563	4.73
430.923	4.72
431.283	4.82
431.643	4.84
432.003	4.92
432.363	4.92
432.722	4.9
433.082	4.9
433.442	4.8
433.802	4.78
434.161	4.76
434.521	4.79
434.881	4.64
435.24	4.72
435.6	4.57
435.959	4.64
436.319	4.79
436.678	4.89
437.037	4.77
437.396	4.74
437.756	4.84
438.115	4.85
438.474	4.93
438.833	4.79
439.192	4.76
439.551	4.87
439.91	4.8
440.269	4.75
440.628	4.66
440.987	4.79
441.345	4.85
441.704	4.91
442.063	4.67
442.421	4.8
442.78	4.73
443.138	4.7
443.497	4.72
443.855	4.9
444.214	4.69
444.572	4.85
444.93	4.83
445.288	4.83
445.647	4.85
446.005	4.86
446.363	4.67
446.721	4.87
447.079	4.72
447.437	4.86
447.795	4.88
448.153	4.7
448.51	4.82
448.868	4.63
449.226	4.64
449.584	4.75
449.941	4.62
450.299	4.79
450.656	4.86
451.014	4.89
451.371	4.84
451.729	4.94
452.086	4.82
452.443	4.89
452.801	4.86
453.158	4.81
453.515	5.01
453.872	4.87
454.229	4.88
454.586	4.88
454.943	4.93
455.3	4.91
455.657	4.9
456.014	4.88
456.371	4.89
456.727	5.15
457.084	4.95
457.441	4.84
457.797	4.93
458.154	5.05
458.51	4.98
458.867	4.99
459.223	4.94
459.58	5.05
459.936	4.97
460.292	4.85
460.648	4.97
461.005	5.03
461.361	4.97
461.717	4.65
462.073	4.89
462.429	4.75
462.785	4.93
463.141	4.9
463.496	4.95
463.852	4.92
464.208	4.98
464.564	5.2
464.919	4.98
465.275	5.19
465.631	5.18
465.986	5.12
466.342	5.01
466.697	5.09
467.052	4.93
467.408	5.08
467.763	5.05
468.118	5.15
468.473	4.97
468.829	5.08
469.184	4.94
469.539	4.95
469.894	5.12
470.249	5.12
470.603	4.95
470.958	5.03
471.313	4.95
471.668	5.09
472.023	5.04
472.377	4.98
472.732	5.13
473.086	5.18
473.441	4.87
473.795	5.19
474.15	4.92
474.504	4.97
474.859	5.15
475.213	5.11
475.567	5.03
475.921	5.06
476.275	5.07
476.63	5.08
476.984	4.92
477.338	5.14
477.692	5.24
478.045	5.27
478.399	5.25
478.753	5.14
479.107	5.19
479.461	5.13
479.814	5.25
480.168	5.09
480.521	5.11
480.875	5.17
481.228	5.09
481.582	4.93
481.935	4.98
482.289	5.04
482.642	5.09
482.995	5.11
483.348	5.06
483.701	5.18
484.055	5.02
484.408	5.01
484.761	5.09
485.114	4.9
485.466	4.86
485.819	4.8
486.172	4.79
486.525	4.76
486.878	4.83
487.23	4.87
487.583	4.94
487.936	5.01
488.288	5.08
488.641	4.98
488.993	4.94
489.345	4.93
489.698	4.87
490.05	4.94
490.402	4.93
490.754	4.87
491.107	4.87
491.459	4.97
491.811	4.99
492.163	5.05
492.515	5.14
492.866	5.14
493.218	5.06
493.57	5.06
493.922	4.94
494.274	5.01
494.625	4.96
494.977	5.13
495.328	5.21
495.68	5.28
496.031	5.12
496.383	5.19
496.734	5.19
497.086	5.16
497.437	5.22
497.788	5.17
498.139	5.29
498.49	5.43
498.842	5.3
499.193	5.22
499.544	5.28
499.894	5.21
500.245	5.35
500.596	5.3
500.947	5.35
501.298	5.34
501.648	5.26
501.999	5.39
502.35	5.44
502.7	5.47
503.051	5.36
503.401	5.41
503.752	5.48
504.102	5.38
504.452	5.34
504.803	5.4
505.153	5.4
505.503	5.29
505.853	5.45
506.203	5.37
506.553	5.38
506.903	5.44
507.253	5.31
507.603	5.48
507.953	5.49
508.303	5.46
508.652	5.52
509.002	5.48
509.352	5.38
509.701	5.45
510.051	5.4
510.4	5.43
510.75	5.46
511.099	5.35
511.449	5.51
511.798	5.43
512.147	5.41
512.496	5.44
512.846	5.39
513.195	5.46
513.544	5.54
513.893	5.53
514.242	5.38
514.591	5.62
514.939	5.5
515.288	5.47
515.637	5.56
515.986	5.55
516.334	5.54
516.683	5.57
517.032	5.68
517.38	5.66
517.729	5.58
518.077	5.62
518.426	5.66
518.774	5.62
519.122	5.71
519.47	5.58
519.819	5.66
520.167	5.71
520.515	5.59
520.863	5.52
521.211	5.53
521.559	5.58
521.907	5.65
522.255	5.66
522.602	5.6
522.95	5.7
523.298	5.74
523.645	5.84
523.993	5.81
524.341	5.77
524.688	5.7
525.036	5.74
525.383	5.66
525.73	5.87
526.078	5.77
526.425	5.85
526.772	5.9
527.119	5.81
527.466	5.62
527.814	5.67
528.161	5.66
528.508	5.71
528.854	5.74
529.201	5.81
529.548	5.81
529.895	5.69
530.242	5.74
530.588	5.65
530.935	5.49
531.282	5.55
531.628	5.63
531.975	5.64
532.321	5.75
532.667	5.75
533.014	5.79
533.36	5.85
533.706	5.91
534.052	6.03
534.399	5.89
534.745	5.88
535.091	5.8
535.437	5.8
535.783	5.68
536.129	5.85
536.474	5.89
536.82	5.86
537.166	6.02
537.512	6
537.857	5.96
538.203	6.14
538.549	6
538.894	5.97
539.239	5.94
539.585	5.96
539.93	6.11
540.276	6.09
540.621	6.02
540.966	6.11
541.311	6.23
541.656	6.22
542.001	6.29
542.346	6.25
542.691	6.21
543.036	6.15
543.381	6.02
543.726	6.05
544.071	6.02
544.415	6.01
544.76	6.06
545.105	6.04
545.449	6.07
545.794	6.24
546.138	6.31
546.483	6.26
546.827	6.42
547.171	6.33
547.516	6.51
547.86	6.44
548.204	6.55
548.548	6.54
548.892	6.5
549.236	6.28
549.58	6.38
549.924	6.52
550.268	6.57
550.612	6.55
550.956	6.54
551.3	6.45
551.643	6.71
551.987	6.74
552.33	6.89
552.674	6.53
553.017	6.5
553.361	6.65
553.704	6.86
554.048	6.75
554.391	6.75
554.734	6.77
555.077	6.7
555.42	6.74
555.764	6.71
556.107	6.87
556.45	6.75
556.793	6.71
557.135	6.82
557.478	6.71
557.821	6.82
558.164	7.12
558.507	7.04
558.849	6.84
559.192	7.03
559.534	7.14
559.877	7.2
560.219	6.99
560.562	7.14
560.904	7.04
561.246	7.24
561.589	7.16
561.931	7.14
562.273	6.96
562.615	7.04
562.957	7.11
563.299	7.2
563.641	7.14
563.983	7.28
564.325	7.27
564.667	7.34
565.008	7.19
565.35	7.2
565.692	7.46
566.033	7.22
566.375	7.45
566.716	7.28
567.058	7.41
567.399	7.49
567.741	7.55
568.082	7.51
568.423	7.47
568.764	7.58
569.105	7.34
569.447	7.42
569.788	7.39
570.129	7.55
570.47	7.71
570.811	7.58
571.151	7.64
571.492	7.56
571.833	7.6
572.174	7.55
572.514	7.68
572.855	7.65
573.195	7.7
573.536	7.88
573.876	7.68
574.217	7.65
574.557	7.84
574.898	7.84
575.238	7.72
575.578	7.95
575.918	7.93
576.258	7.77
576.598	8.02
576.938	7.92
577.278	7.88
577.618	7.72
577.958	7.97
578.298	8.27
578.638	7.83
578.977	8.13
579.317	8.05
579.657	8.04
579.996	8.31
580.336	8.16
580.675	8.35
581.014	8.28
581.354	8.5
581.693	8.17
582.032	8.54
582.372	8.34
582.711	8.42
583.05	8.47
583.389	8.48
583.728	8.19
584.067	8.64
584.406	8.57
584.745	8.35
585.083	8.62
585.422	8.69
585.761	8.59
586.1	8.53
586.438	8.59
586.777	8.4
587.115	8.88
587.454	8.61
587.792	9.14
588.13	8.71
588.469	8.71
588.807	8.86
589.145	8.77
589.483	8.86
589.821	8.97
590.159	8.9
590.497	8.95
590.835	8.9
591.173	8.93
591.511	8.72
591.849	9.2
592.187	9.08
592.524	9.12
592.862	9.06
593.2	9.15
593.537	8.99
593.875	9.11
594.212	9.02
594.55	9.56
594.887	9.18
595.224	9.29
595.561	9.37
595.899	9.66
596.236	9.74
596.573	9.62
596.91	9.46
597.247	9.44
597.584	9.55
597.921	9.78
598.258	9.59
598.594	9.76
598.931	9.49
599.268	9.51
599.604	9.86
599.941	9.65
600.277	9.63
600.614	9.63
600.95	9.73
601.287	9.82
601.623	9.7
601.959	9.86
602.296	9.64
602.632	9.87
602.968	9.97
603.304	10.09
603.64	9.74
603.976	9.97
604.312	10.14
604.648	10.13
604.984	10.2
605.319	10.13
605.655	10.08
605.991	10.24
606.326	10.2
606.662	10.01
606.998	10.14
607.333	10.19
607.668	10.19
608.004	10.17
608.339	10.15
608.674	10.27
609.01	10.37
609.345	10.48
609.68	10.6
610.015	10.42
610.35	10.67
610.685	10.72
611.02	10.81
611.355	10.38
611.689	10.61
612.024	10.66
612.359	10.56
612.694	10.41
613.028	10.47
613.363	10.72
613.697	10.65
614.032	10.64
614.366	10.46
614.7	10.89
615.035	10.96
615.369	10.98
615.703	10.78
616.037	10.92
616.371	11.14
616.705	11.41
617.039	11.29
617.373	11.33
617.707	11.2
618.041	11.39
618.375	11.37
618.709	11.54
619.042	11.32
619.376	11.26
619.71	11.53
620.043	11.23
620.377	11.09
620.71	11.23
621.043	11.37
621.377	11.72
621.71	11.53
622.043	12
622.376	11.72
622.709	11.63
623.043	11.52
623.376	11.64
623.709	11.6
624.041	11.6
624.374	11.68
624.707	11.9
625.04	11.86
625.373	11.48
625.705	11.72
626.038	11.66
626.37	11.97
626.703	11.84
627.035	11.98
627.368	12.09
627.7	12.43
628.032	12.33
628.365	12.09
628.697	12.18
629.029	12.42
629.361	12.17
629.693	12.29
630.025	12.6
630.357	12.21
630.689	12.41
631.021	12.27
631.353	12.08
631.684	12.38
632.016	12.28
632.348	12.47
632.679	12.52
633.011	12.56
633.342	12.81
633.674	12.78
634.005	12.51
634.336	13.05
634.668	12.71
634.999	12.91
635.33	12.99
635.661	12.56
635.992	12.91
636.323	12.86
636.654	12.99
636.985	12.59
637.316	12.98
637.647	13.27
637.977	12.56
638.308	13.1
638.639	13.1
638.969	13.11
639.3	13.07
639.63	13.53
639.961	13.1
640.291	13.33
640.622	13.32
640.952	13.37
641.282	13.44
641.612	13.25
641.943	13.7
642.273	13.31
642.603	13.66
642.933	14
643.263	13.16
643.592	13.87
643.922	13.66
644.252	13.5
644.582	14.04
644.911	13.57
645.241	13.96
645.571	13.98
645.9	13.97
646.23	14.15
646.559	13.94
646.888	13.88
647.218	13.96
647.547	13.54
647.876	14.08
648.205	13.89
648.534	14.08
648.863	13.88
649.192	13.74
649.521	14.52
649.85	14.22
650.179	14.08
650.508	14.13
650.837	14.39
651.165	14.65
651.494	14.93
651.822	14.74
652.151	14.67
652.479	14.52
652.808	14.08
653.136	14.54
653.465	14.66
653.793	14.47
654.121	14.86
654.449	14.42
654.777	14.99
655.105	15.15
655.433	15.07
655.761	15.2
656.089	15.07
656.417	14.68
656.745	14.82
657.073	15.02
657.4	15.97
657.728	15.17
658.056	15.41
658.383	15.28
658.711	15.18
659.038	14.91
659.365	14.8
659.693	15.38
660.02	15.93
660.347	15.25
660.674	15
661.001	15.41
661.329	14.82
661.656	15.65
661.982	14.93
662.309	15.64
662.636	15.06
662.963	15.7
663.29	15.49
663.616	15.11
663.943	16.16
664.27	15.9
664.596	15.92
664.923	16.23
665.249	15.77
665.576	15.69
665.902	16.24
666.228	15.9
666.554	15.78
666.881	16.44
667.207	15.65
667.533	16
667.859	16.65
668.185	16.5
668.511	16.66
668.837	16.08
669.162	16.5
669.488	16.04
669.814	16.41
670.139	16.07
670.465	16.68
670.791	16.61
671.116	16.01
671.442	16.77
671.767	15.94
672.092	17.16
672.418	17.4
672.743	16.74
673.068	17.16
673.393	16.42
673.718	17.41
674.043	17.05
674.368	16.98
674.693	16.95
675.018	16.93
675.343	16.91
675.667	16.95
675.992	16.94
676.317	17.54
676.641	16.67
676.966	17.18
677.29	16.75
677.615	17.06
677.939	16.79
678.264	17.11
678.588	17.8
678.912	17.21
679.236	16.8
679.56	17.22
679.885	16.91
680.209	17.93
680.532	17.2
680.856	16.83
681.18	17.34
681.504	18.06
681.828	17.76
682.152	17.34
682.475	18.14
682.799	17.56
683.122	17.58
683.446	17.45
683.769	17.74
684.093	18.08
684.416	17.74
684.739	17.75
685.062	18.26
685.386	17.85
685.709	18.08
686.032	17.95
686.355	18.1
686.678	17.95
687.001	18.3
