Data from 0188_chest_Reflection__0__142.txt Node

Date: Fri Sep 22 21:27:06 CDT 2023
User: ToomeyLab
Spectrometer: FLMS14357
Trigger mode: 0
Integration Time (sec): 1.000000E-2
Scans to average: 100
Electric dark correction enabled: true
Nonlinearity correction enabled: false
Boxcar width: 0
XAxis mode: Wavelengths
Number of Pixels in Spectrum: 2048
>>>>>Begin Spectral Data<<<<<
189.047	205.88
189.435	205.88
189.823	205.88
190.211	-7.46
190.599	-4134.29
190.987	4.73
191.375	82.26
191.763	847.53
192.151	1260.76
192.538	-32.75
192.926	719.2
193.314	65.97
193.702	72.72
194.089	68.07
194.477	64.4
194.864	206.23
195.252	23.26
195.639	99.35
196.027	-789.92
196.414	71.98
196.801	75.17
197.189	-366.88
197.576	51.75
197.963	-869.93
198.351	41.45
198.738	40.55
199.125	-17.85
199.512	30.41
199.899	54
200.286	18.97
200.673	-13.1
201.06	21.93
201.447	28.6
201.833	-3.77
202.22	23.1
202.607	67.44
202.994	79.3
203.38	6.66
203.767	28.87
204.154	34.85
204.54	23.02
204.927	-3.51
205.313	20.95
205.699	60.93
206.086	63.95
206.472	66.25
206.858	33.57
207.245	10.73
207.631	24.21
208.017	14.33
208.403	42.73
208.789	15.52
209.175	30.51
209.561	32.26
209.947	30.19
210.333	29.85
210.719	3.86
211.105	25.78
211.491	25.83
211.876	28.15
212.262	57.81
212.648	16.28
213.034	20.61
213.419	47.83
213.805	10.25
214.19	41.86
214.576	54.63
214.961	28.75
215.346	26.18
215.732	38.7
216.117	34.09
216.502	49.77
216.888	6.87
217.273	4.12
217.658	59.03
218.043	20.65
218.428	41.74
218.813	-20.02
219.198	3.83
219.583	19.86
219.968	-4.84
220.353	34.64
220.738	27.62
221.122	36.64
221.507	3.97
221.892	11.56
222.276	9.31
222.661	-21.13
223.046	9.02
223.43	21.77
223.815	6.22
224.199	7.07
224.583	12.79
224.968	13.87
225.352	18.16
225.736	16.04
226.121	3.92
226.505	10.67
226.889	4.93
227.273	12.04
227.657	8.82
228.041	8.31
228.425	11.39
228.809	7.85
229.193	7.74
229.577	12.37
229.961	9.61
230.344	7.6
230.728	5.36
231.112	6.56
231.495	6.16
231.879	6.89
232.263	6.45
232.646	6.84
233.03	4.77
233.413	7.83
233.797	6.02
234.18	7.68
234.563	8.38
234.946	7.39
235.33	3.39
235.713	7.58
236.096	5.47
236.479	6.46
236.862	9.86
237.245	6.88
237.628	7.31
238.011	8.45
238.394	5.61
238.777	8.17
239.16	9.58
239.543	8.42
239.925	7.27
240.308	7.77
240.691	8.13
241.073	6.78
241.456	5.57
241.838	5.66
242.221	5.4
242.603	6.7
242.986	5.99
243.368	5.62
243.75	6.89
244.133	7.48
244.515	6.23
244.897	5.61
245.279	6.12
245.661	5.88
246.043	6.24
246.425	5.92
246.807	6.33
247.189	4.24
247.571	6.55
247.953	7.29
248.335	6.18
248.717	5.98
249.098	6.17
249.48	5.69
249.862	5.73
250.243	5.9
250.625	5.94
251.006	5.64
251.388	6.39
251.769	5.68
252.151	5.49
252.532	6.45
252.913	6.31
253.295	7.74
253.676	6.08
254.057	6.17
254.438	6.39
254.819	5.57
255.2	5.81
255.581	5.47
255.962	6.89
256.343	6.58
256.724	4.56
257.105	5.85
257.486	5.89
257.867	6.89
258.247	6.53
258.628	6.38
259.009	5.36
259.389	5.76
259.77	5.83
260.15	5.95
260.531	4.75
260.911	5.63
261.292	5.37
261.672	5.04
262.052	5.42
262.432	5.42
262.813	5.41
263.193	4.86
263.573	6.47
263.953	5.37
264.333	6.17
264.713	5.29
265.093	5.86
265.473	5.7
265.853	5.86
266.233	5.87
266.612	5.48
266.992	6.42
267.372	5.97
267.752	6.54
268.131	5.13
268.511	4.98
268.89	5.49
269.27	4.97
269.649	5.63
270.029	5.38
270.408	5.27
270.787	5.31
271.167	5.34
271.546	4.73
271.925	5.39
272.304	4.64
272.683	5.73
273.062	5.8
273.441	4.93
273.82	5.22
274.199	5.05
274.578	5.43
274.957	4.59
275.336	5.01
275.715	5.27
276.093	5.15
276.472	5.53
276.851	6.04
277.229	4.69
277.608	5.8
277.986	4.76
278.365	4.92
278.743	5.17
279.122	4.87
279.5	6.03
279.878	5.15
280.257	5.62
280.635	4.9
281.013	5.39
281.391	4.67
281.769	4.97
282.147	4.99
282.525	5.21
282.903	4.99
283.281	5.17
283.659	4.72
284.037	4.54
284.415	5.06
284.792	5.5
285.17	5.03
285.548	5.67
285.925	5.03
286.303	5.01
286.68	4.64
287.058	4.97
287.435	5.12
287.813	4.93
288.19	4.44
288.567	5
288.945	4.89
289.322	4.76
289.699	4.64
290.076	5.12
290.453	4.91
290.83	4.88
291.207	4.99
291.584	4.5
291.961	4.65
292.338	5.13
292.715	5.28
293.092	4.7
293.469	5.16
293.845	5.32
294.222	5.11
294.599	4.96
294.975	5.56
295.352	4.94
295.728	5.24
296.105	5.45
296.481	4.57
296.858	4.94
297.234	4.97
297.61	5.07
297.986	4.78
298.363	4.76
298.739	4.94
299.115	5.16
299.491	5.05
299.867	4.91
300.243	4.67
300.619	5.07
300.995	4.71
301.371	5.06
301.746	5.15
302.122	5.13
302.498	4.61
302.874	4.74
303.249	4.69
303.625	4.54
304	5.18
304.376	4.95
304.751	5.15
305.127	4.41
305.502	5.68
305.878	5.17
306.253	4.96
306.628	4.78
307.003	4.53
307.378	4.77
307.754	4.89
308.129	4.54
308.504	4.32
308.879	5.43
309.254	4.76
309.629	4.75
310.003	5.52
310.378	5.15
310.753	4.73
311.128	4.89
311.502	4.89
311.877	4.42
312.252	4.49
312.626	4.72
313.001	5.25
313.375	4.76
313.75	5.26
314.124	4.85
314.498	4.55
314.873	4.83
315.247	4.54
315.621	4.97
315.995	5.21
316.369	4.34
316.743	4.73
317.117	5.32
317.491	5.67
317.865	4.67
318.239	4.94
318.613	5.38
318.987	4.6
319.361	4.89
319.734	5.03
320.108	4.87
320.482	4.48
320.855	5.11
321.229	5.41
321.602	4.75
321.976	4.47
322.349	5.17
322.723	5.55
323.096	4.9
323.469	4.65
323.843	4.61
324.216	5.32
324.589	4.76
324.962	4.26
325.335	4.86
325.708	4.53
326.081	5.16
326.454	4.61
326.827	4.72
327.2	4.44
327.573	5.37
327.945	4.62
328.318	4.99
328.691	5.13
329.063	5.11
329.436	4.92
329.809	4.89
330.181	4.81
330.553	4.75
330.926	4.62
331.298	4.98
331.671	5.31
332.043	4.64
332.415	4.86
332.787	5.2
333.159	4.35
333.532	4.91
333.904	5.01
334.276	4.77
334.648	4.98
335.02	4.77
335.391	5.05
335.763	5.08
336.135	4.89
336.507	4.94
336.879	4.88
337.25	4.93
337.622	5.12
337.993	5
338.365	5.17
338.736	5.56
339.108	5.24
339.479	4.84
339.851	4.64
340.222	5.02
340.593	4.54
340.964	4.79
341.336	4.73
341.707	4.62
342.078	4.67
342.449	4.67
342.82	4.82
343.191	4.33
343.562	4.56
343.933	4.51
344.303	4.59
344.674	5.02
345.045	5.03
345.416	4.82
345.786	4.64
346.157	5.09
346.527	4.53
346.898	4.82
347.268	5.03
347.639	4.63
348.009	4.95
348.38	4.76
348.75	5
349.12	4.9
349.49	5.1
349.861	5.16
350.231	5.35
350.601	5.24
350.971	4.75
351.341	4.71
351.711	4.62
352.081	4.8
352.45	4.98
352.82	5.08
353.19	4.82
353.56	4.66
353.929	4.9
354.299	5.12
354.669	4.71
355.038	5.03
355.408	4.54
355.777	5.17
356.147	4.61
356.516	4.79
356.885	5.08
357.254	4.86
357.624	4.58
357.993	5
358.362	4.69
358.731	4.66
359.1	4.84
359.469	4.98
359.838	4.71
360.207	4.65
360.576	4.99
360.945	4.89
361.314	4.96
361.682	4.86
362.051	4.87
362.42	4.68
362.788	4.8
363.157	4.91
363.525	4.62
363.894	4.69
364.262	4.6
364.631	4.57
364.999	4.64
365.367	4.86
365.735	4.93
366.104	4.8
366.472	4.86
366.84	4.6
367.208	5.09
367.576	5.08
367.944	5.02
368.312	5.01
368.68	4.88
369.048	5.08
369.416	4.6
369.783	4.55
370.151	4.65
370.519	4.97
370.886	4.97
371.254	4.95
371.621	4.56
371.989	5.05
372.356	4.6
372.724	5.07
373.091	4.99
373.458	5.03
373.826	4.94
374.193	5.15
374.56	4.77
374.927	4.72
375.294	4.79
375.661	4.94
376.028	4.96
376.395	5.14
376.762	5.11
377.129	5.18
377.496	5.31
377.863	4.92
378.229	4.71
378.596	5.03
378.963	5.03
379.329	5.07
379.696	5.04
380.062	4.81
380.429	4.97
380.795	4.7
381.161	4.68
381.528	4.94
381.894	4.34
382.26	4.76
382.626	4.88
382.993	5.18
383.359	4.8
383.725	4.87
384.091	5.16
384.457	4.88
384.823	4.85
385.188	5.06
385.554	4.97
385.92	5.31
386.286	5
386.651	4.92
387.017	5.01
387.383	5.16
387.748	5.01
388.114	5.04
388.479	5.03
388.845	4.78
389.21	4.89
389.575	5.2
389.94	4.73
390.306	5
390.671	5.04
391.036	4.91
391.401	4.8
391.766	4.91
392.131	5.16
392.496	5.08
392.861	4.93
393.226	5.1
393.591	5.08
393.956	4.98
394.32	4.89
394.685	4.82
395.05	5.26
395.414	5.23
395.779	5.02
396.143	4.94
396.508	4.91
396.872	4.85
397.236	5
397.601	4.98
397.965	4.85
398.329	4.84
398.694	5.16
399.058	5
399.422	5.07
399.786	5.09
400.15	4.9
400.514	5.28
400.878	4.8
401.242	5.25
401.605	5.07
401.969	4.81
402.333	5.4
402.697	4.9
403.06	4.93
403.424	5.06
403.787	4.93
404.151	4.94
404.514	4.86
404.878	5.09
405.241	5.39
405.604	5.18
405.968	5.07
406.331	4.99
406.694	5.16
407.057	4.92
407.42	5.13
407.783	4.93
408.146	5.08
408.509	4.89
408.872	4.85
409.235	5.05
409.598	4.9
409.961	5.33
410.323	4.92
410.686	5.23
411.049	5.41
411.411	5.23
411.774	4.89
412.136	4.96
412.499	5.06
412.861	5.16
413.223	5.23
413.586	4.95
413.948	5.04
414.31	4.99
414.672	5.25
415.035	5.08
415.397	5.28
415.759	5.22
416.121	4.9
416.483	4.97
416.845	4.89
417.206	4.82
417.568	5.14
417.93	5.1
418.292	5.04
418.653	4.94
419.015	5.17
419.377	4.86
419.738	5.19
420.1	4.96
420.461	5
420.822	4.84
421.184	4.82
421.545	4.92
421.906	4.92
422.267	4.82
422.629	5.03
422.99	4.95
423.351	4.95
423.712	4.82
424.073	4.94
424.434	4.91
424.795	4.94
425.155	5.13
425.516	4.99
425.877	4.92
426.238	4.82
426.598	4.91
426.959	4.86
427.32	4.98
427.68	4.91
428.041	4.81
428.401	5.08
428.761	4.99
429.122	4.97
429.482	5.14
429.842	4.89
430.202	4.95
430.563	5.16
430.923	5.11
431.283	4.98
431.643	5.11
432.003	5.21
432.363	5.21
432.722	5.18
433.082	5.38
433.442	5.03
433.802	5.35
434.161	5.14
434.521	5.02
434.881	5.16
435.24	5.04
435.6	5.06
435.959	4.93
436.319	4.95
436.678	5.16
437.037	5.2
437.396	5.12
437.756	5.02
438.115	5.2
438.474	5.02
438.833	5.19
439.192	5.1
439.551	5.12
439.91	5.26
440.269	5.12
440.628	4.98
440.987	5.16
441.345	5.12
441.704	5.24
442.063	4.99
442.421	4.95
442.78	5.07
443.138	5.07
443.497	5.04
443.855	5.18
444.214	4.97
444.572	5.18
444.93	5.08
445.288	5.01
445.647	5.17
446.005	4.95
446.363	5.04
446.721	5.2
447.079	4.99
447.437	5.01
447.795	5.14
448.153	5.01
448.51	5.02
448.868	4.95
449.226	4.99
449.584	5.01
449.941	4.85
450.299	5.08
450.656	5.12
451.014	5.18
451.371	5.07
451.729	5.17
452.086	5.1
452.443	5.23
452.801	5.09
453.158	5.17
453.515	5.23
453.872	5.3
454.229	5.18
454.586	5.25
454.943	5.18
455.3	5.19
455.657	5.14
456.014	5.26
456.371	5.19
456.727	5.3
457.084	5.44
457.441	5.06
457.797	5.13
458.154	5.14
458.51	4.99
458.867	5.27
459.223	5.15
459.58	5.27
459.936	5.31
460.292	5.34
460.648	5.32
461.005	5.28
461.361	5.21
461.717	4.97
462.073	5.08
462.429	4.91
462.785	5.06
463.141	5.06
463.496	5.24
463.852	5.28
464.208	5.06
464.564	5.36
464.919	5.14
465.275	5.45
465.631	5.33
465.986	5.31
466.342	5.3
466.697	5.42
467.052	5.15
467.408	5.27
467.763	5.22
468.118	5.48
468.473	5.17
468.829	5.12
469.184	5.18
469.539	5.28
469.894	5.19
470.249	5.33
470.603	5.22
470.958	5.19
471.313	5.44
471.668	5.41
472.023	5.31
472.377	5.23
472.732	5.24
473.086	5.33
473.441	5.18
473.795	5.53
474.15	5.23
474.504	5.28
474.859	5.32
475.213	5.15
475.567	5.25
475.921	5.41
476.275	5.24
476.63	5.24
476.984	5.28
477.338	5.5
477.692	5.24
478.045	5.48
478.399	5.54
478.753	5.32
479.107	5.29
479.461	5.23
479.814	5.48
480.168	5.37
480.521	5.47
480.875	5.41
481.228	5.4
481.582	5.2
481.935	5.41
482.289	5.26
482.642	5.17
482.995	5.29
483.348	5.31
483.701	5.29
484.055	5.31
484.408	5.2
484.761	5.28
485.114	5.14
485.466	5.04
485.819	5.04
486.172	5.02
486.525	4.97
486.878	4.97
487.23	5.02
487.583	5.13
487.936	5.12
488.288	5.21
488.641	5.17
488.993	5.09
489.345	5.1
489.698	5.08
490.05	5.11
490.402	5.08
490.754	5.15
491.107	5.1
491.459	5.2
491.811	5.19
492.163	5.25
492.515	5.37
492.866	5.3
493.218	5.27
493.57	5.3
493.922	5.14
494.274	5.19
494.625	5.22
494.977	5.29
495.328	5.43
495.68	5.3
496.031	5.33
496.383	5.45
496.734	5.37
497.086	5.4
497.437	5.57
497.788	5.37
498.139	5.39
498.49	5.47
498.842	5.34
499.193	5.44
499.544	5.42
499.894	5.32
500.245	5.48
500.596	5.29
500.947	5.43
501.298	5.48
501.648	5.45
501.999	5.56
502.35	5.51
502.7	5.61
503.051	5.46
503.401	5.53
503.752	5.49
504.102	5.57
504.452	5.52
504.803	5.53
505.153	5.5
505.503	5.66
505.853	5.69
506.203	5.47
506.553	5.48
506.903	5.68
507.253	5.58
507.603	5.64
507.953	5.62
508.303	5.74
508.652	5.51
509.002	5.74
509.352	5.52
509.701	5.64
510.051	5.6
510.4	5.63
510.75	5.58
511.099	5.45
511.449	5.56
511.798	5.65
512.147	5.55
512.496	5.65
512.846	5.56
513.195	5.6
513.544	5.7
513.893	5.65
514.242	5.76
514.591	5.79
514.939	5.65
515.288	5.47
515.637	5.68
515.986	5.62
516.334	5.72
516.683	5.72
517.032	5.84
517.38	5.78
517.729	5.78
518.077	5.75
518.426	5.73
518.774	5.79
519.122	5.74
519.47	5.67
519.819	5.74
520.167	5.83
520.515	5.79
520.863	5.61
521.211	5.69
521.559	5.8
521.907	5.75
522.255	5.86
522.602	5.84
522.95	5.84
523.298	5.78
523.645	5.89
523.993	5.83
524.341	5.79
524.688	6.01
525.036	5.9
525.383	5.87
525.73	5.85
526.078	5.89
526.425	5.86
526.772	5.97
527.119	5.91
527.466	5.67
527.814	5.87
528.161	5.78
528.508	5.84
528.854	5.9
529.201	5.91
529.548	5.81
529.895	5.8
530.242	5.79
530.588	5.76
530.935	5.68
531.282	5.66
531.628	5.75
531.975	5.76
532.321	5.8
532.667	5.87
533.014	5.92
533.36	5.93
533.706	5.97
534.052	6.03
534.399	6.02
534.745	6.02
535.091	5.88
535.437	5.91
535.783	5.85
536.129	5.93
536.474	5.99
536.82	5.89
537.166	6.12
537.512	6.09
537.857	6.23
538.203	6.35
538.549	6.05
538.894	6.09
539.239	6.12
539.585	6.14
539.93	6.22
540.276	6.12
540.621	6.28
540.966	6.42
541.311	6.23
541.656	6.35
542.001	6.35
542.346	6.28
542.691	6.41
543.036	6.21
543.381	6.16
543.726	6.13
544.071	6.15
544.415	6.15
544.76	6.13
545.105	6.18
545.449	6.22
545.794	6.26
546.138	6.33
546.483	6.47
546.827	6.4
547.171	6.58
547.516	6.56
547.86	6.61
548.204	6.56
548.548	6.55
548.892	6.6
549.236	6.49
549.58	6.51
549.924	6.6
550.268	6.75
550.612	6.6
550.956	6.82
551.3	6.68
551.643	6.66
551.987	6.79
552.33	6.93
552.674	6.76
553.017	6.59
553.361	6.72
553.704	6.99
554.048	6.87
554.391	6.8
554.734	6.85
555.077	6.91
555.42	6.8
555.764	6.85
556.107	6.95
556.45	6.9
556.793	6.8
557.135	7.1
557.478	6.96
557.821	7.02
558.164	7.14
558.507	7.24
558.849	6.99
559.192	7.2
559.534	7.27
559.877	7.12
560.219	7.11
560.562	7.3
560.904	7.4
561.246	7.24
561.589	7.27
561.931	7.23
562.273	7
562.615	7.17
562.957	7.43
563.299	7.32
563.641	7.37
563.983	7.39
564.325	7.5
564.667	7.59
565.008	7.31
565.35	7.51
565.692	7.43
566.033	7.62
566.375	7.65
566.716	7.56
567.058	7.58
567.399	7.61
567.741	7.72
568.082	7.58
568.423	7.57
568.764	7.84
569.105	7.52
569.447	7.64
569.788	7.57
570.129	7.64
570.47	7.72
570.811	7.85
571.151	7.83
571.492	7.96
571.833	7.75
572.174	7.84
572.514	7.96
572.855	7.81
573.195	7.71
573.536	7.83
573.876	7.9
574.217	7.87
574.557	7.87
574.898	8.13
575.238	7.91
575.578	8.06
575.918	8.03
576.258	7.94
576.598	8.05
576.938	8.12
577.278	8.39
577.618	7.99
577.958	8.26
578.298	8.23
578.638	8.15
578.977	8.17
579.317	8.31
579.657	8.35
579.996	8.25
580.336	8.48
580.675	8.61
581.014	8.3
581.354	8.53
581.693	8.59
582.032	8.58
582.372	8.75
582.711	8.7
583.05	8.55
583.389	8.49
583.728	8.51
584.067	8.66
584.406	8.84
584.745	8.44
585.083	8.9
585.422	9.05
585.761	8.83
586.1	8.79
586.438	8.72
586.777	8.93
587.115	9.07
587.454	8.49
587.792	8.87
588.13	8.9
588.469	9.09
588.807	9.09
589.145	9.09
589.483	9.15
589.821	9.08
590.159	9.2
590.497	9.4
590.835	9.3
591.173	8.99
591.511	9.32
591.849	9.33
592.187	9.11
592.524	9.6
592.862	9.25
593.2	9.16
593.537	9.36
593.875	9.38
594.212	9.32
594.55	10.02
594.887	9.29
595.224	9.52
595.561	9.56
595.899	9.65
596.236	9.93
596.573	9.74
596.91	9.7
597.247	9.67
597.584	9.91
597.921	9.82
598.258	9.82
598.594	9.86
598.931	9.73
599.268	9.69
599.604	9.94
599.941	9.92
600.277	9.47
600.614	9.73
600.95	9.81
601.287	10.04
601.623	10.08
601.959	10.12
602.296	10.1
602.632	10.06
602.968	10.25
603.304	10.11
603.64	10.12
603.976	10.49
604.312	10.32
604.648	10.02
604.984	10.24
605.319	10.26
605.655	10.32
605.991	10.47
606.326	10.39
606.662	10.54
606.998	10.36
607.333	10.49
607.668	10.45
608.004	10.64
608.339	10.41
608.674	10.68
609.01	10.7
609.345	10.77
609.68	10.9
610.015	10.85
610.35	10.91
610.685	11.03
611.02	10.91
611.355	11.03
611.689	10.98
612.024	10.96
612.359	10.76
612.694	10.85
613.028	10.89
613.363	10.9
613.697	11.07
614.032	11.16
614.366	10.93
614.7	11.22
615.035	10.98
615.369	11.57
615.703	11.12
616.037	11.14
616.371	11.8
616.705	11.72
617.039	11.38
617.373	11.56
617.707	11.25
618.041	11.67
618.375	11.69
618.709	11.6
619.042	11.86
619.376	11.96
619.71	11.75
620.043	11.54
620.377	11.6
620.71	11.88
621.043	11.95
621.377	11.87
621.71	11.81
622.043	11.75
622.376	11.93
622.709	12.2
623.043	12.2
623.376	12.11
623.709	12.04
624.041	11.86
624.374	12.06
624.707	12.58
625.04	12.15
625.373	11.93
625.705	12.39
626.038	12.14
626.37	12.5
626.703	12.33
627.035	12.5
627.368	12.25
627.7	12.53
628.032	12.59
628.365	12.57
628.697	12.68
629.029	12.51
629.361	12.74
629.693	12.71
630.025	12.59
630.357	12.58
630.689	12.71
631.021	12.84
631.353	12.42
631.684	12.84
632.016	13.11
632.348	12.57
632.679	12.78
633.011	12.71
633.342	13.19
633.674	13.04
634.005	12.88
634.336	13.2
634.668	13.18
634.999	13.04
635.33	13.13
635.661	13.37
635.992	13.19
636.323	12.95
636.654	13.22
636.985	13.37
637.316	13.34
637.647	13.57
637.977	12.85
638.308	13.77
638.639	13.41
638.969	13.58
639.3	13.54
639.63	13.92
639.961	13.42
640.291	13.36
640.622	13.66
640.952	13.66
641.282	13.59
641.612	13.77
641.943	14.09
642.273	13.8
642.603	13.94
642.933	14.17
643.263	13.49
643.592	14.5
643.922	14.17
644.252	14.08
644.582	14.66
644.911	13.72
645.241	14.25
645.571	14.29
645.9	14.48
646.23	14.37
646.559	14.21
646.888	14.18
647.218	14.38
647.547	14.2
647.876	14.48
648.205	14.23
648.534	14.98
648.863	14.21
649.192	13.69
649.521	14.55
649.85	14.78
650.179	14.43
650.508	14.66
650.837	14.96
651.165	14.73
651.494	14.54
651.822	14.67
652.151	14.77
652.479	14.78
652.808	14.9
653.136	15.43
653.465	14.82
653.793	14.85
654.121	15.02
654.449	14.85
654.777	15.79
655.105	15.77
655.433	15.26
655.761	15.78
656.089	15.54
656.417	15.22
656.745	14.97
657.073	15.21
657.4	16
657.728	15.31
658.056	15.32
658.383	15.48
658.711	15.27
659.038	15.29
659.365	15.4
659.693	15.47
660.02	15.92
660.347	16
660.674	15.71
661.001	15.42
661.329	15.46
661.656	15.5
661.982	15.59
662.309	16
662.636	15.98
662.963	15.91
663.29	15.73
663.616	16
663.943	16.57
664.27	16.43
664.596	15.8
664.923	16.22
665.249	16.04
665.576	15.95
665.902	16.04
666.228	16.71
666.554	16.02
666.881	16.72
667.207	16.35
667.533	16.29
667.859	16.55
668.185	16.63
668.511	16.88
668.837	16.16
669.162	16.72
669.488	16.45
669.814	16.47
670.139	16.41
670.465	17.31
670.791	16.92
671.116	16.72
671.442	17.38
671.767	15.9
672.092	17.31
672.418	16.9
672.743	17.07
673.068	16.76
673.393	16.49
673.718	17.04
674.043	17.57
674.368	17.08
674.693	17.17
675.018	17.23
675.343	17.31
675.667	17.27
675.992	17.09
676.317	17.05
676.641	17.27
676.966	17.11
677.29	17.53
677.615	17.63
677.939	17.31
678.264	17.4
678.588	18.01
678.912	17.8
679.236	17.82
679.56	18.16
679.885	18.46
680.209	18.61
680.532	18.14
680.856	17.23
681.18	18.32
681.504	17.65
681.828	18.3
682.152	18.19
682.475	18.57
682.799	18.31
683.122	17.86
683.446	18.18
683.769	17.84
684.093	17.99
684.416	18.17
684.739	18.39
685.062	19.09
685.386	18.68
685.709	18.43
686.032	17.99
686.355	18.57
686.678	18.42
