Data from 0188_chest_Reflection__4__146.txt Node

Date: Fri Sep 22 21:27:50 CDT 2023
User: ToomeyLab
Spectrometer: FLMS14357
Trigger mode: 0
Integration Time (sec): 1.000000E-2
Scans to average: 100
Electric dark correction enabled: true
Nonlinearity correction enabled: false
Boxcar width: 0
XAxis mode: Wavelengths
Number of Pixels in Spectrum: 2048
>>>>>Begin Spectral Data<<<<<
189.047	381.07
189.435	381.07
189.823	381.07
190.211	31.23
190.599	-6036.19
190.987	29.89
191.375	72.25
191.763	-53.99
192.151	972.58
192.538	-11.25
192.926	754.73
193.314	216.89
193.702	281.7
194.089	98.87
194.477	239.56
194.864	164.02
195.252	92.65
195.639	163.4
196.027	-387.67
196.414	-72.83
196.801	-148.22
197.189	375.59
197.576	77.33
197.963	273.8
198.351	3.65
198.738	5.27
199.125	11.75
199.512	-33.32
199.899	42.52
200.286	31.01
200.673	6.18
201.06	56.39
201.447	9.29
201.833	-106.3
202.22	13.28
202.607	58.95
202.994	77.07
203.38	26.57
203.767	34.65
204.154	40.71
204.54	37.96
204.927	5.47
205.313	55.75
205.699	42.75
206.086	15.13
206.472	41.51
206.858	17.48
207.245	-4.35
207.631	30.6
208.017	35.85
208.403	33.81
208.789	32.59
209.175	28.62
209.561	38
209.947	20.22
210.333	40.08
210.719	-25.61
211.105	52.38
211.491	-5.08
211.876	43.68
212.262	30.69
212.648	23.15
213.034	21.66
213.419	10.22
213.805	20.14
214.19	9.05
214.576	45.1
214.961	16.77
215.346	-10.6
215.732	55.25
216.117	11.69
216.502	50.1
216.888	21.24
217.273	12.68
217.658	22.26
218.043	27.26
218.428	26.41
218.813	-15.87
219.198	22.18
219.583	16.69
219.968	9.71
220.353	33.35
220.738	7.38
221.122	8.44
221.507	0.84
221.892	5.69
222.276	23.31
222.661	-43.85
223.046	21.12
223.43	32.01
223.815	11.8
224.199	-7.51
224.583	10.89
224.968	19.49
225.352	-0.76
225.736	12.9
226.121	5.36
226.505	8.64
226.889	7.62
227.273	3.82
227.657	1.23
228.041	10.41
228.425	9.64
228.809	2.88
229.193	4.22
229.577	6.7
229.961	6.9
230.344	4.06
230.728	3.06
231.112	4.9
231.495	2.68
231.879	4.71
232.263	3.51
232.646	4.17
233.03	3.66
233.413	4.97
233.797	5.47
234.18	3.63
234.563	5.17
234.946	2.78
235.33	2.71
235.713	2.09
236.096	3.33
236.479	4.01
236.862	5.09
237.245	5.11
237.628	3.91
238.011	3.89
238.394	3.05
238.777	5.63
239.16	3.67
239.543	4.14
239.925	6.29
240.308	3.78
240.691	4.18
241.073	5.16
241.456	5.57
241.838	2.28
242.221	3.64
242.603	3.3
242.986	4.48
243.368	4.13
243.75	4
244.133	4.68
244.515	3.74
244.897	3.26
245.279	3.65
245.661	4.1
246.043	3.88
246.425	3.3
246.807	3.2
247.189	3.61
247.571	4.02
247.953	3.54
248.335	3.6
248.717	3.64
249.098	3.66
249.48	3.3
249.862	3.42
250.243	3.58
250.625	3.82
251.006	3.7
251.388	3.83
251.769	4.74
252.151	3.43
252.532	2.72
252.913	4.28
253.295	4.62
253.676	3.65
254.057	3.71
254.438	3.78
254.819	3.22
255.2	3.63
255.581	3.07
255.962	4.18
256.343	3.7
256.724	3.25
257.105	3.56
257.486	2.93
257.867	4.83
258.247	4.9
258.628	3.8
259.009	3.31
259.389	3.47
259.77	4.42
260.15	4.55
260.531	3.52
260.911	3.87
261.292	3.41
261.672	3.04
262.052	3.25
262.432	3.38
262.813	3.51
263.193	3.31
263.573	3.39
263.953	3.36
264.333	3.22
264.713	3.76
265.093	3.09
265.473	3.76
265.853	3.14
266.233	4.11
266.612	2.81
266.992	3.93
267.372	3.29
267.752	3.82
268.131	3.37
268.511	3.05
268.89	3.55
269.27	3.19
269.649	3.51
270.029	3.3
270.408	3.2
270.787	3.3
271.167	3.69
271.546	3.04
271.925	4
272.304	2.93
272.683	3.47
273.062	4.05
273.441	3.76
273.82	3.41
274.199	3.37
274.578	4.03
274.957	3.29
275.336	2.92
275.715	3.49
276.093	2.78
276.472	2.86
276.851	3.65
277.229	3.16
277.608	3.23
277.986	3.38
278.365	3.48
278.743	3.54
279.122	3.01
279.5	3.74
279.878	3.28
280.257	3.94
280.635	3.52
281.013	3.75
281.391	3.02
281.769	3.49
282.147	3.64
282.525	3.24
282.903	3.61
283.281	3.7
283.659	3.43
284.037	3.33
284.415	3.41
284.792	3.26
285.17	3.87
285.548	3.3
285.925	3.48
286.303	3.47
286.68	3.39
287.058	3.05
287.435	3.38
287.813	3.21
288.19	2.72
288.567	3.45
288.945	3.16
289.322	3.49
289.699	2.98
290.076	3.14
290.453	3.31
290.83	2.86
291.207	3.17
291.584	3.18
291.961	2.99
292.338	3.5
292.715	3.5
293.092	3.03
293.469	3.58
293.845	2.83
294.222	3.65
294.599	3.18
294.975	3.87
295.352	3.68
295.728	3.64
296.105	3.73
296.481	3.59
296.858	3.65
297.234	3.19
297.61	3.6
297.986	3.55
298.363	3.26
298.739	3.15
299.115	3.64
299.491	3.37
299.867	3.38
300.243	3.4
300.619	3.39
300.995	3.51
301.371	3.98
301.746	3.78
302.122	3.26
302.498	3.37
302.874	3.66
303.249	3.17
303.625	3.24
304	3.25
304.376	4.13
304.751	4.05
305.127	3.4
305.502	4.21
305.878	3.76
306.253	4.01
306.628	3.73
307.003	3.61
307.378	4.08
307.754	3.59
308.129	3.54
308.504	3.41
308.879	3.71
309.254	3.47
309.629	3.96
310.003	3.82
310.378	3.96
310.753	3.56
311.128	3.96
311.502	3.66
311.877	3.33
312.252	3.83
312.626	3.38
313.001	3.69
313.375	3.77
313.75	3.65
314.124	4.05
314.498	3.53
314.873	3.66
315.247	3.86
315.621	3.76
315.995	4.02
316.369	3.88
316.743	3.35
317.117	4.21
317.491	3.99
317.865	3.44
318.239	3.75
318.613	3.97
318.987	3.66
319.361	3.4
319.734	3.32
320.108	4.04
320.482	3.63
320.855	3.48
321.229	3.89
321.602	4.32
321.976	3.52
322.349	3.67
322.723	3.89
323.096	4.33
323.469	3.68
323.843	3.81
324.216	3.91
324.589	3
324.962	3.37
325.335	3.43
325.708	4.16
326.081	4.07
326.454	3.36
326.827	3.76
327.2	3.59
327.573	3.96
327.945	4.07
328.318	4.21
328.691	3.68
329.063	3.61
329.436	3.91
329.809	3.4
330.181	3.38
330.553	3.59
330.926	3.92
331.298	4.16
331.671	3.79
332.043	2.75
332.415	4.09
332.787	4.66
333.159	3.71
333.532	3.04
333.904	3.4
334.276	3.8
334.648	3.3
335.02	3.68
335.391	3.72
335.763	4.26
336.135	4.16
336.507	4.07
336.879	3.22
337.25	4
337.622	3.73
337.993	4.22
338.365	4.59
338.736	4.35
339.108	3.55
339.479	3.63
339.851	3.27
340.222	3.88
340.593	3.52
340.964	3.47
341.336	3.46
341.707	3.2
342.078	3.89
342.449	3.23
342.82	3.29
343.191	3.53
343.562	3.65
343.933	3.69
344.303	3.76
344.674	3.59
345.045	3.86
345.416	4.29
345.786	3.73
346.157	3.82
346.527	3.54
346.898	3.62
347.268	3.68
347.639	3.68
348.009	3.63
348.38	3.66
348.75	3.67
349.12	4.1
349.49	3.97
349.861	3.52
350.231	3.79
350.601	4.35
350.971	3.8
351.341	3.72
351.711	3.47
352.081	3.62
352.45	3.73
352.82	3.85
353.19	3.94
353.56	3.59
353.929	4.21
354.299	3.84
354.669	3.63
355.038	3.5
355.408	3.86
355.777	4.16
356.147	4.02
356.516	4.06
356.885	3.48
357.254	3.71
357.624	3.37
357.993	3.62
358.362	3.83
358.731	3.78
359.1	3.85
359.469	3.73
359.838	3.31
360.207	3.63
360.576	3.88
360.945	3.94
361.314	3.72
361.682	4.15
362.051	4.04
362.42	3.79
362.788	3.53
363.157	3.65
363.525	3.69
363.894	3.67
364.262	3.71
364.631	3.72
364.999	3.53
365.367	4.02
365.735	3.68
366.104	3.59
366.472	3.74
366.84	3.86
367.208	3.92
367.576	3.9
367.944	4
368.312	3.76
368.68	3.57
369.048	3.95
369.416	3.88
369.783	3.75
370.151	3.72
370.519	3.65
370.886	3.7
371.254	4.17
371.621	3.73
371.989	3.71
372.356	3.5
372.724	3.97
373.091	4.05
373.458	3.94
373.826	3.68
374.193	4.38
374.56	4.1
374.927	3.94
375.294	3.64
375.661	3.75
376.028	3.92
376.395	4.29
376.762	3.87
377.129	4.15
377.496	4.3
377.863	4.23
378.229	3.99
378.596	3.69
378.963	4.31
379.329	4.06
379.696	4.11
380.062	3.58
380.429	4.12
380.795	3.82
381.161	3.69
381.528	3.93
381.894	3.6
382.26	3.84
382.626	3.9
382.993	4.05
383.359	3.69
383.725	3.81
384.091	3.82
384.457	3.71
384.823	3.8
385.188	4.28
385.554	4.14
385.92	4.06
386.286	3.75
386.651	3.74
387.017	4.1
387.383	3.87
387.748	3.86
388.114	3.93
388.479	3.9
388.845	3.85
389.21	3.84
389.575	4.02
389.94	3.92
390.306	4
390.671	4.17
391.036	3.42
391.401	4.02
391.766	3.91
392.131	4.02
392.496	3.86
392.861	4.17
393.226	4.26
393.591	4.09
393.956	3.9
394.32	3.95
394.685	3.86
395.05	4.24
395.414	4.01
395.779	3.99
396.143	4.01
396.508	4.04
396.872	3.84
397.236	3.98
397.601	4.04
397.965	4.08
398.329	4.22
398.694	3.84
399.058	3.87
399.422	3.96
399.786	3.97
400.15	4.19
400.514	4.25
400.878	3.8
401.242	4.18
401.605	4.02
401.969	3.76
402.333	4.2
402.697	4.07
403.06	3.98
403.424	3.84
403.787	4.15
404.151	4.12
404.514	4.27
404.878	4.06
405.241	4.08
405.604	4.18
405.968	4.27
406.331	4.01
406.694	4.16
407.057	3.81
407.42	4.11
407.783	4.05
408.146	4.14
408.509	4.07
408.872	4.04
409.235	3.93
409.598	3.91
409.961	4.23
410.323	4.18
410.686	4.13
411.049	4.34
411.411	4.41
411.774	3.98
412.136	3.94
412.499	4.14
412.861	4
413.223	4.13
413.586	4.07
413.948	4.19
414.31	3.92
414.672	4.12
415.035	4.06
415.397	4.43
415.759	4.3
416.121	4.05
416.483	4.1
416.845	4.03
417.206	3.85
417.568	4.12
417.93	3.92
418.292	4.04
418.653	3.97
419.015	4.01
419.377	4.01
419.738	4.02
420.1	3.91
420.461	4.16
420.822	4.09
421.184	4.1
421.545	3.93
421.906	3.98
422.267	3.98
422.629	4.09
422.99	4.03
423.351	3.87
423.712	3.93
424.073	3.88
424.434	4.04
424.795	3.99
425.155	4.07
425.516	4.07
425.877	4.03
426.238	3.85
426.598	3.88
426.959	4.01
427.32	4.16
427.68	3.97
428.041	3.97
428.401	4.13
428.761	4.21
429.122	4.11
429.482	3.97
429.842	4.25
430.202	4.06
430.563	4.28
430.923	4.21
431.283	4.12
431.643	4.27
432.003	4.24
432.363	4.34
432.722	4.3
433.082	4.31
433.442	4.08
433.802	4.24
434.161	4.12
434.521	4.21
434.881	4.14
435.24	4.12
435.6	4.07
435.959	4.13
436.319	4.06
436.678	4.27
437.037	4.22
437.396	4.22
437.756	4.18
438.115	4.24
438.474	4.25
438.833	4.24
439.192	4.16
439.551	4.18
439.91	4.34
440.269	4.26
440.628	4.07
440.987	4.13
441.345	4.21
441.704	4.15
442.063	4.24
442.421	4.13
442.78	4.26
443.138	4.16
443.497	4.23
443.855	4.25
444.214	4.08
444.572	4.15
444.93	4.17
445.288	4.19
445.647	4.3
446.005	4.2
446.363	3.98
446.721	4.31
447.079	4.21
447.437	4.18
447.795	4.35
448.153	4.11
448.51	4.17
448.868	4.12
449.226	4.15
449.584	4.15
449.941	4.1
450.299	4.32
450.656	4.27
451.014	4.32
451.371	4.33
451.729	4.37
452.086	4.26
452.443	4.19
452.801	4.32
453.158	4.38
453.515	4.29
453.872	4.29
454.229	4.35
454.586	4.4
454.943	4.32
455.3	4.33
455.657	4.29
456.014	4.34
456.371	4.34
456.727	4.49
457.084	4.41
457.441	4.15
457.797	4.33
458.154	4.32
458.51	4.26
458.867	4.35
459.223	4.23
459.58	4.53
459.936	4.41
460.292	4.48
460.648	4.48
461.005	4.27
461.361	4.37
461.717	4.19
462.073	4.29
462.429	4.15
462.785	4.28
463.141	4.32
463.496	4.5
463.852	4.36
464.208	4.18
464.564	4.46
464.919	4.36
465.275	4.62
465.631	4.44
465.986	4.5
466.342	4.5
466.697	4.48
467.052	4.36
467.408	4.61
467.763	4.53
468.118	4.69
468.473	4.57
468.829	4.33
469.184	4.39
469.539	4.5
469.894	4.42
470.249	4.56
470.603	4.35
470.958	4.63
471.313	4.6
471.668	4.52
472.023	4.52
472.377	4.57
472.732	4.51
473.086	4.68
473.441	4.44
473.795	4.51
474.15	4.46
474.504	4.64
474.859	4.6
475.213	4.26
475.567	4.5
475.921	4.55
476.275	4.55
476.63	4.54
476.984	4.62
477.338	4.61
477.692	4.68
478.045	4.69
478.399	4.63
478.753	4.55
479.107	4.48
479.461	4.42
479.814	4.62
480.168	4.51
480.521	4.62
480.875	4.78
481.228	4.61
481.582	4.54
481.935	4.48
482.289	4.47
482.642	4.52
482.995	4.52
483.348	4.55
483.701	4.52
484.055	4.5
484.408	4.53
484.761	4.5
485.114	4.34
485.466	4.31
485.819	4.28
486.172	4.2
486.525	4.26
486.878	4.27
487.23	4.39
487.583	4.43
487.936	4.47
488.288	4.43
488.641	4.45
488.993	4.41
489.345	4.4
489.698	4.34
490.05	4.34
490.402	4.38
490.754	4.39
491.107	4.44
491.459	4.5
491.811	4.51
492.163	4.63
492.515	4.64
492.866	4.65
493.218	4.57
493.57	4.49
493.922	4.42
494.274	4.45
494.625	4.49
494.977	4.61
495.328	4.71
495.68	4.65
496.031	4.62
496.383	4.82
496.734	4.75
497.086	4.66
497.437	4.82
497.788	4.84
498.139	4.85
498.49	4.88
498.842	4.67
499.193	4.72
499.544	4.74
499.894	4.7
500.245	4.84
500.596	4.78
500.947	4.84
501.298	4.86
501.648	4.85
501.999	4.87
502.35	4.86
502.7	4.95
503.051	4.9
503.401	4.89
503.752	4.9
504.102	4.92
504.452	4.97
504.803	4.85
505.153	4.86
505.503	4.95
505.853	4.96
506.203	4.83
506.553	5.08
506.903	4.97
507.253	4.98
507.603	4.93
507.953	5.07
508.303	4.98
508.652	4.88
509.002	5.04
509.352	4.95
509.701	4.95
510.051	5.01
510.4	4.96
510.75	4.98
511.099	4.92
511.449	4.93
511.798	5.06
512.147	5.01
512.496	4.99
512.846	5.05
513.195	5
513.544	5.12
513.893	5.06
514.242	4.97
514.591	5.06
514.939	5.09
515.288	4.99
515.637	5.19
515.986	5.1
516.334	5.16
516.683	5.1
517.032	5.16
517.38	5.15
517.729	5.06
518.077	5.18
518.426	5.16
518.774	5.08
519.122	5.1
519.47	5.14
519.819	5.2
520.167	5.14
520.515	5.05
520.863	5.03
521.211	5.11
521.559	5.19
521.907	5.16
522.255	5.14
522.602	5.24
522.95	5.21
523.298	5.32
523.645	5.33
523.993	5.25
524.341	5.16
524.688	5.31
525.036	5.26
525.383	5.28
525.73	5.35
526.078	5.33
526.425	5.29
526.772	5.31
527.119	5.3
527.466	5.19
527.814	5.22
528.161	5.26
528.508	5.2
528.854	5.23
529.201	5.32
529.548	5.36
529.895	5.27
530.242	5.22
530.588	5.14
530.935	5.03
531.282	5.14
531.628	5.2
531.975	5.27
532.321	5.26
532.667	5.36
533.014	5.39
533.36	5.4
533.706	5.46
534.052	5.53
534.399	5.41
534.745	5.51
535.091	5.41
535.437	5.27
535.783	5.33
536.129	5.42
536.474	5.48
536.82	5.46
537.166	5.61
537.512	5.59
537.857	5.69
538.203	5.69
538.549	5.59
538.894	5.46
539.239	5.54
539.585	5.53
539.93	5.78
540.276	5.66
540.621	5.72
540.966	5.71
541.311	5.87
541.656	5.63
542.001	5.7
542.346	5.68
542.691	5.87
543.036	5.67
543.381	5.66
543.726	5.52
544.071	5.65
544.415	5.61
544.76	5.64
545.105	5.73
545.449	5.76
545.794	5.81
546.138	5.83
546.483	5.85
546.827	5.89
547.171	6
547.516	6.03
547.86	6.05
548.204	6.09
548.548	5.87
548.892	6.07
549.236	6.01
549.58	6.03
549.924	6.13
550.268	6.18
550.612	6.08
550.956	6.08
551.3	6.3
551.643	6.36
551.987	6.33
552.33	6.35
552.674	6.35
553.017	6.18
553.361	6.18
553.704	6.52
554.048	6.26
554.391	6.34
554.734	6.37
555.077	6.36
555.42	6.32
555.764	6.29
556.107	6.52
556.45	6.41
556.793	6.37
557.135	6.54
557.478	6.47
557.821	6.55
558.164	6.65
558.507	6.78
558.849	6.48
559.192	6.74
559.534	6.69
559.877	6.79
560.219	6.74
560.562	6.67
560.904	6.87
561.246	7
561.589	6.85
561.931	6.87
562.273	6.69
562.615	6.71
562.957	6.83
563.299	6.85
563.641	6.83
563.983	6.76
564.325	6.92
564.667	7
565.008	6.95
565.35	7.07
565.692	6.99
566.033	6.96
566.375	7.15
566.716	7.15
567.058	7.07
567.399	7.18
567.741	7.17
568.082	6.95
568.423	7.1
568.764	7.16
569.105	6.97
569.447	7.15
569.788	6.93
570.129	7.25
570.47	7.36
570.811	7.16
571.151	7.33
571.492	7.27
571.833	7
572.174	7.33
572.514	7.26
572.855	7.23
573.195	7.11
573.536	7.52
573.876	7.21
574.217	7.31
574.557	7.46
574.898	7.54
575.238	7.43
575.578	7.54
575.918	7.73
576.258	7.52
576.598	7.68
576.938	7.77
577.278	7.62
577.618	7.56
577.958	7.7
578.298	7.68
578.638	7.85
578.977	7.77
579.317	7.7
579.657	7.93
579.996	7.81
580.336	7.78
580.675	8.06
581.014	7.61
581.354	8
581.693	8.25
582.032	7.93
582.372	8.26
582.711	8.16
583.05	7.96
583.389	8.16
583.728	8.05
584.067	8.34
584.406	8.35
584.745	7.98
585.083	8.42
585.422	8.25
585.761	8.18
586.1	8.46
586.438	8.24
586.777	8.29
587.115	8.39
587.454	8.25
587.792	8.47
588.13	8.62
588.469	8.42
588.807	8.72
589.145	8.6
589.483	8.49
589.821	8.49
590.159	8.56
590.497	8.79
590.835	8.68
591.173	8.45
591.511	8.4
591.849	9.01
592.187	8.75
592.524	9
592.862	8.79
593.2	8.72
593.537	8.66
593.875	8.72
594.212	8.93
594.55	9.13
594.887	8.89
595.224	8.95
595.561	9.21
595.899	9.2
596.236	9.27
596.573	9.14
596.91	9.3
597.247	9.04
597.584	9.36
597.921	9.4
598.258	9.27
598.594	9.28
598.931	9.19
599.268	9.11
599.604	9.26
599.941	9.36
600.277	9.18
600.614	9.27
600.95	9.38
601.287	9.46
601.623	9.39
601.959	9.68
602.296	9.57
602.632	9.43
602.968	9.69
603.304	9.58
603.64	9.52
603.976	9.35
604.312	9.55
604.648	9.72
604.984	9.61
605.319	9.64
605.655	9.57
605.991	9.72
606.326	9.74
606.662	9.59
606.998	9.69
607.333	9.79
607.668	9.7
608.004	9.96
608.339	9.84
608.674	10.05
609.01	9.89
609.345	10.05
609.68	10.17
610.015	10.05
610.35	10.21
610.685	10.23
611.02	10.22
611.355	10.21
611.689	10.14
612.024	10.17
612.359	9.98
612.694	10.16
613.028	10.29
613.363	10.17
613.697	10.17
614.032	10.3
614.366	10.49
614.7	10.46
615.035	10.51
615.369	10.45
615.703	10.61
616.037	10.51
616.371	10.69
616.705	10.77
617.039	10.8
617.373	10.94
617.707	10.73
618.041	10.66
618.375	11.12
618.709	10.91
619.042	11.07
619.376	11.15
619.71	10.93
620.043	10.62
620.377	10.99
620.71	11.05
621.043	10.74
621.377	11.18
621.71	10.8
622.043	11.2
622.376	11.18
622.709	11.08
623.043	11.3
623.376	11.3
623.709	11.26
624.041	11.29
624.374	11.19
624.707	11.67
625.04	11.41
625.373	11
625.705	11.52
626.038	11.35
626.37	11.52
626.703	11.46
627.035	11.46
627.368	11.41
627.7	11.78
628.032	11.72
628.365	11.87
628.697	11.21
629.029	11.65
629.361	11.66
629.693	11.59
630.025	11.85
630.357	11.4
630.689	11.87
631.021	11.33
631.353	11.52
631.684	11.76
632.016	12.23
632.348	11.86
632.679	11.76
633.011	11.82
633.342	12.46
633.674	12.25
634.005	11.94
634.336	12.34
634.668	12.15
634.999	12.04
635.33	12.5
635.661	12.11
635.992	12.34
636.323	12.01
636.654	12.11
636.985	12.07
637.316	12.55
637.647	12.55
637.977	11.88
638.308	12.73
638.639	12.24
638.969	12.72
639.3	12.68
639.63	12.84
639.961	12.24
640.291	12.57
640.622	12.5
640.952	12.52
641.282	12.91
641.612	12.82
641.943	13.18
642.273	12.55
642.603	12.35
642.933	12.69
643.263	12.62
643.592	13.08
643.922	13.23
644.252	12.64
644.582	13.46
644.911	13.42
645.241	13.38
645.571	12.88
645.9	12.82
646.23	13.58
646.559	13.21
646.888	13.22
647.218	13.71
647.547	13.75
647.876	13.28
648.205	12.87
648.534	13.35
648.863	13.32
649.192	13.29
649.521	13.59
649.85	13.88
650.179	13.38
650.508	13.32
650.837	13.97
651.165	13.96
651.494	13.29
651.822	13.78
652.151	13.17
652.479	13.71
652.808	13.64
653.136	13.91
653.465	13.41
653.793	13.41
654.121	13.91
654.449	13.53
654.777	14.01
655.105	14.11
655.433	14.09
655.761	14.4
656.089	14.48
656.417	13.91
656.745	13.93
657.073	13.66
657.4	15.05
657.728	14.27
658.056	13.83
658.383	14.37
658.711	13.86
659.038	14.41
659.365	14.32
659.693	14.67
660.02	14.07
660.347	14.53
660.674	14.05
661.001	13.76
661.329	14.46
661.656	14.35
661.982	14.2
662.309	14.62
662.636	14.64
662.963	14.64
663.29	14.55
663.616	14.7
663.943	14.86
664.27	15.02
664.596	14.65
664.923	14.73
665.249	14.89
665.576	14.8
665.902	14.82
666.228	14.99
666.554	14.75
666.881	14.67
667.207	15.07
667.533	15.26
667.859	15.18
668.185	15.16
668.511	15.16
668.837	14.93
669.162	14.92
669.488	15.24
669.814	15.2
670.139	15.19
670.465	15.71
670.791	15.61
671.116	14.87
671.442	15.48
671.767	15.03
672.092	15.57
672.418	16.21
672.743	15.94
673.068	15.57
673.393	14.92
673.718	15.52
674.043	15.93
674.368	15.76
674.693	14.86
675.018	15.18
675.343	15.34
675.667	15.72
675.992	16.18
676.317	15.71
676.641	15.61
676.966	15.81
677.29	16.15
677.615	15.4
677.939	15.83
678.264	16
678.588	16.2
678.912	16.11
679.236	16.72
679.56	16.22
679.885	15.88
680.209	16.28
680.532	14.87
680.856	15.79
681.18	16.57
681.504	15.87
681.828	16.47
682.152	16.14
682.475	16.98
682.799	16.23
683.122	16.55
683.446	16.39
683.769	16.35
684.093	16.8
684.416	16.32
684.739	16.57
685.062	17.7
685.386	16.53
685.709	16.38
686.032	16.83
686.355	17.2
686.678	17.69
687.001	17.29
687.324	17.18
