Data from 0188_forehead_Reflection__0__152.txt Node

Date: Fri Sep 22 21:30:00 CDT 2023
User: ToomeyLab
Spectrometer: FLMS14357
Trigger mode: 0
Integration Time (sec): 1.000000E-2
Scans to average: 100
Electric dark correction enabled: true
Nonlinearity correction enabled: false
Boxcar width: 0
XAxis mode: Wavelengths
Number of Pixels in Spectrum: 2048
>>>>>Begin Spectral Data<<<<<
189.047	1029.41
189.435	1029.41
189.823	1029.41
190.211	70.11
190.599	-511.43
190.987	93.39
191.375	9.91
191.763	15.59
192.151	456.03
192.538	99.04
192.926	916.19
193.314	-46.78
193.702	126.15
194.089	105.26
194.477	448.57
194.864	171.55
195.252	18.65
195.639	180.91
196.027	-128.87
196.414	10.17
196.801	13.4
197.189	-290.17
197.576	94.66
197.963	472.21
198.351	32.31
198.738	76.4
199.125	37.87
199.512	106.24
199.899	100.79
200.286	50.45
200.673	72.78
201.06	33.03
201.447	52.54
201.833	124.99
202.22	35.99
202.607	85.78
202.994	153.68
203.38	55.12
203.767	44.11
204.154	60.03
204.54	44.28
204.927	78.9
205.313	57.32
205.699	68.56
206.086	71.78
206.472	80.8
206.858	86.42
207.245	113.65
207.631	54.45
208.017	37.36
208.403	45.43
208.789	39.15
209.175	49.1
209.561	51.17
209.947	43.49
210.333	52.1
210.719	109.81
211.105	33.78
211.491	27.56
211.876	59.64
212.262	49.59
212.648	39
213.034	60.09
213.419	45.9
213.805	34.92
214.19	3.59
214.576	53.08
214.961	42.08
215.346	33.71
215.732	38.87
216.117	27.55
216.502	56.17
216.888	67.68
217.273	50.54
217.658	63.31
218.043	52.03
218.428	27.69
218.813	8.02
219.198	22.86
219.583	21.28
219.968	32.82
220.353	46.62
220.738	24.06
221.122	17.09
221.507	18.41
221.892	24.83
222.276	22.45
222.661	2.1
223.046	47.12
223.43	21.49
223.815	22.74
224.199	17.67
224.583	25.31
224.968	26.14
225.352	15.11
225.736	23.71
226.121	24.75
226.505	14.58
226.889	18.32
227.273	7.97
227.657	10.72
228.041	11.71
228.425	14.29
228.809	12.45
229.193	12.1
229.577	11.84
229.961	11.84
230.344	10.01
230.728	5.36
231.112	7.18
231.495	6.15
231.879	6.38
232.263	6.86
232.646	6.65
233.03	6.48
233.413	8.65
233.797	8.67
234.18	6.79
234.563	11.29
234.946	8.91
235.33	6.17
235.713	6.95
236.096	6.57
236.479	6.53
236.862	8.71
237.245	7.82
237.628	8.26
238.011	7.48
238.394	6.86
238.777	8.44
239.16	7.4
239.543	10.22
239.925	8.41
240.308	8.85
240.691	8.25
241.073	9.12
241.456	7.82
241.838	7.68
242.221	7.11
242.603	5.84
242.986	5.68
243.368	5.9
243.75	6.09
244.133	6.9
244.515	6.75
244.897	5.88
245.279	6.03
245.661	6.07
246.043	6.23
246.425	6.15
246.807	7.05
247.189	5.7
247.571	7.19
247.953	6.17
248.335	6.36
248.717	6.05
249.098	5.72
249.48	5.7
249.862	5.74
250.243	5.92
250.625	6.18
251.006	5.99
251.388	6.32
251.769	6.84
252.151	6.6
252.532	7.74
252.913	7.86
253.295	7.63
253.676	6.9
254.057	6.42
254.438	6.39
254.819	5.73
255.2	6.29
255.581	6.42
255.962	6.76
256.343	6.71
256.724	6.28
257.105	7.37
257.486	7.32
257.867	6.99
258.247	7.05
258.628	7.01
259.009	7.6
259.389	5.95
259.77	7.22
260.15	6.76
260.531	5.37
260.911	6.26
261.292	5.83
261.672	5.36
262.052	5.58
262.432	5.55
262.813	5.77
263.193	5.46
263.573	6.1
263.953	6.43
264.333	5.96
264.713	6.06
265.093	5.9
265.473	5.94
265.853	6.72
266.233	6.17
266.612	6.11
266.992	6.82
267.372	6.09
267.752	6.32
268.131	6.18
268.511	5.71
268.89	6.33
269.27	6.06
269.649	5.66
270.029	5.91
270.408	6.37
270.787	5.81
271.167	6.27
271.546	5.28
271.925	6.25
272.304	6.33
272.683	6.26
273.062	6.03
273.441	5.72
273.82	6.19
274.199	5.92
274.578	5.86
274.957	5.8
275.336	5.76
275.715	5.64
276.093	5.19
276.472	5.52
276.851	6.08
277.229	6.04
277.608	6.1
277.986	6.06
278.365	5.57
278.743	5.95
279.122	6.16
279.5	6.48
279.878	6.27
280.257	6.48
280.635	6.22
281.013	6.12
281.391	5.79
281.769	5.34
282.147	6.16
282.525	5.56
282.903	6.01
283.281	5.55
283.659	5.96
284.037	5.31
284.415	5.49
284.792	5.39
285.17	6.15
285.548	6.1
285.925	5.57
286.303	5.69
286.68	5.63
287.058	5.88
287.435	5.35
287.813	5.54
288.19	5.35
288.567	5.77
288.945	5.66
289.322	5.78
289.699	5.96
290.076	6.07
290.453	6.02
290.83	5.85
291.207	5.83
291.584	5.86
291.961	6.02
292.338	6.02
292.715	5.89
293.092	6.09
293.469	6.09
293.845	5.78
294.222	6.31
294.599	6.27
294.975	6.8
295.352	6.97
295.728	6.47
296.105	6.55
296.481	6.7
296.858	6.58
297.234	6.36
297.61	6.86
297.986	6.36
298.363	6.37
298.739	6.75
299.115	6.74
299.491	6.61
299.867	6.97
300.243	6.54
300.619	6.75
300.995	7.09
301.371	7.49
301.746	7.01
302.122	7.27
302.498	6.49
302.874	6.61
303.249	7.05
303.625	7.18
304	7.33
304.376	7.71
304.751	7.85
305.127	7.77
305.502	7.55
305.878	7.58
306.253	7.43
306.628	7.87
307.003	7.57
307.378	7.8
307.754	7.93
308.129	7.65
308.504	8.31
308.879	8.59
309.254	8.51
309.629	7.88
310.003	8.78
310.378	8.66
310.753	8.27
311.128	8.06
311.502	8.8
311.877	8.3
312.252	8.28
312.626	8.31
313.001	8.63
313.375	9.09
313.75	8.79
314.124	9.06
314.498	8.58
314.873	9.12
315.247	9.21
315.621	8.63
315.995	9.4
316.369	9.21
316.743	9.28
317.117	9.31
317.491	9.73
317.865	9.51
318.239	9.92
318.613	10.55
318.987	9.76
319.361	9.1
319.734	10.2
320.108	10.32
320.482	9.77
320.855	9.98
321.229	11.03
321.602	10.02
321.976	10.43
322.349	10.19
322.723	11.01
323.096	10.4
323.469	10.57
323.843	10.69
324.216	11.13
324.589	11.2
324.962	10.25
325.335	10.85
325.708	10.98
326.081	10.8
326.454	10.55
326.827	11.09
327.2	11.42
327.573	11.57
327.945	11.31
328.318	11.46
328.691	11.76
329.063	11.36
329.436	12.23
329.809	12.13
330.181	12.33
330.553	11.78
330.926	12.01
331.298	12.05
331.671	12.18
332.043	11.55
332.415	11.77
332.787	12.45
333.159	12.19
333.532	12.24
333.904	12.32
334.276	12.33
334.648	12.18
335.02	12.01
335.391	12.56
335.763	13.14
336.135	13.07
336.507	12.83
336.879	12.73
337.25	13.88
337.622	12.91
337.993	13.08
338.365	13.02
338.736	13.4
339.108	13.36
339.479	13.18
339.851	13.16
340.222	13.32
340.593	13.43
340.964	13.03
341.336	13.26
341.707	13.4
342.078	13.74
342.449	13.64
342.82	13.2
343.191	13.5
343.562	13.58
343.933	13.83
344.303	13.9
344.674	14.21
345.045	14.45
345.416	14.29
345.786	13.84
346.157	14.06
346.527	13.86
346.898	14.18
347.268	14.05
347.639	14.59
348.009	14.74
348.38	14.66
348.75	14.97
349.12	15.15
349.49	15.01
349.861	14.62
350.231	15.31
350.601	15.25
350.971	15
351.341	15.3
351.711	14.81
352.081	14.88
352.45	15.07
352.82	15
353.19	15.63
353.56	15.44
353.929	15.9
354.299	16
354.669	15.48
355.038	15.91
355.408	15.93
355.777	16.29
356.147	16.07
356.516	16.02
356.885	16.05
357.254	16.59
357.624	15.99
357.993	16.08
358.362	16.22
358.731	16.1
359.1	16.21
359.469	16.57
359.838	16.18
360.207	16.28
360.576	16.59
360.945	16.8
361.314	16.89
361.682	16.68
362.051	16.98
362.42	16.56
362.788	16.74
363.157	16.93
363.525	17.04
363.894	16.99
364.262	17.17
364.631	16.85
364.999	16.74
365.367	17.51
365.735	17.53
366.104	17.27
366.472	17.76
366.84	17.44
367.208	18
367.576	17.91
367.944	17.58
368.312	18.3
368.68	17.98
369.048	17.93
369.416	18.02
369.783	18.04
370.151	18.05
370.519	18.44
370.886	18.46
371.254	18.36
371.621	18.39
371.989	18.89
372.356	18.54
372.724	18.97
373.091	18.8
373.458	19.23
373.826	18.95
374.193	19.17
374.56	18.98
374.927	19.19
375.294	19.23
375.661	19.17
376.028	19.55
376.395	19.79
376.762	18.89
377.129	19.83
377.496	19.88
377.863	19.78
378.229	19.77
378.596	19.88
378.963	20.25
379.329	20.06
379.696	20.3
380.062	19.63
380.429	20.17
380.795	20.35
381.161	20.28
381.528	20.43
381.894	20.37
382.26	20.42
382.626	20.73
382.993	21.04
383.359	20.64
383.725	20.77
384.091	20.99
384.457	20.8
384.823	20.86
385.188	21.2
385.554	21.26
385.92	21.32
386.286	20.9
386.651	21.36
387.017	21.72
387.383	21.49
387.748	21.45
388.114	21.69
388.479	21.66
388.845	21.5
389.21	21.82
389.575	22.19
389.94	21.99
390.306	22.08
390.671	22.6
391.036	22.01
391.401	22.26
391.766	22.27
392.131	22.45
392.496	22.73
392.861	22.59
393.226	22.96
393.591	22.57
393.956	22.87
394.32	22.6
394.685	22.69
395.05	23.16
395.414	22.97
395.779	23.24
396.143	22.79
396.508	23.06
396.872	23.1
397.236	23.56
397.601	23.39
397.965	23.54
398.329	23.84
398.694	23.58
399.058	23.89
399.422	23.81
399.786	23.71
400.15	23.78
400.514	24.08
400.878	24.3
401.242	24.27
401.605	24.08
401.969	24.14
402.333	24.5
402.697	24.37
403.06	24.4
403.424	24.69
403.787	24.79
404.151	24.76
404.514	24.91
404.878	24.89
405.241	25.23
405.604	25.1
405.968	24.87
406.331	24.85
406.694	25.08
407.057	25.09
407.42	25.42
407.783	25.49
408.146	25.64
408.509	25.75
408.872	25.57
409.235	25.82
409.598	25.7
409.961	26.14
410.323	25.99
410.686	26.06
411.049	26.4
411.411	26.39
411.774	26.3
412.136	26.36
412.499	26.14
412.861	26.46
413.223	26.48
413.586	26.63
413.948	26.82
414.31	26.81
414.672	26.89
415.035	26.63
415.397	27.15
415.759	27.21
416.121	27.27
416.483	26.83
416.845	27.29
417.206	27.44
417.568	27.39
417.93	27.46
418.292	27.42
418.653	27.59
419.015	27.51
419.377	27.6
419.738	27.66
420.1	27.38
420.461	27.73
420.822	27.59
421.184	27.74
421.545	27.54
421.906	27.66
422.267	27.68
422.629	27.74
422.99	27.82
423.351	27.87
423.712	27.84
424.073	27.79
424.434	28.19
424.795	28.3
425.155	28.43
425.516	28.43
425.877	28.35
426.238	28.49
426.598	28.54
426.959	28.68
427.32	28.62
427.68	28.6
428.041	28.73
428.401	29.23
428.761	29.42
429.122	29.28
429.482	29.42
429.842	29.52
430.202	29.68
430.563	29.85
430.923	30
431.283	30.11
431.643	30.32
432.003	30.35
432.363	30.26
432.722	30.53
433.082	30.44
433.442	30.5
433.802	30.48
434.161	30.92
434.521	30.91
434.881	30.75
435.24	30.83
435.6	30.69
435.959	30.91
436.319	30.91
436.678	30.98
437.037	31.05
437.396	31.15
437.756	31.26
438.115	31.55
438.474	31.58
438.833	31.51
439.192	31.41
439.551	31.64
439.91	32.04
440.269	32.02
440.628	32.01
440.987	31.97
441.345	32.18
441.704	31.95
442.063	32.11
442.421	32.01
442.78	32.26
443.138	32.18
443.497	32.21
443.855	32.48
444.214	32.31
444.572	32.63
444.93	32.74
445.288	32.77
445.647	32.85
446.005	33.04
446.363	32.91
446.721	33.16
447.079	33.18
447.437	33.15
447.795	33.11
448.153	33.08
448.51	33.26
448.868	33.02
449.226	32.94
449.584	33.07
449.941	33.42
450.299	33.55
450.656	33.82
451.014	34.02
451.371	33.99
451.729	34.06
452.086	34.21
452.443	34.33
452.801	34.62
453.158	34.45
453.515	34.73
453.872	34.75
454.229	34.82
454.586	34.77
454.943	34.79
455.3	34.83
455.657	35.02
456.014	35.21
456.371	35.31
456.727	35.51
457.084	35.35
457.441	35.37
457.797	35.64
458.154	35.61
458.51	35.88
458.867	36.12
459.223	35.97
459.58	36.07
459.936	36.05
460.292	36.34
460.648	36.25
461.005	36.2
461.361	36.29
461.717	35.72
462.073	35.95
462.429	35.92
462.785	35.88
463.141	36.11
463.496	36.4
463.852	36.36
464.208	36.73
464.564	37.04
464.919	36.98
465.275	37.37
465.631	37.51
465.986	37.56
466.342	37.41
466.697	37.66
467.052	37.56
467.408	37.75
467.763	37.6
468.118	37.8
468.473	37.81
468.829	37.73
469.184	38
469.539	37.94
469.894	37.95
470.249	38.45
470.603	38.28
470.958	38.53
471.313	38.66
471.668	38.58
472.023	38.86
472.377	38.65
472.732	39.01
473.086	38.89
473.441	38.83
473.795	39.25
474.15	38.78
474.504	38.92
474.859	39.26
475.213	39.1
475.567	39.51
475.921	39.63
476.275	39.57
476.63	39.55
476.984	39.74
477.338	39.7
477.692	40.02
478.045	40.09
478.399	40.14
478.753	40.2
479.107	40.15
479.461	40.17
479.814	40.36
480.168	40.41
480.521	40.47
480.875	40.34
481.228	40.49
481.582	40.53
481.935	40.62
482.289	40.49
482.642	40.5
482.995	40.61
483.348	40.69
483.701	40.76
484.055	40.8
484.408	40.56
484.761	40.55
485.114	40.57
485.466	40.07
485.819	40.01
486.172	40.2
486.525	40.27
486.878	40.03
487.23	40.13
487.583	40.19
487.936	40.47
488.288	40.8
488.641	40.92
488.993	41.03
489.345	40.93
489.698	40.84
490.05	40.86
490.402	40.81
490.754	40.9
491.107	40.94
491.459	41.17
491.811	41.54
492.163	41.88
492.515	42.04
492.866	41.92
493.218	42.02
493.57	41.87
493.922	41.78
494.274	41.77
494.625	41.76
494.977	41.92
495.328	42.35
495.68	42.59
496.031	42.87
496.383	43.2
496.734	43.43
497.086	43.61
497.437	43.6
497.788	43.5
498.139	43.75
498.49	43.9
498.842	43.75
499.193	43.63
499.544	43.84
499.894	43.81
500.245	43.94
500.596	44.11
500.947	44.24
501.298	44.3
501.648	44.24
501.999	44.39
502.35	44.65
502.7	44.7
503.051	45.17
503.401	45.24
503.752	45.03
504.102	45.17
504.452	45.36
504.803	45.25
505.153	45.32
505.503	45.48
505.853	45.58
506.203	45.49
506.553	45.66
506.903	45.84
507.253	45.62
507.603	45.6
507.953	45.85
508.303	45.94
508.652	45.96
509.002	46.17
509.352	46.13
509.701	46.1
510.051	46.15
510.4	46.32
510.75	46.18
511.099	45.94
511.449	46.23
511.798	46.17
512.147	46.3
512.496	46.42
512.846	46.31
513.195	46.44
513.544	46.54
513.893	46.6
514.242	46.88
514.591	46.88
514.939	46.77
515.288	46.93
515.637	47.1
515.986	47.13
516.334	47.12
516.683	47.31
517.032	47.47
517.38	47.79
517.729	47.72
518.077	47.65
518.426	47.64
518.774	47.94
519.122	47.81
519.47	47.62
519.819	47.7
520.167	47.58
520.515	47.55
520.863	47.41
521.211	47.63
521.559	47.6
521.907	47.82
522.255	48.01
522.602	47.96
522.95	48.13
523.298	48.35
523.645	48.54
523.993	48.62
524.341	48.88
524.688	49.12
525.036	49.1
525.383	48.99
525.73	49.01
526.078	49.01
526.425	49.09
526.772	49.21
527.119	49.07
527.466	49.04
527.814	48.91
528.161	48.85
528.508	48.98
528.854	48.89
529.201	48.94
529.548	48.96
529.895	48.98
530.242	48.89
530.588	48.63
530.935	48.89
531.282	48.98
531.628	48.82
531.975	48.69
532.321	48.77
532.667	49.03
533.014	49.26
533.36	49.69
533.706	49.83
534.052	49.9
534.399	50.1
534.745	49.96
535.091	49.79
535.437	49.8
535.783	49.53
536.129	49.67
536.474	49.79
536.82	49.88
537.166	50.04
537.512	50.39
537.857	50.72
538.203	50.77
538.549	50.73
538.894	50.63
539.239	50.75
539.585	50.81
539.93	50.8
540.276	50.9
540.621	51.24
540.966	51.63
541.311	51.47
541.656	51.54
542.001	51.78
542.346	51.76
542.691	51.57
543.036	51.42
543.381	51.24
543.726	51.18
544.071	51.06
544.415	51.24
544.76	50.95
545.105	51.2
545.449	51.41
545.794	51.61
546.138	51.79
546.483	51.98
546.827	52.11
547.171	52.57
547.516	52.82
547.86	52.93
548.204	52.96
548.548	52.83
548.892	52.84
549.236	52.47
549.58	52.73
549.924	53.21
550.268	52.83
550.612	53.24
550.956	53.34
551.3	53.46
551.643	53.93
551.987	54.01
552.33	54.09
552.674	53.79
553.017	54.34
553.361	54.38
553.704	54.71
554.048	54.28
554.391	54.32
554.734	54.46
555.077	54.58
555.42	54.51
555.764	54.58
556.107	54.23
556.45	54.4
556.793	54.42
557.135	54.77
557.478	54.94
557.821	55.11
558.164	55.33
558.507	55
558.849	55.16
559.192	55.43
559.534	55.38
559.877	55.18
560.219	55.46
560.562	55.52
560.904	55.91
561.246	55.83
561.589	55.75
561.931	55.59
562.273	55.82
562.615	56.1
562.957	55.83
563.299	56.27
563.641	56.12
563.983	55.98
564.325	56.16
564.667	56.2
565.008	56.13
565.35	56.25
565.692	56.46
566.033	56.45
566.375	56.8
566.716	56.77
567.058	56.97
567.399	56.76
567.741	56.43
568.082	56.81
568.423	56.78
568.764	56.59
569.105	56.58
569.447	56.84
569.788	56.65
570.129	56.73
570.47	57.08
570.811	56.98
571.151	57.35
571.492	57.21
571.833	57.32
572.174	57.25
572.514	57.42
572.855	57.61
573.195	57.49
573.536	57.37
573.876	57.56
574.217	57.55
574.557	57.35
574.898	57.55
575.238	57.63
575.578	57.63
575.918	57.64
576.258	57.62
576.598	58.02
576.938	58.19
577.278	58
577.618	57.84
577.958	57.84
578.298	58.03
578.638	58.11
578.977	58.36
579.317	58.17
579.657	58.1
579.996	58.44
580.336	58.55
580.675	58.72
581.014	58.66
581.354	58.99
581.693	59.16
582.032	58.88
582.372	59.09
582.711	59.64
583.05	59.34
583.389	59.27
583.728	59.6
584.067	59.65
584.406	59.66
584.745	59.54
585.083	59.68
585.422	60.09
585.761	59.7
586.1	59.77
586.438	60.05
586.777	59.87
587.115	60.31
587.454	60.18
587.792	60.1
588.13	60.28
588.469	60.36
588.807	60.64
589.145	60.17
589.483	60.59
589.821	60.68
590.159	60.24
590.497	60.43
590.835	60.52
591.173	60.41
591.511	60.45
591.849	60.7
592.187	60.9
592.524	61.1
592.862	60.61
593.2	60.43
593.537	60.69
593.875	60.89
594.212	61.1
594.55	61.45
594.887	61.17
595.224	61.17
595.561	61.25
595.899	61.06
596.236	61.39
596.573	61.21
596.91	61
597.247	61.56
597.584	61.46
597.921	61.58
598.258	61.42
598.594	61.73
598.931	61.66
599.268	61.13
599.604	61.28
599.941	61.35
600.277	61.15
600.614	61.42
600.95	61.4
601.287	61.49
601.623	61.87
601.959	62.71
602.296	61.97
602.632	61.92
602.968	62.14
603.304	62.28
603.64	62.18
603.976	62.63
604.312	62.33
604.648	62.09
604.984	62.22
605.319	62.22
605.655	62.27
605.991	62.44
606.326	62.27
606.662	62.16
606.998	62.26
607.333	62.52
607.668	62.19
608.004	62.35
608.339	62.19
608.674	62.05
609.01	62.64
609.345	62.76
609.68	63.1
610.015	63.05
610.35	63.53
610.685	63.18
611.02	63.26
611.355	63.34
611.689	63.36
612.024	63.37
612.359	63.02
612.694	63.11
613.028	63.32
613.363	63.52
613.697	63.67
614.032	63.29
614.366	63.4
614.7	63.79
615.035	63.65
615.369	64.24
615.703	64.05
616.037	63.84
616.371	63.79
616.705	64.29
617.039	64.08
617.373	64.23
617.707	64.24
618.041	64.49
618.375	64.97
618.709	64.76
619.042	64.51
619.376	64.63
619.71	64.59
620.043	64.64
620.377	64.65
620.71	64.84
621.043	64.49
621.377	65.24
621.71	64.56
622.043	65.14
622.376	64.95
622.709	65.19
623.043	65.16
623.376	65.03
623.709	64.95
624.041	65.55
624.374	65.8
624.707	65.68
625.04	65.97
625.373	65.33
625.705	65.21
626.038	65.49
626.37	65.32
626.703	65.53
627.035	65.77
627.368	65.78
627.7	65.09
628.032	65.47
628.365	66.2
628.697	65.78
629.029	65.82
629.361	66.12
629.693	65.7
630.025	65.86
630.357	65.88
630.689	65.65
631.021	65.45
631.353	65.89
631.684	66.06
632.016	66.24
632.348	65.86
632.679	65.78
633.011	66.08
633.342	66.63
633.674	66.82
634.005	66.37
634.336	66.5
634.668	66.09
634.999	66.96
635.33	66.58
635.661	66.18
635.992	66.88
636.323	66.43
636.654	66.97
636.985	66.75
637.316	67.1
637.647	66.77
637.977	66.93
638.308	66.82
638.639	67.14
638.969	67.26
639.3	67.16
639.63	67.41
639.961	66.74
640.291	67.62
640.622	67.38
640.952	66.94
641.282	67.61
641.612	67.27
641.943	67.64
642.273	67.29
642.603	67.54
642.933	67.86
643.263	67.72
643.592	67.54
643.922	67.73
644.252	68.61
644.582	68.06
644.911	67.5
645.241	68.54
645.571	68.02
645.9	68.23
646.23	68.57
646.559	68.31
646.888	68.3
647.218	68.2
647.547	68.45
647.876	68.88
648.205	68.18
648.534	68.42
648.863	68.45
649.192	68.24
649.521	68.48
649.85	68.61
650.179	68.91
650.508	68.98
650.837	69.06
651.165	69.06
651.494	68.48
651.822	68.91
652.151	68.52
652.479	69.08
652.808	68.52
653.136	69.38
653.465	68.04
653.793	68.88
654.121	69.15
654.449	68.33
654.777	69.13
655.105	69.21
655.433	68.85
655.761	69.45
656.089	69.46
656.417	68.99
656.745	69.49
657.073	69.46
657.4	70.08
657.728	69.34
658.056	69.59
658.383	69.1
658.711	69.49
659.038	69.22
659.365	69.92
659.693	69.9
660.02	69.36
660.347	69.5
660.674	69.72
661.001	69.44
661.329	70.18
661.656	69.67
661.982	69.25
662.309	69.34
662.636	69.48
662.963	69.69
663.29	69.81
663.616	69.91
663.943	69.49
664.27	70.09
664.596	69.71
664.923	69.65
665.249	69.92
665.576	70.2
665.902	69.72
666.228	70
666.554	69.24
666.881	71.16
667.207	70.37
667.533	70.38
667.859	70.3
668.185	70.27
668.511	70.65
668.837	70.64
