Data from 0188_forehead_Reflection__4__156.txt Node

Date: Fri Sep 22 21:30:40 CDT 2023
User: ToomeyLab
Spectrometer: FLMS14357
Trigger mode: 0
Integration Time (sec): 1.000000E-2
Scans to average: 100
Electric dark correction enabled: true
Nonlinearity correction enabled: false
Boxcar width: 0
XAxis mode: Wavelengths
Number of Pixels in Spectrum: 2048
>>>>>Begin Spectral Data<<<<<
189.047	-1139.9
189.435	-1139.9
189.823	-1139.9
190.211	18.09
190.599	130.48
190.987	98.91
191.375	93.78
191.763	-1384.41
192.151	705.2
192.538	62.97
192.926	354.6
193.314	57.01
193.702	484.45
194.089	115.17
194.477	659.12
194.864	127.35
195.252	-64.23
195.639	24.94
196.027	-720.45
196.414	-55.67
196.801	121.63
197.189	-161.17
197.576	118.2
197.963	406.15
198.351	2
198.738	96.71
199.125	25.46
199.512	64.55
199.899	78.2
200.286	31.37
200.673	48.14
201.06	29.82
201.447	44.36
201.833	100.6
202.22	70.46
202.607	77.28
202.994	75.48
203.38	67.68
203.767	51.69
204.154	56.11
204.54	50.24
204.927	58.31
205.313	58.26
205.699	87.67
206.086	68.2
206.472	51.04
206.858	35.45
207.245	39.26
207.631	54.81
208.017	68.03
208.403	41.96
208.789	67.4
209.175	52.51
209.561	56.58
209.947	53.05
210.333	44.78
210.719	89.42
211.105	52.06
211.491	38.91
211.876	39.52
212.262	31.34
212.648	50.55
213.034	48.9
213.419	45.41
213.805	30.07
214.19	49.25
214.576	48.85
214.961	37.85
215.346	29.84
215.732	42.82
216.117	7.35
216.502	54.08
216.888	40.58
217.273	28.43
217.658	36
218.043	40.92
218.428	48.27
218.813	28.21
219.198	10.03
219.583	28.35
219.968	21.59
220.353	62.29
220.738	34.54
221.122	39.02
221.507	27.19
221.892	0.92
222.276	15.3
222.661	8.54
223.046	34.66
223.43	28.99
223.815	27.74
224.199	29.62
224.583	13.1
224.968	29.72
225.352	14.93
225.736	28.08
226.121	16.12
226.505	21.97
226.889	7.61
227.273	11.24
227.657	18.4
228.041	13.14
228.425	15.21
228.809	12.95
229.193	7.78
229.577	11.49
229.961	10.44
230.344	8.61
230.728	6.95
231.112	6.97
231.495	5.72
231.879	7.86
232.263	5.01
232.646	8.03
233.03	7.02
233.413	6.86
233.797	8.53
234.18	8.42
234.563	10.16
234.946	9.63
235.33	6.66
235.713	8.22
236.096	7.91
236.479	6.72
236.862	8.68
237.245	7.14
237.628	8.43
238.011	7.63
238.394	7.2
238.777	8.59
239.16	6.58
239.543	6.29
239.925	9.21
240.308	7.92
240.691	8.52
241.073	8.47
241.456	6.47
241.838	6.98
242.221	6.85
242.603	6.76
242.986	6.6
243.368	6.86
243.75	6.49
244.133	6.62
244.515	6.1
244.897	5.58
245.279	5.91
245.661	6.29
246.043	6.4
246.425	6.31
246.807	6.16
247.189	5.43
247.571	7.26
247.953	7.48
248.335	5.52
248.717	6.31
249.098	6.04
249.48	5.65
249.862	5.86
250.243	6.12
250.625	6.29
251.006	5.85
251.388	6.29
251.769	6.64
252.151	6.02
252.532	7.13
252.913	8.18
253.295	8.4
253.676	6.43
254.057	6.42
254.438	6.63
254.819	6.02
255.2	6.53
255.581	6.48
255.962	8.86
256.343	6.57
256.724	5.96
257.105	7.17
257.486	6.7
257.867	7.4
258.247	7.18
258.628	7.02
259.009	6.67
259.389	6.7
259.77	6.7
260.15	6.57
260.531	6.14
260.911	6.18
261.292	5.87
261.672	5.6
262.052	5.95
262.432	5.89
262.813	6.02
263.193	5.59
263.573	6.82
263.953	6.73
264.333	7.03
264.713	6.24
265.093	6.34
265.473	6.1
265.853	5.83
266.233	6.36
266.612	6.07
266.992	6.84
267.372	6.64
267.752	5.73
268.131	6.41
268.511	5.78
268.89	6.85
269.27	6.32
269.649	6.22
270.029	6.31
270.408	6.68
270.787	6.42
271.167	6.21
271.546	5.92
271.925	5.9
272.304	5.66
272.683	6.12
273.062	6.45
273.441	6.01
273.82	6.14
274.199	6.37
274.578	6.17
274.957	6.34
275.336	5.58
275.715	5.52
276.093	5.75
276.472	6.01
276.851	6.34
277.229	5.66
277.608	6.58
277.986	5.94
278.365	6.14
278.743	6.38
279.122	6.02
279.5	6.45
279.878	6.15
280.257	6.42
280.635	6.35
281.013	6.13
281.391	6.11
281.769	6.17
282.147	6.35
282.525	6.61
282.903	6.43
283.281	6.06
283.659	6.23
284.037	5.95
284.415	6.15
284.792	5.87
285.17	6.11
285.548	6.54
285.925	6.38
286.303	6.09
286.68	5.54
287.058	6.08
287.435	6.29
287.813	5.72
288.19	5.66
288.567	6.04
288.945	6.07
289.322	6.64
289.699	6.42
290.076	6.72
290.453	5.98
290.83	5.64
291.207	6.33
291.584	6.31
291.961	6.37
292.338	6.39
292.715	6.41
293.092	6.61
293.469	6.68
293.845	6.8
294.222	6.76
294.599	7.04
294.975	7.63
295.352	6.5
295.728	7.37
296.105	7.35
296.481	6.93
296.858	7.63
297.234	7.34
297.61	7.3
297.986	7.33
298.363	7.5
298.739	7.03
299.115	7.33
299.491	7.35
299.867	7.3
300.243	7.24
300.619	7.47
300.995	7.18
301.371	7.98
301.746	7.42
302.122	7.46
302.498	7.6
302.874	7.66
303.249	7.87
303.625	7
304	8.7
304.376	8.23
304.751	8.01
305.127	8.38
305.502	8.96
305.878	8.17
306.253	8.47
306.628	8.29
307.003	8.8
307.378	8.36
307.754	8.66
308.129	8.46
308.504	8.83
308.879	8.58
309.254	9.07
309.629	8.71
310.003	9.03
310.378	9.45
310.753	9.21
311.128	9.12
311.502	9.81
311.877	9.05
312.252	9.32
312.626	9.22
313.001	9.6
313.375	9.47
313.75	9.8
314.124	9.91
314.498	9.79
314.873	9.62
315.247	9.56
315.621	9.97
315.995	9.83
316.369	10.19
316.743	10.19
317.117	10.24
317.491	10.72
317.865	9.71
318.239	10.73
318.613	11.51
318.987	11.1
319.361	10.35
319.734	10.51
320.108	11.05
320.482	10.99
320.855	10.3
321.229	11.37
321.602	11.52
321.976	10.6
322.349	11.32
322.723	11.46
323.096	11.25
323.469	11.36
323.843	11.23
324.216	11.14
324.589	12.15
324.962	11
325.335	11.51
325.708	11.92
326.081	11.71
326.454	11.27
326.827	11.86
327.2	11.82
327.573	12.78
327.945	12.19
328.318	12.03
328.691	12.09
329.063	12.47
329.436	12.17
329.809	12.51
330.181	12.73
330.553	12.42
330.926	12.48
331.298	12.93
331.671	12.93
332.043	12.12
332.415	12.46
332.787	12.85
333.159	12.36
333.532	12.68
333.904	12.4
334.276	12.47
334.648	12.78
335.02	12.83
335.391	13.18
335.763	13.74
336.135	13.82
336.507	13.13
336.879	13.45
337.25	13.45
337.622	13.69
337.993	13.63
338.365	13.71
338.736	13.92
339.108	13.71
339.479	14.01
339.851	13.51
340.222	13.75
340.593	13.64
340.964	13.67
341.336	13.8
341.707	13.97
342.078	14.15
342.449	14.24
342.82	13.78
343.191	13.97
343.562	14.34
343.933	14.55
344.303	14.41
344.674	14.46
345.045	14.83
345.416	15.25
345.786	14.67
346.157	14.83
346.527	14.74
346.898	14.54
347.268	15
347.639	14.6
348.009	15.02
348.38	15.27
348.75	15.04
349.12	15.23
349.49	15.46
349.861	15.14
350.231	15.24
350.601	15.41
350.971	15.7
351.341	15.58
351.711	15.6
352.081	15.5
352.45	15.51
352.82	15.66
353.19	15.91
353.56	15.44
353.929	16.44
354.299	15.65
354.669	15.7
355.038	15.84
355.408	16.23
355.777	16.21
356.147	16.02
356.516	16.26
356.885	16.23
357.254	16.53
357.624	16.36
357.993	16.51
358.362	16.46
358.731	16.47
359.1	16.21
359.469	16.37
359.838	16.58
360.207	16.63
360.576	16.72
360.945	16.64
361.314	17.13
361.682	17.13
362.051	17.08
362.42	16.75
362.788	16.7
363.157	17.18
363.525	17.29
363.894	17.13
364.262	17.1
364.631	17.13
364.999	17.22
365.367	17.64
365.735	17.83
366.104	17.55
366.472	17.99
366.84	17.64
367.208	18.16
367.576	17.79
367.944	18.19
368.312	18.15
368.68	18.1
369.048	18.24
369.416	18.06
369.783	18.46
370.151	18.2
370.519	18.72
370.886	18.66
371.254	19.19
371.621	18.5
371.989	18.74
372.356	18.89
372.724	18.62
373.091	19
373.458	19.2
373.826	19.08
374.193	19.19
374.56	19.14
374.927	19.15
375.294	19.16
375.661	19.09
376.028	19.51
376.395	19.45
376.762	19.21
377.129	19.61
377.496	19.64
377.863	19.56
378.229	19.23
378.596	19.57
378.963	20.04
379.329	19.97
379.696	19.94
380.062	19.62
380.429	19.85
380.795	19.92
381.161	20.04
381.528	20.14
381.894	19.82
382.26	20.11
382.626	20.16
382.993	20.35
383.359	20.34
383.725	20.69
384.091	20.69
384.457	20.73
384.823	20.72
385.188	20.69
385.554	20.44
385.92	21.05
386.286	20.63
386.651	21
387.017	21.05
387.383	21.11
387.748	21.25
388.114	21.4
388.479	21.39
388.845	21.05
389.21	21.47
389.575	21.65
389.94	21.56
390.306	21.8
390.671	21.86
391.036	21.62
391.401	21.5
391.766	22
392.131	21.98
392.496	21.82
392.861	22.15
393.226	22.12
393.591	22.22
393.956	22.16
394.32	22.41
394.685	22.01
395.05	22.24
395.414	22.59
395.779	22.68
396.143	22.72
396.508	22.72
396.872	22.45
397.236	22.73
397.601	22.6
397.965	23.38
398.329	23
398.694	22.87
399.058	23.14
399.422	23.28
399.786	23.43
400.15	23.39
400.514	23.47
400.878	23.64
401.242	23.39
401.605	23.29
401.969	23.43
402.333	23.71
402.697	23.44
403.06	23.5
403.424	23.78
403.787	23.97
404.151	23.7
404.514	24.09
404.878	24.27
405.241	24.3
405.604	24.21
405.968	24.44
406.331	24.25
406.694	24.44
407.057	24.28
407.42	24.45
407.783	24.42
408.146	24.53
408.509	24.68
408.872	24.51
409.235	24.61
409.598	24.93
409.961	25.35
410.323	24.99
410.686	25.13
411.049	25.26
411.411	25.35
411.774	24.99
412.136	24.99
412.499	25.15
412.861	25.14
413.223	25.5
413.586	25.52
413.948	25.39
414.31	25.74
414.672	25.73
415.035	25.82
415.397	25.98
415.759	25.94
416.121	26.02
416.483	26.01
416.845	26.02
417.206	26.15
417.568	25.99
417.93	26.29
418.292	26.31
418.653	26.1
419.015	26.02
419.377	26.27
419.738	26.61
420.1	26.13
420.461	26.16
420.822	26.39
421.184	26.31
421.545	26.33
421.906	26.31
422.267	26.44
422.629	26.47
422.99	26.21
423.351	26.31
423.712	26.47
424.073	26.61
424.434	26.84
424.795	26.84
425.155	27
425.516	27.04
425.877	26.87
426.238	27
426.598	26.86
426.959	27.16
427.32	27.17
427.68	27.24
428.041	27.18
428.401	27.71
428.761	27.91
429.122	27.93
429.482	27.85
429.842	27.95
430.202	28.08
430.563	28.16
430.923	28.38
431.283	28.29
431.643	28.42
432.003	28.66
432.363	28.56
432.722	28.58
433.082	28.87
433.442	28.59
433.802	28.79
434.161	29
434.521	28.74
434.881	28.94
435.24	28.83
435.6	28.77
435.959	28.86
436.319	28.92
436.678	29.11
437.037	29.07
437.396	29.2
437.756	29.21
438.115	29.55
438.474	29.55
438.833	29.69
439.192	29.53
439.551	29.7
439.91	29.91
440.269	29.87
440.628	29.64
440.987	29.95
441.345	29.84
441.704	29.85
442.063	29.94
442.421	29.54
442.78	29.86
443.138	30.04
443.497	30
443.855	30.2
444.214	30.19
444.572	30.31
444.93	30.55
445.288	30.62
445.647	30.74
446.005	30.63
446.363	30.59
446.721	30.66
447.079	30.73
447.437	30.6
447.795	30.76
448.153	30.66
448.51	30.69
448.868	30.45
449.226	30.61
449.584	30.58
449.941	30.86
450.299	31.09
450.656	31.32
451.014	31.42
451.371	31.26
451.729	31.67
452.086	31.64
452.443	31.75
452.801	31.96
453.158	32.06
453.515	32.15
453.872	32.04
454.229	32.12
454.586	31.99
454.943	32.27
455.3	32.23
455.657	32.24
456.014	32.61
456.371	32.65
456.727	32.8
457.084	32.68
457.441	32.62
457.797	32.77
458.154	32.99
458.51	32.75
458.867	32.87
459.223	33.12
459.58	33
459.936	33.32
460.292	33.06
460.648	33.39
461.005	33.47
461.361	33.07
461.717	32.84
462.073	32.86
462.429	32.8
462.785	33.03
463.141	33.21
463.496	33.56
463.852	33.27
464.208	33.68
464.564	33.91
464.919	33.98
465.275	34.23
465.631	34.06
465.986	34.31
466.342	34.4
466.697	34.46
467.052	34.37
467.408	34.37
467.763	34.45
468.118	34.56
468.473	34.5
468.829	34.35
469.184	34.7
469.539	34.67
469.894	34.76
470.249	34.73
470.603	34.99
470.958	34.96
471.313	34.92
471.668	35.25
472.023	35.04
472.377	35.02
472.732	35.43
473.086	35.36
473.441	35.28
473.795	35.53
474.15	35.45
474.504	35.56
474.859	35.87
475.213	35.61
475.567	35.63
475.921	35.78
476.275	35.92
476.63	35.94
476.984	36.19
477.338	36.25
477.692	36.05
478.045	36.24
478.399	36.1
478.753	36.33
479.107	36.33
479.461	36.3
479.814	36.37
480.168	36.7
480.521	36.46
480.875	36.53
481.228	36.7
481.582	36.59
481.935	36.77
482.289	36.72
482.642	36.85
482.995	36.69
483.348	36.68
483.701	36.71
484.055	36.87
484.408	36.84
484.761	36.66
485.114	36.44
485.466	36.34
485.819	36
486.172	35.98
486.525	36.11
486.878	36.22
487.23	36.44
487.583	36.53
487.936	36.81
488.288	36.96
488.641	37.08
488.993	36.95
489.345	36.92
489.698	36.81
490.05	36.71
490.402	36.87
490.754	36.91
491.107	37.07
491.459	37.27
491.811	37.66
492.163	37.83
492.515	37.93
492.866	38.1
493.218	37.9
493.57	37.62
493.922	37.33
494.274	37.54
494.625	37.74
494.977	37.99
495.328	38.33
495.68	38.56
496.031	38.88
496.383	38.9
496.734	39.39
497.086	39.12
497.437	39.26
497.788	39.43
498.139	39.54
498.49	39.35
498.842	39.33
499.193	39.38
499.544	39.33
499.894	39.37
500.245	39.6
500.596	39.73
500.947	39.85
501.298	39.74
501.648	39.77
501.999	40.1
502.35	40.18
502.7	40.25
503.051	40.38
503.401	40.42
503.752	40.4
504.102	40.38
504.452	40.57
504.803	40.7
505.153	40.86
505.503	40.77
505.853	40.83
506.203	40.97
506.553	40.95
506.903	40.94
507.253	40.9
507.603	40.87
507.953	41.19
508.303	41.32
508.652	41.15
509.002	41.31
509.352	41.37
509.701	41.32
510.051	41.3
510.4	41.58
510.75	41.31
511.099	41.07
511.449	41.54
511.798	41.49
512.147	41.56
512.496	41.68
512.846	41.68
513.195	41.53
513.544	41.94
513.893	42.06
514.242	41.96
514.591	42.15
514.939	41.96
515.288	42.03
515.637	42.29
515.986	42.26
516.334	42.44
516.683	42.34
517.032	42.84
517.38	42.82
517.729	42.71
518.077	42.64
518.426	42.78
518.774	42.99
519.122	43.06
519.47	42.85
519.819	42.87
520.167	42.71
520.515	42.56
520.863	42.55
521.211	42.68
521.559	42.74
521.907	43.02
522.255	43
522.602	42.99
522.95	43.17
523.298	43.51
523.645	43.77
523.993	43.86
524.341	44
524.688	43.87
525.036	43.9
525.383	43.89
525.73	43.88
526.078	44.05
526.425	44
526.772	44.11
527.119	43.85
527.466	43.65
527.814	43.61
528.161	43.7
528.508	43.89
528.854	43.79
529.201	43.97
529.548	43.97
529.895	43.94
530.242	43.68
530.588	43.45
530.935	43.47
531.282	43.61
531.628	43.74
531.975	43.76
532.321	43.99
532.667	44.15
533.014	44.23
533.36	44.62
533.706	44.82
534.052	44.86
534.399	44.82
534.745	44.9
535.091	44.58
535.437	44.45
535.783	44.26
536.129	44.56
536.474	44.68
536.82	44.89
537.166	45.3
537.512	45.36
537.857	45.59
538.203	45.54
538.549	45.64
538.894	45.27
539.239	45.24
539.585	45.61
539.93	45.56
540.276	46.01
540.621	46.06
540.966	46.31
541.311	46.25
541.656	46.22
542.001	46.36
542.346	46.42
542.691	46.42
543.036	46.06
543.381	45.86
543.726	45.56
544.071	45.62
544.415	45.78
544.76	46.01
545.105	46.17
545.449	46.43
545.794	46.53
546.138	46.57
546.483	46.66
546.827	46.91
547.171	47.08
547.516	47.3
547.86	47.25
548.204	47.35
548.548	47.2
548.892	47.46
549.236	47.09
549.58	47.15
549.924	47.64
550.268	47.67
550.612	47.96
550.956	48.11
551.3	48
551.643	48.12
551.987	48.2
552.33	48.64
552.674	48.11
553.017	48.44
553.361	48.54
553.704	48.6
554.048	48.7
554.391	48.6
554.734	48.75
555.077	48.66
555.42	49.04
555.764	48.78
556.107	48.72
556.45	48.91
556.793	48.97
557.135	49.14
557.478	48.87
557.821	49.38
558.164	49.33
558.507	49.66
558.849	49.43
559.192	49.46
559.534	49.56
559.877	49.73
560.219	49.73
560.562	49.88
560.904	49.78
561.246	49.95
561.589	49.96
561.931	50
562.273	49.89
562.615	50.4
562.957	50.15
563.299	50.07
563.641	50.28
563.983	50.03
564.325	50.41
564.667	50.39
565.008	50.29
565.35	50.31
565.692	50.52
566.033	50.82
566.375	50.92
566.716	50.91
567.058	50.69
567.399	50.95
567.741	50.94
568.082	50.65
568.423	50.62
568.764	50.83
569.105	50.62
569.447	50.88
569.788	50.75
570.129	51.29
570.47	51.08
570.811	51.59
571.151	51.41
571.492	51.43
571.833	51.33
572.174	51.21
572.514	51.4
572.855	51.35
573.195	51.5
573.536	51.5
573.876	51.44
574.217	51.35
574.557	51.63
574.898	51.73
575.238	51.57
575.578	52.09
575.918	51.92
576.258	51.82
576.598	52.12
576.938	52.06
577.278	52.1
577.618	51.73
577.958	52.27
578.298	52.18
578.638	52.28
578.977	52.62
579.317	52.43
579.657	52.31
579.996	52.69
580.336	52.58
580.675	52.64
581.014	53.01
581.354	53.01
581.693	53.16
582.032	53.06
582.372	53.29
582.711	53.23
583.05	53.47
583.389	53.69
583.728	53.53
584.067	53.3
584.406	53.59
584.745	53.22
585.083	53.38
585.422	54.04
585.761	53.53
586.1	53.41
586.438	53.5
586.777	53.52
587.115	53.8
587.454	53.74
587.792	54.11
588.13	54.08
588.469	53.8
588.807	54.39
589.145	54.25
589.483	54.46
589.821	54.27
590.159	54.47
590.497	54.17
590.835	54.67
591.173	54.22
591.511	54.52
591.849	54.59
592.187	54.44
592.524	54.74
592.862	54.56
593.2	54.68
593.537	54.99
593.875	54.53
594.212	54.53
594.55	55.1
594.887	54.9
595.224	55.12
595.561	55.1
595.899	55.11
596.236	55.02
596.573	55.21
596.91	54.85
597.247	55.37
597.584	55.11
597.921	55.4
598.258	55.49
598.594	55.15
598.931	55.5
599.268	55.23
599.604	55.21
599.941	55.32
600.277	55.42
600.614	55.32
600.95	55.63
601.287	55.58
601.623	56.14
601.959	56.11
602.296	55.91
602.632	55.47
602.968	55.98
603.304	56.19
603.64	55.98
603.976	56.55
604.312	56.18
604.648	56.22
604.984	56.19
605.319	56.26
605.655	56.16
605.991	56.24
606.326	56.22
606.662	56
606.998	55.88
607.333	56.33
607.668	56.22
608.004	56.61
608.339	56.36
608.674	56.7
609.01	56.8
609.345	57.01
609.68	57.03
610.015	56.99
610.35	56.96
610.685	57.04
611.02	57.02
611.355	57.02
611.689	56.82
612.024	56.85
612.359	56.84
612.694	56.82
613.028	57.19
613.363	56.98
613.697	57.04
614.032	56.93
614.366	57.41
614.7	57.3
615.035	57.64
615.369	57.63
615.703	57.96
616.037	57.64
616.371	57.96
616.705	58.05
617.039	58.26
617.373	58.27
617.707	58.01
618.041	58.11
618.375	57.96
618.709	58.46
619.042	58.59
619.376	58.17
619.71	58.25
620.043	57.91
620.377	58.01
620.71	58.54
621.043	58.38
621.377	58.47
621.71	58.56
622.043	58.72
622.376	58.65
622.709	58.55
623.043	58.45
623.376	58.81
623.709	58.59
624.041	58.79
624.374	59.3
624.707	59.5
625.04	58.95
625.373	59.02
625.705	59.04
626.038	59.24
626.37	59.32
626.703	59.67
627.035	59.38
627.368	59.39
627.7	59.46
628.032	58.61
628.365	59.37
628.697	58.97
629.029	59.59
629.361	59.49
629.693	58.99
630.025	59.32
630.357	59.82
630.689	59.18
631.021	59.24
631.353	59.45
631.684	59.85
632.016	59.75
632.348	59.67
632.679	59.93
633.011	59.83
633.342	60.3
633.674	60.49
634.005	59.69
634.336	59.96
634.668	60.05
634.999	60.23
635.33	60.33
635.661	60.31
635.992	60.11
636.323	60.27
636.654	60.45
636.985	60.24
637.316	60.36
637.647	60.02
637.977	60.54
638.308	60.47
638.639	60.52
638.969	61.1
639.3	60.49
639.63	60.41
639.961	60.77
640.291	61.11
640.622	61.17
640.952	60.65
641.282	61.07
641.612	60.93
641.943	61.07
642.273	61.05
642.603	61.06
642.933	61.28
643.263	60.95
643.592	60.82
643.922	61.81
644.252	61.81
644.582	61.18
644.911	61.81
645.241	61.89
645.571	62.05
645.9	61.82
646.23	62.14
646.559	61.72
646.888	61.77
647.218	61.67
647.547	61.75
647.876	61.59
648.205	61.44
648.534	62.24
648.863	61.37
649.192	61.83
649.521	62.19
649.85	61.7
650.179	61.35
650.508	62.08
650.837	62.96
651.165	61.93
651.494	61.92
651.822	62.05
652.151	61.96
652.479	61.95
652.808	61.78
653.136	62.02
653.465	62.36
653.793	62.47
654.121	61.99
654.449	61.88
654.777	62.06
655.105	63.07
655.433	62.46
655.761	63.07
656.089	63.11
656.417	61.91
656.745	62.6
657.073	62.77
657.4	63.3
657.728	62.63
658.056	62.44
658.383	62.23
658.711	62.79
659.038	62.98
659.365	63.03
659.693	62.99
660.02	63.12
660.347	62.89
660.674	63.01
661.001	63.13
661.329	62.84
661.656	62.4
661.982	62.9
662.309	62.7
662.636	63.02
662.963	63.19
663.29	63.2
663.616	63.67
663.943	63.33
664.27	63.43
664.596	63.11
664.923	63.29
665.249	63.37
665.576	63.06
665.902	63.82
666.228	63.7
666.554	63.59
666.881	63.42
667.207	63.27
667.533	64.27
667.859	63.43
668.185	64.08
668.511	64.02
668.837	63.33
669.162	63.27
669.488	63.4
