Data from 0233_crown_Reflection__2__39.txt Node

Date: Fri Oct 20 20:59:15 CDT 2023
User: ToomeyLab
Spectrometer: FLMS14357
Trigger mode: 0
Integration Time (sec): 1.000000E-2
Scans to average: 100
Electric dark correction enabled: true
Nonlinearity correction enabled: false
Boxcar width: 0
XAxis mode: Wavelengths
Number of Pixels in Spectrum: 2048
>>>>>Begin Spectral Data<<<<<
189.047	21.23
189.435	21.23
189.823	21.23
190.211	-35.23
190.599	-7.36
190.987	46.48
191.375	139.51
191.763	38
192.151	139.97
192.538	136.97
192.926	197.8
193.314	323.41
193.702	146.53
194.089	101.92
194.477	398.17
194.864	99.39
195.252	-1087.71
195.639	212.94
196.027	833.94
196.414	37.47
196.801	-342.05
197.189	12
197.576	112.2
197.963	-163.51
198.351	62.14
198.738	31.5
199.125	60.34
199.512	42.44
199.899	24.91
200.286	15.13
200.673	66.38
201.06	32.5
201.447	-4.4
201.833	23.2
202.22	22.43
202.607	34.55
202.994	17.36
203.38	25.12
203.767	-0.24
204.154	31.11
204.54	35.16
204.927	24.24
205.313	38.48
205.699	47.4
206.086	14.79
206.472	40.45
206.858	36.3
207.245	9.59
207.631	34.45
208.017	27.25
208.403	9.3
208.789	39.47
209.175	27.98
209.561	2.47
209.947	15.26
210.333	13.12
210.719	24.49
211.105	20.63
211.491	21.52
211.876	-6.87
212.262	18.46
212.648	29.88
213.034	12.89
213.419	60.06
213.805	34.38
214.19	16.16
214.576	12.68
214.961	16.23
215.346	24.54
215.732	11.17
216.117	-16.71
216.502	11.76
216.888	5.83
217.273	11.23
217.658	12.06
218.043	-3.88
218.428	12.79
218.813	3.55
219.198	14.79
219.583	6.89
219.968	0.17
220.353	32.3
220.738	-5.45
221.122	20.3
221.507	25.84
221.892	3.83
222.276	13.57
222.661	33
223.046	8.01
223.43	-3.07
223.815	15.04
224.199	23.9
224.583	7.69
224.968	9.92
225.352	10.62
225.736	10.12
226.121	14.92
226.505	8.17
226.889	9.24
227.273	19.97
227.657	15.74
228.041	14.65
228.425	13.94
228.809	11.65
229.193	10.17
229.577	11.61
229.961	10.31
230.344	10.24
230.728	9.47
231.112	10.52
231.495	9.3
231.879	11.15
232.263	11.58
232.646	8.3
233.03	8.75
233.413	11.07
233.797	9.5
234.18	9.93
234.563	11.47
234.946	12.75
235.33	12.53
235.713	10.76
236.096	9.89
236.479	9.78
236.862	10.55
237.245	9.56
237.628	9.83
238.011	10.99
238.394	10.33
238.777	12.26
239.16	11.39
239.543	11.93
239.925	10.14
240.308	9.83
240.691	10.15
241.073	9.4
241.456	10.28
241.838	9.03
242.221	10.49
242.603	9.98
242.986	9.6
243.368	9.24
243.75	8.84
244.133	9
244.515	9.2
244.897	9.11
245.279	9.17
245.661	8.94
246.043	8.43
246.425	9.33
246.807	8.95
247.189	8.77
247.571	8.35
247.953	9.12
248.335	8.88
248.717	8.38
249.098	8.35
249.48	8.28
249.862	8.52
250.243	8.87
250.625	8.75
251.006	9.04
251.388	8.02
251.769	8.43
252.151	8.27
252.532	8.68
252.913	7.75
253.295	7.75
253.676	8.76
254.057	8.3
254.438	8.31
254.819	8.2
255.2	8.08
255.581	8.81
255.962	7.65
256.343	8.22
256.724	7.44
257.105	7.93
257.486	8.43
257.867	8.11
258.247	8.98
258.628	7.72
259.009	7.68
259.389	7.92
259.77	6.93
260.15	8.2
260.531	7.97
260.911	8.01
261.292	7.61
261.672	7.84
262.052	7.68
262.432	7.68
262.813	7.64
263.193	7.98
263.573	7.71
263.953	7.99
264.333	7.88
264.713	8.07
265.093	7.87
265.473	8.05
265.853	7.08
266.233	7.94
266.612	7.65
266.992	8.48
267.372	7.27
267.752	6.72
268.131	7.89
268.511	7.45
268.89	7.4
269.27	7.36
269.649	6.75
270.029	7.18
270.408	7.55
270.787	7.41
271.167	7.39
271.546	8.08
271.925	7.94
272.304	7.93
272.683	7.16
273.062	7.49
273.441	7.02
273.82	7.16
274.199	7.91
274.578	7.08
274.957	7.29
275.336	6.87
275.715	7.28
276.093	6.92
276.472	7.58
276.851	7.19
277.229	7.09
277.608	6.51
277.986	6.33
278.365	7.4
278.743	7.15
279.122	6.9
279.5	7.12
279.878	6.8
280.257	6.85
280.635	7.43
281.013	7.51
281.391	7.23
281.769	6.99
282.147	5.93
282.525	6.55
282.903	6.92
283.281	6.8
283.659	7.04
284.037	6.48
284.415	6.26
284.792	6.37
285.17	6.7
285.548	6.64
285.925	6.54
286.303	6.2
286.68	6.22
287.058	7.09
287.435	7.03
287.813	6.18
288.19	6.62
288.567	6.41
288.945	6.31
289.322	6.7
289.699	5.78
290.076	6.88
290.453	6.63
290.83	6.09
291.207	6.83
291.584	6.15
291.961	6.04
292.338	6.25
292.715	6.49
293.092	6.39
293.469	6.22
293.845	6.36
294.222	6.07
294.599	6.37
294.975	6.67
295.352	6.59
295.728	6.55
296.105	6.14
296.481	6.08
296.858	6.24
297.234	6.12
297.61	5.91
297.986	6.03
298.363	6.09
298.739	6.19
299.115	5.82
299.491	5.64
299.867	6.11
300.243	6.19
300.619	6.1
300.995	6.14
301.371	6.27
301.746	5.86
302.122	6.09
302.498	5.9
302.874	5.82
303.249	5.98
303.625	5.45
304	6.01
304.376	5.78
304.751	5.44
305.127	5.28
305.502	5.86
305.878	6.01
306.253	5.86
306.628	5.63
307.003	5.71
307.378	5.6
307.754	5.31
308.129	6.3
308.504	5.93
308.879	5.68
309.254	6.51
309.629	5.67
310.003	5.53
310.378	6.1
310.753	5.91
311.128	5.55
311.502	5.82
311.877	5.69
312.252	5.39
312.626	6.13
313.001	5.38
313.375	5.71
313.75	5.6
314.124	5.45
314.498	5.47
314.873	5.24
315.247	5.45
315.621	5.83
315.995	5.64
316.369	5.41
316.743	5.73
317.117	5.88
317.491	4.53
317.865	5.81
318.239	5.95
318.613	5.87
318.987	5.47
319.361	5.61
319.734	5.53
320.108	4.97
320.482	6.07
320.855	5.11
321.229	6.16
321.602	5.25
321.976	5.15
322.349	6.12
322.723	5.29
323.096	5.18
323.469	5.45
323.843	5.8
324.216	5.92
324.589	5.03
324.962	5.9
325.335	5.4
325.708	5.22
326.081	5.24
326.454	5.92
326.827	5.85
327.2	5.76
327.573	5.28
327.945	5.87
328.318	5.41
328.691	5.49
329.063	5.91
329.436	5.07
329.809	5.66
330.181	5.9
330.553	5.4
330.926	5.21
331.298	5.3
331.671	4.83
332.043	4.68
332.415	4.92
332.787	5.68
333.159	5.36
333.532	5.92
333.904	6.05
334.276	5.08
334.648	5.67
335.02	5.37
335.391	5.1
335.763	6.13
336.135	5.74
336.507	6.09
336.879	5.49
337.25	5.48
337.622	6.07
337.993	6.07
338.365	5.36
338.736	5.63
339.108	5.87
339.479	5.59
339.851	5.37
340.222	5.21
340.593	5.19
340.964	5.41
341.336	5.82
341.707	5.41
342.078	5.36
342.449	5.51
342.82	5.41
343.191	5.6
343.562	5.65
343.933	5.35
344.303	5.39
344.674	5.94
345.045	5.57
345.416	5.85
345.786	5.64
346.157	5.59
346.527	5.62
346.898	5.87
347.268	5.64
347.639	5.68
348.009	5.25
348.38	5.87
348.75	5.55
349.12	5.97
349.49	5.58
349.861	5.9
350.231	5.25
350.601	5.68
350.971	6.2
351.341	5.71
351.711	6.07
352.081	5.84
352.45	5.63
352.82	5.72
353.19	5.77
353.56	6.01
353.929	6.04
354.299	5.57
354.669	5.63
355.038	6.04
355.408	6.15
355.777	5.64
356.147	5.72
356.516	5.74
356.885	5.83
357.254	5.93
357.624	6.11
357.993	5.59
358.362	5.44
358.731	5.44
359.1	5.7
359.469	5.68
359.838	6.14
360.207	5.79
360.576	5.99
360.945	5.69
361.314	5.85
361.682	5.41
362.051	5.76
362.42	6.04
362.788	6.01
363.157	5.8
363.525	5.87
363.894	5.84
364.262	5.88
364.631	6.03
364.999	5.97
365.367	6.06
365.735	5.97
366.104	6.07
366.472	5.84
366.84	5.81
367.208	6.06
367.576	6.12
367.944	6.26
368.312	5.81
368.68	6.22
369.048	6.16
369.416	5.98
369.783	6.23
370.151	6.42
370.519	6.28
370.886	6.17
371.254	6.03
371.621	6.24
371.989	5.88
372.356	6.54
372.724	6.44
373.091	5.96
373.458	6.03
373.826	6.09
374.193	6.17
374.56	6.17
374.927	6.21
375.294	5.99
375.661	6.51
376.028	6.6
376.395	6.32
376.762	6.28
377.129	6.49
377.496	6.48
377.863	6.7
378.229	6.45
378.596	6.39
378.963	6.36
379.329	6.29
379.696	6.28
380.062	6.4
380.429	6.41
380.795	6.36
381.161	6.54
381.528	6.5
381.894	6.47
382.26	6.46
382.626	6.78
382.993	6.53
383.359	6.22
383.725	6.48
384.091	6.5
384.457	6.65
384.823	6.57
385.188	6.65
385.554	6.37
385.92	6.28
386.286	6.69
386.651	6.45
387.017	6.57
387.383	6.51
387.748	6.41
388.114	6.38
388.479	6.59
388.845	6.87
389.21	6.31
389.575	6.2
389.94	6.39
390.306	6.41
390.671	6.43
391.036	6.33
391.401	6.52
391.766	6.75
392.131	6.77
392.496	6.63
392.861	6.45
393.226	6.48
393.591	6.69
393.956	6.63
394.32	6.75
394.685	6.53
395.05	6.76
395.414	6.81
395.779	6.46
396.143	6.41
396.508	6.39
396.872	6.55
397.236	6.6
397.601	6.54
397.965	6.5
398.329	6.42
398.694	6.71
399.058	6.44
399.422	6.72
399.786	6.52
400.15	6.73
400.514	6.78
400.878	6.84
401.242	6.98
401.605	6.88
401.969	6.66
402.333	6.69
402.697	6.55
403.06	6.55
403.424	6.78
403.787	6.72
404.151	6.62
404.514	6.81
404.878	6.95
405.241	6.86
405.604	6.6
405.968	6.97
406.331	6.67
406.694	6.88
407.057	6.6
407.42	6.95
407.783	6.82
408.146	6.91
408.509	6.7
408.872	6.97
409.235	6.85
409.598	6.87
409.961	6.95
410.323	6.93
410.686	6.7
411.049	6.98
411.411	6.78
411.774	6.92
412.136	6.87
412.499	6.9
412.861	6.95
413.223	6.97
413.586	6.85
413.948	6.97
414.31	7.31
414.672	6.81
415.035	6.8
415.397	7.16
415.759	7.15
416.121	6.93
416.483	7.14
416.845	6.86
417.206	7
417.568	7.03
417.93	6.91
418.292	6.87
418.653	7.07
419.015	6.75
419.377	6.84
419.738	6.88
420.1	6.77
420.461	6.79
420.822	6.86
421.184	6.75
421.545	6.86
421.906	6.79
422.267	6.77
422.629	6.81
422.99	6.75
423.351	6.76
423.712	6.87
424.073	6.74
424.434	6.77
424.795	6.83
425.155	6.83
425.516	6.63
425.877	6.84
426.238	6.71
426.598	6.74
426.959	6.73
427.32	6.69
427.68	6.87
428.041	6.84
428.401	6.91
428.761	6.95
429.122	6.91
429.482	6.89
429.842	6.98
430.202	7.16
430.563	6.98
430.923	6.97
431.283	7.08
431.643	7.08
432.003	7.17
432.363	6.94
432.722	6.81
433.082	7.02
433.442	6.89
433.802	7.05
434.161	6.87
434.521	7.05
434.881	6.94
435.24	7.01
435.6	6.9
435.959	6.91
436.319	7.07
436.678	6.98
437.037	6.95
437.396	7.08
437.756	7.11
438.115	6.78
438.474	7.14
438.833	6.94
439.192	6.86
439.551	7.05
439.91	7.03
440.269	7.2
440.628	6.98
440.987	6.99
441.345	6.93
441.704	6.93
442.063	7.04
442.421	6.88
442.78	6.94
443.138	7.02
443.497	7.1
443.855	6.99
444.214	6.99
444.572	6.97
444.93	7.07
445.288	7.25
445.647	7.2
446.005	6.83
446.363	7.1
446.721	6.92
447.079	7.08
447.437	7.02
447.795	6.89
448.153	6.86
448.51	6.9
448.868	6.84
449.226	6.9
449.584	6.94
449.941	6.94
450.299	6.95
450.656	6.92
451.014	7.09
451.371	7.04
451.729	7.13
452.086	7.05
452.443	7.04
452.801	7.14
453.158	7.06
453.515	6.99
453.872	7.25
454.229	7.08
454.586	7.18
454.943	7.08
455.3	7.01
455.657	7.11
456.014	6.88
456.371	7.01
456.727	7.17
457.084	7.15
457.441	7.16
457.797	7.07
458.154	6.95
458.51	7.11
458.867	7.12
459.223	7.24
459.58	7.07
459.936	7.11
460.292	7.03
460.648	6.96
461.005	7
461.361	7
461.717	6.79
462.073	6.95
462.429	6.92
462.785	6.87
463.141	7.16
463.496	6.99
463.852	7.07
464.208	7.15
464.564	7.21
464.919	7.14
465.275	7.25
465.631	7.18
465.986	7.18
466.342	7.24
466.697	6.99
467.052	6.97
467.408	7.11
467.763	7.1
468.118	7.23
468.473	7.18
468.829	7.03
469.184	7.2
469.539	7.06
469.894	7.07
470.249	7.1
470.603	7.02
470.958	7.14
471.313	7.27
471.668	7.18
472.023	7.12
472.377	7.23
472.732	6.98
473.086	7.09
473.441	7.22
473.795	7.24
474.15	7.06
474.504	6.99
474.859	7.06
475.213	7.22
475.567	7.09
475.921	7.11
476.275	6.93
476.63	7.32
476.984	7.27
477.338	7.09
477.692	7.07
478.045	7.01
478.399	6.92
478.753	7.1
479.107	7.12
479.461	7.2
479.814	7.17
480.168	7.08
480.521	7.13
480.875	7.01
481.228	7.17
481.582	7.19
481.935	7.01
482.289	7.14
482.642	6.99
482.995	7.11
483.348	7.05
483.701	6.96
484.055	6.96
484.408	6.88
484.761	6.85
485.114	6.77
485.466	6.69
485.819	6.56
486.172	6.5
486.525	6.55
486.878	6.65
487.23	6.67
487.583	6.75
487.936	6.87
488.288	6.8
488.641	6.76
488.993	6.75
489.345	6.71
489.698	6.67
490.05	6.67
490.402	6.66
490.754	6.77
491.107	6.75
491.459	6.91
491.811	6.84
492.163	6.9
492.515	6.97
492.866	6.89
493.218	6.79
493.57	6.64
493.922	6.7
494.274	6.72
494.625	6.78
494.977	6.87
495.328	6.91
495.68	7
496.031	6.88
496.383	7
496.734	7.05
497.086	6.98
497.437	7.04
497.788	6.91
498.139	7.13
498.49	6.92
498.842	6.74
499.193	6.97
499.544	6.94
499.894	6.96
500.245	6.91
500.596	6.98
500.947	6.91
501.298	6.93
501.648	6.96
501.999	6.91
502.35	6.86
502.7	7
503.051	6.92
503.401	6.96
503.752	6.89
504.102	7.1
504.452	6.97
504.803	6.96
505.153	6.88
505.503	7.08
505.853	7.11
506.203	7.02
506.553	7.01
506.903	6.97
507.253	7.1
507.603	7.1
507.953	6.88
508.303	6.91
508.652	7.08
509.002	6.95
509.352	6.93
509.701	7.04
510.051	6.94
510.4	6.85
510.75	6.93
511.099	6.88
511.449	6.91
511.798	6.88
512.147	6.91
512.496	6.89
512.846	6.89
513.195	6.91
513.544	6.92
513.893	6.83
514.242	6.82
514.591	6.83
514.939	6.89
515.288	6.81
515.637	6.96
515.986	6.95
516.334	6.91
516.683	6.9
517.032	6.86
517.38	6.91
517.729	6.91
518.077	6.87
518.426	6.96
518.774	6.87
519.122	6.8
519.47	6.86
519.819	6.78
520.167	6.73
520.515	6.76
520.863	6.76
521.211	6.72
521.559	6.82
521.907	6.88
522.255	6.76
522.602	6.76
522.95	6.82
523.298	6.89
523.645	6.87
523.993	6.7
524.341	6.95
524.688	6.91
525.036	7.01
525.383	6.84
525.73	6.98
526.078	6.88
526.425	6.87
526.772	6.84
527.119	6.75
527.466	6.72
527.814	6.66
528.161	6.72
528.508	6.7
528.854	6.69
529.201	6.65
529.548	6.67
529.895	6.61
530.242	6.55
530.588	6.41
530.935	6.35
531.282	6.48
531.628	6.51
531.975	6.44
532.321	6.56
532.667	6.64
533.014	6.69
533.36	6.72
533.706	6.71
534.052	6.72
534.399	6.61
534.745	6.53
535.091	6.49
535.437	6.48
535.783	6.58
536.129	6.6
536.474	6.67
536.82	6.63
537.166	6.64
537.512	6.79
537.857	6.81
538.203	6.62
538.549	6.82
538.894	6.67
539.239	6.6
539.585	6.61
539.93	6.64
540.276	6.69
540.621	6.79
540.966	6.78
541.311	6.84
541.656	6.77
542.001	6.76
542.346	6.74
542.691	6.61
543.036	6.56
543.381	6.45
543.726	6.43
544.071	6.46
544.415	6.5
544.76	6.55
545.105	6.57
545.449	6.56
545.794	6.59
546.138	6.56
546.483	6.57
546.827	6.65
547.171	6.85
547.516	6.61
547.86	6.71
548.204	6.49
548.548	6.69
548.892	6.6
549.236	6.65
549.58	6.56
549.924	6.68
550.268	6.7
550.612	6.74
550.956	6.79
551.3	6.8
551.643	6.76
551.987	6.87
552.33	6.71
552.674	6.74
553.017	6.72
553.361	6.81
553.704	6.77
554.048	6.77
554.391	6.82
554.734	6.75
555.077	6.72
555.42	6.59
555.764	6.47
556.107	6.83
556.45	6.65
556.793	6.63
557.135	6.53
557.478	6.57
557.821	6.9
558.164	6.78
558.507	6.83
558.849	7
559.192	6.65
559.534	6.87
559.877	6.46
560.219	6.74
560.562	6.87
560.904	6.58
561.246	6.76
561.589	6.58
561.931	6.76
562.273	6.97
562.615	6.76
562.957	6.75
563.299	6.81
563.641	7
563.983	6.65
564.325	6.58
564.667	6.53
565.008	6.6
565.35	6.48
565.692	6.51
566.033	6.77
566.375	6.63
566.716	6.68
567.058	6.62
567.399	6.67
567.741	6.55
568.082	6.56
568.423	6.63
568.764	6.55
569.105	6.69
569.447	6.69
569.788	6.56
570.129	6.52
570.47	6.63
570.811	6.62
571.151	6.65
571.492	6.74
571.833	6.71
572.174	6.68
572.514	6.67
572.855	6.54
573.195	6.49
573.536	6.34
573.876	6.44
574.217	6.5
574.557	6.58
574.898	6.4
575.238	6.52
575.578	6.44
575.918	6.42
576.258	6.5
576.598	6.74
576.938	6.5
577.278	6.46
577.618	6.35
577.958	6.33
578.298	6.38
578.638	6.54
578.977	6.48
579.317	6.35
579.657	6.52
579.996	6.51
580.336	6.66
580.675	6.5
581.014	6.54
581.354	6.54
581.693	6.59
582.032	6.53
582.372	6.47
582.711	6.55
583.05	6.85
583.389	6.54
583.728	6.38
584.067	6.68
584.406	6.49
584.745	6.56
585.083	6.32
585.422	6.47
585.761	6.36
586.1	6.76
586.438	6.36
586.777	6.4
587.115	6.49
587.454	6.6
587.792	6.63
588.13	6.48
588.469	6.39
588.807	6.24
589.145	6.26
589.483	6.25
589.821	6.38
590.159	6.54
590.497	6.51
590.835	6.56
591.173	6.35
591.511	6.41
591.849	6.24
592.187	6.38
592.524	6.18
592.862	6.44
593.2	6.39
593.537	6.34
593.875	6.24
594.212	6.4
594.55	6.55
594.887	6.29
595.224	6.14
595.561	6.32
595.899	6.22
596.236	6.27
596.573	6.37
596.91	6.3
597.247	6.34
597.584	6.19
597.921	6.29
598.258	6.39
598.594	6.4
598.931	6.08
599.268	6.07
599.604	6.18
599.941	6.28
600.277	6.07
600.614	6.28
600.95	6.19
601.287	6.23
601.623	6.13
601.959	6.22
602.296	6.39
602.632	6.21
602.968	6.09
603.304	6.43
603.64	5.93
603.976	6.42
604.312	6.48
604.648	6.37
604.984	6.45
605.319	6.27
605.655	6.09
605.991	6.06
606.326	6.06
606.662	5.88
606.998	6.03
607.333	5.91
607.668	5.82
608.004	6.14
608.339	5.96
608.674	6.29
609.01	6.31
609.345	6.34
609.68	6.43
610.015	6.42
610.35	6.04
610.685	6.28
611.02	6.07
611.355	6.14
611.689	5.98
612.024	6.1
612.359	5.91
612.694	6.04
613.028	5.94
613.363	6.03
613.697	6.11
614.032	6.12
614.366	6.33
614.7	6.05
615.035	6.14
615.369	6.31
615.703	5.85
616.037	6.19
616.371	5.98
616.705	6.09
617.039	5.95
617.373	5.7
617.707	6.04
618.041	6.1
618.375	6.21
618.709	6.42
619.042	5.86
619.376	6.15
619.71	5.94
620.043	6.24
620.377	6.08
620.71	6.42
621.043	6.22
621.377	5.67
621.71	5.95
622.043	6.27
622.376	6.33
622.709	6.23
623.043	6.01
623.376	5.83
623.709	5.81
624.041	6.05
624.374	6.3
624.707	6.08
625.04	6.16
625.373	6.06
625.705	5.91
626.038	6.12
626.37	5.75
626.703	6.14
627.035	5.69
627.368	5.86
627.7	6.17
628.032	5.9
628.365	6.14
628.697	5.93
629.029	6.05
629.361	6.07
629.693	5.68
630.025	5.8
630.357	5.86
630.689	5.92
631.021	6.21
631.353	6.2
631.684	5.73
632.016	6.18
632.348	5.67
632.679	5.71
633.011	5.99
633.342	5.63
633.674	6.06
634.005	6.15
634.336	6.21
634.668	5.47
634.999	5.88
635.33	5.77
635.661	6.16
635.992	6.06
636.323	6.19
636.654	5.98
636.985	5.92
637.316	5.76
637.647	5.79
637.977	5.78
638.308	5.89
638.639	5.38
638.969	5.99
639.3	5.52
639.63	5.82
639.961	5.82
640.291	5.84
640.622	5.97
640.952	5.95
641.282	5.45
641.612	5.74
641.943	6.33
642.273	5.76
642.603	6.3
642.933	5.78
643.263	6.1
643.592	6.1
643.922	6.31
644.252	5.58
644.582	6.04
644.911	6
645.241	5.99
645.571	5.99
645.9	5.86
646.23	5.82
646.559	5.9
646.888	6.03
647.218	5.76
647.547	4.99
647.876	6.04
648.205	5.83
648.534	5.69
648.863	6.16
649.192	5.67
649.521	5.66
649.85	5.73
650.179	5.7
650.508	5.69
650.837	6.13
651.165	5.89
651.494	6.05
651.822	5.99
652.151	5.78
652.479	5.79
652.808	5.91
653.136	5.75
653.465	5.77
653.793	5.88
654.121	5.95
654.449	5.87
654.777	5.73
655.105	5.6
655.433	6.18
655.761	5.77
656.089	5.56
656.417	5.94
656.745	6.23
657.073	5.43
657.4	6.58
657.728	6.09
658.056	5.4
658.383	5.95
658.711	5.61
659.038	6.05
659.365	6.13
659.693	5.77
660.02	6.23
660.347	5.53
660.674	5.79
661.001	5.78
661.329	5.44
661.656	5.97
661.982	5.55
662.309	5.78
662.636	5.81
662.963	5.75
663.29	5.86
663.616	5.82
663.943	5.28
664.27	6.09
664.596	5.77
664.923	5.57
665.249	6.11
665.576	5.78
665.902	5.66
666.228	6.08
666.554	5.88
666.881	5.28
667.207	5.96
667.533	5.74
667.859	6.18
668.185	5.81
668.511	6.18
668.837	6.55
669.162	5.84
669.488	5.9
669.814	5.65
670.139	5.86
670.465	5.86
670.791	6.21
671.116	5.96
671.442	5.52
671.767	5.02
672.092	6.16
672.418	6.35
672.743	5.4
673.068	6.32
673.393	5.55
673.718	5.25
674.043	5.48
674.368	6.02
674.693	5.75
675.018	6.19
675.343	5.96
675.667	6.01
675.992	6.25
676.317	6.4
676.641	5.94
676.966	5.98
677.29	6.28
677.615	6.28
677.939	5.59
678.264	5.33
678.588	5
678.912	6.64
679.236	5.39
679.56	6.55
679.885	5.72
680.209	5.31
680.532	5.38
680.856	5.54
681.18	5.83
681.504	5.72
681.828	6.05
682.152	5.34
682.475	5.21
682.799	5.69
683.122	5.2
683.446	5.84
683.769	5.75
684.093	5.69
684.416	5.41
684.739	5.44
685.062	4.85
685.386	5.19
685.709	5.98
686.032	5.34
686.355	5.92
686.678	5.85
687.001	6.13
687.324	5.78
687.646	6.11
687.969	6.19
688.292	6.12
688.614	6.18
688.937	5.67
689.26	5.24
689.582	5.12
689.904	4.94
690.227	5.67
690.549	5.78
690.871	5.62
691.194	6.07
691.516	5.4
691.838	6.58
692.16	6.03
692.482	5.94
