Data from 0233_forehead_Reflection__4__46.txt Node

Date: Fri Oct 20 21:01:00 CDT 2023
User: ToomeyLab
Spectrometer: FLMS14357
Trigger mode: 0
Integration Time (sec): 1.000000E-2
Scans to average: 100
Electric dark correction enabled: true
Nonlinearity correction enabled: false
Boxcar width: 0
XAxis mode: Wavelengths
Number of Pixels in Spectrum: 2048
>>>>>Begin Spectral Data<<<<<
189.047	10.07
189.435	10.07
189.823	10.07
190.211	424.95
190.599	-81.89
190.987	102.27
191.375	141
191.763	121.98
192.151	220.63
192.538	-1.51
192.926	472.01
193.314	232.9
193.702	81.64
194.089	137.48
194.477	117.64
194.864	11.51
195.252	-239.01
195.639	-403.19
196.027	126.3
196.414	35.98
196.801	524.94
197.189	50.34
197.576	-97.5
197.963	96.71
198.351	60.02
198.738	75.61
199.125	82.97
199.512	51.89
199.899	39.39
200.286	34.62
200.673	49.9
201.06	37.83
201.447	20.47
201.833	45.94
202.22	18.41
202.607	62.85
202.994	70.17
203.38	70.48
203.767	58.47
204.154	55.26
204.54	86.35
204.927	47.61
205.313	72.55
205.699	68.69
206.086	70.46
206.472	46.87
206.858	38.76
207.245	17.48
207.631	41.98
208.017	39.51
208.403	26.61
208.789	42.41
209.175	49.37
209.561	35.64
209.947	42.65
210.333	57.74
210.719	34.54
211.105	37.54
211.491	37.41
211.876	17.6
212.262	29.19
212.648	25.92
213.034	21.83
213.419	48.9
213.805	27.29
214.19	19.36
214.576	-3.3
214.961	44.24
215.346	26.96
215.732	33.15
216.117	12.7
216.502	46.95
216.888	36.3
217.273	44.22
217.658	42.19
218.043	14.19
218.428	28.1
218.813	19.76
219.198	39.11
219.583	9.51
219.968	2.25
220.353	27.2
220.738	45.79
221.122	29.67
221.507	35.94
221.892	19.97
222.276	20.18
222.661	30.87
223.046	19.02
223.43	17.85
223.815	20.92
224.199	18.74
224.583	10.8
224.968	17.49
225.352	5.95
225.736	9.73
226.121	19.54
226.505	13.89
226.889	13.01
227.273	8.91
227.657	16.07
228.041	12.97
228.425	8.74
228.809	9.86
229.193	5.31
229.577	9.07
229.961	4.55
230.344	5.02
230.728	5.18
231.112	6.07
231.495	4.09
231.879	5.21
232.263	6.67
232.646	4.84
233.03	6.15
233.413	5.45
233.797	5.54
234.18	6.51
234.563	8.66
234.946	8.24
235.33	5.5
235.713	7.35
236.096	7.45
236.479	5.38
236.862	5.84
237.245	5.9
237.628	5.92
238.011	6.88
238.394	6.55
238.777	6.98
239.16	6.37
239.543	7.19
239.925	8.42
240.308	6.37
240.691	6.22
241.073	7.52
241.456	6.27
241.838	6.4
242.221	5.79
242.603	4.96
242.986	5.24
243.368	5.93
243.75	4.34
244.133	4.84
244.515	4.53
244.897	4.72
245.279	5.05
245.661	5.25
246.043	4.78
246.425	5.72
246.807	5.03
247.189	4.88
247.571	5.05
247.953	5.34
248.335	4.96
248.717	4.28
249.098	4.51
249.48	4.43
249.862	4.67
250.243	4.79
250.625	4.91
251.006	5.12
251.388	4.49
251.769	5.59
252.151	4.91
252.532	6.39
252.913	6.55
253.295	3.98
253.676	4.59
254.057	4.74
254.438	4.9
254.819	4.99
255.2	5.85
255.581	5.77
255.962	4.97
256.343	7.11
256.724	4.56
257.105	6.02
257.486	6.21
257.867	7.22
258.247	4.81
258.628	5.45
259.009	4.82
259.389	4.75
259.77	4.76
260.15	5.46
260.531	5.26
260.911	5.02
261.292	4.79
261.672	4.55
262.052	4.66
262.432	4.72
262.813	4.84
263.193	4.77
263.573	5.05
263.953	5.02
264.333	5.49
264.713	5.49
265.093	5.01
265.473	5.04
265.853	4.62
266.233	5.67
266.612	5.85
266.992	5.24
267.372	5.31
267.752	4.59
268.131	5.68
268.511	5.68
268.89	5
269.27	4.63
269.649	4.72
270.029	4.91
270.408	5.38
270.787	5.64
271.167	4.95
271.546	5.56
271.925	5.49
272.304	5.49
272.683	4.99
273.062	4.63
273.441	5.1
273.82	4.81
274.199	4.82
274.578	4.9
274.957	4.86
275.336	4.79
275.715	5.02
276.093	5.06
276.472	4.98
276.851	5.43
277.229	5.65
277.608	4.51
277.986	4.58
278.365	5.5
278.743	4.71
279.122	4.84
279.5	4.83
279.878	4.55
280.257	5.44
280.635	5.19
281.013	5.39
281.391	4.96
281.769	5.15
282.147	5.05
282.525	5.23
282.903	4.78
283.281	4.82
283.659	4.99
284.037	4.92
284.415	4.4
284.792	4.19
285.17	5.38
285.548	4.52
285.925	4.42
286.303	4.53
286.68	4.43
287.058	5.33
287.435	4.94
287.813	4.39
288.19	4.74
288.567	4.7
288.945	5.15
289.322	5.45
289.699	4.29
290.076	5.48
290.453	5.26
290.83	5.19
291.207	5.27
291.584	4.44
291.961	4.75
292.338	5.02
292.715	4.88
293.092	4.94
293.469	5.07
293.845	4.93
294.222	5.02
294.599	5.33
294.975	6.35
295.352	5.41
295.728	5.37
296.105	5.54
296.481	5.43
296.858	5.12
297.234	5.55
297.61	4.94
297.986	5.82
298.363	5.58
298.739	5.47
299.115	5.57
299.491	5.51
299.867	5.47
300.243	5.52
300.619	5.56
300.995	5.15
301.371	6.4
301.746	5.97
302.122	5.83
302.498	5.99
302.874	6.07
303.249	6.03
303.625	6.5
304	6.46
304.376	5.87
304.751	5.63
305.127	6.09
305.502	6.76
305.878	6.45
306.253	6.71
306.628	6.44
307.003	6.63
307.378	6.85
307.754	6.64
308.129	6.83
308.504	6.44
308.879	6.97
309.254	7.34
309.629	6.74
310.003	6.25
310.378	7.42
310.753	7.06
311.128	7.03
311.502	7.29
311.877	7.04
312.252	6.82
312.626	7.24
313.001	7.01
313.375	6.97
313.75	7.17
314.124	7.18
314.498	7.65
314.873	7.19
315.247	7.49
315.621	7.75
315.995	8.57
316.369	7.6
316.743	7.85
317.117	7.8
317.491	7.73
317.865	8.17
318.239	7.96
318.613	8.05
318.987	8.65
319.361	7.79
319.734	8.03
320.108	8.09
320.482	8.46
320.855	8.44
321.229	8.92
321.602	8.64
321.976	8.63
322.349	9.14
322.723	8.56
323.096	8.8
323.469	8.96
323.843	9.23
324.216	8.47
324.589	9.15
324.962	9.39
325.335	8.4
325.708	9.09
326.081	9.48
326.454	9.46
326.827	9.44
327.2	9.46
327.573	9.75
327.945	9.28
328.318	9.31
328.691	9.29
329.063	9.95
329.436	9
329.809	10.24
330.181	10.12
330.553	9.94
330.926	9.61
331.298	9.22
331.671	9.83
332.043	10.1
332.415	9.95
332.787	10.54
333.159	9.94
333.532	10.35
333.904	10.67
334.276	9.98
334.648	10.3
335.02	10.68
335.391	10.02
335.763	10.89
336.135	10.63
336.507	10.18
336.879	10.61
337.25	11.11
337.622	11.03
337.993	10.94
338.365	10.6
338.736	10.55
339.108	11.01
339.479	11.14
339.851	10.95
340.222	11.24
340.593	10.84
340.964	11.07
341.336	11.26
341.707	11.7
342.078	11.25
342.449	11.06
342.82	11.4
343.191	10.98
343.562	11.31
343.933	11.44
344.303	11.38
344.674	11.51
345.045	11.56
345.416	11.45
345.786	11.07
346.157	11.66
346.527	11.43
346.898	11.81
347.268	11.73
347.639	11.82
348.009	11.7
348.38	12.03
348.75	11.99
349.12	11.55
349.49	11.97
349.861	12.56
350.231	12
350.601	12.1
350.971	11.96
351.341	12.21
351.711	12.55
352.081	12.37
352.45	12.2
352.82	12.11
353.19	12.59
353.56	12.73
353.929	12.42
354.299	12.62
354.669	12.65
355.038	12.76
355.408	12.72
355.777	12.69
356.147	12.35
356.516	12.07
356.885	12.96
357.254	12.89
357.624	12.79
357.993	12.8
358.362	13.25
358.731	12.7
359.1	12.64
359.469	12.6
359.838	13.16
360.207	13.21
360.576	13.48
360.945	13.14
361.314	13.5
361.682	13.14
362.051	12.94
362.42	12.97
362.788	13.36
363.157	13.42
363.525	13.18
363.894	13.32
364.262	13.5
364.631	13.4
364.999	13.64
365.367	13.7
365.735	13.89
366.104	13.7
366.472	13.91
366.84	13.86
367.208	14.05
367.576	13.83
367.944	14
368.312	13.82
368.68	14.38
369.048	13.94
369.416	14.13
369.783	14.43
370.151	14.3
370.519	14.37
370.886	14.45
371.254	14.79
371.621	14.76
371.989	14.6
372.356	14.58
372.724	14.82
373.091	14.5
373.458	14.4
373.826	14.8
374.193	14.75
374.56	14.72
374.927	14.71
375.294	15.08
375.661	15.28
376.028	15.05
376.395	15.48
376.762	14.97
377.129	14.92
377.496	15.02
377.863	15.71
378.229	15.9
378.596	15.32
378.963	15.07
379.329	15.4
379.696	15.29
380.062	15.57
380.429	15.3
380.795	15.18
381.161	15.65
381.528	15.78
381.894	15.57
382.26	15.77
382.626	16.06
382.993	15.64
383.359	15.88
383.725	16.42
384.091	16.04
384.457	16.33
384.823	16.15
385.188	16.32
385.554	15.93
385.92	16.3
386.286	16.36
386.651	16.21
387.017	16.27
387.383	16.32
387.748	16.2
388.114	16.32
388.479	16.88
388.845	16.59
389.21	16.37
389.575	16.66
389.94	16.6
390.306	16.81
390.671	16.68
391.036	16.95
391.401	16.71
391.766	17.17
392.131	16.91
392.496	16.94
392.861	17.41
393.226	16.99
393.591	17.01
393.956	17.06
394.32	17.32
394.685	17.09
395.05	17.65
395.414	17.66
395.779	17.21
396.143	17.37
396.508	17.24
396.872	17.4
397.236	17.48
397.601	17.76
397.965	17.59
398.329	17.57
398.694	17.98
399.058	18.01
399.422	17.86
399.786	17.8
400.15	18.06
400.514	17.7
400.878	18.17
401.242	17.94
401.605	18.23
401.969	18.14
402.333	18.18
402.697	18.14
403.06	18.34
403.424	18.38
403.787	18.33
404.151	18.7
404.514	18.54
404.878	18.47
405.241	18.52
405.604	18.47
405.968	18.65
406.331	18.76
406.694	18.67
407.057	18.8
407.42	19.2
407.783	18.94
408.146	18.7
408.509	18.64
408.872	18.9
409.235	19.06
409.598	19.02
409.961	19.26
410.323	19.17
410.686	19.29
411.049	19.42
411.411	19.18
411.774	19.21
412.136	19.18
412.499	19.64
412.861	19.6
413.223	19.66
413.586	19.37
413.948	19.63
414.31	19.91
414.672	19.75
415.035	19.47
415.397	19.96
415.759	20.01
416.121	19.87
416.483	19.92
416.845	20.06
417.206	20.23
417.568	20.15
417.93	20.03
418.292	19.9
418.653	20.15
419.015	20.22
419.377	20.1
419.738	20.01
420.1	19.99
420.461	20.15
420.822	20.15
421.184	20.1
421.545	20.32
421.906	20.17
422.267	20.21
422.629	20.26
422.99	20.17
423.351	19.98
423.712	20.13
424.073	20.28
424.434	20.47
424.795	20.33
425.155	20.54
425.516	20.54
425.877	20.56
426.238	20.38
426.598	20.56
426.959	20.6
427.32	20.71
427.68	20.91
428.041	20.94
428.401	21.15
428.761	21.2
429.122	21.33
429.482	21.48
429.842	21.41
430.202	21.73
430.563	21.82
430.923	21.89
431.283	21.76
431.643	21.69
432.003	22
432.363	21.76
432.722	21.91
433.082	21.89
433.442	22.11
433.802	21.9
434.161	21.97
434.521	22.01
434.881	21.92
435.24	22.06
435.6	21.91
435.959	21.92
436.319	22.03
436.678	22.22
437.037	22.33
437.396	22.66
437.756	22.53
438.115	22.44
438.474	22.64
438.833	22.77
439.192	22.54
439.551	22.57
439.91	22.69
440.269	22.71
440.628	22.78
440.987	22.62
441.345	22.54
441.704	22.56
442.063	22.67
442.421	22.76
442.78	22.6
443.138	22.82
443.497	22.89
443.855	22.98
444.214	23.22
444.572	23.03
444.93	23.34
445.288	23.6
445.647	23.6
446.005	23.45
446.363	23.44
446.721	23.21
447.079	23.42
447.437	23.19
447.795	23.2
448.153	23.1
448.51	23.26
448.868	23.19
449.226	23.25
449.584	23.47
449.941	23.48
450.299	23.71
450.656	23.67
451.014	23.95
451.371	24.02
451.729	24.08
452.086	24.05
452.443	24.27
452.801	24.16
453.158	24.43
453.515	24.47
453.872	24.5
454.229	24.45
454.586	24.43
454.943	24.42
455.3	24.49
455.657	24.69
456.014	24.49
456.371	24.68
456.727	24.69
457.084	24.52
457.441	24.84
457.797	24.89
458.154	24.82
458.51	25.2
458.867	25.07
459.223	25.27
459.58	25.16
459.936	25.08
460.292	25.08
460.648	25.03
461.005	25.07
461.361	25.03
461.717	24.64
462.073	24.79
462.429	24.79
462.785	24.93
463.141	25.09
463.496	25.39
463.852	25.44
464.208	25.8
464.564	25.59
464.919	25.75
465.275	25.89
465.631	26.07
465.986	25.85
466.342	25.85
466.697	26.1
467.052	25.94
467.408	25.92
467.763	26.14
468.118	26.34
468.473	26.2
468.829	26.04
469.184	26.09
469.539	26.19
469.894	26.13
470.249	26.16
470.603	26.36
470.958	26.51
471.313	26.35
471.668	26.57
472.023	26.56
472.377	26.64
472.732	26.58
473.086	26.77
473.441	26.91
473.795	27.01
474.15	26.7
474.504	26.92
474.859	27.07
475.213	27.25
475.567	26.86
475.921	26.87
476.275	27.22
476.63	27.31
476.984	27.19
477.338	27.23
477.692	27.38
478.045	27.47
478.399	27.39
478.753	27.26
479.107	27.17
479.461	27.37
479.814	27.52
480.168	27.57
480.521	27.64
480.875	27.58
481.228	27.57
481.582	27.79
481.935	27.78
482.289	27.52
482.642	27.61
482.995	27.48
483.348	27.68
483.701	27.64
484.055	27.65
484.408	27.45
484.761	27.36
485.114	27.22
485.466	26.86
485.819	26.69
486.172	26.74
486.525	26.85
486.878	26.96
487.23	27.14
487.583	27.41
487.936	27.47
488.288	27.74
488.641	27.68
488.993	27.47
489.345	27.51
489.698	27.47
490.05	27.4
490.402	27.46
490.754	27.57
491.107	27.81
491.459	28.07
491.811	28.32
492.163	28.4
492.515	28.55
492.866	28.55
493.218	28.2
493.57	27.98
493.922	27.9
494.274	28.05
494.625	28.16
494.977	28.42
495.328	28.82
495.68	28.88
496.031	29
496.383	29.25
496.734	29.26
497.086	29.48
497.437	29.29
497.788	29.46
498.139	29.75
498.49	29.32
498.842	29.25
499.193	29.38
499.544	29.44
499.894	29.44
500.245	29.52
500.596	29.66
500.947	29.52
501.298	29.75
501.648	29.88
501.999	30.18
502.35	29.82
502.7	30.1
503.051	29.97
503.401	30.21
503.752	30.2
504.102	30.36
504.452	30.23
504.803	30.28
505.153	30.53
505.503	30.46
505.853	30.34
506.203	30.18
506.553	30.39
506.903	30.48
507.253	30.69
507.603	30.69
507.953	30.64
508.303	30.68
508.652	30.75
509.002	30.9
509.352	30.8
509.701	30.69
510.051	30.69
510.4	30.78
510.75	30.78
511.099	30.77
511.449	30.78
511.798	30.76
512.147	30.84
512.496	30.81
512.846	31.09
513.195	31.23
513.544	31.22
513.893	31.18
514.242	31.36
514.591	31.19
514.939	31.21
515.288	31.42
515.637	31.47
515.986	31.55
516.334	31.52
516.683	31.66
517.032	31.63
517.38	31.53
517.729	31.71
518.077	31.89
518.426	31.85
518.774	31.98
519.122	31.78
519.47	31.91
519.819	31.67
520.167	31.7
520.515	31.42
520.863	31.57
521.211	31.69
521.559	31.6
521.907	31.74
522.255	31.85
522.602	31.99
522.95	32.17
523.298	32.34
523.645	32.37
523.993	32.53
524.341	32.45
524.688	32.59
525.036	32.58
525.383	32.61
525.73	32.77
526.078	32.75
526.425	32.68
526.772	32.76
527.119	32.5
527.466	32.26
527.814	32.36
528.161	32.38
528.508	32.43
528.854	32.4
529.201	32.51
529.548	32.61
529.895	32.62
530.242	32.22
530.588	31.95
530.935	32.09
531.282	32.15
531.628	32.22
531.975	32.23
532.321	32.37
532.667	32.75
533.014	32.93
533.36	33.05
533.706	33.1
534.052	33.1
534.399	33.04
534.745	33.02
535.091	32.95
535.437	32.79
535.783	32.95
536.129	32.97
536.474	33
536.82	33.23
537.166	33.37
537.512	33.65
537.857	33.68
538.203	33.7
538.549	33.67
538.894	33.55
539.239	33.52
539.585	33.6
539.93	33.78
540.276	34
540.621	34.32
540.966	34.27
541.311	34.55
541.656	34.39
542.001	34.37
542.346	34.47
542.691	34.16
543.036	33.9
543.381	33.57
543.726	33.61
544.071	33.64
544.415	33.78
544.76	33.9
545.105	34.09
545.449	34.22
545.794	34.48
546.138	34.43
546.483	34.44
546.827	34.72
547.171	34.9
547.516	34.93
547.86	35.01
548.204	34.97
548.548	34.9
548.892	34.78
549.236	35.1
549.58	35.1
549.924	35.17
550.268	35.18
550.612	35.41
550.956	35.73
551.3	35.78
551.643	35.68
551.987	35.65
552.33	35.62
552.674	35.86
553.017	35.99
553.361	35.94
553.704	36.06
554.048	35.97
554.391	35.94
554.734	35.84
555.077	35.75
555.42	35.8
555.764	36.09
556.107	36.2
556.45	36.1
556.793	36.13
557.135	36.26
557.478	36.24
557.821	36.56
558.164	36.45
558.507	36.52
558.849	36.75
559.192	36.72
559.534	36.58
559.877	36.65
560.219	37.01
560.562	36.98
560.904	36.66
561.246	37.01
561.589	36.6
561.931	36.9
562.273	37.06
562.615	37.21
562.957	37.09
563.299	36.92
563.641	37.19
563.983	37.04
564.325	37.28
564.667	36.97
565.008	37.2
565.35	37.48
565.692	37.42
566.033	37.38
566.375	37.22
566.716	37.47
567.058	37.48
567.399	37.49
567.741	37.23
568.082	37.36
568.423	37.36
568.764	37.67
569.105	37.65
569.447	37.47
569.788	37.7
570.129	37.65
570.47	37.92
570.811	37.65
571.151	38.02
571.492	37.88
571.833	38.21
572.174	38.24
572.514	38.09
572.855	38.06
573.195	37.98
573.536	37.95
573.876	38.09
574.217	38.08
574.557	38.08
574.898	37.96
575.238	38
575.578	38.14
575.918	38.18
576.258	38.38
576.598	38.79
576.938	38.67
577.278	38.43
577.618	38.1
577.958	38.75
578.298	38.69
578.638	38.63
578.977	38.72
579.317	38.98
579.657	38.84
579.996	38.99
580.336	38.95
580.675	38.9
581.014	39.15
581.354	39.21
581.693	38.88
582.032	39.68
582.372	39.36
582.711	39.35
583.05	39.6
583.389	39.67
583.728	39.82
584.067	39.43
584.406	39.56
584.745	39.57
585.083	39.55
585.422	39.64
585.761	39.68
586.1	39.76
586.438	39.65
586.777	39.81
587.115	39.87
587.454	39.63
587.792	40.1
588.13	39.96
588.469	39.67
588.807	40.06
589.145	40.07
589.483	40.08
589.821	40.37
590.159	40.21
590.497	40.73
590.835	40.33
591.173	39.98
591.511	40.04
591.849	40.06
592.187	40.3
592.524	40.4
592.862	40.41
593.2	40.14
593.537	40.53
593.875	40.35
594.212	40.4
594.55	40.95
594.887	40.84
595.224	40.64
595.561	40.52
595.899	40.7
596.236	40.79
596.573	40.97
596.91	40.98
597.247	40.72
597.584	41.18
597.921	40.85
598.258	41.1
598.594	41.11
598.931	40.75
599.268	40.78
599.604	40.72
599.941	40.91
600.277	40.82
600.614	41.3
600.95	41.32
601.287	41.1
601.623	41.41
601.959	41.48
602.296	41.6
602.632	41.43
602.968	41.26
603.304	41.82
603.64	41.8
603.976	41.62
604.312	41.57
604.648	41.62
604.984	41.87
605.319	41.63
605.655	41.59
605.991	41.5
606.326	41.53
606.662	41.41
606.998	41.37
607.333	41.38
607.668	41.55
608.004	41.71
608.339	41.56
608.674	41.99
609.01	42.06
609.345	42.2
609.68	42.19
610.015	42.35
610.35	42.06
610.685	42.76
611.02	41.99
611.355	42.17
611.689	42.08
612.024	42.07
612.359	42.11
612.694	42.27
613.028	42.2
613.363	42.19
613.697	42.68
614.032	42.72
614.366	42.66
614.7	42.35
615.035	42.71
615.369	42.74
615.703	42.73
616.037	42.89
616.371	43.03
616.705	43.09
617.039	42.97
617.373	42.77
617.707	43
618.041	43.12
618.375	42.86
618.709	43.25
619.042	43.18
619.376	43
619.71	43.5
620.043	43.6
620.377	43.34
620.71	43.27
621.043	42.91
621.377	42.72
621.71	43.51
622.043	43.04
622.376	43.62
622.709	43.72
623.043	43.58
623.376	43.53
623.709	43.5
624.041	43.71
624.374	44.07
624.707	43.73
625.04	43.86
625.373	44.36
625.705	43.43
626.038	44
626.37	43.27
626.703	43.79
627.035	43.7
627.368	43.99
627.7	44.24
628.032	44.46
628.365	43.86
628.697	43.79
629.029	44.01
629.361	44.24
629.693	44.02
630.025	44.05
630.357	44.48
630.689	44.1
631.021	44.04
631.353	44.59
631.684	44.62
632.016	44.47
632.348	44.4
632.679	44.44
633.011	44.73
633.342	44.58
633.674	44.58
634.005	44.71
634.336	45.09
634.668	44.33
634.999	45.06
635.33	44.45
635.661	44.96
635.992	44.73
636.323	44.78
636.654	44.73
636.985	44.86
637.316	44.45
637.647	44.71
637.977	45.03
638.308	45.32
638.639	44.67
638.969	44.87
639.3	45.29
639.63	45.09
639.961	45.33
640.291	45.09
640.622	45.21
640.952	45.14
641.282	45.13
641.612	45.54
641.943	45.55
642.273	45.21
642.603	45.11
642.933	45.5
643.263	45.76
643.592	45.64
643.922	45.61
644.252	45.98
644.582	45.91
644.911	45.6
645.241	46.48
645.571	45.99
645.9	45.47
646.23	45.43
646.559	45.52
646.888	45.58
647.218	45.74
647.547	45.68
647.876	45.91
648.205	46.21
648.534	45.93
648.863	45.99
649.192	45.28
649.521	45.29
649.85	46.02
650.179	46.12
650.508	45.66
650.837	45.66
651.165	45.88
651.494	46.09
651.822	46.2
652.151	46.4
652.479	46.06
652.808	45.95
653.136	45.65
653.465	46.16
653.793	46.5
654.121	46.88
654.449	46.01
654.777	46.22
655.105	46.23
655.433	46.81
655.761	46.22
656.089	47.08
656.417	46.83
656.745	47.49
657.073	46.9
657.4	46.91
657.728	46.35
658.056	47.18
658.383	46.26
658.711	47.25
659.038	46.49
659.365	47.02
659.693	47.12
660.02	47.18
660.347	47.2
660.674	46.87
661.001	46.29
661.329	47.12
661.656	46.99
661.982	47
662.309	47.24
662.636	47.17
662.963	46.67
663.29	46.66
663.616	47.79
663.943	46.95
664.27	47.72
664.596	47.33
664.923	46.98
665.249	47.29
665.576	47.64
665.902	47.43
666.228	48.05
666.554	47.57
666.881	47.94
667.207	47.68
667.533	47.65
667.859	47.54
668.185	47.48
668.511	48.1
668.837	47.52
669.162	47.35
669.488	47.75
669.814	47.65
670.139	48.05
670.465	47.03
