Data from 0233_chest_Reflection__2__34.txt Node

Date: Fri Oct 20 20:57:24 CDT 2023
User: ToomeyLab
Spectrometer: FLMS14357
Trigger mode: 0
Integration Time (sec): 1.000000E-2
Scans to average: 100
Electric dark correction enabled: true
Nonlinearity correction enabled: false
Boxcar width: 0
XAxis mode: Wavelengths
Number of Pixels in Spectrum: 2048
>>>>>Begin Spectral Data<<<<<
189.047	-64.32
189.435	-64.32
189.823	-64.32
190.211	191.55
190.599	-236.61
190.987	20.3
191.375	106.04
191.763	34.34
192.151	-11.49
192.538	-150.36
192.926	29.97
193.314	184.08
193.702	119.69
194.089	93.25
194.477	-306.32
194.864	228.26
195.252	-544.44
195.639	205.21
196.027	49.24
196.414	45.49
196.801	598.29
197.189	-23.58
197.576	44.41
197.963	-7.99
198.351	75.12
198.738	-5.37
199.125	69.38
199.512	-5.76
199.899	40.82
200.286	-15.58
200.673	56.05
201.06	43.61
201.447	0.18
201.833	50.94
202.22	5.9
202.607	25.6
202.994	20.16
203.38	17.93
203.767	22.25
204.154	43.72
204.54	60.25
204.927	30.38
205.313	-22.96
205.699	51.98
206.086	5.81
206.472	49.4
206.858	17.55
207.245	14.98
207.631	12.38
208.017	-1.93
208.403	-8.84
208.789	30.97
209.175	-13.31
209.561	43.22
209.947	28.25
210.333	-29.21
210.719	-9.57
211.105	-3.62
211.491	32.54
211.876	-1.13
212.262	14.19
212.648	-1.75
213.034	-3.42
213.419	1.32
213.805	-12.42
214.19	-0.54
214.576	-5.09
214.961	29.17
215.346	7.12
215.732	25.44
216.117	-0.26
216.502	18.68
216.888	18.84
217.273	7.8
217.658	-7.81
218.043	9.55
218.428	11.01
218.813	3.87
219.198	13.09
219.583	-20.72
219.968	-7.85
220.353	27.48
220.738	26.55
221.122	-0.97
221.507	4.87
221.892	14.73
222.276	-3.5
222.661	26.63
223.046	20.36
223.43	3.18
223.815	17.11
224.199	20.27
224.583	7.17
224.968	-3.79
225.352	-0.09
225.736	0.82
226.121	7.3
226.505	5
226.889	5.89
227.273	0.16
227.657	9.25
228.041	6.41
228.425	0.09
228.809	5.14
229.193	0.93
229.577	5.05
229.961	4.14
230.344	2.35
230.728	1.66
231.112	3.32
231.495	2.07
231.879	3.02
232.263	3.32
232.646	1.58
233.03	1.3
233.413	1.79
233.797	2.07
234.18	4.05
234.563	3.99
234.946	3.68
235.33	3.6
235.713	3.52
236.096	2.97
236.479	2.33
236.862	2.69
237.245	1.99
237.628	1.34
238.011	2.71
238.394	1.23
238.777	4.56
239.16	2.13
239.543	5.82
239.925	5
240.308	4.22
240.691	2.49
241.073	3.35
241.456	3.36
241.838	3.83
242.221	4.1
242.603	2.37
242.986	2.82
243.368	2.75
243.75	2.18
244.133	2.31
244.515	2.21
244.897	2.15
245.279	2.48
245.661	2.26
246.043	2.08
246.425	1.93
246.807	2.17
247.189	2.52
247.571	1.55
247.953	1.94
248.335	2.72
248.717	2.1
249.098	2.03
249.48	2.24
249.862	2.41
250.243	2.39
250.625	2.57
251.006	2.64
251.388	2.47
251.769	2.38
252.151	2.31
252.532	3.15
252.913	1.91
253.295	1.17
253.676	2.42
254.057	2.06
254.438	2.44
254.819	2.88
255.2	3.02
255.581	2.57
255.962	2.44
256.343	3.54
256.724	1.21
257.105	3.6
257.486	2.7
257.867	2.04
258.247	1.79
258.628	2.63
259.009	2.11
259.389	1.8
259.77	2.13
260.15	2.74
260.531	2.55
260.911	2.82
261.292	2.09
261.672	2.07
262.052	2.5
262.432	2.37
262.813	2.16
263.193	2.2
263.573	2.33
263.953	2.01
264.333	3.14
264.713	3.24
265.093	2.83
265.473	2.5
265.853	1.92
266.233	3.36
266.612	2.14
266.992	2.5
267.372	2.05
267.752	1.94
268.131	2.78
268.511	2.78
268.89	2.71
269.27	1.81
269.649	2.11
270.029	1.68
270.408	2.63
270.787	2.22
271.167	2.29
271.546	2.97
271.925	3
272.304	2.94
272.683	2.11
273.062	2.33
273.441	2.47
273.82	2.21
274.199	2.58
274.578	2.61
274.957	2.71
275.336	2.84
275.715	2.57
276.093	2.16
276.472	2.7
276.851	2.23
277.229	2.46
277.608	1.97
277.986	2.49
278.365	2.31
278.743	2.02
279.122	2.7
279.5	2.39
279.878	1.6
280.257	2.22
280.635	2.68
281.013	2.54
281.391	2.54
281.769	1.69
282.147	2.09
282.525	2.41
282.903	2.46
283.281	2.21
283.659	2.23
284.037	2.45
284.415	2.14
284.792	2.14
285.17	2.48
285.548	2.2
285.925	1.72
286.303	2.2
286.68	2.11
287.058	2.83
287.435	2.58
287.813	1.88
288.19	2.28
288.567	2.04
288.945	2.4
289.322	2.67
289.699	1.74
290.076	2.79
290.453	2.48
290.83	2.37
291.207	2.73
291.584	1.96
291.961	2.13
292.338	2.17
292.715	2.46
293.092	2.17
293.469	2.82
293.845	2.13
294.222	1.93
294.599	1.95
294.975	3.02
295.352	2.67
295.728	2.46
296.105	2.26
296.481	2.51
296.858	2.27
297.234	2.74
297.61	1.92
297.986	2.17
298.363	2.35
298.739	2.59
299.115	1.96
299.491	2.45
299.867	2.31
300.243	2.51
300.619	2.62
300.995	2.17
301.371	2.48
301.746	2.16
302.122	3.03
302.498	2.01
302.874	2.42
303.249	2.62
303.625	2.63
304	2.67
304.376	2.16
304.751	1.86
305.127	2.27
305.502	3
305.878	2.4
306.253	2.65
306.628	2.65
307.003	2.64
307.378	2.53
307.754	2.16
308.129	2.81
308.504	2.44
308.879	2.4
309.254	2.9
309.629	2
310.003	1.61
310.378	3
310.753	2.95
311.128	2.92
311.502	2.41
311.877	2.39
312.252	2.14
312.626	2.56
313.001	2.66
313.375	2.53
313.75	2.43
314.124	2.23
314.498	2.4
314.873	2.18
315.247	3.02
315.621	3.02
315.995	2.6
316.369	2.32
316.743	2.48
317.117	2.16
317.491	1.67
317.865	2.63
318.239	2.55
318.613	2.54
318.987	2.13
319.361	1.92
319.734	2.1
320.108	1.95
320.482	2.72
320.855	2.63
321.229	3.4
321.602	2.58
321.976	2.26
322.349	3.05
322.723	2.19
323.096	2.7
323.469	2.59
323.843	2.74
324.216	2.68
324.589	2.68
324.962	3
325.335	2.71
325.708	2.4
326.081	2.56
326.454	2.69
326.827	2.36
327.2	2.77
327.573	2.61
327.945	2.66
328.318	2.42
328.691	2.35
329.063	3.03
329.436	2
329.809	2.52
330.181	3.35
330.553	3.08
330.926	2.91
331.298	2.22
331.671	2.18
332.043	2.33
332.415	2.7
332.787	2.96
333.159	2.2
333.532	2.74
333.904	2.26
334.276	2.47
334.648	2.81
335.02	2.93
335.391	2.38
335.763	2.76
336.135	2.57
336.507	3.02
336.879	2.23
337.25	3.03
337.622	2.78
337.993	2.92
338.365	2.35
338.736	2.9
339.108	3
339.479	2.12
339.851	2.66
340.222	2.73
340.593	2.44
340.964	2.4
341.336	3.04
341.707	2.37
342.078	2.77
342.449	2.48
342.82	2.79
343.191	2.5
343.562	2.36
343.933	2.43
344.303	2.49
344.674	2.92
345.045	2.79
345.416	3.37
345.786	2.72
346.157	2.77
346.527	2.16
346.898	2.67
347.268	2.82
347.639	2.92
348.009	2.34
348.38	2.65
348.75	2.59
349.12	2.64
349.49	2.42
349.861	3.1
350.231	2.62
350.601	2.74
350.971	2.75
351.341	2.71
351.711	2.6
352.081	2.6
352.45	2.61
352.82	2.82
353.19	2.81
353.56	2.88
353.929	2.7
354.299	2.74
354.669	2.8
355.038	2.96
355.408	2.92
355.777	2.76
356.147	2.59
356.516	2.51
356.885	2.72
357.254	2.79
357.624	2.46
357.993	2.31
358.362	2.52
358.731	2.6
359.1	2.4
359.469	2.7
359.838	2.45
360.207	2.67
360.576	3.04
360.945	2.45
361.314	2.42
361.682	2.29
362.051	2.48
362.42	2.37
362.788	2.54
363.157	2.8
363.525	2.34
363.894	2.49
364.262	2.47
364.631	2.72
364.999	2.68
365.367	2.82
365.735	2.48
366.104	2.64
366.472	2.51
366.84	2.75
367.208	2.73
367.576	2.49
367.944	2.34
368.312	2.52
368.68	2.96
369.048	2.78
369.416	2.52
369.783	2.71
370.151	2.78
370.519	2.53
370.886	2.74
371.254	2.74
371.621	2.7
371.989	2.47
372.356	3
372.724	3.19
373.091	2.64
373.458	2.32
373.826	2.73
374.193	2.51
374.56	2.76
374.927	2.71
375.294	2.71
375.661	2.96
376.028	2.83
376.395	2.75
376.762	2.45
377.129	2.72
377.496	2.64
377.863	3.07
378.229	2.81
378.596	2.88
378.963	2.83
379.329	2.72
379.696	2.64
380.062	2.83
380.429	2.37
380.795	2.66
381.161	2.48
381.528	3.01
381.894	2.34
382.26	3.01
382.626	2.93
382.993	2.46
383.359	2.62
383.725	2.8
384.091	2.68
384.457	2.72
384.823	2.65
385.188	2.95
385.554	2.88
385.92	2.64
386.286	3.03
386.651	2.48
387.017	2.79
387.383	2.82
387.748	2.36
388.114	2.65
388.479	2.6
388.845	2.83
389.21	2.7
389.575	2.68
389.94	2.7
390.306	2.71
390.671	2.87
391.036	2.62
391.401	2.72
391.766	2.97
392.131	2.63
392.496	2.95
392.861	2.79
393.226	2.94
393.591	2.81
393.956	2.65
394.32	2.96
394.685	2.43
395.05	2.92
395.414	2.86
395.779	2.78
396.143	2.56
396.508	2.84
396.872	2.55
397.236	2.65
397.601	2.77
397.965	2.7
398.329	2.73
398.694	2.98
399.058	2.53
399.422	2.94
399.786	2.86
400.15	2.78
400.514	2.84
400.878	2.79
401.242	2.95
401.605	2.88
401.969	2.47
402.333	2.65
402.697	2.63
403.06	2.66
403.424	2.87
403.787	2.96
404.151	2.79
404.514	2.89
404.878	2.72
405.241	2.87
405.604	2.79
405.968	2.84
406.331	2.8
406.694	2.69
407.057	2.66
407.42	2.84
407.783	2.81
408.146	2.75
408.509	2.68
408.872	2.99
409.235	2.84
409.598	2.84
409.961	2.9
410.323	2.76
410.686	2.63
411.049	2.95
411.411	2.65
411.774	2.73
412.136	2.78
412.499	2.87
412.861	2.72
413.223	2.73
413.586	2.83
413.948	2.92
414.31	3.17
414.672	2.67
415.035	2.65
415.397	2.79
415.759	2.76
416.121	2.85
416.483	2.77
416.845	2.73
417.206	2.8
417.568	2.93
417.93	2.87
418.292	2.69
418.653	2.8
419.015	2.64
419.377	2.72
419.738	2.73
420.1	2.69
420.461	2.75
420.822	2.75
421.184	2.69
421.545	2.7
421.906	2.75
422.267	2.6
422.629	2.85
422.99	2.54
423.351	2.72
423.712	2.68
424.073	2.7
424.434	2.65
424.795	2.65
425.155	2.68
425.516	2.67
425.877	2.72
426.238	2.58
426.598	2.77
426.959	2.62
427.32	2.74
427.68	2.75
428.041	2.78
428.401	2.76
428.761	2.83
429.122	2.8
429.482	2.8
429.842	2.78
430.202	2.9
430.563	2.75
430.923	3.23
431.283	2.87
431.643	2.86
432.003	3
432.363	2.86
432.722	2.9
433.082	2.8
433.442	2.65
433.802	2.99
434.161	2.77
434.521	2.87
434.881	2.8
435.24	2.82
435.6	2.69
435.959	2.66
436.319	2.77
436.678	2.86
437.037	2.7
437.396	3.03
437.756	2.9
438.115	2.63
438.474	2.87
438.833	2.95
439.192	2.7
439.551	2.78
439.91	2.94
440.269	2.98
440.628	2.91
440.987	2.84
441.345	2.73
441.704	2.88
442.063	2.86
442.421	2.85
442.78	2.82
443.138	2.87
443.497	2.81
443.855	2.83
444.214	2.89
444.572	2.73
444.93	2.89
445.288	3
445.647	2.95
446.005	2.7
446.363	2.77
446.721	2.77
447.079	3
447.437	2.85
447.795	2.76
448.153	2.76
448.51	2.79
448.868	2.87
449.226	2.75
449.584	2.94
449.941	2.86
450.299	2.89
450.656	2.76
451.014	2.92
451.371	2.96
451.729	2.88
452.086	2.92
452.443	3
452.801	2.8
453.158	2.97
453.515	2.85
453.872	2.88
454.229	2.97
454.586	2.91
454.943	2.86
455.3	2.81
455.657	2.95
456.014	2.92
456.371	2.82
456.727	2.92
457.084	3.02
457.441	2.92
457.797	2.93
458.154	2.86
458.51	2.87
458.867	3.09
459.223	2.93
459.58	3.01
459.936	2.96
460.292	2.87
460.648	2.77
461.005	2.78
461.361	2.82
461.717	2.71
462.073	2.87
462.429	2.89
462.785	2.91
463.141	2.95
463.496	2.88
463.852	2.95
464.208	3.03
464.564	3.04
464.919	2.82
465.275	3.17
465.631	3.1
465.986	2.98
466.342	3.26
466.697	2.99
467.052	3.11
467.408	3.15
467.763	3.2
468.118	3.24
468.473	2.98
468.829	3.16
469.184	3.01
469.539	3.05
469.894	3.05
470.249	2.97
470.603	2.92
470.958	3.05
471.313	3.21
471.668	3.15
472.023	3
472.377	3.14
472.732	2.93
473.086	3.12
473.441	3
473.795	3.17
474.15	2.94
474.504	2.96
474.859	3.13
475.213	3.14
475.567	3.13
475.921	3.19
476.275	2.9
476.63	3.19
476.984	3.05
477.338	2.97
477.692	3.15
478.045	3.21
478.399	3.06
478.753	3.07
479.107	3.01
479.461	2.98
479.814	3.21
480.168	3.19
480.521	3.16
480.875	3.19
481.228	3.1
481.582	3.23
481.935	3.06
482.289	3
482.642	3.05
482.995	3.09
483.348	3.1
483.701	3.1
484.055	3.08
484.408	2.96
484.761	2.94
485.114	2.97
485.466	2.91
485.819	2.83
486.172	2.77
486.525	2.8
486.878	2.85
487.23	2.91
487.583	2.96
487.936	2.95
488.288	2.95
488.641	3
488.993	2.9
489.345	2.94
489.698	2.89
490.05	2.91
490.402	2.86
490.754	2.91
491.107	2.94
491.459	2.97
491.811	2.97
492.163	3.04
492.515	3.1
492.866	3.06
493.218	2.95
493.57	2.93
493.922	2.93
494.274	2.99
494.625	3.01
494.977	3
495.328	3.09
495.68	3.16
496.031	3.01
496.383	3.19
496.734	3.15
497.086	3.16
497.437	3.16
497.788	3.09
498.139	3.17
498.49	3.22
498.842	3.07
499.193	3.24
499.544	3.17
499.894	3.11
500.245	3.08
500.596	3.24
500.947	3.12
501.298	3.17
501.648	3.15
501.999	3.15
502.35	3.23
502.7	3.38
503.051	3.24
503.401	3.27
503.752	3.28
504.102	3.33
504.452	3.3
504.803	3.25
505.153	3.21
505.503	3.31
505.853	3.31
506.203	3.14
506.553	3.27
506.903	3.31
507.253	3.22
507.603	3.19
507.953	3.28
508.303	3.25
508.652	3.42
509.002	3.35
509.352	3.32
509.701	3.31
510.051	3.14
510.4	3.22
510.75	3.22
511.099	3.35
511.449	3.2
511.798	3.36
512.147	3.34
512.496	3.3
512.846	3.28
513.195	3.32
513.544	3.33
513.893	3.17
514.242	3.24
514.591	3.28
514.939	3.28
515.288	3.19
515.637	3.32
515.986	3.49
516.334	3.41
516.683	3.35
517.032	3.27
517.38	3.34
517.729	3.42
518.077	3.39
518.426	3.35
518.774	3.31
519.122	3.36
519.47	3.37
519.819	3.36
520.167	3.31
520.515	3.31
520.863	3.43
521.211	3.27
521.559	3.42
521.907	3.38
522.255	3.35
522.602	3.42
522.95	3.36
523.298	3.45
523.645	3.42
523.993	3.38
524.341	3.41
524.688	3.47
525.036	3.45
525.383	3.45
525.73	3.58
526.078	3.51
526.425	3.49
526.772	3.37
527.119	3.48
527.466	3.43
527.814	3.42
528.161	3.45
528.508	3.39
528.854	3.41
529.201	3.41
529.548	3.43
529.895	3.48
530.242	3.36
530.588	3.29
530.935	3.28
531.282	3.32
531.628	3.37
531.975	3.38
532.321	3.47
532.667	3.51
533.014	3.53
533.36	3.53
533.706	3.49
534.052	3.54
534.399	3.49
534.745	3.39
535.091	3.4
535.437	3.51
535.783	3.51
536.129	3.51
536.474	3.55
536.82	3.57
537.166	3.57
537.512	3.69
537.857	3.64
538.203	3.64
538.549	3.65
538.894	3.62
539.239	3.59
539.585	3.6
539.93	3.64
540.276	3.82
540.621	3.81
540.966	3.6
541.311	3.82
541.656	3.7
542.001	3.72
542.346	3.8
542.691	3.76
543.036	3.67
543.381	3.58
543.726	3.55
544.071	3.63
544.415	3.65
544.76	3.74
545.105	3.72
545.449	3.68
545.794	3.8
546.138	3.85
546.483	3.86
546.827	3.8
547.171	3.93
547.516	3.8
547.86	3.87
548.204	3.78
548.548	3.9
548.892	3.8
549.236	3.89
549.58	3.76
549.924	3.85
550.268	3.99
550.612	3.97
550.956	4.01
551.3	4.14
551.643	4.05
551.987	4.1
552.33	4.13
552.674	4.08
553.017	4.08
553.361	4.05
553.704	4.21
554.048	4.11
554.391	4.14
554.734	4.13
555.077	4.08
555.42	4.05
555.764	4.06
556.107	4.4
556.45	4.27
556.793	3.95
557.135	4.17
557.478	3.99
557.821	4.28
558.164	4.33
558.507	4.21
558.849	4.44
559.192	4.41
559.534	4.53
559.877	4.16
560.219	4.48
560.562	4.47
560.904	4.21
561.246	4.5
561.589	4.15
561.931	4.43
562.273	4.36
562.615	4.65
562.957	4.54
563.299	4.58
563.641	4.57
563.983	4.4
564.325	4.4
564.667	4.51
565.008	4.53
565.35	4.45
565.692	4.55
566.033	4.56
566.375	4.56
566.716	4.52
567.058	4.49
567.399	4.67
567.741	4.5
568.082	4.56
568.423	4.72
568.764	4.58
569.105	4.67
569.447	4.56
569.788	4.64
570.129	4.64
570.47	4.76
570.811	4.82
571.151	4.71
571.492	4.83
571.833	4.77
572.174	4.87
572.514	4.71
572.855	4.56
573.195	4.87
573.536	4.59
573.876	4.92
574.217	4.67
574.557	4.65
574.898	4.66
575.238	4.61
575.578	4.86
575.918	4.72
576.258	4.77
576.598	4.82
576.938	4.94
577.278	4.99
577.618	4.81
577.958	4.9
578.298	4.89
578.638	4.91
578.977	4.98
579.317	5.01
579.657	5.03
579.996	5.24
580.336	5.2
580.675	5.17
581.014	4.99
581.354	5.03
581.693	5.3
582.032	5.36
582.372	5.07
582.711	5.34
583.05	5.55
583.389	5.26
583.728	5.21
584.067	5.3
584.406	5.04
584.745	5.47
585.083	5.37
585.422	5.24
585.761	5.21
586.1	5.56
586.438	5.1
586.777	5.18
587.115	5.38
587.454	5.69
587.792	5.25
588.13	5.62
588.469	5.55
588.807	5.39
589.145	5.6
589.483	5.5
589.821	5.44
590.159	5.64
590.497	5.52
590.835	5.68
591.173	5.56
591.511	5.81
591.849	5.56
592.187	5.65
592.524	5.57
592.862	5.68
593.2	5.93
593.537	5.58
593.875	5.65
594.212	5.78
594.55	5.85
594.887	5.78
595.224	5.82
595.561	5.6
595.899	5.77
596.236	5.96
596.573	6
596.91	5.88
597.247	5.88
597.584	5.87
597.921	5.97
598.258	6
598.594	6.27
598.931	5.76
599.268	5.8
599.604	5.99
599.941	5.89
600.277	5.93
600.614	6.07
600.95	6.09
601.287	5.82
601.623	6.02
601.959	6.52
602.296	6.23
602.632	6.19
602.968	6.21
603.304	6.37
603.64	6.01
603.976	6.07
604.312	6.46
604.648	6.51
604.984	6.45
605.319	6.31
605.655	6.23
605.991	6.51
606.326	6.26
606.662	6.16
606.998	6.29
607.333	6.42
607.668	6.41
608.004	6.26
608.339	6.54
608.674	6.7
609.01	6.62
609.345	6.65
609.68	6.71
610.015	6.62
610.35	6.88
610.685	6.91
611.02	6.48
611.355	6.31
611.689	6.57
612.024	6.73
612.359	6.7
612.694	6.77
613.028	6.73
613.363	6.85
613.697	6.71
614.032	6.82
614.366	6.93
614.7	6.91
615.035	6.95
615.369	7.17
615.703	6.54
616.037	7.13
616.371	7
616.705	7.08
617.039	7.16
617.373	6.83
617.707	7.21
618.041	7.14
618.375	6.83
618.709	6.96
619.042	7.3
619.376	7.52
619.71	7.29
620.043	7.37
620.377	7.05
620.71	7.58
621.043	7.6
621.377	7.26
621.71	7.37
622.043	7.41
622.376	7.64
622.709	7.68
623.043	7.45
623.376	7.45
623.709	7.42
624.041	7.44
624.374	8.05
624.707	7.46
625.04	8.08
625.373	7.64
625.705	7.34
626.038	7.71
626.37	7.46
626.703	7.51
627.035	7.43
627.368	7.56
627.7	7.53
628.032	7.76
628.365	7.82
628.697	7.62
629.029	7.74
629.361	7.96
629.693	7.79
630.025	7.77
630.357	7.97
630.689	7.7
631.021	7.99
631.353	8.03
631.684	8
632.016	8.3
632.348	7.79
632.679	7.94
633.011	8.05
633.342	7.83
633.674	8.18
634.005	8.05
634.336	8.89
634.668	8.24
634.999	8.23
635.33	8.06
635.661	8.63
635.992	8.56
636.323	8.53
636.654	8.6
636.985	8.14
637.316	8.48
637.647	8.07
637.977	8.14
638.308	8.29
638.639	8.14
638.969	8.83
639.3	8.19
639.63	8.58
639.961	8.73
640.291	8.47
640.622	8.14
640.952	8.79
641.282	8.28
641.612	9.02
641.943	8.91
642.273	9.01
642.603	8.89
642.933	9
643.263	9.31
643.592	8.84
643.922	9.18
644.252	8.96
644.582	8.39
644.911	8.75
645.241	8.94
645.571	9.3
645.9	8.85
646.23	8.95
646.559	9.03
646.888	9.26
647.218	8.91
647.547	9.33
647.876	9.15
648.205	9.01
648.534	8.99
648.863	9.43
649.192	8.88
649.521	9.29
649.85	9.3
650.179	9.57
650.508	9.14
650.837	9.56
651.165	9.58
651.494	9.38
651.822	9.45
652.151	10
652.479	9.11
652.808	9.77
653.136	8.86
653.465	9.6
653.793	9.66
654.121	9.92
654.449	9.63
654.777	9.71
655.105	9.85
655.433	9.93
655.761	9.9
656.089	9.81
656.417	9.48
656.745	9.74
657.073	9.76
657.4	10.17
657.728	9.95
658.056	10.02
658.383	9.9
658.711	9.49
659.038	9.96
659.365	9.92
659.693	9.86
660.02	10.16
660.347	10.17
660.674	9.88
661.001	9.69
661.329	10.45
661.656	10.1
661.982	9.94
662.309	10.39
662.636	10.08
662.963	10.49
663.29	10.4
663.616	10.41
663.943	10.25
664.27	10.53
664.596	10.5
664.923	10.09
665.249	9.9
665.576	10.35
665.902	10.58
666.228	10.91
666.554	10.66
666.881	10.39
667.207	11.24
667.533	10.62
667.859	10.93
668.185	11.04
668.511	10.79
668.837	11
669.162	10.77
669.488	10.73
669.814	10.53
670.139	10.69
670.465	11.27
670.791	11.05
671.116	11.24
671.442	11.06
671.767	10.93
672.092	10.97
672.418	11.03
672.743	11.41
673.068	11.6
673.393	10.91
673.718	11.29
674.043	11.2
674.368	11.31
674.693	11.92
675.018	11.72
675.343	11.01
675.667	11.4
675.992	11.37
676.317	11.66
676.641	11.37
676.966	10.97
677.29	11.4
677.615	11.32
677.939	10.97
678.264	11.87
678.588	11.52
678.912	11.8
679.236	11.11
679.56	11.09
679.885	11.97
680.209	11.92
680.532	11.84
680.856	11.61
681.18	11.59
681.504	11.9
681.828	12.17
682.152	11.93
682.475	11.28
682.799	11.78
683.122	11.83
683.446	12.2
683.769	11.74
684.093	12.33
684.416	12.31
684.739	11.56
685.062	11.2
685.386	12.09
685.709	12.63
686.032	11.93
686.355	12.52
686.678	12.22
687.001	12.33
687.324	12.5
687.646	12.33
687.969	12.93
688.292	12.81
688.614	12.51
688.937	12.03
689.26	11.63
689.582	12.52
689.904	11.73
690.227	12.72
690.549	12.94
690.871	12.43
691.194	12.66
691.516	12.92
691.838	13.1
