Data from 0233_crown_Reflection__4__41.txt Node

Date: Fri Oct 20 20:59:40 CDT 2023
User: ToomeyLab
Spectrometer: FLMS14357
Trigger mode: 0
Integration Time (sec): 1.000000E-2
Scans to average: 100
Electric dark correction enabled: true
Nonlinearity correction enabled: false
Boxcar width: 0
XAxis mode: Wavelengths
Number of Pixels in Spectrum: 2048
>>>>>Begin Spectral Data<<<<<
189.047	-49.99
189.435	-49.99
189.823	-49.99
190.211	269.17
190.599	-84.51
190.987	137.09
191.375	193.69
191.763	-5.14
192.151	28.77
192.538	-46.14
192.926	120.27
193.314	235.31
193.702	32.45
194.089	85.36
194.477	-257.74
194.864	221.99
195.252	-624.82
195.639	262.8
196.027	-514.68
196.414	60.25
196.801	102.44
197.189	-19.81
197.576	58.02
197.963	-20.67
198.351	50.86
198.738	11.78
199.125	53.25
199.512	17.28
199.899	42.17
200.286	2.81
200.673	9.8
201.06	16.26
201.447	-2.62
201.833	27.54
202.22	-3.61
202.607	55.36
202.994	39.81
203.38	16.87
203.767	42.02
204.154	46.05
204.54	58.7
204.927	29.71
205.313	31.02
205.699	28.44
206.086	32.54
206.472	27.82
206.858	47.95
207.245	-2.2
207.631	5.17
208.017	32.79
208.403	-19.45
208.789	31.95
209.175	-15.15
209.561	11.46
209.947	43.72
210.333	18.41
210.719	20.89
211.105	15.77
211.491	43.85
211.876	6.14
212.262	31.77
212.648	35.09
213.034	31.68
213.419	26.51
213.805	6.4
214.19	3.24
214.576	24.75
214.961	23.3
215.346	27.94
215.732	41.5
216.117	-9.42
216.502	38.58
216.888	22.81
217.273	42.12
217.658	-8.13
218.043	3.89
218.428	-2.82
218.813	-4.27
219.198	16.9
219.583	-20.83
219.968	-15.22
220.353	30.81
220.738	23.86
221.122	19.43
221.507	15.26
221.892	6.17
222.276	7.56
222.661	24.9
223.046	27.64
223.43	5.32
223.815	19.5
224.199	24.03
224.583	10.88
224.968	4
225.352	13.12
225.736	12.89
226.121	13.62
226.505	10.99
226.889	13.57
227.273	11.9
227.657	16.33
228.041	14.35
228.425	11.79
228.809	13.4
229.193	10.72
229.577	13.84
229.961	8.3
230.344	8.73
230.728	9.23
231.112	9.66
231.495	9.6
231.879	9.71
232.263	9.98
232.646	7.91
233.03	8.73
233.413	8.76
233.797	8.96
234.18	9.14
234.563	9.14
234.946	10.94
235.33	10.07
235.713	10.68
236.096	10.15
236.479	10.26
236.862	8.92
237.245	7.25
237.628	10.06
238.011	9.75
238.394	8.19
238.777	11.28
239.16	10.21
239.543	10.88
239.925	9.15
240.308	8.72
240.691	6.6
241.073	9.88
241.456	9.3
241.838	9.03
242.221	9.25
242.603	9.61
242.986	8.36
243.368	8.76
243.75	9.14
244.133	8.28
244.515	8.3
244.897	8.01
245.279	8.86
245.661	8.18
246.043	8
246.425	8.57
246.807	7.36
247.189	8.67
247.571	7.43
247.953	8.06
248.335	8.83
248.717	7.74
249.098	7.65
249.48	7.79
249.862	7.99
250.243	7.98
250.625	8.45
251.006	8.49
251.388	7.39
251.769	8.21
252.151	7.82
252.532	8.62
252.913	8.42
253.295	7.15
253.676	7.8
254.057	7.98
254.438	7.99
254.819	7.54
255.2	6.97
255.581	7.12
255.962	7.6
256.343	6.84
256.724	6.78
257.105	7.85
257.486	7.81
257.867	7.61
258.247	8.83
258.628	7.41
259.009	7.71
259.389	7.37
259.77	6.97
260.15	7.94
260.531	7.68
260.911	7.24
261.292	7.25
261.672	7.26
262.052	7.41
262.432	7.15
262.813	6.8
263.193	7.23
263.573	6.91
263.953	6.85
264.333	7.26
264.713	7.57
265.093	7.34
265.473	7.51
265.853	6.61
266.233	6.99
266.612	7.49
266.992	7.22
267.372	6.56
267.752	6.29
268.131	7.45
268.511	7.06
268.89	6.85
269.27	6.68
269.649	6.44
270.029	6.91
270.408	7.16
270.787	6.89
271.167	6.81
271.546	6.6
271.925	7.07
272.304	7.64
272.683	6.78
273.062	6.79
273.441	6.93
273.82	6.62
274.199	7.07
274.578	6.82
274.957	6.99
275.336	6.72
275.715	7.07
276.093	6.65
276.472	6.59
276.851	7.1
277.229	6.3
277.608	6.1
277.986	6.08
278.365	6.88
278.743	5.97
279.122	6.27
279.5	6.27
279.878	5.63
280.257	6.75
280.635	6.28
281.013	6.9
281.391	6.46
281.769	6.32
282.147	5.64
282.525	6.34
282.903	5.74
283.281	6.04
283.659	5.71
284.037	6.31
284.415	5.45
284.792	6.04
285.17	6.08
285.548	6.32
285.925	6.03
286.303	5.37
286.68	5.9
287.058	6.49
287.435	6.36
287.813	5.86
288.19	6.23
288.567	5.72
288.945	5.95
289.322	6.43
289.699	5.57
290.076	6.83
290.453	6.02
290.83	6.02
291.207	6.45
291.584	5.44
291.961	5.73
292.338	6.01
292.715	5.65
293.092	5.99
293.469	6.06
293.845	5.28
294.222	5.25
294.599	5.14
294.975	6.41
295.352	6.02
295.728	5.63
296.105	5.47
296.481	5.95
296.858	5.25
297.234	6.1
297.61	5.65
297.986	5.44
298.363	5.8
298.739	5.65
299.115	5.19
299.491	5.47
299.867	5.39
300.243	5.38
300.619	5.52
300.995	5.53
301.371	5.6
301.746	5.55
302.122	5.44
302.498	5.15
302.874	5
303.249	5.61
303.625	5.55
304	5.75
304.376	5.25
304.751	5.39
305.127	5.26
305.502	5.44
305.878	5.44
306.253	5.17
306.628	5.65
307.003	5.28
307.378	5.18
307.754	5.1
308.129	5.61
308.504	5.1
308.879	5.59
309.254	5.87
309.629	5.15
310.003	4.35
310.378	5.67
310.753	5.03
311.128	5.67
311.502	5.37
311.877	5.06
312.252	4.92
312.626	5.15
313.001	5.1
313.375	5.16
313.75	4.89
314.124	4.73
314.498	5.24
314.873	4.76
315.247	5.52
315.621	5.24
315.995	5.85
316.369	4.84
316.743	5.3
317.117	5.16
317.491	4.93
317.865	5.32
318.239	5.82
318.613	5.14
318.987	5.33
319.361	4.64
319.734	4.86
320.108	4.97
320.482	5.57
320.855	5.16
321.229	6.12
321.602	5.05
321.976	4.85
322.349	5.6
322.723	4.66
323.096	4.98
323.469	5.23
323.843	5.13
324.216	4.88
324.589	5.33
324.962	5.48
325.335	5.19
325.708	4.86
326.081	4.64
326.454	5.08
326.827	5.57
327.2	5.3
327.573	5.14
327.945	4.93
328.318	5.07
328.691	5.25
329.063	5.29
329.436	4.81
329.809	5.13
330.181	5.63
330.553	5.84
330.926	5.37
331.298	5.07
331.671	4.94
332.043	4.59
332.415	4.79
332.787	5.59
333.159	4.81
333.532	5.26
333.904	5.65
334.276	4.79
334.648	4.73
335.02	5.73
335.391	4.97
335.763	4.94
336.135	5.29
336.507	5.2
336.879	5.14
337.25	5.22
337.622	5.48
337.993	5.96
338.365	5.63
338.736	5.13
339.108	5.63
339.479	5.03
339.851	5.28
340.222	5.15
340.593	5.06
340.964	5.04
341.336	5.81
341.707	5.29
342.078	5.24
342.449	5.1
342.82	5.57
343.191	5.5
343.562	5.15
343.933	5.32
344.303	5.43
344.674	5.25
345.045	5.54
345.416	5.41
345.786	4.91
346.157	5.18
346.527	5.25
346.898	5.55
347.268	5.38
347.639	5.7
348.009	5.24
348.38	5.32
348.75	5.14
349.12	5.59
349.49	5.03
349.861	5.75
350.231	5.5
350.601	5.13
350.971	5.8
351.341	5.87
351.711	6.33
352.081	5.58
352.45	5.52
352.82	5.68
353.19	5.77
353.56	5.53
353.929	5.67
354.299	5.48
354.669	5.48
355.038	5.69
355.408	5.84
355.777	5.39
356.147	5.73
356.516	5.34
356.885	5.57
357.254	5.4
357.624	5.67
357.993	5.25
358.362	5.69
358.731	5.2
359.1	5.52
359.469	5.42
359.838	5.9
360.207	5.64
360.576	5.99
360.945	5.56
361.314	5.54
361.682	5.4
362.051	5.41
362.42	5.27
362.788	5.73
363.157	5.75
363.525	5.74
363.894	5.82
364.262	5.69
364.631	5.86
364.999	5.61
365.367	5.85
365.735	5.7
366.104	5.59
366.472	5.81
366.84	6.18
367.208	5.51
367.576	5.96
367.944	6.01
368.312	5.66
368.68	6.01
369.048	5.8
369.416	5.99
369.783	6.03
370.151	5.88
370.519	6.11
370.886	6.35
371.254	6.17
371.621	5.94
371.989	5.63
372.356	5.95
372.724	6.27
373.091	5.96
373.458	5.68
373.826	5.51
374.193	5.88
374.56	6.2
374.927	6.17
375.294	5.95
375.661	6.04
376.028	6.48
376.395	6.56
376.762	6.17
377.129	6.04
377.496	6.35
377.863	6.87
378.229	6.25
378.596	6.37
378.963	6.12
379.329	6.32
379.696	5.99
380.062	6.34
380.429	6.03
380.795	5.83
381.161	6.19
381.528	6.2
381.894	6.09
382.26	6.38
382.626	6.3
382.993	5.77
383.359	6.01
383.725	6.34
384.091	6.04
384.457	6.36
384.823	6.11
385.188	6.38
385.554	6.26
385.92	6.07
386.286	6.32
386.651	6.04
387.017	6.17
387.383	6.08
387.748	6.1
388.114	6.07
388.479	6.22
388.845	6.36
389.21	6.29
389.575	6.06
389.94	6.01
390.306	6.24
390.671	6.21
391.036	6.39
391.401	6.32
391.766	6.3
392.131	6.16
392.496	6.21
392.861	6.45
393.226	6.42
393.591	6.25
393.956	6.4
394.32	6.24
394.685	6.36
395.05	6.64
395.414	6.57
395.779	6.33
396.143	6.12
396.508	6.13
396.872	6.48
397.236	6.21
397.601	6.17
397.965	6.4
398.329	6.35
398.694	6.46
399.058	6
399.422	6.42
399.786	6.48
400.15	6.37
400.514	6.33
400.878	6.58
401.242	6.58
401.605	6.65
401.969	6.22
402.333	6.25
402.697	6.4
403.06	6.51
403.424	6.33
403.787	6.29
404.151	6.45
404.514	6.28
404.878	6.35
405.241	6.55
405.604	6.44
405.968	6.62
406.331	6.43
406.694	6.57
407.057	6.31
407.42	6.7
407.783	6.31
408.146	6.47
408.509	6.51
408.872	6.45
409.235	6.36
409.598	6.57
409.961	6.74
410.323	6.54
410.686	6.24
411.049	6.5
411.411	6.47
411.774	6.56
412.136	6.38
412.499	6.56
412.861	6.56
413.223	6.37
413.586	6.5
413.948	6.87
414.31	6.86
414.672	6.4
415.035	6.37
415.397	6.41
415.759	6.62
416.121	6.47
416.483	6.58
416.845	6.38
417.206	6.6
417.568	6.6
417.93	6.75
418.292	6.31
418.653	6.63
419.015	6.52
419.377	6.58
419.738	6.39
420.1	6.43
420.461	6.44
420.822	6.49
421.184	6.42
421.545	6.38
421.906	6.51
422.267	6.35
422.629	6.38
422.99	6.36
423.351	6.36
423.712	6.39
424.073	6.39
424.434	6.42
424.795	6.54
425.155	6.57
425.516	6.38
425.877	6.36
426.238	6.26
426.598	6.43
426.959	6.26
427.32	6.45
427.68	6.44
428.041	6.43
428.401	6.59
428.761	6.49
429.122	6.52
429.482	6.39
429.842	6.53
430.202	6.62
430.563	6.68
430.923	6.67
431.283	6.5
431.643	6.6
432.003	6.62
432.363	6.37
432.722	6.58
433.082	6.61
433.442	6.74
433.802	6.64
434.161	6.39
434.521	6.62
434.881	6.57
435.24	6.47
435.6	6.44
435.959	6.55
436.319	6.56
436.678	6.64
437.037	6.41
437.396	6.63
437.756	6.7
438.115	6.51
438.474	6.6
438.833	6.68
439.192	6.55
439.551	6.52
439.91	6.56
440.269	6.68
440.628	6.53
440.987	6.57
441.345	6.44
441.704	6.61
442.063	6.56
442.421	6.52
442.78	6.48
443.138	6.6
443.497	6.6
443.855	6.63
444.214	6.59
444.572	6.56
444.93	6.75
445.288	6.65
445.647	6.78
446.005	6.44
446.363	6.59
446.721	6.51
447.079	6.56
447.437	6.53
447.795	6.5
448.153	6.39
448.51	6.37
448.868	6.44
449.226	6.32
449.584	6.47
449.941	6.45
450.299	6.54
450.656	6.5
451.014	6.66
451.371	6.59
451.729	6.56
452.086	6.59
452.443	6.64
452.801	6.54
453.158	6.59
453.515	6.69
453.872	6.62
454.229	6.76
454.586	6.81
454.943	6.58
455.3	6.39
455.657	6.71
456.014	6.58
456.371	6.42
456.727	6.6
457.084	6.67
457.441	6.69
457.797	6.74
458.154	6.54
458.51	6.5
458.867	6.63
459.223	6.7
459.58	6.5
459.936	6.58
460.292	6.47
460.648	6.37
461.005	6.42
461.361	6.5
461.717	6.25
462.073	6.46
462.429	6.46
462.785	6.47
463.141	6.44
463.496	6.55
463.852	6.57
464.208	6.69
464.564	6.54
464.919	6.49
465.275	6.72
465.631	6.81
465.986	6.55
466.342	6.68
466.697	6.53
467.052	6.57
467.408	6.7
467.763	6.5
468.118	6.8
468.473	6.64
468.829	6.61
469.184	6.66
469.539	6.45
469.894	6.55
470.249	6.49
470.603	6.65
470.958	6.71
471.313	6.62
471.668	6.65
472.023	6.67
472.377	6.73
472.732	6.35
473.086	6.58
473.441	6.44
473.795	6.68
474.15	6.53
474.504	6.43
474.859	6.54
475.213	6.51
475.567	6.68
475.921	6.42
476.275	6.45
476.63	6.72
476.984	6.64
477.338	6.56
477.692	6.53
478.045	6.59
478.399	6.43
478.753	6.58
479.107	6.45
479.461	6.44
479.814	6.62
480.168	6.63
480.521	6.63
480.875	6.42
481.228	6.64
481.582	6.57
481.935	6.52
482.289	6.5
482.642	6.46
482.995	6.43
483.348	6.49
483.701	6.47
484.055	6.46
484.408	6.31
484.761	6.26
485.114	6.19
485.466	6.13
485.819	6.06
486.172	5.94
486.525	6
486.878	6.06
487.23	6.13
487.583	6.21
487.936	6.24
488.288	6.2
488.641	6.27
488.993	6.18
489.345	6.13
489.698	6.07
490.05	6.1
490.402	6.08
490.754	6.14
491.107	6.15
491.459	6.27
491.811	6.3
492.163	6.26
492.515	6.45
492.866	6.38
493.218	6.24
493.57	6.14
493.922	6.1
494.274	6.11
494.625	6.17
494.977	6.17
495.328	6.35
495.68	6.41
496.031	6.31
496.383	6.45
496.734	6.42
497.086	6.25
497.437	6.4
497.788	6.4
498.139	6.51
498.49	6.46
498.842	6.22
499.193	6.36
499.544	6.35
499.894	6.4
500.245	6.31
500.596	6.32
500.947	6.47
501.298	6.42
501.648	6.28
501.999	6.36
502.35	6.33
502.7	6.43
503.051	6.39
503.401	6.37
503.752	6.36
504.102	6.41
504.452	6.4
504.803	6.33
505.153	6.44
505.503	6.5
505.853	6.54
506.203	6.37
506.553	6.24
506.903	6.44
507.253	6.36
507.603	6.36
507.953	6.36
508.303	6.26
508.652	6.44
509.002	6.32
509.352	6.31
509.701	6.33
510.051	6.24
510.4	6.22
510.75	6.22
511.099	6.3
511.449	6.27
511.798	6.26
512.147	6.25
512.496	6.28
512.846	6.22
513.195	6.36
513.544	6.27
513.893	6.21
514.242	6.23
514.591	6.32
514.939	6.26
515.288	6.13
515.637	6.28
515.986	6.36
516.334	6.24
516.683	6.33
517.032	6.1
517.38	6.15
517.729	6.36
518.077	6.28
518.426	6.29
518.774	6.16
519.122	6.21
519.47	6.26
519.819	6.12
520.167	6.12
520.515	6.09
520.863	6.07
521.211	6.12
521.559	6.15
521.907	6.21
522.255	6.18
522.602	6.26
522.95	6.11
523.298	6.29
523.645	6.16
523.993	6.19
524.341	6.23
524.688	6.2
525.036	6.28
525.383	6.14
525.73	6.33
526.078	6.24
526.425	6.27
526.772	6.13
527.119	6.14
527.466	6.06
527.814	6.1
528.161	6.06
528.508	6.01
528.854	5.98
529.201	6.01
529.548	6.05
529.895	5.97
530.242	5.9
530.588	5.82
530.935	5.76
531.282	5.87
531.628	5.91
531.975	5.85
532.321	5.87
532.667	5.99
533.014	6.01
533.36	6.08
533.706	6.08
534.052	6.07
534.399	5.93
534.745	5.87
535.091	5.89
535.437	5.9
535.783	5.92
536.129	5.95
536.474	5.88
536.82	6.07
537.166	5.96
537.512	6.05
537.857	6.08
538.203	6.06
538.549	6.18
538.894	5.97
539.239	5.91
539.585	5.99
539.93	5.94
540.276	6.21
540.621	6.05
540.966	6.09
541.311	6.13
541.656	5.97
542.001	6.11
542.346	6.12
542.691	5.99
543.036	5.9
543.381	5.82
543.726	5.72
544.071	5.82
544.415	5.79
544.76	5.94
545.105	5.95
545.449	5.87
545.794	5.95
546.138	5.9
546.483	5.88
546.827	5.97
547.171	6
547.516	6
547.86	6.1
548.204	5.91
548.548	6.04
548.892	5.85
549.236	5.95
549.58	5.87
549.924	5.81
550.268	5.96
550.612	6.03
550.956	6.16
551.3	6.1
551.643	6.02
551.987	5.96
552.33	6.15
552.674	6.05
553.017	6.09
553.361	6.16
553.704	6.15
554.048	6.07
554.391	5.98
554.734	5.92
555.077	5.91
555.42	5.95
555.764	5.83
556.107	6.11
556.45	5.89
556.793	5.92
557.135	5.79
557.478	5.72
557.821	6.09
558.164	6.1
558.507	5.94
558.849	6.08
559.192	6.12
559.534	6.13
559.877	5.85
560.219	5.83
560.562	5.87
560.904	5.79
561.246	6.03
561.589	5.85
561.931	6.07
562.273	6.03
562.615	6.04
562.957	5.9
563.299	6
563.641	5.98
563.983	5.91
564.325	5.89
564.667	6.08
565.008	5.9
565.35	5.97
565.692	5.96
566.033	5.95
566.375	5.94
566.716	5.95
567.058	5.92
567.399	6.09
567.741	5.91
568.082	5.95
568.423	5.81
568.764	5.8
569.105	6.01
569.447	5.88
569.788	5.79
570.129	5.79
570.47	5.89
570.811	5.95
571.151	5.87
571.492	5.98
571.833	5.92
572.174	5.81
572.514	5.79
572.855	5.88
573.195	5.92
573.536	5.79
573.876	5.93
574.217	5.77
574.557	5.73
574.898	5.62
575.238	5.65
575.578	5.78
575.918	5.64
576.258	5.84
576.598	5.79
576.938	5.75
577.278	5.8
577.618	5.55
577.958	5.62
578.298	5.79
578.638	5.83
578.977	5.66
579.317	5.82
579.657	5.69
579.996	6
580.336	5.96
580.675	5.88
581.014	5.8
581.354	5.66
581.693	5.83
582.032	5.84
582.372	5.62
582.711	5.83
583.05	6.08
583.389	5.77
583.728	5.84
584.067	5.67
584.406	5.87
584.745	5.77
585.083	5.86
585.422	5.68
585.761	5.67
586.1	5.69
586.438	5.68
586.777	5.77
587.115	5.77
587.454	5.82
587.792	5.67
588.13	5.74
588.469	5.83
588.807	5.17
589.145	5.54
589.483	5.8
589.821	5.71
590.159	5.7
590.497	5.74
590.835	5.57
591.173	5.48
591.511	5.64
591.849	5.51
592.187	5.44
592.524	5.5
592.862	5.35
593.2	5.84
593.537	5.55
593.875	5.62
594.212	5.76
594.55	5.76
594.887	5.51
595.224	5.52
595.561	5.54
595.899	5.74
596.236	5.51
596.573	5.69
596.91	5.6
597.247	5.52
597.584	5.37
597.921	5.56
598.258	5.59
598.594	5.66
598.931	5.51
599.268	5.33
599.604	5.35
599.941	5.49
600.277	5.54
600.614	5.6
600.95	5.78
601.287	5.42
601.623	5.59
601.959	5.53
602.296	5.52
602.632	5.66
602.968	5.47
603.304	5.66
603.64	5.54
603.976	5.65
604.312	5.5
604.648	5.63
604.984	5.78
605.319	5.39
605.655	5.44
605.991	5.46
606.326	5.3
606.662	5.43
606.998	5.19
607.333	5.46
607.668	5.2
608.004	5.48
608.339	5.43
608.674	5.52
609.01	5.41
609.345	5.54
609.68	5.48
610.015	5.23
610.35	5.75
610.685	5.37
611.02	5.4
611.355	5.25
611.689	5.34
612.024	5.32
612.359	5.4
612.694	5.29
613.028	5.41
613.363	5.49
613.697	5.36
614.032	5.59
614.366	5.5
614.7	5.45
615.035	5.6
615.369	5.39
615.703	5.16
616.037	5.51
616.371	5.51
616.705	5.17
617.039	5.23
617.373	5.56
617.707	5.56
618.041	5.33
618.375	4.96
618.709	5.5
619.042	5.4
619.376	5.69
619.71	5.48
620.043	5.5
620.377	5.17
620.71	5.36
621.043	5.43
621.377	5.18
621.71	5.19
622.043	5.19
622.376	5.41
622.709	5.36
623.043	5.35
623.376	5.05
623.709	5.3
624.041	5.11
624.374	5.29
624.707	5.26
625.04	5.36
625.373	5.4
625.705	5.16
626.038	5.44
626.37	4.94
626.703	5.29
627.035	5.11
627.368	5.36
627.7	5.59
628.032	5.09
628.365	5.4
628.697	5.31
629.029	5.21
629.361	5.24
629.693	5.17
630.025	5.28
630.357	5.18
630.689	4.82
631.021	5.26
631.353	5.32
631.684	4.92
632.016	5.51
632.348	5.03
632.679	4.86
633.011	5.03
633.342	5.25
633.674	5.4
634.005	5.73
634.336	5.64
634.668	4.81
634.999	5.14
635.33	4.89
635.661	5.22
635.992	5.38
636.323	5.18
636.654	5.41
636.985	4.98
637.316	5.35
637.647	5.13
637.977	4.91
638.308	4.94
638.639	5.23
638.969	4.96
639.3	5.08
639.63	4.81
639.961	4.87
640.291	5.14
640.622	5.12
640.952	5.28
641.282	5.03
641.612	4.97
641.943	5.14
642.273	4.68
642.603	5.16
642.933	4.71
643.263	5.19
643.592	5.56
643.922	5.47
644.252	5.16
644.582	5.22
644.911	4.99
645.241	5.35
645.571	5.56
645.9	5.09
646.23	4.79
646.559	5.12
646.888	5.55
647.218	5.07
647.547	4.89
647.876	5.13
648.205	5.03
648.534	4.74
648.863	5.16
649.192	4.5
649.521	5.11
649.85	5.19
650.179	4.65
650.508	5.01
650.837	5.03
651.165	5.41
651.494	4.88
651.822	5.19
652.151	4.97
652.479	4.97
652.808	4.95
653.136	4.92
653.465	5.42
653.793	5.24
654.121	5.5
654.449	5.26
654.777	4.78
655.105	4.85
655.433	5.12
655.761	5.74
656.089	5.24
656.417	5.05
656.745	4.91
657.073	5.29
657.4	6.04
657.728	4.98
658.056	5.13
658.383	5.02
658.711	5.18
659.038	5.46
659.365	5.41
659.693	4.84
660.02	5.47
660.347	4.88
660.674	5.04
661.001	4.72
661.329	4.68
661.656	5.38
661.982	4.78
662.309	5.23
662.636	5.16
662.963	4.75
663.29	4.95
663.616	5.2
663.943	4.48
664.27	5.3
664.596	4.83
664.923	4.94
665.249	5.02
665.576	5.11
665.902	5.51
666.228	5.07
666.554	5.33
666.881	4.82
667.207	5.38
667.533	4.96
667.859	5.55
668.185	5.25
668.511	5.2
668.837	5.07
669.162	5.26
669.488	4.78
669.814	4.57
670.139	5.15
670.465	4.83
670.791	5.68
671.116	4.98
671.442	5.42
671.767	5.06
672.092	5.41
672.418	5.25
672.743	4.97
673.068	5.73
673.393	4.67
673.718	4.73
674.043	4.55
674.368	5.5
674.693	5.44
675.018	5.73
675.343	5.12
675.667	4.68
675.992	5.18
676.317	5.29
676.641	5.11
676.966	5.51
677.29	5.11
677.615	4.94
677.939	4.63
678.264	4.7
678.588	4.12
678.912	5.05
679.236	4.86
679.56	4.35
679.885	5
680.209	4.94
680.532	4.7
680.856	4.61
681.18	5.23
681.504	4.81
681.828	5.36
682.152	5.27
682.475	5.32
682.799	5.3
683.122	4.5
683.446	5.4
683.769	4.97
684.093	4.82
684.416	5
684.739	4.7
685.062	4.56
685.386	5.01
685.709	5.19
686.032	4.32
686.355	5.29
686.678	5.08
687.001	5.24
687.324	4.83
687.646	5.49
687.969	5.62
688.292	4.79
688.614	5.15
688.937	4.94
689.26	5.22
689.582	4.98
689.904	4.6
690.227	4.69
690.549	5.33
690.871	5.45
691.194	4.65
691.516	5.05
691.838	5.92
692.16	5.08
692.482	4.54
