Data from 0233_crown_Reflection__3__40.txt Node

Date: Fri Oct 20 20:59:24 CDT 2023
User: ToomeyLab
Spectrometer: FLMS14357
Trigger mode: 0
Integration Time (sec): 1.000000E-2
Scans to average: 100
Electric dark correction enabled: true
Nonlinearity correction enabled: false
Boxcar width: 0
XAxis mode: Wavelengths
Number of Pixels in Spectrum: 2048
>>>>>Begin Spectral Data<<<<<
189.047	10.24
189.435	10.24
189.823	10.24
190.211	48.95
190.599	265.14
190.987	-4.55
191.375	90.47
191.763	99.15
192.151	-123.63
192.538	-41.75
192.926	229.71
193.314	177
193.702	96.55
194.089	67.96
194.477	-234.94
194.864	36.86
195.252	-1065.72
195.639	-28.01
196.027	-355.96
196.414	17.21
196.801	261.12
197.189	86.57
197.576	79.17
197.963	-127.93
198.351	93.47
198.738	14.52
199.125	25.1
199.512	40.03
199.899	2.26
200.286	-28.95
200.673	39.08
201.06	39.14
201.447	-8.74
201.833	38.77
202.22	23.88
202.607	31.5
202.994	21.25
203.38	33.83
203.767	-31.5
204.154	66.66
204.54	59.1
204.927	32.31
205.313	26.83
205.699	51.37
206.086	39.15
206.472	52.74
206.858	30.16
207.245	18.98
207.631	56.07
208.017	33.55
208.403	17.82
208.789	23.6
209.175	39.34
209.561	11.13
209.947	21.38
210.333	10.91
210.719	20.28
211.105	5.74
211.491	53.04
211.876	-25.65
212.262	1.61
212.648	33.77
213.034	15.35
213.419	16.47
213.805	23.46
214.19	31.71
214.576	7.92
214.961	7.57
215.346	54.95
215.732	32.1
216.117	-21.3
216.502	30.58
216.888	20.89
217.273	-0.07
217.658	16.44
218.043	11.97
218.428	1.42
218.813	10.49
219.198	15.47
219.583	-6.92
219.968	14.17
220.353	4.68
220.738	42.88
221.122	4.5
221.507	23.57
221.892	9.64
222.276	19.12
222.661	14.78
223.046	17.83
223.43	22.08
223.815	28.59
224.199	19.56
224.583	11.13
224.968	10.26
225.352	11.95
225.736	12.38
226.121	14.49
226.505	9.42
226.889	10.9
227.273	11.48
227.657	16.99
228.041	16.16
228.425	15.35
228.809	14.25
229.193	8.51
229.577	13.28
229.961	10.69
230.344	10.82
230.728	10.87
231.112	12.24
231.495	11.14
231.879	11.74
232.263	11.56
232.646	9.55
233.03	11.2
233.413	11.02
233.797	11.02
234.18	11.33
234.563	11.91
234.946	14.81
235.33	11.82
235.713	12.57
236.096	13.19
236.479	11.05
236.862	11.48
237.245	10.16
237.628	10.27
238.011	11.71
238.394	11.42
238.777	11.91
239.16	11.38
239.543	13.45
239.925	14.04
240.308	10.52
240.691	11.98
241.073	12.5
241.456	10.79
241.838	10.26
242.221	11.26
242.603	9.76
242.986	10.21
243.368	10.87
243.75	10.21
244.133	9.87
244.515	10.15
244.897	10.27
245.279	10.65
245.661	10.1
246.043	11.04
246.425	10.02
246.807	10.1
247.189	10.68
247.571	9.57
247.953	10.45
248.335	9.99
248.717	9.65
249.098	9.31
249.48	9.35
249.862	9.64
250.243	9.97
250.625	9.59
251.006	10.33
251.388	9.39
251.769	8.97
252.151	9.22
252.532	9.72
252.913	10.44
253.295	8.78
253.676	9.49
254.057	8.61
254.438	9.44
254.819	9.3
255.2	9.2
255.581	9.58
255.962	9.88
256.343	8.51
256.724	8.55
257.105	8.68
257.486	8.71
257.867	8.92
258.247	10.11
258.628	9.37
259.009	8.92
259.389	8.7
259.77	8.8
260.15	9.55
260.531	8.67
260.911	9.07
261.292	8.44
261.672	8.51
262.052	8.64
262.432	8.5
262.813	8.59
263.193	8.9
263.573	8.44
263.953	8.82
264.333	8.89
264.713	8.64
265.093	8.69
265.473	9.25
265.853	8.25
266.233	8.69
266.612	8.61
266.992	8.51
267.372	8.22
267.752	8.73
268.131	8.52
268.511	8.46
268.89	8.56
269.27	8.12
269.649	7.88
270.029	7.71
270.408	8.65
270.787	8
271.167	8.57
271.546	8.24
271.925	8.22
272.304	7.95
272.683	8.28
273.062	8.4
273.441	7.99
273.82	8.11
274.199	7.92
274.578	8.06
274.957	7.81
275.336	7.82
275.715	8.25
276.093	7.93
276.472	7.44
276.851	7.57
277.229	8.16
277.608	7.27
277.986	7.59
278.365	7.73
278.743	7.33
279.122	7.47
279.5	7.83
279.878	7.08
280.257	7.47
280.635	8.01
281.013	7.63
281.391	7.49
281.769	7.29
282.147	7.03
282.525	7.34
282.903	7.27
283.281	7.78
283.659	7.31
284.037	7.3
284.415	6.92
284.792	7.41
285.17	7.61
285.548	6.67
285.925	7.25
286.303	7.15
286.68	7.15
287.058	7.82
287.435	7.24
287.813	6.74
288.19	6.63
288.567	6.93
288.945	7.5
289.322	7.54
289.699	6.82
290.076	7.54
290.453	7.47
290.83	6.9
291.207	7.71
291.584	6.5
291.961	7.09
292.338	6.71
292.715	6.8
293.092	6.99
293.469	6.83
293.845	7.09
294.222	6.76
294.599	6.95
294.975	7.35
295.352	7.17
295.728	6.93
296.105	6.83
296.481	6.99
296.858	7
297.234	6.79
297.61	6.56
297.986	6.26
298.363	6.83
298.739	7.04
299.115	6.55
299.491	6.46
299.867	6.4
300.243	6.88
300.619	6.3
300.995	6.43
301.371	6.84
301.746	6.7
302.122	6.4
302.498	6.26
302.874	6.07
303.249	6.66
303.625	6.28
304	6.7
304.376	6.1
304.751	6.06
305.127	6.22
305.502	6.64
305.878	6.46
306.253	6.43
306.628	6.55
307.003	6.15
307.378	6.43
307.754	6.38
308.129	6.92
308.504	6.5
308.879	6.25
309.254	7.21
309.629	6.13
310.003	6.29
310.378	6.39
310.753	6.18
311.128	6.51
311.502	6.14
311.877	6.46
312.252	6.46
312.626	6.11
313.001	6.12
313.375	6.41
313.75	6.26
314.124	6.09
314.498	6.25
314.873	5.58
315.247	6.5
315.621	6.18
315.995	6.19
316.369	5.59
316.743	6.15
317.117	6.18
317.491	5.97
317.865	5.66
318.239	6.84
318.613	6.2
318.987	6.38
319.361	5.55
319.734	5.6
320.108	5.55
320.482	6.5
320.855	6.75
321.229	6.74
321.602	5.91
321.976	5.95
322.349	6.74
322.723	6.06
323.096	5.99
323.469	5.65
323.843	6.21
324.216	6.49
324.589	6.27
324.962	6.4
325.335	6.5
325.708	5.89
326.081	6.13
326.454	6.35
326.827	6.39
327.2	6.47
327.573	6.39
327.945	6.05
328.318	5.94
328.691	6.26
329.063	6.66
329.436	5.27
329.809	6.07
330.181	6.28
330.553	6.3
330.926	6.2
331.298	6.06
331.671	5.71
332.043	5.73
332.415	6.3
332.787	6.54
333.159	6.06
333.532	6.12
333.904	6.59
334.276	6.18
334.648	5.79
335.02	6.54
335.391	5.66
335.763	6.8
336.135	6.46
336.507	6.08
336.879	5.52
337.25	6.25
337.622	6.29
337.993	6.12
338.365	6.22
338.736	6.35
339.108	6.52
339.479	6.21
339.851	6.61
340.222	6.02
340.593	5.8
340.964	6.07
341.336	6.7
341.707	6.76
342.078	6.32
342.449	6.27
342.82	6.03
343.191	6.14
343.562	6.32
343.933	6.45
344.303	6.43
344.674	6.87
345.045	6.55
345.416	6.36
345.786	6.6
346.157	6.18
346.527	6.65
346.898	6.61
347.268	6.42
347.639	6.58
348.009	6.3
348.38	6.31
348.75	6.57
349.12	6.52
349.49	6.17
349.861	6.86
350.231	5.83
350.601	6.29
350.971	6.78
351.341	6.58
351.711	6.86
352.081	6.65
352.45	6.58
352.82	6.7
353.19	6.95
353.56	6.6
353.929	6.23
354.299	6.2
354.669	6.39
355.038	6.68
355.408	6.86
355.777	6.49
356.147	6.55
356.516	6.49
356.885	6.54
357.254	6.68
357.624	6.6
357.993	6.56
358.362	6.69
358.731	6.39
359.1	6.63
359.469	6.52
359.838	6.75
360.207	6.62
360.576	7.11
360.945	6.74
361.314	6.87
361.682	6.67
362.051	6.72
362.42	6.39
362.788	6.75
363.157	6.65
363.525	6.6
363.894	6.53
364.262	6.79
364.631	6.79
364.999	6.97
365.367	6.67
365.735	6.87
366.104	6.69
366.472	6.79
366.84	6.89
367.208	7.05
367.576	6.77
367.944	7.03
368.312	6.62
368.68	7.04
369.048	6.98
369.416	7.3
369.783	7.34
370.151	6.56
370.519	6.98
370.886	7.15
371.254	7.03
371.621	7.51
371.989	6.87
372.356	7.13
372.724	7.1
373.091	7.07
373.458	6.83
373.826	6.9
374.193	6.85
374.56	7.15
374.927	6.8
375.294	7.44
375.661	6.76
376.028	7.42
376.395	7.23
376.762	7.03
377.129	7.35
377.496	7.05
377.863	7.47
378.229	7.24
378.596	7.54
378.963	7.35
379.329	7.1
379.696	7.03
380.062	7.28
380.429	7.05
380.795	7.16
381.161	6.98
381.528	7.12
381.894	7.07
382.26	7.36
382.626	7.62
382.993	7.31
383.359	7.32
383.725	7.22
384.091	7.19
384.457	7.36
384.823	7.57
385.188	7.58
385.554	7.37
385.92	7.17
386.286	7.77
386.651	7
387.017	7.45
387.383	7.41
387.748	7.11
388.114	7.1
388.479	7.19
388.845	7.84
389.21	7.29
389.575	7.28
389.94	7.5
390.306	7.37
390.671	7.39
391.036	7.53
391.401	7.43
391.766	7.54
392.131	7.48
392.496	7.69
392.861	7.63
393.226	7.47
393.591	7.33
393.956	7.36
394.32	7.56
394.685	7.34
395.05	7.75
395.414	7.87
395.779	7.28
396.143	7.27
396.508	7.56
396.872	7.6
397.236	7.55
397.601	7.57
397.965	7.33
398.329	7.41
398.694	7.69
399.058	7.34
399.422	7.76
399.786	7.5
400.15	7.48
400.514	7.39
400.878	7.77
401.242	7.69
401.605	7.59
401.969	7.39
402.333	7.61
402.697	7.61
403.06	7.65
403.424	7.61
403.787	7.66
404.151	7.67
404.514	7.82
404.878	7.81
405.241	7.56
405.604	7.71
405.968	7.84
406.331	7.63
406.694	7.65
407.057	7.68
407.42	7.93
407.783	7.7
408.146	7.7
408.509	7.57
408.872	7.56
409.235	7.52
409.598	7.88
409.961	7.93
410.323	7.53
410.686	7.54
411.049	7.82
411.411	7.8
411.774	7.79
412.136	7.83
412.499	7.76
412.861	7.82
413.223	7.84
413.586	7.71
413.948	7.74
414.31	8.02
414.672	7.69
415.035	7.67
415.397	7.89
415.759	7.93
416.121	7.79
416.483	7.82
416.845	7.94
417.206	7.94
417.568	7.65
417.93	7.68
418.292	7.68
418.653	7.74
419.015	7.7
419.377	7.72
419.738	7.69
420.1	7.69
420.461	7.66
420.822	7.49
421.184	7.65
421.545	7.74
421.906	7.72
422.267	7.59
422.629	7.76
422.99	7.56
423.351	7.57
423.712	7.64
424.073	7.61
424.434	7.68
424.795	7.64
425.155	7.71
425.516	7.63
425.877	7.67
426.238	7.49
426.598	7.69
426.959	7.6
427.32	7.65
427.68	7.73
428.041	7.7
428.401	7.75
428.761	7.84
429.122	7.8
429.482	7.75
429.842	7.78
430.202	7.82
430.563	7.99
430.923	7.99
431.283	7.8
431.643	7.87
432.003	8.08
432.363	7.91
432.722	7.85
433.082	7.93
433.442	7.96
433.802	8
434.161	7.86
434.521	7.93
434.881	7.75
435.24	7.83
435.6	7.64
435.959	7.77
436.319	7.83
436.678	7.82
437.037	7.79
437.396	7.95
437.756	7.88
438.115	7.68
438.474	7.92
438.833	7.99
439.192	7.71
439.551	7.65
439.91	7.88
440.269	7.92
440.628	7.9
440.987	7.92
441.345	7.69
441.704	7.78
442.063	7.69
442.421	7.76
442.78	7.69
443.138	7.81
443.497	7.86
443.855	7.86
444.214	7.81
444.572	7.9
444.93	7.88
445.288	7.98
445.647	8.02
446.005	7.65
446.363	7.93
446.721	7.73
447.079	7.82
447.437	7.63
447.795	7.68
448.153	7.63
448.51	7.63
448.868	7.58
449.226	7.58
449.584	7.6
449.941	7.66
450.299	7.62
450.656	7.8
451.014	7.86
451.371	7.81
451.729	7.78
452.086	7.87
452.443	7.81
452.801	7.8
453.158	8.04
453.515	7.75
453.872	7.93
454.229	8.07
454.586	7.88
454.943	7.86
455.3	7.82
455.657	7.91
456.014	7.83
456.371	7.76
456.727	7.83
457.084	7.94
457.441	7.87
457.797	7.89
458.154	7.76
458.51	7.73
458.867	8.01
459.223	7.89
459.58	7.86
459.936	7.69
460.292	7.71
460.648	7.89
461.005	7.74
461.361	7.92
461.717	7.59
462.073	7.69
462.429	7.62
462.785	7.66
463.141	7.74
463.496	7.74
463.852	7.76
464.208	7.83
464.564	7.84
464.919	7.82
465.275	7.86
465.631	7.98
465.986	7.95
466.342	7.86
466.697	7.7
467.052	7.8
467.408	7.82
467.763	8.02
468.118	8.08
468.473	7.89
468.829	7.7
469.184	7.82
469.539	7.63
469.894	7.76
470.249	7.75
470.603	7.84
470.958	7.81
471.313	7.87
471.668	7.86
472.023	8.1
472.377	7.9
472.732	7.73
473.086	7.74
473.441	7.83
473.795	8.03
474.15	7.83
474.504	7.74
474.859	7.88
475.213	7.82
475.567	7.8
475.921	7.81
476.275	7.71
476.63	7.89
476.984	7.83
477.338	7.68
477.692	7.61
478.045	7.76
478.399	7.67
478.753	7.79
479.107	7.76
479.461	7.86
479.814	7.89
480.168	7.92
480.521	7.75
480.875	7.77
481.228	7.8
481.582	7.76
481.935	7.77
482.289	7.65
482.642	7.65
482.995	7.73
483.348	7.71
483.701	7.66
484.055	7.61
484.408	7.54
484.761	7.46
485.114	7.41
485.466	7.31
485.819	7.2
486.172	7.17
486.525	7.16
486.878	7.19
487.23	7.31
487.583	7.37
487.936	7.41
488.288	7.5
488.641	7.47
488.993	7.43
489.345	7.3
489.698	7.33
490.05	7.25
490.402	7.24
490.754	7.29
491.107	7.33
491.459	7.43
491.811	7.45
492.163	7.52
492.515	7.6
492.866	7.45
493.218	7.38
493.57	7.32
493.922	7.31
494.274	7.33
494.625	7.3
494.977	7.31
495.328	7.47
495.68	7.61
496.031	7.47
496.383	7.66
496.734	7.61
497.086	7.61
497.437	7.66
497.788	7.53
498.139	7.7
498.49	7.56
498.842	7.45
499.193	7.43
499.544	7.58
499.894	7.49
500.245	7.48
500.596	7.46
500.947	7.61
501.298	7.51
501.648	7.43
501.999	7.61
502.35	7.56
502.7	7.68
503.051	7.65
503.401	7.5
503.752	7.77
504.102	7.57
504.452	7.4
504.803	7.46
505.153	7.5
505.503	7.57
505.853	7.59
506.203	7.46
506.553	7.48
506.903	7.47
507.253	7.54
507.603	7.55
507.953	7.51
508.303	7.49
508.652	7.58
509.002	7.62
509.352	7.55
509.701	7.64
510.051	7.43
510.4	7.45
510.75	7.43
511.099	7.45
511.449	7.5
511.798	7.48
512.147	7.4
512.496	7.4
512.846	7.53
513.195	7.57
513.544	7.43
513.893	7.4
514.242	7.37
514.591	7.46
514.939	7.4
515.288	7.41
515.637	7.43
515.986	7.57
516.334	7.33
516.683	7.31
517.032	7.3
517.38	7.34
517.729	7.48
518.077	7.4
518.426	7.41
518.774	7.37
519.122	7.33
519.47	7.33
519.819	7.23
520.167	7.34
520.515	7.27
520.863	7.3
521.211	7.24
521.559	7.29
521.907	7.25
522.255	7.2
522.602	7.38
522.95	7.2
523.298	7.36
523.645	7.32
523.993	7.3
524.341	7.38
524.688	7.3
525.036	7.42
525.383	7.3
525.73	7.41
526.078	7.38
526.425	7.36
526.772	7.33
527.119	7.31
527.466	7.23
527.814	7.31
528.161	7.26
528.508	7.18
528.854	7.15
529.201	7.14
529.548	7.12
529.895	7.16
530.242	7.05
530.588	6.86
530.935	6.9
531.282	6.97
531.628	6.94
531.975	6.94
532.321	7.01
532.667	7.06
533.014	7.13
533.36	7.17
533.706	7.2
534.052	7.06
534.399	7.04
534.745	7.04
535.091	7.03
535.437	7.06
535.783	6.99
536.129	7.07
536.474	7.03
536.82	7.11
537.166	7.13
537.512	7.17
537.857	7.17
538.203	7.08
538.549	7.15
538.894	7.01
539.239	7.07
539.585	7.07
539.93	7.23
540.276	7.12
540.621	7.18
540.966	7.32
541.311	7.28
541.656	7.26
542.001	7.24
542.346	7.22
542.691	7.08
543.036	6.96
543.381	6.89
543.726	6.88
544.071	6.9
544.415	6.88
544.76	6.92
545.105	7.05
545.449	6.95
545.794	7.09
546.138	7.06
546.483	6.94
546.827	7.07
547.171	7.16
547.516	7.02
547.86	7.14
548.204	6.99
548.548	7.04
548.892	7.07
549.236	7.08
549.58	6.87
549.924	6.99
550.268	6.98
550.612	7.18
550.956	7.15
551.3	7.18
551.643	7.07
551.987	7.24
552.33	7.1
552.674	7.08
553.017	7.14
553.361	7.22
553.704	7.18
554.048	7.19
554.391	7.25
554.734	7.18
555.077	7.04
555.42	6.91
555.764	6.98
556.107	7.16
556.45	7.12
556.793	6.88
557.135	6.96
557.478	6.97
557.821	7.14
558.164	7.36
558.507	7.19
558.849	7.15
559.192	7.08
559.534	7.33
559.877	6.72
560.219	6.98
560.562	7.08
560.904	6.89
561.246	7.11
561.589	6.92
561.931	7.21
562.273	7.21
562.615	7.27
562.957	7.13
563.299	7.11
563.641	7.05
563.983	6.82
564.325	6.77
564.667	7.02
565.008	6.94
565.35	7.14
565.692	6.91
566.033	7.12
566.375	6.93
566.716	6.94
567.058	6.81
567.399	6.93
567.741	6.93
568.082	6.91
568.423	6.99
568.764	6.69
569.105	6.89
569.447	6.77
569.788	6.94
570.129	6.88
570.47	6.77
570.811	7
571.151	6.95
571.492	6.79
571.833	7.11
572.174	6.94
572.514	6.89
572.855	6.61
573.195	6.82
573.536	6.75
573.876	6.86
574.217	6.72
574.557	6.71
574.898	6.67
575.238	6.72
575.578	6.91
575.918	6.64
576.258	6.85
576.598	6.8
576.938	6.7
577.278	6.66
577.618	6.58
577.958	6.83
578.298	6.8
578.638	6.85
578.977	6.83
579.317	6.76
579.657	6.88
579.996	6.73
580.336	6.77
580.675	6.98
581.014	6.96
581.354	6.82
581.693	6.87
582.032	6.74
582.372	6.71
582.711	6.87
583.05	7.15
583.389	6.97
583.728	6.72
584.067	6.73
584.406	6.88
584.745	6.63
585.083	6.83
585.422	6.98
585.761	6.7
586.1	6.83
586.438	6.48
586.777	6.87
587.115	6.86
587.454	6.76
587.792	6.76
588.13	6.7
588.469	6.8
588.807	6.36
589.145	6.78
589.483	6.54
589.821	6.61
590.159	6.66
590.497	6.78
590.835	6.62
591.173	6.66
591.511	6.81
591.849	6.7
592.187	6.6
592.524	6.41
592.862	6.58
593.2	6.7
593.537	6.32
593.875	6.21
594.212	6.58
594.55	6.81
594.887	6.64
595.224	6.47
595.561	6.43
595.899	6.54
596.236	6.64
596.573	6.64
596.91	6.55
597.247	6.64
597.584	6.43
597.921	6.48
598.258	6.47
598.594	6.77
598.931	6.38
599.268	6.23
599.604	6.58
599.941	6.35
600.277	6.35
600.614	6.51
600.95	6.27
601.287	6.3
601.623	6.37
601.959	6.67
602.296	6.4
602.632	6.49
602.968	6.36
603.304	6.75
603.64	6.02
603.976	6.32
604.312	6.6
604.648	6.44
604.984	6.5
605.319	6.24
605.655	6.38
605.991	6.3
606.326	6.22
606.662	6.11
606.998	6.12
607.333	6.16
607.668	6.07
608.004	6.45
608.339	6.19
608.674	6.55
609.01	6.46
609.345	6.61
609.68	6.22
610.015	6.45
610.35	6.64
610.685	6.57
611.02	6.15
611.355	6.21
611.689	6.29
612.024	6.29
612.359	6.16
612.694	6.28
613.028	6.14
613.363	6.24
613.697	6.38
614.032	6.24
614.366	6.32
614.7	6.36
615.035	6.39
615.369	6.46
615.703	6.1
616.037	6.31
616.371	6.37
616.705	6.41
617.039	6.37
617.373	6.34
617.707	6.47
618.041	6.17
618.375	6.16
618.709	6.41
619.042	6.18
619.376	6.54
619.71	6.36
620.043	6.2
620.377	6.2
620.71	6.29
621.043	6.39
621.377	6.19
621.71	6.3
622.043	6.11
622.376	6.09
622.709	6.25
623.043	6.14
623.376	6.08
623.709	5.97
624.041	6.12
624.374	6.48
624.707	5.82
625.04	6.24
625.373	6.37
625.705	5.9
626.038	6.44
626.37	5.93
626.703	6.15
627.035	5.82
627.368	5.56
627.7	6.59
628.032	6.16
628.365	6.33
628.697	6.17
629.029	5.93
629.361	6.15
629.693	5.85
630.025	6.48
630.357	5.88
630.689	6.23
631.021	6.12
631.353	6.07
631.684	6.06
632.016	6.15
632.348	6.04
632.679	5.78
633.011	6.06
633.342	5.79
633.674	6.03
634.005	5.88
634.336	6.43
634.668	6.24
634.999	5.79
635.33	5.6
635.661	6.03
635.992	6.14
636.323	6.17
636.654	6.07
636.985	5.86
637.316	5.84
637.647	6.03
637.977	5.69
638.308	6.22
638.639	5.88
638.969	6.07
639.3	5.39
639.63	6.14
639.961	5.88
640.291	5.49
640.622	5.93
640.952	5.87
641.282	5.87
641.612	6.05
641.943	6.08
642.273	5.77
642.603	5.94
642.933	5.96
643.263	6.41
643.592	5.98
643.922	6.18
644.252	5.67
644.582	5.93
644.911	5.72
645.241	6.35
645.571	6.61
645.9	5.81
646.23	5.94
646.559	5.65
646.888	6.03
647.218	6.44
647.547	6.11
647.876	5.84
648.205	5.92
648.534	5.69
648.863	5.83
649.192	5.39
649.521	5.76
649.85	6.15
650.179	5.71
650.508	5.85
650.837	5.96
651.165	6.35
651.494	5.57
651.822	6.01
652.151	5.99
652.479	5.68
652.808	5.93
653.136	5.54
653.465	5.92
653.793	5.91
654.121	6.41
654.449	5.9
654.777	5.97
655.105	5.75
655.433	6.42
655.761	6.02
656.089	6.3
656.417	5.85
656.745	5.98
657.073	5.83
657.4	6.43
657.728	6.17
658.056	5.41
658.383	5.73
658.711	5.44
659.038	6.41
659.365	5.55
659.693	6.08
660.02	5.59
660.347	5.74
660.674	5.86
661.001	5.45
661.329	5.93
661.656	6.02
661.982	5.86
662.309	5.74
662.636	5.68
662.963	5.58
663.29	5.82
663.616	6.05
663.943	5.37
664.27	6.07
664.596	5.74
664.923	5.71
665.249	5.73
665.576	5.6
665.902	5.68
666.228	5.88
666.554	5.77
666.881	5.31
667.207	6.21
667.533	5.96
667.859	6.42
668.185	6.15
668.511	6.26
668.837	6.53
669.162	6.08
669.488	5.64
669.814	5.62
670.139	5.76
670.465	5.29
670.791	6.17
671.116	5.1
671.442	6.03
671.767	5.58
672.092	5.84
672.418	5.91
672.743	5.99
673.068	6.2
673.393	5.98
673.718	5.45
674.043	5.72
674.368	5.35
674.693	5.95
675.018	5.84
675.343	5.79
675.667	5.67
675.992	5.89
676.317	5.91
676.641	6.5
676.966	5.99
677.29	5.99
677.615	6.28
677.939	5.2
678.264	5.56
678.588	4.74
678.912	5.84
679.236	5.64
679.56	5.95
679.885	6.07
680.209	5.73
680.532	5.37
680.856	5.55
681.18	5.72
681.504	5.78
681.828	6.21
682.152	6.32
682.475	5.6
682.799	6.05
683.122	6.01
683.446	5.76
683.769	5.71
684.093	5.93
684.416	6.1
684.739	5.34
685.062	5.28
685.386	5.81
685.709	5.75
686.032	5.53
686.355	6.21
686.678	5.73
687.001	5.8
687.324	5.67
687.646	5.46
687.969	6.35
688.292	6.19
688.614	5.69
688.937	5.96
689.26	4.78
689.582	5.75
689.904	5.56
690.227	6.02
690.549	5.97
690.871	6.01
691.194	6.26
691.516	5.53
