Data from 0233_forehead_Reflection__0__42.txt Node

Date: Fri Oct 20 21:00:17 CDT 2023
User: ToomeyLab
Spectrometer: FLMS14357
Trigger mode: 0
Integration Time (sec): 1.000000E-2
Scans to average: 100
Electric dark correction enabled: true
Nonlinearity correction enabled: false
Boxcar width: 0
XAxis mode: Wavelengths
Number of Pixels in Spectrum: 2048
>>>>>Begin Spectral Data<<<<<
189.047	-6.95
189.435	-6.95
189.823	-6.95
190.211	139.76
190.599	-208.78
190.987	165.35
191.375	45.28
191.763	15.67
192.151	108.28
192.538	-160.4
192.926	-201.77
193.314	37.12
193.702	11.43
194.089	40.55
194.477	382.86
194.864	145.74
195.252	-78.72
195.639	-101.46
196.027	-410.09
196.414	38.46
196.801	1168.95
197.189	55.52
197.576	73.1
197.963	-102.83
198.351	98.52
198.738	9.61
199.125	51.24
199.512	84.8
199.899	68.32
200.286	15.22
200.673	51.56
201.06	55.74
201.447	54.82
201.833	64.4
202.22	28.39
202.607	66
202.994	48.51
203.38	11.68
203.767	48.47
204.154	43.73
204.54	68.19
204.927	18.45
205.313	32.49
205.699	51.76
206.086	48.51
206.472	54.8
206.858	51.88
207.245	25.49
207.631	37.14
208.017	39.55
208.403	48.66
208.789	56.06
209.175	30.93
209.561	45.56
209.947	-4.42
210.333	39.26
210.719	54.84
211.105	28.59
211.491	73.06
211.876	43.45
212.262	44.54
212.648	50.14
213.034	4.98
213.419	62.76
213.805	37.11
214.19	42.39
214.576	50.54
214.961	57.16
215.346	59.81
215.732	43
216.117	5.75
216.502	33.84
216.888	19.37
217.273	37.86
217.658	2.36
218.043	19.86
218.428	17.75
218.813	11.04
219.198	10.94
219.583	4.45
219.968	2.14
220.353	23.54
220.738	1.28
221.122	28.8
221.507	13.84
221.892	18.44
222.276	15.72
222.661	38.7
223.046	32.84
223.43	21.94
223.815	33.26
224.199	23.02
224.583	18.05
224.968	15.36
225.352	18.1
225.736	9.9
226.121	15.14
226.505	10.1
226.889	13.28
227.273	14.93
227.657	13.66
228.041	11.92
228.425	6.99
228.809	11.87
229.193	7.95
229.577	10.2
229.961	5.93
230.344	5.48
230.728	4.41
231.112	5.04
231.495	4.24
231.879	5.09
232.263	6.48
232.646	4.69
233.03	5.59
233.413	6.43
233.797	5.01
234.18	5.75
234.563	8.56
234.946	8.64
235.33	6.04
235.713	6.54
236.096	6.7
236.479	6.28
236.862	5.37
237.245	3.85
237.628	5.59
238.011	7.85
238.394	4.88
238.777	7.2
239.16	7.37
239.543	7.89
239.925	6.81
240.308	7.91
240.691	5.08
241.073	6.91
241.456	5.55
241.838	4.68
242.221	6.63
242.603	4.71
242.986	5.34
243.368	5.57
243.75	4.75
244.133	4.46
244.515	4.14
244.897	3.93
245.279	4.39
245.661	4.46
246.043	3.71
246.425	4.52
246.807	5.29
247.189	4.9
247.571	4.52
247.953	5.07
248.335	4.63
248.717	3.86
249.098	3.8
249.48	4.04
249.862	4.5
250.243	4.34
250.625	4.02
251.006	5.1
251.388	4.82
251.769	4.31
252.151	4.3
252.532	4.95
252.913	5
253.295	3.98
253.676	5.06
254.057	4
254.438	4.16
254.819	4.59
255.2	4.69
255.581	4.23
255.962	4.86
256.343	4.09
256.724	5.11
257.105	5.72
257.486	4.97
257.867	5.6
258.247	5.57
258.628	4.83
259.009	4.64
259.389	4.62
259.77	4.54
260.15	4.72
260.531	4.69
260.911	5.07
261.292	4.16
261.672	4.31
262.052	4.11
262.432	4.1
262.813	4.02
263.193	4.82
263.573	4.11
263.953	4.68
264.333	5.07
264.713	4.65
265.093	5.01
265.473	5.34
265.853	4.02
266.233	4.41
266.612	4.73
266.992	5.02
267.372	4.41
267.752	5.07
268.131	4.75
268.511	4.86
268.89	4.13
269.27	4.21
269.649	3.64
270.029	4.54
270.408	4.73
270.787	4.68
271.167	4.11
271.546	4.25
271.925	4.67
272.304	4.8
272.683	4.35
273.062	4.71
273.441	4.86
273.82	4.39
274.199	4.82
274.578	4.66
274.957	4.75
275.336	4.68
275.715	4.37
276.093	4.15
276.472	4.68
276.851	4.64
277.229	4.74
277.608	4.35
277.986	4.53
278.365	4.68
278.743	4.35
279.122	4.03
279.5	3.9
279.878	4.28
280.257	4.93
280.635	4.51
281.013	4.6
281.391	4.84
281.769	4.32
282.147	4.47
282.525	4.5
282.903	4.81
283.281	4.94
283.659	4.52
284.037	4.44
284.415	4.06
284.792	4.45
285.17	4.53
285.548	4.2
285.925	4.56
286.303	4.06
286.68	4.22
287.058	4.57
287.435	4.45
287.813	3.73
288.19	4.08
288.567	4.42
288.945	4.47
289.322	4.89
289.699	4.14
290.076	5.11
290.453	4.48
290.83	4.23
291.207	4.79
291.584	4.26
291.961	4.48
292.338	4.05
292.715	4.44
293.092	4.45
293.469	4.77
293.845	4.84
294.222	5.13
294.599	4.77
294.975	5.44
295.352	4.9
295.728	5.05
296.105	4.22
296.481	4.54
296.858	4.85
297.234	5.47
297.61	4.42
297.986	4.81
298.363	4.98
298.739	5.12
299.115	4.91
299.491	4.98
299.867	4.9
300.243	5.04
300.619	5.17
300.995	5.01
301.371	5.62
301.746	5.37
302.122	4.89
302.498	4.77
302.874	5.46
303.249	5.5
303.625	5.43
304	5.53
304.376	5.03
304.751	5.51
305.127	5.53
305.502	6.17
305.878	5.72
306.253	6.02
306.628	5.96
307.003	5.63
307.378	6.08
307.754	5.93
308.129	6.7
308.504	6.44
308.879	6.51
309.254	7.06
309.629	6.43
310.003	5.96
310.378	6.7
310.753	6.26
311.128	6.43
311.502	6.56
311.877	6.21
312.252	6.32
312.626	6.81
313.001	6.69
313.375	6.79
313.75	6.78
314.124	6.64
314.498	7.13
314.873	6.67
315.247	7.12
315.621	7.15
315.995	7.12
316.369	6.85
316.743	7.48
317.117	7.38
317.491	7.02
317.865	7.34
318.239	7.73
318.613	7.72
318.987	7.62
319.361	7.06
319.734	7.52
320.108	7.08
320.482	8.53
320.855	8.51
321.229	8.45
321.602	7.71
321.976	8.39
322.349	8.84
322.723	7.91
323.096	8.63
323.469	8.13
323.843	8.39
324.216	8.23
324.589	8.72
324.962	8.96
325.335	8.75
325.708	8.36
326.081	8.79
326.454	8.41
326.827	9.13
327.2	9.3
327.573	9.39
327.945	8.88
328.318	8.97
328.691	9.05
329.063	9.49
329.436	8.71
329.809	9.36
330.181	9.41
330.553	9.51
330.926	9.23
331.298	9.33
331.671	9.16
332.043	9.33
332.415	10.26
332.787	10.08
333.159	9.87
333.532	9.89
333.904	10.04
334.276	9.61
334.648	9.88
335.02	9.94
335.391	10.4
335.763	10.48
336.135	10.22
336.507	10.13
336.879	10.16
337.25	10.16
337.622	10.97
337.993	10.73
338.365	10.59
338.736	10.56
339.108	11.11
339.479	10.67
339.851	10.87
340.222	10.96
340.593	10.2
340.964	10.87
341.336	11.58
341.707	10.97
342.078	11.05
342.449	10.97
342.82	11.06
343.191	10.88
343.562	10.89
343.933	11.25
344.303	11.44
344.674	11.83
345.045	11.71
345.416	12.07
345.786	11.22
346.157	11.32
346.527	11.44
346.898	11.4
347.268	11.61
347.639	11.56
348.009	11.47
348.38	11.62
348.75	12.05
349.12	11.92
349.49	11.75
349.861	12.06
350.231	11.99
350.601	12.25
350.971	12.5
351.341	12.31
351.711	12.69
352.081	12.66
352.45	12.16
352.82	12.47
353.19	13.18
353.56	12.6
353.929	12.31
354.299	12.65
354.669	12.79
355.038	12.76
355.408	12.44
355.777	12.56
356.147	12.67
356.516	12.93
356.885	13.01
357.254	12.86
357.624	13.39
357.993	12.99
358.362	13.57
358.731	12.94
359.1	13.01
359.469	12.94
359.838	13.29
360.207	13.38
360.576	13.23
360.945	13.47
361.314	13.22
361.682	13.87
362.051	13.35
362.42	13.64
362.788	13.63
363.157	13.38
363.525	13.7
363.894	13.55
364.262	13.55
364.631	13.91
364.999	13.87
365.367	13.7
365.735	13.94
366.104	13.67
366.472	14.29
366.84	13.85
367.208	14.12
367.576	14.33
367.944	14.29
368.312	14.39
368.68	14.36
369.048	14.72
369.416	14.54
369.783	14.95
370.151	14.51
370.519	14.4
370.886	14.83
371.254	14.83
371.621	14.96
371.989	14.65
372.356	15.13
372.724	15.31
373.091	15
373.458	14.95
373.826	15
374.193	15.21
374.56	15.25
374.927	15.34
375.294	15.55
375.661	15.65
376.028	15.59
376.395	15.79
376.762	15.51
377.129	15.52
377.496	15.86
377.863	15.66
378.229	15.85
378.596	15.99
378.963	15.99
379.329	15.99
379.696	15.9
380.062	16.18
380.429	16.03
380.795	15.97
381.161	16.25
381.528	16.88
381.894	16.37
382.26	16.7
382.626	16.68
382.993	16.65
383.359	16.54
383.725	16.59
384.091	16.88
384.457	16.84
384.823	17.04
385.188	17.22
385.554	16.73
385.92	16.81
386.286	17.28
386.651	16.87
387.017	17.1
387.383	17.21
387.748	17.18
388.114	17.05
388.479	17.15
388.845	17.8
389.21	17.42
389.575	17.18
389.94	17.8
390.306	17.69
390.671	17.8
391.036	17.63
391.401	17.65
391.766	18.01
392.131	17.89
392.496	17.94
392.861	17.92
393.226	17.94
393.591	17.89
393.956	18.11
394.32	18.24
394.685	18.2
395.05	18.35
395.414	18.7
395.779	18.19
396.143	18.28
396.508	18.24
396.872	18.44
397.236	18.39
397.601	18.56
397.965	18.6
398.329	18.54
398.694	18.9
399.058	18.81
399.422	19.32
399.786	19
400.15	18.89
400.514	18.89
400.878	19.18
401.242	19.23
401.605	19.24
401.969	19.27
402.333	19.16
402.697	19.6
403.06	19.29
403.424	19.6
403.787	19.5
404.151	19.65
404.514	19.88
404.878	19.97
405.241	19.94
405.604	19.85
405.968	19.85
406.331	19.89
406.694	19.94
407.057	19.88
407.42	20.1
407.783	20.03
408.146	20.24
408.509	20.18
408.872	20.2
409.235	20.53
409.598	20.41
409.961	20.61
410.323	20.53
410.686	20.4
411.049	20.87
411.411	20.63
411.774	20.75
412.136	20.8
412.499	20.97
412.861	20.97
413.223	20.9
413.586	20.96
413.948	21.37
414.31	21.47
414.672	21.18
415.035	21.24
415.397	21.42
415.759	21.5
416.121	21.29
416.483	21.53
416.845	21.41
417.206	21.78
417.568	21.82
417.93	21.71
418.292	21.48
418.653	21.75
419.015	21.64
419.377	21.6
419.738	21.81
420.1	21.62
420.461	21.83
420.822	21.52
421.184	21.59
421.545	21.77
421.906	21.79
422.267	21.77
422.629	21.78
422.99	21.87
423.351	21.77
423.712	21.9
424.073	21.99
424.434	22.19
424.795	22.21
425.155	22.34
425.516	22.27
425.877	22.26
426.238	21.98
426.598	22.14
426.959	22.24
427.32	22.42
427.68	22.58
428.041	22.73
428.401	22.89
428.761	23.08
429.122	23.22
429.482	23.56
429.842	23.45
430.202	23.44
430.563	23.39
430.923	23.6
431.283	23.59
431.643	23.68
432.003	23.75
432.363	23.81
432.722	23.89
433.082	23.9
433.442	23.87
433.802	23.97
434.161	23.72
434.521	24.03
434.881	23.88
435.24	23.86
435.6	23.82
435.959	23.92
436.319	24.05
436.678	24.38
437.037	24.25
437.396	24.58
437.756	24.44
438.115	24.67
438.474	24.73
438.833	24.83
439.192	24.68
439.551	24.79
439.91	24.86
440.269	24.71
440.628	24.83
440.987	24.82
441.345	24.65
441.704	24.7
442.063	24.84
442.421	24.83
442.78	24.82
443.138	24.97
443.497	25.17
443.855	25.07
444.214	25.36
444.572	25.32
444.93	25.55
445.288	25.61
445.647	25.82
446.005	25.7
446.363	25.77
446.721	25.67
447.079	25.59
447.437	25.56
447.795	25.45
448.153	25.53
448.51	25.36
448.868	25.49
449.226	25.49
449.584	25.56
449.941	25.9
450.299	26.07
450.656	26.12
451.014	26.37
451.371	26.4
451.729	26.44
452.086	26.67
452.443	26.62
452.801	26.7
453.158	27.08
453.515	26.87
453.872	26.88
454.229	26.97
454.586	27
454.943	27.17
455.3	27.07
455.657	27.06
456.014	27.12
456.371	27.09
456.727	27.45
457.084	27.3
457.441	27.45
457.797	27.44
458.154	27.62
458.51	27.75
458.867	27.79
459.223	27.89
459.58	28.02
459.936	27.96
460.292	27.73
460.648	27.62
461.005	27.64
461.361	27.58
461.717	27.49
462.073	27.5
462.429	27.5
462.785	27.56
463.141	27.99
463.496	28.16
463.852	28.25
464.208	28.33
464.564	28.38
464.919	28.67
465.275	28.96
465.631	28.68
465.986	28.9
466.342	29.04
466.697	28.82
467.052	28.85
467.408	28.98
467.763	29.05
468.118	29.11
468.473	29.07
468.829	29.15
469.184	29.09
469.539	29.27
469.894	29.19
470.249	29.26
470.603	29.34
470.958	29.35
471.313	29.74
471.668	29.72
472.023	29.78
472.377	29.52
472.732	29.53
473.086	29.87
473.441	29.93
473.795	30.02
474.15	29.97
474.504	29.9
474.859	30.14
475.213	30.15
475.567	30.18
475.921	30.12
476.275	30.21
476.63	30.54
476.984	30.46
477.338	30.63
477.692	30.66
478.045	30.56
478.399	30.41
478.753	30.38
479.107	30.58
479.461	30.68
479.814	30.7
480.168	30.52
480.521	30.73
480.875	30.99
481.228	30.83
481.582	31.08
481.935	31.06
482.289	30.8
482.642	30.97
482.995	31.04
483.348	31.03
483.701	30.94
484.055	31.03
484.408	30.88
484.761	30.57
485.114	30.51
485.466	30.19
485.819	29.95
486.172	30.1
486.525	30.21
486.878	30.15
487.23	30.42
487.583	30.69
487.936	30.91
488.288	31.11
488.641	31.11
488.993	30.94
489.345	30.86
489.698	30.85
490.05	30.86
490.402	30.82
490.754	30.96
491.107	31.27
491.459	31.46
491.811	31.72
492.163	31.99
492.515	32
492.866	31.79
493.218	31.71
493.57	31.48
493.922	31.45
494.274	31.6
494.625	31.76
494.977	32.04
495.328	32.21
495.68	32.58
496.031	32.75
496.383	32.94
496.734	33.07
497.086	33.12
497.437	33.18
497.788	33.31
498.139	33.24
498.49	33.06
498.842	33.08
499.193	33.17
499.544	33.23
499.894	33.36
500.245	33.5
500.596	33.39
500.947	33.64
501.298	33.7
501.648	33.5
501.999	33.89
502.35	33.76
502.7	34.06
503.051	34.09
503.401	34.05
503.752	34.21
504.102	34.26
504.452	34.39
504.803	34.37
505.153	34.36
505.503	34.47
505.853	34.44
506.203	34.47
506.553	34.27
506.903	34.55
507.253	34.71
507.603	34.62
507.953	34.61
508.303	34.9
508.652	34.78
509.002	34.85
509.352	34.84
509.701	34.94
510.051	34.84
510.4	34.74
510.75	34.81
511.099	34.94
511.449	34.92
511.798	34.75
512.147	34.96
512.496	35.13
512.846	35.34
513.195	35.3
513.544	35.32
513.893	35.52
514.242	35.43
514.591	35.47
514.939	35.49
515.288	35.59
515.637	35.55
515.986	35.8
516.334	36.02
516.683	36.02
517.032	35.98
517.38	36.15
517.729	36.09
518.077	36.14
518.426	36.1
518.774	36.2
519.122	36.12
519.47	36.25
519.819	36.16
520.167	35.86
520.515	35.87
520.863	35.8
521.211	35.84
521.559	35.93
521.907	36.08
522.255	36.15
522.602	36.39
522.95	36.7
523.298	36.63
523.645	36.82
523.993	36.89
524.341	36.95
524.688	37.1
525.036	37.08
525.383	37.02
525.73	37.09
526.078	37.2
526.425	37.2
526.772	37.11
527.119	36.88
527.466	36.73
527.814	36.88
528.161	36.92
528.508	36.97
528.854	36.9
529.201	36.97
529.548	37.06
529.895	37.03
530.242	36.6
530.588	36.39
530.935	36.59
531.282	36.61
531.628	36.63
531.975	36.7
532.321	36.93
532.667	37.23
533.014	37.52
533.36	37.53
533.706	37.67
534.052	37.69
534.399	37.53
534.745	37.53
535.091	37.58
535.437	37.3
535.783	37.57
536.129	37.56
536.474	37.76
536.82	37.97
537.166	38.04
537.512	38.34
537.857	38.49
538.203	38.4
538.549	38.39
538.894	38.36
539.239	38.42
539.585	38.42
539.93	38.61
540.276	38.75
540.621	39.19
540.966	39.21
541.311	39.3
541.656	39.39
542.001	39.42
542.346	39.22
542.691	39.03
543.036	38.65
543.381	38.56
543.726	38.43
544.071	38.46
544.415	38.67
544.76	38.85
545.105	39.07
545.449	39.07
545.794	39.39
546.138	39.33
546.483	39.52
546.827	39.57
547.171	39.77
547.516	39.94
547.86	40.01
548.204	40.11
548.548	40.05
548.892	39.73
549.236	40
549.58	40.06
549.924	39.99
550.268	40.38
550.612	40.44
550.956	40.78
551.3	41.07
551.643	40.94
551.987	40.9
552.33	41.21
552.674	41.12
553.017	41.2
553.361	41.19
553.704	41.42
554.048	41.19
554.391	41.21
554.734	41.27
555.077	41.13
555.42	41.21
555.764	41.22
556.107	41.27
556.45	41.68
556.793	41.43
557.135	41.78
557.478	41.53
557.821	41.98
558.164	41.98
558.507	42.09
558.849	42.16
559.192	42.14
559.534	42.11
559.877	42.25
560.219	42.1
560.562	42.48
560.904	42.3
561.246	42.56
561.589	42.05
561.931	42.67
562.273	42.51
562.615	42.92
562.957	42.67
563.299	42.68
563.641	42.82
563.983	42.81
564.325	42.89
564.667	42.65
565.008	43.05
565.35	42.78
565.692	42.91
566.033	43.15
566.375	42.85
566.716	43.2
567.058	42.84
567.399	43.09
567.741	43.16
568.082	42.98
568.423	42.7
568.764	42.76
569.105	43.22
569.447	43.17
569.788	43.36
570.129	43.63
570.47	43.32
570.811	43.73
571.151	43.51
571.492	43.74
571.833	43.96
572.174	44.14
572.514	44.15
572.855	43.65
573.195	43.87
573.536	43.44
573.876	43.78
574.217	43.64
574.557	43.79
574.898	43.72
575.238	43.85
575.578	44.1
575.918	44.05
576.258	44.09
576.598	44.15
576.938	44.42
577.278	44.35
577.618	44.18
577.958	44.21
578.298	44.5
578.638	44.49
578.977	44.74
579.317	44.79
579.657	44.87
579.996	44.91
580.336	44.86
580.675	44.85
581.014	45.23
581.354	45.4
581.693	45.15
582.032	45.19
582.372	45.24
582.711	45.45
583.05	45.68
583.389	45.49
583.728	46
584.067	45.65
584.406	45.87
584.745	45.71
585.083	45.82
585.422	45.8
585.761	45.82
586.1	46
586.438	46.18
586.777	45.87
587.115	46.32
587.454	45.92
587.792	45.93
588.13	46.09
588.469	46.1
588.807	45.81
589.145	46.45
589.483	46.33
589.821	46.54
590.159	46.55
590.497	46.27
590.835	46.41
591.173	46.39
591.511	46.48
591.849	46.45
592.187	46.49
592.524	46.39
592.862	46.82
593.2	46.89
593.537	46.78
593.875	46.67
594.212	46.78
594.55	47.09
594.887	47.08
595.224	47
595.561	47.04
595.899	47.27
596.236	47.01
596.573	47.4
596.91	47.28
597.247	47.33
597.584	47.23
597.921	47.4
598.258	47.21
598.594	47.41
598.931	47.19
599.268	46.91
599.604	47.32
599.941	47.3
600.277	47.28
600.614	47.4
600.95	47.59
601.287	47.36
601.623	47.99
601.959	48.29
602.296	47.89
602.632	48.48
602.968	47.85
603.304	47.94
603.64	47.75
603.976	48.16
604.312	48.02
604.648	48.05
604.984	48.06
605.319	47.87
605.655	47.94
605.991	48
606.326	47.88
606.662	47.97
606.998	48.07
607.333	48.07
607.668	47.92
608.004	48.1
608.339	48.31
608.674	48.55
609.01	48.55
609.345	49.09
609.68	48.92
610.015	49.05
610.35	48.94
610.685	49.17
611.02	48.63
611.355	48.58
611.689	48.99
612.024	49.12
612.359	48.82
612.694	48.71
613.028	49
613.363	49.2
613.697	48.87
614.032	49.41
614.366	49.46
614.7	49.28
615.035	49.65
615.369	49.71
615.703	49.75
616.037	50
616.371	50.04
616.705	49.99
617.039	50.02
617.373	49.71
617.707	50.08
618.041	49.89
618.375	50.18
618.709	50.05
619.042	49.99
619.376	49.76
619.71	50.08
620.043	50.51
620.377	50.28
620.71	50.34
621.043	49.55
621.377	50.13
621.71	50.45
622.043	50.19
622.376	50.44
622.709	50.59
623.043	50.61
623.376	50.42
623.709	50.71
624.041	50.87
624.374	50.81
624.707	50.62
625.04	50.75
625.373	50.94
625.705	50.51
626.038	51.09
626.37	50.59
626.703	50.89
627.035	50.67
627.368	51.22
627.7	51.18
628.032	50.75
628.365	51.37
628.697	51.05
629.029	51.66
629.361	50.95
629.693	51.2
630.025	51.07
630.357	51.46
630.689	51.23
631.021	51.17
631.353	51.8
631.684	51.74
632.016	51.94
632.348	51.9
632.679	51.57
633.011	51.69
633.342	51.56
633.674	51.81
634.005	52.13
634.336	52.34
634.668	52.22
634.999	51.82
635.33	51.91
635.661	52.36
635.992	52.29
636.323	52.21
636.654	51.88
636.985	52.44
637.316	52.03
637.647	52.05
637.977	51.68
638.308	52.54
638.639	52.26
638.969	52.01
639.3	52.12
639.63	52.49
639.961	52.6
640.291	52.37
640.622	52.69
640.952	52.44
641.282	52.73
641.612	52.49
641.943	52.84
642.273	52.34
642.603	52.58
642.933	52.73
643.263	53.53
643.592	53.12
643.922	53.14
644.252	53.56
644.582	52.72
644.911	53.1
645.241	53.78
645.571	53.87
645.9	52.96
646.23	53.52
646.559	53.65
646.888	53.41
647.218	53.53
647.547	53.18
647.876	53.82
648.205	53.77
648.534	53.39
648.863	54.01
649.192	53.36
649.521	53.63
649.85	53.22
650.179	53.86
650.508	53.43
650.837	53.78
651.165	53.72
651.494	53.99
651.822	54.12
652.151	53.85
652.479	54.08
652.808	53.97
653.136	53.86
653.465	54.35
653.793	54.08
654.121	54.35
654.449	54.34
654.777	54.28
655.105	53.64
655.433	54.07
655.761	54.21
656.089	54.47
656.417	54.25
656.745	54.54
657.073	54.26
657.4	54.93
657.728	54.29
658.056	55.08
658.383	54.4
658.711	54.84
659.038	54.6
659.365	54.74
659.693	54.03
660.02	55.14
660.347	54.87
660.674	54.15
661.001	54.44
661.329	54.62
661.656	55.08
661.982	54.93
662.309	55.24
662.636	55.05
662.963	54.38
663.29	55.27
663.616	54.77
663.943	55.05
664.27	55.49
664.596	55.29
664.923	55.25
665.249	55.83
665.576	55.67
665.902	55.7
666.228	54.98
666.554	55.58
666.881	55.32
667.207	56.25
667.533	56.36
667.859	56.1
668.185	55.81
668.511	56
668.837	55.98
669.162	55.47
669.488	55.74
669.814	55.26
670.139	56.37
670.465	56.16
