Data from 0233_forehead_Reflection__1__43.txt Node

Date: Fri Oct 20 21:00:29 CDT 2023
User: ToomeyLab
Spectrometer: FLMS14357
Trigger mode: 0
Integration Time (sec): 1.000000E-2
Scans to average: 100
Electric dark correction enabled: true
Nonlinearity correction enabled: false
Boxcar width: 0
XAxis mode: Wavelengths
Number of Pixels in Spectrum: 2048
>>>>>Begin Spectral Data<<<<<
189.047	26.49
189.435	26.49
189.823	26.49
190.211	123.26
190.599	48.94
190.987	132.48
191.375	-37.67
191.763	97.08
192.151	151.96
192.538	-174.74
192.926	349.22
193.314	90.76
193.702	306.4
194.089	42.81
194.477	186.52
194.864	196.37
195.252	-261.23
195.639	-183.7
196.027	-151.99
196.414	77.72
196.801	810.02
197.189	34.85
197.576	42.72
197.963	-77.61
198.351	66.91
198.738	34.36
199.125	36.62
199.512	95.67
199.899	50.52
200.286	-1.17
200.673	93.59
201.06	34.9
201.447	43.06
201.833	65.27
202.22	35.37
202.607	80.16
202.994	68.64
203.38	31.75
203.767	22.69
204.154	59.88
204.54	54.57
204.927	41.34
205.313	42.8
205.699	53.69
206.086	0.73
206.472	58.73
206.858	53.53
207.245	-8.94
207.631	54.45
208.017	27.91
208.403	37.43
208.789	26.07
209.175	57.53
209.561	49.55
209.947	15.19
210.333	42.57
210.719	32.03
211.105	32.2
211.491	27.09
211.876	45.31
212.262	43.84
212.648	38.42
213.034	-2.58
213.419	12.4
213.805	16.6
214.19	20.55
214.576	19.79
214.961	34.59
215.346	48.11
215.732	49.24
216.117	20.24
216.502	26.7
216.888	34.65
217.273	35.54
217.658	55.4
218.043	34.5
218.428	32.73
218.813	43.63
219.198	13.36
219.583	-12.54
219.968	-7.43
220.353	30.69
220.738	22.13
221.122	-1.28
221.507	30.95
221.892	21.88
222.276	23.12
222.661	13.7
223.046	27.59
223.43	3.82
223.815	24.91
224.199	25.44
224.583	20.28
224.968	6.18
225.352	7.16
225.736	13.71
226.121	11.27
226.505	16.4
226.889	15.99
227.273	17.1
227.657	14.01
228.041	16.14
228.425	11.18
228.809	12.04
229.193	6.28
229.577	10.1
229.961	6.26
230.344	6.64
230.728	5.17
231.112	6.07
231.495	5.55
231.879	6.8
232.263	7.19
232.646	7.09
233.03	6.09
233.413	5.91
233.797	7.49
234.18	7.64
234.563	10.7
234.946	9.59
235.33	6.18
235.713	6.77
236.096	8.33
236.479	7.66
236.862	6.34
237.245	6.39
237.628	8.29
238.011	7.07
238.394	6.72
238.777	9.74
239.16	6.7
239.543	8.02
239.925	8.19
240.308	6.69
240.691	7.61
241.073	8.31
241.456	8.04
241.838	6.34
242.221	7.94
242.603	6.8
242.986	7.33
243.368	7.37
243.75	6
244.133	6.15
244.515	5.62
244.897	5.98
245.279	5.96
245.661	5.87
246.043	5.61
246.425	6.45
246.807	6.41
247.189	5.79
247.571	5.63
247.953	6.45
248.335	6.3
248.717	5.81
249.098	5.49
249.48	5.79
249.862	5.98
250.243	6.28
250.625	5.93
251.006	5.99
251.388	5.91
251.769	7.3
252.151	6.4
252.532	7.36
252.913	6.17
253.295	5.05
253.676	6.13
254.057	6.32
254.438	6.43
254.819	6.64
255.2	6.33
255.581	6.44
255.962	6.16
256.343	7.13
256.724	6.02
257.105	7.11
257.486	8.38
257.867	7.6
258.247	7.32
258.628	6.6
259.009	7.12
259.389	5.78
259.77	6.15
260.15	6.38
260.531	6.32
260.911	6.26
261.292	5.85
261.672	5.91
262.052	5.75
262.432	6.08
262.813	6.01
263.193	6.17
263.573	6.18
263.953	6.29
264.333	6.64
264.713	6.57
265.093	6.36
265.473	6.78
265.853	6.91
266.233	6.3
266.612	6.88
266.992	6.26
267.372	6.07
267.752	6.07
268.131	6.36
268.511	6.56
268.89	6.11
269.27	5.64
269.649	5.89
270.029	5.72
270.408	6.38
270.787	6.1
271.167	6.2
271.546	7.02
271.925	7.02
272.304	6.49
272.683	6.28
273.062	6.43
273.441	5.98
273.82	6.22
274.199	6.65
274.578	5.91
274.957	6.04
275.336	6
275.715	6.03
276.093	5.87
276.472	6.34
276.851	6.6
277.229	6.61
277.608	5.61
277.986	5.98
278.365	6.01
278.743	6.21
279.122	5.83
279.5	6.31
279.878	5.77
280.257	5.95
280.635	6.26
281.013	6.43
281.391	6.24
281.769	5.82
282.147	6.24
282.525	6.23
282.903	6.16
283.281	5.43
283.659	6.28
284.037	6.12
284.415	5.45
284.792	5.39
285.17	6.28
285.548	5.88
285.925	5.84
286.303	5.93
286.68	5.72
287.058	6.34
287.435	6.27
287.813	5.71
288.19	5.69
288.567	5.92
288.945	6.15
289.322	6.32
289.699	5.72
290.076	6.41
290.453	6.6
290.83	6.4
291.207	6.51
291.584	6.15
291.961	6.39
292.338	6.22
292.715	6.7
293.092	5.95
293.469	6.83
293.845	6.38
294.222	6.57
294.599	6.85
294.975	6.95
295.352	6.73
295.728	6.94
296.105	6.88
296.481	6.62
296.858	6.6
297.234	7.09
297.61	6.83
297.986	6.64
298.363	7.29
298.739	6.8
299.115	6.8
299.491	6.91
299.867	7.21
300.243	6.95
300.619	7.38
300.995	7.19
301.371	7.54
301.746	7.82
302.122	7.57
302.498	7.47
302.874	7.58
303.249	7.64
303.625	7.92
304	8.53
304.376	7.64
304.751	7.61
305.127	7.58
305.502	8.62
305.878	7.56
306.253	8.4
306.628	8.36
307.003	8.25
307.378	7.73
307.754	8.07
308.129	8.54
308.504	8.71
308.879	8.73
309.254	8.87
309.629	8.55
310.003	8.06
310.378	8.7
310.753	8.61
311.128	8.64
311.502	8.23
311.877	8.64
312.252	8.44
312.626	9.07
313.001	8.98
313.375	9.03
313.75	9.16
314.124	9.11
314.498	9.25
314.873	8.88
315.247	9.75
315.621	9.55
315.995	9.78
316.369	9.36
316.743	9.96
317.117	9.6
317.491	9.06
317.865	9.89
318.239	10.49
318.613	9.95
318.987	10.41
319.361	9.4
319.734	9.79
320.108	9.94
320.482	10.36
320.855	9.95
321.229	10.89
321.602	10.07
321.976	10.2
322.349	11.17
322.723	10.44
323.096	10.99
323.469	11
323.843	11.07
324.216	11.03
324.589	10.28
324.962	10.95
325.335	11.2
325.708	10.61
326.081	11.17
326.454	11.17
326.827	11.45
327.2	11.85
327.573	11.52
327.945	11.43
328.318	11.05
328.691	11.23
329.063	11.81
329.436	11.57
329.809	11.91
330.181	11.65
330.553	11.99
330.926	12.09
331.298	11.75
331.671	11.56
332.043	11.36
332.415	11.57
332.787	11.85
333.159	11.31
333.532	12.04
333.904	12.42
334.276	11.45
334.648	12.06
335.02	12.19
335.391	11.94
335.763	12.4
336.135	12.43
336.507	12.18
336.879	12.08
337.25	12.46
337.622	12.62
337.993	12.99
338.365	12.63
338.736	13.07
339.108	13.1
339.479	12.14
339.851	12.64
340.222	12.6
340.593	12.47
340.964	12.39
341.336	13.39
341.707	12.95
342.078	13.18
342.449	12.97
342.82	13.12
343.191	13.16
343.562	12.99
343.933	12.68
344.303	13.5
344.674	13.52
345.045	13.64
345.416	13.65
345.786	13.57
346.157	13.66
346.527	13.42
346.898	12.9
347.268	13.65
347.639	13.8
348.009	13.5
348.38	13.72
348.75	13.86
349.12	13.8
349.49	13.79
349.861	14.28
350.231	14.24
350.601	14.08
350.971	13.96
351.341	14.5
351.711	14.59
352.081	14.43
352.45	14.44
352.82	13.99
353.19	14.68
353.56	14.17
353.929	14.71
354.299	14.36
354.669	14.4
355.038	14.64
355.408	14.81
355.777	14.6
356.147	14.92
356.516	14.22
356.885	14.7
357.254	14.71
357.624	14.94
357.993	14.53
358.362	14.73
358.731	14.61
359.1	14.27
359.469	14.78
359.838	15
360.207	14.78
360.576	14.98
360.945	14.88
361.314	15.03
361.682	14.95
362.051	15.23
362.42	14.89
362.788	15.1
363.157	14.96
363.525	15.13
363.894	15.3
364.262	15.1
364.631	15.5
364.999	15.12
365.367	15.58
365.735	15.45
366.104	15.65
366.472	15.65
366.84	15.57
367.208	15.95
367.576	15.61
367.944	15.99
368.312	15.58
368.68	16.23
369.048	16.32
369.416	16.11
369.783	16.17
370.151	16.26
370.519	16.15
370.886	16.41
371.254	16.4
371.621	16.87
371.989	16.29
372.356	16.47
372.724	15.92
373.091	16.51
373.458	16.28
373.826	16.29
374.193	16.22
374.56	16.66
374.927	16.85
375.294	16.68
375.661	16.46
376.028	16.78
376.395	16.8
376.762	16.87
377.129	16.86
377.496	17.12
377.863	17.21
378.229	17.17
378.596	17.29
378.963	17.3
379.329	17.2
379.696	17.24
380.062	17.36
380.429	17.1
380.795	17
381.161	17.34
381.528	17.9
381.894	17.61
382.26	17.44
382.626	17.96
382.993	17.49
383.359	17.64
383.725	17.69
384.091	17.6
384.457	18.15
384.823	17.81
385.188	17.98
385.554	17.57
385.92	17.64
386.286	18.15
386.651	17.84
387.017	18.23
387.383	17.96
387.748	17.64
388.114	18.13
388.479	18.36
388.845	18.51
389.21	18.38
389.575	18.27
389.94	18.21
390.306	18.46
390.671	18.38
391.036	18.42
391.401	19.04
391.766	18.83
392.131	18.7
392.496	18.68
392.861	18.75
393.226	18.96
393.591	18.81
393.956	18.59
394.32	18.9
394.685	18.67
395.05	19.21
395.414	19.27
395.779	18.91
396.143	18.92
396.508	18.95
396.872	19.16
397.236	19.12
397.601	19.22
397.965	19.33
398.329	19.14
398.694	19.34
399.058	19.2
399.422	19.45
399.786	19.17
400.15	19.57
400.514	19.45
400.878	19.76
401.242	19.82
401.605	19.92
401.969	19.64
402.333	19.82
402.697	19.96
403.06	20.08
403.424	19.88
403.787	20.1
404.151	20.13
404.514	20.06
404.878	20.25
405.241	20.31
405.604	20.03
405.968	20.32
406.331	20.29
406.694	20.44
407.057	20.24
407.42	20.54
407.783	20.26
408.146	20.45
408.509	20.54
408.872	20.6
409.235	20.58
409.598	20.7
409.961	21.05
410.323	20.9
410.686	20.6
411.049	21.04
411.411	20.58
411.774	20.85
412.136	20.83
412.499	21.18
412.861	21.14
413.223	21.41
413.586	21.14
413.948	21.45
414.31	21.57
414.672	21.36
415.035	21.28
415.397	21.54
415.759	21.64
416.121	21.6
416.483	21.82
416.845	21.68
417.206	21.71
417.568	21.87
417.93	21.76
418.292	21.28
418.653	21.73
419.015	21.49
419.377	21.78
419.738	21.63
420.1	21.52
420.461	21.62
420.822	21.73
421.184	21.68
421.545	21.65
421.906	21.67
422.267	21.63
422.629	21.65
422.99	21.59
423.351	21.52
423.712	21.73
424.073	21.76
424.434	21.88
424.795	21.97
425.155	21.95
425.516	21.98
425.877	22.02
426.238	21.89
426.598	21.92
426.959	21.91
427.32	22.2
427.68	22.37
428.041	22.48
428.401	22.62
428.761	22.62
429.122	22.84
429.482	22.91
429.842	23.06
430.202	23.17
430.563	23.26
430.923	23.24
431.283	23.23
431.643	23.39
432.003	23.43
432.363	23.28
432.722	23.45
433.082	23.51
433.442	23.34
433.802	23.62
434.161	23.32
434.521	23.58
434.881	23.3
435.24	23.42
435.6	23.55
435.959	23.49
436.319	23.51
436.678	23.62
437.037	23.85
437.396	23.97
437.756	24.02
438.115	23.87
438.474	24.15
438.833	24.06
439.192	23.81
439.551	23.98
439.91	24.2
440.269	24.27
440.628	24.14
440.987	24.2
441.345	24.03
441.704	24.01
442.063	24.12
442.421	24.05
442.78	24.04
443.138	24.25
443.497	24.38
443.855	24.5
444.214	24.42
444.572	24.59
444.93	24.71
445.288	24.78
445.647	24.87
446.005	24.74
446.363	24.82
446.721	24.77
447.079	24.85
447.437	24.6
447.795	24.57
448.153	24.63
448.51	24.45
448.868	24.6
449.226	24.65
449.584	24.83
449.941	24.83
450.299	25.05
450.656	25.25
451.014	25.29
451.371	25.48
451.729	25.55
452.086	25.78
452.443	25.63
452.801	25.71
453.158	26.06
453.515	25.68
453.872	26.04
454.229	25.86
454.586	25.9
454.943	25.92
455.3	25.95
455.657	26.13
456.014	25.86
456.371	26.21
456.727	26.4
457.084	26.13
457.441	26.22
457.797	26.34
458.154	26.34
458.51	26.57
458.867	26.55
459.223	26.69
459.58	26.69
459.936	26.67
460.292	26.48
460.648	26.5
461.005	26.26
461.361	26.39
461.717	26.05
462.073	26.08
462.429	26.27
462.785	26.42
463.141	26.87
463.496	26.88
463.852	27.09
464.208	27.27
464.564	27.14
464.919	27.06
465.275	27.37
465.631	27.51
465.986	27.3
466.342	27.46
466.697	27.8
467.052	27.58
467.408	27.49
467.763	27.8
468.118	27.92
468.473	27.82
468.829	27.8
469.184	27.86
469.539	27.81
469.894	27.9
470.249	27.82
470.603	28.1
470.958	28.06
471.313	28.3
471.668	28.23
472.023	27.86
472.377	28.19
472.732	28.09
473.086	28.34
473.441	28.27
473.795	28.49
474.15	28.27
474.504	28.39
474.859	28.37
475.213	28.56
475.567	28.8
475.921	28.54
476.275	28.68
476.63	28.91
476.984	28.87
477.338	28.82
477.692	28.98
478.045	28.8
478.399	28.93
478.753	29.16
479.107	28.95
479.461	29.07
479.814	29.24
480.168	28.99
480.521	29.13
480.875	29.31
481.228	29.32
481.582	29.44
481.935	29.44
482.289	29.36
482.642	29.3
482.995	29.41
483.348	29.44
483.701	29.27
484.055	29.37
484.408	29.2
484.761	29.06
485.114	28.81
485.466	28.55
485.819	28.2
486.172	28.35
486.525	28.51
486.878	28.61
487.23	28.81
487.583	29.13
487.936	29.4
488.288	29.35
488.641	29.34
488.993	29.08
489.345	28.99
489.698	29.08
490.05	29.06
490.402	29.08
490.754	29.3
491.107	29.47
491.459	29.83
491.811	29.96
492.163	30.04
492.515	30.35
492.866	30.09
493.218	29.8
493.57	29.71
493.922	29.65
494.274	29.85
494.625	30.01
494.977	30.24
495.328	30.47
495.68	30.78
496.031	30.82
496.383	31.13
496.734	31.19
497.086	31.25
497.437	31.45
497.788	31.34
498.139	31.41
498.49	31.25
498.842	31.17
499.193	31.26
499.544	31.22
499.894	31.37
500.245	31.56
500.596	31.58
500.947	31.53
501.298	31.6
501.648	31.7
501.999	31.84
502.35	31.75
502.7	32.09
503.051	31.96
503.401	32.1
503.752	32.31
504.102	32.37
504.452	32.3
504.803	32.43
505.153	32.45
505.503	32.31
505.853	32.61
506.203	32.47
506.553	32.46
506.903	32.45
507.253	32.59
507.603	32.56
507.953	32.88
508.303	32.84
508.652	32.77
509.002	32.99
509.352	32.87
509.701	32.89
510.051	32.85
510.4	32.89
510.75	32.83
511.099	32.81
511.449	32.92
511.798	32.84
512.147	32.95
512.496	32.96
512.846	33.22
513.195	33.35
513.544	33.26
513.893	33.19
514.242	33.28
514.591	33.43
514.939	33.39
515.288	33.58
515.637	33.56
515.986	33.54
516.334	34
516.683	33.84
517.032	33.9
517.38	33.83
517.729	34.18
518.077	34.09
518.426	34.22
518.774	34.14
519.122	34.06
519.47	34.07
519.819	33.93
520.167	33.92
520.515	33.69
520.863	33.73
521.211	33.76
521.559	33.91
521.907	34.13
522.255	34.24
522.602	34.27
522.95	34.33
523.298	34.66
523.645	34.78
523.993	34.77
524.341	34.9
524.688	35.06
525.036	35.02
525.383	34.86
525.73	35.04
526.078	35.15
526.425	35.21
526.772	34.92
527.119	34.78
527.466	34.7
527.814	34.72
528.161	34.65
528.508	34.68
528.854	34.89
529.201	34.7
529.548	35.02
529.895	34.88
530.242	34.38
530.588	34.16
530.935	34.45
531.282	34.62
531.628	34.64
531.975	34.75
532.321	34.85
532.667	35.26
533.014	35.55
533.36	35.43
533.706	35.78
534.052	35.71
534.399	35.57
534.745	35.4
535.091	35.36
535.437	35.13
535.783	35.29
536.129	35.53
536.474	35.68
536.82	35.88
537.166	36.08
537.512	36.1
537.857	36.36
538.203	36.3
538.549	36.23
538.894	36.18
539.239	36.33
539.585	36.38
539.93	36.41
540.276	36.88
540.621	37.04
540.966	37.04
541.311	37.25
541.656	37.27
542.001	37.22
542.346	37.15
542.691	36.83
543.036	36.61
543.381	36.26
543.726	36.33
544.071	36.57
544.415	36.74
544.76	36.79
545.105	37.02
545.449	37.07
545.794	37.32
546.138	37.31
546.483	37.5
546.827	37.57
547.171	37.78
547.516	37.81
547.86	37.98
548.204	37.92
548.548	38.07
548.892	37.8
549.236	37.85
549.58	38.13
549.924	37.94
550.268	38.36
550.612	38.53
550.956	38.79
551.3	38.95
551.643	38.73
551.987	38.91
552.33	38.99
552.674	39.14
553.017	39.05
553.361	38.99
553.704	39.37
554.048	39.29
554.391	39.3
554.734	39.17
555.077	39.22
555.42	39.12
555.764	39.3
556.107	39.43
556.45	39.53
556.793	39.47
557.135	39.55
557.478	39.77
557.821	39.93
558.164	39.83
558.507	40.02
558.849	40.13
559.192	40.05
559.534	40.26
559.877	40.17
560.219	40.37
560.562	40.47
560.904	39.93
561.246	40.72
561.589	40.25
561.931	40.78
562.273	40.49
562.615	40.71
562.957	40.63
563.299	40.64
563.641	40.88
563.983	40.75
564.325	40.68
564.667	40.71
565.008	41.01
565.35	41.03
565.692	40.89
566.033	40.94
566.375	41.13
566.716	41.02
567.058	41.09
567.399	41.35
567.741	41.21
568.082	40.88
568.423	41.21
568.764	41
569.105	41.24
569.447	41.31
569.788	41.45
570.129	41.5
570.47	41.59
570.811	41.55
571.151	41.57
571.492	41.94
571.833	41.72
572.174	42.09
572.514	42.25
572.855	41.86
573.195	42.01
573.536	41.81
573.876	41.95
574.217	41.83
574.557	41.81
574.898	41.74
575.238	42.06
575.578	42.23
575.918	42.37
576.258	42.33
576.598	42.52
576.938	42.45
577.278	42.47
577.618	42.4
577.958	42.46
578.298	42.67
578.638	42.69
578.977	42.8
579.317	42.99
579.657	42.95
579.996	43.13
580.336	43.28
580.675	43.17
581.014	43.54
581.354	43.33
581.693	43.24
582.032	43.9
582.372	43.79
582.711	43.78
583.05	43.6
583.389	43.72
583.728	43.9
584.067	43.69
584.406	44.06
584.745	44.22
585.083	44.14
585.422	43.98
585.761	44.06
586.1	44.15
586.438	44.28
586.777	43.99
587.115	44.67
587.454	44.6
587.792	44.25
588.13	44.56
588.469	44.31
588.807	44.26
589.145	44.47
589.483	44.43
589.821	44.37
590.159	44.57
590.497	44.9
590.835	44.78
591.173	44.52
591.511	45.05
591.849	44.88
592.187	44.9
592.524	44.78
592.862	44.99
593.2	45.3
593.537	45.11
593.875	45.1
594.212	45.12
594.55	45.63
594.887	45.33
595.224	45.42
595.561	45.43
595.899	45.87
596.236	45.41
596.573	45.76
596.91	45.65
597.247	45.39
597.584	45.57
597.921	45.85
598.258	45.58
598.594	45.79
598.931	45.46
599.268	45.38
599.604	45.72
599.941	45.77
600.277	45.78
600.614	46.03
600.95	46.14
601.287	46.01
601.623	45.91
601.959	46.44
602.296	46.27
602.632	46.66
602.968	46.46
603.304	46.74
603.64	46.42
603.976	46.57
604.312	46.77
604.648	46.78
604.984	46.74
605.319	46.57
605.655	46.72
605.991	46.51
606.326	46.58
606.662	46.52
606.998	46.54
607.333	46.61
607.668	46.33
608.004	46.9
608.339	46.75
608.674	46.96
609.01	46.98
609.345	47.27
609.68	47.58
610.015	47.54
610.35	47.65
610.685	47.75
611.02	47.19
611.355	47.25
611.689	47.57
612.024	47.33
612.359	47.61
612.694	47.73
613.028	47.79
613.363	47.89
613.697	48.38
614.032	47.98
614.366	48.25
614.7	47.84
615.035	48.11
615.369	48.34
615.703	48.04
616.037	48.3
616.371	48.4
616.705	48.69
617.039	48.71
617.373	48.31
617.707	48.75
618.041	48.53
618.375	48.53
618.709	48.87
619.042	49.05
619.376	48.43
619.71	49.16
620.043	48.66
620.377	48.62
620.71	48.88
621.043	48.71
621.377	49.48
621.71	49.19
622.043	48.67
622.376	49.2
622.709	49.6
623.043	49.43
623.376	49.23
623.709	49.62
624.041	49.52
624.374	49.93
624.707	49.69
625.04	49.74
625.373	49.91
625.705	49.36
626.038	50.24
626.37	49.47
626.703	49.44
627.035	49.77
627.368	49.94
627.7	50.17
628.032	50.26
628.365	50.06
628.697	49.66
629.029	50.26
629.361	49.82
629.693	50.19
630.025	50.36
630.357	50.45
630.689	50.33
631.021	50.2
631.353	50.68
631.684	50.39
632.016	50.7
632.348	50.32
632.679	50.37
633.011	50.56
633.342	50.73
633.674	50.73
634.005	51.05
634.336	51.1
634.668	50.71
634.999	50.96
635.33	50.92
635.661	50.93
635.992	50.89
636.323	50.99
636.654	50.84
636.985	50.98
637.316	50.89
637.647	51.01
637.977	51.17
638.308	51.63
638.639	51.42
638.969	51.17
639.3	50.95
639.63	51.56
639.961	52.09
640.291	51.58
640.622	51.57
640.952	52.05
641.282	51.78
641.612	51.83
641.943	52.16
642.273	51.58
642.603	51.87
642.933	52.18
643.263	52.57
643.592	52.4
643.922	52.08
644.252	52.32
644.582	52.03
644.911	52.21
645.241	52.78
645.571	52.56
645.9	52.98
646.23	52.37
646.559	52.21
646.888	52.2
647.218	52.83
647.547	51.99
647.876	52.87
648.205	52.82
648.534	52.79
648.863	53
649.192	52.62
649.521	52.36
649.85	52.77
650.179	52.92
650.508	52.92
650.837	53
651.165	53.25
651.494	53.12
651.822	53.45
652.151	53.21
652.479	53.61
652.808	52.91
653.136	52.51
653.465	53.63
653.793	53.3
654.121	53.75
654.449	53.24
654.777	53.79
655.105	52.85
655.433	53.59
655.761	53.51
656.089	53.59
656.417	53.14
656.745	54.31
657.073	53.81
657.4	54.05
657.728	53.65
658.056	53.93
658.383	53.37
658.711	54.51
659.038	54.2
659.365	53.57
659.693	54.19
660.02	54.33
660.347	54.46
660.674	54.23
661.001	53.85
661.329	54.18
661.656	54.24
661.982	54.57
662.309	54.7
662.636	54.38
662.963	53.78
663.29	54.14
663.616	54.6
663.943	53.97
664.27	55.15
664.596	55.09
664.923	54.43
665.249	54.52
665.576	55.73
665.902	54.77
666.228	54.43
666.554	55.87
666.881	54.84
667.207	54.96
667.533	54.48
667.859	55.06
668.185	55.3
668.511	55.32
668.837	55.07
669.162	54.92
669.488	55.39
