Data from 0233_chest_Reflection__0__32.txt Node

Date: Fri Oct 20 20:56:49 CDT 2023
User: ToomeyLab
Spectrometer: FLMS14357
Trigger mode: 0
Integration Time (sec): 1.000000E-2
Scans to average: 100
Electric dark correction enabled: true
Nonlinearity correction enabled: false
Boxcar width: 0
XAxis mode: Wavelengths
Number of Pixels in Spectrum: 2048
>>>>>Begin Spectral Data<<<<<
189.047	-10.07
189.435	-10.07
189.823	-10.07
190.211	13.18
190.599	47.85
190.987	129.49
191.375	132.46
191.763	105.36
192.151	61.46
192.538	171.08
192.926	197.16
193.314	139.98
193.702	127.09
194.089	105.01
194.477	68.72
194.864	219.77
195.252	-1304.26
195.639	-8.24
196.027	-688.99
196.414	47.32
196.801	852.08
197.189	34.9
197.576	132.34
197.963	-0.73
198.351	62.84
198.738	31.58
199.125	33.63
199.512	28.99
199.899	23.21
200.286	10.71
200.673	43.81
201.06	32.15
201.447	2.44
201.833	29.39
202.22	29.96
202.607	49.69
202.994	54.56
203.38	34.99
203.767	62.49
204.154	47.48
204.54	63.42
204.927	14.09
205.313	12.08
205.699	44.8
206.086	40.03
206.472	55.25
206.858	44.5
207.245	3.16
207.631	44.09
208.017	42
208.403	6.7
208.789	40.86
209.175	-5.66
209.561	35.67
209.947	18.6
210.333	24.74
210.719	30.62
211.105	13.71
211.491	41.89
211.876	8.46
212.262	24.51
212.648	44.58
213.034	4.47
213.419	33.1
213.805	31.4
214.19	20.39
214.576	15.2
214.961	38
215.346	39.73
215.732	36.27
216.117	-32.32
216.502	10.98
216.888	-12.11
217.273	11
217.658	6.47
218.043	4.45
218.428	9.34
218.813	2.31
219.198	22.43
219.583	1.02
219.968	7.3
220.353	27.03
220.738	28.9
221.122	-10.83
221.507	16.51
221.892	16.84
222.276	11.91
222.661	19.12
223.046	16.77
223.43	11.26
223.815	23.22
224.199	18.04
224.583	2
224.968	-2.79
225.352	8.48
225.736	1.98
226.121	7.02
226.505	0.44
226.889	13.41
227.273	16.63
227.657	14.72
228.041	10.92
228.425	9.56
228.809	8.38
229.193	5.28
229.577	10.07
229.961	5.54
230.344	5.66
230.728	5.99
231.112	5.71
231.495	5.12
231.879	5.44
232.263	5.24
232.646	4.28
233.03	4.33
233.413	4.42
233.797	3.93
234.18	5.97
234.563	6.78
234.946	6.97
235.33	7.59
235.713	6.2
236.096	6.65
236.479	5.9
236.862	5.81
237.245	5.6
237.628	5.54
238.011	5.01
238.394	3.82
238.777	6.73
239.16	6.48
239.543	7.91
239.925	8.21
240.308	6.78
240.691	6.46
241.073	8.19
241.456	6.14
241.838	6.17
242.221	4.97
242.603	5.55
242.986	5.36
243.368	5.86
243.75	5.34
244.133	4.95
244.515	5.25
244.897	4.66
245.279	5.54
245.661	5.01
246.043	5.51
246.425	5.58
246.807	5.11
247.189	5.92
247.571	4.51
247.953	5.47
248.335	5.55
248.717	4.67
249.098	4.82
249.48	4.98
249.862	5.15
250.243	5.46
250.625	5.17
251.006	5.48
251.388	5.11
251.769	6.22
252.151	4.67
252.532	6.72
252.913	5.07
253.295	4.79
253.676	4.97
254.057	5.1
254.438	5.3
254.819	5.87
255.2	5.47
255.581	5.36
255.962	5.59
256.343	6.5
256.724	4.54
257.105	5.05
257.486	5.93
257.867	5.86
258.247	6.63
258.628	5.84
259.009	4.98
259.389	4.65
259.77	4.51
260.15	5.21
260.531	5.25
260.911	5.31
261.292	4.9
261.672	4.99
262.052	4.97
262.432	5.03
262.813	5.22
263.193	5.39
263.573	4.79
263.953	4.82
264.333	5.49
264.713	5.2
265.093	5.42
265.473	5.66
265.853	4.72
266.233	5.63
266.612	5.2
266.992	4.6
267.372	4.29
267.752	4.69
268.131	5.11
268.511	4.81
268.89	4.69
269.27	5.03
269.649	4.08
270.029	4.8
270.408	5.17
270.787	5.46
271.167	5.12
271.546	4.96
271.925	4.97
272.304	5.21
272.683	4.88
273.062	5.5
273.441	4.94
273.82	5.01
274.199	4.82
274.578	5.31
274.957	5.4
275.336	4.99
275.715	4.88
276.093	4.88
276.472	5.05
276.851	5.35
277.229	4.96
277.608	4.69
277.986	4.59
278.365	5.24
278.743	4.65
279.122	4.54
279.5	5.06
279.878	4.29
280.257	4.68
280.635	4.87
281.013	5.21
281.391	5.39
281.769	4.68
282.147	4.31
282.525	4.85
282.903	5.03
283.281	4.87
283.659	4.26
284.037	4.79
284.415	4.72
284.792	4.73
285.17	5.08
285.548	4.62
285.925	4.94
286.303	4.6
286.68	4.38
287.058	4.92
287.435	4.85
287.813	4.16
288.19	5.08
288.567	4.76
288.945	5.12
289.322	5.44
289.699	4.65
290.076	5.39
290.453	4.9
290.83	4.76
291.207	5.69
291.584	4.71
291.961	5.06
292.338	4.49
292.715	4.93
293.092	4.9
293.469	4.92
293.845	4.73
294.222	4.97
294.599	4.86
294.975	5.57
295.352	5.51
295.728	4.99
296.105	4.94
296.481	5.02
296.858	4.94
297.234	5.01
297.61	4.8
297.986	5.29
298.363	5.18
298.739	4.98
299.115	4.72
299.491	4.89
299.867	5.2
300.243	4.95
300.619	5.22
300.995	4.9
301.371	5.46
301.746	5.16
302.122	5.28
302.498	5.44
302.874	5.13
303.249	5.19
303.625	5.32
304	5.77
304.376	4.62
304.751	4.95
305.127	5.22
305.502	5.54
305.878	5.38
306.253	5.31
306.628	5.09
307.003	5.46
307.378	5.35
307.754	5.12
308.129	5.53
308.504	5.66
308.879	5.36
309.254	5.81
309.629	5
310.003	4.7
310.378	5.66
310.753	5.28
311.128	5.51
311.502	5.33
311.877	5.72
312.252	5.06
312.626	5.5
313.001	5.24
313.375	5.43
313.75	5.26
314.124	4.9
314.498	5.34
314.873	5.08
315.247	5.47
315.621	5.5
315.995	5.74
316.369	5.5
316.743	5.28
317.117	4.85
317.491	4.96
317.865	5.86
318.239	5.7
318.613	5.44
318.987	5.58
319.361	5.27
319.734	5.63
320.108	5.47
320.482	5.6
320.855	5.5
321.229	6.12
321.602	5.54
321.976	5.75
322.349	6.22
322.723	4.97
323.096	5.51
323.469	5.69
323.843	5.97
324.216	5.67
324.589	5.53
324.962	6.24
325.335	5.51
325.708	5.53
326.081	5.74
326.454	5.73
326.827	6.12
327.2	6.02
327.573	5.86
327.945	5.32
328.318	5.64
328.691	5.59
329.063	6.02
329.436	5.28
329.809	5.42
330.181	5.71
330.553	5.84
330.926	5.56
331.298	5.23
331.671	5.01
332.043	5.32
332.415	5.71
332.787	5.76
333.159	5.51
333.532	5.22
333.904	5.27
334.276	5.81
334.648	5.65
335.02	5.97
335.391	5.32
335.763	5.7
336.135	5.57
336.507	5.59
336.879	5.52
337.25	5.88
337.622	6.07
337.993	6.29
338.365	5.53
338.736	5.32
339.108	6.09
339.479	5.5
339.851	5.35
340.222	4.94
340.593	5.14
340.964	5.77
341.336	6.14
341.707	5.32
342.078	5.58
342.449	5.36
342.82	5.86
343.191	5.52
343.562	5.52
343.933	5.91
344.303	5.78
344.674	5.54
345.045	5.59
345.416	5.75
345.786	5.57
346.157	5.32
346.527	5.32
346.898	5.64
347.268	5.73
347.639	5.81
348.009	5.49
348.38	5.61
348.75	5.91
349.12	5.77
349.49	5.8
349.861	5.55
350.231	5.81
350.601	5.75
350.971	5.95
351.341	5.48
351.711	5.67
352.081	5.67
352.45	5.84
352.82	5.9
353.19	5.87
353.56	5.73
353.929	5.75
354.299	5.4
354.669	5.32
355.038	5.68
355.408	5.64
355.777	5.45
356.147	5.61
356.516	5.19
356.885	5.44
357.254	5.44
357.624	5.59
357.993	5.73
358.362	5.48
358.731	5.2
359.1	5.04
359.469	5.55
359.838	5.74
360.207	5.4
360.576	5.89
360.945	5.4
361.314	5.6
361.682	5.51
362.051	5.36
362.42	5.51
362.788	5.59
363.157	5.57
363.525	5.43
363.894	5.4
364.262	5.55
364.631	5.63
364.999	5.37
365.367	5.74
365.735	5.44
366.104	5.67
366.472	5.66
366.84	5.55
367.208	5.65
367.576	5.67
367.944	5.7
368.312	5.5
368.68	5.78
369.048	5.78
369.416	5.69
369.783	5.73
370.151	5.82
370.519	5.6
370.886	5.81
371.254	5.92
371.621	5.88
371.989	5.64
372.356	5.85
372.724	5.55
373.091	5.78
373.458	5.45
373.826	5.76
374.193	5.54
374.56	5.73
374.927	5.74
375.294	5.58
375.661	6
376.028	5.86
376.395	5.8
376.762	5.48
377.129	5.65
377.496	5.89
377.863	5.95
378.229	5.87
378.596	5.59
378.963	5.52
379.329	5.69
379.696	5.6
380.062	5.64
380.429	5.65
380.795	5.33
381.161	5.49
381.528	6.18
381.894	5.68
382.26	5.98
382.626	5.73
382.993	5.69
383.359	5.84
383.725	5.68
384.091	5.77
384.457	5.64
384.823	5.5
385.188	5.96
385.554	5.7
385.92	5.75
386.286	6.18
386.651	5.27
387.017	5.59
387.383	5.49
387.748	5.55
388.114	5.71
388.479	5.71
388.845	5.68
389.21	5.64
389.575	5.46
389.94	5.76
390.306	5.63
390.671	5.54
391.036	5.74
391.401	5.87
391.766	5.95
392.131	5.79
392.496	5.93
392.861	5.88
393.226	5.66
393.591	5.69
393.956	5.71
394.32	5.97
394.685	5.48
395.05	5.84
395.414	5.97
395.779	5.56
396.143	5.64
396.508	5.72
396.872	5.74
397.236	5.73
397.601	5.47
397.965	5.61
398.329	5.72
398.694	5.86
399.058	5.65
399.422	5.81
399.786	5.56
400.15	5.67
400.514	5.8
400.878	6.16
401.242	5.81
401.605	5.75
401.969	5.47
402.333	5.65
402.697	5.71
403.06	5.75
403.424	5.81
403.787	5.75
404.151	5.61
404.514	5.78
404.878	6.19
405.241	5.83
405.604	5.51
405.968	5.77
406.331	5.55
406.694	5.93
407.057	5.63
407.42	5.99
407.783	5.75
408.146	5.86
408.509	5.66
408.872	6.03
409.235	5.95
409.598	5.71
409.961	5.81
410.323	5.8
410.686	5.85
411.049	6.14
411.411	5.61
411.774	5.73
412.136	5.85
412.499	5.88
412.861	5.97
413.223	5.91
413.586	5.72
413.948	5.92
414.31	6.2
414.672	5.59
415.035	5.64
415.397	5.95
415.759	5.94
416.121	5.83
416.483	5.87
416.845	5.95
417.206	5.89
417.568	6.08
417.93	6
418.292	5.6
418.653	6.04
419.015	5.83
419.377	5.71
419.738	5.79
420.1	5.71
420.461	5.81
420.822	5.65
421.184	5.74
421.545	5.87
421.906	5.78
422.267	5.85
422.629	5.86
422.99	5.64
423.351	5.7
423.712	5.66
424.073	5.74
424.434	5.72
424.795	5.66
425.155	5.73
425.516	5.67
425.877	5.85
426.238	5.64
426.598	5.8
426.959	5.62
427.32	5.84
427.68	5.84
428.041	5.85
428.401	5.88
428.761	5.94
429.122	5.93
429.482	5.76
429.842	5.98
430.202	6.11
430.563	6.04
430.923	6.08
431.283	5.9
431.643	6.07
432.003	6.2
432.363	5.88
432.722	6.18
433.082	5.81
433.442	5.92
433.802	6.08
434.161	5.84
434.521	6.07
434.881	5.86
435.24	5.92
435.6	5.97
435.959	5.94
436.319	5.95
436.678	5.96
437.037	6.05
437.396	5.99
437.756	6.02
438.115	5.99
438.474	5.95
438.833	6.06
439.192	5.8
439.551	5.93
439.91	6.18
440.269	6.08
440.628	6.03
440.987	5.87
441.345	5.96
441.704	5.97
442.063	5.98
442.421	5.94
442.78	5.94
443.138	6.04
443.497	6
443.855	6.1
444.214	5.94
444.572	6.1
444.93	6.15
445.288	6.09
445.647	6.27
446.005	5.92
446.363	6
446.721	6.13
447.079	6.05
447.437	5.98
447.795	5.86
448.153	5.95
448.51	6.01
448.868	5.96
449.226	5.95
449.584	5.99
449.941	6.01
450.299	6.16
450.656	5.93
451.014	6.06
451.371	6.08
451.729	5.96
452.086	6.24
452.443	6.1
452.801	5.99
453.158	6.37
453.515	6.25
453.872	6.13
454.229	6.21
454.586	6.11
454.943	6.1
455.3	6.11
455.657	6.2
456.014	6.14
456.371	6.13
456.727	6.1
457.084	6.21
457.441	6.18
457.797	6.27
458.154	6.09
458.51	6.02
458.867	6.03
459.223	6.26
459.58	6.23
459.936	6.24
460.292	6.23
460.648	5.9
461.005	6.07
461.361	6.12
461.717	5.94
462.073	6.11
462.429	6.03
462.785	6.08
463.141	6.24
463.496	6.18
463.852	6.23
464.208	6.33
464.564	6.35
464.919	6.15
465.275	6.44
465.631	6.43
465.986	6.51
466.342	6.37
466.697	6.23
467.052	6.32
467.408	6.29
467.763	6.42
468.118	6.42
468.473	6.29
468.829	6.33
469.184	6.43
469.539	6.5
469.894	6.45
470.249	6.2
470.603	6.32
470.958	6.57
471.313	6.45
471.668	6.35
472.023	6.36
472.377	6.42
472.732	6.46
473.086	6.38
473.441	6.48
473.795	6.55
474.15	6.45
474.504	6.35
474.859	6.35
475.213	6.38
475.567	6.41
475.921	6.4
476.275	6.38
476.63	6.6
476.984	6.47
477.338	6.43
477.692	6.58
478.045	6.46
478.399	6.37
478.753	6.46
479.107	6.34
479.461	6.44
479.814	6.55
480.168	6.36
480.521	6.51
480.875	6.4
481.228	6.57
481.582	6.63
481.935	6.43
482.289	6.44
482.642	6.29
482.995	6.33
483.348	6.5
483.701	6.37
484.055	6.49
484.408	6.3
484.761	6.36
485.114	6.25
485.466	6.19
485.819	6.08
486.172	6.01
486.525	6.08
486.878	6.14
487.23	6.21
487.583	6.31
487.936	6.26
488.288	6.43
488.641	6.32
488.993	6.21
489.345	6.27
489.698	6.24
490.05	6.21
490.402	6.18
490.754	6.24
491.107	6.32
491.459	6.36
491.811	6.43
492.163	6.46
492.515	6.5
492.866	6.56
493.218	6.41
493.57	6.27
493.922	6.31
494.274	6.41
494.625	6.41
494.977	6.44
495.328	6.55
495.68	6.66
496.031	6.53
496.383	6.72
496.734	6.63
497.086	6.72
497.437	6.62
497.788	6.58
498.139	6.76
498.49	6.64
498.842	6.61
499.193	6.6
499.544	6.78
499.894	6.65
500.245	6.7
500.596	6.7
500.947	6.89
501.298	6.71
501.648	6.66
501.999	6.86
502.35	6.88
502.7	6.96
503.051	6.77
503.401	6.85
503.752	6.92
504.102	6.95
504.452	6.82
504.803	6.86
505.153	7.03
505.503	6.81
505.853	6.91
506.203	6.85
506.553	6.76
506.903	6.93
507.253	7.04
507.603	6.82
507.953	7.03
508.303	6.84
508.652	7.01
509.002	6.88
509.352	7.01
509.701	7.05
510.051	6.82
510.4	6.86
510.75	7.02
511.099	6.84
511.449	7.04
511.798	6.99
512.147	6.99
512.496	6.95
512.846	6.97
513.195	7.08
513.544	7
513.893	6.98
514.242	7.04
514.591	7.17
514.939	7.08
515.288	7.05
515.637	7.22
515.986	7.07
516.334	7.28
516.683	7.23
517.032	7.08
517.38	7.02
517.729	7.2
518.077	7.16
518.426	7.27
518.774	7.15
519.122	7.18
519.47	7.1
519.819	7.04
520.167	7.13
520.515	7.15
520.863	7.17
521.211	7.17
521.559	7.22
521.907	7.18
522.255	7.28
522.602	7.41
522.95	7.24
523.298	7.37
523.645	7.4
523.993	7.39
524.341	7.36
524.688	7.47
525.036	7.49
525.383	7.32
525.73	7.62
526.078	7.45
526.425	7.49
526.772	7.35
527.119	7.32
527.466	7.31
527.814	7.4
528.161	7.39
528.508	7.32
528.854	7.36
529.201	7.35
529.548	7.49
529.895	7.48
530.242	7.24
530.588	7.18
530.935	7.15
531.282	7.21
531.628	7.3
531.975	7.33
532.321	7.38
532.667	7.4
533.014	7.5
533.36	7.58
533.706	7.73
534.052	7.62
534.399	7.58
534.745	7.44
535.091	7.54
535.437	7.54
535.783	7.52
536.129	7.61
536.474	7.74
536.82	7.74
537.166	7.78
537.512	7.8
537.857	7.8
538.203	7.76
538.549	7.93
538.894	7.73
539.239	7.81
539.585	7.88
539.93	7.92
540.276	8.01
540.621	7.97
540.966	8.08
541.311	8.05
541.656	8
542.001	8.14
542.346	8.08
542.691	7.97
543.036	7.96
543.381	7.81
543.726	7.83
544.071	7.81
544.415	7.9
544.76	7.96
545.105	8.06
545.449	8.02
545.794	8.17
546.138	8.17
546.483	8.25
546.827	8.22
547.171	8.27
547.516	8.26
547.86	8.34
548.204	8.22
548.548	8.42
548.892	8.27
549.236	8.36
549.58	8.35
549.924	8.39
550.268	8.47
550.612	8.48
550.956	8.72
551.3	8.67
551.643	8.63
551.987	8.56
552.33	8.7
552.674	8.57
553.017	8.7
553.361	8.82
553.704	8.93
554.048	8.72
554.391	8.78
554.734	8.86
555.077	8.74
555.42	8.78
555.764	8.78
556.107	8.9
556.45	8.83
556.793	8.77
557.135	8.87
557.478	8.87
557.821	9.09
558.164	9.1
558.507	9.18
558.849	9.13
559.192	9.09
559.534	9.19
559.877	9.02
560.219	9.36
560.562	9.31
560.904	9.12
561.246	9.32
561.589	9.21
561.931	9.28
562.273	9.48
562.615	9.48
562.957	9.45
563.299	9.39
563.641	9.45
563.983	9.38
564.325	9.45
564.667	9.31
565.008	9.42
565.35	9.51
565.692	9.45
566.033	9.66
566.375	9.44
566.716	9.53
567.058	9.61
567.399	9.82
567.741	9.64
568.082	9.5
568.423	9.61
568.764	9.49
569.105	9.82
569.447	9.64
569.788	9.73
570.129	9.78
570.47	9.87
570.811	10.02
571.151	9.68
571.492	10.14
571.833	10.23
572.174	10.01
572.514	10.11
572.855	9.95
573.195	10.27
573.536	9.91
573.876	10.23
574.217	10.02
574.557	10.13
574.898	10.05
575.238	10.11
575.578	10.23
575.918	10.13
576.258	10.28
576.598	10.39
576.938	10.33
577.278	10.49
577.618	10.22
577.958	10.4
578.298	10.39
578.638	10.43
578.977	10.38
579.317	10.61
579.657	10.52
579.996	10.63
580.336	10.72
580.675	10.7
581.014	10.69
581.354	10.77
581.693	10.82
582.032	11
582.372	11.06
582.711	11.04
583.05	11.29
583.389	10.8
583.728	11.04
584.067	10.97
584.406	11.13
584.745	11.05
585.083	11.07
585.422	11.2
585.761	11.15
586.1	11.14
586.438	11.13
586.777	11.2
587.115	11.21
587.454	11.4
587.792	11.55
588.13	11.68
588.469	11.68
588.807	11.27
589.145	11.34
589.483	11.35
589.821	11.39
590.159	11.93
590.497	11.71
590.835	11.83
591.173	11.43
591.511	11.72
591.849	11.6
592.187	11.62
592.524	11.91
592.862	11.85
593.2	12.01
593.537	11.86
593.875	11.82
594.212	12.08
594.55	11.91
594.887	12
595.224	12.06
595.561	12.15
595.899	12.04
596.236	12.13
596.573	12.2
596.91	12.26
597.247	12.03
597.584	12.06
597.921	12.46
598.258	12.41
598.594	12.46
598.931	12.2
599.268	12.15
599.604	12.37
599.941	12.35
600.277	12.49
600.614	12.48
600.95	12.55
601.287	12.36
601.623	12.73
601.959	12.77
602.296	12.74
602.632	12.79
602.968	12.72
603.304	13.02
603.64	12.76
603.976	12.92
604.312	13.07
604.648	13.18
604.984	13.23
605.319	12.79
605.655	12.84
605.991	13.08
606.326	13.12
606.662	12.99
606.998	12.98
607.333	12.94
607.668	12.89
608.004	13.33
608.339	13.27
608.674	13.43
609.01	13.27
609.345	13.45
609.68	13.67
610.015	13.36
610.35	13.68
610.685	14.03
611.02	13.48
611.355	13.42
611.689	13.54
612.024	13.68
612.359	13.68
612.694	13.66
613.028	13.8
613.363	13.85
613.697	13.8
614.032	13.87
614.366	13.79
614.7	13.92
615.035	14.12
615.369	14.06
615.703	14.03
616.037	14.29
616.371	13.98
616.705	14.21
617.039	14.14
617.373	13.92
617.707	14.44
618.041	14.44
618.375	14.3
618.709	14.51
619.042	14.61
619.376	14.67
619.71	14.62
620.043	14.56
620.377	14.5
620.71	14.57
621.043	14.6
621.377	14.4
621.71	14.91
622.043	14.53
622.376	14.91
622.709	14.79
623.043	14.98
623.376	14.84
623.709	14.76
624.041	14.95
624.374	15.21
624.707	14.73
625.04	15.19
625.373	15.48
625.705	14.76
626.038	15.07
626.37	14.77
626.703	15.13
627.035	14.99
627.368	15.26
627.7	15.5
628.032	15.28
628.365	15.47
628.697	15.38
629.029	15.61
629.361	15.43
629.693	15.28
630.025	15.37
630.357	15.5
630.689	15.63
631.021	15.77
631.353	15.73
631.684	15.42
632.016	15.77
632.348	15.88
632.679	15.64
633.011	15.54
633.342	15.65
633.674	16.1
634.005	16.11
634.336	16.45
634.668	15.99
634.999	16.13
635.33	15.93
635.661	16.5
635.992	16.32
636.323	16.25
636.654	16.25
636.985	16.26
637.316	16.46
637.647	16.13
637.977	16.43
638.308	16.56
638.639	16.56
638.969	16.48
639.3	16.3
639.63	16.39
639.961	16.57
640.291	16.8
640.622	16.62
640.952	16.6
641.282	16.32
641.612	16.6
641.943	16.86
642.273	16.59
642.603	17
642.933	16.99
643.263	17.55
643.592	17.03
643.922	17.52
644.252	16.92
644.582	16.85
644.911	17.14
645.241	17.23
645.571	17.81
645.9	17.46
646.23	17.24
646.559	17.24
646.888	17.6
647.218	17.55
647.547	16.91
647.876	17.33
648.205	17.35
648.534	17.06
648.863	17.83
649.192	17.34
649.521	17.53
649.85	17.58
650.179	17.82
650.508	17.57
650.837	18.04
651.165	18.17
651.494	17.92
651.822	17.99
652.151	18.23
652.479	18.02
652.808	17.7
653.136	17.7
653.465	18.58
653.793	18.37
654.121	18.32
654.449	17.9
654.777	18.27
655.105	18.18
655.433	18.6
655.761	17.81
656.089	18.31
656.417	18.32
656.745	18.73
657.073	18.68
657.4	19.05
657.728	18.35
658.056	18.82
658.383	19.13
658.711	18.66
659.038	18.64
659.365	18.62
659.693	18.92
660.02	18.86
660.347	18.67
660.674	18.82
661.001	18.18
661.329	18.89
661.656	18.91
661.982	18.84
662.309	19.12
662.636	19.2
662.963	19.12
663.29	18.82
663.616	19
663.943	19.45
664.27	18.9
664.596	19.08
664.923	19.46
665.249	18.71
665.576	18.98
665.902	19.57
666.228	19.6
666.554	19.79
666.881	19.07
667.207	19.7
667.533	19.5
667.859	19.59
668.185	19.72
668.511	20
668.837	20.35
669.162	19.94
669.488	20.31
669.814	19.3
670.139	19.72
670.465	19.6
670.791	19.8
671.116	20.31
671.442	20
671.767	20.22
672.092	20.01
672.418	19.62
672.743	20.25
673.068	20.93
673.393	19.98
673.718	19.78
674.043	20.33
674.368	20.58
674.693	21.43
675.018	20.42
675.343	20.43
675.667	20.62
675.992	20.77
676.317	20.74
676.641	20.72
676.966	20.33
677.29	21.07
677.615	20.96
677.939	20.55
678.264	20.64
678.588	20.24
678.912	21.43
679.236	20.74
679.56	20.53
679.885	21.14
680.209	20.9
680.532	20.74
680.856	21.05
681.18	20.9
681.504	21.23
681.828	21.89
682.152	21.39
682.475	21.21
682.799	21.57
683.122	20.94
683.446	21.32
683.769	21.44
684.093	21.96
684.416	21.44
684.739	21.48
685.062	21.06
685.386	20.89
