Data from 0233_chest_Reflection__1__33.txt Node

Date: Fri Oct 20 20:57:01 CDT 2023
User: ToomeyLab
Spectrometer: FLMS14357
Trigger mode: 0
Integration Time (sec): 1.000000E-2
Scans to average: 100
Electric dark correction enabled: true
Nonlinearity correction enabled: false
Boxcar width: 0
XAxis mode: Wavelengths
Number of Pixels in Spectrum: 2048
>>>>>Begin Spectral Data<<<<<
189.047	8.6
189.435	8.6
189.823	8.6
190.211	538.81
190.599	-137.1
190.987	93.57
191.375	103.53
191.763	100.63
192.151	155.25
192.538	140.32
192.926	102.9
193.314	143.9
193.702	47.9
194.089	37.01
194.477	590.85
194.864	65.51
195.252	-438.53
195.639	-57.42
196.027	39.45
196.414	42.92
196.801	903.42
197.189	38.49
197.576	149.39
197.963	51.32
198.351	61.86
198.738	50.16
199.125	61.28
199.512	57.57
199.899	32.49
200.286	26.28
200.673	22.31
201.06	25.15
201.447	8.11
201.833	44.5
202.22	32.9
202.607	62.07
202.994	64.03
203.38	44.88
203.767	59.73
204.154	36.32
204.54	37.83
204.927	20.36
205.313	-36
205.699	58.16
206.086	29.16
206.472	52.46
206.858	52.98
207.245	23.55
207.631	34.34
208.017	25.38
208.403	67.67
208.789	47.33
209.175	5.05
209.561	36.69
209.947	42.99
210.333	14.9
210.719	35.67
211.105	24.5
211.491	1.18
211.876	60.18
212.262	34.36
212.648	45.26
213.034	21.51
213.419	34.3
213.805	1.23
214.19	27.8
214.576	49.07
214.961	30.78
215.346	44.22
215.732	20.26
216.117	-17.1
216.502	33.91
216.888	12.81
217.273	16.68
217.658	13.59
218.043	38.79
218.428	13.67
218.813	28.57
219.198	26.74
219.583	-10.94
219.968	-0.56
220.353	24.13
220.738	23.54
221.122	16.01
221.507	18.63
221.892	24.92
222.276	14.37
222.661	26.5
223.046	17.29
223.43	8.5
223.815	18.62
224.199	11.5
224.583	5.6
224.968	12.98
225.352	11.18
225.736	7.56
226.121	16.11
226.505	9.03
226.889	12.53
227.273	14.83
227.657	13.09
228.041	14.49
228.425	7.43
228.809	9.02
229.193	6.1
229.577	7.39
229.961	5.65
230.344	5.49
230.728	4.82
231.112	6.59
231.495	6.17
231.879	6.39
232.263	7.58
232.646	5.05
233.03	5.45
233.413	5.82
233.797	6
234.18	5.85
234.563	8.8
234.946	8.73
235.33	7.35
235.713	8.67
236.096	7.31
236.479	6
236.862	6.06
237.245	6.36
237.628	6.01
238.011	6.7
238.394	6.85
238.777	6.64
239.16	5.69
239.543	8.94
239.925	9.52
240.308	6.87
240.691	6.62
241.073	7.78
241.456	6.65
241.838	5.59
242.221	7.74
242.603	6.66
242.986	6.23
243.368	6.43
243.75	5.79
244.133	5.68
244.515	5.28
244.897	5.13
245.279	5.35
245.661	4.98
246.043	5.87
246.425	5.21
246.807	6.13
247.189	6.22
247.571	5.27
247.953	5.47
248.335	5.81
248.717	5
249.098	4.79
249.48	4.84
249.862	5.11
250.243	5.34
250.625	4.9
251.006	5.67
251.388	5.44
251.769	6.1
252.151	4.85
252.532	6.14
252.913	5.39
253.295	4.52
253.676	5.01
254.057	4.89
254.438	5.36
254.819	5.7
255.2	5.05
255.581	4.91
255.962	4.95
256.343	5.88
256.724	4.94
257.105	5.99
257.486	6.09
257.867	5.02
258.247	5.31
258.628	6.02
259.009	4.85
259.389	4.91
259.77	4.35
260.15	5.51
260.531	5.26
260.911	4.89
261.292	4.84
261.672	4.89
262.052	4.69
262.432	4.58
262.813	4.65
263.193	5.07
263.573	4.93
263.953	4.68
264.333	5.52
264.713	5.49
265.093	5.64
265.473	4.41
265.853	4.84
266.233	5.26
266.612	5.07
266.992	5.12
267.372	5.49
267.752	4.92
268.131	4.87
268.511	5.13
268.89	4.77
269.27	4.82
269.649	4.32
270.029	5.15
270.408	4.99
270.787	4.56
271.167	4.48
271.546	5.07
271.925	5.55
272.304	5.12
272.683	4.88
273.062	5.49
273.441	5.02
273.82	4.61
274.199	5.25
274.578	4.86
274.957	5.22
275.336	4.71
275.715	5.02
276.093	4.53
276.472	4.85
276.851	4.88
277.229	5.08
277.608	4.97
277.986	4.35
278.365	4.62
278.743	4.51
279.122	4.3
279.5	4.42
279.878	4.2
280.257	4.37
280.635	4.76
281.013	5.14
281.391	4.96
281.769	4.37
282.147	4.68
282.525	4.54
282.903	4.31
283.281	4.74
283.659	4.75
284.037	4.58
284.415	4.01
284.792	4.72
285.17	4.76
285.548	4.09
285.925	3.97
286.303	4.21
286.68	4.46
287.058	4.9
287.435	4.28
287.813	3.82
288.19	4.29
288.567	4.51
288.945	4.85
289.322	4.92
289.699	3.57
290.076	4.61
290.453	4.49
290.83	4.76
291.207	4.84
291.584	3.93
291.961	4.38
292.338	3.85
292.715	4.26
293.092	4.53
293.469	4.63
293.845	3.93
294.222	4.06
294.599	4.49
294.975	5.04
295.352	4.43
295.728	4.29
296.105	4.02
296.481	4.06
296.858	4.36
297.234	4.51
297.61	3.8
297.986	4.11
298.363	4.24
298.739	4.07
299.115	4.26
299.491	4.27
299.867	4.25
300.243	4.03
300.619	4.24
300.995	4.14
301.371	4.6
301.746	4.6
302.122	4.16
302.498	4.28
302.874	4.16
303.249	4.46
303.625	4.69
304	4.95
304.376	3.84
304.751	3.85
305.127	4.14
305.502	4.93
305.878	4.99
306.253	4.19
306.628	4.42
307.003	4.14
307.378	4.15
307.754	4.34
308.129	4.25
308.504	4.66
308.879	4.06
309.254	4.57
309.629	3.94
310.003	3.66
310.378	4.44
310.753	3.63
311.128	4.32
311.502	4.46
311.877	4.39
312.252	4.2
312.626	4.32
313.001	4.08
313.375	4.2
313.75	4.01
314.124	4.04
314.498	4.56
314.873	4.11
315.247	4.12
315.621	4.24
315.995	4.47
316.369	3.62
316.743	4.4
317.117	4.3
317.491	3.87
317.865	4.92
318.239	4.65
318.613	4.77
318.987	4.44
319.361	3.85
319.734	4.22
320.108	4.82
320.482	4.57
320.855	4.47
321.229	4.8
321.602	4.02
321.976	3.88
322.349	4.64
322.723	4.15
323.096	4.78
323.469	4.35
323.843	4.49
324.216	4.07
324.589	4.34
324.962	4.74
325.335	4.84
325.708	3.88
326.081	3.73
326.454	4.37
326.827	4.75
327.2	4.63
327.573	4.64
327.945	3.68
328.318	3.65
328.691	3.92
329.063	4.66
329.436	4.07
329.809	4.58
330.181	4.57
330.553	4.39
330.926	4.35
331.298	4.22
331.671	3.7
332.043	3.88
332.415	4.29
332.787	4.41
333.159	3.82
333.532	4.28
333.904	4.47
334.276	3.55
334.648	4.11
335.02	4.84
335.391	4.25
335.763	4.34
336.135	4.41
336.507	4.83
336.879	4.2
337.25	4.54
337.622	4.7
337.993	4.86
338.365	4.32
338.736	4.26
339.108	3.93
339.479	4.13
339.851	4.4
340.222	4.27
340.593	3.74
340.964	4.07
341.336	4.94
341.707	4.36
342.078	4.29
342.449	3.85
342.82	4.34
343.191	4.11
343.562	4.02
343.933	4.14
344.303	4.4
344.674	4.67
345.045	5.06
345.416	4.64
345.786	4.63
346.157	4.34
346.527	4.37
346.898	4.16
347.268	4.31
347.639	4.48
348.009	4.03
348.38	4.57
348.75	4.34
349.12	3.92
349.49	4.05
349.861	4.55
350.231	4.06
350.601	3.99
350.971	4.67
351.341	4.19
351.711	4.66
352.081	4.42
352.45	3.98
352.82	4.59
353.19	4.46
353.56	4.84
353.929	4.08
354.299	4.27
354.669	4.44
355.038	4.31
355.408	4.66
355.777	4.26
356.147	3.92
356.516	4.12
356.885	4.56
357.254	4.22
357.624	4.45
357.993	3.97
358.362	4.49
358.731	4.22
359.1	4.11
359.469	4
359.838	4.5
360.207	4.22
360.576	4.57
360.945	3.98
361.314	4.26
361.682	4.44
362.051	4.13
362.42	4.1
362.788	4.42
363.157	4.04
363.525	4.12
363.894	4.2
364.262	4.15
364.631	4.34
364.999	4.16
365.367	4.35
365.735	4.04
366.104	4.05
366.472	4.25
366.84	4.33
367.208	4.28
367.576	3.93
367.944	4.52
368.312	4.33
368.68	4.2
369.048	4.12
369.416	4.51
369.783	4.51
370.151	4.12
370.519	4.22
370.886	4.46
371.254	4.38
371.621	4.44
371.989	4.43
372.356	4.37
372.724	4.64
373.091	4.42
373.458	4.07
373.826	4.35
374.193	4.36
374.56	4.37
374.927	4.1
375.294	4.46
375.661	4.45
376.028	4.6
376.395	4.57
376.762	4.15
377.129	4.24
377.496	4.46
377.863	4.88
378.229	4.94
378.596	4.48
378.963	4.2
379.329	4.62
379.696	4.33
380.062	4.4
380.429	4.22
380.795	4.19
381.161	4.64
381.528	4.62
381.894	4.59
382.26	4.27
382.626	4.82
382.993	4.43
383.359	4.28
383.725	4.48
384.091	4.44
384.457	4.34
384.823	4.45
385.188	4.87
385.554	4.36
385.92	4.4
386.286	4.66
386.651	4.29
387.017	4.51
387.383	4.08
387.748	4.01
388.114	4.03
388.479	4.49
388.845	4.56
389.21	4.24
389.575	4.1
389.94	4.38
390.306	4.43
390.671	4.62
391.036	4.51
391.401	4.6
391.766	4.34
392.131	4.51
392.496	4.5
392.861	4.43
393.226	4.47
393.591	4.34
393.956	4.49
394.32	4.39
394.685	4.23
395.05	4.85
395.414	4.44
395.779	4.2
396.143	4.46
396.508	4.28
396.872	4.38
397.236	4.44
397.601	4.77
397.965	4.25
398.329	4.29
398.694	4.49
399.058	4.46
399.422	4.63
399.786	4.63
400.15	4.26
400.514	4.51
400.878	4.45
401.242	4.68
401.605	4.57
401.969	4.26
402.333	4.51
402.697	4.45
403.06	4.45
403.424	4.32
403.787	4.32
404.151	4.44
404.514	4.47
404.878	4.54
405.241	4.65
405.604	4.39
405.968	4.34
406.331	4.24
406.694	4.39
407.057	4.23
407.42	4.59
407.783	4.39
408.146	4.48
408.509	4.29
408.872	4.73
409.235	4.39
409.598	4.7
409.961	4.57
410.323	4.56
410.686	4.25
411.049	4.61
411.411	4.42
411.774	4.59
412.136	4.54
412.499	4.47
412.861	4.61
413.223	4.46
413.586	4.5
413.948	4.7
414.31	4.7
414.672	4.49
415.035	4.45
415.397	4.61
415.759	4.5
416.121	4.49
416.483	4.43
416.845	4.43
417.206	4.5
417.568	4.67
417.93	4.63
418.292	4.3
418.653	4.42
419.015	4.33
419.377	4.44
419.738	4.33
420.1	4.32
420.461	4.43
420.822	4.43
421.184	4.4
421.545	4.39
421.906	4.29
422.267	4.3
422.629	4.45
422.99	4.24
423.351	4.33
423.712	4.31
424.073	4.43
424.434	4.25
424.795	4.28
425.155	4.36
425.516	4.3
425.877	4.29
426.238	4.3
426.598	4.27
426.959	4.33
427.32	4.31
427.68	4.29
428.041	4.33
428.401	4.47
428.761	4.49
429.122	4.44
429.482	4.39
429.842	4.55
430.202	4.33
430.563	4.42
430.923	4.55
431.283	4.68
431.643	4.55
432.003	4.6
432.363	4.45
432.722	4.58
433.082	4.62
433.442	4.41
433.802	4.6
434.161	4.38
434.521	4.52
434.881	4.36
435.24	4.48
435.6	4.33
435.959	4.41
436.319	4.45
436.678	4.45
437.037	4.44
437.396	4.69
437.756	4.5
438.115	4.34
438.474	4.57
438.833	4.71
439.192	4.42
439.551	4.51
439.91	4.56
440.269	4.46
440.628	4.59
440.987	4.57
441.345	4.35
441.704	4.5
442.063	4.38
442.421	4.39
442.78	4.36
443.138	4.53
443.497	4.58
443.855	4.49
444.214	4.47
444.572	4.5
444.93	4.58
445.288	4.62
445.647	4.66
446.005	4.41
446.363	4.44
446.721	4.56
447.079	4.5
447.437	4.46
447.795	4.28
448.153	4.45
448.51	4.46
448.868	4.42
449.226	4.4
449.584	4.52
449.941	4.39
450.299	4.5
450.656	4.38
451.014	4.45
451.371	4.5
451.729	4.6
452.086	4.41
452.443	4.55
452.801	4.46
453.158	4.62
453.515	4.48
453.872	4.62
454.229	4.7
454.586	4.57
454.943	4.5
455.3	4.5
455.657	4.63
456.014	4.37
456.371	4.58
456.727	4.69
457.084	4.53
457.441	4.73
457.797	4.58
458.154	4.45
458.51	4.7
458.867	4.61
459.223	4.71
459.58	4.58
459.936	4.72
460.292	4.46
460.648	4.33
461.005	4.5
461.361	4.42
461.717	4.27
462.073	4.48
462.429	4.56
462.785	4.53
463.141	4.59
463.496	4.41
463.852	4.59
464.208	4.66
464.564	4.6
464.919	4.66
465.275	4.78
465.631	4.64
465.986	4.52
466.342	4.56
466.697	4.53
467.052	4.64
467.408	4.58
467.763	4.75
468.118	4.91
468.473	4.59
468.829	4.55
469.184	4.73
469.539	4.54
469.894	4.6
470.249	4.65
470.603	4.46
470.958	4.61
471.313	4.79
471.668	4.62
472.023	4.61
472.377	4.59
472.732	4.67
473.086	4.72
473.441	4.88
473.795	4.81
474.15	4.68
474.504	4.56
474.859	4.7
475.213	4.65
475.567	4.64
475.921	4.72
476.275	4.59
476.63	4.84
476.984	4.82
477.338	4.51
477.692	4.75
478.045	4.69
478.399	4.66
478.753	4.63
479.107	4.66
479.461	4.72
479.814	4.8
480.168	4.7
480.521	4.68
480.875	4.69
481.228	4.59
481.582	4.76
481.935	4.65
482.289	4.64
482.642	4.68
482.995	4.59
483.348	4.71
483.701	4.67
484.055	4.63
484.408	4.43
484.761	4.52
485.114	4.48
485.466	4.39
485.819	4.28
486.172	4.22
486.525	4.27
486.878	4.36
487.23	4.37
487.583	4.46
487.936	4.47
488.288	4.45
488.641	4.54
488.993	4.41
489.345	4.47
489.698	4.41
490.05	4.36
490.402	4.37
490.754	4.41
491.107	4.43
491.459	4.51
491.811	4.52
492.163	4.47
492.515	4.59
492.866	4.59
493.218	4.49
493.57	4.43
493.922	4.43
494.274	4.45
494.625	4.49
494.977	4.51
495.328	4.6
495.68	4.61
496.031	4.54
496.383	4.68
496.734	4.56
497.086	4.7
497.437	4.61
497.788	4.7
498.139	4.71
498.49	4.75
498.842	4.66
499.193	4.72
499.544	4.78
499.894	4.61
500.245	4.72
500.596	4.69
500.947	4.63
501.298	4.71
501.648	4.78
501.999	4.76
502.35	4.74
502.7	4.77
503.051	4.8
503.401	4.73
503.752	4.7
504.102	4.87
504.452	4.82
504.803	4.79
505.153	4.79
505.503	4.86
505.853	4.87
506.203	4.61
506.553	4.64
506.903	4.64
507.253	4.78
507.603	4.76
507.953	4.89
508.303	4.64
508.652	4.85
509.002	4.84
509.352	4.83
509.701	4.78
510.051	4.71
510.4	4.77
510.75	4.83
511.099	4.8
511.449	4.78
511.798	4.71
512.147	4.79
512.496	4.74
512.846	4.84
513.195	4.93
513.544	4.89
513.893	4.71
514.242	4.81
514.591	4.8
514.939	4.71
515.288	4.71
515.637	4.83
515.986	4.85
516.334	4.85
516.683	4.8
517.032	4.66
517.38	4.92
517.729	4.94
518.077	4.88
518.426	4.81
518.774	4.76
519.122	4.8
519.47	4.81
519.819	4.77
520.167	4.78
520.515	4.75
520.863	4.74
521.211	4.73
521.559	4.82
521.907	4.75
522.255	4.8
522.602	4.91
522.95	4.85
523.298	4.93
523.645	4.81
523.993	4.83
524.341	4.91
524.688	4.92
525.036	4.95
525.383	4.88
525.73	4.97
526.078	5
526.425	4.97
526.772	4.86
527.119	4.83
527.466	4.78
527.814	4.79
528.161	4.82
528.508	4.76
528.854	4.84
529.201	4.69
529.548	4.83
529.895	4.76
530.242	4.69
530.588	4.61
530.935	4.61
531.282	4.66
531.628	4.69
531.975	4.72
532.321	4.8
532.667	4.83
533.014	4.86
533.36	4.94
533.706	4.9
534.052	4.9
534.399	4.86
534.745	4.8
535.091	4.86
535.437	4.81
535.783	4.9
536.129	4.92
536.474	4.94
536.82	4.94
537.166	4.93
537.512	5.03
537.857	5.16
538.203	5.04
538.549	5.16
538.894	4.95
539.239	4.97
539.585	5.02
539.93	5.04
540.276	5.18
540.621	5.14
540.966	5.1
541.311	5.17
541.656	5.12
542.001	5.13
542.346	5.16
542.691	5.11
543.036	5.04
543.381	4.93
543.726	4.9
544.071	4.86
544.415	4.97
544.76	5.01
545.105	5.15
545.449	5.05
545.794	5.16
546.138	5.12
546.483	5.14
546.827	5.18
547.171	5.32
547.516	5.15
547.86	5.38
548.204	5.04
548.548	5.23
548.892	5.14
549.236	5.22
549.58	5.2
549.924	5.22
550.268	5.31
550.612	5.34
550.956	5.54
551.3	5.4
551.643	5.32
551.987	5.67
552.33	5.46
552.674	5.45
553.017	5.37
553.361	5.43
553.704	5.5
554.048	5.45
554.391	5.53
554.734	5.43
555.077	5.4
555.42	5.24
555.764	5.25
556.107	5.58
556.45	5.45
556.793	5.41
557.135	5.49
557.478	5.41
557.821	5.69
558.164	5.89
558.507	5.77
558.849	5.61
559.192	5.51
559.534	5.83
559.877	5.42
560.219	5.76
560.562	5.75
560.904	5.65
561.246	5.81
561.589	5.66
561.931	5.68
562.273	5.86
562.615	6.04
562.957	5.8
563.299	5.7
563.641	5.78
563.983	5.54
564.325	5.68
564.667	5.8
565.008	5.65
565.35	5.79
565.692	5.87
566.033	5.86
566.375	5.96
566.716	5.93
567.058	5.76
567.399	5.87
567.741	5.77
568.082	5.87
568.423	5.89
568.764	5.75
569.105	6.03
569.447	5.87
569.788	5.87
570.129	5.87
570.47	5.85
570.811	6.08
571.151	5.69
571.492	6.15
571.833	6.23
572.174	6.23
572.514	6.11
572.855	6.1
573.195	6.08
573.536	5.93
573.876	6.02
574.217	6.1
574.557	6.14
574.898	5.82
575.238	5.94
575.578	6.13
575.918	6.08
576.258	6.24
576.598	6.29
576.938	6.2
577.278	6.13
577.618	6.02
577.958	6.14
578.298	6.28
578.638	6.17
578.977	6.41
579.317	6.12
579.657	6.22
579.996	6.56
580.336	6.3
580.675	6.43
581.014	6.38
581.354	6.24
581.693	6.58
582.032	6.51
582.372	6.41
582.711	6.51
583.05	6.68
583.389	6.44
583.728	6.5
584.067	6.57
584.406	6.59
584.745	6.5
585.083	6.62
585.422	6.46
585.761	6.78
586.1	6.68
586.438	6.37
586.777	6.55
587.115	6.79
587.454	6.69
587.792	6.71
588.13	7
588.469	6.63
588.807	6.36
589.145	6.92
589.483	6.75
589.821	6.75
590.159	6.82
590.497	6.92
590.835	6.87
591.173	6.8
591.511	6.92
591.849	6.81
592.187	6.9
592.524	6.68
592.862	6.96
593.2	6.98
593.537	6.95
593.875	6.88
594.212	7.16
594.55	7.05
594.887	7.17
595.224	6.89
595.561	6.99
595.899	6.97
596.236	7.16
596.573	7.13
596.91	7.07
597.247	7.01
597.584	6.9
597.921	7.12
598.258	7.27
598.594	7.4
598.931	6.98
599.268	7.08
599.604	7.08
599.941	7.13
600.277	7.17
600.614	7.21
600.95	7.23
601.287	7.29
601.623	7.51
601.959	7.49
602.296	7.45
602.632	7.51
602.968	7.16
603.304	7.69
603.64	7.43
603.976	7.45
604.312	7.54
604.648	7.6
604.984	7.58
605.319	7.45
605.655	7.29
605.991	7.44
606.326	7.44
606.662	7.35
606.998	7.5
607.333	7.43
607.668	7.3
608.004	7.59
608.339	7.55
608.674	7.77
609.01	7.79
609.345	7.93
609.68	7.81
610.015	7.6
610.35	8.2
610.685	8.05
611.02	7.99
611.355	7.7
611.689	7.79
612.024	8.03
612.359	8.06
612.694	7.91
613.028	7.86
613.363	8.02
613.697	7.93
614.032	8.08
614.366	8.14
614.7	8.14
615.035	8.21
615.369	8.21
615.703	7.95
616.037	8.45
616.371	8.16
616.705	8.31
617.039	8.32
617.373	8.16
617.707	8.17
618.041	8.39
618.375	7.95
618.709	8.41
619.042	8.69
619.376	8.57
619.71	8.48
620.043	8.39
620.377	8.35
620.71	8.54
621.043	8.33
621.377	8.78
621.71	8.66
622.043	8.34
622.376	8.78
622.709	8.53
623.043	8.82
623.376	8.52
623.709	8.57
624.041	8.93
624.374	9.05
624.707	8.3
625.04	8.57
625.373	9.23
625.705	8.56
626.038	8.99
626.37	8.33
626.703	8.64
627.035	8.77
627.368	8.85
627.7	8.99
628.032	8.88
628.365	9.01
628.697	8.98
629.029	9.08
629.361	8.97
629.693	8.57
630.025	8.99
630.357	8.95
630.689	8.93
631.021	9.43
631.353	9.02
631.684	9.05
632.016	9.34
632.348	8.9
632.679	8.94
633.011	9.09
633.342	8.78
633.674	9.17
634.005	9.34
634.336	9.39
634.668	9.48
634.999	9
635.33	9.31
635.661	9.49
635.992	9.27
636.323	9.5
636.654	9.36
636.985	9.14
637.316	9.8
637.647	9.07
637.977	9.13
638.308	9.78
638.639	9.63
638.969	9.48
639.3	9.54
639.63	9.24
639.961	9.39
640.291	9.45
640.622	9.6
640.952	10.01
641.282	9.49
641.612	9.74
641.943	9.61
642.273	9.66
642.603	9.62
642.933	9.61
643.263	10.29
643.592	9.49
643.922	10.08
644.252	10.06
644.582	9.87
644.911	9.73
645.241	10.6
645.571	10.52
645.9	9.68
646.23	10.1
646.559	9.82
646.888	10.18
647.218	10.03
647.547	9.9
647.876	10.25
648.205	10.22
648.534	10.29
648.863	10.36
649.192	10.19
649.521	10.17
649.85	10.56
650.179	10.28
650.508	10.24
650.837	10.38
651.165	10.59
651.494	10
651.822	10.6
652.151	10.46
652.479	10.64
652.808	10.61
653.136	10.34
653.465	11
653.793	10.57
654.121	10.83
654.449	10.38
654.777	10.73
655.105	10.48
655.433	10.91
655.761	10.77
656.089	11
656.417	11.27
656.745	10.75
657.073	10.61
657.4	11.95
657.728	11.36
658.056	11.01
658.383	11.19
658.711	10.64
659.038	11.11
659.365	11.36
659.693	11.06
660.02	10.95
660.347	10.88
660.674	10.76
661.001	11.26
661.329	11.28
661.656	11.2
661.982	11.3
662.309	11.22
662.636	11.14
662.963	11.08
663.29	11.07
663.616	11.27
663.943	10.8
664.27	11.42
664.596	11.6
664.923	11.27
665.249	10.99
665.576	10.71
665.902	11.18
666.228	11.38
666.554	11.83
666.881	11.26
667.207	11.47
667.533	11.64
667.859	11.7
668.185	11.39
668.511	12.03
668.837	12.09
669.162	11.51
669.488	11.89
669.814	11.29
670.139	12.05
670.465	11.54
670.791	11.7
671.116	12.34
671.442	12.36
671.767	12.08
672.092	12.22
672.418	11.68
672.743	11.72
673.068	12.34
673.393	11.68
673.718	11.65
674.043	12.3
674.368	12.23
674.693	12.8
675.018	12.12
675.343	12.04
675.667	12.3
675.992	12.57
676.317	12.4
676.641	12.7
676.966	12.11
677.29	12.46
677.615	12.76
677.939	12.46
678.264	12.19
678.588	12.29
678.912	12.66
679.236	12.41
679.56	12.4
679.885	12.18
680.209	12.28
680.532	11.95
680.856	12.61
681.18	12.56
681.504	12.23
681.828	13.17
682.152	12.6
682.475	12.18
682.799	12.96
683.122	12.25
683.446	12.78
683.769	12.9
684.093	13.36
684.416	12.71
684.739	12.38
685.062	12.22
685.386	12.19
685.709	13.06
686.032	13.12
686.355	13.06
686.678	12.56
687.001	12.94
687.324	12.61
687.646	13.28
687.969	13.19
688.292	13.34
688.614	12.31
688.937	13.12
689.26	12.68
689.582	12.17
689.904	12.47
