Data from 0233_forehead_Reflection__3__45.txt Node

Date: Fri Oct 20 21:00:50 CDT 2023
User: ToomeyLab
Spectrometer: FLMS14357
Trigger mode: 0
Integration Time (sec): 1.000000E-2
Scans to average: 100
Electric dark correction enabled: true
Nonlinearity correction enabled: false
Boxcar width: 0
XAxis mode: Wavelengths
Number of Pixels in Spectrum: 2048
>>>>>Begin Spectral Data<<<<<
189.047	1.97
189.435	1.97
189.823	1.97
190.211	94.19
190.599	-172.89
190.987	66.03
191.375	204.51
191.763	73.73
192.151	134.69
192.538	-282.95
192.926	228.15
193.314	265.24
193.702	163.56
194.089	86.11
194.477	-173.21
194.864	54.49
195.252	-676.83
195.639	26.83
196.027	-53.52
196.414	3.25
196.801	856.48
197.189	28.92
197.576	44.41
197.963	-69.74
198.351	87.18
198.738	45.95
199.125	74.03
199.512	73.62
199.899	55.25
200.286	27.31
200.673	51.08
201.06	52.3
201.447	31.37
201.833	101.09
202.22	53.9
202.607	38.44
202.994	81.34
203.38	54.2
203.767	56.37
204.154	30.22
204.54	62.05
204.927	40.07
205.313	49.62
205.699	49.25
206.086	44.18
206.472	70.42
206.858	48.32
207.245	3.63
207.631	38.81
208.017	51.87
208.403	10.08
208.789	51.98
209.175	-11.11
209.561	42.01
209.947	22.88
210.333	52.71
210.719	33.8
211.105	40.1
211.491	55.65
211.876	14.11
212.262	41.42
212.648	35.8
213.034	41.12
213.419	39.24
213.805	51.05
214.19	40.39
214.576	34.98
214.961	53
215.346	44.74
215.732	30.78
216.117	-1.34
216.502	33.83
216.888	41.36
217.273	27.07
217.658	31.47
218.043	26.54
218.428	9.26
218.813	18.54
219.198	2.79
219.583	20.23
219.968	-7.28
220.353	35.89
220.738	28.02
221.122	11.52
221.507	17.33
221.892	19.15
222.276	13.55
222.661	30.37
223.046	18.19
223.43	24.6
223.815	27.19
224.199	27.86
224.583	-3.01
224.968	15.81
225.352	8.41
225.736	16.35
226.121	12.97
226.505	2.98
226.889	13.25
227.273	8.03
227.657	13.18
228.041	17.41
228.425	13.42
228.809	11.12
229.193	8.06
229.577	7.85
229.961	4.98
230.344	4.89
230.728	3.23
231.112	4.72
231.495	3.8
231.879	5.25
232.263	5.77
232.646	3.4
233.03	3.49
233.413	4.77
233.797	5.04
234.18	6.06
234.563	5.61
234.946	7.3
235.33	7.88
235.713	6.53
236.096	6.19
236.479	5.6
236.862	5.49
237.245	3.73
237.628	4.99
238.011	5.89
238.394	5.91
238.777	5.5
239.16	6.96
239.543	7.21
239.925	8.06
240.308	5.01
240.691	5.55
241.073	5.66
241.456	4.44
241.838	5.68
242.221	5.06
242.603	5.26
242.986	5.15
243.368	4.61
243.75	4.32
244.133	3.56
244.515	3.69
244.897	4.05
245.279	3.82
245.661	3.84
246.043	3.98
246.425	4.24
246.807	4.96
247.189	4.42
247.571	4.47
247.953	3.47
248.335	4.17
248.717	3.36
249.098	3.52
249.48	3.5
249.862	3.73
250.243	3.95
250.625	3.96
251.006	4.26
251.388	4.4
251.769	4.39
252.151	4.52
252.532	4.7
252.913	4.46
253.295	3.24
253.676	3.78
254.057	3.97
254.438	3.61
254.819	4.34
255.2	4.32
255.581	4.64
255.962	5.23
256.343	4.71
256.724	4.54
257.105	4.55
257.486	5.2
257.867	4.66
258.247	4.55
258.628	5.12
259.009	3.76
259.389	4.01
259.77	3.76
260.15	4.34
260.531	4.52
260.911	4.33
261.292	3.72
261.672	3.74
262.052	3.82
262.432	3.57
262.813	3.94
263.193	4.22
263.573	3.94
263.953	4.17
264.333	4.75
264.713	4.37
265.093	4.76
265.473	5
265.853	4.79
266.233	5.01
266.612	4.47
266.992	4.73
267.372	3.69
267.752	4.04
268.131	3.77
268.511	4.07
268.89	4.37
269.27	3.93
269.649	3.59
270.029	4.06
270.408	4.34
270.787	3.98
271.167	4.22
271.546	4.63
271.925	4.68
272.304	4.11
272.683	4.45
273.062	4.75
273.441	3.91
273.82	3.93
274.199	4.35
274.578	4.19
274.957	4.1
275.336	4.11
275.715	4.27
276.093	3.71
276.472	4
276.851	4.32
277.229	4.27
277.608	3.52
277.986	3.56
278.365	4.98
278.743	3.82
279.122	3.87
279.5	3.83
279.878	3.91
280.257	4.23
280.635	3.99
281.013	4.24
281.391	4.53
281.769	3.81
282.147	3.75
282.525	3.99
282.903	3.71
283.281	4.08
283.659	4.29
284.037	3.97
284.415	3.34
284.792	3.67
285.17	4.4
285.548	3.78
285.925	3.96
286.303	3.61
286.68	3.55
287.058	4.34
287.435	4.03
287.813	3.12
288.19	3.83
288.567	3.71
288.945	4.31
289.322	4.47
289.699	3.89
290.076	4.65
290.453	4.03
290.83	4.05
291.207	4.52
291.584	3.84
291.961	4.47
292.338	4.16
292.715	4.48
293.092	3.94
293.469	4.47
293.845	4.18
294.222	3.91
294.599	4.55
294.975	5.11
295.352	4.39
295.728	4.71
296.105	4.09
296.481	4.04
296.858	4.39
297.234	4.48
297.61	4.03
297.986	4.48
298.363	4.61
298.739	4.64
299.115	4.36
299.491	4.54
299.867	4.34
300.243	4.48
300.619	4.61
300.995	4.65
301.371	5.31
301.746	4.59
302.122	4.67
302.498	4.97
302.874	4.64
303.249	4.88
303.625	5.1
304	5.37
304.376	4.8
304.751	4.4
305.127	4.9
305.502	5.35
305.878	5.61
306.253	5.33
306.628	5.68
307.003	5.17
307.378	5.33
307.754	5.04
308.129	5.98
308.504	5.43
308.879	6.06
309.254	5.6
309.629	5.3
310.003	4.95
310.378	6.04
310.753	5.61
311.128	5.69
311.502	5.78
311.877	5.65
312.252	5.21
312.626	5.94
313.001	6.05
313.375	5.96
313.75	5.83
314.124	6.03
314.498	6.28
314.873	6.11
315.247	6.1
315.621	6.31
315.995	6.78
316.369	6.56
316.743	6.74
317.117	6.43
317.491	5.74
317.865	6.9
318.239	6.92
318.613	7.08
318.987	6.87
319.361	6.57
319.734	6.34
320.108	6.49
320.482	6.9
320.855	7.1
321.229	7.62
321.602	7.17
321.976	6.85
322.349	7.19
322.723	7.31
323.096	7.88
323.469	7.96
323.843	7.88
324.216	7.74
324.589	7.32
324.962	8.05
325.335	7.5
325.708	7.55
326.081	7.55
326.454	7.67
326.827	8.34
327.2	8.09
327.573	8.46
327.945	8.23
328.318	7.62
328.691	8
329.063	8.36
329.436	8.36
329.809	7.86
330.181	8.71
330.553	8.52
330.926	8.55
331.298	8.11
331.671	7.97
332.043	8.54
332.415	8.3
332.787	9.12
333.159	8.33
333.532	8.95
333.904	9.06
334.276	8.66
334.648	8.52
335.02	8.86
335.391	8.86
335.763	9.6
336.135	8.9
336.507	9.32
336.879	8.7
337.25	9.24
337.622	9.81
337.993	9.58
338.365	8.98
338.736	9.45
339.108	9.47
339.479	9.35
339.851	9.3
340.222	9.27
340.593	9.27
340.964	9.46
341.336	9.42
341.707	9.63
342.078	9.93
342.449	9.84
342.82	9.72
343.191	9.48
343.562	10.03
343.933	9.8
344.303	9.92
344.674	10.54
345.045	10.27
345.416	10.32
345.786	9.83
346.157	9.63
346.527	9.8
346.898	10.25
347.268	10.4
347.639	10.47
348.009	10.11
348.38	10.55
348.75	10.59
349.12	10.51
349.49	10.49
349.861	10.54
350.231	10.94
350.601	10.48
350.971	11.13
351.341	11.16
351.711	11.86
352.081	10.88
352.45	10.87
352.82	10.81
353.19	11.62
353.56	11.38
353.929	11.08
354.299	11.02
354.669	11.34
355.038	11.58
355.408	11.6
355.777	11.18
356.147	11.15
356.516	11.02
356.885	11.35
357.254	11.46
357.624	11.35
357.993	11.47
358.362	11.28
358.731	11.24
359.1	10.8
359.469	11.39
359.838	11.31
360.207	11.72
360.576	11.92
360.945	11.43
361.314	11.38
361.682	11.75
362.051	11.69
362.42	11.76
362.788	12.02
363.157	11.81
363.525	11.69
363.894	11.93
364.262	11.92
364.631	12.29
364.999	12.19
365.367	12.23
365.735	11.88
366.104	12.35
366.472	12.09
366.84	12.79
367.208	12.46
367.576	12.21
367.944	12.86
368.312	12.38
368.68	12.92
369.048	12.88
369.416	12.93
369.783	13.21
370.151	12.62
370.519	13.01
370.886	12.86
371.254	13.12
371.621	13.2
371.989	12.93
372.356	13.32
372.724	13.22
373.091	13.22
373.458	13.06
373.826	13.29
374.193	12.76
374.56	13.01
374.927	13.38
375.294	13.68
375.661	13.67
376.028	13.72
376.395	13.57
376.762	13.41
377.129	13.86
377.496	13.82
377.863	14.13
378.229	13.92
378.596	13.98
378.963	13.93
379.329	13.92
379.696	13.98
380.062	14.01
380.429	13.91
380.795	13.52
381.161	14.35
381.528	14.05
381.894	14.59
382.26	14.35
382.626	14.8
382.993	14.49
383.359	14.44
383.725	14.82
384.091	14.53
384.457	15.06
384.823	14.6
385.188	15.13
385.554	14.82
385.92	14.8
386.286	15.19
386.651	14.57
387.017	14.85
387.383	14.95
387.748	14.76
388.114	15.03
388.479	15
388.845	15.17
389.21	14.88
389.575	15.16
389.94	15.29
390.306	15.34
390.671	15.06
391.036	15.86
391.401	15.68
391.766	15.4
392.131	15.46
392.496	15.79
392.861	15.61
393.226	15.86
393.591	15.5
393.956	15.77
394.32	15.95
394.685	15.91
395.05	15.86
395.414	16.18
395.779	15.94
396.143	16.07
396.508	15.93
396.872	16.23
397.236	16.23
397.601	16.28
397.965	16.09
398.329	16.25
398.694	16.4
399.058	16.37
399.422	16.47
399.786	16.54
400.15	16.42
400.514	16.49
400.878	17.01
401.242	17.01
401.605	17.05
401.969	16.55
402.333	16.74
402.697	16.82
403.06	17.14
403.424	16.89
403.787	17.29
404.151	17.35
404.514	17.21
404.878	17.1
405.241	17.12
405.604	17.13
405.968	17.3
406.331	17.31
406.694	17.2
407.057	17.14
407.42	17.61
407.783	17.26
408.146	17.49
408.509	17.57
408.872	18
409.235	17.62
409.598	17.58
409.961	17.95
410.323	17.84
410.686	18.04
411.049	18.02
411.411	18.08
411.774	17.95
412.136	18.07
412.499	17.98
412.861	18.12
413.223	18.18
413.586	18.23
413.948	18.48
414.31	18.58
414.672	18.45
415.035	18.21
415.397	18.41
415.759	18.67
416.121	18.46
416.483	18.62
416.845	18.64
417.206	19.01
417.568	19
417.93	18.67
418.292	18.74
418.653	18.87
419.015	18.71
419.377	18.7
419.738	18.86
420.1	18.75
420.461	18.88
420.822	18.71
421.184	18.9
421.545	18.83
421.906	18.85
422.267	18.94
422.629	18.99
422.99	18.88
423.351	18.84
423.712	18.88
424.073	18.93
424.434	19.04
424.795	19.17
425.155	19.3
425.516	19.16
425.877	19.14
426.238	19.16
426.598	19.25
426.959	19.28
427.32	19.44
427.68	19.52
428.041	19.72
428.401	19.79
428.761	19.9
429.122	19.99
429.482	20.11
429.842	20.04
430.202	20.33
430.563	20.28
430.923	20.46
431.283	20.56
431.643	20.55
432.003	20.63
432.363	20.77
432.722	20.66
433.082	20.66
433.442	20.85
433.802	20.9
434.161	20.78
434.521	20.71
434.881	20.64
435.24	20.76
435.6	20.77
435.959	20.71
436.319	20.94
436.678	20.91
437.037	20.94
437.396	21.39
437.756	21.27
438.115	21.2
438.474	21.32
438.833	21.45
439.192	21.48
439.551	21.57
439.91	21.53
440.269	21.56
440.628	21.71
440.987	21.3
441.345	21.49
441.704	21.43
442.063	21.45
442.421	21.44
442.78	21.54
443.138	21.76
443.497	21.76
443.855	21.64
444.214	21.9
444.572	22.03
444.93	22.09
445.288	22.3
445.647	22.33
446.005	22.28
446.363	22.17
446.721	22.33
447.079	22.3
447.437	22.29
447.795	22.1
448.153	22.03
448.51	22.07
448.868	22.16
449.226	21.94
449.584	22.08
449.941	22.4
450.299	22.53
450.656	22.56
451.014	22.86
451.371	22.81
451.729	22.98
452.086	23.17
452.443	23.07
452.801	23.14
453.158	23.45
453.515	23.23
453.872	23.31
454.229	23.55
454.586	23.29
454.943	23.34
455.3	23.28
455.657	23.44
456.014	23.56
456.371	23.52
456.727	23.64
457.084	23.63
457.441	23.82
457.797	23.98
458.154	23.74
458.51	23.98
458.867	23.99
459.223	24.01
459.58	23.91
459.936	24.06
460.292	23.89
460.648	23.96
461.005	23.8
461.361	23.82
461.717	23.65
462.073	23.74
462.429	23.86
462.785	23.79
463.141	24.15
463.496	24.28
463.852	24.59
464.208	24.53
464.564	24.82
464.919	24.55
465.275	24.95
465.631	25.01
465.986	25.08
466.342	24.92
466.697	25.16
467.052	24.94
467.408	24.95
467.763	25.15
468.118	25.35
468.473	25.22
468.829	25.22
469.184	25.32
469.539	25.32
469.894	25.37
470.249	25.49
470.603	25.36
470.958	25.62
471.313	25.81
471.668	25.72
472.023	25.74
472.377	25.77
472.732	25.65
473.086	25.88
473.441	25.82
473.795	26.22
474.15	25.86
474.504	25.74
474.859	25.97
475.213	26.25
475.567	26.19
475.921	26.1
476.275	26.22
476.63	26.4
476.984	26.55
477.338	26.38
477.692	26.51
478.045	26.31
478.399	26.42
478.753	26.6
479.107	26.38
479.461	26.43
479.814	26.61
480.168	26.68
480.521	26.74
480.875	26.64
481.228	26.57
481.582	26.91
481.935	26.82
482.289	26.83
482.642	26.88
482.995	26.82
483.348	26.88
483.701	26.72
484.055	26.79
484.408	26.7
484.761	26.56
485.114	26.36
485.466	26.01
485.819	25.77
486.172	25.84
486.525	26.05
486.878	26.1
487.23	26.36
487.583	26.61
487.936	26.7
488.288	26.88
488.641	26.87
488.993	26.61
489.345	26.67
489.698	26.59
490.05	26.58
490.402	26.6
490.754	26.8
491.107	27.04
491.459	27.17
491.811	27.48
492.163	27.72
492.515	27.64
492.866	27.72
493.218	27.36
493.57	27.08
493.922	27.09
494.274	27.32
494.625	27.43
494.977	27.69
495.328	27.91
495.68	28.08
496.031	28.19
496.383	28.58
496.734	28.74
497.086	28.75
497.437	28.74
497.788	28.67
498.139	28.74
498.49	28.49
498.842	28.51
499.193	28.6
499.544	28.5
499.894	28.71
500.245	28.89
500.596	28.82
500.947	28.96
501.298	29.09
501.648	29.02
501.999	29.25
502.35	29.3
502.7	29.49
503.051	29.48
503.401	29.49
503.752	29.51
504.102	29.86
504.452	29.78
504.803	29.81
505.153	29.87
505.503	29.73
505.853	30.01
506.203	29.7
506.553	29.57
506.903	29.94
507.253	29.83
507.603	30.1
507.953	29.98
508.303	30.07
508.652	30.12
509.002	30.09
509.352	30.26
509.701	30.15
510.051	30.16
510.4	30.09
510.75	30.09
511.099	30.18
511.449	30.13
511.798	30.34
512.147	30.3
512.496	30.43
512.846	30.58
513.195	30.62
513.544	30.61
513.893	30.53
514.242	30.77
514.591	30.58
514.939	30.64
515.288	30.85
515.637	30.82
515.986	31.05
516.334	30.96
516.683	30.99
517.032	30.99
517.38	30.95
517.729	31.31
518.077	31.5
518.426	31.39
518.774	31.32
519.122	31.24
519.47	31.26
519.819	31.15
520.167	31.08
520.515	30.86
520.863	30.91
521.211	31.16
521.559	31.05
521.907	31.31
522.255	31.24
522.602	31.43
522.95	31.52
523.298	31.89
523.645	31.95
523.993	31.87
524.341	32.03
524.688	32.08
525.036	32.19
525.383	31.96
525.73	32.24
526.078	32.2
526.425	32.23
526.772	32.18
527.119	32.02
527.466	31.62
527.814	31.83
528.161	31.85
528.508	31.79
528.854	31.89
529.201	31.94
529.548	31.95
529.895	32.01
530.242	31.55
530.588	31.31
530.935	31.43
531.282	31.51
531.628	31.62
531.975	31.7
532.321	31.91
532.667	32.23
533.014	32.45
533.36	32.6
533.706	32.59
534.052	32.76
534.399	32.66
534.745	32.48
535.091	32.37
535.437	32.33
535.783	32.45
536.129	32.56
536.474	32.6
536.82	32.77
537.166	32.93
537.512	33.15
537.857	33.3
538.203	33.29
538.549	33.34
538.894	33.13
539.239	33.16
539.585	33.16
539.93	33.45
540.276	33.76
540.621	33.9
540.966	34
541.311	34.16
541.656	34.14
542.001	34.16
542.346	34.07
542.691	33.85
543.036	33.32
543.381	33.1
543.726	33.21
544.071	33.25
544.415	33.43
544.76	33.59
545.105	33.84
545.449	33.63
545.794	34.12
546.138	33.96
546.483	34.12
546.827	34.43
547.171	34.46
547.516	34.54
547.86	34.67
548.204	34.56
548.548	34.65
548.892	34.5
549.236	34.56
549.58	34.67
549.924	34.77
550.268	35
550.612	35.12
550.956	35.36
551.3	35.43
551.643	35.48
551.987	35.47
552.33	35.7
552.674	35.66
553.017	35.65
553.361	35.72
553.704	35.77
554.048	35.68
554.391	35.83
554.734	35.55
555.077	35.47
555.42	35.64
555.764	35.85
556.107	36.09
556.45	36.16
556.793	35.83
557.135	36.25
557.478	36.31
557.821	36.41
558.164	36.58
558.507	36.28
558.849	36.63
559.192	36.49
559.534	36.64
559.877	36.47
560.219	36.68
560.562	36.71
560.904	36.62
561.246	36.74
561.589	36.57
561.931	37.13
562.273	37.02
562.615	36.91
562.957	36.83
563.299	37.03
563.641	37.16
563.983	37.07
564.325	37.08
564.667	37.25
565.008	37.37
565.35	37.24
565.692	37.13
566.033	37.3
566.375	37.4
566.716	37.4
567.058	37.53
567.399	37.58
567.741	37.41
568.082	37.25
568.423	37.16
568.764	37.47
569.105	37.48
569.447	37.53
569.788	37.46
570.129	37.62
570.47	37.87
570.811	37.84
571.151	37.72
571.492	38.05
571.833	38.22
572.174	37.87
572.514	38.44
572.855	37.94
573.195	37.96
573.536	37.85
573.876	37.9
574.217	37.96
574.557	37.95
574.898	37.86
575.238	38.05
575.578	38.31
575.918	38.15
576.258	38.13
576.598	38.5
576.938	38.39
577.278	38.35
577.618	38.26
577.958	38.4
578.298	38.64
578.638	38.65
578.977	38.73
579.317	39.02
579.657	38.98
579.996	39.15
580.336	39.05
580.675	39.16
581.014	39.23
581.354	39.49
581.693	39.42
582.032	39.58
582.372	39.53
582.711	39.67
583.05	39.89
583.389	39.57
583.728	39.82
584.067	39.59
584.406	39.5
584.745	39.68
585.083	39.64
585.422	39.62
585.761	39.93
586.1	40.11
586.438	40.04
586.777	39.81
587.115	40.33
587.454	40.07
587.792	39.96
588.13	39.98
588.469	40.19
588.807	40
589.145	39.99
589.483	40.13
589.821	40.64
590.159	40.64
590.497	40.34
590.835	40.4
591.173	40.3
591.511	40.24
591.849	40.26
592.187	40.63
592.524	40.23
592.862	40.48
593.2	40.81
593.537	40.67
593.875	40.6
594.212	40.95
594.55	40.98
594.887	40.53
595.224	40.81
595.561	40.81
595.899	41.04
596.236	40.93
596.573	41.22
596.91	41
597.247	41.19
597.584	40.77
597.921	41.13
598.258	40.84
598.594	41.17
598.931	40.74
599.268	40.93
599.604	41
599.941	41.07
600.277	41.2
600.614	41.33
600.95	41.12
601.287	41.44
601.623	41.84
601.959	41.62
602.296	41.72
602.632	42.1
602.968	41.61
603.304	41.76
603.64	41.93
603.976	41.92
604.312	41.69
604.648	42.1
604.984	41.76
605.319	41.65
605.655	41.99
605.991	41.85
606.326	41.63
606.662	41.56
606.998	41.56
607.333	41.73
607.668	41.63
608.004	41.99
608.339	41.81
608.674	42.11
609.01	42.35
609.345	42.66
609.68	42.87
610.015	42.82
610.35	42.4
610.685	42.55
611.02	42.46
611.355	42.41
611.689	42.48
612.024	42.34
612.359	42.61
612.694	42.69
613.028	42.8
613.363	42.91
613.697	42.84
614.032	43.01
614.366	42.87
614.7	42.99
615.035	42.9
615.369	43.05
615.703	42.96
616.037	43.35
616.371	43.53
616.705	43.41
617.039	43.74
617.373	43.28
617.707	43.49
618.041	43.47
618.375	43.64
618.709	43.6
619.042	43.79
619.376	43.75
619.71	43.48
620.043	43.98
620.377	43.68
620.71	43.75
621.043	43.69
621.377	43.62
621.71	43.62
622.043	43.25
622.376	44.16
622.709	44.47
623.043	44.11
623.376	43.67
623.709	44.1
624.041	44.45
624.374	44.67
624.707	44.31
625.04	44.34
625.373	44.5
625.705	44.4
626.038	44.55
626.37	44.04
626.703	44.76
627.035	44.26
627.368	44.38
627.7	44.8
628.032	44.56
628.365	44.61
628.697	44.25
629.029	44.49
629.361	44.53
629.693	44.75
630.025	44.6
630.357	44.99
630.689	44.9
631.021	44.61
631.353	44.99
631.684	44.58
632.016	45.2
632.348	44.93
632.679	44.78
633.011	44.97
633.342	45.1
633.674	45.55
634.005	45.51
634.336	45.43
634.668	45.21
634.999	45.24
635.33	45.36
635.661	45.18
635.992	45.27
636.323	45.01
636.654	45.24
636.985	45.51
637.316	45.71
637.647	45.61
637.977	45.37
638.308	45.5
638.639	45.77
638.969	45.64
639.3	45.31
639.63	45.68
639.961	46.05
640.291	45.64
640.622	45.95
640.952	45.75
641.282	45.84
641.612	45.83
641.943	46.04
642.273	45.84
642.603	45.73
642.933	46.35
643.263	47.13
643.592	46.13
643.922	46.43
644.252	46.72
644.582	45.96
644.911	46.78
645.241	47.23
645.571	46.42
645.9	46.53
646.23	46.87
646.559	47.11
646.888	46.95
647.218	46.54
647.547	46.42
647.876	46.39
648.205	46.68
648.534	46.46
648.863	46.85
649.192	46.64
649.521	46.57
649.85	47.21
650.179	47.2
650.508	46.53
650.837	46.55
651.165	46.7
651.494	46.51
651.822	47.06
652.151	46.74
652.479	47.14
652.808	46.6
653.136	47.19
653.465	47.15
653.793	46.98
654.121	47.01
654.449	47.04
654.777	47.29
655.105	46.95
655.433	47.31
655.761	47.3
656.089	48.08
656.417	46.88
656.745	47.82
657.073	47.45
657.4	48.1
657.728	47.57
658.056	47.9
658.383	46.97
658.711	47.88
659.038	47.83
659.365	47.67
659.693	46.96
660.02	47.85
660.347	47.67
660.674	47.87
661.001	47.7
661.329	47.65
661.656	47.84
661.982	48.04
662.309	48.18
662.636	47.9
662.963	47.42
663.29	47.81
663.616	48.03
663.943	48.12
664.27	47.93
664.596	48.26
664.923	48
665.249	47.67
665.576	48.61
665.902	48.49
666.228	48.61
666.554	48.45
666.881	48.51
667.207	48.35
667.533	47.86
667.859	49.23
668.185	48.52
668.511	49.36
668.837	48.45
669.162	48.3
669.488	48.9
669.814	48.53
670.139	48.83
670.465	48.82
670.791	49.39
671.116	49.66
