Data from 0090_forehead_Reflection__0__167.txt Node

Date: Fri Sep 22 22:14:03 CDT 2023
User: ToomeyLab
Spectrometer: FLMS14357
Trigger mode: 0
Integration Time (sec): 1.000000E-2
Scans to average: 100
Electric dark correction enabled: true
Nonlinearity correction enabled: false
Boxcar width: 0
XAxis mode: Wavelengths
Number of Pixels in Spectrum: 2048
>>>>>Begin Spectral Data<<<<<
189.047	926.09
189.435	926.09
189.823	926.09
190.211	118.27
190.599	717.91
190.987	164
191.375	45.6
191.763	293.87
192.151	725.97
192.538	107.19
192.926	62.27
193.314	16.62
193.702	-5.48
194.089	55.15
194.477	-50.42
194.864	9.97
195.252	-12900
195.639	-998.25
196.027	109.5
196.414	180.73
196.801	-91.06
197.189	18.44
197.576	194.94
197.963	352.46
198.351	12.02
198.738	18.57
199.125	27.09
199.512	16.76
199.899	47.62
200.286	-7.01
200.673	45.65
201.06	63.72
201.447	53.29
201.833	22.73
202.22	31.74
202.607	20.18
202.994	58.38
203.38	24.01
203.767	31.07
204.154	50.03
204.54	28.62
204.927	18.1
205.313	17.24
205.699	65.24
206.086	31.42
206.472	50.02
206.858	29.82
207.245	28.01
207.631	16.97
208.017	3.69
208.403	33.95
208.789	36.2
209.175	41.32
209.561	56.99
209.947	57.23
210.333	39.28
210.719	45.51
211.105	40.94
211.491	28.97
211.876	37.79
212.262	30.72
212.648	37.57
213.034	51.91
213.419	30.94
213.805	5.12
214.19	-12.23
214.576	12.05
214.961	28.72
215.346	23.84
215.732	26.11
216.117	19.93
216.502	34.71
216.888	32.48
217.273	15.38
217.658	-2.72
218.043	34.94
218.428	43.97
218.813	-8.37
219.198	17.2
219.583	30.71
219.968	-2.95
220.353	44.37
220.738	22.95
221.122	20.37
221.507	10.99
221.892	12.09
222.276	1.54
222.661	-12.41
223.046	7.24
223.43	23.92
223.815	7.89
224.199	-2.6
224.583	14.5
224.968	17.56
225.352	4.27
225.736	8.23
226.121	4.23
226.505	19.4
226.889	5.98
227.273	4.92
227.657	5.33
228.041	14.63
228.425	10.73
228.809	4.39
229.193	2.25
229.577	8.14
229.961	2.88
230.344	5.03
230.728	2.07
231.112	3.08
231.495	2.42
231.879	2.57
232.263	1.7
232.646	3.05
233.03	2.06
233.413	2.63
233.797	2.9
234.18	4.73
234.563	5.58
234.946	6.92
235.33	1.88
235.713	1.06
236.096	2.31
236.479	1.03
236.862	4.13
237.245	4.81
237.628	4.59
238.011	3.82
238.394	3.13
238.777	5.12
239.16	4.29
239.543	4.74
239.925	4.29
240.308	4.39
240.691	3.1
241.073	4.15
241.456	3.68
241.838	3.67
242.221	3.36
242.603	2.62
242.986	2.71
243.368	2.5
243.75	3.9
244.133	3.3
244.515	2.84
244.897	2.39
245.279	2.91
245.661	2.57
246.043	2.94
246.425	2.23
246.807	3.1
247.189	2.6
247.571	3.79
247.953	3.29
248.335	3.01
248.717	2.87
249.098	2.65
249.48	2.21
249.862	2.38
250.243	2.3
250.625	2.8
251.006	2.22
251.388	3.14
251.769	2.8
252.151	2.39
252.532	3.31
252.913	3.37
253.295	3.54
253.676	2.59
254.057	3.19
254.438	2.96
254.819	2.37
255.2	2.4
255.581	2.91
255.962	4.24
256.343	2.92
256.724	3.04
257.105	3.51
257.486	3.1
257.867	3.52
258.247	3.78
258.628	3.96
259.009	2.81
259.389	2.68
259.77	2.93
260.15	3.37
260.531	2.07
260.911	3.11
261.292	2.26
261.672	2.41
262.052	2.4
262.432	2.35
262.813	2.68
263.193	2.1
263.573	3.06
263.953	2.75
264.333	2.57
264.713	2.7
265.093	2.48
265.473	2.26
265.853	2.71
266.233	2.84
266.612	2.08
266.992	3.03
267.372	3.27
267.752	3.21
268.131	2.66
268.511	3.03
268.89	3.06
269.27	2.1
269.649	2.96
270.029	2.66
270.408	2.56
270.787	2.34
271.167	3.45
271.546	1.8
271.925	2.18
272.304	2.34
272.683	2.59
273.062	3.01
273.441	2.64
273.82	3.09
274.199	2.41
274.578	2.59
274.957	2.3
275.336	1.96
275.715	2.36
276.093	2.53
276.472	2.53
276.851	2.53
277.229	1.47
277.608	2.55
277.986	2.22
278.365	2.62
278.743	2.74
279.122	2.69
279.5	3.12
279.878	2.29
280.257	3.43
280.635	2.31
281.013	3.3
281.391	1.63
281.769	2.85
282.147	2.58
282.525	2.54
282.903	2.47
283.281	2.26
283.659	2.97
284.037	1.95
284.415	2.61
284.792	2.47
285.17	2.91
285.548	3.13
285.925	3.17
286.303	2.53
286.68	2.44
287.058	2.1
287.435	2.31
287.813	2.3
288.19	2.21
288.567	2.47
288.945	2.45
289.322	2.31
289.699	2.33
290.076	2.26
290.453	2.05
290.83	2.02
291.207	1.99
291.584	2.39
291.961	2.19
292.338	2.35
292.715	2.56
293.092	2.55
293.469	2.54
293.845	2.16
294.222	2.82
294.599	2.75
294.975	2.67
295.352	3.1
295.728	2.7
296.105	2.76
296.481	2.66
296.858	2.78
297.234	2.51
297.61	2.96
297.986	2.54
298.363	2.4
298.739	2.73
299.115	3.02
299.491	2.93
299.867	2.88
300.243	2.75
300.619	3.07
300.995	2.99
301.371	3.05
301.746	3.2
302.122	3.15
302.498	3
302.874	2.81
303.249	2.72
303.625	2.51
304	3.3
304.376	3.32
304.751	3.19
305.127	3.28
305.502	3.6
305.878	3
306.253	3.19
306.628	2.97
307.003	3.7
307.378	3.39
307.754	3.15
308.129	3.71
308.504	3.39
308.879	3.37
309.254	3.87
309.629	3.18
310.003	3.95
310.378	3.68
310.753	3.43
311.128	3.46
311.502	3.5
311.877	2.85
312.252	3.55
312.626	3.56
313.001	3.89
313.375	3.66
313.75	4.1
314.124	4.39
314.498	3.42
314.873	3.61
315.247	3.47
315.621	4.04
315.995	4.19
316.369	3.93
316.743	4.03
317.117	4.01
317.491	4.09
317.865	3.31
318.239	3.71
318.613	3.96
318.987	3.8
319.361	3.64
319.734	3.91
320.108	3.89
320.482	3.8
320.855	4.22
321.229	4.76
321.602	4.44
321.976	3.36
322.349	4.24
322.723	4.5
323.096	4.16
323.469	4.13
323.843	4.07
324.216	5
324.589	4.68
324.962	3.58
325.335	4.15
325.708	3.82
326.081	4.92
326.454	4.08
326.827	4.33
327.2	4.03
327.573	4.74
327.945	4.87
328.318	4.71
328.691	4.44
329.063	4.3
329.436	4.61
329.809	4.54
330.181	4.8
330.553	4.55
330.926	4.76
331.298	4.77
331.671	4.99
332.043	4.07
332.415	4.43
332.787	5.13
333.159	4.3
333.532	3.93
333.904	4.65
334.276	4.56
334.648	4.35
335.02	4.44
335.391	4.85
335.763	5.25
336.135	5
336.507	4.56
336.879	4.41
337.25	4.71
337.622	5.24
337.993	4.79
338.365	4.87
338.736	5.36
339.108	4.61
339.479	4.37
339.851	4.55
340.222	4.62
340.593	4.99
340.964	4.83
341.336	4.95
341.707	4.97
342.078	4.78
342.449	4.97
342.82	4.84
343.191	4.54
343.562	5
343.933	5.01
344.303	5.03
344.674	5.19
345.045	5.33
345.416	5.46
345.786	5.16
346.157	5.37
346.527	5.3
346.898	4.98
347.268	4.97
347.639	5.1
348.009	5.13
348.38	5.43
348.75	5.5
349.12	5.15
349.49	5.79
349.861	5.21
350.231	5.42
350.601	5.76
350.971	5.57
351.341	5.17
351.711	5.26
352.081	5.31
352.45	5.18
352.82	5.59
353.19	6.23
353.56	5.59
353.929	5.83
354.299	5.92
354.669	5.68
355.038	5.78
355.408	5.87
355.777	5.91
356.147	5.76
356.516	6.16
356.885	5.85
357.254	5.84
357.624	5.45
357.993	6.05
358.362	5.91
358.731	5.82
359.1	6.13
359.469	5.87
359.838	5.64
360.207	5.96
360.576	5.74
360.945	5.79
361.314	6.33
361.682	6.28
362.051	6.24
362.42	5.76
362.788	5.83
363.157	6.46
363.525	5.82
363.894	5.9
364.262	6.19
364.631	5.94
364.999	5.99
365.367	6.31
365.735	6.33
366.104	6.15
366.472	6.65
366.84	6.4
367.208	6.57
367.576	6.36
367.944	6.4
368.312	6.48
368.68	6.6
369.048	6.75
369.416	6.78
369.783	6.34
370.151	6.57
370.519	6.58
370.886	6.38
371.254	6.68
371.621	6.49
371.989	6.9
372.356	6.55
372.724	7.22
373.091	6.89
373.458	6.84
373.826	6.63
374.193	7.2
374.56	7.07
374.927	6.94
375.294	6.77
375.661	7.15
376.028	7.4
376.395	6.93
376.762	6.88
377.129	7.53
377.496	7.43
377.863	7.04
378.229	7.39
378.596	7.11
378.963	7.61
379.329	6.92
379.696	7.53
380.062	7.06
380.429	7.3
380.795	7.34
381.161	7.38
381.528	7.36
381.894	7.19
382.26	7.65
382.626	7.48
382.993	7.56
383.359	7.3
383.725	7.32
384.091	7.65
384.457	7.33
384.823	7.67
385.188	7.42
385.554	7.85
385.92	7.96
386.286	7.83
386.651	7.57
387.017	7.9
387.383	7.39
387.748	7.77
388.114	7.6
388.479	7.86
388.845	7.62
389.21	7.54
389.575	8.29
389.94	7.54
390.306	8.16
390.671	8.29
391.036	7.69
391.401	7.94
391.766	7.82
392.131	8
392.496	8.03
392.861	7.88
393.226	8.18
393.591	8.28
393.956	8.07
394.32	8.26
394.685	8.14
395.05	8.53
395.414	8.36
395.779	8.66
396.143	8.18
396.508	8.19
396.872	8.37
397.236	8.43
397.601	8.36
397.965	8.64
398.329	8.58
398.694	8.46
399.058	8.46
399.422	8.64
399.786	8.61
400.15	8.56
400.514	8.62
400.878	8.92
401.242	8.76
401.605	8.52
401.969	8.57
402.333	8.81
402.697	8.72
403.06	8.75
403.424	8.86
403.787	9.13
404.151	9.03
404.514	8.93
404.878	8.86
405.241	9.01
405.604	9.06
405.968	9.06
406.331	9.03
406.694	8.85
407.057	8.83
407.42	8.91
407.783	9.05
408.146	8.95
408.509	9.03
408.872	8.85
409.235	9.1
409.598	9.01
409.961	9.44
410.323	9.22
410.686	9.52
411.049	9.49
411.411	9.44
411.774	9.44
412.136	9.22
412.499	9.3
412.861	9.31
413.223	9.18
413.586	9.4
413.948	9.65
414.31	9.43
414.672	9.65
415.035	9.53
415.397	9.67
415.759	9.85
416.121	9.45
416.483	9.37
416.845	9.3
417.206	9.71
417.568	9.52
417.93	9.52
418.292	9.53
418.653	9.42
419.015	9.54
419.377	9.39
419.738	9.62
420.1	9.61
420.461	9.49
420.822	9.48
421.184	9.6
421.545	9.64
421.906	9.67
422.267	9.53
422.629	9.66
422.99	9.65
423.351	9.59
423.712	9.52
424.073	9.69
424.434	9.78
424.795	9.97
425.155	9.97
425.516	9.86
425.877	9.97
426.238	9.89
426.598	9.93
426.959	9.96
427.32	9.9
427.68	9.97
428.041	10.05
428.401	10.21
428.761	10.45
429.122	10.41
429.482	10.42
429.842	10.46
430.202	10.36
430.563	10.65
430.923	10.73
431.283	10.78
431.643	10.84
432.003	10.91
432.363	10.73
432.722	10.93
433.082	11
433.442	10.78
433.802	11.07
434.161	10.84
434.521	10.97
434.881	10.81
435.24	10.78
435.6	10.87
435.959	10.67
436.319	10.88
436.678	11.1
437.037	11.09
437.396	11.21
437.756	11.27
438.115	11.39
438.474	11.31
438.833	11.32
439.192	11.29
439.551	11.47
439.91	11.45
440.269	11.42
440.628	11.35
440.987	11.33
441.345	11.51
441.704	11.51
442.063	11.42
442.421	11.38
442.78	11.35
443.138	11.51
443.497	11.44
443.855	11.53
444.214	11.53
444.572	11.9
444.93	11.78
445.288	11.77
445.647	12.03
446.005	11.89
446.363	11.78
446.721	11.95
447.079	11.78
447.437	11.85
447.795	11.78
448.153	11.67
448.51	11.81
448.868	11.76
449.226	11.83
449.584	11.88
449.941	11.87
450.299	12.02
450.656	12.15
451.014	12.37
451.371	12.18
451.729	12.32
452.086	12.42
452.443	12.47
452.801	12.48
453.158	12.61
453.515	12.87
453.872	12.57
454.229	12.75
454.586	12.5
454.943	12.64
455.3	12.59
455.657	12.58
456.014	12.67
456.371	12.79
456.727	12.91
457.084	12.82
457.441	12.84
457.797	13.08
458.154	12.95
458.51	12.96
458.867	13.14
459.223	13.14
459.58	13.37
459.936	13.26
460.292	13.24
460.648	13.19
461.005	13.04
461.361	13.26
461.717	12.82
462.073	12.91
462.429	12.77
462.785	12.91
463.141	13.1
463.496	13.4
463.852	13.29
464.208	13.47
464.564	13.64
464.919	13.51
465.275	13.76
465.631	13.76
465.986	13.81
466.342	13.86
466.697	13.69
467.052	13.75
467.408	13.94
467.763	13.89
468.118	14.08
468.473	13.86
468.829	13.98
469.184	13.99
469.539	14.01
469.894	13.94
470.249	14.04
470.603	13.96
470.958	14.07
471.313	14.22
471.668	14.23
472.023	14.28
472.377	14.28
472.732	14.17
473.086	14.51
473.441	14.2
473.795	14.65
474.15	14.38
474.504	14.42
474.859	14.62
475.213	14.37
475.567	14.46
475.921	14.64
476.275	14.66
476.63	14.58
476.984	14.66
477.338	14.9
477.692	14.84
478.045	14.87
478.399	15.03
478.753	14.75
479.107	14.94
479.461	14.86
479.814	15.02
480.168	14.8
480.521	14.98
480.875	14.97
481.228	14.92
481.582	15.02
481.935	15.03
482.289	15.07
482.642	15.09
482.995	15.07
483.348	15.06
483.701	15.14
484.055	15.06
484.408	14.96
484.761	15.12
485.114	14.92
485.466	14.69
485.819	14.41
486.172	14.22
486.525	14.23
486.878	14.37
487.23	14.57
487.583	14.72
487.936	14.92
488.288	15.1
488.641	15.17
488.993	15.02
489.345	14.95
489.698	14.78
490.05	14.78
490.402	14.85
490.754	14.83
491.107	15.02
491.459	15.27
491.811	15.4
492.163	15.62
492.515	15.51
492.866	15.63
493.218	15.72
493.57	15.37
493.922	15.16
494.274	15.1
494.625	15.29
494.977	15.59
495.328	15.77
495.68	15.91
496.031	16.01
496.383	16.27
496.734	16.32
497.086	16.36
497.437	16.47
497.788	16.38
498.139	16.51
498.49	16.54
498.842	16.29
499.193	16.21
499.544	16.26
499.894	16.21
500.245	16.39
500.596	16.54
500.947	16.45
501.298	16.52
501.648	16.67
501.999	16.78
502.35	16.8
502.7	16.93
503.051	16.91
503.401	16.98
503.752	16.94
504.102	16.87
504.452	17.04
504.803	16.98
505.153	17.2
505.503	17.01
505.853	17.29
506.203	17.02
506.553	17.23
506.903	17.16
507.253	17.16
507.603	17.39
507.953	17.35
508.303	17.33
508.652	17.34
509.002	17.48
509.352	17.41
509.701	17.53
510.051	17.25
510.4	17.28
510.75	17.23
511.099	17.24
511.449	17.31
511.798	17.37
512.147	17.28
512.496	17.42
512.846	17.49
513.195	17.55
513.544	17.7
513.893	17.62
514.242	17.6
514.591	17.67
514.939	17.73
515.288	17.72
515.637	17.65
515.986	17.77
516.334	17.82
516.683	18.02
517.032	18.07
517.38	18.08
517.729	18
518.077	18.17
518.426	18.08
518.774	18.19
519.122	18.16
519.47	18.03
519.819	18.02
520.167	18.01
520.515	17.82
520.863	17.72
521.211	17.75
521.559	17.9
521.907	17.91
522.255	17.99
522.602	18.21
522.95	18.2
523.298	18.3
523.645	18.48
523.993	18.48
524.341	18.43
524.688	18.58
525.036	18.59
525.383	18.67
525.73	18.65
526.078	18.69
526.425	18.72
526.772	18.9
527.119	18.61
527.466	18.36
527.814	18.4
528.161	18.17
528.508	18.32
528.854	18.44
529.201	18.53
529.548	18.46
529.895	18.52
530.242	18.38
530.588	17.95
530.935	17.71
531.282	17.77
531.628	17.95
531.975	18.09
532.321	18.16
532.667	18.41
533.014	18.52
533.36	18.7
533.706	18.85
534.052	18.85
534.399	18.91
534.745	18.81
535.091	18.69
535.437	18.5
535.783	18.38
536.129	18.5
536.474	18.75
536.82	18.79
537.166	19.07
537.512	19.15
537.857	19.25
538.203	19.4
538.549	19.26
538.894	19.05
539.239	19.09
539.585	19.15
539.93	19.38
540.276	19.46
540.621	19.54
540.966	19.62
541.311	19.81
541.656	19.91
542.001	19.78
542.346	19.95
542.691	19.79
543.036	19.55
543.381	19.18
543.726	18.98
544.071	18.95
544.415	19.03
544.76	19.19
545.105	19.33
545.449	19.42
545.794	19.46
546.138	19.73
546.483	19.78
546.827	19.91
547.171	20
547.516	20.19
547.86	20.11
548.204	20.06
548.548	20.11
548.892	19.94
549.236	19.82
549.58	20.04
549.924	20.32
550.268	20.34
550.612	20.47
550.956	20.57
551.3	20.82
551.643	20.72
551.987	20.79
552.33	20.91
552.674	21.07
553.017	21.09
553.361	20.98
553.704	21.21
554.048	21.09
554.391	21.07
554.734	21.18
555.077	20.87
555.42	20.75
555.764	21.08
556.107	21.07
556.45	21.03
556.793	21.12
557.135	21.35
557.478	21.19
557.821	21.3
558.164	21.33
558.507	21.52
558.849	21.37
559.192	21.65
559.534	21.46
559.877	21.41
560.219	21.64
560.562	21.47
560.904	21.43
561.246	21.72
561.589	21.63
561.931	21.71
562.273	21.46
562.615	21.83
562.957	21.71
563.299	21.83
563.641	21.53
563.983	21.71
564.325	21.78
564.667	21.82
565.008	21.74
565.35	21.88
565.692	21.88
566.033	21.97
566.375	22.03
566.716	21.9
567.058	22.07
567.399	21.98
567.741	22.21
568.082	21.87
568.423	21.95
568.764	22.19
569.105	21.69
569.447	21.92
569.788	21.93
570.129	22.1
570.47	22.33
570.811	22.37
571.151	22.36
571.492	22.36
571.833	22.4
572.174	22.39
572.514	22.32
572.855	22.36
573.195	22.39
573.536	22.62
573.876	22.3
574.217	22.38
574.557	22.3
574.898	22.25
575.238	22.47
575.578	22.51
575.918	22.54
576.258	22.5
576.598	22.63
576.938	22.7
577.278	22.55
577.618	22.63
577.958	22.57
578.298	22.7
578.638	22.81
578.977	22.83
579.317	22.97
579.657	22.82
579.996	23.07
580.336	23.11
580.675	23.21
581.014	23.08
581.354	23.18
581.693	23.27
582.032	23.34
582.372	23.23
582.711	23.4
583.05	23.25
583.389	23.57
583.728	23.13
584.067	23.3
584.406	23.7
584.745	23.29
585.083	23.54
585.422	23.65
585.761	23.62
586.1	23.68
586.438	23.74
586.777	23.79
587.115	23.5
587.454	23.37
587.792	23.78
588.13	23.69
588.469	23.62
588.807	23.79
589.145	23.68
589.483	23.86
589.821	23.83
590.159	24.14
590.497	24.11
590.835	23.95
591.173	23.83
591.511	23.96
591.849	24.22
592.187	23.95
592.524	24.3
592.862	23.95
593.2	23.93
593.537	24.13
593.875	24.14
594.212	24.38
594.55	24.51
594.887	24.11
595.224	24.28
595.561	24.42
595.899	24.29
596.236	24.47
596.573	24.38
596.91	24.34
597.247	24.36
597.584	24.55
597.921	24.67
598.258	24.76
598.594	24.46
598.931	24.5
599.268	24.03
599.604	24.19
599.941	24.28
600.277	24.32
600.614	24.5
600.95	24.83
601.287	24.73
601.623	24.87
601.959	25.04
602.296	25
602.632	24.94
602.968	24.96
603.304	24.9
603.64	25.13
603.976	24.93
604.312	24.91
604.648	25.08
604.984	25.23
605.319	24.88
605.655	24.73
605.991	24.84
606.326	24.89
606.662	24.62
606.998	24.62
607.333	24.8
607.668	24.89
608.004	25.22
608.339	25.07
608.674	25.28
609.01	25.38
609.345	25.39
609.68	25.64
610.015	25.63
610.35	25.27
610.685	25.61
611.02	25.57
611.355	25.52
611.689	25.31
612.024	25.36
612.359	25.29
612.694	25.6
613.028	25.38
613.363	25.59
613.697	25.22
614.032	25.64
614.366	25.45
614.7	25.53
615.035	26.01
615.369	26.07
615.703	25.72
616.037	26.18
616.371	25.92
616.705	26.47
617.039	26.19
617.373	26.07
617.707	26.43
618.041	26.4
618.375	26.32
618.709	26.03
619.042	26.21
619.376	26.12
619.71	26.45
620.043	25.74
620.377	26.3
620.71	26.24
621.043	26.23
621.377	26.16
621.71	26.52
622.043	26.74
622.376	26.77
622.709	26.34
623.043	26.5
623.376	26.6
623.709	26.78
624.041	26.38
624.374	26.38
624.707	26.86
625.04	26.9
625.373	26.35
625.705	26.52
626.038	26.41
626.37	26.62
626.703	26.94
627.035	27.1
627.368	27.01
627.7	26.99
628.032	26.99
628.365	26.74
628.697	26.89
629.029	26.91
629.361	26.99
629.693	26.74
630.025	26.91
630.357	26.46
630.689	27.02
631.021	26.7
631.353	27.02
631.684	27.23
632.016	27.33
632.348	27.01
632.679	27.26
633.011	27.4
633.342	27.47
633.674	27.93
634.005	27.35
634.336	27.14
634.668	27.59
634.999	27.34
635.33	27.7
635.661	27.52
635.992	27.44
636.323	27.09
636.654	27.18
636.985	27.56
637.316	27.24
637.647	27.38
637.977	27.39
638.308	28.04
638.639	27.55
638.969	27.44
639.3	27.84
639.63	27.84
639.961	27.69
640.291	27.63
640.622	27.67
640.952	27.78
641.282	28.1
641.612	28.06
641.943	28.1
642.273	27.89
642.603	27.75
642.933	27.83
643.263	27.36
643.592	27.91
643.922	28.56
644.252	28.26
644.582	28.08
644.911	27.9
645.241	28.15
645.571	28.32
645.9	28.44
646.23	28.7
646.559	28.28
646.888	28.39
647.218	28.41
647.547	28.14
647.876	28.39
648.205	28.34
648.534	28.48
648.863	28.59
649.192	28.2
649.521	28.29
649.85	28.67
650.179	28.56
650.508	28.49
650.837	28.45
651.165	28.61
651.494	28.65
651.822	28.64
652.151	28.74
652.479	29.12
652.808	28.9
653.136	29
653.465	28.72
653.793	28.27
654.121	28.9
654.449	28.78
654.777	28.77
655.105	29.44
655.433	28.87
655.761	29.1
656.089	28.75
656.417	28.95
656.745	29.33
657.073	29.09
657.4	29.94
657.728	29.16
658.056	28.3
658.383	28.67
658.711	29.07
659.038	29.1
659.365	29.42
659.693	28.68
660.02	29.8
660.347	29.57
660.674	29.36
661.001	29.25
661.329	28.69
661.656	29.17
661.982	28.97
662.309	29.54
662.636	29.13
662.963	29.18
663.29	29.66
663.616	29.59
663.943	29.78
664.27	29.54
664.596	29.92
664.923	29.28
665.249	29.67
665.576	29.4
665.902	29.59
666.228	29.69
666.554	29.92
666.881	30.22
667.207	30.06
667.533	29.47
667.859	29.93
668.185	30.16
668.511	30.34
668.837	29.27
669.162	29.72
669.488	30.02
669.814	29.79
670.139	29.88
670.465	30.69
670.791	30.43
671.116	29.76
671.442	30.18
671.767	29.53
672.092	30.43
672.418	31.24
672.743	29.81
673.068	30.04
673.393	30.32
673.718	29.88
674.043	30.6
674.368	30.55
674.693	30.15
675.018	29.99
675.343	30.8
675.667	30.5
675.992	29.7
