Data from 0090_chest_Reflection__3__160.txt Node

Date: Fri Sep 22 22:11:53 CDT 2023
User: ToomeyLab
Spectrometer: FLMS14357
Trigger mode: 0
Integration Time (sec): 1.000000E-2
Scans to average: 100
Electric dark correction enabled: true
Nonlinearity correction enabled: false
Boxcar width: 0
XAxis mode: Wavelengths
Number of Pixels in Spectrum: 2048
>>>>>Begin Spectral Data<<<<<
189.047	2163.04
189.435	2163.04
189.823	2163.04
190.211	-44.81
190.599	-288.81
190.987	125.38
191.375	300.4
191.763	-222.39
192.151	956.49
192.538	-67.51
192.926	208.42
193.314	14.58
193.702	113.56
194.089	81.42
194.477	34.96
194.864	26.6
195.252	1710
195.639	-357.02
196.027	153.09
196.414	138.99
196.801	-43.65
197.189	-126.1
197.576	489.3
197.963	820.49
198.351	43.8
198.738	20.33
199.125	7.75
199.512	62.19
199.899	32.48
200.286	18.76
200.673	9.46
201.06	29.2
201.447	43.66
201.833	-4.15
202.22	54.97
202.607	62.65
202.994	60.96
203.38	33.32
203.767	32.5
204.154	19.78
204.54	37.38
204.927	13.59
205.313	57.63
205.699	46.27
206.086	50.18
206.472	49.41
206.858	29.12
207.245	-9.84
207.631	36.92
208.017	31.03
208.403	20.72
208.789	39.05
209.175	60.3
209.561	36.37
209.947	38.77
210.333	34.84
210.719	-9.07
211.105	47.74
211.491	29.24
211.876	20.76
212.262	30.3
212.648	25.88
213.034	27.21
213.419	33.8
213.805	28.03
214.19	32.56
214.576	44.96
214.961	33.13
215.346	36.76
215.732	22.86
216.117	21.5
216.502	17.41
216.888	21.31
217.273	36.8
217.658	11.56
218.043	34.88
218.428	38.83
218.813	-6.04
219.198	13.81
219.583	11.81
219.968	-5.46
220.353	39.84
220.738	6.91
221.122	24.97
221.507	25.05
221.892	11.37
222.276	9.64
222.661	-4.04
223.046	26.12
223.43	24.75
223.815	-0.44
224.199	24.45
224.583	4.47
224.968	21.86
225.352	0.92
225.736	24.69
226.121	9.34
226.505	5.9
226.889	12.92
227.273	-1.8
227.657	7.99
228.041	8.45
228.425	7.58
228.809	5.03
229.193	7.02
229.577	9.27
229.961	7.61
230.344	6.16
230.728	3.84
231.112	4.88
231.495	4.34
231.879	4.38
232.263	3.53
232.646	5.15
233.03	3.25
233.413	4.46
233.797	6.16
234.18	5.08
234.563	7.2
234.946	7.95
235.33	4.58
235.713	1.3
236.096	5.18
236.479	3.28
236.862	5.21
237.245	5.31
237.628	6.23
238.011	6.29
238.394	4.98
238.777	5.72
239.16	5.78
239.543	6.69
239.925	5.62
240.308	6.47
240.691	4.04
241.073	6.42
241.456	5.25
241.838	4.88
242.221	4.57
242.603	4.31
242.986	3.58
243.368	3.65
243.75	4.82
244.133	4.52
244.515	4.46
244.897	3.54
245.279	3.41
245.661	3.92
246.043	3.9
246.425	4.25
246.807	4.1
247.189	3.04
247.571	4
247.953	5.11
248.335	4.17
248.717	4.19
249.098	3.74
249.48	3.54
249.862	3.56
250.243	3.89
250.625	4.06
251.006	3.33
251.388	3.83
251.769	4.35
252.151	3.93
252.532	3.77
252.913	4.33
253.295	5.32
253.676	3.62
254.057	3.83
254.438	4.23
254.819	3.37
255.2	3.74
255.581	3.21
255.962	4.74
256.343	4.34
256.724	4.09
257.105	4.12
257.486	3.77
257.867	3.96
258.247	4.05
258.628	5.34
259.009	4.33
259.389	3.52
259.77	4.27
260.15	5.41
260.531	3.65
260.911	3.89
261.292	3.42
261.672	3.25
262.052	3.49
262.432	3.58
262.813	3.64
263.193	3.05
263.573	4.14
263.953	3.24
264.333	3.51
264.713	3.35
265.093	3.75
265.473	3.83
265.853	3.2
266.233	3.37
266.612	3.63
266.992	4.43
267.372	3.71
267.752	4.47
268.131	3.6
268.511	3.23
268.89	3.71
269.27	3
269.649	3.35
270.029	3.61
270.408	3.62
270.787	2.87
271.167	3.33
271.546	3.43
271.925	3.69
272.304	3.33
272.683	2.98
273.062	3.69
273.441	3.07
273.82	3.86
274.199	3.52
274.578	3.97
274.957	3.6
275.336	3.42
275.715	3.16
276.093	3
276.472	2.91
276.851	3.73
277.229	2.83
277.608	3.81
277.986	3.1
278.365	3.82
278.743	3.11
279.122	3.84
279.5	3.76
279.878	3.68
280.257	3.83
280.635	3.24
281.013	3.39
281.391	3.28
281.769	3.31
282.147	3.63
282.525	3.28
282.903	3.91
283.281	3.95
283.659	2.96
284.037	3.45
284.415	3.67
284.792	3.45
285.17	3.67
285.548	4.01
285.925	3.51
286.303	3.5
286.68	3.02
287.058	3.25
287.435	3.14
287.813	3.13
288.19	2.81
288.567	3.4
288.945	3.22
289.322	3.22
289.699	3.29
290.076	3.16
290.453	3.05
290.83	3.19
291.207	3.2
291.584	3.14
291.961	3.06
292.338	3.28
292.715	3.49
293.092	3.24
293.469	3.49
293.845	3.44
294.222	3.48
294.599	4.05
294.975	3.96
295.352	3.65
295.728	3.09
296.105	4.09
296.481	3.17
296.858	3.2
297.234	3.56
297.61	2.98
297.986	3.35
298.363	3.7
298.739	3.12
299.115	3.48
299.491	3.34
299.867	3.25
300.243	3.38
300.619	3.5
300.995	3.42
301.371	3.68
301.746	3.58
302.122	3.36
302.498	3.04
302.874	3.4
303.249	3.35
303.625	2.92
304	3.44
304.376	3.89
304.751	3.45
305.127	3.34
305.502	3.12
305.878	3.24
306.253	3.46
306.628	3.32
307.003	3.66
307.378	3.53
307.754	3.56
308.129	3.86
308.504	3.21
308.879	3.13
309.254	3.79
309.629	3.55
310.003	4.01
310.378	3.69
310.753	3.72
311.128	3.84
311.502	3.51
311.877	3.18
312.252	3.48
312.626	3.47
313.001	3.56
313.375	3.36
313.75	3.53
314.124	3.55
314.498	3.24
314.873	3.37
315.247	3.77
315.621	3.51
315.995	3.26
316.369	3.36
316.743	3.12
317.117	3.53
317.491	3.74
317.865	2.74
318.239	3.64
318.613	3.5
318.987	3.41
319.361	3.32
319.734	2.87
320.108	3.9
320.482	3.36
320.855	3.22
321.229	3.93
321.602	3.8
321.976	3.13
322.349	3.52
322.723	3.49
323.096	3.22
323.469	3.34
323.843	3.54
324.216	3.32
324.589	3.89
324.962	3.29
325.335	3.57
325.708	3.14
326.081	3.7
326.454	3.26
326.827	3.09
327.2	3.42
327.573	4.14
327.945	3.15
328.318	3.65
328.691	3.65
329.063	3.17
329.436	3.22
329.809	3.53
330.181	3.31
330.553	3.44
330.926	3.47
331.298	3.65
331.671	3.61
332.043	3.02
332.415	3.3
332.787	4.26
333.159	3.32
333.532	2.79
333.904	3.33
334.276	3.59
334.648	2.81
335.02	3.13
335.391	3.36
335.763	3.31
336.135	3.26
336.507	3.66
336.879	2.99
337.25	3.43
337.622	3.39
337.993	3.62
338.365	3.87
338.736	3.53
339.108	3.42
339.479	3.34
339.851	3.06
340.222	3.19
340.593	3.16
340.964	2.72
341.336	3.34
341.707	3.53
342.078	3.64
342.449	3.64
342.82	3.14
343.191	3.24
343.562	3.2
343.933	3.3
344.303	3.3
344.674	3.56
345.045	3.58
345.416	3.54
345.786	3.2
346.157	3.01
346.527	3.5
346.898	3.28
347.268	3.07
347.639	3.26
348.009	2.95
348.38	3.48
348.75	3.2
349.12	3.25
349.49	3.38
349.861	3.2
350.231	3.3
350.601	3.33
350.971	3.62
351.341	3.36
351.711	3.64
352.081	3.03
352.45	2.93
352.82	3.46
353.19	3.38
353.56	3.23
353.929	3.52
354.299	3.61
354.669	2.94
355.038	2.86
355.408	3.24
355.777	3.56
356.147	3.11
356.516	3.51
356.885	3.29
357.254	3.82
357.624	3.03
357.993	3.29
358.362	3.18
358.731	3.16
359.1	3.34
359.469	3.63
359.838	2.95
360.207	3.11
360.576	3.41
360.945	3.55
361.314	3.3
361.682	3.55
362.051	3.36
362.42	3.17
362.788	3.14
363.157	3.4
363.525	3.31
363.894	3.27
364.262	3.37
364.631	3.35
364.999	3.14
365.367	3.37
365.735	3.36
366.104	3.13
366.472	3.64
366.84	3.23
367.208	3.62
367.576	3.6
367.944	3.3
368.312	3.31
368.68	3.34
369.048	3.57
369.416	3.26
369.783	3.12
370.151	2.86
370.519	3.41
370.886	3.49
371.254	3.59
371.621	3.43
371.989	3.45
372.356	3.08
372.724	3.64
373.091	3.46
373.458	3.38
373.826	3.33
374.193	3.42
374.56	3.53
374.927	3.21
375.294	3.02
375.661	3.41
376.028	3.34
376.395	3.51
376.762	3.46
377.129	3.52
377.496	3.13
377.863	3.56
378.229	3.86
378.596	3.13
378.963	3.78
379.329	3.37
379.696	3.44
380.062	3.29
380.429	3.35
380.795	3.59
381.161	3.42
381.528	2.92
381.894	3.24
382.26	3.32
382.626	3.44
382.993	3.31
383.359	3.35
383.725	3.24
384.091	3.53
384.457	3.32
384.823	3.24
385.188	3.46
385.554	3.38
385.92	3.71
386.286	3.29
386.651	3.48
387.017	3.41
387.383	3.28
387.748	3.23
388.114	3.25
388.479	3.8
388.845	3.1
389.21	3.15
389.575	3.6
389.94	3.31
390.306	3.48
390.671	3.9
391.036	3.19
391.401	3.32
391.766	3.41
392.131	3.47
392.496	3.68
392.861	3.42
393.226	3.68
393.591	3.34
393.956	3.37
394.32	3.4
394.685	3.31
395.05	3.79
395.414	3.53
395.779	3.5
396.143	3.42
396.508	3.46
396.872	3.5
397.236	3.51
397.601	3.38
397.965	3.67
398.329	3.35
398.694	3.47
399.058	3.41
399.422	3.42
399.786	3.45
400.15	3.84
400.514	3.51
400.878	3.69
401.242	3.71
401.605	3.35
401.969	3.33
402.333	3.6
402.697	3.27
403.06	3.52
403.424	3.38
403.787	3.45
404.151	3.52
404.514	3.83
404.878	3.63
405.241	3.7
405.604	3.69
405.968	3.72
406.331	3.52
406.694	3.47
407.057	3.22
407.42	3.37
407.783	3.54
408.146	3.49
408.509	3.33
408.872	3.36
409.235	3.55
409.598	3.52
409.961	3.46
410.323	3.68
410.686	3.36
411.049	3.78
411.411	3.81
411.774	3.53
412.136	3.57
412.499	3.54
412.861	3.47
413.223	3.59
413.586	3.36
413.948	3.33
414.31	3.64
414.672	3.42
415.035	3.65
415.397	3.77
415.759	3.68
416.121	3.42
416.483	3.6
416.845	3.57
417.206	3.42
417.568	3.56
417.93	3.47
418.292	3.5
418.653	3.33
419.015	3.36
419.377	3.44
419.738	3.61
420.1	3.27
420.461	3.34
420.822	3.36
421.184	3.36
421.545	3.44
421.906	3.51
422.267	3.39
422.629	3.47
422.99	3.4
423.351	3.27
423.712	3.32
424.073	3.43
424.434	3.38
424.795	3.46
425.155	3.53
425.516	3.33
425.877	3.44
426.238	3.36
426.598	3.36
426.959	3.51
427.32	3.39
427.68	3.43
428.041	3.33
428.401	3.54
428.761	3.58
429.122	3.59
429.482	3.48
429.842	3.41
430.202	3.67
430.563	3.76
430.923	3.61
431.283	3.63
431.643	3.49
432.003	3.66
432.363	3.74
432.722	3.78
433.082	3.77
433.442	3.55
433.802	3.71
434.161	3.65
434.521	3.67
434.881	3.62
435.24	3.52
435.6	3.52
435.959	3.5
436.319	3.54
436.678	3.73
437.037	3.54
437.396	3.53
437.756	3.52
438.115	3.63
438.474	3.46
438.833	3.66
439.192	3.54
439.551	3.63
439.91	3.65
440.269	3.66
440.628	3.46
440.987	3.51
441.345	3.7
441.704	3.67
442.063	3.54
442.421	3.6
442.78	3.58
443.138	3.46
443.497	3.53
443.855	3.52
444.214	3.37
444.572	3.63
444.93	3.55
445.288	3.62
445.647	3.71
446.005	3.65
446.363	3.51
446.721	3.58
447.079	3.39
447.437	3.6
447.795	3.64
448.153	3.42
448.51	3.57
448.868	3.53
449.226	3.52
449.584	3.54
449.941	3.52
450.299	3.64
450.656	3.55
451.014	3.67
451.371	3.58
451.729	3.7
452.086	3.61
452.443	3.66
452.801	3.55
453.158	3.64
453.515	3.72
453.872	3.69
454.229	3.74
454.586	3.68
454.943	3.74
455.3	3.65
455.657	3.62
456.014	3.58
456.371	3.83
456.727	3.91
457.084	3.7
457.441	3.67
457.797	3.8
458.154	3.76
458.51	3.63
458.867	3.56
459.223	3.88
459.58	3.92
459.936	3.91
460.292	3.85
460.648	3.68
461.005	3.69
461.361	3.81
461.717	3.49
462.073	3.57
462.429	3.48
462.785	3.64
463.141	3.63
463.496	3.73
463.852	3.74
464.208	3.7
464.564	3.94
464.919	3.79
465.275	3.83
465.631	3.91
465.986	3.93
466.342	3.84
466.697	3.97
467.052	3.67
467.408	3.93
467.763	3.77
468.118	3.92
468.473	3.73
468.829	3.66
469.184	3.85
469.539	3.78
469.894	3.76
470.249	3.75
470.603	3.72
470.958	4.02
471.313	3.81
471.668	3.87
472.023	3.81
472.377	3.86
472.732	3.81
473.086	3.89
473.441	3.75
473.795	4.04
474.15	3.76
474.504	3.86
474.859	3.99
475.213	3.71
475.567	3.77
475.921	3.91
476.275	3.88
476.63	3.93
476.984	3.76
477.338	3.78
477.692	3.97
478.045	3.92
478.399	3.93
478.753	3.94
479.107	3.81
479.461	3.77
479.814	3.85
480.168	3.91
480.521	3.87
480.875	3.99
481.228	3.85
481.582	3.74
481.935	3.9
482.289	3.82
482.642	3.72
482.995	3.72
483.348	3.88
483.701	3.94
484.055	3.84
484.408	3.78
484.761	3.79
485.114	3.72
485.466	3.61
485.819	3.6
486.172	3.51
486.525	3.52
486.878	3.56
487.23	3.6
487.583	3.69
487.936	3.69
488.288	3.74
488.641	3.69
488.993	3.68
489.345	3.65
489.698	3.63
490.05	3.66
490.402	3.67
490.754	3.67
491.107	3.71
491.459	3.74
491.811	3.8
492.163	3.8
492.515	3.79
492.866	3.83
493.218	3.82
493.57	3.79
493.922	3.74
494.274	3.75
494.625	3.78
494.977	3.82
495.328	3.94
495.68	3.91
496.031	3.84
496.383	4.05
496.734	4.03
497.086	3.98
497.437	3.99
497.788	3.84
498.139	4.12
498.49	4.03
498.842	3.98
499.193	3.8
499.544	4.11
499.894	3.93
500.245	3.97
500.596	3.96
500.947	4.08
501.298	4.02
501.648	4.09
501.999	4.06
502.35	4.15
502.7	4.08
503.051	4.09
503.401	4.13
503.752	4.14
504.102	4.15
504.452	4.05
504.803	4.14
505.153	4.15
505.503	4.09
505.853	4.18
506.203	4.05
506.553	4.13
506.903	4.04
507.253	4.23
507.603	4.21
507.953	4.13
508.303	4.26
508.652	4.12
509.002	4.28
509.352	4.11
509.701	4.16
510.051	4.23
510.4	4.12
510.75	4.07
511.099	4.02
511.449	4.14
511.798	4.25
512.147	4.13
512.496	4.07
512.846	4.13
513.195	4.18
513.544	4.19
513.893	4.24
514.242	4.13
514.591	4.27
514.939	4.19
515.288	4.17
515.637	4.27
515.986	4.09
516.334	4.28
516.683	4.29
517.032	4.35
517.38	4.27
517.729	4.16
518.077	4.24
518.426	4.33
518.774	4.32
519.122	4.32
519.47	4.33
519.819	4.39
520.167	4.29
520.515	4.26
520.863	4.17
521.211	4.16
521.559	4.25
521.907	4.23
522.255	4.24
522.602	4.27
522.95	4.29
523.298	4.37
523.645	4.38
523.993	4.36
524.341	4.32
524.688	4.42
525.036	4.4
525.383	4.35
525.73	4.49
526.078	4.39
526.425	4.32
526.772	4.4
527.119	4.4
527.466	4.32
527.814	4.3
528.161	4.29
528.508	4.33
528.854	4.35
529.201	4.35
529.548	4.38
529.895	4.29
530.242	4.24
530.588	4.19
530.935	4.12
531.282	4.13
531.628	4.23
531.975	4.18
532.321	4.23
532.667	4.3
533.014	4.37
533.36	4.41
533.706	4.35
534.052	4.46
534.399	4.48
534.745	4.45
535.091	4.37
535.437	4.34
535.783	4.24
536.129	4.37
536.474	4.44
536.82	4.39
537.166	4.55
537.512	4.55
537.857	4.53
538.203	4.56
538.549	4.5
538.894	4.49
539.239	4.49
539.585	4.5
539.93	4.64
540.276	4.58
540.621	4.63
540.966	4.66
541.311	4.69
541.656	4.6
542.001	4.67
542.346	4.72
542.691	4.76
543.036	4.58
543.381	4.55
543.726	4.53
544.071	4.51
544.415	4.57
544.76	4.57
545.105	4.54
545.449	4.59
545.794	4.66
546.138	4.69
546.483	4.7
546.827	4.74
547.171	4.73
547.516	4.89
547.86	4.88
548.204	4.86
548.548	4.82
548.892	4.87
549.236	4.77
549.58	4.89
549.924	4.95
550.268	4.95
550.612	4.93
550.956	4.96
551.3	5.17
551.643	5.2
551.987	5.04
552.33	5.22
552.674	5.08
553.017	5.06
553.361	5.13
553.704	5.25
554.048	5.21
554.391	5.12
554.734	5.25
555.077	5.08
555.42	5.05
555.764	5.14
556.107	5.25
556.45	5.1
556.793	5.25
557.135	5.3
557.478	5.04
557.821	5.3
558.164	5.52
558.507	5.59
558.849	5.35
559.192	5.4
559.534	5.41
559.877	5.33
560.219	5.51
560.562	5.34
560.904	5.42
561.246	5.51
561.589	5.47
561.931	5.4
562.273	5.5
562.615	5.43
562.957	5.35
563.299	5.52
563.641	5.51
563.983	5.69
564.325	5.48
564.667	5.6
565.008	5.52
565.35	5.61
565.692	5.71
566.033	5.58
566.375	5.55
566.716	5.73
567.058	5.67
567.399	5.63
567.741	5.8
568.082	5.55
568.423	5.69
568.764	5.82
569.105	5.35
569.447	5.55
569.788	5.53
570.129	5.79
570.47	5.83
570.811	5.81
571.151	5.88
571.492	5.64
571.833	5.68
572.174	5.9
572.514	5.66
572.855	5.81
573.195	5.82
573.536	5.98
573.876	5.94
574.217	6
574.557	5.82
574.898	5.94
575.238	5.8
575.578	5.94
575.918	5.87
576.258	5.98
576.598	6.12
576.938	6.04
577.278	6.24
577.618	5.89
577.958	6.09
578.298	6.18
578.638	6.17
578.977	6.18
579.317	6.15
579.657	6.24
579.996	6.23
580.336	6.2
580.675	6.31
581.014	6.18
581.354	6.3
581.693	6.35
582.032	6.38
582.372	6.49
582.711	6.39
583.05	6.32
583.389	6.41
583.728	6.43
584.067	6.49
584.406	6.47
584.745	6.36
585.083	6.78
585.422	6.6
585.761	6.42
586.1	6.54
586.438	6.64
586.777	6.55
587.115	6.6
587.454	6.64
587.792	6.71
588.13	6.74
588.469	6.7
588.807	7.09
589.145	6.76
589.483	6.8
589.821	6.83
590.159	6.82
590.497	7.03
590.835	7.12
591.173	6.94
591.511	6.99
591.849	7
592.187	6.66
592.524	7
592.862	7
593.2	7.02
593.537	6.8
593.875	6.94
594.212	7.09
594.55	7.37
594.887	7.24
595.224	7.29
595.561	7.42
595.899	7.33
596.236	7.46
596.573	7.32
596.91	7.2
597.247	7.27
597.584	7.28
597.921	7.49
598.258	7.4
598.594	7.28
598.931	7.15
599.268	7.3
599.604	7.39
599.941	7.34
600.277	7.18
600.614	7.29
600.95	7.46
601.287	7.4
601.623	7.53
601.959	7.35
602.296	7.55
602.632	7.19
602.968	7.53
603.304	7.76
603.64	7.57
603.976	7.77
604.312	8.07
604.648	7.77
604.984	7.92
605.319	7.69
605.655	7.53
605.991	7.73
606.326	7.96
606.662	7.74
606.998	7.64
607.333	7.74
607.668	7.73
608.004	7.88
608.339	7.67
608.674	8.06
609.01	7.94
609.345	7.89
609.68	8.12
610.015	8.1
610.35	7.96
610.685	8.14
611.02	8.18
611.355	8.12
611.689	7.94
612.024	8.02
612.359	8.07
612.694	8.07
613.028	8.2
613.363	8.21
613.697	8.2
614.032	8.13
614.366	8.1
614.7	8.29
615.035	8.59
615.369	8.42
615.703	8.54
616.037	8.49
616.371	8.9
616.705	8.9
617.039	8.61
617.373	8.67
617.707	8.53
618.041	8.59
618.375	8.74
618.709	8.64
619.042	8.7
619.376	8.57
619.71	8.95
620.043	8.82
620.377	8.59
620.71	9
621.043	9.23
621.377	8.76
621.71	8.98
622.043	9.04
622.376	9.13
622.709	9
623.043	9.01
623.376	9.2
623.709	9.3
624.041	9.03
624.374	9.14
624.707	9.24
625.04	9.23
625.373	8.9
625.705	8.93
626.038	9.13
626.37	9.14
626.703	9.32
627.035	9.44
627.368	9.32
627.7	9.44
628.032	9.5
628.365	9.52
628.697	9.35
629.029	9.35
629.361	9.37
629.693	9.56
630.025	9.42
630.357	9.08
630.689	9.62
631.021	9.5
631.353	9.43
631.684	9.68
632.016	10.05
632.348	9.66
632.679	9.59
633.011	9.57
633.342	9.92
633.674	10.13
634.005	9.44
634.336	9.81
634.668	10.05
634.999	9.99
635.33	10.28
635.661	9.91
635.992	10.03
636.323	9.69
636.654	10.03
636.985	10.15
637.316	10.05
637.647	10.01
637.977	9.78
638.308	10.84
638.639	10.33
638.969	10.17
639.3	10.09
639.63	10.5
639.961	10.18
640.291	10.4
640.622	10.66
640.952	10.45
641.282	10.7
641.612	10.54
641.943	10.34
642.273	10.68
642.603	10.65
642.933	10.78
643.263	10.26
643.592	10.37
643.922	10.34
644.252	10.4
644.582	10.71
644.911	10.7
645.241	10.55
645.571	10.43
645.9	10.94
646.23	11.09
646.559	11.06
646.888	10.91
647.218	10.79
647.547	10.75
647.876	11.06
648.205	10.16
648.534	11.31
648.863	10.82
649.192	10.64
649.521	11.04
649.85	11.01
650.179	11.06
650.508	11.12
650.837	11.36
651.165	10.92
651.494	10.83
651.822	11.43
652.151	11.17
652.479	11.14
652.808	11.11
653.136	11.57
653.465	11.64
653.793	11.54
654.121	11.54
654.449	11.2
654.777	11.7
655.105	11.56
655.433	11.57
655.761	11.98
656.089	11.42
656.417	11.5
656.745	11.61
657.073	11.63
657.4	11.72
657.728	11.48
658.056	11.52
658.383	12.01
658.711	11.64
659.038	11.71
659.365	11.9
659.693	11.46
660.02	12.16
660.347	12.23
660.674	11.79
661.001	11.52
661.329	11.65
661.656	12.08
661.982	11.92
662.309	11.92
662.636	11.62
662.963	11.93
663.29	12.13
663.616	12.46
663.943	12.31
664.27	12.65
664.596	12.42
664.923	12.34
665.249	12.33
665.576	12.44
665.902	12.53
666.228	11.87
666.554	12.26
666.881	12.7
667.207	12.55
667.533	12.11
667.859	12.66
668.185	13.42
668.511	13.12
668.837	12.23
669.162	12.33
669.488	12.67
669.814	13.01
670.139	12.42
670.465	13.31
670.791	12.34
671.116	13.09
671.442	13.56
671.767	11.92
672.092	13.17
672.418	13.51
672.743	13.11
673.068	13.24
673.393	12.59
673.718	13.18
674.043	13.24
674.368	13.49
674.693	12.86
675.018	13.03
675.343	13.43
675.667	13.05
675.992	13.32
676.317	13.27
676.641	13.12
676.966	13.5
677.29	12.78
677.615	13.8
677.939	13.67
678.264	13.15
678.588	13.84
678.912	13.78
679.236	12.86
679.56	14.23
679.885	13.19
680.209	14.3
680.532	13.2
680.856	13.21
681.18	14.23
681.504	13.82
681.828	13.82
682.152	13.66
682.475	14.49
682.799	14.07
683.122	13.59
683.446	13.76
683.769	14.29
684.093	14.75
684.416	14.47
684.739	14.01
685.062	14.92
685.386	13.71
685.709	13.82
686.032	14.1
686.355	13.89
686.678	14.5
687.001	14.13
687.324	14.88
687.646	14.24
687.969	14.55
688.292	13.96
688.614	15.28
