Data from 0090_crown_Reflection__4__166.txt Node

Date: Fri Sep 22 22:13:30 CDT 2023
User: ToomeyLab
Spectrometer: FLMS14357
Trigger mode: 0
Integration Time (sec): 1.000000E-2
Scans to average: 100
Electric dark correction enabled: true
Nonlinearity correction enabled: false
Boxcar width: 0
XAxis mode: Wavelengths
Number of Pixels in Spectrum: 2048
>>>>>Begin Spectral Data<<<<<
189.047	-2140.76
189.435	-2140.76
189.823	-2140.76
190.211	-21.14
190.599	-518.84
190.987	123.58
191.375	447.7
191.763	155.6
192.151	836.85
192.538	111.36
192.926	182.48
193.314	75.1
193.702	-35.2
194.089	96.27
194.477	13.27
194.864	68.49
195.252	-8847.5
195.639	-290.57
196.027	182.99
196.414	-277.41
196.801	21.26
197.189	6.85
197.576	48.88
197.963	-671.52
198.351	-21.65
198.738	7.13
199.125	65.09
199.512	13.31
199.899	35.75
200.286	10.77
200.673	4.99
201.06	18.68
201.447	30.6
201.833	-7.11
202.22	45.12
202.607	60.46
202.994	38.13
203.38	47.68
203.767	13.9
204.154	51.18
204.54	39.09
204.927	7.32
205.313	14.27
205.699	24.54
206.086	21.69
206.472	50.34
206.858	24.87
207.245	10.99
207.631	7.1
208.017	18.47
208.403	32.6
208.789	33.92
209.175	38.07
209.561	44.2
209.947	19.3
210.333	35.52
210.719	33.37
211.105	34.41
211.491	29.6
211.876	35
212.262	21.14
212.648	13.3
213.034	17.65
213.419	6.64
213.805	11.06
214.19	7
214.576	11.7
214.961	35.77
215.346	18.15
215.732	14.61
216.117	-7.3
216.502	29.67
216.888	73.15
217.273	13.55
217.658	-5.18
218.043	14.3
218.428	24.16
218.813	-36.43
219.198	12.62
219.583	-0.28
219.968	-12.08
220.353	39.39
220.738	-1.69
221.122	20.39
221.507	25.43
221.892	0.39
222.276	2.31
222.661	-21.07
223.046	22.96
223.43	18.67
223.815	1.22
224.199	0.42
224.583	15.17
224.968	12.97
225.352	11
225.736	6.88
226.121	-1.03
226.505	5.43
226.889	13.03
227.273	7.48
227.657	3.91
228.041	7
228.425	9.57
228.809	9.91
229.193	9.61
229.577	9.87
229.961	6.75
230.344	7.38
230.728	4.99
231.112	6.15
231.495	5.73
231.879	5.77
232.263	6.45
232.646	5.92
233.03	4.16
233.413	5.66
233.797	5.53
234.18	4.95
234.563	9.8
234.946	6.03
235.33	2.83
235.713	5.11
236.096	5.19
236.479	5.55
236.862	7.15
237.245	6.01
237.628	7.16
238.011	6.36
238.394	4.92
238.777	6.88
239.16	5.04
239.543	9.02
239.925	6.78
240.308	4.91
240.691	6.39
241.073	6.67
241.456	5.85
241.838	6.83
242.221	4.57
242.603	7
242.986	5.68
243.368	4.02
243.75	5.1
244.133	5.83
244.515	5.4
244.897	5.04
245.279	5.31
245.661	4.98
246.043	5.08
246.425	4.61
246.807	5.35
247.189	3.61
247.571	5.7
247.953	4.51
248.335	5.33
248.717	5.39
249.098	5.21
249.48	4.91
249.862	5.26
250.243	4.88
250.625	5.16
251.006	4.9
251.388	5.31
251.769	5.62
252.151	5.18
252.532	5.58
252.913	5.27
253.295	5.9
253.676	4.42
254.057	5.68
254.438	5.58
254.819	4.65
255.2	4.91
255.581	4.36
255.962	4.87
256.343	4.57
256.724	4.39
257.105	5.42
257.486	5.23
257.867	6.75
258.247	5.72
258.628	6.58
259.009	4.61
259.389	3.98
259.77	4.61
260.15	6.2
260.531	4.22
260.911	4.38
261.292	4.77
261.672	4.64
262.052	4.67
262.432	4.7
262.813	4.71
263.193	4.64
263.573	4.89
263.953	5.08
264.333	4.82
264.713	4.72
265.093	4.57
265.473	4.59
265.853	4.48
266.233	4.33
266.612	4.7
266.992	5.65
267.372	5.02
267.752	5.1
268.131	4.73
268.511	4.1
268.89	5.15
269.27	4.42
269.649	4.47
270.029	4.24
270.408	4.63
270.787	4.56
271.167	4.8
271.546	4.04
271.925	4.34
272.304	4.46
272.683	4.46
273.062	4.85
273.441	4.4
273.82	4.59
274.199	4.77
274.578	4.56
274.957	4.17
275.336	4.15
275.715	4.57
276.093	4.31
276.472	5.02
276.851	5.06
277.229	3.69
277.608	4.64
277.986	4.48
278.365	5.17
278.743	4.46
279.122	4.42
279.5	4.23
279.878	3.91
280.257	4.88
280.635	4.54
281.013	5.09
281.391	3.9
281.769	4.46
282.147	4.54
282.525	4.06
282.903	4.19
283.281	3.53
283.659	4.51
284.037	4.4
284.415	4.38
284.792	4.16
285.17	4.28
285.548	4.73
285.925	4.05
286.303	4.25
286.68	4.25
287.058	4.05
287.435	4.07
287.813	3.77
288.19	3.94
288.567	4.18
288.945	4.29
289.322	4.3
289.699	4.22
290.076	4.02
290.453	3.56
290.83	4.06
291.207	3.62
291.584	3.2
291.961	3.86
292.338	3.63
292.715	4.31
293.092	4.1
293.469	4.26
293.845	3.57
294.222	4.26
294.599	4.27
294.975	4.48
295.352	3.85
295.728	4.09
296.105	3.94
296.481	3.81
296.858	3.94
297.234	3.52
297.61	3.66
297.986	4.02
298.363	3.74
298.739	3.82
299.115	4.07
299.491	3.91
299.867	3.8
300.243	3.49
300.619	3.94
300.995	3.55
301.371	4.27
301.746	4.05
302.122	4.27
302.498	3.29
302.874	3.31
303.249	3.63
303.625	4.1
304	4.04
304.376	4.19
304.751	3.97
305.127	3.88
305.502	4.54
305.878	3.67
306.253	3.92
306.628	3.1
307.003	3.62
307.378	4.18
307.754	3.82
308.129	3.98
308.504	3.69
308.879	4.37
309.254	3.91
309.629	3.71
310.003	3.94
310.378	4.14
310.753	3.34
311.128	3.67
311.502	3.78
311.877	3.65
312.252	3.55
312.626	3.7
313.001	4.05
313.375	3.86
313.75	4.03
314.124	3.78
314.498	3.63
314.873	4.01
315.247	3.79
315.621	4.08
315.995	3.79
316.369	3.71
316.743	3.93
317.117	3.52
317.491	3.98
317.865	3.22
318.239	3.59
318.613	3.35
318.987	3.46
319.361	3.18
319.734	3.4
320.108	3.73
320.482	3.33
320.855	3.01
321.229	4.44
321.602	3.93
321.976	3.96
322.349	4.04
322.723	3.31
323.096	4.07
323.469	3.91
323.843	3.41
324.216	3.79
324.589	3.98
324.962	3.4
325.335	3.3
325.708	3.35
326.081	4.01
326.454	2.65
326.827	3.54
327.2	3.59
327.573	3.75
327.945	3.82
328.318	3.69
328.691	3.79
329.063	3.42
329.436	3.52
329.809	3.68
330.181	3.9
330.553	3.58
330.926	3.48
331.298	3.16
331.671	3.75
332.043	3.29
332.415	3.71
332.787	3.58
333.159	3.43
333.532	3.39
333.904	3.93
334.276	3.69
334.648	3.21
335.02	3.89
335.391	3.93
335.763	3.48
336.135	3.74
336.507	3.87
336.879	3.04
337.25	3.89
337.622	3.55
337.993	3.82
338.365	3.86
338.736	4.22
339.108	3.74
339.479	3.51
339.851	3.46
340.222	3.51
340.593	3.55
340.964	3.35
341.336	3.73
341.707	3.71
342.078	3.69
342.449	4.09
342.82	3.49
343.191	3.41
343.562	3.73
343.933	3.78
344.303	3.28
344.674	3.46
345.045	3.85
345.416	3.67
345.786	3.45
346.157	3.72
346.527	3.75
346.898	3.45
347.268	3.92
347.639	3.2
348.009	3.51
348.38	4.01
348.75	3.73
349.12	3.71
349.49	3.61
349.861	3.88
350.231	4.08
350.601	3.67
350.971	4.01
351.341	3.53
351.711	3.76
352.081	3.42
352.45	4.01
352.82	4.18
353.19	4.07
353.56	3.55
353.929	3.43
354.299	3.39
354.669	3.21
355.038	3.7
355.408	3.27
355.777	4.06
356.147	3.79
356.516	4.13
356.885	3.81
357.254	4.07
357.624	3.77
357.993	3.87
358.362	3.63
358.731	3.43
359.1	3.87
359.469	3.75
359.838	3.46
360.207	3.64
360.576	3.67
360.945	3.52
361.314	3.77
361.682	3.66
362.051	3.85
362.42	3.29
362.788	3.3
363.157	3.78
363.525	3.77
363.894	3.62
364.262	3.47
364.631	3.66
364.999	3.7
365.367	3.92
365.735	4.07
366.104	3.53
366.472	4.13
366.84	3.5
367.208	4.2
367.576	3.8
367.944	3.9
368.312	4.11
368.68	3.73
369.048	3.88
369.416	4.03
369.783	3.72
370.151	3.46
370.519	3.61
370.886	3.94
371.254	4.01
371.621	3.61
371.989	3.5
372.356	3.75
372.724	4.03
373.091	4.12
373.458	3.99
373.826	3.85
374.193	3.83
374.56	4.13
374.927	4.14
375.294	3.76
375.661	3.74
376.028	4.19
376.395	3.83
376.762	3.67
377.129	3.84
377.496	4.06
377.863	4.17
378.229	4.09
378.596	4
378.963	4.28
379.329	4
379.696	4.13
380.062	3.72
380.429	4.01
380.795	3.85
381.161	3.83
381.528	3.84
381.894	3.58
382.26	3.78
382.626	3.61
382.993	4.12
383.359	3.64
383.725	3.72
384.091	4.03
384.457	3.84
384.823	3.9
385.188	4.07
385.554	3.88
385.92	4.28
386.286	4.11
386.651	4.1
387.017	3.89
387.383	3.87
387.748	3.77
388.114	3.85
388.479	3.99
388.845	3.58
389.21	3.76
389.575	4.24
389.94	3.98
390.306	4.23
390.671	4.37
391.036	3.7
391.401	4.16
391.766	4.12
392.131	4.15
392.496	4.11
392.861	4.05
393.226	4.08
393.591	4.06
393.956	4.11
394.32	3.85
394.685	3.92
395.05	4.16
395.414	4.27
395.779	4.1
396.143	4.22
396.508	3.93
396.872	3.94
397.236	4.11
397.601	4.15
397.965	4.35
398.329	4.1
398.694	4.01
399.058	3.95
399.422	4.12
399.786	3.95
400.15	4.33
400.514	4.22
400.878	4.07
401.242	4.11
401.605	3.99
401.969	3.94
402.333	4.13
402.697	4
403.06	4.2
403.424	4.21
403.787	4.17
404.151	4.16
404.514	4.23
404.878	4.17
405.241	4.39
405.604	4.13
405.968	4.26
406.331	3.89
406.694	4.13
407.057	3.91
407.42	4.13
407.783	4.04
408.146	4.13
408.509	4.05
408.872	4.16
409.235	4.13
409.598	3.96
409.961	4.17
410.323	4.14
410.686	4.17
411.049	4.2
411.411	4.36
411.774	4.19
412.136	4.02
412.499	4.24
412.861	4.47
413.223	4.22
413.586	4.21
413.948	4.24
414.31	4.01
414.672	4.18
415.035	4.11
415.397	4.31
415.759	4.64
416.121	4.09
416.483	4.07
416.845	4.42
417.206	4.03
417.568	4.01
417.93	4.13
418.292	4.21
418.653	4.06
419.015	4.05
419.377	4.01
419.738	4.12
420.1	4.01
420.461	4.17
420.822	4.12
421.184	4.02
421.545	4.07
421.906	4.02
422.267	3.86
422.629	4.06
422.99	4.03
423.351	3.87
423.712	3.98
424.073	4.05
424.434	4.12
424.795	4.05
425.155	4.13
425.516	4.18
425.877	4.11
426.238	3.97
426.598	3.95
426.959	4.05
427.32	4.01
427.68	4
428.041	4.13
428.401	4.15
428.761	4.29
429.122	4.13
429.482	4.15
429.842	4.08
430.202	4.24
430.563	4.21
430.923	4.24
431.283	4.26
431.643	4.31
432.003	4.24
432.363	4.32
432.722	4.36
433.082	4.37
433.442	4.26
433.802	4.36
434.161	3.99
434.521	4.17
434.881	4.21
435.24	4.07
435.6	4.08
435.959	4.08
436.319	4.03
436.678	4.2
437.037	4.16
437.396	4.24
437.756	4.21
438.115	4.13
438.474	4.37
438.833	4.27
439.192	4.05
439.551	4.2
439.91	4.25
440.269	4.19
440.628	4.06
440.987	4.03
441.345	4.15
441.704	4.2
442.063	4.1
442.421	4.18
442.78	4.15
443.138	4.19
443.497	4.14
443.855	4.1
444.214	3.99
444.572	4.22
444.93	4.2
445.288	4.17
445.647	4.31
446.005	4.09
446.363	4.07
446.721	4.1
447.079	4.03
447.437	4.1
447.795	4.27
448.153	4.13
448.51	4.14
448.868	4.02
449.226	4.08
449.584	4.05
449.941	4.04
450.299	4.19
450.656	4.3
451.014	4.29
451.371	4.18
451.729	4.32
452.086	4.14
452.443	4.22
452.801	4.32
453.158	4.21
453.515	4.24
453.872	4.24
454.229	4.25
454.586	4.4
454.943	4.21
455.3	4.3
455.657	4.15
456.014	4.34
456.371	4.35
456.727	4.4
457.084	4.23
457.441	4.16
457.797	4.21
458.154	4.1
458.51	4.3
458.867	4.39
459.223	4.27
459.58	4.32
459.936	4.29
460.292	4.37
460.648	4.25
461.005	4.18
461.361	4.32
461.717	3.96
462.073	4.1
462.429	3.94
462.785	4.08
463.141	4.22
463.496	4.31
463.852	4.19
464.208	4.23
464.564	4.31
464.919	4.16
465.275	4.43
465.631	4.46
465.986	4.4
466.342	4.32
466.697	4.43
467.052	4.15
467.408	4.36
467.763	4.17
468.118	4.36
468.473	4.28
468.829	4.05
469.184	4.18
469.539	4.29
469.894	4.25
470.249	4.25
470.603	4.3
470.958	4.27
471.313	4.31
471.668	4.25
472.023	4.23
472.377	4.4
472.732	4.16
473.086	4.46
473.441	4.18
473.795	4.31
474.15	4.2
474.504	4.29
474.859	4.4
475.213	4.04
475.567	4.07
475.921	4.2
476.275	4.31
476.63	4.09
476.984	4.17
477.338	4.32
477.692	4.3
478.045	4.27
478.399	4.39
478.753	4.19
479.107	4.17
479.461	4.26
479.814	4.39
480.168	4.31
480.521	4.34
480.875	4.37
481.228	4.2
481.582	4.2
481.935	4.28
482.289	4.12
482.642	4.03
482.995	4.2
483.348	4.29
483.701	4.23
484.055	4.13
484.408	4.08
484.761	4.2
485.114	4.05
485.466	4.03
485.819	3.88
486.172	3.83
486.525	3.85
486.878	3.9
487.23	4
487.583	4.07
487.936	4.12
488.288	4.09
488.641	4.06
488.993	3.96
489.345	3.94
489.698	3.94
490.05	3.98
490.402	3.97
490.754	3.93
491.107	4.03
491.459	4.11
491.811	4.15
492.163	4.18
492.515	4.16
492.866	4.14
493.218	4.09
493.57	4.05
493.922	3.98
494.274	3.92
494.625	4.03
494.977	4.12
495.328	4.24
495.68	4.22
496.031	4.19
496.383	4.19
496.734	4.28
497.086	4.23
497.437	4.33
497.788	4.22
498.139	4.18
498.49	4.39
498.842	4.07
499.193	4.12
499.544	4.18
499.894	4.17
500.245	4.24
500.596	4.23
500.947	4.29
501.298	4.15
501.648	4.21
501.999	4.32
502.35	4.27
502.7	4.38
503.051	4.25
503.401	4.31
503.752	4.38
504.102	4.29
504.452	4.27
504.803	4.15
505.153	4.16
505.503	4.25
505.853	4.21
506.203	4.22
506.553	4.25
506.903	4.23
507.253	4.11
507.603	4.25
507.953	4.25
508.303	4.3
508.652	4.28
509.002	4.35
509.352	4.15
509.701	4.21
510.051	4.18
510.4	4.27
510.75	4.07
511.099	3.9
511.449	4.22
511.798	4.3
512.147	4.23
512.496	4.09
512.846	4.29
513.195	4.14
513.544	4.08
513.893	4.19
514.242	4.07
514.591	4.16
514.939	4.25
515.288	4.11
515.637	4.24
515.986	4.15
516.334	4.15
516.683	4.14
517.032	4.38
517.38	4.27
517.729	4.23
518.077	4.19
518.426	4.12
518.774	4.26
519.122	4.1
519.47	4.1
519.819	4.22
520.167	4.17
520.515	4.21
520.863	4.03
521.211	4.01
521.559	4.13
521.907	4.17
522.255	4.13
522.602	4.14
522.95	4.14
523.298	4.27
523.645	4.26
523.993	4.19
524.341	4.15
524.688	4.21
525.036	4.19
525.383	4.09
525.73	4.27
526.078	4.19
526.425	4.13
526.772	4.24
527.119	4.21
527.466	4.15
527.814	4.09
528.161	3.98
528.508	4.06
528.854	4.1
529.201	4.15
529.548	4.06
529.895	4.01
530.242	4.01
530.588	3.86
530.935	3.81
531.282	3.81
531.628	3.9
531.975	3.97
532.321	3.98
532.667	4.01
533.014	4.14
533.36	4.14
533.706	4.14
534.052	4.06
534.399	4.08
534.745	4.11
535.091	3.94
535.437	3.89
535.783	3.85
536.129	3.98
536.474	4.04
536.82	3.98
537.166	4.11
537.512	4.16
537.857	4.1
538.203	4.16
538.549	4.04
538.894	4.04
539.239	4.03
539.585	3.99
539.93	4.19
540.276	4.08
540.621	4.13
540.966	4.19
541.311	4.3
541.656	4.09
542.001	4.09
542.346	4.12
542.691	4.09
543.036	4.02
543.381	3.86
543.726	3.86
544.071	3.92
544.415	3.92
544.76	3.98
545.105	3.99
545.449	4.01
545.794	4.05
546.138	4.03
546.483	4.09
546.827	4.04
547.171	4.12
547.516	4.2
547.86	4.2
548.204	4.06
548.548	4.01
548.892	4.08
549.236	4.01
549.58	4.12
549.924	4.17
550.268	4.19
550.612	4.1
550.956	4.21
551.3	4.26
551.643	4.22
551.987	4.22
552.33	4.28
552.674	4.14
553.017	4.12
553.361	4.12
553.704	4.3
554.048	4.21
554.391	4.14
554.734	4.26
555.077	4.11
555.42	4.11
555.764	4.04
556.107	4.2
556.45	4.15
556.793	4.17
557.135	4.26
557.478	4.14
557.821	4.19
558.164	4.2
558.507	4.3
558.849	4.12
559.192	4.29
559.534	4.28
559.877	4.22
560.219	4.06
560.562	4.29
560.904	4.15
561.246	4.46
561.589	4.19
561.931	4.21
562.273	4.02
562.615	4.16
562.957	4.06
563.299	4.24
563.641	4.29
563.983	4.2
564.325	4.3
564.667	4.23
565.008	4.17
565.35	4.21
565.692	4.29
566.033	4.24
566.375	4.15
566.716	4.14
567.058	4.12
567.399	4.23
567.741	4.16
568.082	3.99
568.423	4.15
568.764	4.2
569.105	3.92
569.447	4.14
569.788	3.92
570.129	4.23
570.47	4.24
570.811	4.11
571.151	4.3
571.492	4.01
571.833	3.99
572.174	4.1
572.514	4.2
572.855	4.11
573.195	4.04
573.536	4.18
573.876	4.01
574.217	4.04
574.557	3.89
574.898	4.12
575.238	3.99
575.578	4.15
575.918	3.96
576.258	3.93
576.598	4.09
576.938	4.08
577.278	4.21
577.618	3.85
577.958	4.12
578.298	4.28
578.638	4.05
578.977	4.12
579.317	4.01
579.657	4
579.996	4.16
580.336	4.21
580.675	4.23
581.014	4.21
581.354	3.96
581.693	4.11
582.032	4.03
582.372	4.16
582.711	4.06
583.05	3.98
583.389	4.22
583.728	3.98
584.067	4.12
584.406	4.13
584.745	3.85
585.083	4.24
585.422	4.2
585.761	4.2
586.1	4.19
586.438	4.17
586.777	4.13
587.115	4.21
587.454	4.03
587.792	4.24
588.13	4.11
588.469	4.12
588.807	4.36
589.145	4.25
589.483	4
589.821	4.19
590.159	4.24
590.497	4.36
590.835	4.2
591.173	3.99
591.511	3.97
591.849	4.37
592.187	4.05
592.524	4.31
592.862	4.34
593.2	4.12
593.537	3.92
593.875	4.07
594.212	4.12
594.55	4.4
594.887	4.13
595.224	4.2
595.561	4.21
595.899	4.42
596.236	4.31
596.573	4.27
596.91	3.98
597.247	3.95
597.584	4.28
597.921	4.39
598.258	4.29
598.594	4.15
598.931	4.14
599.268	3.97
599.604	4.18
599.941	3.99
600.277	3.94
600.614	3.87
600.95	4.1
601.287	4.14
601.623	4.22
601.959	4.16
602.296	4.05
602.632	3.9
602.968	4.27
603.304	4.17
603.64	4.17
603.976	4.34
604.312	4.28
604.648	4.21
604.984	4.33
605.319	4.07
605.655	3.82
605.991	4.07
606.326	4.05
606.662	3.96
606.998	3.75
607.333	4.17
607.668	3.9
608.004	4.11
608.339	4.05
608.674	4.06
609.01	4.23
609.345	4.02
609.68	4.36
610.015	4.15
610.35	4.37
610.685	4.16
611.02	4.1
611.355	4.22
611.689	3.82
612.024	3.98
612.359	4.06
612.694	3.95
613.028	3.94
613.363	4.05
613.697	4.02
614.032	4.13
614.366	4.1
614.7	3.97
615.035	4.06
615.369	3.75
615.703	4.07
616.037	4.26
616.371	4.13
616.705	4.16
617.039	4.27
617.373	3.99
617.707	4.05
618.041	4.31
618.375	3.87
618.709	3.94
619.042	4.39
619.376	4.2
619.71	3.98
620.043	3.99
620.377	4.11
620.71	4.26
621.043	4.25
621.377	3.96
621.71	4.02
622.043	4.11
622.376	4.49
622.709	3.93
623.043	4
623.376	4.13
623.709	4.18
624.041	3.73
624.374	4.15
624.707	4.35
625.04	4.06
625.373	3.78
625.705	4.27
626.038	3.97
626.37	4.35
626.703	4.34
627.035	3.85
627.368	4.38
627.7	4.22
628.032	4.41
628.365	4.01
628.697	4.23
629.029	3.92
629.361	4.24
629.693	4
630.025	4.02
630.357	4.08
630.689	3.86
631.021	3.94
631.353	4.09
631.684	4.09
632.016	4.2
632.348	4.19
632.679	3.86
633.011	4.07
633.342	4.21
633.674	4.38
634.005	3.89
634.336	4.56
634.668	4.36
634.999	4.36
635.33	4.24
635.661	4.09
635.992	4.2
636.323	4.12
636.654	3.87
636.985	3.83
637.316	4.01
637.647	4.36
637.977	3.87
638.308	4.48
638.639	4.19
638.969	4.05
639.3	4.2
639.63	4.37
639.961	3.98
640.291	4.02
640.622	4.42
640.952	3.99
641.282	4.2
641.612	4.16
641.943	4.39
642.273	4.2
642.603	4.04
642.933	4.26
643.263	3.69
643.592	4.13
643.922	4.65
644.252	3.81
644.582	4.53
644.911	4.34
645.241	4.33
645.571	4.2
645.9	4.36
646.23	4.22
646.559	4.3
646.888	4.04
647.218	4.4
647.547	4.05
647.876	4.09
648.205	3.89
648.534	4.33
648.863	4.7
649.192	3.62
649.521	4.14
649.85	4.52
650.179	4.01
650.508	3.83
650.837	4.28
651.165	3.98
651.494	3.96
651.822	4
652.151	4.09
652.479	4.08
652.808	4.15
653.136	4.44
653.465	4.11
653.793	3.81
654.121	4.5
654.449	3.76
654.777	4.36
655.105	4.27
655.433	4.36
655.761	4.52
656.089	4.2
656.417	4.09
656.745	4.05
657.073	4.18
657.4	4.83
657.728	4.27
658.056	4.23
658.383	4.84
658.711	4.03
659.038	3.71
659.365	4.19
659.693	3.87
660.02	4.93
660.347	4.54
660.674	3.81
661.001	3.93
661.329	4.04
661.656	4.19
661.982	4.08
662.309	4.24
662.636	4.33
662.963	4.59
663.29	4.14
663.616	4.39
663.943	4.23
664.27	4.12
664.596	4.12
664.923	3.99
665.249	4.33
665.576	3.63
665.902	4.54
666.228	4.09
666.554	3.84
666.881	4.44
667.207	4.51
667.533	4
667.859	4.22
668.185	4.31
668.511	4.82
668.837	4.42
669.162	4.09
669.488	3.96
669.814	4.57
670.139	4.02
670.465	4.4
670.791	4.36
671.116	3.98
671.442	4.84
671.767	3.5
672.092	4.28
672.418	4.46
672.743	4.12
673.068	4.61
673.393	4.23
673.718	5.19
674.043	5.18
674.368	4.17
674.693	4.42
675.018	4.27
675.343	4.36
675.667	3.96
675.992	3.95
676.317	4.46
676.641	4.48
676.966	5.24
677.29	4.29
677.615	4.52
677.939	4.44
678.264	4.27
678.588	5.09
678.912	4.59
679.236	4.42
679.56	4.73
679.885	4.16
680.209	4.87
680.532	4.28
680.856	4.3
681.18	4.81
681.504	4.61
681.828	4.11
682.152	4.1
682.475	4.98
682.799	4.36
683.122	4.55
683.446	4.46
683.769	4.51
684.093	4.85
684.416	4.39
684.739	4.56
685.062	4.71
685.386	4.09
685.709	4.2
686.032	4.24
686.355	3.89
686.678	4.82
687.001	4.77
687.324	4.78
687.646	4.68
687.969	4.59
688.292	4.05
688.614	4.88
688.937	4.16
689.26	4.13
689.582	5.24
689.904	4.25
690.227	4.78
690.549	4.82
690.871	4.24
691.194	5.21
691.516	4.3
691.838	4.61
692.16	4.03
692.482	5
692.804	3.71
693.126	4.04
