Data from 0090_forehead_Reflection__4__171.txt Node

Date: Fri Sep 22 22:14:44 CDT 2023
User: ToomeyLab
Spectrometer: FLMS14357
Trigger mode: 0
Integration Time (sec): 1.000000E-2
Scans to average: 100
Electric dark correction enabled: true
Nonlinearity correction enabled: false
Boxcar width: 0
XAxis mode: Wavelengths
Number of Pixels in Spectrum: 2048
>>>>>Begin Spectral Data<<<<<
189.047	1215.22
189.435	1215.22
189.823	1215.22
190.211	-51.73
190.599	281.34
190.987	98.31
191.375	196.4
191.763	106.44
192.151	668.18
192.538	12.11
192.926	208.42
193.314	88.69
193.702	52.22
194.089	97.33
194.477	-53.62
194.864	11.81
195.252	-4730
195.639	-378.07
196.027	37.65
196.414	-99.54
196.801	12.35
197.189	-81.95
197.576	139.11
197.963	-94.26
198.351	48.03
198.738	21.93
199.125	29.29
199.512	4.29
199.899	63.25
200.286	43.98
200.673	34.04
201.06	48.64
201.447	48.15
201.833	-8.15
202.22	43.64
202.607	36.05
202.994	55.59
203.38	24.75
203.767	43.5
204.154	-0.14
204.54	30.83
204.927	13.19
205.313	6.34
205.699	61.49
206.086	33.63
206.472	50.77
206.858	38.28
207.245	-6.75
207.631	16.76
208.017	31.51
208.403	92.88
208.789	76.45
209.175	42.4
209.561	29.48
209.947	55.93
210.333	44.61
210.719	4.24
211.105	17.98
211.491	24.24
211.876	32.74
212.262	5.53
212.648	44.39
213.034	39.18
213.419	23.95
213.805	20.56
214.19	11.38
214.576	25.94
214.961	-5.87
215.346	-0.89
215.732	24.82
216.117	14.21
216.502	27.11
216.888	35.28
217.273	23.88
217.658	36.06
218.043	23.96
218.428	45.62
218.813	15.28
219.198	16.51
219.583	42.4
219.968	-18.72
220.353	45.12
220.738	16.81
221.122	30.27
221.507	2.25
221.892	37.77
222.276	19.05
222.661	-19.87
223.046	28.27
223.43	27
223.815	10.08
224.199	7.03
224.583	14
224.968	16.9
225.352	10.18
225.736	2.14
226.121	14.64
226.505	6.89
226.889	9.47
227.273	6.53
227.657	4.68
228.041	3.34
228.425	6.81
228.809	2.07
229.193	7.61
229.577	5.63
229.961	6.22
230.344	3.19
230.728	2.31
231.112	3.35
231.495	2.43
231.879	2.65
232.263	1.57
232.646	3.25
233.03	1.17
233.413	3.96
233.797	3.05
234.18	3.18
234.563	4.75
234.946	6.54
235.33	2.01
235.713	-1.3
236.096	1.03
236.479	3.27
236.862	3.84
237.245	2.85
237.628	4.32
238.011	4.5
238.394	1.62
238.777	4.4
239.16	3.36
239.543	4.5
239.925	2.99
240.308	2.69
240.691	3.4
241.073	5.1
241.456	5.26
241.838	2.85
242.221	2.66
242.603	2.17
242.986	2.24
243.368	2.1
243.75	2.77
244.133	2.45
244.515	1.79
244.897	1.95
245.279	2.4
245.661	2.23
246.043	2.13
246.425	2.16
246.807	3.06
247.189	2.26
247.571	3.16
247.953	3.28
248.335	2.38
248.717	2.47
249.098	2.3
249.48	1.99
249.862	1.79
250.243	2.15
250.625	2.58
251.006	2.27
251.388	2.53
251.769	3.08
252.151	1.94
252.532	2.79
252.913	3.06
253.295	4.02
253.676	2.14
254.057	2.78
254.438	2.86
254.819	1.92
255.2	2.01
255.581	2.42
255.962	2.96
256.343	1.7
256.724	1.84
257.105	2.72
257.486	2.95
257.867	2.33
258.247	2.96
258.628	3.37
259.009	2.89
259.389	1.77
259.77	2.79
260.15	2.97
260.531	1.48
260.911	2.24
261.292	1.92
261.672	2.2
262.052	2.32
262.432	2.04
262.813	2.19
263.193	1.74
263.573	2.53
263.953	1.69
264.333	2.22
264.713	1.72
265.093	2.55
265.473	2.47
265.853	1.8
266.233	2.5
266.612	2.01
266.992	3.05
267.372	2.98
267.752	2.59
268.131	2.51
268.511	1.78
268.89	2.51
269.27	2.28
269.649	1.95
270.029	2.48
270.408	2.2
270.787	1.9
271.167	2.02
271.546	2.13
271.925	2.28
272.304	1.87
272.683	2.3
273.062	2.96
273.441	1.91
273.82	2.63
274.199	2.35
274.578	2.46
274.957	2.44
275.336	2.12
275.715	1.96
276.093	1.66
276.472	2.34
276.851	2.63
277.229	1.74
277.608	2
277.986	2.39
278.365	2.53
278.743	1.96
279.122	2.47
279.5	2.59
279.878	2.64
280.257	3.24
280.635	2.41
281.013	3.07
281.391	1.65
281.769	2.2
282.147	2.26
282.525	2.37
282.903	2.6
283.281	1.86
283.659	2.34
284.037	2.14
284.415	2.59
284.792	1.92
285.17	1.9
285.548	2.5
285.925	2.08
286.303	1.96
286.68	1.71
287.058	2.11
287.435	2.21
287.813	2.02
288.19	1.64
288.567	2.2
288.945	1.88
289.322	2.15
289.699	2.2
290.076	1.46
290.453	1.83
290.83	1.98
291.207	2.46
291.584	2.02
291.961	1.67
292.338	2.1
292.715	2.17
293.092	2.15
293.469	2.28
293.845	2.2
294.222	2.13
294.599	2.72
294.975	2.89
295.352	2.31
295.728	2.7
296.105	2.54
296.481	2.19
296.858	2.42
297.234	2.25
297.61	2.52
297.986	2.26
298.363	2.55
298.739	1.93
299.115	2.61
299.491	2.49
299.867	2.29
300.243	2.15
300.619	2.58
300.995	2.26
301.371	2.67
301.746	2.66
302.122	2.68
302.498	2.47
302.874	2.53
303.249	2.16
303.625	2.74
304	3.09
304.376	3.08
304.751	2.86
305.127	2.93
305.502	2.86
305.878	2.63
306.253	2.91
306.628	2.31
307.003	2.62
307.378	2.9
307.754	2.66
308.129	2.98
308.504	3.17
308.879	3.06
309.254	2.66
309.629	3.17
310.003	3.18
310.378	3.48
310.753	3.31
311.128	2.9
311.502	2.62
311.877	2.63
312.252	2.79
312.626	2.83
313.001	3.21
313.375	3.07
313.75	3.15
314.124	3.23
314.498	2.64
314.873	2.98
315.247	3.34
315.621	3.11
315.995	3.42
316.369	2.44
316.743	3.11
317.117	3.35
317.491	3.62
317.865	3.01
318.239	3.15
318.613	3.19
318.987	3.54
319.361	3.08
319.734	3.15
320.108	4.03
320.482	3.56
320.855	3.2
321.229	4
321.602	3.37
321.976	3.57
322.349	4.22
322.723	3.75
323.096	3.67
323.469	3.71
323.843	3.92
324.216	3.57
324.589	3.26
324.962	3.61
325.335	3.35
325.708	3.6
326.081	3.76
326.454	3.38
326.827	3.87
327.2	3.59
327.573	4.38
327.945	3.89
328.318	4.1
328.691	3.87
329.063	3.63
329.436	3.79
329.809	4.08
330.181	3.99
330.553	3.86
330.926	4.18
331.298	4.41
331.671	4.33
332.043	3.78
332.415	3.79
332.787	4.5
333.159	3.45
333.532	4.09
333.904	3.65
334.276	3.55
334.648	3.68
335.02	3.87
335.391	4.23
335.763	4.15
336.135	3.55
336.507	4.31
336.879	3.64
337.25	4.18
337.622	4.74
337.993	3.88
338.365	4.47
338.736	4.4
339.108	4.25
339.479	4.32
339.851	3.84
340.222	3.98
340.593	3.86
340.964	4.11
341.336	4.71
341.707	4.01
342.078	4.44
342.449	4.35
342.82	4.03
343.191	4.41
343.562	4.32
343.933	4.36
344.303	4.16
344.674	4.58
345.045	4.59
345.416	4.58
345.786	4.09
346.157	4.13
346.527	4.62
346.898	4.37
347.268	4.14
347.639	4.87
348.009	4.72
348.38	4.62
348.75	4.82
349.12	4.47
349.49	4.79
349.861	4.93
350.231	4.45
350.601	4.92
350.971	5.18
351.341	4.21
351.711	4.62
352.081	4.57
352.45	4.57
352.82	4.95
353.19	5.48
353.56	4.44
353.929	5.03
354.299	4.97
354.669	4.83
355.038	4.34
355.408	4.93
355.777	5.06
356.147	5.33
356.516	5.15
356.885	5.05
357.254	5.31
357.624	5.15
357.993	5.14
358.362	4.79
358.731	4.94
359.1	4.93
359.469	4.93
359.838	4.65
360.207	4.87
360.576	5.09
360.945	5.29
361.314	5.27
361.682	5.09
362.051	5.09
362.42	5.46
362.788	5.44
363.157	5.27
363.525	5.12
363.894	5.31
364.262	5.1
364.631	5.11
364.999	5.15
365.367	5.27
365.735	5.32
366.104	5.38
366.472	5.59
366.84	5.15
367.208	5.64
367.576	5.17
367.944	5.46
368.312	5.63
368.68	5.75
369.048	5.81
369.416	5.63
369.783	5.47
370.151	5.64
370.519	5.72
370.886	5.64
371.254	6.29
371.621	5.94
371.989	5.53
372.356	5.69
372.724	6.01
373.091	6.05
373.458	6
373.826	5.97
374.193	6.2
374.56	5.98
374.927	5.91
375.294	5.97
375.661	5.96
376.028	5.95
376.395	6.09
376.762	6.08
377.129	6.5
377.496	6.27
377.863	6.21
378.229	6.43
378.596	5.86
378.963	6.55
379.329	5.95
379.696	6.1
380.062	6.37
380.429	6.23
380.795	6.52
381.161	6.17
381.528	6.36
381.894	6.13
382.26	6.38
382.626	6.3
382.993	6.52
383.359	6.32
383.725	6.24
384.091	6.43
384.457	6.61
384.823	6.58
385.188	6.67
385.554	6.66
385.92	6.72
386.286	6.57
386.651	6.31
387.017	6.64
387.383	6.34
387.748	6.59
388.114	6.63
388.479	6.86
388.845	6.63
389.21	6.69
389.575	7.05
389.94	6.66
390.306	7.08
390.671	7.24
391.036	6.76
391.401	6.87
391.766	7.03
392.131	6.77
392.496	7.08
392.861	6.75
393.226	7.2
393.591	7.12
393.956	7.16
394.32	6.91
394.685	6.95
395.05	7.08
395.414	7.32
395.779	7.29
396.143	7.16
396.508	7.15
396.872	7.13
397.236	7.12
397.601	7.06
397.965	7.36
398.329	7.15
398.694	7.24
399.058	7.13
399.422	7.32
399.786	7.53
400.15	7.48
400.514	7.38
400.878	7.37
401.242	7.41
401.605	7.26
401.969	7.25
402.333	7.62
402.697	7.5
403.06	7.59
403.424	7.57
403.787	7.75
404.151	7.68
404.514	7.83
404.878	7.75
405.241	7.73
405.604	7.59
405.968	7.72
406.331	7.72
406.694	7.52
407.057	7.57
407.42	7.81
407.783	7.9
408.146	7.66
408.509	7.84
408.872	7.68
409.235	7.97
409.598	7.85
409.961	8
410.323	8.03
410.686	8.06
411.049	8.37
411.411	8.34
411.774	7.92
412.136	7.99
412.499	7.96
412.861	7.98
413.223	8.15
413.586	8.15
413.948	8.2
414.31	8.3
414.672	8.32
415.035	8.12
415.397	8.46
415.759	8.45
416.121	8.31
416.483	8.42
416.845	8.07
417.206	8.23
417.568	8.1
417.93	8.32
418.292	8.36
418.653	8.32
419.015	8.17
419.377	8.28
419.738	8.3
420.1	8.19
420.461	8.28
420.822	8.31
421.184	8.3
421.545	8.24
421.906	8.32
422.267	8.25
422.629	8.48
422.99	8.25
423.351	8.18
423.712	8.3
424.073	8.36
424.434	8.49
424.795	8.5
425.155	8.55
425.516	8.55
425.877	8.5
426.238	8.4
426.598	8.56
426.959	8.59
427.32	8.67
427.68	8.65
428.041	8.7
428.401	8.99
428.761	9.07
429.122	8.94
429.482	9.08
429.842	9.01
430.202	9.04
430.563	9.3
430.923	9.25
431.283	9.2
431.643	9.26
432.003	9.39
432.363	9.33
432.722	9.35
433.082	9.63
433.442	9.36
433.802	9.59
434.161	9.27
434.521	9.42
434.881	9.4
435.24	9.26
435.6	9.32
435.959	9.41
436.319	9.56
436.678	9.65
437.037	9.74
437.396	9.68
437.756	9.78
438.115	9.76
438.474	9.92
438.833	9.81
439.192	9.99
439.551	9.86
439.91	9.94
440.269	9.95
440.628	9.76
440.987	9.78
441.345	9.93
441.704	10.04
442.063	9.86
442.421	9.93
442.78	9.89
443.138	9.94
443.497	10.02
443.855	10
444.214	10.09
444.572	10.08
444.93	10.31
445.288	10.34
445.647	10.43
446.005	10.26
446.363	10.26
446.721	10.22
447.079	10.2
447.437	10.32
447.795	10.36
448.153	10.2
448.51	10.12
448.868	10.13
449.226	10.24
449.584	10.34
449.941	10.39
450.299	10.5
450.656	10.54
451.014	10.67
451.371	10.71
451.729	10.62
452.086	10.72
452.443	10.79
452.801	10.93
453.158	10.98
453.515	11.12
453.872	10.89
454.229	11.18
454.586	11.01
454.943	11.07
455.3	11.01
455.657	11.08
456.014	11.11
456.371	11.23
456.727	11.46
457.084	11.07
457.441	11.26
457.797	11.4
458.154	11.44
458.51	11.31
458.867	11.43
459.223	11.39
459.58	11.59
459.936	11.69
460.292	11.64
460.648	11.53
461.005	11.42
461.361	11.51
461.717	11.2
462.073	11.23
462.429	11.08
462.785	11.42
463.141	11.48
463.496	11.68
463.852	11.6
464.208	11.78
464.564	12
464.919	11.78
465.275	11.88
465.631	12.04
465.986	12.16
466.342	12.08
466.697	12.32
467.052	12.1
467.408	12.25
467.763	12.28
468.118	12.34
468.473	12.24
468.829	12.02
469.184	12.3
469.539	12.15
469.894	12.19
470.249	12.34
470.603	12.36
470.958	12.55
471.313	12.48
471.668	12.45
472.023	12.66
472.377	12.6
472.732	12.48
473.086	12.7
473.441	12.42
473.795	12.84
474.15	12.74
474.504	12.64
474.859	12.89
475.213	12.57
475.567	12.7
475.921	12.88
476.275	12.87
476.63	12.88
476.984	12.89
477.338	12.98
477.692	13.06
478.045	13.23
478.399	13.21
478.753	12.98
479.107	13.07
479.461	13.14
479.814	13.04
480.168	13.07
480.521	13.11
480.875	13.32
481.228	13.22
481.582	13.21
481.935	13.37
482.289	13.19
482.642	13.16
482.995	13.23
483.348	13.29
483.701	13.24
484.055	13.24
484.408	13.34
484.761	13.31
485.114	13.15
485.466	12.86
485.819	12.66
486.172	12.47
486.525	12.46
486.878	12.64
487.23	12.77
487.583	13.04
487.936	13.1
488.288	13.32
488.641	13.24
488.993	13.26
489.345	13.13
489.698	13.05
490.05	13.01
490.402	13.04
490.754	13.09
491.107	13.26
491.459	13.41
491.811	13.55
492.163	13.72
492.515	13.8
492.866	13.92
493.218	13.87
493.57	13.56
493.922	13.35
494.274	13.35
494.625	13.46
494.977	13.73
495.328	13.97
495.68	14.13
496.031	14.23
496.383	14.43
496.734	14.43
497.086	14.39
497.437	14.54
497.788	14.68
498.139	14.51
498.49	14.62
498.842	14.42
499.193	14.32
499.544	14.51
499.894	14.44
500.245	14.64
500.596	14.62
500.947	14.68
501.298	14.8
501.648	14.82
501.999	14.91
502.35	14.84
502.7	14.98
503.051	14.95
503.401	15
503.752	15.18
504.102	15.07
504.452	15.05
504.803	15.26
505.153	15.05
505.503	15.31
505.853	15.18
506.203	15.08
506.553	15.35
506.903	15.35
507.253	15.24
507.603	15.37
507.953	15.42
508.303	15.38
508.652	15.38
509.002	15.64
509.352	15.42
509.701	15.48
510.051	15.38
510.4	15.44
510.75	15.31
511.099	15.33
511.449	15.53
511.798	15.41
512.147	15.57
512.496	15.59
512.846	15.57
513.195	15.65
513.544	15.75
513.893	15.68
514.242	15.74
514.591	15.77
514.939	15.73
515.288	15.75
515.637	15.96
515.986	15.77
516.334	15.97
516.683	15.98
517.032	16.09
517.38	16.15
517.729	16.12
518.077	16.2
518.426	16.26
518.774	16.24
519.122	16.11
519.47	16.19
519.819	16.2
520.167	16.07
520.515	15.92
520.863	15.81
521.211	15.87
521.559	15.93
521.907	16.02
522.255	16.01
522.602	16.22
522.95	16.35
523.298	16.37
523.645	16.68
523.993	16.47
524.341	16.63
524.688	16.72
525.036	16.62
525.383	16.69
525.73	16.73
526.078	16.82
526.425	16.9
526.772	16.84
527.119	16.79
527.466	16.5
527.814	16.29
528.161	16.35
528.508	16.39
528.854	16.49
529.201	16.56
529.548	16.47
529.895	16.53
530.242	16.34
530.588	15.97
530.935	15.77
531.282	15.85
531.628	16.02
531.975	16.13
532.321	16.2
532.667	16.45
533.014	16.66
533.36	16.81
533.706	16.93
534.052	16.91
534.399	16.95
534.745	16.87
535.091	16.75
535.437	16.57
535.783	16.39
536.129	16.56
536.474	16.81
536.82	16.87
537.166	17.11
537.512	17.1
537.857	17.22
538.203	17.45
538.549	17.16
538.894	17.02
539.239	17.01
539.585	17.17
539.93	17.3
540.276	17.49
540.621	17.48
540.966	17.84
541.311	17.87
541.656	17.83
542.001	17.86
542.346	17.89
542.691	17.69
543.036	17.58
543.381	17.15
543.726	16.98
544.071	17.08
544.415	17.15
544.76	17.28
545.105	17.33
545.449	17.51
545.794	17.58
546.138	17.66
546.483	17.84
546.827	17.89
547.171	17.95
547.516	18.07
547.86	18.05
548.204	18.11
548.548	18.14
548.892	18.08
549.236	18
549.58	18
549.924	18.23
550.268	18.55
550.612	18.27
550.956	18.72
551.3	18.78
551.643	18.86
551.987	18.89
552.33	19.04
552.674	18.8
553.017	18.83
553.361	18.87
553.704	19.03
554.048	19.08
554.391	18.92
554.734	18.87
555.077	18.8
555.42	18.8
555.764	19.06
556.107	19.02
556.45	19.17
556.793	19.2
557.135	19.24
557.478	19.23
557.821	19.38
558.164	19.3
558.507	19.74
558.849	19.49
559.192	19.51
559.534	19.65
559.877	19.4
560.219	19.52
560.562	19.5
560.904	19.46
561.246	19.84
561.589	19.53
561.931	19.77
562.273	19.66
562.615	19.7
562.957	19.66
563.299	19.68
563.641	19.67
563.983	19.8
564.325	19.87
564.667	20.04
565.008	19.8
565.35	19.93
565.692	20.03
566.033	20.14
566.375	20.07
566.716	19.97
567.058	20.09
567.399	20.01
567.741	20.13
568.082	19.97
568.423	19.87
568.764	20.05
569.105	19.92
569.447	20.07
569.788	19.77
570.129	20.18
570.47	20.35
570.811	20.39
571.151	20.46
571.492	20.19
571.833	20.47
572.174	20.25
572.514	20.4
572.855	20.35
573.195	20.32
573.536	20.52
573.876	20.3
574.217	20.21
574.557	20.27
574.898	20.34
575.238	20.54
575.578	20.56
575.918	20.53
576.258	20.54
576.598	20.63
576.938	20.7
577.278	20.71
577.618	20.49
577.958	20.57
578.298	20.7
578.638	20.83
578.977	20.99
579.317	20.81
579.657	20.63
579.996	21.01
580.336	21.11
580.675	21.05
581.014	20.95
581.354	21.05
581.693	21.04
582.032	21.4
582.372	21.18
582.711	21.38
583.05	21.45
583.389	21.34
583.728	21.54
584.067	21.53
584.406	21.44
584.745	21.26
585.083	21.76
585.422	21.55
585.761	21.35
586.1	21.79
586.438	21.74
586.777	21.71
587.115	21.75
587.454	21.53
587.792	21.95
588.13	21.98
588.469	21.63
588.807	21.78
589.145	21.78
589.483	21.91
589.821	22.12
590.159	21.77
590.497	21.79
590.835	21.99
591.173	21.77
591.511	21.76
591.849	22.17
592.187	21.87
592.524	22.17
592.862	21.9
593.2	22.27
593.537	22.02
593.875	22.18
594.212	22.33
594.55	22.36
594.887	22.4
595.224	22.41
595.561	22.62
595.899	22.44
596.236	22.49
596.573	22.34
596.91	22.3
597.247	22.33
597.584	22.71
597.921	23.01
598.258	22.68
598.594	22.43
598.931	22.37
599.268	22.23
599.604	22.36
599.941	22.21
600.277	22.48
600.614	22.58
600.95	22.7
601.287	22.69
601.623	22.84
601.959	23.04
602.296	22.76
602.632	22.88
602.968	23.27
603.304	22.81
603.64	23
603.976	23.55
604.312	22.92
604.648	23.28
604.984	23.29
605.319	23.17
605.655	22.63
605.991	23.11
606.326	23.19
606.662	22.96
606.998	22.89
607.333	22.83
607.668	22.93
608.004	23.27
608.339	23.16
608.674	23.56
609.01	23.32
609.345	23.53
609.68	23.66
610.015	23.67
610.35	23.58
610.685	23.87
611.02	23.38
611.355	23.59
611.689	23.38
612.024	23.43
612.359	23.39
612.694	23.51
613.028	23.52
613.363	23.6
613.697	23.81
614.032	23.71
614.366	23.8
614.7	23.65
615.035	23.86
615.369	23.76
615.703	24.03
616.037	24.06
616.371	24.22
616.705	24.27
617.039	24.2
617.373	23.9
617.707	24.33
618.041	24.64
618.375	24.4
618.709	24.45
619.042	24.55
619.376	24.58
619.71	24.5
620.043	24.43
620.377	24.24
620.71	24.67
621.043	24.48
621.377	24.61
621.71	24.7
622.043	24.44
622.376	24.85
622.709	24.35
623.043	24.4
623.376	24.69
623.709	24.8
624.041	24.7
624.374	24.64
624.707	25.22
625.04	24.99
625.373	24.93
625.705	24.8
626.038	25.04
626.37	25.16
626.703	25.2
627.035	24.84
627.368	25.11
627.7	24.85
628.032	24.93
628.365	24.94
628.697	24.86
629.029	24.98
629.361	25
629.693	24.99
630.025	25.03
630.357	24.96
630.689	25.27
631.021	24.91
631.353	24.98
631.684	25
632.016	25.26
632.348	25.44
632.679	25.14
633.011	25.36
633.342	25.64
633.674	26.08
634.005	25.43
634.336	25.61
634.668	25.52
634.999	25.74
635.33	25.7
635.661	25.65
635.992	25.45
636.323	25.41
636.654	25.46
636.985	25.15
637.316	25.84
637.647	25.99
637.977	25.83
638.308	26.06
638.639	25.98
638.969	25.82
639.3	25.86
639.63	26.19
639.961	25.9
640.291	26.22
640.622	26.23
640.952	26.19
641.282	25.82
641.612	25.77
641.943	26.33
642.273	26.05
642.603	26.18
642.933	25.76
643.263	26.29
643.592	26.43
643.922	26.48
644.252	26.33
644.582	26.49
644.911	26.76
645.241	26.4
645.571	26.76
645.9	26.61
646.23	26.78
646.559	26.57
646.888	26.79
647.218	26.45
647.547	26.56
647.876	26.52
648.205	27.04
648.534	26.87
648.863	26.55
649.192	26.28
649.521	26.49
649.85	26.63
650.179	26.47
650.508	26.13
650.837	27.37
651.165	27.65
651.494	27.12
651.822	26.96
652.151	26.8
652.479	27.34
652.808	27.09
653.136	27.2
653.465	26.94
653.793	27.02
654.121	27.23
654.449	26.77
654.777	27.12
655.105	27.22
655.433	27.14
655.761	27.24
656.089	27.21
656.417	27.3
656.745	27.51
657.073	27.73
657.4	28.13
657.728	27.71
658.056	27.42
658.383	27.86
658.711	27.4
659.038	27.61
659.365	27.23
659.693	26.98
660.02	27.89
660.347	27.84
660.674	27.57
661.001	27.46
661.329	27.4
661.656	27.55
661.982	27.3
662.309	27.44
662.636	27.55
662.963	27.85
663.29	27.87
663.616	27.79
663.943	28.31
664.27	27.5
664.596	28.03
664.923	28.13
665.249	28
665.576	27.44
665.902	27.86
666.228	27.97
666.554	27.87
666.881	28.62
667.207	28.14
667.533	28.55
667.859	28.53
668.185	28.19
668.511	28.73
668.837	28.11
669.162	28.05
669.488	27.5
669.814	28.47
670.139	28.12
670.465	28.33
670.791	28.14
671.116	28.29
671.442	28.27
671.767	27.95
672.092	28.37
672.418	28.77
672.743	28.84
673.068	28.58
673.393	28.34
673.718	29.18
674.043	29.46
674.368	28.59
674.693	28.47
675.018	28.59
675.343	29.16
675.667	28.78
675.992	28.83
676.317	29
676.641	29.11
676.966	29.28
