Data from 0090_forehead_Reflection__3__170.txt Node

Date: Fri Sep 22 22:14:33 CDT 2023
User: ToomeyLab
Spectrometer: FLMS14357
Trigger mode: 0
Integration Time (sec): 1.000000E-2
Scans to average: 100
Electric dark correction enabled: true
Nonlinearity correction enabled: false
Boxcar width: 0
XAxis mode: Wavelengths
Number of Pixels in Spectrum: 2048
>>>>>Begin Spectral Data<<<<<
189.047	1572.83
189.435	1572.83
189.823	1572.83
190.211	-20.68
190.599	-748.88
190.987	236.85
191.375	30.2
191.763	326.23
192.151	125
192.538	17.33
192.926	168.71
193.314	-12.06
193.702	37.67
194.089	88.69
194.477	37.81
194.864	-34.29
195.252	-6485
195.639	-129.39
196.027	163.95
196.414	119.04
196.801	9.94
197.189	88.9
197.576	238.04
197.963	-156.97
198.351	43.52
198.738	48.84
199.125	-10.13
199.512	11.16
199.899	40.66
200.286	28.01
200.673	79.98
201.06	35.15
201.447	61.52
201.833	-0.92
202.22	36.65
202.607	67.86
202.994	60.31
203.38	29.21
203.767	26.32
204.154	39.39
204.54	37.48
204.927	34.45
205.313	47.91
205.699	81.83
206.086	46.93
206.472	42.23
206.858	33.46
207.245	29.13
207.631	51.29
208.017	23.91
208.403	27.77
208.789	34.35
209.175	30.07
209.561	45.15
209.947	29.66
210.333	31.82
210.719	33.51
211.105	43.31
211.491	39.37
211.876	32.96
212.262	8.01
212.648	54.03
213.034	38.33
213.419	30.7
213.805	33.22
214.19	18.75
214.576	25.73
214.961	19.31
215.346	10.86
215.732	12.55
216.117	7.79
216.502	50.01
216.888	26.97
217.273	23.32
217.658	-10.08
218.043	22.99
218.428	38.23
218.813	-9.96
219.198	39.48
219.583	18.82
219.968	17.1
220.353	44.67
220.738	9.66
221.122	23.13
221.507	2.41
221.892	21.7
222.276	28.78
222.661	-9.25
223.046	30.84
223.43	15.51
223.815	10.6
224.199	13.73
224.583	29.68
224.968	24.57
225.352	5.74
225.736	16.12
226.121	4.56
226.505	20.73
226.889	8.79
227.273	6.19
227.657	5.24
228.041	7.85
228.425	10.98
228.809	6.03
229.193	5.67
229.577	6.57
229.961	5.62
230.344	5
230.728	1.97
231.112	3.93
231.495	3.81
231.879	4.06
232.263	3.16
232.646	2.73
233.03	3.68
233.413	4.05
233.797	3.72
234.18	4.4
234.563	7.61
234.946	6.22
235.33	1.27
235.713	1.73
236.096	3.42
236.479	2.9
236.862	5.46
237.245	4.97
237.628	4.41
238.011	5.74
238.394	4.08
238.777	5.69
239.16	3.65
239.543	5.53
239.925	4.98
240.308	5.05
240.691	4.58
241.073	6.74
241.456	5.87
241.838	4.02
242.221	4.09
242.603	5.03
242.986	3.77
243.368	3.48
243.75	3.06
244.133	3.87
244.515	3.25
244.897	3.11
245.279	3.68
245.661	3.2
246.043	3.75
246.425	3.37
246.807	4.4
247.189	3
247.571	3.75
247.953	4.34
248.335	4.14
248.717	3.28
249.098	3.29
249.48	2.86
249.862	2.88
250.243	3.29
250.625	3.29
251.006	2.62
251.388	3.43
251.769	3.88
252.151	2.91
252.532	4.32
252.913	3.28
253.295	4.02
253.676	3.48
254.057	3.2
254.438	4.18
254.819	2.75
255.2	3.47
255.581	3.54
255.962	4.81
256.343	4.11
256.724	2.79
257.105	3.37
257.486	3.93
257.867	3.5
258.247	4.26
258.628	4.01
259.009	3.79
259.389	3.11
259.77	4.3
260.15	4.29
260.531	3.38
260.911	2.63
261.292	3.11
261.672	2.83
262.052	3.33
262.432	3.04
262.813	3.03
263.193	2.85
263.573	3.7
263.953	3.21
264.333	3.3
264.713	3.6
265.093	3.1
265.473	4.01
265.853	3.2
266.233	3.37
266.612	3.48
266.992	4.46
267.372	3.16
267.752	3.07
268.131	3.17
268.511	3.25
268.89	3.29
269.27	3.4
269.649	3.19
270.029	3.11
270.408	3.29
270.787	3.11
271.167	4.06
271.546	3.54
271.925	3.31
272.304	3.01
272.683	3.51
273.062	3.74
273.441	3.09
273.82	3.42
274.199	3.04
274.578	3.03
274.957	3.3
275.336	3.17
275.715	3.05
276.093	2.34
276.472	2.66
276.851	2.91
277.229	3.54
277.608	3.71
277.986	2.69
278.365	3.08
278.743	3.55
279.122	3.04
279.5	3.46
279.878	2.9
280.257	3.62
280.635	2.93
281.013	3.64
281.391	2.84
281.769	2.79
282.147	3.22
282.525	2.94
282.903	2.93
283.281	3.54
283.659	3.54
284.037	3.16
284.415	3.02
284.792	2.63
285.17	3.34
285.548	3.4
285.925	3.32
286.303	2.83
286.68	2.74
287.058	2.66
287.435	2.88
287.813	2.89
288.19	2.44
288.567	3.31
288.945	2.72
289.322	3.22
289.699	2.78
290.076	3.25
290.453	2.45
290.83	2.62
291.207	3.39
291.584	3.06
291.961	3.15
292.338	3.21
292.715	3.25
293.092	3.13
293.469	3.05
293.845	2.98
294.222	3.68
294.599	3.48
294.975	3.49
295.352	4.01
295.728	3.49
296.105	3.44
296.481	3.27
296.858	3.54
297.234	3.16
297.61	3.57
297.986	3.54
298.363	3.46
298.739	3.21
299.115	3.32
299.491	3.18
299.867	3.32
300.243	2.97
300.619	3.02
300.995	3.31
301.371	3.73
301.746	3.65
302.122	3.4
302.498	3.24
302.874	3.05
303.249	3.46
303.625	3.53
304	3.77
304.376	3.93
304.751	4.15
305.127	3.8
305.502	4.28
305.878	3.78
306.253	4.08
306.628	3.53
307.003	4.03
307.378	3.27
307.754	3.69
308.129	4.16
308.504	4.21
308.879	3.67
309.254	3.75
309.629	4.36
310.003	4.64
310.378	4.34
310.753	4.2
311.128	4.06
311.502	4.28
311.877	3.55
312.252	3.96
312.626	4.27
313.001	4.32
313.375	4.33
313.75	4.45
314.124	4.78
314.498	4.12
314.873	3.98
315.247	4.67
315.621	4.59
315.995	4.53
316.369	4.19
316.743	4.45
317.117	4.84
317.491	4.67
317.865	4.41
318.239	4.86
318.613	5.1
318.987	4.74
319.361	4.6
319.734	4.63
320.108	4.8
320.482	4.56
320.855	4.8
321.229	4.97
321.602	5.32
321.976	4.7
322.349	4.51
322.723	5.32
323.096	5.32
323.469	5.39
323.843	4.58
324.216	5.51
324.589	5.5
324.962	5.2
325.335	5.53
325.708	4.92
326.081	5.31
326.454	4.85
326.827	5.4
327.2	5.01
327.573	5.75
327.945	5.65
328.318	5.31
328.691	5.32
329.063	5.17
329.436	5.08
329.809	5.59
330.181	5.77
330.553	5.75
330.926	5.34
331.298	5.37
331.671	5.71
332.043	5.25
332.415	5.65
332.787	6.21
333.159	5.35
333.532	5.73
333.904	5.16
334.276	5.55
334.648	5.46
335.02	5.88
335.391	5.89
335.763	6.12
336.135	6.16
336.507	5.9
336.879	5.85
337.25	6.45
337.622	6.16
337.993	6.6
338.365	6.58
338.736	5.89
339.108	6.14
339.479	6.18
339.851	5.84
340.222	5.68
340.593	6.08
340.964	5.75
341.336	6.25
341.707	6.25
342.078	6.61
342.449	6.41
342.82	6.41
343.191	6.14
343.562	6.29
343.933	6.52
344.303	6.29
344.674	6.58
345.045	6.79
345.416	6.67
345.786	6.29
346.157	6.68
346.527	6.82
346.898	6.4
347.268	6.82
347.639	6.43
348.009	6.27
348.38	6.5
348.75	6.71
349.12	6.48
349.49	7.24
349.861	7.13
350.231	7.23
350.601	6.76
350.971	7.01
351.341	6.51
351.711	7.01
352.081	7.13
352.45	6.81
352.82	6.95
353.19	7.35
353.56	6.73
353.929	7.36
354.299	7.4
354.669	7.23
355.038	7.11
355.408	7.62
355.777	7.39
356.147	7.49
356.516	7.82
356.885	7.43
357.254	7.67
357.624	7.15
357.993	7.4
358.362	7.57
358.731	7.41
359.1	7.47
359.469	7.86
359.838	7.28
360.207	7.41
360.576	7.64
360.945	7.81
361.314	7.93
361.682	8.11
362.051	7.7
362.42	7.54
362.788	7.53
363.157	7.88
363.525	7.76
363.894	7.74
364.262	7.76
364.631	7.87
364.999	7.56
365.367	8
365.735	8.11
366.104	8.16
366.472	8.58
366.84	8.17
367.208	8.55
367.576	8.23
367.944	8.26
368.312	8.26
368.68	8.22
369.048	8.45
369.416	8.57
369.783	8.38
370.151	8.7
370.519	8.58
370.886	8.74
371.254	8.86
371.621	8.6
371.989	8.57
372.356	8.54
372.724	8.84
373.091	9.13
373.458	8.91
373.826	8.87
374.193	9.1
374.56	9.28
374.927	9.03
375.294	9.07
375.661	9.01
376.028	9.22
376.395	9.34
376.762	9.04
377.129	9.31
377.496	9.31
377.863	9.36
378.229	9.27
378.596	9.42
378.963	9.57
379.329	9.53
379.696	9.5
380.062	9.22
380.429	9.28
380.795	9.7
381.161	9.7
381.528	9.78
381.894	9.53
382.26	9.67
382.626	9.73
382.993	10.02
383.359	9.84
383.725	9.83
384.091	10.06
384.457	10.13
384.823	10.15
385.188	10.25
385.554	10.02
385.92	10.43
386.286	10.08
386.651	10.24
387.017	10.36
387.383	9.99
387.748	10.3
388.114	10.18
388.479	10.47
388.845	10
389.21	10.35
389.575	10.66
389.94	10.34
390.306	10.72
390.671	10.86
391.036	10.25
391.401	10.5
391.766	10.82
392.131	10.43
392.496	10.92
392.861	10.72
393.226	10.84
393.591	10.74
393.956	10.55
394.32	10.62
394.685	10.87
395.05	11.18
395.414	11.01
395.779	11.19
396.143	11.13
396.508	11.19
396.872	10.9
397.236	11.11
397.601	11.15
397.965	11.08
398.329	11.4
398.694	11.26
399.058	11.31
399.422	11.26
399.786	11.26
400.15	11.57
400.514	11.35
400.878	11.33
401.242	11.56
401.605	11.4
401.969	11.5
402.333	11.91
402.697	11.58
403.06	11.49
403.424	11.55
403.787	11.69
404.151	11.62
404.514	11.81
404.878	11.98
405.241	11.95
405.604	11.8
405.968	11.85
406.331	11.86
406.694	11.77
407.057	11.67
407.42	11.89
407.783	12.13
408.146	11.92
408.509	11.9
408.872	11.92
409.235	11.9
409.598	11.99
409.961	12.34
410.323	12.22
410.686	12.27
411.049	12.52
411.411	12.36
411.774	12.18
412.136	12.27
412.499	12.27
412.861	12.18
413.223	12.36
413.586	12.35
413.948	12.44
414.31	12.47
414.672	12.34
415.035	12.46
415.397	12.67
415.759	12.94
416.121	12.57
416.483	12.6
416.845	12.56
417.206	12.56
417.568	12.8
417.93	12.68
418.292	12.78
418.653	12.58
419.015	12.79
419.377	12.52
419.738	12.86
420.1	12.6
420.461	12.67
420.822	12.65
421.184	12.81
421.545	12.79
421.906	12.8
422.267	12.78
422.629	13.01
422.99	12.9
423.351	12.82
423.712	12.71
424.073	12.83
424.434	13.1
424.795	13.15
425.155	13.29
425.516	13.33
425.877	13.31
426.238	13.08
426.598	13.19
426.959	13.17
427.32	13.4
427.68	13.47
428.041	13.39
428.401	13.87
428.761	14.05
429.122	13.91
429.482	14.06
429.842	14.23
430.202	14.23
430.563	14.37
430.923	14.38
431.283	14.48
431.643	14.56
432.003	14.6
432.363	14.58
432.722	14.59
433.082	14.66
433.442	14.85
433.802	14.69
434.161	14.7
434.521	14.59
434.881	14.79
435.24	14.69
435.6	14.57
435.959	14.47
436.319	14.9
436.678	14.92
437.037	15.05
437.396	15.18
437.756	15.22
438.115	15.4
438.474	15.35
438.833	15.42
439.192	15.2
439.551	15.51
439.91	15.64
440.269	15.51
440.628	15.33
440.987	15.49
441.345	15.63
441.704	15.52
442.063	15.49
442.421	15.47
442.78	15.63
443.138	15.65
443.497	15.66
443.855	15.73
444.214	15.76
444.572	16.05
444.93	16.24
445.288	16.11
445.647	16.37
446.005	16.31
446.363	16.16
446.721	16.36
447.079	16.3
447.437	16.34
447.795	16.39
448.153	16.01
448.51	16.11
448.868	16.1
449.226	16.11
449.584	16.25
449.941	16.22
450.299	16.51
450.656	16.72
451.014	16.92
451.371	16.81
451.729	16.95
452.086	16.98
452.443	17.26
452.801	17.26
453.158	17.35
453.515	17.51
453.872	17.42
454.229	17.36
454.586	17.35
454.943	17.29
455.3	17.56
455.657	17.54
456.014	17.7
456.371	17.69
456.727	17.72
457.084	17.59
457.441	17.8
457.797	17.98
458.154	17.93
458.51	17.92
458.867	18.11
459.223	18.27
459.58	18.13
459.936	18.31
460.292	18.27
460.648	18.16
461.005	18.18
461.361	18.21
461.717	17.9
462.073	17.99
462.429	17.9
462.785	17.98
463.141	18.14
463.496	18.39
463.852	18.53
464.208	18.66
464.564	18.82
464.919	19.01
465.275	19.13
465.631	19.36
465.986	19.09
466.342	19.28
466.697	19.3
467.052	19.24
467.408	19.54
467.763	19.21
468.118	19.43
468.473	19.4
468.829	19.38
469.184	19.35
469.539	19.58
469.894	19.48
470.249	19.59
470.603	19.64
470.958	19.74
471.313	19.73
471.668	20.03
472.023	19.81
472.377	20.06
472.732	19.9
473.086	20.18
473.441	19.95
473.795	20.41
474.15	19.91
474.504	20.27
474.859	20.37
475.213	20.34
475.567	20.22
475.921	20.33
476.275	20.62
476.63	20.54
476.984	20.56
477.338	20.7
477.692	20.67
478.045	20.86
478.399	20.9
478.753	20.89
479.107	20.72
479.461	20.86
479.814	20.99
480.168	20.98
480.521	20.97
480.875	21.2
481.228	21.07
481.582	20.9
481.935	21.34
482.289	21.19
482.642	21.34
482.995	21.37
483.348	21.19
483.701	21.05
484.055	21.24
484.408	21.2
484.761	21.16
485.114	21.06
485.466	20.76
485.819	20.51
486.172	20.27
486.525	20.23
486.878	20.37
487.23	20.64
487.583	20.83
487.936	21.09
488.288	21.27
488.641	21.46
488.993	21.29
489.345	21.22
489.698	21
490.05	21.04
490.402	21.02
490.754	21.18
491.107	21.33
491.459	21.63
491.811	21.85
492.163	22.14
492.515	22.23
492.866	22.25
493.218	22.28
493.57	21.84
493.922	21.65
494.274	21.61
494.625	21.88
494.977	22.08
495.328	22.31
495.68	22.47
496.031	22.72
496.383	23.05
496.734	23.19
497.086	23.23
497.437	23.32
497.788	23.39
498.139	23.37
498.49	23.27
498.842	23.14
499.193	22.98
499.544	23.1
499.894	23
500.245	23.39
500.596	23.33
500.947	23.42
501.298	23.54
501.648	23.75
501.999	23.72
502.35	23.79
502.7	23.9
503.051	24.08
503.401	24.06
503.752	24.16
504.102	24.14
504.452	24.32
504.803	24.07
505.153	24.34
505.503	24.28
505.853	24.33
506.203	24.25
506.553	24.49
506.903	24.39
507.253	24.44
507.603	24.56
507.953	24.66
508.303	24.72
508.652	24.62
509.002	24.75
509.352	24.78
509.701	24.75
510.051	24.68
510.4	24.79
510.75	24.51
511.099	24.59
511.449	24.65
511.798	24.7
512.147	24.84
512.496	24.85
512.846	24.91
513.195	24.94
513.544	25.07
513.893	25.2
514.242	25.11
514.591	24.97
514.939	25.18
515.288	25.09
515.637	25.38
515.986	25.43
516.334	25.39
516.683	25.58
517.032	25.59
517.38	25.8
517.729	25.74
518.077	25.8
518.426	25.81
518.774	25.82
519.122	25.91
519.47	25.63
519.819	25.73
520.167	25.67
520.515	25.45
520.863	25.25
521.211	25.33
521.559	25.41
521.907	25.54
522.255	25.54
522.602	25.74
522.95	25.9
523.298	26.2
523.645	26.26
523.993	26.22
524.341	26.19
524.688	26.32
525.036	26.57
525.383	26.58
525.73	26.53
526.078	26.6
526.425	26.61
526.772	26.53
527.119	26.48
527.466	26.27
527.814	26.12
528.161	26.06
528.508	26.07
528.854	26.2
529.201	26.42
529.548	26.34
529.895	26.35
530.242	26.19
530.588	25.77
530.935	25.43
531.282	25.58
531.628	25.65
531.975	25.71
532.321	25.82
532.667	26.09
533.014	26.33
533.36	26.62
533.706	26.72
534.052	26.74
534.399	26.84
534.745	26.8
535.091	26.55
535.437	26.39
535.783	26.24
536.129	26.27
536.474	26.54
536.82	26.73
537.166	26.86
537.512	27.1
537.857	27.35
538.203	27.42
538.549	27.37
538.894	27.06
539.239	27.07
539.585	27.18
539.93	27.33
540.276	27.39
540.621	27.8
540.966	28.03
541.311	27.95
541.656	28.16
542.001	28.09
542.346	28.16
542.691	28.12
543.036	27.72
543.381	27.28
543.726	26.94
544.071	26.94
544.415	27.19
544.76	27.24
545.105	27.5
545.449	27.53
545.794	27.69
546.138	28.05
546.483	28
546.827	28.14
547.171	28.26
547.516	28.44
547.86	28.5
548.204	28.37
548.548	28.43
548.892	28.4
549.236	28.28
549.58	28.5
549.924	28.65
550.268	28.89
550.612	28.73
550.956	29.24
551.3	29.35
551.643	29.24
551.987	29.42
552.33	29.63
552.674	29.57
553.017	29.66
553.361	29.65
553.704	29.67
554.048	29.66
554.391	29.65
554.734	29.61
555.077	29.52
555.42	29.44
555.764	29.58
556.107	29.61
556.45	29.85
556.793	29.83
557.135	30.04
557.478	30.2
557.821	30.26
558.164	30
558.507	30.32
558.849	30.2
559.192	30.58
559.534	30.33
559.877	30.41
560.219	30.37
560.562	30.48
560.904	30.44
561.246	30.77
561.589	30.53
561.931	30.83
562.273	30.57
562.615	30.62
562.957	30.73
563.299	30.67
563.641	30.56
563.983	30.78
564.325	30.71
564.667	30.8
565.008	30.73
565.35	30.88
565.692	30.99
566.033	31.06
566.375	30.9
566.716	31.13
567.058	30.9
567.399	31.17
567.741	31.11
568.082	31.21
568.423	31.01
568.764	31.01
569.105	30.87
569.447	30.77
569.788	30.78
570.129	31.16
570.47	31.3
570.811	31.52
571.151	31.71
571.492	31.5
571.833	31.38
572.174	31.4
572.514	31.4
572.855	31.49
573.195	31.58
573.536	31.73
573.876	31.28
574.217	31.49
574.557	31.5
574.898	31.69
575.238	31.43
575.578	31.61
575.918	31.88
576.258	31.89
576.598	31.94
576.938	31.88
577.278	31.94
577.618	31.91
577.958	32.06
578.298	32
578.638	31.93
578.977	32.24
579.317	32.29
579.657	32.3
579.996	32.18
580.336	32.52
580.675	32.68
581.014	32.46
581.354	32.5
581.693	32.56
582.032	32.89
582.372	32.71
582.711	33.06
583.05	32.84
583.389	32.85
583.728	32.97
584.067	33.2
584.406	33.4
584.745	32.89
585.083	33.22
585.422	33.13
585.761	33.27
586.1	33.21
586.438	33.5
586.777	33.52
587.115	33.28
587.454	33.04
587.792	33.6
588.13	33.79
588.469	33.52
588.807	33.6
589.145	33.83
589.483	33.67
589.821	33.71
590.159	33.92
590.497	34.04
590.835	33.91
591.173	33.97
591.511	33.67
591.849	34
592.187	33.5
592.524	34.07
592.862	33.82
593.2	33.73
593.537	33.94
593.875	34.19
594.212	34.52
594.55	34.47
594.887	34.21
595.224	34.37
595.561	34.43
595.899	34.31
596.236	34.83
596.573	34.58
596.91	34.35
597.247	34.37
597.584	34.42
597.921	34.87
598.258	34.48
598.594	34.57
598.931	34.34
599.268	34.29
599.604	34.3
599.941	34.63
600.277	34.1
600.614	34.52
600.95	34.68
601.287	34.83
601.623	35.08
601.959	35.17
602.296	35.14
602.632	35.12
602.968	35.29
603.304	35.15
603.64	35.41
603.976	35.25
604.312	35.5
604.648	35.75
604.984	35.38
605.319	35.33
605.655	35.07
605.991	35.61
606.326	35.11
606.662	34.94
606.998	35.09
607.333	34.98
607.668	35.34
608.004	35.46
608.339	35.21
608.674	35.65
609.01	35.83
609.345	35.77
609.68	36.05
610.015	36.09
610.35	36.16
610.685	36.11
611.02	35.97
611.355	36.08
611.689	36.2
612.024	35.8
612.359	35.55
612.694	35.86
613.028	35.86
613.363	35.95
613.697	36.23
614.032	36.31
614.366	36.33
614.7	36.46
615.035	36.56
615.369	36.28
615.703	36.46
616.037	36.97
616.371	36.79
616.705	37.11
617.039	36.76
617.373	36.59
617.707	36.73
618.041	36.94
618.375	36.86
618.709	36.75
619.042	37.02
619.376	37.09
619.71	37.38
620.043	37.24
620.377	37.01
620.71	37.27
621.043	37.24
621.377	37.03
621.71	37.3
622.043	36.82
622.376	37.32
622.709	37.27
623.043	37.17
623.376	37.49
623.709	37.72
624.041	37.39
624.374	37.58
624.707	37.73
625.04	37.56
625.373	37.47
625.705	37.29
626.038	37.73
626.37	37.78
626.703	38.04
627.035	38.14
627.368	37.71
627.7	38.09
628.032	38.14
628.365	38.04
628.697	38.43
629.029	37.93
629.361	37.92
629.693	37.81
630.025	37.96
630.357	38.15
630.689	38.31
631.021	38.12
631.353	38.35
631.684	38.44
632.016	38.37
632.348	38.39
632.679	38.38
633.011	38.12
633.342	38.65
633.674	38.67
634.005	38
634.336	38.71
634.668	38.6
634.999	38.73
635.33	39.2
635.661	38.99
635.992	38.83
636.323	38.66
636.654	38.8
636.985	38.62
637.316	38.91
637.647	39.09
637.977	38.9
638.308	39.3
638.639	38.96
638.969	39.38
639.3	39.21
639.63	39.35
639.961	39.04
640.291	39.36
640.622	39.23
640.952	39.34
641.282	39.14
641.612	39.33
641.943	39.64
642.273	39.56
642.603	39.38
642.933	39.34
643.263	39.34
643.592	39.37
643.922	39.94
644.252	39.52
644.582	39.54
644.911	39.63
645.241	39.69
645.571	39.98
645.9	39.99
646.23	40.4
646.559	40.33
646.888	39.95
647.218	40.19
647.547	39.21
647.876	39.95
648.205	40.01
648.534	39.89
648.863	40.33
649.192	40.37
649.521	40.07
649.85	40.41
650.179	40.5
650.508	40.21
650.837	40.02
651.165	40.21
651.494	40.37
651.822	40.43
652.151	40.44
652.479	40.67
652.808	40.74
653.136	40.83
653.465	40.88
653.793	40.19
654.121	40.8
654.449	40.33
654.777	40.78
655.105	40.87
655.433	40.88
655.761	41.03
656.089	40.93
656.417	40.5
656.745	41.23
657.073	41.32
657.4	41.89
657.728	41.21
658.056	40.62
658.383	41.12
658.711	41.23
659.038	41.38
659.365	41.55
659.693	41.32
660.02	41.76
660.347	41.68
660.674	41.2
661.001	41.13
661.329	41.01
661.656	41.25
661.982	41.49
662.309	41.53
662.636	41.32
662.963	41.97
663.29	41.42
663.616	41.91
663.943	41.94
664.27	42.27
664.596	42.19
664.923	41.87
665.249	41.79
665.576	41.49
665.902	41.47
666.228	41.99
666.554	42.04
666.881	42.72
667.207	42.48
667.533	42.42
667.859	42.43
668.185	42.38
668.511	42.52
668.837	41.79
669.162	42.14
669.488	42.88
669.814	42.42
670.139	42.36
670.465	42.24
670.791	42.1
671.116	42.18
671.442	42.7
671.767	41.87
672.092	42.12
672.418	42.71
672.743	42.46
673.068	42.56
673.393	42.04
