Data from 0090_chest_Reflection__4__161.txt Node

Date: Fri Sep 22 22:12:03 CDT 2023
User: ToomeyLab
Spectrometer: FLMS14357
Trigger mode: 0
Integration Time (sec): 1.000000E-2
Scans to average: 100
Electric dark correction enabled: true
Nonlinearity correction enabled: false
Boxcar width: 0
XAxis mode: Wavelengths
Number of Pixels in Spectrum: 2048
>>>>>Begin Spectral Data<<<<<
189.047	632.07
189.435	632.07
189.823	632.07
190.211	60.4
190.599	218.84
190.987	79.81
191.375	239.5
191.763	73.24
192.151	439.77
192.538	24.13
192.926	175.13
193.314	103.37
193.702	151.5
194.089	126.03
194.477	-146.69
194.864	4.86
195.252	-1252.5
195.639	-118.2
196.027	12.98
196.414	414.11
196.801	-138.68
197.189	-50.23
197.576	146.06
197.963	237.09
198.351	8.57
198.738	16.25
199.125	25.96
199.512	23.51
199.899	34.2
200.286	2.46
200.673	50.17
201.06	-3.38
201.447	89.78
201.833	-15.49
202.22	43.08
202.607	15.79
202.994	30.43
203.38	20
203.767	15.29
204.154	52.72
204.54	30.91
204.927	8.51
205.313	44.41
205.699	62.67
206.086	44.87
206.472	51.51
206.858	30.49
207.245	-31.34
207.631	36.62
208.017	31.87
208.403	43.54
208.789	34.75
209.175	48.12
209.561	25.01
209.947	34.29
210.333	19.76
210.719	-15.36
211.105	41.26
211.491	25.07
211.876	28.09
212.262	45.81
212.648	28.96
213.034	25.75
213.419	23.05
213.805	14.53
214.19	-5.08
214.576	16.24
214.961	2.98
215.346	-1.62
215.732	6.82
216.117	2.12
216.502	18.22
216.888	20.45
217.273	11.2
217.658	27.23
218.043	0.69
218.428	31.42
218.813	17.35
219.198	11.1
219.583	-1.84
219.968	-4.98
220.353	40.29
220.738	18.48
221.122	-8.14
221.507	-14.14
221.892	-6.12
222.276	10.7
222.661	-41.49
223.046	22.11
223.43	29.6
223.815	1.97
224.199	-4.13
224.583	9.85
224.968	7.72
225.352	-0.31
225.736	5.39
226.121	1.43
226.505	4.46
226.889	0.08
227.273	10.12
227.657	1.46
228.041	5.69
228.425	5.36
228.809	6.45
229.193	6.76
229.577	4.32
229.961	5.95
230.344	6.13
230.728	2.44
231.112	4.44
231.495	3.05
231.879	4.52
232.263	2.72
232.646	3.27
233.03	3.38
233.413	4.47
233.797	3.93
234.18	4.41
234.563	6.36
234.946	4.83
235.33	0.02
235.713	1.63
236.096	3.09
236.479	3.08
236.862	4.58
237.245	2.62
237.628	3.98
238.011	5.39
238.394	3.01
238.777	4.63
239.16	3.68
239.543	6.1
239.925	4.48
240.308	3.9
240.691	4.99
241.073	4.39
241.456	3
241.838	2.79
242.221	3.14
242.603	4.4
242.986	3.38
243.368	2.62
243.75	4.06
244.133	3.87
244.515	3.1
244.897	3.16
245.279	3.06
245.661	2.79
246.043	2.64
246.425	2.94
246.807	2.57
247.189	1.16
247.571	3.38
247.953	3.55
248.335	2.89
248.717	3.21
249.098	3.07
249.48	2.94
249.862	3.06
250.243	3.13
250.625	3.49
251.006	2.67
251.388	3.23
251.769	3.49
252.151	3.63
252.532	2.73
252.913	2.65
253.295	3.72
253.676	3.88
254.057	3.1
254.438	3.72
254.819	2.98
255.2	2.86
255.581	3.36
255.962	3.59
256.343	2.3
256.724	2.31
257.105	3.59
257.486	3.34
257.867	3.97
258.247	3.9
258.628	3.72
259.009	2.91
259.389	2.77
259.77	3.64
260.15	3.39
260.531	2.77
260.911	2.92
261.292	2.83
261.672	2.3
262.052	3.1
262.432	2.72
262.813	3.18
263.193	2.61
263.573	3.29
263.953	2.51
264.333	2.74
264.713	2.91
265.093	2.91
265.473	3.07
265.853	2.95
266.233	3.71
266.612	2.55
266.992	2.83
267.372	3.79
267.752	3.58
268.131	3.3
268.511	3.43
268.89	3.36
269.27	2.42
269.649	3.12
270.029	2.76
270.408	2.91
270.787	2.69
271.167	3.1
271.546	2.81
271.925	2.62
272.304	3.04
272.683	2.73
273.062	3.19
273.441	2.66
273.82	3.34
274.199	3.22
274.578	2.99
274.957	2.64
275.336	2.56
275.715	3.05
276.093	2.4
276.472	2.79
276.851	2.64
277.229	2.28
277.608	2.98
277.986	2.47
278.365	2.93
278.743	2.52
279.122	2.87
279.5	3.41
279.878	2.63
280.257	3.25
280.635	2.83
281.013	2.62
281.391	2.43
281.769	2.66
282.147	2.79
282.525	2.52
282.903	2.91
283.281	2.95
283.659	2.73
284.037	2.59
284.415	2.61
284.792	2.47
285.17	2.64
285.548	3.05
285.925	2.57
286.303	3.02
286.68	2.28
287.058	2.39
287.435	2.45
287.813	2.66
288.19	2.28
288.567	2.53
288.945	2.53
289.322	2.7
289.699	2.58
290.076	2.75
290.453	2.35
290.83	2.23
291.207	2.43
291.584	2.14
291.961	2.56
292.338	2.5
292.715	2.95
293.092	2.52
293.469	2.45
293.845	2.19
294.222	3.02
294.599	3.01
294.975	2.6
295.352	2.66
295.728	3.11
296.105	2.7
296.481	2.66
296.858	2.88
297.234	2.38
297.61	2.41
297.986	2.61
298.363	2.73
298.739	2.76
299.115	2.81
299.491	2.92
299.867	2.59
300.243	2.36
300.619	2.31
300.995	2.15
301.371	2.58
301.746	2.64
302.122	2.72
302.498	2.8
302.874	2.66
303.249	2.63
303.625	2.51
304	2.5
304.376	2.78
304.751	3.03
305.127	2.87
305.502	3.03
305.878	2.64
306.253	2.68
306.628	2.38
307.003	2.81
307.378	2.27
307.754	2.31
308.129	2.75
308.504	2.83
308.879	3.06
309.254	2.79
309.629	2.49
310.003	3.22
310.378	2.86
310.753	2.28
311.128	2.39
311.502	2.99
311.877	2.34
312.252	2.5
312.626	2.64
313.001	2.51
313.375	2.79
313.75	2.68
314.124	2.93
314.498	2.41
314.873	2.73
315.247	2.72
315.621	2.57
315.995	2.64
316.369	2.5
316.743	2.83
317.117	2.81
317.491	2.79
317.865	2.23
318.239	2.96
318.613	2.62
318.987	2.6
319.361	2.45
319.734	2.09
320.108	2.57
320.482	2.5
320.855	2.58
321.229	3.55
321.602	2.78
321.976	2.14
322.349	3.04
322.723	2.96
323.096	2.67
323.469	3.22
323.843	2.7
324.216	3.2
324.589	2.3
324.962	2.14
325.335	2.56
325.708	2.6
326.081	3.15
326.454	2.35
326.827	2.6
327.2	2.73
327.573	3.12
327.945	2.76
328.318	2.65
328.691	2.72
329.063	2.05
329.436	3.03
329.809	2.92
330.181	2.77
330.553	2.2
330.926	2.93
331.298	2.82
331.671	3.15
332.043	2.36
332.415	2.77
332.787	2.5
333.159	2.32
333.532	2.44
333.904	2.72
334.276	2.38
334.648	2.32
335.02	2.19
335.391	2.45
335.763	2.85
336.135	2.46
336.507	2.69
336.879	2.04
337.25	3.02
337.622	3.15
337.993	2.48
338.365	2.64
338.736	2.44
339.108	2.56
339.479	2.49
339.851	2.04
340.222	2.57
340.593	2.27
340.964	2.45
341.336	2.47
341.707	2.31
342.078	2.56
342.449	2.47
342.82	2.06
343.191	2.19
343.562	2.45
343.933	2.43
344.303	2.37
344.674	2.61
345.045	2.6
345.416	2.36
345.786	2.74
346.157	2.61
346.527	2.8
346.898	2.72
347.268	2.22
347.639	2.32
348.009	2.69
348.38	2.92
348.75	2.68
349.12	2.31
349.49	2.48
349.861	2.42
350.231	2.93
350.601	2.94
350.971	2.59
351.341	2.17
351.711	2.38
352.081	2.2
352.45	2.14
352.82	2.65
353.19	2.91
353.56	2.89
353.929	2.68
354.299	2.65
354.669	2.28
355.038	2.17
355.408	2.68
355.777	2.85
356.147	2.61
356.516	3.01
356.885	2.35
357.254	3.1
357.624	2.37
357.993	2.52
358.362	2.53
358.731	2.61
359.1	2.28
359.469	2.8
359.838	2.19
360.207	2.29
360.576	2.57
360.945	2.59
361.314	2.78
361.682	2.71
362.051	2.72
362.42	2.34
362.788	2.51
363.157	2.63
363.525	2.38
363.894	2.37
364.262	2.39
364.631	2.43
364.999	2.27
365.367	2.56
365.735	2.5
366.104	2.42
366.472	2.72
366.84	2.47
367.208	2.82
367.576	2.92
367.944	2.59
368.312	2.66
368.68	2.29
369.048	2.66
369.416	2.39
369.783	2.4
370.151	2.19
370.519	2.41
370.886	2.48
371.254	3.05
371.621	2.32
371.989	2.48
372.356	2.47
372.724	2.81
373.091	2.83
373.458	2.46
373.826	2.42
374.193	2.74
374.56	2.67
374.927	2.64
375.294	2.57
375.661	2.47
376.028	2.94
376.395	2.88
376.762	2.43
377.129	2.71
377.496	2.7
377.863	2.92
378.229	2.42
378.596	2.68
378.963	2.74
379.329	2.42
379.696	2.85
380.062	2.44
380.429	2.71
380.795	2.56
381.161	2.6
381.528	2.56
381.894	2.46
382.26	2.65
382.626	2.8
382.993	2.89
383.359	2.46
383.725	2.55
384.091	2.6
384.457	2.41
384.823	2.7
385.188	2.75
385.554	2.71
385.92	2.8
386.286	2.55
386.651	2.27
387.017	2.71
387.383	2.28
387.748	2.65
388.114	2.36
388.479	2.67
388.845	2.48
389.21	2.28
389.575	2.96
389.94	2.51
390.306	2.52
390.671	3.06
391.036	2.3
391.401	2.5
391.766	2.57
392.131	2.69
392.496	2.45
392.861	2.57
393.226	3.06
393.591	2.7
393.956	2.75
394.32	2.48
394.685	2.48
395.05	2.68
395.414	2.7
395.779	2.75
396.143	2.6
396.508	2.56
396.872	2.63
397.236	2.6
397.601	2.54
397.965	2.65
398.329	2.81
398.694	2.74
399.058	2.59
399.422	2.7
399.786	2.72
400.15	2.75
400.514	2.68
400.878	2.55
401.242	2.71
401.605	2.63
401.969	2.48
402.333	2.78
402.697	2.59
403.06	2.62
403.424	2.48
403.787	2.82
404.151	2.59
404.514	2.82
404.878	2.55
405.241	3
405.604	2.72
405.968	2.74
406.331	2.82
406.694	2.51
407.057	2.37
407.42	2.73
407.783	2.6
408.146	2.69
408.509	2.58
408.872	2.74
409.235	2.62
409.598	2.47
409.961	2.86
410.323	2.6
410.686	2.57
411.049	2.86
411.411	2.76
411.774	2.44
412.136	2.57
412.499	2.59
412.861	2.7
413.223	2.75
413.586	2.67
413.948	2.63
414.31	2.63
414.672	2.68
415.035	2.75
415.397	2.79
415.759	2.89
416.121	2.61
416.483	2.62
416.845	2.61
417.206	2.59
417.568	2.61
417.93	2.69
418.292	2.66
418.653	2.56
419.015	2.63
419.377	2.55
419.738	2.7
420.1	2.71
420.461	2.67
420.822	2.6
421.184	2.58
421.545	2.59
421.906	2.5
422.267	2.59
422.629	2.68
422.99	2.63
423.351	2.52
423.712	2.49
424.073	2.57
424.434	2.62
424.795	2.58
425.155	2.75
425.516	2.6
425.877	2.66
426.238	2.45
426.598	2.53
426.959	2.62
427.32	2.68
427.68	2.56
428.041	2.49
428.401	2.7
428.761	2.72
429.122	2.72
429.482	2.6
429.842	2.57
430.202	2.6
430.563	2.82
430.923	2.62
431.283	2.63
431.643	2.67
432.003	2.75
432.363	2.84
432.722	2.88
433.082	2.78
433.442	2.67
433.802	2.73
434.161	2.52
434.521	2.87
434.881	2.74
435.24	2.69
435.6	2.63
435.959	2.63
436.319	2.49
436.678	2.83
437.037	2.65
437.396	2.61
437.756	2.78
438.115	2.81
438.474	2.83
438.833	2.73
439.192	2.67
439.551	2.74
439.91	2.73
440.269	2.82
440.628	2.59
440.987	2.71
441.345	2.81
441.704	2.77
442.063	2.66
442.421	2.76
442.78	2.67
443.138	2.79
443.497	2.71
443.855	2.67
444.214	2.64
444.572	2.82
444.93	2.87
445.288	2.77
445.647	2.84
446.005	2.68
446.363	2.73
446.721	2.68
447.079	2.63
447.437	2.71
447.795	2.75
448.153	2.62
448.51	2.77
448.868	2.67
449.226	2.72
449.584	2.65
449.941	2.58
450.299	2.75
450.656	2.78
451.014	2.67
451.371	2.79
451.729	2.81
452.086	2.7
452.443	2.78
452.801	2.91
453.158	2.76
453.515	2.82
453.872	2.73
454.229	2.61
454.586	2.74
454.943	2.79
455.3	2.8
455.657	2.87
456.014	2.84
456.371	2.75
456.727	2.9
457.084	2.8
457.441	2.68
457.797	2.75
458.154	2.79
458.51	2.7
458.867	2.8
459.223	2.69
459.58	2.99
459.936	2.83
460.292	2.84
460.648	2.85
461.005	2.85
461.361	2.75
461.717	2.57
462.073	2.64
462.429	2.66
462.785	2.73
463.141	2.77
463.496	2.83
463.852	2.87
464.208	2.8
464.564	3
464.919	2.7
465.275	2.95
465.631	2.96
465.986	2.8
466.342	2.81
466.697	2.87
467.052	2.79
467.408	2.89
467.763	2.83
468.118	2.97
468.473	2.71
468.829	2.74
469.184	2.94
469.539	2.9
469.894	2.93
470.249	2.82
470.603	2.79
470.958	2.93
471.313	2.92
471.668	2.95
472.023	2.93
472.377	2.99
472.732	2.84
473.086	3.04
473.441	2.83
473.795	2.98
474.15	2.74
474.504	2.81
474.859	3.07
475.213	2.69
475.567	2.74
475.921	2.78
476.275	2.86
476.63	2.87
476.984	2.83
477.338	2.96
477.692	2.94
478.045	2.87
478.399	3.16
478.753	2.87
479.107	2.87
479.461	2.85
479.814	2.93
480.168	2.9
480.521	3.01
480.875	2.96
481.228	2.9
481.582	2.8
481.935	2.83
482.289	2.88
482.642	2.78
482.995	2.84
483.348	2.87
483.701	2.91
484.055	2.74
484.408	2.85
484.761	2.82
485.114	2.77
485.466	2.75
485.819	2.74
486.172	2.67
486.525	2.71
486.878	2.73
487.23	2.75
487.583	2.81
487.936	2.85
488.288	2.82
488.641	2.85
488.993	2.81
489.345	2.84
489.698	2.73
490.05	2.73
490.402	2.79
490.754	2.73
491.107	2.78
491.459	2.89
491.811	2.86
492.163	2.87
492.515	2.96
492.866	2.84
493.218	2.96
493.57	2.9
493.922	2.81
494.274	2.82
494.625	2.85
494.977	2.86
495.328	2.97
495.68	2.97
496.031	2.92
496.383	3.1
496.734	3.01
497.086	3.01
497.437	3.07
497.788	2.96
498.139	3.11
498.49	3.12
498.842	3.01
499.193	2.94
499.544	3.02
499.894	3.01
500.245	3.07
500.596	3.07
500.947	3
501.298	3.03
501.648	3
501.999	3.06
502.35	3.03
502.7	3.16
503.051	3.08
503.401	3.06
503.752	3.14
504.102	3.03
504.452	3
504.803	3.2
505.153	3.03
505.503	3.06
505.853	3.15
506.203	3.09
506.553	3.15
506.903	3.17
507.253	3.09
507.603	3.17
507.953	3.07
508.303	3.19
508.652	3.2
509.002	3.2
509.352	3.07
509.701	3.23
510.051	3.14
510.4	3.21
510.75	3.11
511.099	3.01
511.449	3.18
511.798	3.13
512.147	3.15
512.496	3.06
512.846	3.11
513.195	3.15
513.544	3.14
513.893	3.27
514.242	3.16
514.591	3.23
514.939	3.14
515.288	3.12
515.637	3.19
515.986	3.16
516.334	3.2
516.683	3.12
517.032	3.3
517.38	3.22
517.729	3.26
518.077	3.13
518.426	3.17
518.774	3.15
519.122	3.13
519.47	3.14
519.819	3.2
520.167	3.32
520.515	3.16
520.863	3.17
521.211	3.16
521.559	3.19
521.907	3.25
522.255	3.31
522.602	3.32
522.95	3.27
523.298	3.32
523.645	3.34
523.993	3.3
524.341	3.19
524.688	3.34
525.036	3.25
525.383	3.37
525.73	3.36
526.078	3.33
526.425	3.3
526.772	3.39
527.119	3.32
527.466	3.23
527.814	3.25
528.161	3.2
528.508	3.21
528.854	3.29
529.201	3.3
529.548	3.34
529.895	3.21
530.242	3.2
530.588	3.18
530.935	3.12
531.282	3.14
531.628	3.21
531.975	3.21
532.321	3.24
532.667	3.32
533.014	3.32
533.36	3.37
533.706	3.35
534.052	3.4
534.399	3.52
534.745	3.42
535.091	3.38
535.437	3.34
535.783	3.23
536.129	3.32
536.474	3.37
536.82	3.29
537.166	3.44
537.512	3.43
537.857	3.5
538.203	3.5
538.549	3.46
538.894	3.38
539.239	3.4
539.585	3.45
539.93	3.55
540.276	3.45
540.621	3.51
540.966	3.57
541.311	3.54
541.656	3.53
542.001	3.57
542.346	3.55
542.691	3.59
543.036	3.53
543.381	3.41
543.726	3.4
544.071	3.42
544.415	3.47
544.76	3.46
545.105	3.42
545.449	3.43
545.794	3.57
546.138	3.59
546.483	3.52
546.827	3.57
547.171	3.71
547.516	3.68
547.86	3.72
548.204	3.7
548.548	3.66
548.892	3.7
549.236	3.65
549.58	3.76
549.924	3.67
550.268	3.82
550.612	3.78
550.956	3.8
551.3	3.75
551.643	3.91
551.987	3.9
552.33	3.98
552.674	3.79
553.017	3.84
553.361	3.85
553.704	3.96
554.048	3.86
554.391	4.07
554.734	3.85
555.077	3.9
555.42	3.91
555.764	3.92
556.107	3.9
556.45	3.86
556.793	3.91
557.135	3.99
557.478	3.86
557.821	3.95
558.164	4.07
558.507	3.97
558.849	4
559.192	4.13
559.534	4.1
559.877	4.22
560.219	4.21
560.562	4.18
560.904	4.35
561.246	4.35
561.589	4.27
561.931	4.29
562.273	3.97
562.615	4.07
562.957	4.09
563.299	4.27
563.641	4.25
563.983	4.23
564.325	4.13
564.667	4.25
565.008	4.09
565.35	4.25
565.692	4.2
566.033	4.39
566.375	4.24
566.716	4.18
567.058	4.13
567.399	4.4
567.741	4.45
568.082	4.27
568.423	4.47
568.764	4.52
569.105	4.24
569.447	4.29
569.788	4.28
570.129	4.42
570.47	4.58
570.811	4.41
571.151	4.41
571.492	4.34
571.833	4.31
572.174	4.51
572.514	4.6
572.855	4.39
573.195	4.26
573.536	4.54
573.876	4.43
574.217	4.51
574.557	4.49
574.898	4.51
575.238	4.57
575.578	4.51
575.918	4.69
576.258	4.44
576.598	4.63
576.938	4.65
577.278	4.65
577.618	4.45
577.958	4.63
578.298	4.86
578.638	4.76
578.977	4.65
579.317	4.72
579.657	4.78
579.996	4.72
580.336	4.69
580.675	4.77
581.014	4.59
581.354	4.82
581.693	4.96
582.032	4.71
582.372	4.91
582.711	4.76
583.05	4.79
583.389	4.97
583.728	4.83
584.067	4.92
584.406	5.14
584.745	4.77
585.083	5.28
585.422	5.19
585.761	5
586.1	5.06
586.438	4.96
586.777	5.08
587.115	4.92
587.454	4.9
587.792	5.34
588.13	5.01
588.469	5.07
588.807	5.34
589.145	5.23
589.483	5.18
589.821	5.23
590.159	5.53
590.497	5.62
590.835	5.11
591.173	5.42
591.511	5.34
591.849	5.36
592.187	5.33
592.524	5.54
592.862	5.36
593.2	5.39
593.537	5.37
593.875	5.36
594.212	5.58
594.55	5.75
594.887	5.33
595.224	5.52
595.561	5.75
595.899	5.63
596.236	5.77
596.573	5.78
596.91	5.66
597.247	5.61
597.584	5.8
597.921	5.65
598.258	5.72
598.594	5.69
598.931	5.66
599.268	5.58
599.604	5.74
599.941	5.62
600.277	5.58
600.614	5.72
600.95	5.65
601.287	5.78
601.623	5.73
601.959	6.09
602.296	6.06
602.632	5.84
602.968	5.94
603.304	5.77
603.64	5.91
603.976	6.05
604.312	5.84
604.648	6.11
604.984	5.91
605.319	6.02
605.655	5.85
605.991	5.94
606.326	6.02
606.662	5.93
606.998	6.02
607.333	6.13
607.668	6.11
608.004	6.29
608.339	5.86
608.674	6.03
609.01	6.21
609.345	6.1
609.68	6.25
610.015	6.24
610.35	6.36
610.685	6.56
611.02	6.21
611.355	6.16
611.689	6.19
612.024	6.3
612.359	6.36
612.694	6.34
613.028	6.26
613.363	6.18
613.697	6.02
614.032	6.45
614.366	6.26
614.7	6.34
615.035	6.35
615.369	6.38
615.703	6.31
616.037	6.5
616.371	6.56
616.705	6.97
617.039	6.87
617.373	6.6
617.707	6.81
618.041	6.66
618.375	6.63
618.709	6.59
619.042	6.91
619.376	6.94
619.71	6.8
620.043	6.34
620.377	6.46
620.71	6.75
621.043	6.57
621.377	7.18
621.71	6.92
622.043	7.21
622.376	7.02
622.709	7.05
623.043	7.06
623.376	6.92
623.709	6.76
624.041	6.76
624.374	7.06
624.707	7.61
625.04	7.2
625.373	6.91
625.705	7.09
626.038	7.05
626.37	7.24
626.703	7.11
627.035	7.16
627.368	7.32
627.7	7.46
628.032	7.39
628.365	7.24
628.697	7.46
629.029	7.25
629.361	7.26
629.693	7.36
630.025	7.38
630.357	7.21
630.689	7.42
631.021	7.3
631.353	7.25
631.684	7.51
632.016	7.74
632.348	7.21
632.679	7.44
633.011	7.69
633.342	7.44
633.674	7.71
634.005	7.41
634.336	7.76
634.668	7.65
634.999	7.79
635.33	7.86
635.661	7.84
635.992	7.83
636.323	7.5
636.654	7.64
636.985	7.64
637.316	7.9
637.647	7.95
637.977	7.56
638.308	7.9
638.639	7.7
638.969	7.99
639.3	7.71
639.63	8.08
639.961	7.93
640.291	7.95
640.622	8.3
640.952	7.99
641.282	8.28
641.612	8.29
641.943	8.3
642.273	8.69
642.603	7.63
642.933	7.73
643.263	7.82
643.592	8.29
643.922	8.39
644.252	8.49
644.582	8.35
644.911	8.42
645.241	8.63
645.571	7.88
645.9	8.28
646.23	9
646.559	8.7
646.888	8.65
647.218	8.41
647.547	8.29
647.876	8.1
648.205	8.29
648.534	8.65
648.863	8.4
649.192	8.22
649.521	8.75
649.85	8.8
650.179	8.47
650.508	8.18
650.837	8.74
651.165	8.63
651.494	8.54
651.822	8.78
652.151	8.55
652.479	8.78
652.808	8.61
653.136	9.32
653.465	8.45
653.793	8.86
654.121	9.32
654.449	8.26
654.777	9.06
655.105	9.23
655.433	8.93
655.761	9.69
656.089	9.08
656.417	8.87
656.745	9.08
657.073	9.23
657.4	9.57
657.728	9.05
658.056	8.9
658.383	9.36
658.711	9.18
659.038	9.08
659.365	9.32
659.693	8.76
660.02	9.21
660.347	9.68
660.674	9.11
661.001	9.06
661.329	9.14
661.656	9.59
661.982	9.06
662.309	9.84
662.636	9.78
662.963	9.45
663.29	9.8
663.616	9.39
663.943	9.59
664.27	9.62
664.596	9.7
664.923	9.62
665.249	9.54
665.576	8.77
665.902	9.76
666.228	9.95
666.554	9.55
666.881	10.26
667.207	9.5
667.533	9.3
667.859	9.37
668.185	9.63
668.511	10.39
668.837	9.6
669.162	10.3
669.488	9.33
669.814	9.54
670.139	10.22
670.465	10.13
670.791	9.78
671.116	9.53
671.442	10.4
671.767	9.08
672.092	10.61
672.418	10.51
672.743	9.88
673.068	10.33
673.393	9.57
673.718	10.73
674.043	9.79
674.368	10.79
674.693	10.29
675.018	9.95
675.343	10.82
675.667	10.46
675.992	10.06
676.317	11.19
676.641	10.47
676.966	10.76
677.29	9.87
677.615	10.45
677.939	10.66
678.264	10.24
678.588	11.15
678.912	10.67
679.236	10.62
679.56	10.32
679.885	11.12
680.209	11.09
680.532	10.6
680.856	11.04
681.18	11.28
681.504	10.69
681.828	10.82
682.152	10.43
682.475	10.96
682.799	11.29
683.122	10.72
683.446	10.36
683.769	11.17
684.093	11.38
684.416	10.68
684.739	10.42
685.062	11.38
685.386	10.77
685.709	10.07
686.032	10.72
686.355	11.31
686.678	11.14
687.001	10.89
687.324	12.08
687.646	11.08
687.969	10.81
688.292	11.25
688.614	12
688.937	11.38
689.26	11.17
689.582	11.89
689.904	10.6
690.227	11.69
690.549	11.49
690.871	11.3
691.194	11.56
691.516	11.6
