Data from 0090_chest_Reflection__2__159.txt Node

Date: Fri Sep 22 22:11:41 CDT 2023
User: ToomeyLab
Spectrometer: FLMS14357
Trigger mode: 0
Integration Time (sec): 1.000000E-2
Scans to average: 100
Electric dark correction enabled: true
Nonlinearity correction enabled: false
Boxcar width: 0
XAxis mode: Wavelengths
Number of Pixels in Spectrum: 2048
>>>>>Begin Spectral Data<<<<<
189.047	447.28
189.435	447.28
189.823	447.28
190.211	2.25
190.599	-225.19
190.987	72.27
191.375	344.7
191.763	244.71
192.151	-68.67
192.538	63.1
192.926	106.47
193.314	143.56
193.702	32.76
194.089	90.11
194.477	-155.19
194.864	70.2
195.252	-8062.5
195.639	180.92
196.027	73.43
196.414	-160.67
196.801	17.21
197.189	39.25
197.576	16.68
197.963	205.12
198.351	-25.63
198.738	14.98
199.125	3.06
199.512	33.09
199.899	51.15
200.286	-1.1
200.673	35.59
201.06	12.69
201.447	49.19
201.833	6.75
202.22	28.41
202.607	66.64
202.994	48.94
203.38	66.64
203.767	60.55
204.154	54.81
204.54	52.34
204.927	-1.68
205.313	49.3
205.699	48.68
206.086	28.88
206.472	33.16
206.858	15.54
207.245	35.12
207.631	31.4
208.017	23.74
208.403	28.06
208.789	49.08
209.175	52.18
209.561	38.75
209.947	33.85
210.333	27.91
210.719	-0.07
211.105	30.77
211.491	50.74
211.876	40.33
212.262	16.35
212.648	65.69
213.034	14.24
213.419	5.45
213.805	28.83
214.19	21.77
214.576	31.36
214.961	9.55
215.346	31.27
215.732	43.74
216.117	22.15
216.502	32.67
216.888	31.73
217.273	23.69
217.658	23.47
218.043	28.14
218.428	31.61
218.813	-21.38
219.198	12.27
219.583	9.8
219.968	3.19
220.353	12.6
220.738	5.06
221.122	1.88
221.507	7.58
221.892	10.01
222.276	18.84
222.661	-21.98
223.046	20.61
223.43	28.22
223.815	14.84
224.199	4.1
224.583	17.73
224.968	6.59
225.352	-4.69
225.736	5.25
226.121	14.76
226.505	4.57
226.889	9.32
227.273	8.24
227.657	9.59
228.041	5.43
228.425	14.34
228.809	4.49
229.193	-0.08
229.577	5.29
229.961	2.7
230.344	5.43
230.728	2.29
231.112	3.55
231.495	1.84
231.879	3.15
232.263	2.97
232.646	2.5
233.03	1.72
233.413	4.55
233.797	2.77
234.18	2.65
234.563	5.48
234.946	2.86
235.33	1.54
235.713	1.76
236.096	3.85
236.479	3.18
236.862	4.98
237.245	2.98
237.628	3.87
238.011	3.87
238.394	3.45
238.777	5.09
239.16	3.99
239.543	4.61
239.925	4.47
240.308	3.19
240.691	4.39
241.073	5.19
241.456	3.65
241.838	3.81
242.221	3.41
242.603	3.12
242.986	3.08
243.368	2.38
243.75	2.57
244.133	3.46
244.515	2.65
244.897	2.19
245.279	2.52
245.661	2.34
246.043	2.73
246.425	3.23
246.807	3.08
247.189	0.83
247.571	3.13
247.953	2.31
248.335	2.99
248.717	3.01
249.098	2.47
249.48	2.2
249.862	2.09
250.243	2.41
250.625	2.5
251.006	1.91
251.388	2.43
251.769	2.62
252.151	2.3
252.532	2.5
252.913	2.67
253.295	4.36
253.676	2.72
254.057	3
254.438	3.05
254.819	2.05
255.2	2.29
255.581	1.8
255.962	3.03
256.343	3.82
256.724	3.28
257.105	2.81
257.486	2.98
257.867	2.45
258.247	3.49
258.628	2.86
259.009	1.95
259.389	2.45
259.77	3.07
260.15	3.04
260.531	2.3
260.911	2.55
261.292	1.9
261.672	2.1
262.052	2.05
262.432	2.3
262.813	2.48
263.193	2.02
263.573	2.95
263.953	2.77
264.333	2.37
264.713	3.08
265.093	2.2
265.473	2.12
265.853	2.1
266.233	1.91
266.612	2.47
266.992	2.66
267.372	2.47
267.752	2.73
268.131	2.02
268.511	2.11
268.89	2.32
269.27	2.22
269.649	2.49
270.029	2.34
270.408	2.27
270.787	2.44
271.167	2.6
271.546	2.19
271.925	2.59
272.304	2.35
272.683	2.59
273.062	2.88
273.441	2.56
273.82	2.47
274.199	2.26
274.578	2.73
274.957	2.14
275.336	2.07
275.715	2.26
276.093	2.33
276.472	1.78
276.851	2.3
277.229	1.9
277.608	2.3
277.986	2.09
278.365	2.3
278.743	2.18
279.122	2.3
279.5	2.54
279.878	1.8
280.257	2.88
280.635	2.61
281.013	2.41
281.391	1.97
281.769	2.41
282.147	2.59
282.525	2.07
282.903	2.26
283.281	2.36
283.659	2.74
284.037	1.67
284.415	2.45
284.792	2.36
285.17	2.16
285.548	2.57
285.925	2.39
286.303	2.33
286.68	1.52
287.058	1.56
287.435	2.3
287.813	2.1
288.19	1.96
288.567	2.25
288.945	2.04
289.322	2
289.699	2.26
290.076	2.49
290.453	2.38
290.83	1.93
291.207	2.28
291.584	2.11
291.961	2.09
292.338	2.03
292.715	2.3
293.092	2.15
293.469	1.77
293.845	1.79
294.222	2.48
294.599	2.6
294.975	2.39
295.352	2.64
295.728	2.2
296.105	2.63
296.481	2.46
296.858	2.63
297.234	2.23
297.61	2.38
297.986	2.26
298.363	2.3
298.739	2.41
299.115	2.6
299.491	2.25
299.867	2.21
300.243	2.05
300.619	2.62
300.995	2.17
301.371	2.68
301.746	2.44
302.122	2.42
302.498	2.5
302.874	1.88
303.249	2.26
303.625	2.21
304	2.24
304.376	2.59
304.751	2.13
305.127	2.52
305.502	2.67
305.878	2.54
306.253	2.36
306.628	2.13
307.003	2.88
307.378	2.06
307.754	2.16
308.129	2.14
308.504	2.75
308.879	2.3
309.254	2.51
309.629	2.76
310.003	2.53
310.378	2.98
310.753	2.58
311.128	2.58
311.502	2.67
311.877	2.12
312.252	2.65
312.626	2.73
313.001	2.6
313.375	2.72
313.75	2.74
314.124	2.76
314.498	2.21
314.873	2.43
315.247	2.89
315.621	2.39
315.995	2.83
316.369	2.47
316.743	2.8
317.117	2.46
317.491	2.74
317.865	2.64
318.239	2.28
318.613	2.62
318.987	2.75
319.361	2.75
319.734	2.13
320.108	3.49
320.482	2.07
320.855	1.8
321.229	3.35
321.602	2.84
321.976	2.36
322.349	2.82
322.723	2.69
323.096	3.23
323.469	2.85
323.843	2.67
324.216	2.56
324.589	2.81
324.962	2.66
325.335	2.67
325.708	2.19
326.081	3.14
326.454	2.32
326.827	2.65
327.2	2.51
327.573	2.77
327.945	2.71
328.318	2.77
328.691	2.76
329.063	2.59
329.436	3.04
329.809	2.47
330.181	2.64
330.553	2.66
330.926	2.7
331.298	2.84
331.671	2.46
332.043	1.83
332.415	2.88
332.787	3.02
333.159	2.79
333.532	2.11
333.904	2.58
334.276	2.34
334.648	2.16
335.02	2.33
335.391	2.29
335.763	2.72
336.135	2.89
336.507	2.65
336.879	2.08
337.25	2.89
337.622	2.81
337.993	2.97
338.365	2.9
338.736	2.84
339.108	2.43
339.479	2.57
339.851	2.63
340.222	2.31
340.593	2.56
340.964	2.57
341.336	2.68
341.707	2.52
342.078	2.52
342.449	2.86
342.82	2.28
343.191	1.98
343.562	2.65
343.933	2.63
344.303	2.72
344.674	2.76
345.045	2.47
345.416	2.72
345.786	2.39
346.157	2.53
346.527	2.58
346.898	2.28
347.268	2.62
347.639	2.11
348.009	2.51
348.38	2.38
348.75	2.98
349.12	2.58
349.49	3.06
349.861	2.48
350.231	3.07
350.601	2.73
350.971	2.59
351.341	2.47
351.711	2.59
352.081	2.19
352.45	2.33
352.82	2.64
353.19	2.89
353.56	2.68
353.929	2.59
354.299	2.82
354.669	2.35
355.038	2.32
355.408	2.59
355.777	2.89
356.147	2.39
356.516	2.91
356.885	2.72
357.254	2.78
357.624	2.38
357.993	2.54
358.362	2.72
358.731	2.67
359.1	2.57
359.469	2.32
359.838	2.35
360.207	2.33
360.576	2.53
360.945	2.57
361.314	2.64
361.682	3.02
362.051	3.03
362.42	2.46
362.788	2.46
363.157	2.8
363.525	2.46
363.894	2.45
364.262	2.51
364.631	2.52
364.999	2.48
365.367	2.67
365.735	2.88
366.104	2.66
366.472	2.92
366.84	2.94
367.208	3.04
367.576	3.11
367.944	2.58
368.312	2.93
368.68	2.72
369.048	2.85
369.416	2.65
369.783	2.57
370.151	2.31
370.519	2.58
370.886	2.74
371.254	2.98
371.621	2.68
371.989	2.84
372.356	2.64
372.724	2.85
373.091	2.76
373.458	2.96
373.826	2.78
374.193	3.02
374.56	2.73
374.927	2.89
375.294	2.85
375.661	2.62
376.028	2.77
376.395	3.01
376.762	2.57
377.129	2.49
377.496	3.05
377.863	2.57
378.229	2.79
378.596	2.7
378.963	2.97
379.329	2.58
379.696	3.06
380.062	2.61
380.429	2.87
380.795	2.93
381.161	2.87
381.528	2.55
381.894	2.51
382.26	2.74
382.626	2.56
382.993	2.84
383.359	2.67
383.725	2.59
384.091	2.75
384.457	2.65
384.823	2.99
385.188	2.94
385.554	2.79
385.92	3.2
386.286	2.77
386.651	2.58
387.017	3.16
387.383	3.02
387.748	2.84
388.114	2.71
388.479	3.02
388.845	2.4
389.21	2.59
389.575	2.91
389.94	2.72
390.306	3.02
390.671	3.01
391.036	2.6
391.401	2.7
391.766	2.58
392.131	2.93
392.496	2.98
392.861	2.81
393.226	3.14
393.591	2.85
393.956	2.94
394.32	2.81
394.685	2.93
395.05	3.03
395.414	2.93
395.779	3.03
396.143	2.94
396.508	2.95
396.872	2.75
397.236	2.78
397.601	2.69
397.965	3.05
398.329	2.76
398.694	2.9
399.058	2.89
399.422	2.73
399.786	2.89
400.15	3.03
400.514	2.89
400.878	3.01
401.242	2.89
401.605	2.69
401.969	2.7
402.333	3.11
402.697	2.93
403.06	2.76
403.424	3.1
403.787	3.08
404.151	2.81
404.514	2.88
404.878	2.91
405.241	3.05
405.604	2.98
405.968	3.06
406.331	2.97
406.694	2.79
407.057	2.86
407.42	3
407.783	2.9
408.146	2.91
408.509	2.85
408.872	2.88
409.235	2.9
409.598	3.04
409.961	3.24
410.323	2.88
410.686	2.98
411.049	3.15
411.411	3.13
411.774	2.99
412.136	2.93
412.499	2.99
412.861	3.11
413.223	3.07
413.586	2.88
413.948	3.12
414.31	2.95
414.672	3.12
415.035	2.95
415.397	3.21
415.759	3.24
416.121	3.11
416.483	2.89
416.845	3.03
417.206	2.91
417.568	2.91
417.93	3.04
418.292	2.99
418.653	2.81
419.015	3.12
419.377	2.91
419.738	3.06
420.1	2.93
420.461	2.98
420.822	2.93
421.184	2.88
421.545	2.98
421.906	2.92
422.267	2.9
422.629	3.03
422.99	2.96
423.351	2.88
423.712	2.91
424.073	2.91
424.434	2.98
424.795	2.95
425.155	3.02
425.516	2.93
425.877	3
426.238	2.75
426.598	2.9
426.959	2.94
427.32	2.96
427.68	2.88
428.041	2.89
428.401	3.03
428.761	3.09
429.122	3.07
429.482	3.09
429.842	2.84
430.202	2.94
430.563	2.97
430.923	3.09
431.283	3.04
431.643	3.02
432.003	2.99
432.363	3.16
432.722	3.12
433.082	3.15
433.442	3.01
433.802	3.26
434.161	3.06
434.521	3.15
434.881	3.03
435.24	3.1
435.6	2.99
435.959	2.95
436.319	3.24
436.678	3.2
437.037	3.23
437.396	3.05
437.756	3.12
438.115	3.13
438.474	3.1
438.833	3.02
439.192	3.15
439.551	3.14
439.91	3.23
440.269	3.13
440.628	2.95
440.987	3.15
441.345	3.12
441.704	3.19
442.063	3
442.421	3.11
442.78	3.18
443.138	3.09
443.497	3.06
443.855	3.08
444.214	2.99
444.572	3.24
444.93	3.14
445.288	3.31
445.647	3.25
446.005	3.06
446.363	2.97
446.721	3.2
447.079	3.08
447.437	3.17
447.795	3.18
448.153	3
448.51	3.17
448.868	3.09
449.226	3.14
449.584	3.04
449.941	3.08
450.299	3.18
450.656	3.14
451.014	3.31
451.371	3.21
451.729	3.24
452.086	3.22
452.443	3.32
452.801	3.29
453.158	3.26
453.515	3.36
453.872	3.21
454.229	3.36
454.586	3.17
454.943	3.25
455.3	3.37
455.657	3.2
456.014	3.33
456.371	3.31
456.727	3.51
457.084	3.28
457.441	3.23
457.797	3.33
458.154	3.34
458.51	3.14
458.867	3.39
459.223	3.23
459.58	3.32
459.936	3.25
460.292	3.46
460.648	3.5
461.005	3.31
461.361	3.42
461.717	3.13
462.073	3.35
462.429	3.15
462.785	3.22
463.141	3.26
463.496	3.31
463.852	3.3
464.208	3.29
464.564	3.39
464.919	3.42
465.275	3.46
465.631	3.48
465.986	3.52
466.342	3.36
466.697	3.48
467.052	3.42
467.408	3.62
467.763	3.5
468.118	3.6
468.473	3.36
468.829	3.4
469.184	3.5
469.539	3.31
469.894	3.5
470.249	3.41
470.603	3.21
470.958	3.49
471.313	3.64
471.668	3.51
472.023	3.51
472.377	3.5
472.732	3.42
473.086	3.57
473.441	3.31
473.795	3.81
474.15	3.5
474.504	3.33
474.859	3.66
475.213	3.48
475.567	3.49
475.921	3.57
476.275	3.58
476.63	3.49
476.984	3.43
477.338	3.71
477.692	3.62
478.045	3.7
478.399	3.74
478.753	3.58
479.107	3.49
479.461	3.49
479.814	3.63
480.168	3.66
480.521	3.58
480.875	3.67
481.228	3.7
481.582	3.42
481.935	3.52
482.289	3.53
482.642	3.51
482.995	3.54
483.348	3.58
483.701	3.51
484.055	3.57
484.408	3.52
484.761	3.55
485.114	3.42
485.466	3.32
485.819	3.36
486.172	3.28
486.525	3.33
486.878	3.34
487.23	3.37
487.583	3.49
487.936	3.49
488.288	3.52
488.641	3.54
488.993	3.45
489.345	3.47
489.698	3.41
490.05	3.42
490.402	3.49
490.754	3.43
491.107	3.47
491.459	3.61
491.811	3.57
492.163	3.58
492.515	3.63
492.866	3.6
493.218	3.61
493.57	3.61
493.922	3.51
494.274	3.54
494.625	3.53
494.977	3.64
495.328	3.67
495.68	3.7
496.031	3.79
496.383	3.73
496.734	3.81
497.086	3.74
497.437	3.85
497.788	3.81
498.139	3.88
498.49	4.03
498.842	3.71
499.193	3.69
499.544	3.91
499.894	3.81
500.245	3.82
500.596	3.81
500.947	3.95
501.298	3.98
501.648	3.95
501.999	3.94
502.35	4.04
502.7	4
503.051	3.93
503.401	4.04
503.752	4.04
504.102	3.84
504.452	3.89
504.803	4.03
505.153	3.95
505.503	3.93
505.853	4
506.203	3.92
506.553	4.09
506.903	4.01
507.253	3.89
507.603	4.08
507.953	4.11
508.303	4.04
508.652	4.03
509.002	4.06
509.352	4.05
509.701	4.13
510.051	4.13
510.4	4.07
510.75	3.99
511.099	3.99
511.449	4.1
511.798	4.16
512.147	4.09
512.496	4.12
512.846	4.01
513.195	4.15
513.544	4.08
513.893	4.21
514.242	4.06
514.591	4.19
514.939	4.16
515.288	4.02
515.637	4.1
515.986	4.2
516.334	4.18
516.683	4.28
517.032	4.3
517.38	4.35
517.729	4.12
518.077	4.18
518.426	4.15
518.774	4.27
519.122	4.25
519.47	4.25
519.819	4.17
520.167	4.29
520.515	4.26
520.863	4.21
521.211	4.24
521.559	4.25
521.907	4.27
522.255	4.27
522.602	4.24
522.95	4.27
523.298	4.42
523.645	4.32
523.993	4.36
524.341	4.36
524.688	4.5
525.036	4.42
525.383	4.5
525.73	4.5
526.078	4.41
526.425	4.43
526.772	4.59
527.119	4.52
527.466	4.38
527.814	4.37
528.161	4.28
528.508	4.36
528.854	4.42
529.201	4.46
529.548	4.39
529.895	4.36
530.242	4.33
530.588	4.27
530.935	4.24
531.282	4.27
531.628	4.3
531.975	4.31
532.321	4.37
532.667	4.48
533.014	4.52
533.36	4.6
533.706	4.54
534.052	4.68
534.399	4.66
534.745	4.59
535.091	4.53
535.437	4.56
535.783	4.45
536.129	4.6
536.474	4.58
536.82	4.58
537.166	4.72
537.512	4.75
537.857	4.68
538.203	4.82
538.549	4.73
538.894	4.68
539.239	4.64
539.585	4.68
539.93	4.85
540.276	4.82
540.621	4.79
540.966	4.94
541.311	4.99
541.656	4.85
542.001	4.97
542.346	5.04
542.691	4.91
543.036	4.89
543.381	4.79
543.726	4.75
544.071	4.77
544.415	4.71
544.76	4.79
545.105	4.83
545.449	4.85
545.794	4.91
546.138	5.04
546.483	5.09
546.827	5.06
547.171	5.02
547.516	5.19
547.86	5.21
548.204	5.14
548.548	5.19
548.892	5.24
549.236	5.15
549.58	5.25
549.924	5.27
550.268	5.32
550.612	5.33
550.956	5.35
551.3	5.33
551.643	5.51
551.987	5.49
552.33	5.56
552.674	5.48
553.017	5.39
553.361	5.57
553.704	5.63
554.048	5.56
554.391	5.52
554.734	5.73
555.077	5.42
555.42	5.47
555.764	5.6
556.107	5.61
556.45	5.57
556.793	5.68
557.135	5.64
557.478	5.67
557.821	5.77
558.164	5.78
558.507	5.8
558.849	5.54
559.192	5.99
559.534	5.83
559.877	5.9
560.219	5.86
560.562	5.96
560.904	6.05
561.246	6.16
561.589	5.9
561.931	5.85
562.273	5.86
562.615	5.86
562.957	5.99
563.299	6.05
563.641	5.96
563.983	6.01
564.325	6.14
564.667	6.12
565.008	6.16
565.35	6.19
565.692	6.07
566.033	6.28
566.375	6.22
566.716	6.15
567.058	6.12
567.399	6.22
567.741	6.36
568.082	6.1
568.423	6.26
568.764	6.32
569.105	6.13
569.447	6.21
569.788	6.33
570.129	6.32
570.47	6.55
570.811	6.32
571.151	6.55
571.492	6.28
571.833	6.36
572.174	6.47
572.514	6.41
572.855	6.43
573.195	6.37
573.536	6.37
573.876	6.57
574.217	6.48
574.557	6.56
574.898	6.69
575.238	6.61
575.578	6.67
575.918	6.7
576.258	6.53
576.598	6.65
576.938	6.78
577.278	6.81
577.618	6.61
577.958	6.82
578.298	6.97
578.638	6.9
578.977	7
579.317	7.05
579.657	6.95
579.996	7.22
580.336	7.13
580.675	7
581.014	6.91
581.354	6.85
581.693	6.86
582.032	7.2
582.372	7.22
582.711	7.27
583.05	7.09
583.389	7.26
583.728	7.13
584.067	7.34
584.406	7.47
584.745	7.04
585.083	7.61
585.422	7.42
585.761	7.48
586.1	7.42
586.438	7.27
586.777	7.66
587.115	7.66
587.454	7.36
587.792	7.65
588.13	7.37
588.469	7.52
588.807	7.85
589.145	7.72
589.483	7.8
589.821	7.77
590.159	7.81
590.497	7.78
590.835	7.63
591.173	7.78
591.511	7.95
591.849	7.84
592.187	7.81
592.524	7.9
592.862	7.94
593.2	7.78
593.537	7.9
593.875	8.06
594.212	7.98
594.55	8.23
594.887	7.96
595.224	8.13
595.561	8.25
595.899	8.44
596.236	8.45
596.573	8.49
596.91	8.22
597.247	8.19
597.584	8.44
597.921	8.67
598.258	8.54
598.594	8.44
598.931	8.23
599.268	8.34
599.604	8.35
599.941	8.42
600.277	8.32
600.614	8.35
600.95	8.53
601.287	8.42
601.623	8.53
601.959	8.73
602.296	8.76
602.632	8.59
602.968	8.79
603.304	8.7
603.64	8.79
603.976	8.96
604.312	8.81
604.648	8.83
604.984	8.85
605.319	8.78
605.655	8.65
605.991	8.78
606.326	8.88
606.662	8.89
606.998	8.76
607.333	8.95
607.668	8.8
608.004	8.99
608.339	8.94
608.674	9.18
609.01	9.12
609.345	9.3
609.68	9.25
610.015	9.3
610.35	9.22
610.685	9.51
611.02	9.24
611.355	9.3
611.689	9.21
612.024	9.51
612.359	9.31
612.694	9.4
613.028	9.25
613.363	9.46
613.697	9.37
614.032	9.37
614.366	9.45
614.7	9.52
615.035	9.47
615.369	9.64
615.703	9.86
616.037	9.91
616.371	9.96
616.705	10.05
617.039	9.87
617.373	9.71
617.707	9.78
618.041	10.08
618.375	9.76
618.709	9.94
619.042	10.44
619.376	10.53
619.71	10.18
620.043	9.87
620.377	9.77
620.71	10.12
621.043	10.39
621.377	10.14
621.71	10.46
622.043	10.36
622.376	10.78
622.709	10.12
623.043	10.18
623.376	10.62
623.709	10.48
624.041	10.1
624.374	10.62
624.707	10.89
625.04	10.73
625.373	10.15
625.705	10.92
626.038	10.73
626.37	10.9
626.703	10.95
627.035	10.49
627.368	10.7
627.7	11.06
628.032	10.88
628.365	10.82
628.697	11.1
629.029	10.85
629.361	10.94
629.693	10.87
630.025	11.01
630.357	10.81
630.689	11.06
631.021	10.81
631.353	11.03
631.684	11.33
632.016	11.13
632.348	11.5
632.679	10.92
633.011	11.23
633.342	11.59
633.674	11.62
634.005	11.16
634.336	11.66
634.668	11.87
634.999	11.86
635.33	11.88
635.661	11.24
635.992	11.6
636.323	11.48
636.654	11.73
636.985	11.6
637.316	11.61
637.647	12.04
637.977	11.62
638.308	12.02
638.639	11.79
638.969	12.21
639.3	11.85
639.63	12.04
639.961	11.72
640.291	11.96
640.622	12.48
640.952	12.17
641.282	12.22
641.612	12.31
641.943	12.19
642.273	11.99
642.603	11.94
642.933	12.06
643.263	11.75
643.592	11.97
643.922	12.8
644.252	12.44
644.582	12.76
644.911	12.62
645.241	12.7
645.571	12.56
645.9	12.39
646.23	12.7
646.559	12.72
646.888	12.89
647.218	12.61
647.547	13
647.876	12.86
648.205	12.74
648.534	12.63
648.863	12.8
649.192	12.66
649.521	13.18
649.85	13.48
650.179	13.22
650.508	12.77
650.837	13.11
651.165	13.03
651.494	12.88
651.822	13.45
652.151	13.21
652.479	13
652.808	13.52
653.136	13.31
653.465	13.39
653.793	13.08
654.121	13.63
654.449	13.48
654.777	13.73
655.105	13.87
655.433	13.8
655.761	13.84
656.089	13.58
656.417	13.75
656.745	13.78
657.073	13.43
657.4	13.98
657.728	13.95
658.056	14.14
658.383	14.28
658.711	13.9
659.038	13.96
659.365	14.1
659.693	13.8
660.02	14.61
660.347	14.26
660.674	13.72
661.001	13.77
661.329	14.17
661.656	14.17
661.982	13.85
662.309	14.44
662.636	14.25
662.963	14.33
663.29	14.73
663.616	14.55
663.943	14.53
664.27	14.64
664.596	14.59
664.923	14.74
665.249	14.45
665.576	14.34
665.902	14.42
666.228	14.89
666.554	14.86
666.881	15.37
667.207	14.43
667.533	14.7
667.859	15.23
668.185	14.58
668.511	15.54
668.837	15
669.162	15.64
669.488	14.64
669.814	15.36
670.139	15.39
670.465	15.69
670.791	15.13
671.116	15.13
671.442	15.69
671.767	14.7
672.092	15.55
672.418	15.24
672.743	15.67
673.068	15.59
673.393	14.97
673.718	15.69
674.043	15.94
674.368	15.47
674.693	16.05
675.018	15.65
675.343	15.98
675.667	15.64
675.992	15.63
676.317	16.27
676.641	16
676.966	15.84
677.29	14.89
677.615	16.03
677.939	15.95
678.264	15.77
678.588	16.79
678.912	16.39
679.236	16.53
679.56	16.6
679.885	15.68
680.209	16.6
680.532	15.96
680.856	16.38
681.18	17.08
681.504	16.63
681.828	16.91
682.152	16.21
682.475	17.02
682.799	16.26
683.122	16.7
683.446	16.67
683.769	16.55
684.093	16.76
684.416	17.06
684.739	17.27
685.062	17.3
685.386	16.77
685.709	17.24
686.032	16.93
686.355	17.06
686.678	17.65
687.001	16.94
687.324	17.15
687.646	17.31
687.969	17.74
