Data from 0090_forehead_Reflection__1__168.txt Node

Date: Fri Sep 22 22:14:13 CDT 2023
User: ToomeyLab
Spectrometer: FLMS14357
Trigger mode: 0
Integration Time (sec): 1.000000E-2
Scans to average: 100
Electric dark correction enabled: true
Nonlinearity correction enabled: false
Boxcar width: 0
XAxis mode: Wavelengths
Number of Pixels in Spectrum: 2048
>>>>>Begin Spectral Data<<<<<
189.047	-230.43
189.435	-230.43
189.823	-230.43
190.211	-20.99
190.599	941.79
190.987	31.08
191.375	104.8
191.763	-47.24
192.151	518.18
192.538	150.84
192.926	188.84
193.314	72.21
193.702	45.78
194.089	9.52
194.477	11.98
194.864	48.71
195.252	-17380
195.639	-696.49
196.027	86.22
196.414	33.94
196.801	-89.18
197.189	72.47
197.576	110.12
197.963	90.16
198.351	53.74
198.738	47.56
199.125	40.85
199.512	20.6
199.899	52.25
200.286	17.8
200.673	33.45
201.06	-5.88
201.447	56.41
201.833	4.96
202.22	62.69
202.607	36.4
202.994	30.24
203.38	2.32
203.767	20.89
204.154	44.46
204.54	39.06
204.927	-8.08
205.313	3.3
205.699	31.27
206.086	19.34
206.472	43.08
206.858	40.35
207.245	-3.43
207.631	56.76
208.017	24.23
208.403	3.29
208.789	-0.26
209.175	57.99
209.561	39.35
209.947	52.18
210.333	16.55
210.719	32.2
211.105	9.98
211.491	31.59
211.876	28.78
212.262	35.3
212.648	16.1
213.034	3.04
213.419	17.71
213.805	13.55
214.19	-15.19
214.576	27.94
214.961	5.16
215.346	-0.93
215.732	33.9
216.117	-11.53
216.502	14.26
216.888	32.05
217.273	12.07
217.658	4.77
218.043	13.56
218.428	25.84
218.813	-16.89
219.198	-2.9
219.583	13.78
219.968	1.15
220.353	35.5
220.738	3.69
221.122	-9.36
221.507	-14.23
221.892	14.57
222.276	14.08
222.661	-3.17
223.046	17.87
223.43	28.4
223.815	20.86
224.199	-11.35
224.583	14.24
224.968	15.01
225.352	4.31
225.736	10.15
226.121	0.72
226.505	9.17
226.889	13.11
227.273	4.6
227.657	7.1
228.041	1.84
228.425	7.39
228.809	3.12
229.193	0.59
229.577	3.31
229.961	5.48
230.344	4.9
230.728	2.43
231.112	3.52
231.495	1.91
231.879	2.54
232.263	1.01
232.646	1.95
233.03	2.35
233.413	1.93
233.797	3.39
234.18	1.92
234.563	4.67
234.946	3.12
235.33	3.4
235.713	0.7
236.096	1.42
236.479	1.58
236.862	5.16
237.245	2.47
237.628	2.29
238.011	2.41
238.394	3.06
238.777	3.03
239.16	3.66
239.543	4.07
239.925	4.63
240.308	3.97
240.691	3.25
241.073	3.89
241.456	2.38
241.838	3.02
242.221	1.9
242.603	3.12
242.986	2.62
243.368	1.91
243.75	3.04
244.133	2.38
244.515	1.99
244.897	2.25
245.279	2.09
245.661	2.29
246.043	2.14
246.425	1.64
246.807	2.47
247.189	0.72
247.571	2.39
247.953	1.89
248.335	2.72
248.717	2.03
249.098	2.24
249.48	2
249.862	2.09
250.243	2.33
250.625	2.34
251.006	1.82
251.388	2.65
251.769	2.23
252.151	1.67
252.532	3.51
252.913	2.33
253.295	3.73
253.676	2.6
254.057	2.27
254.438	2.53
254.819	1.66
255.2	2.34
255.581	1.68
255.962	2.6
256.343	0.68
256.724	2.1
257.105	3.49
257.486	2.46
257.867	2.79
258.247	1.93
258.628	2.7
259.009	2.42
259.389	2.73
259.77	2.7
260.15	2.48
260.531	1.73
260.911	2.57
261.292	1.82
261.672	1.77
262.052	1.8
262.432	1.91
262.813	2.09
263.193	1.54
263.573	2.58
263.953	1.88
264.333	2.53
264.713	2.34
265.093	2.15
265.473	2.44
265.853	1.42
266.233	1.75
266.612	1.54
266.992	2.2
267.372	2.23
267.752	2.08
268.131	2.37
268.511	1.91
268.89	2.31
269.27	1.97
269.649	2.26
270.029	1.79
270.408	2.07
270.787	2.25
271.167	1.45
271.546	1.61
271.925	2.03
272.304	1.59
272.683	2.78
273.062	2.55
273.441	2.02
273.82	2.38
274.199	2.31
274.578	2.33
274.957	1.7
275.336	2.11
275.715	1.93
276.093	1.74
276.472	2.08
276.851	2.15
277.229	1.73
277.608	1.68
277.986	2.13
278.365	2.27
278.743	2.36
279.122	2.42
279.5	1.65
279.878	1.73
280.257	2.6
280.635	1.55
281.013	2.21
281.391	2.16
281.769	1.86
282.147	1.89
282.525	1.83
282.903	1.9
283.281	1.64
283.659	2.15
284.037	1.66
284.415	2.08
284.792	2.28
285.17	2.16
285.548	2.38
285.925	2.06
286.303	1.76
286.68	2.1
287.058	1.94
287.435	2.07
287.813	2.03
288.19	1.44
288.567	2.13
288.945	1.86
289.322	2.17
289.699	1.85
290.076	1.8
290.453	1.84
290.83	1.72
291.207	1.79
291.584	1.85
291.961	2.16
292.338	2.17
292.715	2.53
293.092	1.88
293.469	2.11
293.845	2.16
294.222	2.33
294.599	2.24
294.975	2.58
295.352	2.79
295.728	2.6
296.105	2.42
296.481	2.31
296.858	2.47
297.234	2.66
297.61	2.01
297.986	2.67
298.363	2.32
298.739	2.3
299.115	2.53
299.491	2.49
299.867	2.22
300.243	2.05
300.619	2.19
300.995	2.32
301.371	2.41
301.746	2.62
302.122	2.45
302.498	2.21
302.874	2.35
303.249	2.72
303.625	1.82
304	2.9
304.376	2.75
304.751	2.46
305.127	2.51
305.502	3.05
305.878	2.63
306.253	2.9
306.628	2.82
307.003	3.25
307.378	2.63
307.754	2.63
308.129	2.66
308.504	2.5
308.879	3.42
309.254	2.79
309.629	2.71
310.003	3.26
310.378	3.16
310.753	3.22
311.128	3
311.502	3.29
311.877	2.82
312.252	2.73
312.626	2.85
313.001	2.96
313.375	3.07
313.75	3.16
314.124	3.23
314.498	2.76
314.873	3.32
315.247	3.31
315.621	3.05
315.995	3.05
316.369	3.15
316.743	3.13
317.117	3.73
317.491	3.9
317.865	2.91
318.239	3.31
318.613	3.79
318.987	3.14
319.361	3.14
319.734	3.2
320.108	3.8
320.482	3.11
320.855	2.9
321.229	3.72
321.602	3.65
321.976	3.58
322.349	3.29
322.723	3.62
323.096	3.91
323.469	3.87
323.843	2.68
324.216	3.67
324.589	3.99
324.962	3.38
325.335	3.16
325.708	3.33
326.081	3.82
326.454	3.43
326.827	3.81
327.2	3.52
327.573	4.07
327.945	3.73
328.318	4.07
328.691	4.33
329.063	3.53
329.436	3.65
329.809	3.91
330.181	3.52
330.553	3.66
330.926	3.76
331.298	3.77
331.671	4.19
332.043	3.58
332.415	3.52
332.787	4.16
333.159	3.5
333.532	3.5
333.904	3.76
334.276	3.99
334.648	3.75
335.02	3.84
335.391	4.35
335.763	4.02
336.135	4.58
336.507	3.84
336.879	4.01
337.25	4
337.622	4.13
337.993	3.53
338.365	4.3
338.736	4.19
339.108	3.87
339.479	4.01
339.851	3.62
340.222	3.84
340.593	3.83
340.964	3.71
341.336	3.99
341.707	4.27
342.078	4.72
342.449	4.32
342.82	4.08
343.191	3.94
343.562	3.59
343.933	3.65
344.303	4.14
344.674	4.22
345.045	4.64
345.416	4.71
345.786	4.3
346.157	4.44
346.527	4.32
346.898	4.27
347.268	4.31
347.639	4.62
348.009	4.48
348.38	4.55
348.75	4.64
349.12	4.57
349.49	4.74
349.861	4.78
350.231	4.15
350.601	4.6
350.971	4.47
351.341	4.69
351.711	4.99
352.081	4.07
352.45	4.43
352.82	4.86
353.19	4.89
353.56	4.5
353.929	4.89
354.299	4.43
354.669	4.98
355.038	4.79
355.408	4.66
355.777	5.02
356.147	4.83
356.516	5.34
356.885	4.97
357.254	5.41
357.624	4.72
357.993	4.91
358.362	5.11
358.731	5.04
359.1	4.67
359.469	5.1
359.838	4.43
360.207	4.57
360.576	4.96
360.945	5.02
361.314	5.08
361.682	5.04
362.051	5.33
362.42	5.09
362.788	4.83
363.157	5.12
363.525	5.12
363.894	4.99
364.262	5.03
364.631	5.04
364.999	5.04
365.367	5.29
365.735	5.24
366.104	5.3
366.472	5.3
366.84	5.12
367.208	5.45
367.576	5.45
367.944	5.02
368.312	5.51
368.68	5.29
369.048	5.28
369.416	5.69
369.783	5.56
370.151	5.19
370.519	5.31
370.886	5.65
371.254	5.78
371.621	5.62
371.989	5.58
372.356	5.47
372.724	5.98
373.091	5.92
373.458	5.68
373.826	5.73
374.193	5.84
374.56	5.8
374.927	5.83
375.294	5.55
375.661	5.8
376.028	6.04
376.395	5.83
376.762	5.71
377.129	5.9
377.496	6.05
377.863	5.97
378.229	6
378.596	5.96
378.963	5.89
379.329	5.84
379.696	6
380.062	5.92
380.429	5.85
380.795	5.91
381.161	5.96
381.528	5.91
381.894	5.87
382.26	5.97
382.626	6.15
382.993	5.85
383.359	6.11
383.725	6.27
384.091	6.08
384.457	6.19
384.823	6.2
385.188	6.54
385.554	6.17
385.92	6.64
386.286	6.55
386.651	6.37
387.017	6.58
387.383	6.39
387.748	6.4
388.114	6.59
388.479	6.44
388.845	6.29
389.21	6.42
389.575	6.89
389.94	6.3
390.306	6.54
390.671	6.75
391.036	6.35
391.401	6.74
391.766	6.38
392.131	6.52
392.496	6.82
392.861	6.52
393.226	6.84
393.591	6.74
393.956	6.53
394.32	6.68
394.685	6.79
395.05	6.78
395.414	6.92
395.779	6.81
396.143	6.84
396.508	6.8
396.872	6.79
397.236	6.65
397.601	6.79
397.965	6.84
398.329	7.1
398.694	6.78
399.058	6.77
399.422	7.04
399.786	7.18
400.15	7.19
400.514	6.98
400.878	6.89
401.242	7.09
401.605	7.08
401.969	6.99
402.333	7.26
402.697	6.89
403.06	7.13
403.424	7.44
403.787	7.23
404.151	7.39
404.514	7.45
404.878	7.17
405.241	7.45
405.604	7.38
405.968	7.25
406.331	7.14
406.694	7.39
407.057	7.2
407.42	7.39
407.783	7.42
408.146	7.4
408.509	7.37
408.872	7.2
409.235	7.4
409.598	7.41
409.961	7.71
410.323	7.53
410.686	7.72
411.049	7.82
411.411	7.76
411.774	7.53
412.136	7.47
412.499	7.69
412.861	7.7
413.223	7.8
413.586	7.74
413.948	7.86
414.31	7.68
414.672	7.72
415.035	7.51
415.397	8.07
415.759	7.89
416.121	7.75
416.483	7.86
416.845	7.78
417.206	7.8
417.568	7.9
417.93	7.7
418.292	7.83
418.653	8.02
419.015	7.9
419.377	7.86
419.738	7.95
420.1	7.76
420.461	7.9
420.822	7.79
421.184	7.81
421.545	7.92
421.906	7.97
422.267	7.84
422.629	8.16
422.99	7.93
423.351	7.85
423.712	7.83
424.073	7.94
424.434	8.07
424.795	8.01
425.155	8.21
425.516	8.12
425.877	8.05
426.238	8.04
426.598	8.09
426.959	8.08
427.32	8.11
427.68	8.18
428.041	8.19
428.401	8.39
428.761	8.53
429.122	8.46
429.482	8.5
429.842	8.35
430.202	8.51
430.563	8.61
430.923	8.59
431.283	8.7
431.643	8.64
432.003	8.68
432.363	8.88
432.722	8.86
433.082	8.72
433.442	8.93
433.802	8.94
434.161	8.81
434.521	8.9
434.881	8.81
435.24	8.79
435.6	8.64
435.959	8.84
436.319	8.8
436.678	9.08
437.037	9.01
437.396	9.04
437.756	9.07
438.115	9.25
438.474	9.1
438.833	9.17
439.192	8.89
439.551	9.09
439.91	9.2
440.269	9.23
440.628	9.15
440.987	9.19
441.345	9.2
441.704	9.24
442.063	9.22
442.421	9.12
442.78	9.21
443.138	9.24
443.497	9.17
443.855	9.35
444.214	9.37
444.572	9.37
444.93	9.46
445.288	9.49
445.647	9.68
446.005	9.57
446.363	9.55
446.721	9.58
447.079	9.51
447.437	9.7
447.795	9.65
448.153	9.37
448.51	9.43
448.868	9.36
449.226	9.46
449.584	9.54
449.941	9.52
450.299	9.72
450.656	9.79
451.014	9.73
451.371	9.88
451.729	9.97
452.086	9.82
452.443	9.99
452.801	10.04
453.158	9.95
453.515	10.13
453.872	10.14
454.229	10.08
454.586	10.23
454.943	10.08
455.3	10.16
455.657	10.07
456.014	10.21
456.371	10.23
456.727	10.29
457.084	10.32
457.441	10.2
457.797	10.29
458.154	10.39
458.51	10.27
458.867	10.39
459.223	10.45
459.58	10.66
459.936	10.46
460.292	10.63
460.648	10.57
461.005	10.45
461.361	10.47
461.717	10.31
462.073	10.27
462.429	10.25
462.785	10.25
463.141	10.45
463.496	10.65
463.852	10.78
464.208	10.69
464.564	10.77
464.919	10.86
465.275	11.09
465.631	11.01
465.986	10.93
466.342	11.06
466.697	11.02
467.052	10.93
467.408	11.03
467.763	10.99
468.118	11.22
468.473	11.16
468.829	11.06
469.184	10.98
469.539	11.19
469.894	11.16
470.249	11.1
470.603	11.1
470.958	11.15
471.313	11.3
471.668	11.27
472.023	11.47
472.377	11.32
472.732	11.21
473.086	11.6
473.441	11.23
473.795	11.68
474.15	11.38
474.504	11.57
474.859	11.67
475.213	11.34
475.567	11.46
475.921	11.63
476.275	11.63
476.63	11.53
476.984	11.61
477.338	11.86
477.692	11.58
478.045	11.95
478.399	11.67
478.753	11.63
479.107	11.73
479.461	11.88
479.814	11.9
480.168	11.78
480.521	11.87
480.875	11.84
481.228	11.85
481.582	11.79
481.935	12.02
482.289	11.9
482.642	11.85
482.995	11.99
483.348	11.88
483.701	11.96
484.055	12
484.408	11.8
484.761	11.85
485.114	11.82
485.466	11.7
485.819	11.5
486.172	11.33
486.525	11.28
486.878	11.42
487.23	11.47
487.583	11.7
487.936	11.8
488.288	12.01
488.641	11.93
488.993	11.86
489.345	11.87
489.698	11.77
490.05	11.74
490.402	11.77
490.754	11.75
491.107	11.88
491.459	12.07
491.811	12.22
492.163	12.31
492.515	12.43
492.866	12.42
493.218	12.44
493.57	12.26
493.922	12.06
494.274	12.14
494.625	12.26
494.977	12.35
495.328	12.56
495.68	12.64
496.031	12.67
496.383	12.88
496.734	12.94
497.086	12.94
497.437	12.99
497.788	13.08
498.139	13.03
498.49	13.04
498.842	12.98
499.193	12.75
499.544	12.99
499.894	12.87
500.245	13.09
500.596	13.09
500.947	13.15
501.298	13.12
501.648	13.22
501.999	13.28
502.35	13.35
502.7	13.45
503.051	13.47
503.401	13.35
503.752	13.49
504.102	13.48
504.452	13.51
504.803	13.48
505.153	13.62
505.503	13.78
505.853	13.65
506.203	13.48
506.553	13.72
506.903	13.53
507.253	13.49
507.603	13.77
507.953	13.94
508.303	13.72
508.652	13.75
509.002	13.93
509.352	13.87
509.701	13.85
510.051	13.8
510.4	13.86
510.75	13.75
511.099	13.68
511.449	13.66
511.798	13.87
512.147	13.83
512.496	13.83
512.846	13.86
513.195	13.92
513.544	13.97
513.893	14.04
514.242	14.09
514.591	14.14
514.939	14.15
515.288	14.08
515.637	14.18
515.986	14.16
516.334	14.37
516.683	14.28
517.032	14.39
517.38	14.51
517.729	14.44
518.077	14.59
518.426	14.56
518.774	14.37
519.122	14.5
519.47	14.28
519.819	14.42
520.167	14.53
520.515	14.33
520.863	14.16
521.211	14.31
521.559	14.29
521.907	14.32
522.255	14.32
522.602	14.54
522.95	14.53
523.298	14.77
523.645	14.83
523.993	14.71
524.341	14.83
524.688	14.91
525.036	14.88
525.383	14.95
525.73	15.04
526.078	14.92
526.425	14.97
526.772	15.13
527.119	14.96
527.466	14.72
527.814	14.74
528.161	14.7
528.508	14.69
528.854	14.74
529.201	14.83
529.548	14.76
529.895	14.83
530.242	14.66
530.588	14.45
530.935	14.27
531.282	14.3
531.628	14.39
531.975	14.42
532.321	14.56
532.667	14.75
533.014	14.88
533.36	15.02
533.706	15.09
534.052	15.23
534.399	15.18
534.745	15.18
535.091	14.98
535.437	14.88
535.783	14.74
536.129	14.87
536.474	14.99
536.82	15.07
537.166	15.32
537.512	15.4
537.857	15.44
538.203	15.57
538.549	15.45
538.894	15.38
539.239	15.34
539.585	15.45
539.93	15.63
540.276	15.59
540.621	15.67
540.966	15.82
541.311	16.01
541.656	16.01
542.001	15.97
542.346	16.04
542.691	15.97
543.036	15.74
543.381	15.51
543.726	15.3
544.071	15.35
544.415	15.29
544.76	15.45
545.105	15.54
545.449	15.65
545.794	15.7
546.138	15.86
546.483	16
546.827	16.12
547.171	16.12
547.516	16.19
547.86	16.3
548.204	16.2
548.548	16.19
548.892	16.26
549.236	16.11
549.58	16.35
549.924	16.46
550.268	16.41
550.612	16.52
550.956	16.59
551.3	16.82
551.643	16.72
551.987	16.85
552.33	16.96
552.674	16.78
553.017	16.94
553.361	16.98
553.704	17.07
554.048	17.12
554.391	16.89
554.734	16.83
555.077	16.78
555.42	16.75
555.764	16.96
556.107	17.09
556.45	17.15
556.793	17.15
557.135	17.23
557.478	17.04
557.821	17.29
558.164	17.25
558.507	17.45
558.849	17.21
559.192	17.51
559.534	17.66
559.877	17.55
560.219	17.34
560.562	17.42
560.904	17.54
561.246	17.64
561.589	17.51
561.931	17.68
562.273	17.38
562.615	17.84
562.957	17.61
563.299	17.57
563.641	17.72
563.983	17.85
564.325	17.8
564.667	17.9
565.008	17.64
565.35	17.81
565.692	17.78
566.033	17.81
566.375	17.91
566.716	18.04
567.058	17.91
567.399	18.08
567.741	18.01
568.082	17.81
568.423	17.93
568.764	18.01
569.105	17.69
569.447	17.98
569.788	18.09
570.129	17.96
570.47	18.15
570.811	18.05
571.151	18.23
571.492	18.07
571.833	18.11
572.174	18.23
572.514	18.24
572.855	18.32
573.195	18.37
573.536	18.3
573.876	18.12
574.217	18.24
574.557	18.23
574.898	18.4
575.238	18.25
575.578	18.52
575.918	18.54
576.258	18.45
576.598	18.51
576.938	18.54
577.278	18.64
577.618	18.58
577.958	18.65
578.298	18.63
578.638	18.58
578.977	18.66
579.317	18.6
579.657	18.76
579.996	18.99
580.336	19.09
580.675	19.01
581.014	18.79
581.354	19
581.693	19.11
582.032	19.23
582.372	19.14
582.711	19.26
583.05	19.27
583.389	19.28
583.728	19.19
584.067	19.08
584.406	19.26
584.745	19.14
585.083	19.31
585.422	19.58
585.761	19.21
586.1	19.22
586.438	19.07
586.777	19.42
587.115	19.48
587.454	19.39
587.792	19.62
588.13	19.58
588.469	19.42
588.807	19.72
589.145	19.58
589.483	19.56
589.821	19.78
590.159	19.7
590.497	19.86
590.835	19.56
591.173	19.58
591.511	19.76
591.849	20.06
592.187	19.72
592.524	19.99
592.862	19.98
593.2	19.88
593.537	19.86
593.875	19.81
594.212	20.15
594.55	20.3
594.887	19.91
595.224	20.2
595.561	20.21
595.899	20.26
596.236	20.57
596.573	20.3
596.91	20.28
597.247	20.11
597.584	20.22
597.921	20.39
598.258	20.37
598.594	20.17
598.931	20.28
599.268	20.16
599.604	20.35
599.941	20.28
600.277	20.24
600.614	20.37
600.95	20.42
601.287	20.26
601.623	20.55
601.959	20.76
602.296	20.53
602.632	20.57
602.968	20.89
603.304	20.49
603.64	20.58
603.976	20.71
604.312	20.87
604.648	20.58
604.984	21.02
605.319	20.76
605.655	20.57
605.991	20.89
606.326	20.86
606.662	20.63
606.998	20.71
607.333	20.68
607.668	20.67
608.004	20.83
608.339	20.74
608.674	21.12
609.01	21.13
609.345	21.13
609.68	21.26
610.015	21.26
610.35	21.08
610.685	21.48
611.02	21.11
611.355	21.19
611.689	21.23
612.024	21.05
612.359	21.01
612.694	21
613.028	21.22
613.363	21.21
613.697	21.4
614.032	21.44
614.366	21.23
614.7	21.55
615.035	21.77
615.369	21.63
615.703	21.4
616.037	22.07
616.371	21.88
616.705	22.05
617.039	21.71
617.373	21.61
617.707	21.68
618.041	21.88
618.375	22.08
618.709	21.77
619.042	21.83
619.376	21.94
619.71	22.18
620.043	21.7
620.377	21.85
620.71	22.1
621.043	22.44
621.377	21.86
621.71	22.31
622.043	22.21
622.376	22.28
622.709	22.4
623.043	21.68
623.376	22
623.709	22.16
624.041	21.92
624.374	22.11
624.707	22.7
625.04	22.25
625.373	21.49
625.705	22.39
626.038	22.31
626.37	22.67
626.703	22.49
627.035	22.33
627.368	22.6
627.7	22.73
628.032	22.83
628.365	22.56
628.697	22.57
629.029	22.74
629.361	22.94
629.693	22.31
630.025	22.72
630.357	22.16
630.689	22.71
631.021	22.63
631.353	22.78
631.684	22.99
632.016	23.02
632.348	22.88
632.679	22.9
633.011	22.82
633.342	22.95
633.674	23.3
634.005	22.3
634.336	23.23
634.668	23.24
634.999	23.24
635.33	23.41
635.661	23.23
635.992	23.1
636.323	23.06
636.654	23.34
636.985	22.76
637.316	23.02
637.647	23.55
637.977	23.14
638.308	23.46
638.639	23.72
638.969	23.14
639.3	23.09
639.63	23.52
639.961	23.46
640.291	23.66
640.622	23.49
640.952	23.38
641.282	23.26
641.612	23.81
641.943	23.74
642.273	23.73
642.603	23.15
642.933	23.68
643.263	23.5
643.592	23.74
643.922	24.14
644.252	24
644.582	23.83
644.911	23.8
645.241	24.11
645.571	23.91
645.9	23.78
646.23	23.81
646.559	23.99
646.888	24.18
647.218	24.07
647.547	23.73
647.876	24.12
648.205	24
648.534	24.35
648.863	24.22
649.192	23.83
649.521	24.32
649.85	24.67
650.179	23.8
650.508	24.01
650.837	24.37
651.165	24.26
651.494	24.11
651.822	24.23
652.151	24.26
652.479	24.14
652.808	24.38
653.136	24.31
653.465	24.29
653.793	24.14
654.121	24.22
654.449	24.41
654.777	24.77
655.105	24.99
655.433	24.64
655.761	24.71
656.089	24.46
656.417	24.44
656.745	24.93
657.073	25.34
657.4	25.22
657.728	24.81
658.056	24.48
658.383	24.82
658.711	24.48
659.038	24.75
659.365	24.84
659.693	24.46
660.02	25
660.347	24.89
660.674	25.04
661.001	24.96
661.329	24.32
661.656	24.88
661.982	24.68
662.309	24.66
662.636	24.91
662.963	25.31
663.29	25.43
663.616	25.16
663.943	25.16
664.27	25.16
664.596	25.38
664.923	25.24
665.249	25.44
665.576	24.64
665.902	24.7
666.228	25.39
666.554	25
666.881	25.38
667.207	25.52
667.533	25.19
667.859	24.97
668.185	25.68
668.511	26.24
668.837	25.69
669.162	25.5
669.488	25.77
669.814	25.56
670.139	25.18
670.465	25.63
670.791	25.3
671.116	25.28
671.442	26.07
671.767	25.12
672.092	26.03
672.418	25.97
672.743	25.77
673.068	25.85
673.393	25.55
673.718	26.02
674.043	26.13
674.368	25.85
674.693	26.2
675.018	26.46
675.343	26.12
675.667	25.96
675.992	25.6
676.317	26.01
676.641	26.21
676.966	26.45
677.29	25.96
677.615	26.33
