Data from 0090_crown_Reflection__3__165.txt Node

Date: Fri Sep 22 22:13:21 CDT 2023
User: ToomeyLab
Spectrometer: FLMS14357
Trigger mode: 0
Integration Time (sec): 1.000000E-2
Scans to average: 100
Electric dark correction enabled: true
Nonlinearity correction enabled: false
Boxcar width: 0
XAxis mode: Wavelengths
Number of Pixels in Spectrum: 2048
>>>>>Begin Spectral Data<<<<<
189.047	-574.46
189.435	-574.46
189.823	-574.46
190.211	54.85
190.599	9.14
190.987	158.12
191.375	4.7
191.763	28.14
192.151	592.37
192.538	42.24
192.926	125.33
193.314	-2.76
193.702	84.76
194.089	1.32
194.477	92.44
194.864	-3.6
195.252	-12122.5
195.639	-659.43
196.027	131.15
196.414	517.32
196.801	9.44
197.189	92.5
197.576	301.9
197.963	88.73
198.351	-16.18
198.738	30.47
199.125	1.15
199.512	11.28
199.899	38.31
200.286	39.85
200.673	19.9
201.06	9.53
201.447	27.69
201.833	-0.39
202.22	23.95
202.607	39.19
202.994	21.26
203.38	42.33
203.767	29.02
204.154	30.04
204.54	25.81
204.927	46.62
205.313	19.69
205.699	55.86
206.086	21.2
206.472	42.05
206.858	30.07
207.245	26.72
207.631	29.16
208.017	29.12
208.403	20.86
208.789	7.22
209.175	47.15
209.561	44.98
209.947	42.76
210.333	36.21
210.719	9.91
211.105	9.64
211.491	-16.19
211.876	36.21
212.262	10.92
212.648	35.9
213.034	37.85
213.419	7.18
213.805	32.26
214.19	23.91
214.576	29.31
214.961	9
215.346	-22.77
215.732	32.72
216.117	11.4
216.502	26.6
216.888	22.39
217.273	10.09
217.658	-7.67
218.043	19.32
218.428	13.65
218.813	-36.2
219.198	24.31
219.583	-5.88
219.968	-31.83
220.353	20.15
220.738	4.87
221.122	19.36
221.507	17.81
221.892	4.35
222.276	1.69
222.661	-32.15
223.046	20.87
223.43	26.78
223.815	11.51
224.199	1.63
224.583	10.19
224.968	6.31
225.352	1.75
225.736	8.14
226.121	12.38
226.505	2.64
226.889	1.64
227.273	7.67
227.657	2.89
228.041	5.01
228.425	9.4
228.809	1.2
229.193	4.74
229.577	6.9
229.961	3.46
230.344	3.78
230.728	3
231.112	4
231.495	3.81
231.879	3.92
232.263	3.06
232.646	4.35
233.03	4.16
233.413	3.03
233.797	3.25
234.18	2.53
234.563	5.53
234.946	5.29
235.33	0.16
235.713	3.07
236.096	1.15
236.479	2.96
236.862	4.27
237.245	2.9
237.628	4.79
238.011	3.76
238.394	2.82
238.777	5.72
239.16	3.25
239.543	5.84
239.925	5.83
240.308	3.19
240.691	4.65
241.073	4.6
241.456	2.82
241.838	2.84
242.221	3.11
242.603	3.08
242.986	3.4
243.368	2.89
243.75	3.5
244.133	3.56
244.515	3.08
244.897	2.76
245.279	3.05
245.661	3.06
246.043	3.6
246.425	2.69
246.807	3.31
247.189	1.96
247.571	3.98
247.953	3.48
248.335	3.08
248.717	3.05
249.098	2.99
249.48	2.83
249.862	2.84
250.243	3.12
250.625	3.2
251.006	2.59
251.388	3.21
251.769	3.63
252.151	3.13
252.532	3.14
252.913	3.73
253.295	3.43
253.676	2.91
254.057	3.3
254.438	3.35
254.819	2.21
255.2	3.78
255.581	2.64
255.962	3.25
256.343	2.73
256.724	2.71
257.105	3.79
257.486	2.63
257.867	2.49
258.247	3.45
258.628	3.3
259.009	2.64
259.389	3.06
259.77	3.59
260.15	4
260.531	2.55
260.911	2.59
261.292	2.99
261.672	2.59
262.052	2.63
262.432	2.72
262.813	2.87
263.193	2.36
263.573	3.45
263.953	2.37
264.333	3.05
264.713	2.69
265.093	3.03
265.473	2.89
265.853	2.07
266.233	2.91
266.612	2.85
266.992	2.92
267.372	3.29
267.752	2.91
268.131	2.87
268.511	2.67
268.89	3.14
269.27	2.72
269.649	2.62
270.029	2.57
270.408	2.98
270.787	3.21
271.167	2.58
271.546	2.33
271.925	2.85
272.304	2.09
272.683	2.43
273.062	3.17
273.441	2.33
273.82	3.07
274.199	2.73
274.578	2.75
274.957	2.65
275.336	2.62
275.715	2.72
276.093	2.15
276.472	2.76
276.851	2.67
277.229	2.02
277.608	3.14
277.986	2.46
278.365	2.36
278.743	2.58
279.122	2.78
279.5	2.94
279.878	2.06
280.257	3.38
280.635	2.57
281.013	2.59
281.391	2.15
281.769	2.57
282.147	3.19
282.525	2.72
282.903	3.03
283.281	2.48
283.659	2.79
284.037	2.35
284.415	2.4
284.792	2.69
285.17	2.55
285.548	2.93
285.925	2.44
286.303	2.48
286.68	1.72
287.058	2.42
287.435	2.49
287.813	2.35
288.19	2.43
288.567	2.42
288.945	2.15
289.322	2.54
289.699	2.39
290.076	2.49
290.453	2.26
290.83	2.27
291.207	2.22
291.584	2.01
291.961	2.18
292.338	2.71
292.715	3
293.092	2.31
293.469	2.41
293.845	2.36
294.222	2.75
294.599	2.63
294.975	2.92
295.352	2.73
295.728	2.44
296.105	2.38
296.481	2.55
296.858	2.3
297.234	2.67
297.61	2.4
297.986	2.42
298.363	2.11
298.739	2.38
299.115	2.43
299.491	2.23
299.867	2.38
300.243	2.51
300.619	2.22
300.995	2.31
301.371	2.72
301.746	2.86
302.122	2.1
302.498	1.9
302.874	2.17
303.249	2.21
303.625	2.51
304	2.72
304.376	2.72
304.751	2.72
305.127	2.26
305.502	2.35
305.878	2.3
306.253	2.33
306.628	2.25
307.003	2.3
307.378	2.14
307.754	2.35
308.129	2.35
308.504	2.35
308.879	2.56
309.254	1.93
309.629	2.29
310.003	2.91
310.378	2.78
310.753	2.08
311.128	2.23
311.502	2.29
311.877	2.23
312.252	1.97
312.626	1.79
313.001	2.4
313.375	2.69
313.75	2.54
314.124	2.78
314.498	1.79
314.873	2.22
315.247	2.64
315.621	2.43
315.995	1.96
316.369	2.88
316.743	2.31
317.117	3.03
317.491	2.73
317.865	1.89
318.239	2.3
318.613	2.43
318.987	2.11
319.361	2.08
319.734	1.86
320.108	2.97
320.482	2.09
320.855	2.14
321.229	2.75
321.602	2.36
321.976	1.87
322.349	1.73
322.723	2.59
323.096	2.33
323.469	2.48
323.843	2.56
324.216	2.08
324.589	2.3
324.962	1.97
325.335	1.99
325.708	2.06
326.081	2.06
326.454	2.08
326.827	2.39
327.2	1.88
327.573	2.69
327.945	2.44
328.318	2.41
328.691	2.32
329.063	1.89
329.436	2.34
329.809	2.54
330.181	2.23
330.553	2.25
330.926	2.25
331.298	2.26
331.671	1.95
332.043	1.75
332.415	1.84
332.787	2.37
333.159	2.21
333.532	2.1
333.904	1.95
334.276	2.06
334.648	1.48
335.02	2.39
335.391	1.89
335.763	2.5
336.135	2.26
336.507	2.06
336.879	1.72
337.25	2.33
337.622	2.61
337.993	2.14
338.365	2.72
338.736	2.39
339.108	2.33
339.479	2.07
339.851	1.81
340.222	2.05
340.593	1.64
340.964	1.67
341.336	1.92
341.707	1.73
342.078	2.03
342.449	2.53
342.82	2.23
343.191	2
343.562	2.34
343.933	2.16
344.303	2.15
344.674	2.69
345.045	2.59
345.416	2.86
345.786	1.95
346.157	2.26
346.527	2.23
346.898	2.27
347.268	2.09
347.639	1.99
348.009	2.14
348.38	2.35
348.75	2.48
349.12	2.04
349.49	2.38
349.861	1.78
350.231	2.69
350.601	2.24
350.971	2.2
351.341	1.97
351.711	1.85
352.081	2.16
352.45	2.26
352.82	2.04
353.19	2.28
353.56	2.04
353.929	1.87
354.299	2.23
354.669	2.35
355.038	2.23
355.408	2.33
355.777	2.41
356.147	1.97
356.516	2.68
356.885	2.05
357.254	2.44
357.624	1.84
357.993	2.25
358.362	2.15
358.731	1.85
359.1	1.99
359.469	2.63
359.838	1.85
360.207	2.09
360.576	2.31
360.945	2.16
361.314	2.08
361.682	2.36
362.051	2.13
362.42	2.16
362.788	1.86
363.157	2.42
363.525	2.04
363.894	2.11
364.262	1.96
364.631	2.12
364.999	2.09
365.367	2.2
365.735	2.13
366.104	2.15
366.472	2.53
366.84	2.19
367.208	2.61
367.576	2.39
367.944	2.36
368.312	2.52
368.68	2.37
369.048	2.52
369.416	2.22
369.783	2.1
370.151	2
370.519	2.33
370.886	2.17
371.254	2.35
371.621	2.01
371.989	2.28
372.356	2.32
372.724	2.57
373.091	2.36
373.458	2.4
373.826	2.16
374.193	2.44
374.56	2.22
374.927	2.13
375.294	2.21
375.661	1.88
376.028	2.26
376.395	2.28
376.762	2.46
377.129	2.52
377.496	2.6
377.863	2.48
378.229	2.38
378.596	2.47
378.963	2.89
379.329	2.42
379.696	2.39
380.062	2.1
380.429	2.49
380.795	2.36
381.161	2.06
381.528	2.33
381.894	2.01
382.26	2.22
382.626	2.43
382.993	2.4
383.359	2.24
383.725	2.13
384.091	2.27
384.457	2.1
384.823	2.23
385.188	2.4
385.554	2.13
385.92	2.75
386.286	2.3
386.651	2.01
387.017	2.43
387.383	2.1
387.748	2.36
388.114	2.12
388.479	2.13
388.845	2.13
389.21	2.12
389.575	2.44
389.94	2.04
390.306	2.38
390.671	2.61
391.036	2.01
391.401	2.3
391.766	2.08
392.131	2.24
392.496	2.41
392.861	2.34
393.226	2.44
393.591	2.35
393.956	2.24
394.32	2.21
394.685	2.18
395.05	2.7
395.414	2.52
395.779	2.42
396.143	2.48
396.508	2.29
396.872	2.28
397.236	2.28
397.601	2.09
397.965	2.61
398.329	2.2
398.694	2.25
399.058	2.28
399.422	2.31
399.786	2.42
400.15	2.52
400.514	2.51
400.878	2.48
401.242	2.39
401.605	2.44
401.969	2.3
402.333	2.51
402.697	2.23
403.06	2.47
403.424	2.27
403.787	2.42
404.151	2.57
404.514	2.6
404.878	2.6
405.241	2.68
405.604	2.47
405.968	2.48
406.331	2.28
406.694	2.53
407.057	2.3
407.42	2.6
407.783	2.32
408.146	2.47
408.509	2.31
408.872	2.36
409.235	2.48
409.598	2.31
409.961	2.53
410.323	2.38
410.686	2.53
411.049	2.47
411.411	2.51
411.774	2.19
412.136	2.24
412.499	2.33
412.861	2.46
413.223	2.49
413.586	2.43
413.948	2.4
414.31	2.24
414.672	2.41
415.035	2.4
415.397	2.5
415.759	2.81
416.121	2.33
416.483	2.32
416.845	2.48
417.206	2.13
417.568	2.26
417.93	2.49
418.292	2.43
418.653	2.24
419.015	2.37
419.377	2.25
419.738	2.46
420.1	2.31
420.461	2.39
420.822	2.43
421.184	2.35
421.545	2.29
421.906	2.37
422.267	2.25
422.629	2.37
422.99	2.35
423.351	2.22
423.712	2.37
424.073	2.34
424.434	2.4
424.795	2.27
425.155	2.41
425.516	2.39
425.877	2.35
426.238	2.23
426.598	2.24
426.959	2.24
427.32	2.33
427.68	2.31
428.041	2.29
428.401	2.4
428.761	2.43
429.122	2.46
429.482	2.4
429.842	2.45
430.202	2.45
430.563	2.51
430.923	2.25
431.283	2.47
431.643	2.53
432.003	2.6
432.363	2.72
432.722	2.57
433.082	2.7
433.442	2.6
433.802	2.49
434.161	2.39
434.521	2.47
434.881	2.46
435.24	2.37
435.6	2.35
435.959	2.44
436.319	2.46
436.678	2.55
437.037	2.59
437.396	2.47
437.756	2.52
438.115	2.56
438.474	2.3
438.833	2.5
439.192	2.47
439.551	2.39
439.91	2.48
440.269	2.55
440.628	2.34
440.987	2.5
441.345	2.4
441.704	2.5
442.063	2.34
442.421	2.47
442.78	2.4
443.138	2.47
443.497	2.39
443.855	2.4
444.214	2.34
444.572	2.53
444.93	2.49
445.288	2.59
445.647	2.53
446.005	2.43
446.363	2.32
446.721	2.47
447.079	2.38
447.437	2.45
447.795	2.46
448.153	2.33
448.51	2.43
448.868	2.26
449.226	2.43
449.584	2.4
449.941	2.3
450.299	2.49
450.656	2.51
451.014	2.49
451.371	2.44
451.729	2.52
452.086	2.52
452.443	2.58
452.801	2.58
453.158	2.48
453.515	2.63
453.872	2.51
454.229	2.55
454.586	2.55
454.943	2.42
455.3	2.55
455.657	2.54
456.014	2.53
456.371	2.65
456.727	2.77
457.084	2.48
457.441	2.54
457.797	2.49
458.154	2.51
458.51	2.44
458.867	2.63
459.223	2.56
459.58	2.57
459.936	2.6
460.292	2.62
460.648	2.57
461.005	2.53
461.361	2.52
461.717	2.41
462.073	2.49
462.429	2.34
462.785	2.42
463.141	2.5
463.496	2.51
463.852	2.49
464.208	2.4
464.564	2.61
464.919	2.54
465.275	2.78
465.631	2.64
465.986	2.54
466.342	2.63
466.697	2.56
467.052	2.47
467.408	2.64
467.763	2.61
468.118	2.74
468.473	2.65
468.829	2.46
469.184	2.63
469.539	2.61
469.894	2.62
470.249	2.55
470.603	2.39
470.958	2.64
471.313	2.71
471.668	2.65
472.023	2.69
472.377	2.55
472.732	2.45
473.086	2.78
473.441	2.38
473.795	2.86
474.15	2.53
474.504	2.39
474.859	2.74
475.213	2.43
475.567	2.39
475.921	2.69
476.275	2.68
476.63	2.64
476.984	2.35
477.338	2.84
477.692	2.62
478.045	2.67
478.399	2.63
478.753	2.56
479.107	2.62
479.461	2.51
479.814	2.73
480.168	2.58
480.521	2.6
480.875	2.65
481.228	2.59
481.582	2.48
481.935	2.56
482.289	2.56
482.642	2.57
482.995	2.62
483.348	2.57
483.701	2.53
484.055	2.52
484.408	2.51
484.761	2.59
485.114	2.37
485.466	2.41
485.819	2.36
486.172	2.29
486.525	2.32
486.878	2.36
487.23	2.38
487.583	2.46
487.936	2.47
488.288	2.55
488.641	2.48
488.993	2.45
489.345	2.41
489.698	2.43
490.05	2.45
490.402	2.4
490.754	2.38
491.107	2.43
491.459	2.53
491.811	2.45
492.163	2.48
492.515	2.49
492.866	2.53
493.218	2.51
493.57	2.5
493.922	2.32
494.274	2.43
494.625	2.42
494.977	2.51
495.328	2.56
495.68	2.58
496.031	2.57
496.383	2.69
496.734	2.62
497.086	2.63
497.437	2.67
497.788	2.58
498.139	2.74
498.49	2.69
498.842	2.46
499.193	2.48
499.544	2.64
499.894	2.52
500.245	2.61
500.596	2.56
500.947	2.68
501.298	2.65
501.648	2.62
501.999	2.62
502.35	2.64
502.7	2.62
503.051	2.6
503.401	2.7
503.752	2.71
504.102	2.61
504.452	2.61
504.803	2.59
505.153	2.67
505.503	2.69
505.853	2.74
506.203	2.55
506.553	2.73
506.903	2.73
507.253	2.66
507.603	2.69
507.953	2.72
508.303	2.66
508.652	2.66
509.002	2.72
509.352	2.58
509.701	2.74
510.051	2.7
510.4	2.6
510.75	2.56
511.099	2.47
511.449	2.61
511.798	2.75
512.147	2.63
512.496	2.58
512.846	2.59
513.195	2.68
513.544	2.68
513.893	2.75
514.242	2.58
514.591	2.62
514.939	2.72
515.288	2.49
515.637	2.71
515.986	2.68
516.334	2.62
516.683	2.68
517.032	2.78
517.38	2.77
517.729	2.71
518.077	2.73
518.426	2.7
518.774	2.61
519.122	2.65
519.47	2.67
519.819	2.69
520.167	2.69
520.515	2.55
520.863	2.49
521.211	2.52
521.559	2.6
521.907	2.63
522.255	2.59
522.602	2.68
522.95	2.64
523.298	2.7
523.645	2.65
523.993	2.73
524.341	2.62
524.688	2.62
525.036	2.7
525.383	2.67
525.73	2.7
526.078	2.66
526.425	2.61
526.772	2.71
527.119	2.62
527.466	2.62
527.814	2.61
528.161	2.54
528.508	2.59
528.854	2.68
529.201	2.65
529.548	2.62
529.895	2.61
530.242	2.56
530.588	2.47
530.935	2.38
531.282	2.41
531.628	2.51
531.975	2.5
532.321	2.54
532.667	2.54
533.014	2.55
533.36	2.66
533.706	2.61
534.052	2.69
534.399	2.67
534.745	2.6
535.091	2.55
535.437	2.52
535.783	2.46
536.129	2.57
536.474	2.56
536.82	2.58
537.166	2.71
537.512	2.65
537.857	2.71
538.203	2.78
538.549	2.63
538.894	2.52
539.239	2.6
539.585	2.63
539.93	2.75
540.276	2.62
540.621	2.64
540.966	2.64
541.311	2.79
541.656	2.64
542.001	2.78
542.346	2.73
542.691	2.72
543.036	2.71
543.381	2.56
543.726	2.55
544.071	2.52
544.415	2.53
544.76	2.54
545.105	2.57
545.449	2.6
545.794	2.58
546.138	2.69
546.483	2.62
546.827	2.64
547.171	2.68
547.516	2.68
547.86	2.71
548.204	2.74
548.548	2.74
548.892	2.8
549.236	2.61
549.58	2.61
549.924	2.69
550.268	2.8
550.612	2.75
550.956	2.68
551.3	2.9
551.643	2.87
551.987	2.82
552.33	2.89
552.674	2.77
553.017	2.65
553.361	2.64
553.704	2.87
554.048	2.79
554.391	2.75
554.734	2.89
555.077	2.73
555.42	2.87
555.764	2.72
556.107	2.84
556.45	2.68
556.793	2.81
557.135	2.77
557.478	2.6
557.821	2.83
558.164	2.86
558.507	2.93
558.849	2.84
559.192	2.82
559.534	2.96
559.877	2.75
560.219	2.89
560.562	2.83
560.904	2.91
561.246	2.88
561.589	2.92
561.931	2.82
562.273	2.74
562.615	2.79
562.957	2.75
563.299	2.86
563.641	2.82
563.983	2.73
564.325	2.95
564.667	2.86
565.008	2.82
565.35	2.85
565.692	2.88
566.033	2.95
566.375	2.86
566.716	3.06
567.058	2.66
567.399	2.92
567.741	2.81
568.082	2.8
568.423	2.74
568.764	2.95
569.105	2.75
569.447	2.94
569.788	2.71
570.129	2.87
570.47	2.84
570.811	2.9
571.151	2.98
571.492	2.76
571.833	2.78
572.174	2.78
572.514	2.67
572.855	2.89
573.195	2.81
573.536	2.9
573.876	2.72
574.217	2.77
574.557	2.78
574.898	2.82
575.238	2.94
575.578	2.93
575.918	2.87
576.258	2.69
576.598	2.84
576.938	2.87
577.278	2.9
577.618	2.73
577.958	2.8
578.298	2.98
578.638	2.72
578.977	2.89
579.317	2.9
579.657	2.97
579.996	2.68
580.336	2.94
580.675	2.96
581.014	2.73
581.354	2.78
581.693	2.85
582.032	2.88
582.372	2.87
582.711	2.9
583.05	2.79
583.389	2.95
583.728	2.82
584.067	3.04
584.406	2.84
584.745	2.68
585.083	2.92
585.422	2.98
585.761	2.76
586.1	2.8
586.438	2.85
586.777	3.22
587.115	2.96
587.454	2.78
587.792	2.9
588.13	2.68
588.469	2.86
588.807	3.14
589.145	3.18
589.483	2.98
589.821	2.75
590.159	2.84
590.497	3.08
590.835	3.13
591.173	2.84
591.511	2.88
591.849	3
592.187	2.9
592.524	2.93
592.862	2.84
593.2	2.78
593.537	2.71
593.875	2.81
594.212	2.9
594.55	3.12
594.887	2.74
595.224	2.92
595.561	3.11
595.899	3.18
596.236	3.09
596.573	2.96
596.91	3.13
597.247	2.92
597.584	3.15
597.921	2.99
598.258	2.98
598.594	2.94
598.931	2.85
599.268	2.91
599.604	3.12
599.941	2.96
600.277	2.75
600.614	2.82
600.95	2.93
601.287	3.04
601.623	2.99
601.959	3.09
602.296	3.12
602.632	2.75
602.968	3.13
603.304	3.09
603.64	2.71
603.976	2.96
604.312	3.05
604.648	2.95
604.984	2.98
605.319	2.83
605.655	2.81
605.991	2.99
606.326	3
606.662	2.83
606.998	2.86
607.333	2.88
607.668	2.87
608.004	2.9
608.339	2.79
608.674	3.04
609.01	3.12
609.345	2.92
609.68	3.22
610.015	3.02
610.35	3.06
610.685	3.24
611.02	2.93
611.355	3.12
611.689	2.74
612.024	3.04
612.359	2.79
612.694	3
613.028	3.02
613.363	2.93
613.697	2.91
614.032	3.06
614.366	3.04
614.7	3.11
615.035	3.24
615.369	2.9
615.703	2.96
616.037	3.21
616.371	3.28
616.705	3.34
617.039	2.8
617.373	2.91
617.707	3.03
618.041	3.05
618.375	2.9
618.709	2.78
619.042	2.9
619.376	3.01
619.71	3.2
620.043	2.75
620.377	2.99
620.71	3.05
621.043	3.14
621.377	3.04
621.71	2.98
622.043	3.01
622.376	3.33
622.709	2.85
623.043	3.23
623.376	3.14
623.709	3.2
624.041	2.95
624.374	2.99
624.707	3.14
625.04	3.36
625.373	2.74
625.705	3.06
626.038	3.06
626.37	3.44
626.703	3.15
627.035	3.17
627.368	2.97
627.7	3.21
628.032	3.25
628.365	3.06
628.697	3.22
629.029	3.27
629.361	3.18
629.693	2.97
630.025	3.1
630.357	2.88
630.689	3.1
631.021	3.07
631.353	2.98
631.684	3.11
632.016	3.46
632.348	3.25
632.679	3.05
633.011	2.92
633.342	3.14
633.674	3.35
634.005	3.24
634.336	3.35
634.668	3.33
634.999	3.45
635.33	3.42
635.661	3.06
635.992	3.38
636.323	3.02
636.654	3.02
636.985	2.86
637.316	2.94
637.647	3.08
637.977	2.86
638.308	3.69
638.639	2.95
638.969	2.98
639.3	3.11
639.63	3.41
639.961	3.09
640.291	3.02
640.622	3.35
640.952	3.3
641.282	3.24
641.612	2.98
641.943	3.43
642.273	3.28
642.603	3.18
642.933	3.28
643.263	2.36
643.592	3.28
643.922	3.35
644.252	2.85
644.582	3.35
644.911	3.13
645.241	3.36
645.571	3.14
645.9	3.23
646.23	3.5
646.559	3.13
646.888	3.39
647.218	3.16
647.547	3.06
647.876	3.53
648.205	2.84
648.534	3.4
648.863	3.03
649.192	2.84
649.521	2.97
649.85	3.56
650.179	3.31
650.508	2.91
650.837	3.71
651.165	3.33
651.494	3.26
651.822	3.28
652.151	3.03
652.479	3.22
652.808	2.78
653.136	3.07
653.465	3
653.793	3.24
654.121	3.76
654.449	2.85
654.777	3.38
655.105	3.54
655.433	3.29
655.761	3.44
656.089	3.38
656.417	3.1
656.745	3.28
657.073	3.3
657.4	3.93
657.728	3.05
658.056	3.09
658.383	3.83
658.711	2.76
659.038	3.32
659.365	3.18
659.693	3.18
660.02	3.21
660.347	3.44
660.674	3.13
661.001	2.87
661.329	3.07
661.656	3.36
661.982	3.04
662.309	3.38
662.636	3.16
662.963	3.11
663.29	3.25
663.616	3.08
663.943	3.59
664.27	3.35
664.596	3.18
664.923	3.06
665.249	3.12
665.576	3.18
665.902	3.41
666.228	3.1
666.554	3.06
666.881	3.47
667.207	3.29
667.533	3.02
667.859	3.24
668.185	3.43
668.511	3.69
668.837	3.26
669.162	3.38
669.488	3.69
669.814	3.77
670.139	3.35
670.465	3.51
670.791	3.68
671.116	2.98
671.442	3.54
671.767	2.59
672.092	3.41
672.418	3.86
672.743	3.37
673.068	3.59
673.393	2.93
673.718	3.91
674.043	3.76
674.368	3.8
674.693	3.19
675.018	2.8
675.343	3.27
675.667	3.94
675.992	2.95
676.317	3.27
676.641	3.63
676.966	3.86
677.29	3.42
677.615	4.06
677.939	4
678.264	3.66
678.588	3.71
678.912	3.35
679.236	3.76
679.56	3.48
679.885	4.16
680.209	3.53
680.532	2.99
680.856	3.2
681.18	3.32
681.504	3.27
681.828	3.32
682.152	3.47
682.475	4.22
682.799	3.34
683.122	3.57
683.446	3.52
683.769	3.46
684.093	3.83
684.416	3.56
684.739	3.93
685.062	3.85
685.386	3.57
685.709	3.67
686.032	3.28
686.355	3.68
686.678	3.56
687.001	3.85
687.324	4.01
687.646	3.15
687.969	4.27
688.292	3.68
688.614	3.96
688.937	3.79
689.26	2.97
689.582	3.28
689.904	3.35
690.227	4.1
690.549	4.13
690.871	3.3
691.194	3.34
691.516	3.27
691.838	3.23
692.16	2.62
692.482	3.19
692.804	3.27
693.126	3.32
