Data from 0090_crown_Reflection__0__162.txt Node

Date: Fri Sep 22 22:12:50 CDT 2023
User: ToomeyLab
Spectrometer: FLMS14357
Trigger mode: 0
Integration Time (sec): 1.000000E-2
Scans to average: 100
Electric dark correction enabled: true
Nonlinearity correction enabled: false
Boxcar width: 0
XAxis mode: Wavelengths
Number of Pixels in Spectrum: 2048
>>>>>Begin Spectral Data<<<<<
189.047	1772.83
189.435	1772.83
189.823	1772.83
190.211	-39.94
190.599	564.55
190.987	62.08
191.375	396.6
191.763	228.07
192.151	1127.6
192.538	124.28
192.926	32
193.314	144.35
193.702	64.63
194.089	75.91
194.477	120.26
194.864	38.72
195.252	-6325
195.639	-929.39
196.027	144.95
196.414	19.95
196.801	-57.82
197.189	36.95
197.576	148.54
197.963	321.72
198.351	3
198.738	37.37
199.125	43.72
199.512	22.57
199.899	61.63
200.286	21.26
200.673	9.48
201.06	48.9
201.447	42.8
201.833	-23.84
202.22	56.09
202.607	48.26
202.994	44.92
203.38	34.99
203.767	5.25
204.154	56.41
204.54	31.12
204.927	16.68
205.313	41.07
205.699	48.01
206.086	41
206.472	32.76
206.858	20.98
207.245	-18.55
207.631	36.93
208.017	51.95
208.403	33.88
208.789	22.93
209.175	44.21
209.561	44.2
209.947	38.95
210.333	20.37
210.719	31.87
211.105	56.26
211.491	13.31
211.876	43.95
212.262	32.34
212.648	61.67
213.034	51.65
213.419	18.45
213.805	21.06
214.19	16.22
214.576	5.73
214.961	10.75
215.346	2.99
215.732	10.86
216.117	22.88
216.502	34.44
216.888	33.91
217.273	27.85
217.658	1.68
218.043	11.26
218.428	24.78
218.813	5.56
219.198	37.18
219.583	30.31
219.968	29.4
220.353	30.08
220.738	-8.23
221.122	-4.19
221.507	-10.35
221.892	6.62
222.276	14.86
222.661	-17.77
223.046	27.06
223.43	18.49
223.815	12.73
224.199	4.59
224.583	20.73
224.968	15.92
225.352	9.47
225.736	3.37
226.121	6.19
226.505	5.52
226.889	8.42
227.273	3.27
227.657	7.32
228.041	9.66
228.425	12.9
228.809	10.32
229.193	8.15
229.577	5.48
229.961	6.73
230.344	9.34
230.728	5.25
231.112	6.38
231.495	5.52
231.879	6.14
232.263	5.14
232.646	6.12
233.03	5.38
233.413	7.61
233.797	5.91
234.18	6.38
234.563	6.9
234.946	5.37
235.33	7.07
235.713	5.73
236.096	5.94
236.479	3.3
236.862	7.72
237.245	5.72
237.628	6.34
238.011	8.13
238.394	7.19
238.777	6.21
239.16	7.44
239.543	8.96
239.925	5.1
240.308	6.98
240.691	6.45
241.073	6.48
241.456	5.29
241.838	4.66
242.221	4.79
242.603	5.96
242.986	4.62
243.368	4.73
243.75	5.54
244.133	5.6
244.515	5.31
244.897	4.81
245.279	5.24
245.661	5.34
246.043	4.98
246.425	5
246.807	5.19
247.189	4.37
247.571	5.72
247.953	6.2
248.335	5.72
248.717	5.37
249.098	5.08
249.48	4.85
249.862	4.83
250.243	4.91
250.625	5.02
251.006	4.84
251.388	5.48
251.769	5.48
252.151	5.58
252.532	4.96
252.913	5.31
253.295	6.39
253.676	5.44
254.057	4.5
254.438	5.56
254.819	4.6
255.2	5.33
255.581	5.32
255.962	5.9
256.343	4.34
256.724	4.81
257.105	5.45
257.486	5.37
257.867	4.4
258.247	5.72
258.628	5.11
259.009	5.1
259.389	3.48
259.77	5.47
260.15	5.24
260.531	4.88
260.911	4.62
261.292	4.86
261.672	4.38
262.052	4.65
262.432	4.59
262.813	4.66
263.193	4.37
263.573	5.2
263.953	4.75
264.333	5.05
264.713	4.75
265.093	4.89
265.473	4.57
265.853	4.63
266.233	4.83
266.612	4.44
266.992	5.43
267.372	4.81
267.752	4.52
268.131	4.37
268.511	4.46
268.89	4.91
269.27	4.37
269.649	4.41
270.029	4.35
270.408	4.78
270.787	4.83
271.167	4.39
271.546	4.41
271.925	4.95
272.304	4.37
272.683	4.67
273.062	4.75
273.441	4.45
273.82	5
274.199	4.15
274.578	4.64
274.957	4.45
275.336	4.27
275.715	4.91
276.093	4.24
276.472	4.02
276.851	4.25
277.229	3.48
277.608	4.51
277.986	4.54
278.365	4.28
278.743	4.11
279.122	4.49
279.5	4.61
279.878	3.96
280.257	5.17
280.635	3.88
281.013	4.58
281.391	3.96
281.769	4.46
282.147	4.58
282.525	4.06
282.903	4.34
283.281	4.7
283.659	4.14
284.037	4.26
284.415	4.18
284.792	3.93
285.17	4.32
285.548	4.18
285.925	3.97
286.303	4.54
286.68	4.25
287.058	4.21
287.435	3.97
287.813	3.96
288.19	3.89
288.567	4.38
288.945	3.88
289.322	4.44
289.699	4.15
290.076	4.29
290.453	3.64
290.83	3.9
291.207	4.05
291.584	3.56
291.961	4.24
292.338	3.65
292.715	4.02
293.092	4.02
293.469	3.98
293.845	3.97
294.222	3.78
294.599	4.47
294.975	3.98
295.352	4.03
295.728	3.97
296.105	4.02
296.481	4.04
296.858	4.24
297.234	4.08
297.61	3.9
297.986	3.8
298.363	4.08
298.739	3.89
299.115	3.86
299.491	3.74
299.867	3.89
300.243	3.47
300.619	3.68
300.995	4.17
301.371	4.08
301.746	4.29
302.122	3.34
302.498	3.43
302.874	3.53
303.249	3.6
303.625	3.54
304	4.23
304.376	4.05
304.751	3.54
305.127	3.34
305.502	4.23
305.878	3.63
306.253	3.85
306.628	3.28
307.003	4.08
307.378	3.6
307.754	3.71
308.129	3.53
308.504	3.49
308.879	3.69
309.254	3.8
309.629	3.69
310.003	3.79
310.378	3.97
310.753	3.38
311.128	3.48
311.502	3.48
311.877	3.15
312.252	3.46
312.626	3.53
313.001	3.61
313.375	3.28
313.75	3.79
314.124	4.1
314.498	3.28
314.873	3.88
315.247	4.08
315.621	3.44
315.995	3.22
316.369	3.62
316.743	3.75
317.117	3.68
317.491	4.28
317.865	3.46
318.239	3.42
318.613	3.57
318.987	3.72
319.361	3.51
319.734	3.09
320.108	3.92
320.482	3.21
320.855	3.09
321.229	4.24
321.602	3.22
321.976	3.62
322.349	3.52
322.723	3.72
323.096	3.61
323.469	3.64
323.843	3.73
324.216	4.29
324.589	3.41
324.962	3.59
325.335	3.56
325.708	3.48
326.081	3.99
326.454	3.24
326.827	3.49
327.2	3.36
327.573	3.63
327.945	3.23
328.318	3.87
328.691	3.59
329.063	3.18
329.436	3.37
329.809	3.82
330.181	3.82
330.553	3.8
330.926	3.34
331.298	3.33
331.671	3.36
332.043	3.21
332.415	3.58
332.787	3.95
333.159	3.35
333.532	3.17
333.904	3.09
334.276	3.36
334.648	2.99
335.02	3.54
335.391	3.85
335.763	4.07
336.135	3.19
336.507	3.51
336.879	2.76
337.25	3.28
337.622	3.78
337.993	3.36
338.365	4.02
338.736	3.72
339.108	3.43
339.479	3.45
339.851	3.45
340.222	3.89
340.593	3.21
340.964	3.16
341.336	3.51
341.707	3.16
342.078	3.31
342.449	3.55
342.82	3.4
343.191	3.09
343.562	3.06
343.933	3.37
344.303	3.58
344.674	3.37
345.045	3.45
345.416	3.99
345.786	3.39
346.157	3.32
346.527	3.45
346.898	3.38
347.268	3.45
347.639	3.42
348.009	3.34
348.38	3.37
348.75	3.49
349.12	3.54
349.49	3.85
349.861	3.62
350.231	3.41
350.601	3.62
350.971	3.74
351.341	3.2
351.711	3.32
352.081	3.73
352.45	3.28
352.82	3.48
353.19	3.66
353.56	3.31
353.929	3.13
354.299	3.54
354.669	3.41
355.038	3.47
355.408	3.54
355.777	3.62
356.147	3.61
356.516	3.55
356.885	3.35
357.254	3.99
357.624	3.37
357.993	3.81
358.362	3.64
358.731	3.07
359.1	3.12
359.469	3.67
359.838	3.21
360.207	3.47
360.576	3.68
360.945	3.78
361.314	3.62
361.682	3.54
362.051	3.81
362.42	3.32
362.788	3.35
363.157	3.47
363.525	3.52
363.894	3.37
364.262	3.29
364.631	3.42
364.999	3.53
365.367	3.5
365.735	3.49
366.104	3.35
366.472	3.79
366.84	3.53
367.208	3.61
367.576	3.37
367.944	3.6
368.312	3.63
368.68	3.62
369.048	3.56
369.416	3.74
369.783	3.42
370.151	3.47
370.519	3.79
370.886	3.61
371.254	3.83
371.621	3.41
371.989	3.71
372.356	3.38
372.724	3.61
373.091	3.62
373.458	3.39
373.826	3.58
374.193	3.71
374.56	3.69
374.927	3.56
375.294	3.67
375.661	3.27
376.028	3.61
376.395	3.79
376.762	3.57
377.129	3.73
377.496	3.52
377.863	3.76
378.229	3.7
378.596	3.64
378.963	3.99
379.329	3.81
379.696	3.91
380.062	3.37
380.429	3.69
380.795	3.81
381.161	3.79
381.528	3.8
381.894	3.36
382.26	3.76
382.626	3.81
382.993	3.77
383.359	3.62
383.725	3.73
384.091	3.81
384.457	3.58
384.823	3.66
385.188	3.7
385.554	3.92
385.92	3.93
386.286	3.82
386.651	3.67
387.017	3.86
387.383	3.6
387.748	3.65
388.114	3.8
388.479	3.9
388.845	3.57
389.21	3.77
389.575	3.81
389.94	3.55
390.306	3.89
390.671	4.17
391.036	3.61
391.401	3.88
391.766	3.65
392.131	3.71
392.496	3.75
392.861	3.8
393.226	4.06
393.591	3.79
393.956	3.87
394.32	3.55
394.685	3.83
395.05	3.98
395.414	4
395.779	3.78
396.143	3.81
396.508	3.79
396.872	3.96
397.236	3.7
397.601	3.65
397.965	4.04
398.329	4.01
398.694	3.73
399.058	3.78
399.422	3.87
399.786	4.02
400.15	3.95
400.514	3.82
400.878	3.75
401.242	3.98
401.605	3.65
401.969	3.61
402.333	3.79
402.697	3.74
403.06	3.88
403.424	3.78
403.787	3.97
404.151	4.06
404.514	4.04
404.878	3.93
405.241	4.2
405.604	3.91
405.968	3.92
406.331	3.78
406.694	3.92
407.057	3.81
407.42	4.01
407.783	3.85
408.146	3.86
408.509	3.95
408.872	3.86
409.235	3.9
409.598	3.83
409.961	4.12
410.323	4.19
410.686	3.98
411.049	4.14
411.411	4.13
411.774	3.98
412.136	3.93
412.499	3.95
412.861	4.06
413.223	3.85
413.586	3.86
413.948	3.94
414.31	4.14
414.672	3.98
415.035	4.09
415.397	4.23
415.759	4.32
416.121	3.98
416.483	3.94
416.845	3.79
417.206	3.92
417.568	3.74
417.93	3.88
418.292	3.92
418.653	3.89
419.015	4.07
419.377	3.96
419.738	4.02
420.1	3.84
420.461	4.03
420.822	3.89
421.184	3.8
421.545	3.9
421.906	3.88
422.267	3.77
422.629	3.88
422.99	3.89
423.351	3.84
423.712	3.72
424.073	3.73
424.434	3.95
424.795	3.9
425.155	3.96
425.516	3.91
425.877	3.88
426.238	3.79
426.598	3.81
426.959	3.88
427.32	3.84
427.68	3.87
428.041	3.86
428.401	3.99
428.761	4.02
429.122	3.96
429.482	4.05
429.842	3.85
430.202	4.01
430.563	3.98
430.923	3.95
431.283	4.05
431.643	4.08
432.003	4.09
432.363	4.22
432.722	4.16
433.082	4.1
433.442	4
433.802	3.98
434.161	4.07
434.521	4.08
434.881	3.98
435.24	3.87
435.6	3.96
435.959	3.89
436.319	3.92
436.678	4.12
437.037	3.98
437.396	4.05
437.756	4
438.115	4.09
438.474	4.15
438.833	4.09
439.192	4.08
439.551	3.98
439.91	4.05
440.269	4.02
440.628	3.85
440.987	4.06
441.345	4.01
441.704	3.93
442.063	3.93
442.421	3.88
442.78	4.02
443.138	3.97
443.497	3.83
443.855	4.05
444.214	3.87
444.572	4.08
444.93	4.06
445.288	3.95
445.647	4.15
446.005	4.01
446.363	3.9
446.721	4.02
447.079	3.94
447.437	3.96
447.795	3.97
448.153	3.84
448.51	3.89
448.868	3.74
449.226	3.88
449.584	3.88
449.941	3.96
450.299	4.01
450.656	3.96
451.014	4.02
451.371	4.13
451.729	4.07
452.086	4
452.443	4.08
452.801	4.05
453.158	3.98
453.515	4.15
453.872	3.99
454.229	3.92
454.586	3.97
454.943	4.03
455.3	4.07
455.657	3.96
456.014	4.1
456.371	4.23
456.727	4.2
457.084	4.04
457.441	4.09
457.797	4.08
458.154	3.97
458.51	4.03
458.867	3.98
459.223	4.01
459.58	4.11
459.936	4.14
460.292	4.17
460.648	4.01
461.005	3.95
461.361	4.08
461.717	3.78
462.073	3.93
462.429	3.77
462.785	3.94
463.141	3.97
463.496	4.1
463.852	4.07
464.208	4.07
464.564	4.15
464.919	4.15
465.275	4.2
465.631	4.32
465.986	4.16
466.342	4.16
466.697	4.08
467.052	4.22
467.408	4.12
467.763	4.13
468.118	4.32
468.473	4.03
468.829	4
469.184	4.14
469.539	4.13
469.894	4.13
470.249	4.19
470.603	4.11
470.958	4.17
471.313	4.2
471.668	4.23
472.023	4.29
472.377	4.1
472.732	3.99
473.086	4.18
473.441	3.87
473.795	4.25
474.15	3.98
474.504	3.93
474.859	4.29
475.213	3.83
475.567	3.92
475.921	4.11
476.275	4.2
476.63	3.96
476.984	4.01
477.338	4.1
477.692	4.1
478.045	4.2
478.399	4.16
478.753	3.93
479.107	4.06
479.461	4.03
479.814	4.16
480.168	4.2
480.521	4.18
480.875	4.16
481.228	4.07
481.582	3.96
481.935	4.04
482.289	3.99
482.642	3.99
482.995	4.09
483.348	4.09
483.701	4.06
484.055	3.9
484.408	4
484.761	4
485.114	3.86
485.466	3.78
485.819	3.72
486.172	3.65
486.525	3.68
486.878	3.74
487.23	3.83
487.583	3.89
487.936	3.91
488.288	3.92
488.641	3.92
488.993	3.85
489.345	3.82
489.698	3.81
490.05	3.74
490.402	3.86
490.754	3.81
491.107	3.85
491.459	3.91
491.811	3.95
492.163	3.98
492.515	4.04
492.866	4
493.218	3.99
493.57	3.91
493.922	3.74
494.274	3.8
494.625	3.91
494.977	3.95
495.328	4
495.68	4.04
496.031	3.93
496.383	4.04
496.734	4.04
497.086	3.99
497.437	4.09
497.788	4.06
498.139	4.09
498.49	4.07
498.842	3.94
499.193	3.95
499.544	4
499.894	3.95
500.245	4.03
500.596	4.08
500.947	4.09
501.298	4.17
501.648	4.04
501.999	4.12
502.35	4.14
502.7	4.26
503.051	4.1
503.401	4.16
503.752	4.04
504.102	4.07
504.452	4.09
504.803	4.08
505.153	4.14
505.503	4.05
505.853	4.08
506.203	4.07
506.553	4.15
506.903	4.05
507.253	4.05
507.603	4.09
507.953	4.19
508.303	4.13
508.652	4.02
509.002	4.22
509.352	4.16
509.701	4.13
510.051	4.06
510.4	4.08
510.75	4.03
511.099	3.9
511.449	4.15
511.798	4.06
512.147	4.17
512.496	4.02
512.846	4.12
513.195	4.02
513.544	4.06
513.893	4.15
514.242	4.08
514.591	4.04
514.939	4.12
515.288	4.05
515.637	4.03
515.986	4.08
516.334	4.09
516.683	4.06
517.032	4.18
517.38	4.1
517.729	4.05
518.077	4.1
518.426	4.09
518.774	4.05
519.122	4.03
519.47	4.13
519.819	4.08
520.167	4.07
520.515	4
520.863	3.85
521.211	3.93
521.559	4
521.907	4.12
522.255	4.03
522.602	4.02
522.95	4
523.298	4.13
523.645	4.15
523.993	4.01
524.341	4.07
524.688	4.1
525.036	4.07
525.383	4.11
525.73	4.12
526.078	4.03
526.425	4.04
526.772	4.13
527.119	4.05
527.466	3.94
527.814	3.87
528.161	3.89
528.508	3.97
528.854	3.91
529.201	4.01
529.548	3.99
529.895	3.85
530.242	3.79
530.588	3.75
530.935	3.65
531.282	3.71
531.628	3.78
531.975	3.83
532.321	3.8
532.667	3.92
533.014	3.96
533.36	3.96
533.706	3.97
534.052	4.06
534.399	4.04
534.745	3.94
535.091	3.89
535.437	3.74
535.783	3.72
536.129	3.87
536.474	3.91
536.82	3.89
537.166	4.08
537.512	3.97
537.857	4
538.203	4.02
538.549	3.88
538.894	3.85
539.239	3.87
539.585	3.85
539.93	4.02
540.276	4
540.621	4.02
540.966	4.05
541.311	4.18
541.656	4.01
542.001	4.05
542.346	4.07
542.691	4.03
543.036	3.98
543.381	3.83
543.726	3.75
544.071	3.77
544.415	3.85
544.76	3.89
545.105	3.84
545.449	3.93
545.794	3.95
546.138	3.94
546.483	3.92
546.827	3.96
547.171	3.94
547.516	3.95
547.86	3.98
548.204	4
548.548	3.96
548.892	4.02
549.236	3.91
549.58	3.91
549.924	4.06
550.268	4.09
550.612	3.86
550.956	3.97
551.3	4.12
551.643	4.17
551.987	4.1
552.33	4.16
552.674	4
553.017	4.01
553.361	4.08
553.704	4.11
554.048	4.14
554.391	4.12
554.734	4.11
555.077	3.98
555.42	3.92
555.764	3.89
556.107	4.06
556.45	4.19
556.793	3.97
557.135	4.12
557.478	4.04
557.821	4.23
558.164	4.22
558.507	4.34
558.849	4.1
559.192	4.16
559.534	4.28
559.877	4.14
560.219	4.19
560.562	4.25
560.904	4.11
561.246	4.38
561.589	4.32
561.931	4.1
562.273	3.88
562.615	4.08
562.957	4.22
563.299	4
563.641	4.02
563.983	4.22
564.325	4.03
564.667	4.22
565.008	4.01
565.35	4.12
565.692	4.22
566.033	3.97
566.375	3.91
566.716	3.97
567.058	4.07
567.399	4.02
567.741	4.28
568.082	3.88
568.423	4.03
568.764	4.1
569.105	3.78
569.447	4.08
569.788	3.94
570.129	4.07
570.47	4.07
570.811	3.95
571.151	4.07
571.492	3.84
571.833	4.07
572.174	4.01
572.514	3.93
572.855	4.1
573.195	3.85
573.536	4.02
573.876	3.97
574.217	3.91
574.557	3.95
574.898	4.03
575.238	4.04
575.578	4.15
575.918	4.1
576.258	3.94
576.598	3.91
576.938	3.93
577.278	4.05
577.618	3.87
577.958	3.94
578.298	4.02
578.638	3.94
578.977	3.97
579.317	4.06
579.657	4.14
579.996	4.09
580.336	4.12
580.675	4.01
581.014	3.83
581.354	3.96
581.693	4.06
582.032	3.99
582.372	3.84
582.711	4.05
583.05	4.05
583.389	4.15
583.728	3.98
584.067	4.08
584.406	3.96
584.745	3.92
585.083	4.09
585.422	3.98
585.761	4.12
586.1	4.17
586.438	3.93
586.777	4.12
587.115	4.09
587.454	3.69
587.792	4.24
588.13	4.17
588.469	3.82
588.807	4
589.145	4.16
589.483	4.06
589.821	4.11
590.159	4.14
590.497	3.93
590.835	4.12
591.173	3.87
591.511	3.87
591.849	4.05
592.187	3.77
592.524	4.1
592.862	4.2
593.2	4.04
593.537	3.89
593.875	3.93
594.212	3.98
594.55	4.19
594.887	3.96
595.224	3.95
595.561	4.15
595.899	4.29
596.236	4.39
596.573	4.29
596.91	4.07
597.247	3.9
597.584	4.27
597.921	4.31
598.258	4.2
598.594	3.87
598.931	4.01
599.268	3.84
599.604	4.05
599.941	4.06
600.277	3.8
600.614	3.85
600.95	4.04
601.287	4.04
601.623	4.01
601.959	4.3
602.296	3.99
602.632	3.91
602.968	4.27
603.304	4.17
603.64	3.83
603.976	4.1
604.312	4.06
604.648	4.05
604.984	4
605.319	3.86
605.655	3.76
605.991	3.88
606.326	3.99
606.662	4.01
606.998	3.76
607.333	3.91
607.668	3.8
608.004	4.1
608.339	3.89
608.674	4.05
609.01	4.21
609.345	4.04
609.68	4.28
610.015	4.12
610.35	4.15
610.685	4.2
611.02	4.04
611.355	3.98
611.689	3.77
612.024	3.98
612.359	3.91
612.694	4.01
613.028	3.84
613.363	3.88
613.697	4.03
614.032	4
614.366	3.85
614.7	4.02
615.035	4.25
615.369	4.09
615.703	3.96
616.037	3.93
616.371	4.14
616.705	4.37
617.039	3.91
617.373	3.98
617.707	3.98
618.041	4.25
618.375	4.21
618.709	3.92
619.042	4.25
619.376	4.2
619.71	4.22
620.043	3.64
620.377	3.43
620.71	3.98
621.043	4.14
621.377	3.8
621.71	4.15
622.043	4.09
622.376	4.25
622.709	4.15
623.043	4.36
623.376	3.95
623.709	4.34
624.041	4.03
624.374	4.17
624.707	4.47
625.04	4.22
625.373	3.86
625.705	4.18
626.038	4.01
626.37	4.58
626.703	4.17
627.035	4.33
627.368	3.92
627.7	3.97
628.032	3.95
628.365	3.98
628.697	4
629.029	4.08
629.361	3.86
629.693	3.96
630.025	4.09
630.357	3.82
630.689	4.08
631.021	3.95
631.353	3.91
631.684	3.92
632.016	4.25
632.348	4.03
632.679	3.95
633.011	3.81
633.342	4.26
633.674	4.08
634.005	3.78
634.336	4.08
634.668	4.25
634.999	4.07
635.33	4.46
635.661	4.18
635.992	3.97
636.323	4.05
636.654	3.97
636.985	4
637.316	4.05
637.647	4.09
637.977	3.97
638.308	4.37
638.639	4.07
638.969	4.06
639.3	3.84
639.63	4.27
639.961	3.98
640.291	4.05
640.622	3.99
640.952	3.89
641.282	4.45
641.612	3.83
641.943	4.44
642.273	3.98
642.603	3.89
642.933	4.05
643.263	3.54
643.592	4.18
643.922	4.42
644.252	3.73
644.582	4.13
644.911	4.16
645.241	4.35
645.571	4.06
645.9	4.19
646.23	4.41
646.559	4.46
646.888	4.12
647.218	3.82
647.547	3.96
647.876	3.94
648.205	3.84
648.534	4.62
648.863	3.87
649.192	3.73
649.521	3.97
649.85	4.41
650.179	3.86
650.508	3.49
650.837	4.29
651.165	3.77
651.494	4.52
651.822	4.29
652.151	4.27
652.479	4.09
652.808	4.12
653.136	4.45
653.465	4.41
653.793	3.57
654.121	4.2
654.449	3.96
654.777	3.61
655.105	3.91
655.433	4.08
655.761	4.26
656.089	4.12
656.417	4.45
656.745	4.4
657.073	4.16
657.4	5.05
657.728	4.3
658.056	4
658.383	4.1
658.711	4.58
659.038	3.95
659.365	4.28
659.693	3.57
660.02	4.21
660.347	4.64
660.674	3.59
661.001	3.75
661.329	3.6
661.656	4.21
661.982	4.07
662.309	4.11
662.636	3.88
662.963	4.19
663.29	4.28
663.616	4.17
663.943	4.44
664.27	4.35
664.596	4.18
664.923	4.16
665.249	4.07
665.576	3.44
665.902	3.89
666.228	4.23
666.554	3.99
666.881	4.48
667.207	3.77
667.533	4.1
667.859	4.25
668.185	4.22
668.511	4.73
668.837	3.71
669.162	4.24
669.488	4.16
669.814	3.89
670.139	3.96
670.465	4.71
670.791	4.27
671.116	4.26
671.442	4.7
671.767	3.8
672.092	4.59
672.418	4.92
672.743	3.98
673.068	4.46
673.393	3.78
673.718	4.24
674.043	4.99
674.368	4.19
674.693	3.77
675.018	4.13
675.343	4.12
675.667	4.45
675.992	4.13
676.317	4.65
676.641	4.34
676.966	4.84
677.29	4.23
677.615	4.17
677.939	4.29
678.264	4.3
678.588	5.05
678.912	4.74
679.236	4.19
679.56	3.91
679.885	3.67
680.209	5.06
680.532	3.86
680.856	3.97
681.18	4.47
681.504	4.14
681.828	4.3
682.152	4.31
682.475	4.27
682.799	4.32
683.122	3.86
683.446	4.09
683.769	4.44
684.093	4.41
684.416	4.25
684.739	3.54
685.062	4.89
685.386	4.52
685.709	4.28
686.032	3.68
686.355	4.21
686.678	4.62
687.001	4.34
687.324	4.36
687.646	4.32
687.969	4.86
688.292	4.41
688.614	4.59
688.937	4.57
689.26	4.21
689.582	5.08
689.904	4.01
690.227	5.17
690.549	4.07
690.871	4.37
691.194	4.41
691.516	4.23
691.838	4.49
692.16	3.72
692.482	4.51
692.804	4.38
693.126	3.65
