Data from 0090_forehead_Reflection__2__169.txt Node

Date: Fri Sep 22 22:14:24 CDT 2023
User: ToomeyLab
Spectrometer: FLMS14357
Trigger mode: 0
Integration Time (sec): 1.000000E-2
Scans to average: 100
Electric dark correction enabled: true
Nonlinearity correction enabled: false
Boxcar width: 0
XAxis mode: Wavelengths
Number of Pixels in Spectrum: 2048
>>>>>Begin Spectral Data<<<<<
189.047	510.87
189.435	510.87
189.823	510.87
190.211	89.01
190.599	-372.39
190.987	21.38
191.375	158
191.763	106.44
192.151	488.96
192.538	87.89
192.926	62.78
193.314	113.22
193.702	34.44
194.089	115.84
194.477	-107.1
194.864	82.36
195.252	-8970
195.639	-283.33
196.027	-11.76
196.414	43.58
196.801	-126.47
197.189	-40.91
197.576	234.05
197.963	89.34
198.351	26.87
198.738	22.3
199.125	42.87
199.512	12.82
199.899	55.63
200.286	12.43
200.673	50.72
201.06	46.04
201.447	41.52
201.833	-1.32
202.22	58.66
202.607	40.33
202.994	32.42
203.38	34.25
203.767	10.97
204.154	27.24
204.54	27.6
204.927	22.68
205.313	22.55
205.699	39.05
206.086	55.2
206.472	36.53
206.858	21.26
207.245	9.1
207.631	51.58
208.017	20.39
208.403	8.96
208.789	33.18
209.175	42.15
209.561	3.85
209.947	44.57
210.333	35.94
210.719	-31.04
211.105	53.54
211.491	8.06
211.876	26.4
212.262	42.2
212.648	28.47
213.034	24.99
213.419	27.14
213.805	23.21
214.19	21.59
214.576	33.18
214.961	7.89
215.346	33.89
215.732	37.95
216.117	23.3
216.502	38.79
216.888	42.43
217.273	45.76
217.658	15.03
218.043	29.6
218.428	14.72
218.813	-1.23
219.198	21.75
219.583	12.33
219.968	29.51
220.353	41.19
220.738	2.72
221.122	7.61
221.507	-6.66
221.892	17.47
222.276	10.77
222.661	-21.23
223.046	27.99
223.43	24.2
223.815	-2.66
224.199	5.57
224.583	6.1
224.968	12.05
225.352	5.33
225.736	11.08
226.121	8
226.505	11.97
226.889	11.64
227.273	0.52
227.657	5.57
228.041	0.56
228.425	8.49
228.809	4.06
229.193	6.42
229.577	5.96
229.961	7.86
230.344	5.95
230.728	3.91
231.112	4.36
231.495	3.21
231.879	4.37
232.263	3.26
232.646	3.6
233.03	3.99
233.413	4.16
233.797	5.68
234.18	3.82
234.563	5.76
234.946	5.03
235.33	3.67
235.713	1.41
236.096	3.49
236.479	2.13
236.862	5.48
237.245	3.86
237.628	5.58
238.011	3.46
238.394	4.08
238.777	6.48
239.16	2.99
239.543	6.24
239.925	5.59
240.308	5.3
240.691	3.28
241.073	7.14
241.456	3.99
241.838	2.6
242.221	4.68
242.603	3.73
242.986	3.63
243.368	3.32
243.75	3.17
244.133	4.28
244.515	3.18
244.897	2.77
245.279	3.23
245.661	3.22
246.043	3.19
246.425	2.53
246.807	3.26
247.189	2.22
247.571	3.94
247.953	3.67
248.335	4.01
248.717	3.33
249.098	3.2
249.48	2.99
249.862	2.87
250.243	2.99
250.625	3.76
251.006	3.42
251.388	3.56
251.769	2.6
252.151	4.03
252.532	2.64
252.913	4.98
253.295	3.55
253.676	3.74
254.057	3.02
254.438	3.96
254.819	2.61
255.2	3.51
255.581	2.71
255.962	3.22
256.343	3.58
256.724	3.18
257.105	3.27
257.486	3.57
257.867	4.74
258.247	3.68
258.628	3.6
259.009	3.3
259.389	3.39
259.77	4.07
260.15	4.18
260.531	2.95
260.911	2.79
261.292	3.18
261.672	2.6
262.052	3.12
262.432	3.17
262.813	3
263.193	2.97
263.573	4.04
263.953	3.14
264.333	3.21
264.713	3.1
265.093	2.88
265.473	3.18
265.853	3.1
266.233	3.57
266.612	3.36
266.992	3.37
267.372	3.82
267.752	3.4
268.131	2.86
268.511	2.86
268.89	3.58
269.27	2.9
269.649	3.29
270.029	3.09
270.408	3.53
270.787	3.18
271.167	3.35
271.546	3.4
271.925	2.86
272.304	3.11
272.683	3.3
273.062	3.7
273.441	3.32
273.82	3.26
274.199	2.78
274.578	3.53
274.957	2.8
275.336	3.22
275.715	3.11
276.093	2.67
276.472	2.81
276.851	3.03
277.229	3.1
277.608	3.28
277.986	3.37
278.365	3.21
278.743	3.39
279.122	3.02
279.5	3.7
279.878	2.8
280.257	3.69
280.635	2.93
281.013	2.74
281.391	3.33
281.769	2.68
282.147	3.37
282.525	3.01
282.903	2.85
283.281	2.93
283.659	3.43
284.037	2.83
284.415	3.29
284.792	2.99
285.17	2.86
285.548	3.69
285.925	2.79
286.303	2.95
286.68	2.73
287.058	2.97
287.435	3.18
287.813	2.91
288.19	2.67
288.567	2.95
288.945	2.96
289.322	3.17
289.699	2.94
290.076	3
290.453	2.99
290.83	2.63
291.207	2.88
291.584	2.73
291.961	2.73
292.338	3.15
292.715	3.4
293.092	2.98
293.469	2.93
293.845	2.6
294.222	2.98
294.599	3.21
294.975	3.48
295.352	3.46
295.728	3.13
296.105	3.72
296.481	2.93
296.858	3.14
297.234	3.38
297.61	3.65
297.986	3.47
298.363	3.32
298.739	3.05
299.115	3.35
299.491	3.31
299.867	3.4
300.243	2.97
300.619	3.26
300.995	3.48
301.371	3.44
301.746	3.88
302.122	3.22
302.498	3.1
302.874	3.7
303.249	3.22
303.625	3.46
304	3.61
304.376	3.87
304.751	3.41
305.127	4
305.502	4.08
305.878	3.89
306.253	3.89
306.628	3.52
307.003	3.69
307.378	3.6
307.754	3.69
308.129	4.47
308.504	4.28
308.879	4.05
309.254	4.21
309.629	3.97
310.003	4.71
310.378	4.14
310.753	4.16
311.128	4.12
311.502	3.53
311.877	3.53
312.252	4.06
312.626	4.02
313.001	4.53
313.375	4.53
313.75	4.42
314.124	4.54
314.498	4.12
314.873	4.56
315.247	4.53
315.621	4.8
315.995	4.64
316.369	4.79
316.743	4.32
317.117	4.69
317.491	4.69
317.865	4.1
318.239	3.86
318.613	4.82
318.987	4.52
319.361	4.73
319.734	4.61
320.108	4.82
320.482	4.63
320.855	4.97
321.229	5.24
321.602	5.5
321.976	4.82
322.349	4.79
322.723	5.18
323.096	4.85
323.469	5.1
323.843	5.04
324.216	5.38
324.589	5.07
324.962	4.66
325.335	5.15
325.708	4.69
326.081	5.74
326.454	5.11
326.827	4.6
327.2	5.3
327.573	5.82
327.945	5.32
328.318	5.51
328.691	5.46
329.063	5.18
329.436	5.76
329.809	5.28
330.181	5.71
330.553	5.28
330.926	5.42
331.298	5.72
331.671	5.97
332.043	5.17
332.415	5.45
332.787	5.85
333.159	5.14
333.532	5.68
333.904	5.86
334.276	5.45
334.648	5.39
335.02	5.44
335.391	5.59
335.763	6.38
336.135	5.68
336.507	6.18
336.879	5.89
337.25	6.11
337.622	5.95
337.993	6.21
338.365	6.38
338.736	6.01
339.108	5.96
339.479	5.6
339.851	5.76
340.222	6.08
340.593	5.97
340.964	5.59
341.336	5.99
341.707	5.8
342.078	6.12
342.449	6.23
342.82	6.28
343.191	5.99
343.562	6.32
343.933	6.59
344.303	6.2
344.674	6.52
345.045	6.34
345.416	7.05
345.786	6.36
346.157	6.49
346.527	6.53
346.898	6.14
347.268	6.45
347.639	6.62
348.009	6.35
348.38	7.08
348.75	7.12
349.12	6.6
349.49	7.12
349.861	6.43
350.231	6.87
350.601	7.15
350.971	7.31
351.341	6.61
351.711	6.87
352.081	6.73
352.45	6.85
352.82	6.8
353.19	6.96
353.56	7.32
353.929	7.41
354.299	7.46
354.669	6.83
355.038	6.74
355.408	7.15
355.777	7.49
356.147	7.41
356.516	7.41
356.885	7.31
357.254	7.63
357.624	7.41
357.993	7.35
358.362	7.18
358.731	7.42
359.1	7.35
359.469	7.69
359.838	7.41
360.207	7.47
360.576	7.41
360.945	7.77
361.314	7.54
361.682	8.24
362.051	7.88
362.42	7.79
362.788	7.69
363.157	7.95
363.525	7.84
363.894	7.75
364.262	7.86
364.631	7.8
364.999	7.52
365.367	8.11
365.735	8.13
366.104	8.04
366.472	8.18
366.84	8.1
367.208	8.3
367.576	8.31
367.944	8.06
368.312	8.58
368.68	8.43
369.048	8.43
369.416	8.5
369.783	8.22
370.151	8.38
370.519	8.39
370.886	8.61
371.254	8.63
371.621	8.52
371.989	8.42
372.356	8.54
372.724	8.95
373.091	8.68
373.458	8.78
373.826	8.8
374.193	8.95
374.56	8.84
374.927	9.09
375.294	9.08
375.661	8.66
376.028	9.03
376.395	9.13
376.762	8.98
377.129	8.99
377.496	9.17
377.863	9.36
378.229	9.43
378.596	9.37
378.963	9.54
379.329	9.31
379.696	9.51
380.062	9.23
380.429	9.26
380.795	9.34
381.161	9.39
381.528	9.17
381.894	9.33
382.26	9.48
382.626	9.77
382.993	9.63
383.359	9.45
383.725	9.64
384.091	9.77
384.457	9.74
384.823	9.79
385.188	9.99
385.554	10.03
385.92	10.2
386.286	9.9
386.651	9.88
387.017	9.91
387.383	9.99
387.748	10.04
388.114	9.99
388.479	10.19
388.845	9.88
389.21	10.16
389.575	10.58
389.94	9.98
390.306	10.32
390.671	10.55
391.036	10.14
391.401	10.34
391.766	10.51
392.131	10.49
392.496	10.37
392.861	10.35
393.226	10.68
393.591	10.66
393.956	10.33
394.32	10.47
394.685	10.75
395.05	10.67
395.414	10.63
395.779	10.91
396.143	10.78
396.508	10.71
396.872	10.69
397.236	10.8
397.601	10.72
397.965	11.23
398.329	10.98
398.694	11.02
399.058	10.99
399.422	10.87
399.786	11.11
400.15	11.58
400.514	11.18
400.878	11.11
401.242	11.28
401.605	11.15
401.969	11.06
402.333	11.53
402.697	11.3
403.06	11.31
403.424	11.42
403.787	11.33
404.151	11.49
404.514	11.59
404.878	11.65
405.241	11.79
405.604	11.5
405.968	11.49
406.331	11.59
406.694	11.55
407.057	11.4
407.42	11.57
407.783	11.69
408.146	11.63
408.509	11.67
408.872	11.51
409.235	11.59
409.598	11.97
409.961	12.11
410.323	12.01
410.686	12.08
411.049	11.96
411.411	12.11
411.774	11.89
412.136	12.04
412.499	12
412.861	12
413.223	12.04
413.586	11.94
413.948	12.08
414.31	12.06
414.672	12.05
415.035	11.93
415.397	12.42
415.759	12.58
416.121	12.05
416.483	12.32
416.845	12.25
417.206	12.29
417.568	12.32
417.93	12.36
418.292	12.42
418.653	12.35
419.015	12.52
419.377	12.48
419.738	12.49
420.1	12.25
420.461	12.41
420.822	12.4
421.184	12.29
421.545	12.5
421.906	12.52
422.267	12.61
422.629	12.63
422.99	12.55
423.351	12.48
423.712	12.57
424.073	12.4
424.434	12.71
424.795	12.93
425.155	12.89
425.516	12.9
425.877	13.02
426.238	12.74
426.598	12.91
426.959	13.03
427.32	13.02
427.68	13.1
428.041	13.23
428.401	13.49
428.761	13.52
429.122	13.48
429.482	13.61
429.842	13.7
430.202	13.73
430.563	13.92
430.923	13.95
431.283	14.04
431.643	13.96
432.003	14.33
432.363	14
432.722	14.33
433.082	14.42
433.442	14.35
433.802	14.38
434.161	14.41
434.521	14.38
434.881	14.37
435.24	14.34
435.6	14.2
435.959	14.16
436.319	14.37
436.678	14.61
437.037	14.68
437.396	14.69
437.756	14.82
438.115	14.93
438.474	14.99
438.833	14.92
439.192	14.92
439.551	15.01
439.91	15.09
440.269	15.07
440.628	15.05
440.987	15.2
441.345	15.15
441.704	15.3
442.063	15.07
442.421	15.14
442.78	15.2
443.138	15.22
443.497	15.11
443.855	15.31
444.214	15.34
444.572	15.73
444.93	15.75
445.288	15.89
445.647	15.99
446.005	15.65
446.363	15.65
446.721	15.96
447.079	15.72
447.437	15.77
447.795	15.88
448.153	15.71
448.51	15.77
448.868	15.7
449.226	15.85
449.584	15.87
449.941	16
450.299	16.22
450.656	16.44
451.014	16.45
451.371	16.62
451.729	16.59
452.086	16.58
452.443	16.76
452.801	16.77
453.158	17.03
453.515	17.14
453.872	17.11
454.229	17.06
454.586	17.05
454.943	17.06
455.3	17.14
455.657	17.05
456.014	17.33
456.371	17.25
456.727	17.41
457.084	17.41
457.441	17.26
457.797	17.56
458.154	17.65
458.51	17.67
458.867	17.47
459.223	17.83
459.58	17.67
459.936	17.76
460.292	17.88
460.648	17.83
461.005	17.78
461.361	17.75
461.717	17.5
462.073	17.55
462.429	17.33
462.785	17.59
463.141	17.67
463.496	17.96
463.852	18.16
464.208	18.18
464.564	18.4
464.919	18.44
465.275	18.69
465.631	18.81
465.986	18.6
466.342	18.75
466.697	18.83
467.052	18.7
467.408	18.99
467.763	18.85
468.118	19.04
468.473	19.04
468.829	19.08
469.184	19.09
469.539	19.06
469.894	18.82
470.249	19.06
470.603	18.98
470.958	19.04
471.313	19.48
471.668	19.44
472.023	19.3
472.377	19.61
472.732	19.6
473.086	19.91
473.441	19.54
473.795	19.95
474.15	19.57
474.504	19.62
474.859	19.83
475.213	19.73
475.567	19.77
475.921	19.83
476.275	19.96
476.63	20.11
476.984	20
477.338	20.41
477.692	20.11
478.045	20.41
478.399	20.34
478.753	20.25
479.107	20.4
479.461	20.26
479.814	20.52
480.168	20.41
480.521	20.57
480.875	20.56
481.228	20.52
481.582	20.69
481.935	20.74
482.289	20.72
482.642	20.69
482.995	20.89
483.348	20.84
483.701	20.71
484.055	20.72
484.408	20.6
484.761	20.79
485.114	20.52
485.466	20.32
485.819	19.99
486.172	19.83
486.525	19.88
486.878	19.97
487.23	20.11
487.583	20.26
487.936	20.59
488.288	20.76
488.641	20.97
488.993	20.78
489.345	20.68
489.698	20.63
490.05	20.59
490.402	20.49
490.754	20.58
491.107	20.81
491.459	21
491.811	21.28
492.163	21.54
492.515	21.74
492.866	21.86
493.218	21.72
493.57	21.56
493.922	21.15
494.274	21.17
494.625	21.35
494.977	21.48
495.328	21.75
495.68	22.05
496.031	22.29
496.383	22.52
496.734	22.6
497.086	22.66
497.437	22.77
497.788	22.97
498.139	22.99
498.49	22.89
498.842	22.56
499.193	22.62
499.544	22.73
499.894	22.57
500.245	22.84
500.596	22.94
500.947	22.89
501.298	23
501.648	23.27
501.999	23.23
502.35	23.41
502.7	23.45
503.051	23.53
503.401	23.51
503.752	23.52
504.102	23.63
504.452	23.67
504.803	23.83
505.153	23.72
505.503	23.79
505.853	23.83
506.203	23.85
506.553	23.97
506.903	23.89
507.253	23.85
507.603	24.08
507.953	24.04
508.303	24.09
508.652	24.25
509.002	24.29
509.352	24.13
509.701	24.27
510.051	24.23
510.4	24.27
510.75	24.09
511.099	23.97
511.449	24.09
511.798	24.2
512.147	24.35
512.496	24.41
512.846	24.45
513.195	24.43
513.544	24.61
513.893	24.6
514.242	24.47
514.591	24.68
514.939	24.74
515.288	24.72
515.637	25.03
515.986	24.87
516.334	25.04
516.683	25.02
517.032	25.23
517.38	25.17
517.729	25.23
518.077	25.28
518.426	25.26
518.774	25.49
519.122	25.38
519.47	25.28
519.819	25.25
520.167	25.24
520.515	24.97
520.863	24.86
521.211	24.83
521.559	24.93
521.907	25.22
522.255	25.18
522.602	25.31
522.95	25.39
523.298	25.7
523.645	25.82
523.993	25.75
524.341	25.79
524.688	25.78
525.036	25.96
525.383	26.03
525.73	26.16
526.078	26.14
526.425	26.09
526.772	26.16
527.119	26.07
527.466	25.76
527.814	25.69
528.161	25.71
528.508	25.68
528.854	25.73
529.201	25.89
529.548	25.8
529.895	25.79
530.242	25.72
530.588	25.32
530.935	25.07
531.282	25.11
531.628	25.32
531.975	25.28
532.321	25.3
532.667	25.68
533.014	25.88
533.36	26.02
533.706	26.33
534.052	26.33
534.399	26.47
534.745	26.36
535.091	26.27
535.437	26.13
535.783	25.87
536.129	25.99
536.474	26.11
536.82	26.27
537.166	26.58
537.512	26.63
537.857	26.92
538.203	27.11
538.549	26.93
538.894	26.68
539.239	26.64
539.585	26.81
539.93	26.97
540.276	27.09
540.621	27.42
540.966	27.37
541.311	27.76
541.656	27.86
542.001	27.77
542.346	27.84
542.691	27.53
543.036	27.38
543.381	26.95
543.726	26.85
544.071	26.75
544.415	26.76
544.76	26.9
545.105	27.06
545.449	27.27
545.794	27.53
546.138	27.63
546.483	27.76
546.827	27.73
547.171	28.05
547.516	28.13
547.86	28.16
548.204	28.13
548.548	28.18
548.892	28.18
549.236	28
549.58	28.21
549.924	28.38
550.268	28.45
550.612	28.65
550.956	28.88
551.3	28.88
551.643	29
551.987	29.04
552.33	29.18
552.674	29.12
553.017	29.24
553.361	29.34
553.704	29.45
554.048	29.47
554.391	29.3
554.734	29.29
555.077	29.1
555.42	29.08
555.764	29.29
556.107	29.44
556.45	29.44
556.793	29.43
557.135	29.75
557.478	29.64
557.821	29.91
558.164	29.85
558.507	30.01
558.849	29.9
559.192	29.95
559.534	30.17
559.877	30.04
560.219	30.17
560.562	30.36
560.904	30.2
561.246	30.24
561.589	30.18
561.931	30.38
562.273	30.26
562.615	30.38
562.957	30.44
563.299	30.38
563.641	30.46
563.983	30.2
564.325	30.44
564.667	30.63
565.008	30.67
565.35	30.72
565.692	30.83
566.033	30.75
566.375	30.88
566.716	31.04
567.058	30.88
567.399	30.76
567.741	31.06
568.082	30.69
568.423	30.87
568.764	30.89
569.105	30.58
569.447	30.7
569.788	30.74
570.129	30.97
570.47	31.09
570.811	31.05
571.151	31.26
571.492	31.17
571.833	31.19
572.174	31.02
572.514	31.33
572.855	31.24
573.195	31.45
573.536	31.33
573.876	31.24
574.217	31.25
574.557	31.22
574.898	31.2
575.238	31.22
575.578	31.43
575.918	31.55
576.258	31.62
576.598	31.66
576.938	31.78
577.278	31.68
577.618	31.67
577.958	31.83
578.298	31.99
578.638	31.9
578.977	32.09
579.317	32.01
579.657	32.28
579.996	32.04
580.336	32.31
580.675	32.36
581.014	32.07
581.354	32.27
581.693	32.45
582.032	32.77
582.372	32.68
582.711	32.87
583.05	32.67
583.389	33.06
583.728	32.92
584.067	32.93
584.406	32.88
584.745	32.98
585.083	33.19
585.422	33.34
585.761	33.19
586.1	33.06
586.438	33.34
586.777	33.48
587.115	33.31
587.454	33.11
587.792	33.5
588.13	33.27
588.469	33.21
588.807	33.37
589.145	33.61
589.483	33.5
589.821	33.5
590.159	33.86
590.497	33.73
590.835	33.93
591.173	33.46
591.511	33.56
591.849	34.07
592.187	33.33
592.524	33.59
592.862	33.95
593.2	33.89
593.537	33.78
593.875	33.9
594.212	34.04
594.55	34.18
594.887	33.87
595.224	34.07
595.561	34.17
595.899	34.55
596.236	34.17
596.573	34.35
596.91	34.33
597.247	34.19
597.584	34.66
597.921	34.48
598.258	34.54
598.594	34.33
598.931	34.29
599.268	34.06
599.604	34.44
599.941	34.21
600.277	34.14
600.614	34.39
600.95	34.39
601.287	34.49
601.623	34.72
601.959	34.99
602.296	35
602.632	34.82
602.968	35.22
603.304	35.13
603.64	35.22
603.976	35.23
604.312	35.37
604.648	35.29
604.984	35.19
605.319	35.09
605.655	34.76
605.991	35.11
606.326	34.98
606.662	35.27
606.998	34.83
607.333	34.81
607.668	34.89
608.004	35.24
608.339	35.51
608.674	35.36
609.01	35.7
609.345	35.67
609.68	35.66
610.015	35.79
610.35	35.73
610.685	36.01
611.02	35.68
611.355	35.81
611.689	35.82
612.024	35.85
612.359	35.5
612.694	35.64
613.028	35.68
613.363	35.74
613.697	35.84
614.032	36.23
614.366	35.97
614.7	36.5
615.035	36.71
615.369	36.48
615.703	36.62
616.037	37.03
616.371	36.81
616.705	36.65
617.039	37.17
617.373	36.59
617.707	36.69
618.041	36.8
618.375	36.79
618.709	36.55
619.042	37.09
619.376	36.98
619.71	37.13
620.043	37
620.377	37.14
620.71	37.27
621.043	37.48
621.377	36.8
621.71	37.23
622.043	37.38
622.376	37.19
622.709	37.36
623.043	37.37
623.376	37.28
623.709	37.34
624.041	37.57
624.374	37.54
624.707	37.61
625.04	37.48
625.373	37.8
625.705	37.72
626.038	37.41
626.37	37.89
626.703	37.9
627.035	37.42
627.368	38.05
627.7	37.86
628.032	37.41
628.365	37.61
628.697	37.98
629.029	38
629.361	37.77
629.693	37.59
630.025	38
630.357	37.78
630.689	37.95
631.021	37.86
631.353	38.02
631.684	38.31
632.016	38.6
632.348	38.6
632.679	38.06
633.011	38.41
633.342	38.33
633.674	38.72
634.005	38.43
634.336	38.57
634.668	38.51
634.999	38.63
635.33	38.6
635.661	38.65
635.992	38.53
636.323	38.36
636.654	38.37
636.985	38.56
637.316	38.6
637.647	39.23
637.977	38.67
638.308	38.75
638.639	38.31
638.969	39.13
639.3	39.07
639.63	39.2
639.961	39.06
640.291	38.77
640.622	39.11
640.952	39.29
641.282	39.47
641.612	39.17
641.943	39.29
642.273	39.61
642.603	39.13
642.933	39.45
643.263	39.54
643.592	39.41
643.922	39.36
644.252	39.85
644.582	39.87
644.911	39.72
645.241	39.75
645.571	39.59
645.9	39.95
646.23	39.89
646.559	40.13
646.888	39.92
647.218	39.79
647.547	40.05
647.876	39.97
648.205	39.78
648.534	40.15
648.863	39.97
649.192	39.63
649.521	39.78
649.85	40.42
650.179	39.86
650.508	39.76
650.837	40.35
651.165	40.09
651.494	40.15
651.822	40.5
652.151	40.57
652.479	40.89
652.808	40.82
653.136	40.65
653.465	40.86
653.793	40.25
654.121	39.78
654.449	40.11
654.777	40.71
655.105	40.86
655.433	41.14
655.761	40.84
656.089	40.9
656.417	40.49
656.745	41.25
657.073	41.45
657.4	41.36
657.728	40.86
658.056	40.97
658.383	41.31
658.711	40.73
659.038	40.95
659.365	41.51
659.693	40.84
660.02	41.55
660.347	41.3
660.674	40.63
661.001	40.99
661.329	40.78
661.656	41.47
661.982	41.25
662.309	41.49
662.636	41.09
662.963	42.02
663.29	41.24
663.616	41.58
663.943	42.08
664.27	41.65
664.596	42.16
664.923	41.64
665.249	41.13
665.576	41.24
665.902	41.35
666.228	41.71
666.554	42.31
666.881	42.3
667.207	42.14
667.533	41.9
667.859	41.79
668.185	41.6
668.511	42.02
668.837	42.39
669.162	42.29
669.488	42.02
669.814	42.55
670.139	42.22
670.465	42.89
670.791	42.32
671.116	42.01
671.442	42.93
671.767	41.72
672.092	42.34
672.418	42.32
672.743	42.84
673.068	42.19
673.393	42.12
673.718	43.07
