Data from 0090_chest_Reflection__0__157.txt Node

Date: Fri Sep 22 22:11:00 CDT 2023
User: ToomeyLab
Spectrometer: FLMS14357
Trigger mode: 0
Integration Time (sec): 1.000000E-2
Scans to average: 100
Electric dark correction enabled: true
Nonlinearity correction enabled: false
Boxcar width: 0
XAxis mode: Wavelengths
Number of Pixels in Spectrum: 2048
>>>>>Begin Spectral Data<<<<<
189.047	603.26
189.435	603.26
189.823	603.26
190.211	21.05
190.599	112.31
190.987	122.69
191.375	135
191.763	204.14
192.151	375.65
192.538	-10.25
192.926	70.74
193.314	136.99
193.702	-7.22
194.089	33.28
194.477	-53.27
194.864	-20.52
195.252	-3145
195.639	-57.46
196.027	200.77
196.414	105.28
196.801	16.29
197.189	144.74
197.576	265.66
197.963	-394.67
198.351	20.01
198.738	68.65
199.125	-9.05
199.512	37.28
199.899	35.17
200.286	17.27
200.673	43.12
201.06	22.96
201.447	40.21
201.833	-18.75
202.22	26.47
202.607	45.99
202.994	38.01
203.38	26.88
203.767	14.91
204.154	55.02
204.54	19.87
204.927	-7.97
205.313	42.69
205.699	32.2
206.086	18.27
206.472	50.13
206.858	19.43
207.245	-11.1
207.631	31.61
208.017	28.32
208.403	39.81
208.789	38.91
209.175	38.77
209.561	41.32
209.947	21.75
210.333	17.04
210.719	31.18
211.105	20.07
211.491	12.54
211.876	35.46
212.262	7.53
212.648	32.74
213.034	13.27
213.419	15.21
213.805	19.91
214.19	2.78
214.576	11.37
214.961	-0.12
215.346	-20.42
215.732	34.26
216.117	-20.71
216.502	23.66
216.888	37.16
217.273	18.28
217.658	0.57
218.043	42
218.428	7.84
218.813	-4.55
219.198	14.49
219.583	11.44
219.968	2.82
220.353	19.5
220.738	16.85
221.122	5.49
221.507	12.86
221.892	5.52
222.276	-1.23
222.661	-15.72
223.046	13.02
223.43	28.99
223.815	-4.15
224.199	7.35
224.583	3.65
224.968	19.63
225.352	12.37
225.736	6.7
226.121	8.92
226.505	4.48
226.889	10.56
227.273	3.97
227.657	1.38
228.041	-0.82
228.425	8.49
228.809	1.09
229.193	2.35
229.577	5.04
229.961	5.57
230.344	4.07
230.728	0.71
231.112	2.17
231.495	1.57
231.879	1.99
232.263	1.18
232.646	2.27
233.03	1.64
233.413	1.92
233.797	2.05
234.18	2.99
234.563	2.67
234.946	1.14
235.33	-0.37
235.713	-0.28
236.096	0.13
236.479	-0.1
236.862	2.68
237.245	1.68
237.628	1.24
238.011	2.59
238.394	2.46
238.777	2.87
239.16	2.03
239.543	2.48
239.925	1.3
240.308	2.08
240.691	3.13
241.073	3.06
241.456	2.75
241.838	1.23
242.221	1.49
242.603	0.98
242.986	1.86
243.368	1.88
243.75	2.76
244.133	2.21
244.515	1.7
244.897	1.4
245.279	1.81
245.661	1.73
246.043	2.22
246.425	0.83
246.807	2.73
247.189	0.11
247.571	1.95
247.953	2.2
248.335	2.03
248.717	2.11
249.098	1.76
249.48	1.71
249.862	1.56
250.243	1.4
250.625	1.85
251.006	1.39
251.388	2.07
251.769	1.56
252.151	1.13
252.532	2.17
252.913	1.8
253.295	1.69
253.676	2.14
254.057	2.26
254.438	1.94
254.819	1.16
255.2	1.44
255.581	1.36
255.962	2.21
256.343	1.45
256.724	1.42
257.105	1.53
257.486	2.51
257.867	1.63
258.247	0.83
258.628	1.11
259.009	2.09
259.389	2.05
259.77	1.78
260.15	2.62
260.531	1.72
260.911	1.6
261.292	1.69
261.672	1.41
262.052	1.47
262.432	1.6
262.813	1.57
263.193	1.31
263.573	2.36
263.953	1.59
264.333	1.28
264.713	1.6
265.093	1.65
265.473	1.26
265.853	1.4
266.233	1.86
266.612	1.57
266.992	1.58
267.372	1.98
267.752	1.79
268.131	1.49
268.511	1.49
268.89	1.52
269.27	1.2
269.649	1.55
270.029	1.04
270.408	1.14
270.787	1.1
271.167	1.64
271.546	1.41
271.925	1.11
272.304	1.18
272.683	2.09
273.062	2.14
273.441	1.57
273.82	1.87
274.199	1.78
274.578	1.44
274.957	1.46
275.336	1.26
275.715	1.82
276.093	1.05
276.472	1.64
276.851	1.41
277.229	0.92
277.608	2.02
277.986	1.82
278.365	1.48
278.743	1.28
279.122	1.11
279.5	1.88
279.878	1.68
280.257	2.41
280.635	1.81
281.013	1.04
281.391	1.04
281.769	1.99
282.147	1.95
282.525	1.75
282.903	2.18
283.281	1.81
283.659	1.7
284.037	1.46
284.415	1.73
284.792	1.3
285.17	1.38
285.548	1.75
285.925	1.2
286.303	1.54
286.68	1.14
287.058	1.2
287.435	1.63
287.813	1.53
288.19	1.12
288.567	1.74
288.945	1.24
289.322	1.44
289.699	1.39
290.076	1.27
290.453	1.2
290.83	0.63
291.207	1.47
291.584	1.02
291.961	1.2
292.338	1.6
292.715	2.03
293.092	1.53
293.469	1.54
293.845	1.38
294.222	1.55
294.599	1.75
294.975	2.05
295.352	1.47
295.728	1.55
296.105	1.72
296.481	1.55
296.858	1.89
297.234	1.46
297.61	1.74
297.986	1.37
298.363	1.38
298.739	1.8
299.115	1.76
299.491	1.59
299.867	1.48
300.243	1.26
300.619	1.47
300.995	1.49
301.371	2.09
301.746	1.71
302.122	1.74
302.498	1.46
302.874	1.14
303.249	2
303.625	1.01
304	1.85
304.376	1.75
304.751	2.03
305.127	1.62
305.502	2.05
305.878	1.85
306.253	1.74
306.628	1.33
307.003	1.7
307.378	1.75
307.754	1.64
308.129	1.65
308.504	1.96
308.879	1.79
309.254	1.77
309.629	1.66
310.003	1.85
310.378	2.07
310.753	1.8
311.128	1.29
311.502	1.97
311.877	1.48
312.252	1.65
312.626	1.93
313.001	1.93
313.375	1.6
313.75	1.84
314.124	1.97
314.498	1.68
314.873	1.91
315.247	2.19
315.621	2.26
315.995	1.8
316.369	1.55
316.743	1.89
317.117	2.15
317.491	1.93
317.865	1.83
318.239	1.61
318.613	1.73
318.987	2.06
319.361	1.89
319.734	1.48
320.108	1.75
320.482	1.71
320.855	1.69
321.229	2.3
321.602	2.4
321.976	1.79
322.349	1.59
322.723	1.74
323.096	2.24
323.469	1.68
323.843	1.13
324.216	1.9
324.589	1.84
324.962	1.28
325.335	2.55
325.708	1.94
326.081	1.86
326.454	1.52
326.827	2.62
327.2	1.64
327.573	2.35
327.945	1.95
328.318	2.15
328.691	2.38
329.063	2.04
329.436	1.98
329.809	2
330.181	2.53
330.553	1.47
330.926	2.42
331.298	1.63
331.671	2.53
332.043	1.15
332.415	1.65
332.787	2.13
333.159	1.48
333.532	1.57
333.904	2.04
334.276	1.85
334.648	1.25
335.02	1.48
335.391	2
335.763	1.89
336.135	2.22
336.507	1.88
336.879	1.91
337.25	1.75
337.622	1.93
337.993	1.85
338.365	2.23
338.736	2.3
339.108	1.83
339.479	2.17
339.851	2.01
340.222	1.5
340.593	1.85
340.964	1.6
341.336	1.74
341.707	1.66
342.078	1.91
342.449	2.27
342.82	2.22
343.191	1.5
343.562	2.03
343.933	1.9
344.303	1.81
344.674	2.2
345.045	1.96
345.416	2.35
345.786	2.03
346.157	1.55
346.527	1.81
346.898	1.69
347.268	2.07
347.639	1.74
348.009	1.59
348.38	1.82
348.75	2.35
349.12	2.17
349.49	2.47
349.861	2.29
350.231	1.98
350.601	2.34
350.971	2.09
351.341	1.45
351.711	1.92
352.081	2.01
352.45	1.87
352.82	2.22
353.19	2.16
353.56	1.62
353.929	2.2
354.299	2.01
354.669	1.94
355.038	1.88
355.408	2.11
355.777	2.2
356.147	1.95
356.516	1.94
356.885	1.96
357.254	2.35
357.624	1.62
357.993	2.17
358.362	2
358.731	1.87
359.1	1.74
359.469	2.04
359.838	1.79
360.207	1.93
360.576	2.14
360.945	1.94
361.314	2.22
361.682	2.11
362.051	2.12
362.42	1.75
362.788	1.64
363.157	2.15
363.525	2.04
363.894	1.85
364.262	2.01
364.631	1.99
364.999	1.92
365.367	2.03
365.735	1.89
366.104	2.17
366.472	2.24
366.84	1.89
367.208	2.48
367.576	2.23
367.944	2.19
368.312	2.58
368.68	2.07
369.048	2.28
369.416	2.11
369.783	2.14
370.151	2.09
370.519	2.02
370.886	2.13
371.254	2.38
371.621	2.03
371.989	2.07
372.356	1.97
372.724	2.46
373.091	2.17
373.458	2.13
373.826	2.2
374.193	2.27
374.56	2.28
374.927	2.1
375.294	1.71
375.661	1.86
376.028	2.42
376.395	2.22
376.762	2.04
377.129	2.34
377.496	2.34
377.863	2.33
378.229	2.48
378.596	2.45
378.963	2.42
379.329	2.06
379.696	2.39
380.062	2.09
380.429	2.28
380.795	2.25
381.161	2.25
381.528	2.03
381.894	1.93
382.26	2.12
382.626	2.23
382.993	2.56
383.359	1.93
383.725	2.04
384.091	2.28
384.457	2.06
384.823	2.27
385.188	2.42
385.554	2.23
385.92	2.57
386.286	2.32
386.651	2.19
387.017	2.48
387.383	2.32
387.748	2.15
388.114	2.23
388.479	2.33
388.845	2.22
389.21	1.89
389.575	2.23
389.94	2.13
390.306	2.33
390.671	2.51
391.036	1.92
391.401	2.19
391.766	2.14
392.131	2.18
392.496	2.64
392.861	2.17
393.226	2.39
393.591	2.32
393.956	2.27
394.32	2.28
394.685	2.37
395.05	2.65
395.414	2.39
395.779	2.19
396.143	2.14
396.508	2.36
396.872	2.28
397.236	2.29
397.601	2.39
397.965	2.53
398.329	2.44
398.694	2.21
399.058	2.28
399.422	2.18
399.786	2.18
400.15	2.49
400.514	2.33
400.878	2.37
401.242	2.23
401.605	2.27
401.969	1.91
402.333	2.48
402.697	2.09
403.06	2.23
403.424	2.31
403.787	2.46
404.151	2.32
404.514	2.32
404.878	2.3
405.241	2.36
405.604	2.42
405.968	2.39
406.331	2.46
406.694	2.4
407.057	2.24
407.42	2.27
407.783	2.26
408.146	2.23
408.509	2.33
408.872	2.35
409.235	2.37
409.598	2.27
409.961	2.51
410.323	2.36
410.686	2.24
411.049	2.59
411.411	2.55
411.774	2.39
412.136	2.31
412.499	2.32
412.861	2.65
413.223	2.57
413.586	2.32
413.948	2.45
414.31	2.29
414.672	2.36
415.035	2.17
415.397	2.82
415.759	2.68
416.121	2.4
416.483	2.32
416.845	2.35
417.206	2.34
417.568	2.39
417.93	2.35
418.292	2.33
418.653	2.32
419.015	2.4
419.377	2.34
419.738	2.56
420.1	2.25
420.461	2.38
420.822	2.38
421.184	2.42
421.545	2.32
421.906	2.24
422.267	2.26
422.629	2.39
422.99	2.27
423.351	2.2
423.712	2.32
424.073	2.28
424.434	2.36
424.795	2.35
425.155	2.37
425.516	2.42
425.877	2.36
426.238	2.19
426.598	2.34
426.959	2.35
427.32	2.38
427.68	2.32
428.041	2.29
428.401	2.44
428.761	2.47
429.122	2.44
429.482	2.34
429.842	2.26
430.202	2.46
430.563	2.46
430.923	2.63
431.283	2.42
431.643	2.59
432.003	2.52
432.363	2.49
432.722	2.59
433.082	2.56
433.442	2.44
433.802	2.47
434.161	2.48
434.521	2.42
434.881	2.6
435.24	2.43
435.6	2.31
435.959	2.34
436.319	2.46
436.678	2.67
437.037	2.4
437.396	2.47
437.756	2.49
438.115	2.6
438.474	2.51
438.833	2.49
439.192	2.36
439.551	2.45
439.91	2.75
440.269	2.56
440.628	2.36
440.987	2.58
441.345	2.56
441.704	2.67
442.063	2.47
442.421	2.39
442.78	2.51
443.138	2.52
443.497	2.53
443.855	2.55
444.214	2.36
444.572	2.67
444.93	2.65
445.288	2.49
445.647	2.63
446.005	2.6
446.363	2.53
446.721	2.51
447.079	2.45
447.437	2.53
447.795	2.6
448.153	2.51
448.51	2.48
448.868	2.44
449.226	2.54
449.584	2.46
449.941	2.42
450.299	2.64
450.656	2.61
451.014	2.63
451.371	2.5
451.729	2.72
452.086	2.57
452.443	2.68
452.801	2.67
453.158	2.51
453.515	2.67
453.872	2.61
454.229	2.8
454.586	2.62
454.943	2.58
455.3	2.6
455.657	2.58
456.014	2.68
456.371	2.59
456.727	2.92
457.084	2.6
457.441	2.51
457.797	2.65
458.154	2.71
458.51	2.67
458.867	2.55
459.223	2.73
459.58	2.88
459.936	2.75
460.292	2.71
460.648	2.79
461.005	2.73
461.361	2.75
461.717	2.5
462.073	2.61
462.429	2.41
462.785	2.64
463.141	2.59
463.496	2.64
463.852	2.75
464.208	2.64
464.564	2.66
464.919	2.6
465.275	3
465.631	2.89
465.986	2.84
466.342	2.75
466.697	2.83
467.052	2.69
467.408	2.67
467.763	2.7
468.118	2.84
468.473	2.74
468.829	2.75
469.184	2.67
469.539	2.78
469.894	2.77
470.249	2.69
470.603	2.7
470.958	2.81
471.313	2.96
471.668	2.73
472.023	2.81
472.377	2.77
472.732	2.85
473.086	2.97
473.441	2.5
473.795	3
474.15	2.74
474.504	2.64
474.859	2.82
475.213	2.61
475.567	2.75
475.921	2.8
476.275	2.87
476.63	2.74
476.984	2.67
477.338	2.94
477.692	2.91
478.045	2.97
478.399	2.89
478.753	2.83
479.107	2.84
479.461	2.73
479.814	2.86
480.168	2.9
480.521	2.97
480.875	3.02
481.228	2.84
481.582	2.73
481.935	2.73
482.289	2.81
482.642	2.71
482.995	2.87
483.348	2.8
483.701	2.88
484.055	2.74
484.408	2.73
484.761	2.92
485.114	2.7
485.466	2.71
485.819	2.61
486.172	2.59
486.525	2.56
486.878	2.58
487.23	2.63
487.583	2.63
487.936	2.72
488.288	2.75
488.641	2.71
488.993	2.67
489.345	2.69
489.698	2.64
490.05	2.65
490.402	2.7
490.754	2.58
491.107	2.67
491.459	2.77
491.811	2.69
492.163	2.78
492.515	2.86
492.866	2.85
493.218	2.89
493.57	2.78
493.922	2.67
494.274	2.73
494.625	2.72
494.977	2.77
495.328	2.87
495.68	2.87
496.031	2.81
496.383	3.02
496.734	2.88
497.086	2.93
497.437	2.99
497.788	2.98
498.139	2.92
498.49	2.97
498.842	2.83
499.193	2.8
499.544	2.96
499.894	2.89
500.245	2.99
500.596	2.93
500.947	2.97
501.298	2.85
501.648	3.04
501.999	3
502.35	3.07
502.7	3.05
503.051	3.06
503.401	2.9
503.752	3.04
504.102	2.95
504.452	3.08
504.803	3.05
505.153	3.02
505.503	2.98
505.853	3.09
506.203	3.01
506.553	3.06
506.903	3.05
507.253	3.07
507.603	3.14
507.953	3.23
508.303	3.09
508.652	3.13
509.002	3.02
509.352	3.06
509.701	3.08
510.051	3.06
510.4	3.08
510.75	3.02
511.099	2.91
511.449	3.1
511.798	3.07
512.147	3.05
512.496	3
512.846	3.01
513.195	3.07
513.544	3.04
513.893	3.1
514.242	3
514.591	2.98
514.939	3.09
515.288	2.92
515.637	3.02
515.986	3.04
516.334	3.06
516.683	3.17
517.032	3.08
517.38	3.16
517.729	3.08
518.077	3.17
518.426	3.16
518.774	3.09
519.122	3.13
519.47	3.09
519.819	3.15
520.167	3.13
520.515	3.1
520.863	2.95
521.211	2.96
521.559	3.12
521.907	3.06
522.255	3.11
522.602	3.16
522.95	3.05
523.298	3.13
523.645	3.12
523.993	3.03
524.341	3.09
524.688	3.15
525.036	3.12
525.383	3.13
525.73	3.31
526.078	3.21
526.425	3.25
526.772	3.29
527.119	3.15
527.466	3
527.814	3.05
528.161	3.03
528.508	3.1
528.854	3.02
529.201	3.14
529.548	3.05
529.895	3.09
530.242	3.03
530.588	2.99
530.935	2.94
531.282	2.92
531.628	3
531.975	2.96
532.321	3
532.667	3.06
533.014	3.08
533.36	3.16
533.706	3.16
534.052	3.21
534.399	3.27
534.745	3.15
535.091	3.05
535.437	3.11
535.783	3.01
536.129	3.08
536.474	3.12
536.82	3.05
537.166	3.32
537.512	3.15
537.857	3.2
538.203	3.34
538.549	3.26
538.894	3.17
539.239	3.23
539.585	3.19
539.93	3.26
540.276	3.3
540.621	3.33
540.966	3.15
541.311	3.34
541.656	3.26
542.001	3.37
542.346	3.31
542.691	3.34
543.036	3.26
543.381	3.2
543.726	3.17
544.071	3.2
544.415	3.16
544.76	3.13
545.105	3.19
545.449	3.21
545.794	3.33
546.138	3.29
546.483	3.33
546.827	3.3
547.171	3.39
547.516	3.41
547.86	3.45
548.204	3.51
548.548	3.42
548.892	3.46
549.236	3.35
549.58	3.4
549.924	3.52
550.268	3.46
550.612	3.41
550.956	3.42
551.3	3.55
551.643	3.6
551.987	3.57
552.33	3.69
552.674	3.56
553.017	3.61
553.361	3.56
553.704	3.65
554.048	3.65
554.391	3.72
554.734	3.66
555.077	3.41
555.42	3.5
555.764	3.64
556.107	3.64
556.45	3.52
556.793	3.53
557.135	3.64
557.478	3.6
557.821	3.55
558.164	3.75
558.507	3.88
558.849	3.61
559.192	3.82
559.534	3.67
559.877	3.83
560.219	3.75
560.562	3.63
560.904	3.6
561.246	3.87
561.589	3.82
561.931	3.9
562.273	3.83
562.615	3.81
562.957	3.68
563.299	3.89
563.641	3.75
563.983	3.78
564.325	3.86
564.667	4
565.008	3.7
565.35	3.91
565.692	3.9
566.033	3.65
566.375	3.69
566.716	3.71
567.058	3.81
567.399	3.82
567.741	3.91
568.082	3.69
568.423	3.91
568.764	3.94
569.105	3.68
569.447	3.88
569.788	3.72
570.129	3.88
570.47	4.03
570.811	3.92
571.151	3.95
571.492	4.01
571.833	3.72
572.174	3.87
572.514	3.91
572.855	3.88
573.195	4
573.536	3.99
573.876	3.94
574.217	3.93
574.557	3.76
574.898	3.93
575.238	4.01
575.578	3.98
575.918	4.04
576.258	3.9
576.598	3.97
576.938	3.97
577.278	4.18
577.618	3.89
577.958	4.06
578.298	4.11
578.638	3.86
578.977	4.02
579.317	3.97
579.657	4.01
579.996	4.1
580.336	4.21
580.675	4.21
581.014	3.99
581.354	4.13
581.693	4.26
582.032	4.18
582.372	4.23
582.711	4.14
583.05	4.28
583.389	4.31
583.728	4.21
584.067	4.19
584.406	4.37
584.745	4.13
585.083	4.39
585.422	4.34
585.761	4.25
586.1	4.16
586.438	4.34
586.777	4.42
587.115	4.5
587.454	3.94
587.792	4.63
588.13	4.43
588.469	4.43
588.807	4.41
589.145	4.43
589.483	4.49
589.821	4.48
590.159	4.37
590.497	4.65
590.835	4.3
591.173	4.3
591.511	4.55
591.849	4.58
592.187	4.42
592.524	4.68
592.862	4.47
593.2	4.32
593.537	4.4
593.875	4.45
594.212	4.61
594.55	4.92
594.887	4.59
595.224	4.81
595.561	4.8
595.899	4.87
596.236	4.79
596.573	4.82
596.91	4.43
597.247	4.58
597.584	4.83
597.921	5.1
598.258	4.77
598.594	4.67
598.931	4.78
599.268	4.65
599.604	4.88
599.941	4.67
600.277	4.5
600.614	4.77
600.95	4.82
601.287	4.63
601.623	4.82
601.959	4.87
602.296	4.96
602.632	4.74
602.968	4.94
603.304	4.77
603.64	4.87
603.976	5.08
604.312	4.82
604.648	4.92
604.984	4.89
605.319	4.81
605.655	4.73
605.991	4.76
606.326	4.99
606.662	4.79
606.998	4.72
607.333	4.9
607.668	4.75
608.004	4.92
608.339	4.82
608.674	4.97
609.01	4.96
609.345	5.19
609.68	5.27
610.015	4.93
610.35	5.11
610.685	5.16
611.02	5.13
611.355	5.2
611.689	4.88
612.024	4.97
612.359	5.19
612.694	5
613.028	5.02
613.363	5.05
613.697	5.12
614.032	5.24
614.366	5.24
614.7	5.29
615.035	5.31
615.369	5.47
615.703	4.98
616.037	5.36
616.371	5.38
616.705	5.47
617.039	5.4
617.373	5.34
617.707	5.45
618.041	5.58
618.375	5.41
618.709	5.44
619.042	5.77
619.376	5.85
619.71	5.51
620.043	5.18
620.377	5.35
620.71	5.69
621.043	5.45
621.377	5.07
621.71	5.6
622.043	5.41
622.376	5.98
622.709	5.44
623.043	5.47
623.376	5.54
623.709	5.76
624.041	5.59
624.374	5.58
624.707	5.9
625.04	5.95
625.373	5.25
625.705	5.43
626.038	5.74
626.37	5.93
626.703	5.78
627.035	5.8
627.368	5.8
627.7	5.75
628.032	5.82
628.365	5.73
628.697	5.99
629.029	5.72
629.361	5.74
629.693	5.8
630.025	5.89
630.357	5.75
630.689	6.03
631.021	5.74
631.353	5.58
631.684	5.93
632.016	5.98
632.348	6
632.679	5.9
633.011	5.99
633.342	6.04
633.674	6.28
634.005	5.76
634.336	6.4
634.668	6.25
634.999	6.22
635.33	6.31
635.661	5.99
635.992	6.25
636.323	5.9
636.654	6.02
636.985	6.23
637.316	6.22
637.647	6.36
637.977	5.62
638.308	6.62
638.639	6.16
638.969	6.16
639.3	6.2
639.63	6.65
639.961	5.92
640.291	5.93
640.622	6.5
640.952	6.24
641.282	6.25
641.612	6.05
641.943	6.28
642.273	6.46
642.603	6.55
642.933	6.3
643.263	5.96
643.592	6.55
643.922	7.1
644.252	6.23
644.582	7.02
644.911	6.43
645.241	6.85
645.571	6.75
645.9	7.12
646.23	6.84
646.559	6.73
646.888	6.93
647.218	6.81
647.547	6.56
647.876	6.55
648.205	6.43
648.534	7.31
648.863	6.93
649.192	6.66
649.521	7.17
649.85	7.04
650.179	6.46
650.508	6.78
650.837	6.6
651.165	6.61
651.494	6.85
651.822	6.76
652.151	6.77
652.479	6.59
652.808	6.7
653.136	7.07
653.465	7.03
653.793	6.66
654.121	7.09
654.449	6.8
654.777	7.12
655.105	6.94
655.433	6.85
655.761	7.57
656.089	7.14
656.417	7.09
656.745	7.01
657.073	7.18
657.4	7.28
657.728	6.75
658.056	7.38
658.383	7.09
658.711	7.04
659.038	6.93
659.365	7.15
659.693	7
660.02	7.33
660.347	7.2
660.674	6.92
661.001	7.17
661.329	7.54
661.656	7.68
661.982	7.13
662.309	7.37
662.636	7.34
662.963	7.55
663.29	7.82
663.616	7.2
663.943	7.99
664.27	7.48
664.596	7.11
664.923	7.66
665.249	7.82
665.576	7.1
665.902	7.48
666.228	7.52
666.554	6.91
666.881	8.1
667.207	8.02
667.533	7.64
667.859	7.71
668.185	8.16
668.511	8.47
668.837	7.5
669.162	7.96
669.488	8.33
669.814	7.82
670.139	8.01
670.465	8.35
670.791	8.19
671.116	7.54
671.442	8.36
671.767	7.58
672.092	8.23
672.418	8.35
672.743	8.19
673.068	7.84
673.393	7.49
673.718	8.61
674.043	8.08
674.368	8.1
674.693	7.98
675.018	7.81
675.343	8.07
675.667	8.71
675.992	8.19
676.317	8.33
676.641	8.34
676.966	9.08
677.29	8.42
677.615	8.34
677.939	8.7
678.264	8.5
678.588	9.17
678.912	8.36
679.236	8.4
679.56	8.72
679.885	8.53
680.209	9.19
680.532	8.09
680.856	8.25
681.18	8.73
681.504	8.4
681.828	8.72
682.152	8.52
682.475	8.88
682.799	8.58
683.122	8.45
683.446	8.37
683.769	8.79
684.093	8.98
684.416	8.96
684.739	8.71
685.062	9.37
685.386	8.69
685.709	8.89
686.032	8.82
686.355	9.05
686.678	8.88
687.001	8.83
687.324	9.45
687.646	8.74
687.969	9.57
688.292	8.87
688.614	9.2
688.937	8.6
689.26	9.02
689.582	9.28
689.904	8.49
690.227	9.49
690.549	9.63
690.871	9.63
691.194	9.55
691.516	9.39
691.838	9.42
692.16	8.91
692.482	8.89
692.804	8.52
693.126	9.1
