Data from 0024_crown_Reflection__1__67.txt Node

Date: Thu Oct 20 20:52:10 CDT 2022
User: ToomeyLab
Spectrometer: FLMS14357
Trigger mode: 0
Integration Time (sec): 1.000000E-2
Scans to average: 100
Electric dark correction enabled: true
Nonlinearity correction enabled: false
Boxcar width: 0
XAxis mode: Wavelengths
Number of Pixels in Spectrum: 2048
>>>>>Begin Spectral Data<<<<<
189.047	38.65
189.435	38.65
189.823	38.65
190.211	341.27
190.599	34.47
190.987	63.07
191.375	41.39
191.763	125.43
192.151	67.76
192.538	-7483.87
192.926	46.65
193.314	-72.13
193.702	170.48
194.089	273.84
194.477	-19.96
194.864	40.61
195.252	105.76
195.639	181.06
196.027	701.6
196.414	-245.99
196.801	215.24
197.189	46.81
197.576	206.71
197.963	135.62
198.351	-19.03
198.738	8.53
199.125	14.83
199.512	31.66
199.899	44.28
200.286	-12.54
200.673	27.92
201.06	8.12
201.447	44.14
201.833	10.44
202.22	42.1
202.607	35.16
202.994	47.24
203.38	46.32
203.767	-36.56
204.154	-69.86
204.54	-50.99
204.927	5.97
205.313	-37.87
205.699	12.76
206.086	-60.68
206.472	27.66
206.858	-48.2
207.245	-10.58
207.631	1.44
208.017	44.88
208.403	53.02
208.789	-55.16
209.175	3.13
209.561	17.59
209.947	26.59
210.333	33
210.719	14.09
211.105	-7.05
211.491	7.46
211.876	26.09
212.262	33.67
212.648	11.81
213.034	-12.89
213.419	-1.5
213.805	5.52
214.19	14.45
214.576	-5.36
214.961	32.31
215.346	3.22
215.732	-32.47
216.117	-1.82
216.502	-71.32
216.888	37.29
217.273	19.1
217.658	-17.59
218.043	28.33
218.428	1.2
218.813	4.55
219.198	-0.86
219.583	-15.84
219.968	6.2
220.353	1.47
220.738	7.12
221.122	28.93
221.507	7.98
221.892	-1.87
222.276	5.05
222.661	-1.94
223.046	4.79
223.43	18.48
223.815	-0.18
224.199	11.37
224.583	17.92
224.968	0.45
225.352	16.29
225.736	10.14
226.121	16
226.505	10.04
226.889	2.44
227.273	12.79
227.657	6.87
228.041	6.27
228.425	10.62
228.809	6.48
229.193	6.3
229.577	7.63
229.961	7.71
230.344	7.82
230.728	6.71
231.112	6.89
231.495	6.48
231.879	6.79
232.263	8.35
232.646	7.58
233.03	6.37
233.413	6.71
233.797	7.46
234.18	7.56
234.563	7.95
234.946	6.25
235.33	6.18
235.713	8.69
236.096	6.15
236.479	7.14
236.862	3.71
237.245	6.27
237.628	6.8
238.011	6.03
238.394	7.24
238.777	5.82
239.16	6.48
239.543	5.59
239.925	6.83
240.308	6.7
240.691	6.73
241.073	8.63
241.456	5.55
241.838	6.84
242.221	6.67
242.603	5.81
242.986	6.15
243.368	6.96
243.75	5.86
244.133	6.3
244.515	6.51
244.897	6.85
245.279	6.38
245.661	6.43
246.043	7.12
246.425	7.4
246.807	5.79
247.189	5.94
247.571	5.74
247.953	6.02
248.335	6.14
248.717	6.29
249.098	6.18
249.48	6.18
249.862	6.22
250.243	6.54
250.625	6.42
251.006	7.07
251.388	5.81
251.769	6.6
252.151	6.24
252.532	5.86
252.913	6.49
253.295	5.86
253.676	6.33
254.057	6.39
254.438	5.69
254.819	6.54
255.2	6.82
255.581	5.55
255.962	7.24
256.343	6.06
256.724	5.39
257.105	8.06
257.486	6.11
257.867	6.18
258.247	6.23
258.628	6.22
259.009	5.7
259.389	5.94
259.77	5.95
260.15	5.69
260.531	5.66
260.911	5.66
261.292	5.64
261.672	5.37
262.052	5.68
262.432	6.27
262.813	6.08
263.193	5.92
263.573	5.83
263.953	5.4
264.333	5.43
264.713	5.74
265.093	5.68
265.473	5.98
265.853	5.41
266.233	5.23
266.612	5.37
266.992	5.24
267.372	5.36
267.752	5.32
268.131	5.26
268.511	5.4
268.89	4.88
269.27	5.53
269.649	5.78
270.029	5.71
270.408	5.56
270.787	5.72
271.167	5.41
271.546	5.22
271.925	5.14
272.304	5.24
272.683	5.35
273.062	5.09
273.441	5.81
273.82	5.3
274.199	4.91
274.578	5.08
274.957	5.12
275.336	5.31
275.715	5.53
276.093	5.44
276.472	5.4
276.851	5.09
277.229	5.59
277.608	5.33
277.986	5.26
278.365	5.44
278.743	5.25
279.122	5.47
279.5	5.86
279.878	5.22
280.257	4.34
280.635	5.52
281.013	5.35
281.391	4.98
281.769	4.49
282.147	5.14
282.525	4.94
282.903	4.91
283.281	4.84
283.659	4.83
284.037	5.18
284.415	5.21
284.792	4.79
285.17	4.75
285.548	5.13
285.925	4.7
286.303	4.89
286.68	5.2
287.058	4.9
287.435	4.92
287.813	4.71
288.19	4.66
288.567	4.88
288.945	4.97
289.322	4.42
289.699	4.84
290.076	4.75
290.453	5.21
290.83	4.95
291.207	4.34
291.584	4.44
291.961	4.86
292.338	4.83
292.715	4.78
293.092	4.45
293.469	4.95
293.845	4.46
294.222	4.65
294.599	4.81
294.975	4.97
295.352	4.6
295.728	3.97
296.105	4.63
296.481	4.65
296.858	5.21
297.234	4.5
297.61	4.49
297.986	4.44
298.363	4.64
298.739	4.64
299.115	4.51
299.491	4.62
299.867	4.36
300.243	4.53
300.619	4.52
300.995	4.4
301.371	4.17
301.746	4.15
302.122	4.72
302.498	4.89
302.874	4.17
303.249	4.55
303.625	4.89
304	4.29
304.376	4.77
304.751	4.44
305.127	4.39
305.502	4.24
305.878	4.56
306.253	3.55
306.628	4.37
307.003	4.29
307.378	4.15
307.754	5.08
308.129	4.58
308.504	5.15
308.879	4.25
309.254	4.18
309.629	4.7
310.003	4.98
310.378	4.27
310.753	4.18
311.128	4.3
311.502	4.81
311.877	4.22
312.252	4.45
312.626	4.42
313.001	4.31
313.375	4.48
313.75	4.31
314.124	4.55
314.498	4.52
314.873	4.82
315.247	4.24
315.621	4.44
315.995	4.75
316.369	3.93
316.743	4.71
317.117	4.37
317.491	4.45
317.865	4.57
318.239	4.93
318.613	4.4
318.987	4.07
319.361	4.32
319.734	4.55
320.108	3.9
320.482	4.58
320.855	4.94
321.229	3.83
321.602	3.65
321.976	4.69
322.349	4.22
322.723	4.66
323.096	4.42
323.469	4.82
323.843	4.09
324.216	3.95
324.589	4.11
324.962	4.06
325.335	3.87
325.708	4.06
326.081	3.88
326.454	4.37
326.827	3.79
327.2	4.3
327.573	4.76
327.945	4.09
328.318	4.07
328.691	4.59
329.063	4.29
329.436	3.85
329.809	4.33
330.181	4.52
330.553	4.31
330.926	4.17
331.298	3.72
331.671	3.74
332.043	4.65
332.415	4.5
332.787	4.26
333.159	4.33
333.532	4.37
333.904	4.64
334.276	4.04
334.648	3.79
335.02	4.07
335.391	3.92
335.763	4.45
336.135	4.48
336.507	4.14
336.879	3.78
337.25	4.58
337.622	4.01
337.993	4.01
338.365	3.73
338.736	4.3
339.108	4.28
339.479	3.9
339.851	4.41
340.222	4.05
340.593	4.22
340.964	4.69
341.336	4.06
341.707	4.25
342.078	4.29
342.449	4.08
342.82	4.03
343.191	4.9
343.562	4.76
343.933	4.22
344.303	4.27
344.674	4.59
345.045	4.69
345.416	4.55
345.786	4.72
346.157	4.13
346.527	4.59
346.898	4.47
347.268	4.72
347.639	4.28
348.009	4.6
348.38	3.98
348.75	4.52
349.12	4.86
349.49	4.35
349.861	4.78
350.231	4.26
350.601	4.79
350.971	4.32
351.341	4.34
351.711	4.35
352.081	4.34
352.45	4.53
352.82	4.22
353.19	4.43
353.56	4.74
353.929	4.58
354.299	4.31
354.669	4.11
355.038	4.38
355.408	4.28
355.777	4.29
356.147	4.86
356.516	4.5
356.885	4.96
357.254	4.77
357.624	4.42
357.993	4.72
358.362	4.54
358.731	4.52
359.1	4.33
359.469	4.75
359.838	4.74
360.207	4.38
360.576	4.54
360.945	4.34
361.314	4.67
361.682	4.67
362.051	4.55
362.42	4.52
362.788	4.2
363.157	4.47
363.525	4.34
363.894	4.6
364.262	4.66
364.631	4.52
364.999	4.41
365.367	4.2
365.735	4.67
366.104	4.69
366.472	4.75
366.84	4.66
367.208	4.34
367.576	5.03
367.944	4.44
368.312	4.3
368.68	4.74
369.048	4.66
369.416	4.56
369.783	4.53
370.151	4.83
370.519	4.83
370.886	4.77
371.254	4.58
371.621	4.74
371.989	4.91
372.356	4.57
372.724	4.76
373.091	4.63
373.458	4.84
373.826	5
374.193	4.73
374.56	4.76
374.927	4.93
375.294	5.18
375.661	5
376.028	4.51
376.395	4.79
376.762	4.6
377.129	4.58
377.496	4.57
377.863	4.57
378.229	5.12
378.596	4.84
378.963	4.8
379.329	4.83
379.696	4.58
380.062	4.84
380.429	4.72
380.795	4.22
381.161	4.85
381.528	5.18
381.894	4.95
382.26	4.87
382.626	4.94
382.993	5.07
383.359	4.75
383.725	5.28
384.091	4.98
384.457	4.92
384.823	4.86
385.188	4.59
385.554	4.78
385.92	4.79
386.286	5.13
386.651	5.02
387.017	4.9
387.383	4.91
387.748	4.78
388.114	5.4
388.479	4.99
388.845	4.93
389.21	4.92
389.575	5.16
389.94	4.97
390.306	5.29
390.671	4.82
391.036	5.04
391.401	5.26
391.766	4.87
392.131	4.73
392.496	5.01
392.861	4.94
393.226	4.85
393.591	5.03
393.956	4.9
394.32	5.21
394.685	5.29
395.05	5.11
395.414	5.11
395.779	5.04
396.143	5.23
396.508	5.43
396.872	5.18
397.236	4.94
397.601	5.59
397.965	5.11
398.329	5.26
398.694	5.14
399.058	5.13
399.422	5.1
399.786	4.97
400.15	5.11
400.514	5.29
400.878	5.28
401.242	5.08
401.605	5.31
401.969	5.26
402.333	5.08
402.697	5.23
403.06	5.02
403.424	4.83
403.787	5.21
404.151	5.32
404.514	5.28
404.878	5.16
405.241	5.21
405.604	5.26
405.968	5.01
406.331	5.23
406.694	5.11
407.057	5.06
407.42	5.1
407.783	5.05
408.146	5.27
408.509	5.02
408.872	5.2
409.235	5.39
409.598	5.1
409.961	5.19
410.323	4.9
410.686	5.22
411.049	5.23
411.411	5.22
411.774	5.33
412.136	5.39
412.499	5.34
412.861	5.42
413.223	5.36
413.586	5.26
413.948	5.35
414.31	5.24
414.672	5.19
415.035	5.59
415.397	5.34
415.759	5.29
416.121	5.33
416.483	5.24
416.845	5.3
417.206	5.12
417.568	5.24
417.93	5.23
418.292	5.27
418.653	5.3
419.015	5.24
419.377	5.25
419.738	5.26
420.1	5.28
420.461	5.23
420.822	5.14
421.184	5.31
421.545	5.21
421.906	5.15
422.267	5.27
422.629	5.17
422.99	5.24
423.351	5.14
423.712	5.21
424.073	5.26
424.434	5.28
424.795	5.25
425.155	5.19
425.516	5.24
425.877	5.32
426.238	5.27
426.598	5.24
426.959	5.37
427.32	5.26
427.68	5.29
428.041	5.28
428.401	5.22
428.761	5.49
429.122	5.4
429.482	5.28
429.842	5.37
430.202	5.38
430.563	5.27
430.923	5.43
431.283	5.38
431.643	5.31
432.003	5.55
432.363	5.16
432.722	5.46
433.082	5.42
433.442	5.46
433.802	5.54
434.161	5.48
434.521	5.27
434.881	5.46
435.24	5.34
435.6	5.38
435.959	5.26
436.319	5.35
436.678	5.43
437.037	5.53
437.396	5.41
437.756	5.43
438.115	5.5
438.474	5.51
438.833	5.46
439.192	5.52
439.551	5.45
439.91	5.43
440.269	5.43
440.628	5.56
440.987	5.45
441.345	5.4
441.704	5.45
442.063	5.26
442.421	5.28
442.78	5.38
443.138	5.32
443.497	5.47
443.855	5.43
444.214	5.37
444.572	5.59
444.93	5.42
445.288	5.57
445.647	5.37
446.005	5.41
446.363	5.35
446.721	5.49
447.079	5.33
447.437	5.35
447.795	5.41
448.153	5.47
448.51	5.39
448.868	5.42
449.226	5.32
449.584	5.37
449.941	5.52
450.299	5.41
450.656	5.45
451.014	5.41
451.371	5.42
451.729	5.52
452.086	5.49
452.443	5.47
452.801	5.36
453.158	5.41
453.515	5.39
453.872	5.43
454.229	5.47
454.586	5.55
454.943	5.36
455.3	5.44
455.657	5.5
456.014	5.17
456.371	5.49
456.727	5.6
457.084	5.48
457.441	5.54
457.797	5.47
458.154	5.65
458.51	5.61
458.867	5.53
459.223	5.42
459.58	5.57
459.936	5.53
460.292	5.46
460.648	5.61
461.005	5.54
461.361	5.35
461.717	5.35
462.073	5.38
462.429	5.45
462.785	5.4
463.141	5.57
463.496	5.42
463.852	5.32
464.208	5.46
464.564	5.49
464.919	5.51
465.275	5.5
465.631	5.64
465.986	5.57
466.342	5.63
466.697	5.51
467.052	5.7
467.408	5.47
467.763	5.62
468.118	5.49
468.473	5.46
468.829	5.63
469.184	5.48
469.539	5.5
469.894	5.53
470.249	5.6
470.603	5.56
470.958	5.64
471.313	5.46
471.668	5.49
472.023	5.59
472.377	5.65
472.732	5.51
473.086	5.5
473.441	5.68
473.795	5.43
474.15	5.66
474.504	5.6
474.859	5.51
475.213	5.53
475.567	5.56
475.921	5.54
476.275	5.6
476.63	5.41
476.984	5.51
477.338	5.57
477.692	5.59
478.045	5.58
478.399	5.51
478.753	5.68
479.107	5.56
479.461	5.59
479.814	5.64
480.168	5.55
480.521	5.51
480.875	5.62
481.228	5.59
481.582	5.54
481.935	5.62
482.289	5.5
482.642	5.63
482.995	5.67
483.348	5.6
483.701	5.48
484.055	5.49
484.408	5.4
484.761	5.26
485.114	5.21
485.466	5.22
485.819	5.31
486.172	5.33
486.525	5.4
486.878	5.47
487.23	5.49
487.583	5.46
487.936	5.34
488.288	5.39
488.641	5.27
488.993	5.31
489.345	5.31
489.698	5.38
490.05	5.42
490.402	5.43
490.754	5.42
491.107	5.57
491.459	5.51
491.811	5.62
492.163	5.51
492.515	5.41
492.866	5.33
493.218	5.35
493.57	5.35
493.922	5.45
494.274	5.46
494.625	5.42
494.977	5.56
495.328	5.54
495.68	5.57
496.031	5.5
496.383	5.54
496.734	5.56
497.086	5.61
497.437	5.65
497.788	5.5
498.139	5.58
498.49	5.48
498.842	5.5
499.193	5.57
499.544	5.52
499.894	5.63
500.245	5.52
500.596	5.54
500.947	5.53
501.298	5.54
501.648	5.67
501.999	5.54
502.35	5.67
502.7	5.71
503.051	5.68
503.401	5.64
503.752	5.72
504.102	5.66
504.452	5.62
504.803	5.53
505.153	5.71
505.503	5.48
505.853	5.61
506.203	5.55
506.553	5.67
506.903	5.75
507.253	5.64
507.603	5.41
507.953	5.61
508.303	5.61
508.652	5.55
509.002	5.71
509.352	5.67
509.701	5.68
510.051	5.64
510.4	5.49
510.75	5.64
511.099	5.61
511.449	5.55
511.798	5.45
512.147	5.54
512.496	5.61
512.846	5.54
513.195	5.67
513.544	5.62
513.893	5.65
514.242	5.58
514.591	5.7
514.939	5.5
515.288	5.51
515.637	5.52
515.986	5.58
516.334	5.7
516.683	5.67
517.032	5.45
517.38	5.62
517.729	5.5
518.077	5.65
518.426	5.53
518.774	5.53
519.122	5.69
519.47	5.57
519.819	5.56
520.167	5.58
520.515	5.58
520.863	5.58
521.211	5.51
521.559	5.64
521.907	5.71
522.255	5.62
522.602	5.62
522.95	5.65
523.298	5.66
523.645	5.61
523.993	5.65
524.341	5.46
524.688	5.61
525.036	5.6
525.383	5.57
525.73	5.6
526.078	5.51
526.425	5.65
526.772	5.6
527.119	5.41
527.466	5.47
527.814	5.61
528.161	5.52
528.508	5.51
528.854	5.47
529.201	5.53
529.548	5.4
529.895	5.28
530.242	5.33
530.588	5.35
530.935	5.4
531.282	5.39
531.628	5.47
531.975	5.47
532.321	5.49
532.667	5.48
533.014	5.55
533.36	5.5
533.706	5.45
534.052	5.45
534.399	5.39
534.745	5.37
535.091	5.41
535.437	5.48
535.783	5.47
536.129	5.41
536.474	5.53
536.82	5.61
537.166	5.51
537.512	5.54
537.857	5.5
538.203	5.55
538.549	5.52
538.894	5.51
539.239	5.62
539.585	5.59
539.93	5.67
540.276	5.52
540.621	5.62
540.966	5.51
541.311	5.65
541.656	5.51
542.001	5.47
542.346	5.37
542.691	5.38
543.036	5.44
543.381	5.45
543.726	5.43
544.071	5.47
544.415	5.49
544.76	5.54
545.105	5.45
545.449	5.6
545.794	5.66
546.138	5.54
546.483	5.42
546.827	5.57
547.171	5.51
547.516	5.55
547.86	5.49
548.204	5.54
548.548	5.51
548.892	5.5
549.236	5.55
549.58	5.61
549.924	5.62
550.268	5.67
550.612	5.5
550.956	5.52
551.3	5.64
551.643	5.64
551.987	5.57
552.33	5.64
552.674	5.7
553.017	5.53
553.361	5.56
553.704	5.7
554.048	5.57
554.391	5.57
554.734	5.44
555.077	5.54
555.42	5.67
555.764	5.76
556.107	5.45
556.45	5.51
556.793	5.66
557.135	5.82
557.478	5.58
557.821	5.64
558.164	5.59
558.507	5.51
558.849	5.4
559.192	5.47
559.534	5.78
559.877	5.58
560.219	5.87
560.562	5.7
560.904	5.54
561.246	5.56
561.589	5.7
561.931	5.86
562.273	5.45
562.615	5.64
562.957	5.58
563.299	5.68
563.641	5.64
563.983	5.55
564.325	5.62
564.667	5.52
565.008	5.68
565.35	5.68
565.692	5.56
566.033	5.57
566.375	5.55
566.716	5.47
567.058	5.49
567.399	5.59
567.741	5.53
568.082	5.5
568.423	5.43
568.764	5.48
569.105	5.74
569.447	5.57
569.788	5.63
570.129	5.64
570.47	5.58
570.811	5.49
571.151	5.71
571.492	5.51
571.833	5.45
572.174	5.4
572.514	5.61
572.855	5.37
573.195	5.5
573.536	5.37
573.876	5.49
574.217	5.5
574.557	5.5
574.898	5.62
575.238	5.44
575.578	5.52
575.918	5.39
576.258	5.57
576.598	5.43
576.938	5.67
577.278	5.58
577.618	5.48
577.958	5.5
578.298	5.51
578.638	5.55
578.977	5.55
579.317	5.6
579.657	5.33
579.996	5.58
580.336	5.25
580.675	5.43
581.014	5.67
581.354	5.59
581.693	5.54
582.032	5.43
582.372	5.41
582.711	5.48
583.05	5.56
583.389	5.61
583.728	5.51
584.067	5.49
584.406	5.75
584.745	5.45
585.083	5.39
585.422	5.67
585.761	5.56
586.1	5.59
586.438	5.65
586.777	5.51
587.115	5.38
587.454	5.44
587.792	5.62
588.13	5.64
588.469	5.54
588.807	5.61
589.145	5.44
589.483	5.6
589.821	5.46
590.159	5.3
590.497	5.48
590.835	5.47
591.173	5.46
591.511	5.39
591.849	5.64
592.187	5.57
592.524	5.73
592.862	5.48
593.2	5.45
593.537	5.54
593.875	5.56
594.212	5.3
594.55	5.47
594.887	5.43
595.224	5.72
595.561	5.41
595.899	5.22
596.236	5.54
596.573	5.51
596.91	5.43
597.247	5.68
597.584	5.31
597.921	5.35
598.258	5.65
598.594	5.59
598.931	5.48
599.268	5.42
599.604	5.6
599.941	5.37
600.277	5.26
600.614	5.57
600.95	5.61
601.287	5.57
601.623	5.57
601.959	5.4
602.296	5.7
602.632	5.45
602.968	5.34
603.304	5.54
603.64	5.34
603.976	5.57
604.312	5.7
604.648	5.43
604.984	5.45
605.319	5.46
605.655	5.39
605.991	5.46
606.326	5.5
606.662	5.4
606.998	5.44
607.333	5.46
607.668	5.54
608.004	5.65
608.339	5.3
608.674	5.4
609.01	5.5
609.345	5.3
609.68	5.33
610.015	5.64
610.35	5.4
610.685	5.36
611.02	5.47
611.355	5.53
611.689	5.34
612.024	5.33
612.359	5.21
612.694	5.41
613.028	5.6
613.363	5.66
613.697	5.49
614.032	5.33
614.366	5.28
614.7	5.29
615.035	5.56
615.369	5.19
615.703	5.53
616.037	5.45
616.371	5.29
616.705	5.36
617.039	5.49
617.373	5.2
617.707	5.49
618.041	5.42
618.375	5.08
618.709	5.5
619.042	5.39
619.376	5.48
619.71	5.32
620.043	5.01
620.377	5.64
620.71	5.55
621.043	4.94
621.377	5.24
621.71	5.1
622.043	5.14
622.376	5.39
622.709	5.56
623.043	5.11
623.376	5.15
623.709	5.61
624.041	5.34
624.374	5.51
624.707	5.51
625.04	5.32
625.373	5.46
625.705	5.45
626.038	5.35
626.37	5.36
626.703	5.81
627.035	5.1
627.368	5.12
627.7	5.32
628.032	5.77
628.365	5.38
628.697	5.48
629.029	5.53
629.361	5.46
629.693	5.14
630.025	5.6
630.357	5.32
630.689	5.12
631.021	5.24
631.353	5.33
631.684	5.4
632.016	5.4
632.348	5.57
632.679	5.4
633.011	5.33
633.342	5.03
633.674	5.69
634.005	5.17
634.336	5.29
634.668	5.11
634.999	5.26
635.33	5.26
635.661	5.39
635.992	5.25
636.323	5.57
636.654	5.39
636.985	5.39
637.316	5.21
637.647	5.4
637.977	5.56
638.308	5.49
638.639	5.57
638.969	5.6
639.3	5.6
639.63	5.78
639.961	5.06
640.291	5.28
640.622	5.41
640.952	5.2
641.282	5.63
641.612	5.1
641.943	5.54
642.273	5.82
642.603	5.66
642.933	5.68
643.263	5.53
643.592	4.99
643.922	5.5
644.252	5.35
644.582	5.32
644.911	5.47
645.241	6.1
645.571	5.31
645.9	5.23
646.23	5.24
646.559	5.2
646.888	5.74
647.218	5.56
647.547	5.61
647.876	5.51
648.205	5.15
648.534	5.14
648.863	5.3
649.192	5.57
649.521	5.6
649.85	5.71
650.179	5.37
650.508	5.42
650.837	5.62
651.165	5.61
651.494	5.93
651.822	5.4
652.151	5.59
652.479	5.62
652.808	5.43
653.136	5.12
653.465	5.53
653.793	5.74
654.121	5.35
654.449	5.64
654.777	5.42
655.105	5.38
655.433	5.37
655.761	5.16
656.089	5.66
656.417	5.47
656.745	5.65
657.073	5.99
657.4	5.55
657.728	5.17
658.056	5.17
658.383	6.12
658.711	5.46
659.038	5.3
659.365	5.47
659.693	5.17
660.02	5.62
660.347	5.57
660.674	5.44
661.001	5.42
661.329	5.63
661.656	5.49
661.982	5.72
662.309	5.69
662.636	5.38
662.963	5.79
663.29	5.84
663.616	5.23
663.943	5.45
664.27	5.69
664.596	5.31
664.923	5.25
665.249	5.42
665.576	6
665.902	5.8
666.228	5.7
666.554	5.96
666.881	6.21
667.207	5.31
667.533	5.94
667.859	5.22
668.185	5.85
668.511	4.77
668.837	5.17
669.162	4.94
669.488	5.79
669.814	5.74
670.139	5.24
670.465	5.29
670.791	5.59
671.116	5.53
671.442	4.85
671.767	5.92
672.092	5.9
672.418	5.38
672.743	5.76
673.068	5.77
673.393	5.92
673.718	5.79
674.043	4.83
674.368	5.32
674.693	5.7
675.018	5.66
675.343	5.87
675.667	5.35
675.992	5.29
676.317	5.63
676.641	6.28
676.966	5.62
677.29	5.47
677.615	4.89
677.939	6.08
678.264	5.37
678.588	5.67
678.912	5.59
679.236	5.78
679.56	5.01
679.885	5.64
680.209	5.3
680.532	6.06
680.856	5.88
681.18	5.57
681.504	5.87
681.828	5.94
682.152	5.9
682.475	5.68
682.799	5.02
683.122	5.54
683.446	5.49
683.769	5.58
684.093	5.75
684.416	5.92
684.739	5.33
685.062	5.55
685.386	5.46
685.709	5.17
686.032	5.29
686.355	5.73
686.678	5.34
687.001	5.66
687.324	5.79
687.646	5.11
687.969	5.99
688.292	5.77
688.614	5.76
688.937	6.41
689.26	5.64
689.582	6.05
689.904	5.37
690.227	5.83
690.549	6.25
690.871	6.42
691.194	5.91
691.516	5.62
691.838	5.83
692.16	5.74
692.482	5.59
