Data from 0024_forehead_Reflection__4__75.txt Node

Date: Thu Oct 20 20:54:09 CDT 2022
User: ToomeyLab
Spectrometer: FLMS14357
Trigger mode: 0
Integration Time (sec): 1.000000E-2
Scans to average: 100
Electric dark correction enabled: true
Nonlinearity correction enabled: false
Boxcar width: 0
XAxis mode: Wavelengths
Number of Pixels in Spectrum: 2048
>>>>>Begin Spectral Data<<<<<
189.047	-32.29
189.435	-32.29
189.823	-32.29
190.211	185.71
190.599	104.99
190.987	84.41
191.375	-13.52
191.763	119.37
192.151	33.2
192.538	2132.26
192.926	61.22
193.314	3.2
193.702	137.51
194.089	345.64
194.477	1109.98
194.864	-13.41
195.252	89.78
195.639	105.69
196.027	290.02
196.414	-121.63
196.801	7.34
197.189	32.33
197.576	158.39
197.963	50.15
198.351	26.09
198.738	51.94
199.125	31.04
199.512	26.38
199.899	14.55
200.286	21.26
200.673	37.06
201.06	11.48
201.447	30.03
201.833	59.71
202.22	-14.95
202.607	10.54
202.994	51.95
203.38	6.39
203.767	39.77
204.154	42.48
204.54	-0.66
204.927	66.94
205.313	2.45
205.699	74.95
206.086	53.47
206.472	4.3
206.858	-10
207.245	3.52
207.631	-9.18
208.017	27.44
208.403	32.79
208.789	12.2
209.175	29.34
209.561	-19.11
209.947	10.6
210.333	55.28
210.719	33.15
211.105	10.33
211.491	-19.82
211.876	40.15
212.262	23.36
212.648	8.21
213.034	3.38
213.419	26.96
213.805	-1.26
214.19	-39.06
214.576	10.96
214.961	29.95
215.346	-27.9
215.732	-30.19
216.117	23.19
216.502	-24.14
216.888	1.6
217.273	19.81
217.658	-18
218.043	2.96
218.428	26.05
218.813	0.18
219.198	-0.6
219.583	-1.42
219.968	23.3
220.353	2.95
220.738	14.21
221.122	20
221.507	0.66
221.892	1.95
222.276	4.72
222.661	3.47
223.046	12.21
223.43	16.34
223.815	-3.35
224.199	14.18
224.583	4.49
224.968	3.5
225.352	15.15
225.736	11.26
226.121	22.92
226.505	5.91
226.889	-2.26
227.273	10.08
227.657	2.46
228.041	3.84
228.425	6.31
228.809	3.79
229.193	2.08
229.577	3.41
229.961	2.21
230.344	2.81
230.728	3.12
231.112	3.16
231.495	1.97
231.879	2.56
232.263	3.01
232.646	2.51
233.03	1.86
233.413	3.59
233.797	2.95
234.18	5.72
234.563	3.66
234.946	1.63
235.33	1.94
235.713	1.83
236.096	4.43
236.479	3.63
236.862	0.35
237.245	2.24
237.628	4
238.011	3.35
238.394	3.38
238.777	3.02
239.16	2.78
239.543	1.58
239.925	3.11
240.308	3.86
240.691	2.63
241.073	3.56
241.456	2.55
241.838	3.16
242.221	1.47
242.603	2.4
242.986	2.82
243.368	3.31
243.75	2.62
244.133	2.36
244.515	2.82
244.897	3.04
245.279	3.9
245.661	3.9
246.043	3.4
246.425	3.46
246.807	3.36
247.189	2.95
247.571	3.17
247.953	2.47
248.335	3.13
248.717	2.93
249.098	2.94
249.48	2.76
249.862	2.9
250.243	3.09
250.625	3.19
251.006	3.52
251.388	2.3
251.769	3.26
252.151	3.57
252.532	2.64
252.913	3.28
253.295	3.19
253.676	3.11
254.057	3.05
254.438	3.09
254.819	3.14
255.2	5.47
255.581	4.2
255.962	2.51
256.343	2.58
256.724	3.35
257.105	4.62
257.486	3.23
257.867	4.03
258.247	4.01
258.628	3.36
259.009	3.1
259.389	3.35
259.77	3.37
260.15	3.42
260.531	2.9
260.911	2.76
261.292	2.78
261.672	2.5
262.052	2.81
262.432	3.15
262.813	2.87
263.193	3.26
263.573	2.81
263.953	3.05
264.333	3.01
264.713	3.33
265.093	2.93
265.473	2.24
265.853	3.68
266.233	3.34
266.612	3.08
266.992	2.92
267.372	2.86
267.752	2.56
268.131	3
268.511	2.99
268.89	2.74
269.27	2.67
269.649	2.6
270.029	3.12
270.408	2.82
270.787	2.91
271.167	3.03
271.546	2.91
271.925	2.99
272.304	3.2
272.683	2.52
273.062	2.54
273.441	3.07
273.82	3.16
274.199	2.42
274.578	2.68
274.957	2.75
275.336	2.6
275.715	2.81
276.093	3.04
276.472	3.14
276.851	2.64
277.229	2.81
277.608	2.8
277.986	3.06
278.365	2.89
278.743	2.93
279.122	2.95
279.5	3.35
279.878	2.77
280.257	2.74
280.635	3.29
281.013	2.52
281.391	2.54
281.769	2.84
282.147	2.66
282.525	3.12
282.903	3.02
283.281	2.6
283.659	2.83
284.037	3.09
284.415	3.01
284.792	2.9
285.17	2.88
285.548	2.49
285.925	2.64
286.303	3.11
286.68	2.91
287.058	3.13
287.435	2.82
287.813	2.78
288.19	2.75
288.567	3.09
288.945	3.01
289.322	2.82
289.699	3.12
290.076	3.16
290.453	2.88
290.83	2.73
291.207	3.12
291.584	3.28
291.961	2.76
292.338	3.6
292.715	3.14
293.092	3.24
293.469	3.95
293.845	3.05
294.222	3.32
294.599	3.98
294.975	3.86
295.352	3.26
295.728	3.24
296.105	3.51
296.481	3.66
296.858	4.14
297.234	3.57
297.61	3.66
297.986	3.98
298.363	3.78
298.739	3.91
299.115	3.72
299.491	3.82
299.867	3.81
300.243	3.93
300.619	4.48
300.995	3.91
301.371	4.46
301.746	3.98
302.122	4.65
302.498	4.35
302.874	3.97
303.249	4.2
303.625	4.17
304	4.15
304.376	4.66
304.751	4.34
305.127	4.12
305.502	4.17
305.878	4.4
306.253	3.83
306.628	4.42
307.003	4.21
307.378	4.2
307.754	4.61
308.129	4.32
308.504	5.35
308.879	4.44
309.254	4.44
309.629	4.44
310.003	4.45
310.378	4.34
310.753	4.32
311.128	4.83
311.502	5.29
311.877	4.67
312.252	4.76
312.626	4.66
313.001	4.79
313.375	4.9
313.75	4.55
314.124	4.88
314.498	5.14
314.873	5.08
315.247	5.02
315.621	4.74
315.995	5
316.369	4.83
316.743	5.56
317.117	5.27
317.491	5.6
317.865	5.79
318.239	4.99
318.613	4.98
318.987	5.21
319.361	5.62
319.734	5.6
320.108	5.38
320.482	5.7
320.855	5.79
321.229	5.6
321.602	5.85
321.976	6.1
322.349	5.42
322.723	5.68
323.096	6.27
323.469	6.01
323.843	5.34
324.216	5.34
324.589	5.55
324.962	5.29
325.335	5.11
325.708	5.77
326.081	5.73
326.454	6.02
326.827	5.33
327.2	5.99
327.573	5.78
327.945	5.74
328.318	5.53
328.691	6.18
329.063	5.39
329.436	5.69
329.809	6.27
330.181	5.69
330.553	5.82
330.926	6.04
331.298	5.85
331.671	5.24
332.043	6.21
332.415	6.57
332.787	5.88
333.159	5.95
333.532	6.06
333.904	6.44
334.276	6.15
334.648	5.9
335.02	6.23
335.391	5.48
335.763	5.85
336.135	6.44
336.507	6.19
336.879	5.72
337.25	6.34
337.622	6.08
337.993	6.01
338.365	6.09
338.736	6.5
339.108	7.05
339.479	5.8
339.851	6.9
340.222	6.28
340.593	6.48
340.964	6.67
341.336	6.96
341.707	6.85
342.078	6.61
342.449	6.67
342.82	6.6
343.191	7.2
343.562	6.56
343.933	6.46
344.303	6.34
344.674	6.86
345.045	7.31
345.416	6.85
345.786	6.82
346.157	6.8
346.527	6.77
346.898	6.37
347.268	7.19
347.639	6.61
348.009	7.23
348.38	6.49
348.75	7.17
349.12	7.09
349.49	6.54
349.861	7.31
350.231	6.55
350.601	7.47
350.971	7.13
351.341	6.84
351.711	6.78
352.081	7.43
352.45	6.8
352.82	7.21
353.19	6.85
353.56	6.97
353.929	7.4
354.299	6.9
354.669	7.04
355.038	7.16
355.408	6.87
355.777	7.05
356.147	7.3
356.516	7.02
356.885	7.85
357.254	7.15
357.624	7.33
357.993	7.61
358.362	7.23
358.731	7.29
359.1	7.26
359.469	7.2
359.838	7.27
360.207	7.49
360.576	7.43
360.945	7
361.314	7.58
361.682	7.85
362.051	7.36
362.42	7.68
362.788	7.42
363.157	7.66
363.525	7.32
363.894	7.59
364.262	7.62
364.631	7.36
364.999	7.82
365.367	7.51
365.735	7.77
366.104	7.81
366.472	7.81
366.84	8.16
367.208	7.75
367.576	7.87
367.944	7.61
368.312	7.9
368.68	7.91
369.048	8.09
369.416	7.61
369.783	7.81
370.151	7.8
370.519	8.06
370.886	8.16
371.254	7.93
371.621	7.78
371.989	7.92
372.356	8.21
372.724	7.95
373.091	8.26
373.458	7.68
373.826	8.24
374.193	8.39
374.56	8.14
374.927	8.27
375.294	8.01
375.661	8.23
376.028	8.14
376.395	8.19
376.762	8.34
377.129	8.21
377.496	8.02
377.863	8.32
378.229	8.56
378.596	8.4
378.963	8.21
379.329	8.47
379.696	8.31
380.062	8.61
380.429	8.59
380.795	8.66
381.161	8.8
381.528	8.83
381.894	8.69
382.26	8.35
382.626	8.65
382.993	8.56
383.359	8.65
383.725	9.2
384.091	8.77
384.457	8.68
384.823	8.96
385.188	8.67
385.554	8.89
385.92	8.76
386.286	8.85
386.651	8.99
387.017	8.77
387.383	8.73
387.748	8.9
388.114	8.95
388.479	9.31
388.845	8.94
389.21	8.67
389.575	9.38
389.94	8.96
390.306	9.37
390.671	9.03
391.036	9.47
391.401	9.53
391.766	9.12
392.131	9.06
392.496	9.25
392.861	9.11
393.226	9.19
393.591	9.35
393.956	9.27
394.32	9.53
394.685	9.52
395.05	9.28
395.414	9.45
395.779	9.55
396.143	9.44
396.508	9.61
396.872	9.59
397.236	9.07
397.601	9.67
397.965	9.7
398.329	9.4
398.694	9.49
399.058	9.6
399.422	9.72
399.786	9.68
400.15	9.64
400.514	9.77
400.878	9.74
401.242	9.68
401.605	9.65
401.969	9.68
402.333	9.66
402.697	9.94
403.06	9.68
403.424	9.96
403.787	9.94
404.151	9.98
404.514	10.07
404.878	10.11
405.241	9.98
405.604	9.99
405.968	9.77
406.331	10.01
406.694	9.93
407.057	9.97
407.42	9.88
407.783	9.98
408.146	10.24
408.509	10.06
408.872	10.19
409.235	10.19
409.598	9.93
409.961	10.1
410.323	10.08
410.686	10.27
411.049	10.33
411.411	10.35
411.774	10.32
412.136	10.29
412.499	10.4
412.861	10.29
413.223	10.36
413.586	10.55
413.948	10.39
414.31	10.6
414.672	10.29
415.035	10.48
415.397	10.67
415.759	10.65
416.121	10.52
416.483	10.56
416.845	10.66
417.206	10.45
417.568	10.45
417.93	10.22
418.292	10.56
418.653	10.59
419.015	10.6
419.377	10.54
419.738	10.56
420.1	10.62
420.461	10.55
420.822	10.58
421.184	10.64
421.545	10.61
421.906	10.53
422.267	10.54
422.629	10.5
422.99	10.57
423.351	10.49
423.712	10.5
424.073	10.68
424.434	10.78
424.795	10.81
425.155	10.57
425.516	10.63
425.877	10.81
426.238	10.8
426.598	10.7
426.959	10.97
427.32	10.91
427.68	11.06
428.041	10.91
428.401	10.96
428.761	11.24
429.122	11.18
429.482	11.28
429.842	11.24
430.202	11.27
430.563	11.19
430.923	11.39
431.283	11.14
431.643	11.17
432.003	11.58
432.363	11.19
432.722	11.38
433.082	11.31
433.442	11.38
433.802	11.48
434.161	11.57
434.521	11.29
434.881	11.33
435.24	11.36
435.6	11.44
435.959	11.38
436.319	11.66
436.678	11.56
437.037	11.65
437.396	11.45
437.756	11.66
438.115	11.85
438.474	11.83
438.833	11.53
439.192	11.82
439.551	11.72
439.91	11.73
440.269	11.65
440.628	11.78
440.987	11.78
441.345	11.75
441.704	11.76
442.063	11.5
442.421	11.72
442.78	11.64
443.138	11.78
443.497	11.88
443.855	11.97
444.214	11.88
444.572	11.94
444.93	11.77
445.288	11.94
445.647	11.93
446.005	11.91
446.363	11.92
446.721	11.88
447.079	11.93
447.437	11.9
447.795	11.85
448.153	11.87
448.51	12.04
448.868	11.98
449.226	12.02
449.584	11.98
449.941	12.26
450.299	12.11
450.656	12.19
451.014	12.32
451.371	12.34
451.729	12.3
452.086	12.48
452.443	12.33
452.801	12.47
453.158	12.49
453.515	12.4
453.872	12.47
454.229	12.4
454.586	12.58
454.943	12.46
455.3	12.55
455.657	12.59
456.014	12.41
456.371	12.47
456.727	12.71
457.084	12.71
457.441	12.72
457.797	12.65
458.154	12.87
458.51	12.7
458.867	12.66
459.223	12.8
459.58	12.81
459.936	12.79
460.292	12.83
460.648	12.69
461.005	12.71
461.361	12.52
461.717	12.62
462.073	12.61
462.429	12.77
462.785	12.98
463.141	12.84
463.496	12.92
463.852	12.82
464.208	13.16
464.564	12.9
464.919	12.96
465.275	12.98
465.631	13.31
465.986	13.25
466.342	13.16
466.697	13.12
467.052	13.34
467.408	13.23
467.763	13.38
468.118	13.37
468.473	13.25
468.829	13.35
469.184	13.48
469.539	13.46
469.894	13.31
470.249	13.46
470.603	13.45
470.958	13.6
471.313	13.54
471.668	13.49
472.023	13.46
472.377	13.59
472.732	13.56
473.086	13.57
473.441	13.6
473.795	13.63
474.15	13.67
474.504	13.65
474.859	13.6
475.213	13.7
475.567	13.71
475.921	13.65
476.275	13.77
476.63	13.6
476.984	13.88
477.338	13.94
477.692	13.83
478.045	13.82
478.399	13.91
478.753	13.83
479.107	13.86
479.461	13.81
479.814	13.85
480.168	13.78
480.521	13.92
480.875	14.04
481.228	13.95
481.582	13.92
481.935	13.96
482.289	14
482.642	14.03
482.995	13.98
483.348	13.98
483.701	13.69
484.055	13.71
484.408	13.62
484.761	13.34
485.114	13.25
485.466	13.3
485.819	13.37
486.172	13.38
486.525	13.51
486.878	13.61
487.23	13.68
487.583	13.75
487.936	13.78
488.288	13.76
488.641	13.68
488.993	13.61
489.345	13.58
489.698	13.7
490.05	13.78
490.402	13.83
490.754	13.91
491.107	14.14
491.459	14.18
491.811	14.31
492.163	14.25
492.515	14.07
492.866	13.95
493.218	13.89
493.57	13.89
493.922	14.07
494.274	14.23
494.625	14.34
494.977	14.48
495.328	14.61
495.68	14.56
496.031	14.86
496.383	14.77
496.734	14.79
497.086	14.79
497.437	15.04
497.788	14.84
498.139	14.7
498.49	14.79
498.842	14.71
499.193	14.7
499.544	14.82
499.894	14.87
500.245	15.03
500.596	15.04
500.947	15.01
501.298	15.07
501.648	15.1
501.999	15.07
502.35	15.32
502.7	15.29
503.051	15.33
503.401	15.25
503.752	15.24
504.102	15.23
504.452	15.32
504.803	15.35
505.153	15.3
505.503	15.37
505.853	15.38
506.203	15.42
506.553	15.42
506.903	15.53
507.253	15.54
507.603	15.43
507.953	15.67
508.303	15.47
508.652	15.59
509.002	15.57
509.352	15.52
509.701	15.83
510.051	15.56
510.4	15.64
510.75	15.53
511.099	15.64
511.449	15.5
511.798	15.61
512.147	15.62
512.496	15.64
512.846	15.75
513.195	15.74
513.544	15.7
513.893	15.77
514.242	15.88
514.591	15.8
514.939	15.9
515.288	15.78
515.637	15.82
515.986	16.04
516.334	16.03
516.683	16.03
517.032	16.07
517.38	16.13
517.729	16.03
518.077	16.11
518.426	16.01
518.774	16.05
519.122	16.11
519.47	16.02
519.819	15.86
520.167	15.84
520.515	15.81
520.863	15.92
521.211	15.88
521.559	16.11
521.907	16.1
522.255	16.19
522.602	16.41
522.95	16.36
523.298	16.47
523.645	16.47
523.993	16.36
524.341	16.34
524.688	16.45
525.036	16.41
525.383	16.53
525.73	16.5
526.078	16.35
526.425	16.36
526.772	16.33
527.119	16.14
527.466	16.33
527.814	16.22
528.161	16.44
528.508	16.28
528.854	16.21
529.201	16.15
529.548	15.99
529.895	15.9
530.242	15.87
530.588	16.04
530.935	16.04
531.282	16.11
531.628	16.31
531.975	16.36
532.321	16.44
532.667	16.67
533.014	16.72
533.36	16.64
533.706	16.66
534.052	16.63
534.399	16.4
534.745	16.32
535.091	16.45
535.437	16.54
535.783	16.55
536.129	16.73
536.474	16.83
536.82	16.97
537.166	16.99
537.512	16.9
537.857	16.76
538.203	16.91
538.549	16.86
538.894	16.98
539.239	16.87
539.585	17.18
539.93	17.26
540.276	17.31
540.621	17.4
540.966	17.48
541.311	17.36
541.656	17.28
542.001	17.1
542.346	16.95
542.691	16.76
543.036	16.79
543.381	16.96
543.726	16.96
544.071	17.11
544.415	17.12
544.76	17.2
545.105	17.23
545.449	17.5
545.794	17.54
546.138	17.55
546.483	17.56
546.827	17.58
547.171	17.52
547.516	17.74
547.86	17.69
548.204	17.67
548.548	17.59
548.892	17.61
549.236	17.83
549.58	17.9
549.924	18.03
550.268	18.25
550.612	18.32
550.956	18.09
551.3	18.39
551.643	18.17
551.987	18.3
552.33	18.44
552.674	18.3
553.017	18.24
553.361	18.19
553.704	18.35
554.048	18.23
554.391	18.3
554.734	18.33
555.077	18.47
555.42	18.45
555.764	18.67
556.107	18.51
556.45	18.67
556.793	18.68
557.135	18.75
557.478	18.78
557.821	19.02
558.164	18.86
558.507	18.87
558.849	18.68
559.192	18.7
559.534	18.8
559.877	18.81
560.219	18.95
560.562	19.1
560.904	18.95
561.246	19
561.589	18.97
561.931	19.18
562.273	18.95
562.615	18.98
562.957	18.95
563.299	18.96
563.641	19.21
563.983	19.01
564.325	19.17
564.667	19.24
565.008	19.21
565.35	19.15
565.692	19.05
566.033	19.27
566.375	19.13
566.716	19.28
567.058	19.35
567.399	19.26
567.741	19.07
568.082	19.1
568.423	19.07
568.764	19.16
569.105	19.64
569.447	19.66
569.788	19.43
570.129	19.48
570.47	19.31
570.811	19.3
571.151	19.48
571.492	19.54
571.833	19.4
572.174	19.62
572.514	19.42
572.855	19.35
573.195	19.47
573.536	19.38
573.876	19.55
574.217	19.68
574.557	19.5
574.898	19.53
575.238	19.54
575.578	19.61
575.918	19.8
576.258	19.6
576.598	19.56
576.938	19.79
577.278	19.57
577.618	19.75
577.958	19.88
578.298	19.92
578.638	19.91
578.977	19.94
579.317	20.19
579.657	19.93
579.996	20.21
580.336	20.13
580.675	20.11
581.014	20.09
581.354	20.3
581.693	20.03
582.032	20.24
582.372	20.27
582.711	20.07
583.05	20.35
583.389	20.42
583.728	20.53
584.067	20.37
584.406	20.67
584.745	20.62
585.083	20.42
585.422	20.6
585.761	20.47
586.1	20.4
586.438	20.48
586.777	20.69
587.115	20.7
587.454	20.6
587.792	20.75
588.13	20.39
588.469	20.85
588.807	20.68
589.145	20.61
589.483	20.81
589.821	20.64
590.159	20.68
590.497	21.06
590.835	20.69
591.173	20.73
591.511	20.72
591.849	20.7
592.187	20.79
592.524	21.06
592.862	21.03
593.2	20.81
593.537	20.91
593.875	21.17
594.212	20.74
594.55	20.85
594.887	21.02
595.224	21.19
595.561	21
595.899	21.03
596.236	20.91
596.573	21.31
596.91	21.31
597.247	21.18
597.584	21.05
597.921	21.02
598.258	21.16
598.594	20.97
598.931	21.02
599.268	21.1
599.604	21.35
599.941	21.1
600.277	21.47
600.614	21.47
600.95	21.59
601.287	21.58
601.623	21.62
601.959	21.39
602.296	21.46
602.632	21.58
602.968	21.45
603.304	21.51
603.64	21.69
603.976	21.76
604.312	21.49
604.648	21.47
604.984	21.44
605.319	21.72
605.655	21.34
605.991	21.46
606.326	21.66
606.662	21.45
606.998	21.7
607.333	21.75
607.668	21.95
608.004	21.81
608.339	21.8
608.674	21.73
609.01	21.82
609.345	21.81
609.68	21.7
610.015	22.06
610.35	21.74
610.685	21.73
611.02	21.5
611.355	21.78
611.689	21.9
612.024	21.8
612.359	21.96
612.694	21.83
613.028	22.14
613.363	22.27
613.697	22.32
614.032	22.37
614.366	22.31
614.7	22.12
615.035	22.38
615.369	22.01
615.703	22.23
616.037	22.16
616.371	22.59
616.705	22.54
617.039	22.44
617.373	22.5
617.707	22.18
618.041	22.66
618.375	22.17
618.709	22.8
619.042	22.59
619.376	22.45
619.71	22.68
620.043	22.57
620.377	22.86
620.71	22.78
621.043	22.21
621.377	22.76
621.71	22.32
622.043	22.65
622.376	23.06
622.709	22.65
623.043	22.58
623.376	22.65
623.709	23.14
624.041	22.99
624.374	22.92
624.707	22.82
625.04	22.42
625.373	23.07
625.705	22.8
626.038	22.78
626.37	22.69
626.703	22.9
627.035	22.73
627.368	22.7
627.7	22.94
628.032	22.69
628.365	22.88
628.697	23.05
629.029	22.92
629.361	22.72
629.693	23.09
630.025	23.45
630.357	23.35
630.689	23.42
631.021	22.95
631.353	22.95
631.684	23.08
632.016	23.26
632.348	23.33
632.679	23.16
633.011	23.21
633.342	23.2
633.674	23.42
634.005	23.04
634.336	23.63
634.668	23.08
634.999	23.42
635.33	23.32
635.661	23.1
635.992	23.26
636.323	23.66
636.654	23.46
636.985	23.44
637.316	23.28
637.647	23.46
637.977	23.45
638.308	23.56
638.639	23.57
638.969	23.33
639.3	23.54
639.63	24.08
639.961	23.14
640.291	23.56
640.622	23.79
640.952	23.67
641.282	23.88
641.612	23.5
641.943	24.2
642.273	24.26
642.603	24.01
642.933	23.99
643.263	23.97
643.592	23.97
643.922	23.99
644.252	23.86
644.582	24.14
644.911	24.21
645.241	24.16
645.571	23.91
645.9	23.83
646.23	23.69
646.559	24.06
646.888	24.13
647.218	24.27
647.547	24.34
647.876	24.42
648.205	24.09
648.534	23.98
648.863	24.09
649.192	24.43
649.521	24.27
649.85	24.23
650.179	24.02
650.508	24.57
650.837	24.35
651.165	24.49
651.494	24.49
651.822	24.16
652.151	24.35
652.479	24.55
652.808	24.53
653.136	24.46
653.465	24.69
653.793	24.12
654.121	24.28
654.449	24.45
654.777	24.35
655.105	24.8
655.433	24.7
655.761	24.28
656.089	24.83
656.417	24.6
656.745	24.37
657.073	24.8
657.4	24.56
657.728	24.82
658.056	24.5
658.383	24.61
658.711	24.43
659.038	24.92
659.365	24.41
659.693	24.44
660.02	24.86
660.347	24.71
660.674	24.43
661.001	24.72
661.329	24.78
661.656	24.8
661.982	24.79
662.309	24.99
662.636	24.95
662.963	25.05
663.29	25.05
663.616	25.18
663.943	24.8
664.27	25.21
664.596	24.82
664.923	24.31
665.249	24.9
665.576	25.51
665.902	25.11
666.228	25.05
666.554	24.63
666.881	25.09
667.207	24.91
667.533	25.23
667.859	25.07
668.185	25.1
668.511	24.86
668.837	25.42
669.162	24.57
669.488	25.14
669.814	25.48
670.139	24.8
670.465	25.1
670.791	25.23
671.116	25.08
671.442	24.79
671.767	25.43
672.092	25.71
672.418	25.26
672.743	25.02
673.068	25.67
673.393	26.06
673.718	24.99
674.043	25.12
674.368	26.06
674.693	25.58
675.018	25.51
