Data from 0024_chest_Reflection__0__61.txt Node

Date: Thu Oct 20 20:50:27 CDT 2022
User: ToomeyLab
Spectrometer: FLMS14357
Trigger mode: 0
Integration Time (sec): 1.000000E-2
Scans to average: 100
Electric dark correction enabled: true
Nonlinearity correction enabled: false
Boxcar width: 0
XAxis mode: Wavelengths
Number of Pixels in Spectrum: 2048
>>>>>Begin Spectral Data<<<<<
189.047	100.32
189.435	100.32
189.823	100.32
190.211	103.01
190.599	19.39
190.987	57.14
191.375	193.9
191.763	41.3
192.151	-116.28
192.538	-8067.74
192.926	52.8
193.314	2.88
193.702	174.44
194.089	-80.41
194.477	979
194.864	-45.28
195.252	188.96
195.639	210.91
196.027	691.09
196.414	159.15
196.801	70.62
197.189	-23.3
197.576	202.8
197.963	-65.93
198.351	-30.58
198.738	24.01
199.125	46.19
199.512	20.28
199.899	-37.46
200.286	-7.34
200.673	20.54
201.06	-6.88
201.447	36.36
201.833	18.32
202.22	-1.27
202.607	49.63
202.994	17.27
203.38	1.11
203.767	-7.92
204.154	7.84
204.54	-37.45
204.927	-2.61
205.313	-5.21
205.699	42.02
206.086	6.56
206.472	23.36
206.858	10.57
207.245	22.53
207.631	-40.25
208.017	26.37
208.403	7.74
208.789	-32.56
209.175	-10.37
209.561	2.08
209.947	0.82
210.333	-18.4
210.719	25.45
211.105	-26.99
211.491	17.53
211.876	2.68
212.262	3.81
212.648	-15.64
213.034	6.28
213.419	-0.43
213.805	-2.23
214.19	-48.81
214.576	12.38
214.961	25.77
215.346	-25.17
215.732	-5.54
216.117	12.03
216.502	-47.81
216.888	25.26
217.273	41.14
217.658	20.97
218.043	32.25
218.428	7.95
218.813	-12.09
219.198	-0.02
219.583	5.31
219.968	18.51
220.353	3.75
220.738	11.14
221.122	34.29
221.507	7.26
221.892	2.56
222.276	-3.6
222.661	4.71
223.046	1.13
223.43	-0.69
223.815	-8.62
224.199	11.03
224.583	-0.63
224.968	7.16
225.352	3.64
225.736	5.66
226.121	8.36
226.505	3.28
226.889	3.01
227.273	15.84
227.657	4.99
228.041	4.19
228.425	4.45
228.809	0.59
229.193	2.57
229.577	4.24
229.961	3.39
230.344	3.16
230.728	3.02
231.112	3.61
231.495	3.91
231.879	4.87
232.263	3.8
232.646	2.91
233.03	2.51
233.413	2.88
233.797	2.92
234.18	3.8
234.563	4.08
234.946	2.95
235.33	2.26
235.713	3.03
236.096	2.98
236.479	3.92
236.862	1.59
237.245	3.06
237.628	2.95
238.011	3.66
238.394	3.16
238.777	1.64
239.16	2.05
239.543	3.03
239.925	2.69
240.308	3.44
240.691	2.69
241.073	3.82
241.456	2.48
241.838	3.72
242.221	2.7
242.603	2.39
242.986	2.38
243.368	3.22
243.75	3.1
244.133	2.97
244.515	2.96
244.897	3.49
245.279	3.1
245.661	3.71
246.043	3.52
246.425	4.13
246.807	2.1
247.189	2.92
247.571	2.59
247.953	2.85
248.335	3.22
248.717	3.27
249.098	2.95
249.48	2.97
249.862	2.69
250.243	3.37
250.625	2.78
251.006	4.32
251.388	3.26
251.769	3.31
252.151	3.42
252.532	3.62
252.913	2.77
253.295	3.05
253.676	2.87
254.057	2.82
254.438	3.16
254.819	2.89
255.2	4.42
255.581	2.96
255.962	2.58
256.343	2.38
256.724	2.55
257.105	3.56
257.486	3.17
257.867	3.7
258.247	3.15
258.628	2.97
259.009	2.65
259.389	3.34
259.77	3
260.15	3.36
260.531	2.69
260.911	2.81
261.292	2.73
261.672	2.6
262.052	3.06
262.432	3.13
262.813	2.52
263.193	2.76
263.573	3.16
263.953	2.56
264.333	2.94
264.713	2.89
265.093	2.62
265.473	2.06
265.853	2.38
266.233	3.18
266.612	2.63
266.992	2.16
267.372	2.66
267.752	3.21
268.131	2.63
268.511	2.51
268.89	2.88
269.27	3.21
269.649	3.11
270.029	2.52
270.408	2.45
270.787	3.16
271.167	2.29
271.546	2.77
271.925	2.92
272.304	2.87
272.683	2.53
273.062	2.71
273.441	2.76
273.82	3.32
274.199	2.59
274.578	2.52
274.957	2.3
275.336	2.75
275.715	2.68
276.093	2.75
276.472	2.39
276.851	1.91
277.229	2.61
277.608	2.18
277.986	2.67
278.365	2.6
278.743	3.08
279.122	2.58
279.5	2.6
279.878	3.24
280.257	2.42
280.635	2.53
281.013	2.99
281.391	2.68
281.769	2.54
282.147	2.73
282.525	3.27
282.903	2.81
283.281	2.66
283.659	2.34
284.037	3.06
284.415	3.16
284.792	2.46
285.17	2.78
285.548	2.76
285.925	2.67
286.303	2.79
286.68	2.61
287.058	2.58
287.435	2.41
287.813	2.28
288.19	2.71
288.567	2.21
288.945	3.28
289.322	2.45
289.699	2.63
290.076	2.58
290.453	2.72
290.83	2.34
291.207	2.21
291.584	2.75
291.961	2.56
292.338	2.97
292.715	2.83
293.092	2.4
293.469	2.8
293.845	2.15
294.222	2.64
294.599	2.93
294.975	2.6
295.352	2.4
295.728	2.06
296.105	2.63
296.481	2.6
296.858	2.9
297.234	2.58
297.61	2.39
297.986	2.61
298.363	2.64
298.739	2.65
299.115	2.61
299.491	2.82
299.867	2.43
300.243	2.32
300.619	2.47
300.995	2.77
301.371	2.69
301.746	2.07
302.122	2.83
302.498	2.81
302.874	2.24
303.249	2.27
303.625	2.63
304	2.73
304.376	2.93
304.751	2.98
305.127	2.79
305.502	3.01
305.878	2.29
306.253	2.55
306.628	2.64
307.003	2.74
307.378	2.28
307.754	3.24
308.129	2.63
308.504	3.41
308.879	3.16
309.254	2.39
309.629	3.13
310.003	2.4
310.378	2.89
310.753	2.33
311.128	2.86
311.502	3.04
311.877	2.84
312.252	2.27
312.626	2.76
313.001	2.88
313.375	2.67
313.75	2.72
314.124	2.85
314.498	2.47
314.873	2.83
315.247	3
315.621	2.69
315.995	2.36
316.369	2.74
316.743	3.33
317.117	2.61
317.491	2.62
317.865	2.76
318.239	2.69
318.613	2.63
318.987	2.2
319.361	2.44
319.734	2.82
320.108	2.74
320.482	2.45
320.855	2.84
321.229	2.67
321.602	3.34
321.976	2.53
322.349	2.79
322.723	2.91
323.096	3.09
323.469	3.01
323.843	2.19
324.216	2.48
324.589	2.72
324.962	2.88
325.335	2.53
325.708	3.06
326.081	2.64
326.454	2.71
326.827	2.19
327.2	2.49
327.573	2.97
327.945	2.56
328.318	2.94
328.691	2.82
329.063	2.5
329.436	2.46
329.809	2.89
330.181	2.57
330.553	2.88
330.926	2.62
331.298	2.4
331.671	2.04
332.043	2.88
332.415	3.11
332.787	2.85
333.159	2.4
333.532	2.89
333.904	2.62
334.276	3.03
334.648	2.39
335.02	2.54
335.391	2.59
335.763	2.72
336.135	2.76
336.507	2.23
336.879	2.81
337.25	2.57
337.622	2.61
337.993	2.26
338.365	2.41
338.736	2.65
339.108	3.23
339.479	2.31
339.851	2.82
340.222	2.4
340.593	2.95
340.964	3.1
341.336	2.39
341.707	2.84
342.078	3.12
342.449	2.97
342.82	2.89
343.191	3.15
343.562	2.6
343.933	2.49
344.303	2.53
344.674	3.04
345.045	3.13
345.416	2.74
345.786	2.53
346.157	2.64
346.527	2.76
346.898	2.8
347.268	2.99
347.639	2.44
348.009	3.18
348.38	2.69
348.75	2.81
349.12	2.96
349.49	2.82
349.861	2.83
350.231	2.78
350.601	2.79
350.971	3.22
351.341	2.63
351.711	2.96
352.081	2.79
352.45	2.58
352.82	2.76
353.19	2.38
353.56	2.8
353.929	2.82
354.299	2.51
354.669	2.91
355.038	2.98
355.408	2.87
355.777	2.81
356.147	3.03
356.516	2.88
356.885	2.97
357.254	2.96
357.624	3.03
357.993	3.22
358.362	2.76
358.731	2.98
359.1	2.27
359.469	2.66
359.838	2.65
360.207	2.91
360.576	2.89
360.945	2.53
361.314	2.86
361.682	2.84
362.051	2.79
362.42	2.79
362.788	2.55
363.157	2.77
363.525	2.73
363.894	2.85
364.262	3.2
364.631	2.78
364.999	2.92
365.367	2.57
365.735	2.98
366.104	2.57
366.472	2.77
366.84	3.21
367.208	3.01
367.576	3.01
367.944	2.87
368.312	2.66
368.68	2.97
369.048	2.84
369.416	3.01
369.783	2.92
370.151	2.53
370.519	2.79
370.886	3.12
371.254	2.69
371.621	3.03
371.989	3.07
372.356	2.7
372.724	2.93
373.091	2.9
373.458	2.68
373.826	2.93
374.193	2.75
374.56	2.92
374.927	2.56
375.294	2.87
375.661	2.87
376.028	2.53
376.395	2.86
376.762	3.22
377.129	2.78
377.496	2.85
377.863	2.78
378.229	3.13
378.596	2.83
378.963	2.53
379.329	3.02
379.696	2.91
380.062	2.97
380.429	3.01
380.795	2.83
381.161	3.09
381.528	2.91
381.894	2.86
382.26	2.9
382.626	2.81
382.993	2.98
383.359	2.96
383.725	3.4
384.091	3.27
384.457	3.07
384.823	3.06
385.188	2.81
385.554	2.68
385.92	2.83
386.286	3.08
386.651	2.78
387.017	3.05
387.383	2.82
387.748	2.96
388.114	3.08
388.479	3.32
388.845	2.75
389.21	2.81
389.575	2.96
389.94	2.78
390.306	2.84
390.671	3.14
391.036	3.21
391.401	3.34
391.766	2.89
392.131	2.71
392.496	2.95
392.861	2.67
393.226	2.84
393.591	2.99
393.956	2.81
394.32	3.19
394.685	3.13
395.05	3
395.414	2.91
395.779	3.16
396.143	3.13
396.508	3.08
396.872	2.83
397.236	2.99
397.601	3.25
397.965	3.2
398.329	2.86
398.694	3.17
399.058	3.08
399.422	2.77
399.786	3.04
400.15	2.99
400.514	3.12
400.878	3.19
401.242	2.96
401.605	2.98
401.969	3.07
402.333	2.88
402.697	3.01
403.06	3
403.424	2.97
403.787	3.12
404.151	2.99
404.514	3.03
404.878	3.1
405.241	2.97
405.604	3.24
405.968	2.86
406.331	3.15
406.694	3.04
407.057	2.95
407.42	2.89
407.783	2.97
408.146	3.32
408.509	3.13
408.872	3.07
409.235	2.91
409.598	3.02
409.961	3.06
410.323	2.85
410.686	3.15
411.049	3.11
411.411	2.95
411.774	3.1
412.136	3.09
412.499	3.07
412.861	3.16
413.223	3.27
413.586	3.22
413.948	3.07
414.31	3.07
414.672	3.01
415.035	3.35
415.397	3.15
415.759	2.98
416.121	3.17
416.483	3.01
416.845	3.12
417.206	2.98
417.568	2.94
417.93	3.09
418.292	3.23
418.653	3.14
419.015	3.05
419.377	3.01
419.738	3.05
420.1	3.03
420.461	2.93
420.822	2.9
421.184	3.09
421.545	3.03
421.906	3
422.267	2.92
422.629	2.98
422.99	3.02
423.351	3
423.712	3.02
424.073	3.11
424.434	3.01
424.795	3.06
425.155	2.97
425.516	3.05
425.877	3
426.238	3.11
426.598	3.09
426.959	3.29
427.32	2.92
427.68	3.18
428.041	3.03
428.401	3.1
428.761	3.26
429.122	2.99
429.482	3.14
429.842	3.18
430.202	3.24
430.563	3.27
430.923	3.17
431.283	3.12
431.643	3.17
432.003	3.35
432.363	3.02
432.722	3.01
433.082	3.25
433.442	3.12
433.802	3.3
434.161	3.14
434.521	2.92
434.881	3.23
435.24	3.16
435.6	3.17
435.959	3.22
436.319	3.2
436.678	3.15
437.037	3.25
437.396	3.11
437.756	3.28
438.115	3.16
438.474	3.24
438.833	3.24
439.192	3.39
439.551	3.21
439.91	3.06
440.269	3.08
440.628	3.23
440.987	3.17
441.345	3.22
441.704	3.02
442.063	3.08
442.421	3.17
442.78	3.2
443.138	3.1
443.497	3.3
443.855	3.14
444.214	3.15
444.572	3.17
444.93	3.13
445.288	3.18
445.647	3.09
446.005	3.23
446.363	3.11
446.721	3.12
447.079	3.09
447.437	3.17
447.795	3.17
448.153	3.19
448.51	3.15
448.868	3.11
449.226	3.11
449.584	3.19
449.941	3.23
450.299	3.24
450.656	3.24
451.014	3.15
451.371	3.18
451.729	3.29
452.086	3.42
452.443	3.34
452.801	3.32
453.158	3.25
453.515	3.24
453.872	3.2
454.229	3.18
454.586	3.39
454.943	3.23
455.3	3.44
455.657	3.32
456.014	3.14
456.371	3.24
456.727	3.4
457.084	3.28
457.441	3.31
457.797	3.18
458.154	3.36
458.51	3.32
458.867	3.25
459.223	3.27
459.58	3.38
459.936	3.22
460.292	3.3
460.648	3.23
461.005	3.21
461.361	3.18
461.717	3.18
462.073	3.22
462.429	3.35
462.785	3.28
463.141	3.39
463.496	3.2
463.852	3.17
464.208	3.35
464.564	3.31
464.919	3.31
465.275	3.24
465.631	3.35
465.986	3.4
466.342	3.31
466.697	3.22
467.052	3.43
467.408	3.29
467.763	3.31
468.118	3.37
468.473	3.27
468.829	3.31
469.184	3.44
469.539	3.28
469.894	3.29
470.249	3.3
470.603	3.3
470.958	3.31
471.313	3.29
471.668	3.34
472.023	3.32
472.377	3.42
472.732	3.32
473.086	3.4
473.441	3.35
473.795	3.33
474.15	3.46
474.504	3.4
474.859	3.37
475.213	3.34
475.567	3.39
475.921	3.45
476.275	3.43
476.63	3.34
476.984	3.51
477.338	3.4
477.692	3.3
478.045	3.33
478.399	3.48
478.753	3.59
479.107	3.44
479.461	3.37
479.814	3.36
480.168	3.31
480.521	3.36
480.875	3.45
481.228	3.43
481.582	3.4
481.935	3.46
482.289	3.41
482.642	3.4
482.995	3.39
483.348	3.37
483.701	3.37
484.055	3.28
484.408	3.28
484.761	3.11
485.114	3.11
485.466	3.14
485.819	3.22
486.172	3.28
486.525	3.31
486.878	3.42
487.23	3.4
487.583	3.38
487.936	3.29
488.288	3.3
488.641	3.26
488.993	3.25
489.345	3.23
489.698	3.25
490.05	3.31
490.402	3.3
490.754	3.37
491.107	3.47
491.459	3.44
491.811	3.43
492.163	3.46
492.515	3.29
492.866	3.3
493.218	3.28
493.57	3.34
493.922	3.4
494.274	3.44
494.625	3.46
494.977	3.5
495.328	3.5
495.68	3.52
496.031	3.62
496.383	3.58
496.734	3.57
497.086	3.39
497.437	3.53
497.788	3.46
498.139	3.45
498.49	3.46
498.842	3.5
499.193	3.41
499.544	3.45
499.894	3.58
500.245	3.51
500.596	3.5
500.947	3.47
501.298	3.53
501.648	3.57
501.999	3.46
502.35	3.67
502.7	3.71
503.051	3.67
503.401	3.62
503.752	3.54
504.102	3.6
504.452	3.53
504.803	3.56
505.153	3.74
505.503	3.55
505.853	3.69
506.203	3.51
506.553	3.57
506.903	3.66
507.253	3.64
507.603	3.6
507.953	3.51
508.303	3.6
508.652	3.72
509.002	3.64
509.352	3.47
509.701	3.79
510.051	3.49
510.4	3.64
510.75	3.67
511.099	3.73
511.449	3.59
511.798	3.64
512.147	3.69
512.496	3.64
512.846	3.72
513.195	3.73
513.544	3.67
513.893	3.63
514.242	3.7
514.591	3.71
514.939	3.59
515.288	3.59
515.637	3.62
515.986	3.76
516.334	3.69
516.683	3.75
517.032	3.7
517.38	3.63
517.729	3.56
518.077	3.73
518.426	3.61
518.774	3.62
519.122	3.73
519.47	3.73
519.819	3.61
520.167	3.65
520.515	3.74
520.863	3.77
521.211	3.69
521.559	3.84
521.907	3.77
522.255	3.83
522.602	3.87
522.95	3.83
523.298	3.93
523.645	3.75
523.993	3.82
524.341	3.86
524.688	3.95
525.036	3.82
525.383	3.88
525.73	3.74
526.078	3.72
526.425	3.85
526.772	3.76
527.119	3.7
527.466	3.81
527.814	3.81
528.161	3.88
528.508	3.82
528.854	3.74
529.201	3.77
529.548	3.67
529.895	3.63
530.242	3.57
530.588	3.72
530.935	3.77
531.282	3.77
531.628	3.8
531.975	3.82
532.321	3.81
532.667	3.95
533.014	3.91
533.36	4.01
533.706	3.91
534.052	3.87
534.399	3.85
534.745	3.83
535.091	3.82
535.437	3.89
535.783	3.89
536.129	3.99
536.474	4
536.82	4.04
537.166	4.03
537.512	3.97
537.857	3.87
538.203	3.98
538.549	4.07
538.894	4.03
539.239	4.07
539.585	4.21
539.93	4.2
540.276	4.17
540.621	4.21
540.966	4.07
541.311	4.15
541.656	4.07
542.001	3.95
542.346	3.96
542.691	3.89
543.036	4.01
543.381	4.01
543.726	4.11
544.071	4.1
544.415	4.13
544.76	4.12
545.105	4.13
545.449	4.27
545.794	4.25
546.138	4.15
546.483	4.16
546.827	4.34
547.171	4.24
547.516	4.31
547.86	4.15
548.204	4.31
548.548	4.27
548.892	4.26
549.236	4.28
549.58	4.35
549.924	4.38
550.268	4.42
550.612	4.41
550.956	4.43
551.3	4.61
551.643	4.43
551.987	4.47
552.33	4.37
552.674	4.53
553.017	4.46
553.361	4.47
553.704	4.65
554.048	4.52
554.391	4.53
554.734	4.37
555.077	4.4
555.42	4.61
555.764	4.62
556.107	4.53
556.45	4.85
556.793	4.61
557.135	4.69
557.478	4.62
557.821	4.71
558.164	4.73
558.507	4.71
558.849	4.53
559.192	4.62
559.534	4.95
559.877	4.64
560.219	4.69
560.562	4.73
560.904	4.81
561.246	4.92
561.589	4.77
561.931	4.97
562.273	4.64
562.615	4.95
562.957	4.86
563.299	4.95
563.641	4.97
563.983	4.92
564.325	4.92
564.667	4.98
565.008	4.73
565.35	4.92
565.692	4.95
566.033	4.98
566.375	4.85
566.716	5.06
567.058	4.88
567.399	5.13
567.741	4.75
568.082	4.89
568.423	5.02
568.764	4.99
569.105	5.13
569.447	5.2
569.788	5.11
570.129	5.09
570.47	5.1
570.811	4.92
571.151	5.06
571.492	5.11
571.833	5.13
572.174	5.13
572.514	5.35
572.855	5.19
573.195	5.28
573.536	5.07
573.876	5.15
574.217	5.2
574.557	5.05
574.898	5.25
575.238	5.21
575.578	5.23
575.918	5.21
576.258	5.23
576.598	5.35
576.938	5.42
577.278	5.48
577.618	5.26
577.958	5.41
578.298	5.3
578.638	5.49
578.977	5.58
579.317	5.49
579.657	5.26
579.996	5.46
580.336	5.47
580.675	5.47
581.014	5.6
581.354	5.64
581.693	5.6
582.032	5.44
582.372	5.63
582.711	5.67
583.05	5.62
583.389	5.77
583.728	5.63
584.067	5.74
584.406	5.81
584.745	5.7
585.083	5.63
585.422	5.93
585.761	5.97
586.1	5.86
586.438	5.92
586.777	5.77
587.115	5.84
587.454	5.83
587.792	5.96
588.13	6.05
588.469	5.81
588.807	6.07
589.145	5.8
589.483	6.07
589.821	5.97
590.159	5.99
590.497	6.05
590.835	6
591.173	5.85
591.511	6.12
591.849	6.05
592.187	5.96
592.524	6.36
592.862	6.14
593.2	6.07
593.537	6.24
593.875	6.35
594.212	6.4
594.55	5.97
594.887	6.37
595.224	6.53
595.561	6.07
595.899	6.25
596.236	6.18
596.573	6.49
596.91	6.33
597.247	6.54
597.584	6.32
597.921	6.3
598.258	6.56
598.594	6.52
598.931	6.5
599.268	6.21
599.604	6.52
599.941	6.54
600.277	6.58
600.614	6.57
600.95	6.64
601.287	6.81
601.623	6.91
601.959	6.39
602.296	6.65
602.632	6.64
602.968	6.43
603.304	6.62
603.64	6.78
603.976	6.81
604.312	6.83
604.648	6.73
604.984	6.8
605.319	6.95
605.655	6.73
605.991	6.91
606.326	6.81
606.662	6.77
606.998	6.94
607.333	6.96
607.668	7.03
608.004	7.02
608.339	6.9
608.674	7.11
609.01	7.08
609.345	7
609.68	6.95
610.015	7.21
610.35	7.24
610.685	7.16
611.02	7.03
611.355	7.19
611.689	7
612.024	6.95
612.359	6.97
612.694	7.2
613.028	7.37
613.363	7.35
613.697	7.49
614.032	7.57
614.366	7.58
614.7	7.22
615.035	7.36
615.369	7.32
615.703	7.68
616.037	7.47
616.371	7.51
616.705	7.37
617.039	7.79
617.373	7.42
617.707	7.61
618.041	7.54
618.375	7.4
618.709	7.73
619.042	7.56
619.376	7.86
619.71	7.94
620.043	7.47
620.377	8.09
620.71	7.55
621.043	7.95
621.377	7.78
621.71	7.53
622.043	7.6
622.376	7.92
622.709	7.93
623.043	7.84
623.376	7.72
623.709	8.07
624.041	8.09
624.374	8.14
624.707	7.74
625.04	7.91
625.373	8.25
625.705	8.15
626.038	8.15
626.37	8.03
626.703	8.13
627.035	7.98
627.368	7.97
627.7	8.25
628.032	8.27
628.365	8.32
628.697	8.37
629.029	8.23
629.361	7.96
629.693	8.31
630.025	8.44
630.357	8.44
630.689	8.46
631.021	8.32
631.353	8.59
631.684	8.74
632.016	8.74
632.348	8.54
632.679	8.61
633.011	8.77
633.342	8.23
633.674	8.72
634.005	8.39
634.336	8.81
634.668	8.06
634.999	8.55
635.33	8.77
635.661	8.75
635.992	8.82
636.323	8.99
636.654	8.78
636.985	8.86
637.316	8.44
637.647	8.61
637.977	9.2
638.308	9.06
638.639	9.13
638.969	8.56
639.3	8.87
639.63	9.02
639.961	8.65
640.291	8.88
640.622	8.96
640.952	9.15
641.282	9.36
641.612	8.87
641.943	8.98
642.273	9.38
642.603	9.25
642.933	9.26
643.263	9.28
643.592	9.07
643.922	9.46
644.252	8.79
644.582	9.67
644.911	9.91
645.241	9.41
645.571	9.37
645.9	9.17
646.23	9.21
646.559	9.31
646.888	9.72
647.218	9.83
647.547	9.49
647.876	9.17
648.205	9.88
648.534	9.16
648.863	9.73
649.192	9.65
649.521	9.6
649.85	9.92
650.179	9.7
650.508	9.99
650.837	10.08
651.165	9.93
651.494	9.55
651.822	9.82
652.151	9.88
652.479	10
652.808	9.89
653.136	9.66
653.465	10.05
653.793	10.6
654.121	9.97
654.449	10.38
654.777	10.27
655.105	9.93
655.433	9.82
655.761	10.24
656.089	10.27
656.417	10.7
656.745	9.93
657.073	10.41
657.4	10.14
657.728	10.11
658.056	9.95
658.383	10.69
658.711	10.12
659.038	10.78
659.365	10.68
659.693	10.54
660.02	10.55
660.347	10.39
660.674	10.64
661.001	10.41
661.329	10.69
661.656	10.59
661.982	10.7
662.309	10.76
662.636	11
662.963	11.01
663.29	11
663.616	10.5
663.943	10.66
664.27	11.16
664.596	10.34
664.923	10.66
665.249	10.26
665.576	10.67
665.902	10.87
666.228	10.66
666.554	10.88
666.881	11.19
667.207	10.88
667.533	11.36
667.859	10.94
668.185	10.82
668.511	10.33
668.837	10.57
669.162	10.65
669.488	11.11
669.814	11.23
670.139	11.01
670.465	11.48
670.791	11.2
671.116	11.54
671.442	10.94
671.767	11.5
672.092	11.67
672.418	11.36
672.743	11.3
673.068	11.61
673.393	11.99
673.718	11.65
674.043	10.98
674.368	11.33
674.693	11.45
675.018	11.07
675.343	11.87
675.667	11.59
675.992	11.4
676.317	12.17
676.641	12.73
676.966	12.02
677.29	11.84
677.615	11.36
677.939	11.72
678.264	11.99
678.588	12.04
678.912	11.31
679.236	11.59
679.56	11.52
679.885	12
680.209	11.82
680.532	12.11
680.856	11.87
681.18	12.04
681.504	12.14
681.828	11.91
682.152	11.92
682.475	12.25
682.799	11.38
683.122	11.99
683.446	12.12
683.769	12.2
684.093	12.45
684.416	12.59
684.739	12.53
685.062	12.16
685.386	11.8
685.709	12.45
686.032	12.2
686.355	12.3
686.678	12.5
687.001	12.85
687.324	12.98
687.646	12.17
687.969	13.34
688.292	12.46
688.614	12.57
688.937	12.81
689.26	12.75
689.582	12.6
689.904	13.32
690.227	13.34
