Data from 0024_chest_Reflection__1__62.txt Node

Date: Thu Oct 20 20:50:37 CDT 2022
User: ToomeyLab
Spectrometer: FLMS14357
Trigger mode: 0
Integration Time (sec): 1.000000E-2
Scans to average: 100
Electric dark correction enabled: true
Nonlinearity correction enabled: false
Boxcar width: 0
XAxis mode: Wavelengths
Number of Pixels in Spectrum: 2048
>>>>>Begin Spectral Data<<<<<
189.047	127.09
189.435	127.09
189.823	127.09
190.211	90.42
190.599	-16.35
190.987	-37.28
191.375	52.46
191.763	48.62
192.151	24.12
192.538	-577.42
192.926	79.36
193.314	-160.62
193.702	161.49
194.089	861.46
194.477	932.02
194.864	58.07
195.252	60.86
195.639	236.98
196.027	168.81
196.414	-20
196.801	73.78
197.189	-34.04
197.576	46.94
197.963	12.98
198.351	-54.98
198.738	4.59
199.125	38.26
199.512	5.93
199.899	55.09
200.286	-18.07
200.673	22.8
201.06	-3.17
201.447	-13.81
201.833	16.24
202.22	27.09
202.607	-27.13
202.994	21.85
203.38	-0.32
203.767	-21.46
204.154	-13.14
204.54	-3.25
204.927	-1.78
205.313	-30.55
205.699	6.22
206.086	-31.85
206.472	42.65
206.858	-0.23
207.245	32.52
207.631	-31.15
208.017	26.78
208.403	-7.52
208.789	-87.18
209.175	-76.1
209.561	-76.49
209.947	-15.06
210.333	6.37
210.719	-11.96
211.105	-2.15
211.491	9.97
211.876	-12.85
212.262	-3.43
212.648	-62.72
213.034	-27.91
213.419	-8.43
213.805	-11.78
214.19	-92.34
214.576	20.64
214.961	21.85
215.346	-27.09
215.732	-38.79
216.117	23.15
216.502	-87.48
216.888	-36.24
217.273	27.8
217.658	-20.66
218.043	8.81
218.428	-4.9
218.813	-33.4
219.198	-25.52
219.583	0.89
219.968	8.25
220.353	-12.16
220.738	-2.2
221.122	14.26
221.507	11.61
221.892	-4.01
222.276	6.34
222.661	5.14
223.046	9.52
223.43	3.1
223.815	-8.22
224.199	9.52
224.583	0.81
224.968	3.48
225.352	7.75
225.736	7.31
226.121	13.54
226.505	-1.71
226.889	13.17
227.273	5.35
227.657	3.19
228.041	3.03
228.425	3.59
228.809	3.85
229.193	2.12
229.577	3.44
229.961	3.09
230.344	3.77
230.728	4.06
231.112	3.72
231.495	2.86
231.879	4.17
232.263	4.28
232.646	5.11
233.03	3.31
233.413	2.88
233.797	1.73
234.18	3.8
234.563	2.23
234.946	2.75
235.33	2.48
235.713	2.03
236.096	2.8
236.479	2.8
236.862	2.38
237.245	3.57
237.628	3.79
238.011	5.87
238.394	2.33
238.777	2.27
239.16	3.11
239.543	3.54
239.925	3.31
240.308	3.76
240.691	3.97
241.073	2.89
241.456	2.63
241.838	3.72
242.221	2.63
242.603	3.38
242.986	3.19
243.368	3.88
243.75	3.77
244.133	3.5
244.515	3.12
244.897	3.84
245.279	4.04
245.661	4.57
246.043	3.59
246.425	3.43
246.807	3.33
247.189	3.09
247.571	3.38
247.953	3.55
248.335	3.76
248.717	3.78
249.098	3.63
249.48	3.6
249.862	3.29
250.243	3.38
250.625	3.32
251.006	4.29
251.388	2.6
251.769	4.87
252.151	3.13
252.532	3.27
252.913	2.58
253.295	3.6
253.676	3.79
254.057	3.41
254.438	3.85
254.819	3.03
255.2	3.83
255.581	3.69
255.962	3.26
256.343	3.81
256.724	3.1
257.105	4.5
257.486	3.14
257.867	4.13
258.247	3.98
258.628	4.03
259.009	3.18
259.389	3.33
259.77	3.45
260.15	3.47
260.531	3.42
260.911	3.32
261.292	3.36
261.672	3.25
262.052	3.2
262.432	3.65
262.813	2.72
263.193	3.32
263.573	2.97
263.953	3.54
264.333	3.34
264.713	3.85
265.093	3.5
265.473	2.88
265.853	3.48
266.233	3.42
266.612	3.23
266.992	2.66
267.372	2.77
267.752	3.74
268.131	2.83
268.511	3.35
268.89	2.79
269.27	2.87
269.649	3.88
270.029	3.98
270.408	3.12
270.787	3.48
271.167	3.24
271.546	3.69
271.925	3.35
272.304	3.23
272.683	3.25
273.062	3.01
273.441	3.66
273.82	3.97
274.199	2.95
274.578	3
274.957	2.87
275.336	2.86
275.715	2.92
276.093	3.65
276.472	3.39
276.851	2.77
277.229	3.24
277.608	3.11
277.986	3.12
278.365	3.23
278.743	3.2
279.122	3.53
279.5	3.2
279.878	2.8
280.257	2.28
280.635	3.73
281.013	3.15
281.391	3.19
281.769	3.12
282.147	3.33
282.525	3.48
282.903	3.24
283.281	3.37
283.659	3.12
284.037	3.27
284.415	3.29
284.792	2.86
285.17	3.35
285.548	2.9
285.925	2.74
286.303	3.22
286.68	3.07
287.058	3
287.435	3.35
287.813	2.74
288.19	3.19
288.567	2.88
288.945	3.34
289.322	3.07
289.699	2.98
290.076	3.07
290.453	2.73
290.83	2.94
291.207	2.82
291.584	3.07
291.961	2.87
292.338	3.27
292.715	3.08
293.092	3.01
293.469	3.64
293.845	2.78
294.222	3.4
294.599	3.28
294.975	3.33
295.352	2.96
295.728	3.03
296.105	2.78
296.481	3.23
296.858	3.62
297.234	2.88
297.61	3.49
297.986	3.08
298.363	3.04
298.739	3.05
299.115	3.19
299.491	3.36
299.867	3.18
300.243	2.98
300.619	3.12
300.995	2.85
301.371	3.35
301.746	3.16
302.122	3.67
302.498	3.41
302.874	2.68
303.249	2.62
303.625	2.89
304	2.99
304.376	3.45
304.751	3.41
305.127	3.38
305.502	3.23
305.878	2.88
306.253	2.92
306.628	3.09
307.003	3.06
307.378	3.06
307.754	3.54
308.129	3.09
308.504	3.73
308.879	3.31
309.254	3.38
309.629	3.4
310.003	3.1
310.378	3.29
310.753	2.94
311.128	3.27
311.502	3.68
311.877	3.08
312.252	3.09
312.626	3.29
313.001	3.28
313.375	3.13
313.75	2.95
314.124	2.94
314.498	3.03
314.873	3.69
315.247	3.23
315.621	3.29
315.995	3.16
316.369	3.04
316.743	3.71
317.117	3.7
317.491	3.19
317.865	3.11
318.239	2.92
318.613	3.29
318.987	3.17
319.361	3.07
319.734	3.34
320.108	2.44
320.482	3.07
320.855	3.45
321.229	3.16
321.602	3.28
321.976	3.6
322.349	3.75
322.723	3.38
323.096	3.15
323.469	3.54
323.843	2.99
324.216	2.71
324.589	3.05
324.962	3.6
325.335	2.61
325.708	3.66
326.081	3.63
326.454	3.52
326.827	2.79
327.2	3.16
327.573	3.52
327.945	3.26
328.318	3.1
328.691	3.86
329.063	3.46
329.436	3.25
329.809	3.55
330.181	2.95
330.553	2.77
330.926	3.43
331.298	2.62
331.671	2.54
332.043	3.57
332.415	3.44
332.787	3.63
333.159	3.47
333.532	3.51
333.904	3.27
334.276	2.91
334.648	3.33
335.02	3.16
335.391	2.51
335.763	3.39
336.135	3.29
336.507	3.66
336.879	3.01
337.25	3.29
337.622	2.86
337.993	3.14
338.365	3.07
338.736	3.28
339.108	3.24
339.479	2.7
339.851	3.12
340.222	2.92
340.593	3
340.964	3.77
341.336	3.13
341.707	3.41
342.078	3.05
342.449	3.53
342.82	3.42
343.191	3.67
343.562	3.7
343.933	3.29
344.303	2.94
344.674	3.51
345.045	3.78
345.416	2.98
345.786	3.39
346.157	3.32
346.527	3.2
346.898	3.43
347.268	3.39
347.639	2.97
348.009	4.02
348.38	3.07
348.75	3.57
349.12	3.6
349.49	3.24
349.861	3.68
350.231	3.11
350.601	3.68
350.971	3.53
351.341	3.67
351.711	3.61
352.081	3.79
352.45	3.5
352.82	3.61
353.19	3.59
353.56	3.16
353.929	3.62
354.299	3.15
354.669	3.41
355.038	3.35
355.408	3.48
355.777	3.36
356.147	3.43
356.516	3.37
356.885	3.69
357.254	3.72
357.624	3.52
357.993	3.76
358.362	3.14
358.731	3.79
359.1	2.84
359.469	3.33
359.838	3.54
360.207	3.29
360.576	3.53
360.945	3.1
361.314	3.36
361.682	3.65
362.051	3.34
362.42	3.47
362.788	3.22
363.157	3.44
363.525	3.32
363.894	3.28
364.262	3.45
364.631	3.3
364.999	3.5
365.367	3.29
365.735	3.44
366.104	3.36
366.472	3.49
366.84	3.61
367.208	3.55
367.576	3.44
367.944	3.27
368.312	3.48
368.68	3.37
369.048	3.29
369.416	3.3
369.783	3.28
370.151	2.95
370.519	3.55
370.886	3.61
371.254	3.16
371.621	3.4
371.989	3.65
372.356	3.5
372.724	3.44
373.091	3.24
373.458	3.38
373.826	3.47
374.193	3.5
374.56	3.44
374.927	3.53
375.294	3.12
375.661	3.42
376.028	3.62
376.395	3.49
376.762	3.72
377.129	3.31
377.496	3.2
377.863	3.23
378.229	3.82
378.596	3.6
378.963	3.42
379.329	3.47
379.696	3.11
380.062	3.22
380.429	3.73
380.795	3.37
381.161	3.35
381.528	3.75
381.894	3.49
382.26	3.55
382.626	3.68
382.993	3.62
383.359	3.38
383.725	3.92
384.091	3.93
384.457	3.7
384.823	3.47
385.188	3.41
385.554	3.53
385.92	3.42
386.286	3.62
386.651	3.48
387.017	3.29
387.383	3.4
387.748	3.59
388.114	3.67
388.479	3.77
388.845	3.49
389.21	3.47
389.575	3.8
389.94	3.21
390.306	3.79
390.671	3.5
391.036	3.79
391.401	3.9
391.766	3.46
392.131	3.3
392.496	3.46
392.861	3.57
393.226	3.43
393.591	3.73
393.956	3.63
394.32	3.61
394.685	3.8
395.05	3.71
395.414	3.86
395.779	3.7
396.143	3.79
396.508	3.75
396.872	3.9
397.236	3.44
397.601	3.64
397.965	3.84
398.329	3.66
398.694	3.81
399.058	3.66
399.422	3.36
399.786	3.62
400.15	3.65
400.514	3.89
400.878	3.59
401.242	3.54
401.605	3.75
401.969	3.74
402.333	3.6
402.697	3.9
403.06	3.63
403.424	3.49
403.787	3.86
404.151	3.64
404.514	3.74
404.878	3.71
405.241	3.91
405.604	3.77
405.968	3.61
406.331	3.66
406.694	3.7
407.057	3.61
407.42	3.41
407.783	3.54
408.146	3.56
408.509	3.58
408.872	3.82
409.235	3.58
409.598	3.55
409.961	3.61
410.323	3.52
410.686	3.86
411.049	3.56
411.411	3.76
411.774	3.86
412.136	3.83
412.499	3.53
412.861	3.71
413.223	3.71
413.586	3.71
413.948	3.68
414.31	3.74
414.672	3.7
415.035	4.02
415.397	3.95
415.759	4
416.121	3.73
416.483	3.54
416.845	3.74
417.206	3.58
417.568	3.74
417.93	3.69
418.292	3.82
418.653	3.74
419.015	3.64
419.377	3.64
419.738	3.85
420.1	3.73
420.461	3.75
420.822	3.68
421.184	3.7
421.545	3.74
421.906	3.59
422.267	3.73
422.629	3.63
422.99	3.74
423.351	3.66
423.712	3.69
424.073	3.64
424.434	3.63
424.795	3.8
425.155	3.66
425.516	3.69
425.877	3.76
426.238	3.71
426.598	3.7
426.959	3.9
427.32	3.79
427.68	3.78
428.041	3.79
428.401	3.82
428.761	3.88
429.122	3.67
429.482	3.82
429.842	3.79
430.202	3.91
430.563	3.78
430.923	3.75
431.283	3.74
431.643	3.77
432.003	3.9
432.363	3.58
432.722	3.73
433.082	3.76
433.442	3.72
433.802	4.01
434.161	3.73
434.521	3.62
434.881	3.81
435.24	3.77
435.6	3.85
435.959	3.79
436.319	3.92
436.678	3.91
437.037	4
437.396	3.83
437.756	3.93
438.115	3.93
438.474	3.88
438.833	3.79
439.192	3.97
439.551	3.85
439.91	3.87
440.269	3.84
440.628	4.01
440.987	3.82
441.345	4
441.704	3.78
442.063	3.76
442.421	3.81
442.78	3.83
443.138	3.83
443.497	3.97
443.855	3.94
444.214	3.86
444.572	3.98
444.93	3.86
445.288	4
445.647	3.93
446.005	3.8
446.363	3.75
446.721	3.79
447.079	3.89
447.437	3.93
447.795	3.8
448.153	3.87
448.51	3.85
448.868	3.78
449.226	3.89
449.584	3.73
449.941	3.91
450.299	3.82
450.656	3.87
451.014	3.82
451.371	3.93
451.729	3.9
452.086	3.74
452.443	4.02
452.801	3.85
453.158	4.01
453.515	3.93
453.872	4.02
454.229	3.91
454.586	4
454.943	3.72
455.3	4.07
455.657	3.87
456.014	3.82
456.371	3.94
456.727	4.12
457.084	3.95
457.441	4.07
457.797	3.94
458.154	4.08
458.51	4.01
458.867	3.82
459.223	3.94
459.58	3.98
459.936	3.9
460.292	3.99
460.648	3.98
461.005	4
461.361	3.8
461.717	3.83
462.073	3.83
462.429	4.04
462.785	3.99
463.141	4.05
463.496	3.93
463.852	3.74
464.208	4.05
464.564	3.92
464.919	3.9
465.275	4.07
465.631	3.97
465.986	4
466.342	4.16
466.697	4.02
467.052	3.99
467.408	3.94
467.763	3.9
468.118	3.99
468.473	4.1
468.829	4.01
469.184	4.13
469.539	3.98
469.894	4.01
470.249	4.11
470.603	4.08
470.958	4.08
471.313	4.02
471.668	4.15
472.023	3.87
472.377	4.22
472.732	4.15
473.086	4.18
473.441	4.14
473.795	3.97
474.15	4.07
474.504	4.08
474.859	4.04
475.213	4.17
475.567	3.97
475.921	4.03
476.275	4.15
476.63	3.99
476.984	4.15
477.338	4.06
477.692	4.04
478.045	4.04
478.399	4.08
478.753	4.17
479.107	4.12
479.461	4.18
479.814	4.02
480.168	3.97
480.521	4.01
480.875	4.1
481.228	4.26
481.582	4.15
481.935	4.12
482.289	4.09
482.642	4.33
482.995	4.11
483.348	4.12
483.701	4.1
484.055	4.06
484.408	4.02
484.761	3.92
485.114	3.88
485.466	3.95
485.819	3.96
486.172	3.96
486.525	3.99
486.878	4.04
487.23	4.07
487.583	4.06
487.936	4.06
488.288	4.03
488.641	4.02
488.993	4
489.345	3.99
489.698	4.03
490.05	4.07
490.402	4.05
490.754	4.06
491.107	4.16
491.459	4.19
491.811	4.24
492.163	4.1
492.515	4.09
492.866	4.09
493.218	4.09
493.57	4.05
493.922	4.17
494.274	4.18
494.625	4.19
494.977	4.17
495.328	4.25
495.68	4.2
496.031	4.3
496.383	4.25
496.734	4.24
497.086	4.24
497.437	4.31
497.788	4.33
498.139	4.32
498.49	4.24
498.842	4.28
499.193	4.24
499.544	4.29
499.894	4.27
500.245	4.13
500.596	4.38
500.947	4.32
501.298	4.34
501.648	4.38
501.999	4.32
502.35	4.32
502.7	4.48
503.051	4.34
503.401	4.42
503.752	4.26
504.102	4.27
504.452	4.36
504.803	4.3
505.153	4.28
505.503	4.41
505.853	4.44
506.203	4.23
506.553	4.26
506.903	4.45
507.253	4.47
507.603	4.28
507.953	4.39
508.303	4.34
508.652	4.4
509.002	4.47
509.352	4.35
509.701	4.61
510.051	4.46
510.4	4.35
510.75	4.38
511.099	4.45
511.449	4.34
511.798	4.38
512.147	4.43
512.496	4.36
512.846	4.51
513.195	4.49
513.544	4.36
513.893	4.51
514.242	4.46
514.591	4.49
514.939	4.4
515.288	4.4
515.637	4.55
515.986	4.54
516.334	4.49
516.683	4.62
517.032	4.6
517.38	4.45
517.729	4.4
518.077	4.61
518.426	4.45
518.774	4.48
519.122	4.6
519.47	4.53
519.819	4.47
520.167	4.48
520.515	4.57
520.863	4.55
521.211	4.54
521.559	4.63
521.907	4.64
522.255	4.57
522.602	4.6
522.95	4.61
523.298	4.6
523.645	4.64
523.993	4.66
524.341	4.54
524.688	4.74
525.036	4.69
525.383	4.7
525.73	4.64
526.078	4.52
526.425	4.66
526.772	4.68
527.119	4.57
527.466	4.66
527.814	4.64
528.161	4.74
528.508	4.65
528.854	4.61
529.201	4.65
529.548	4.59
529.895	4.57
530.242	4.52
530.588	4.53
530.935	4.59
531.282	4.61
531.628	4.6
531.975	4.69
532.321	4.67
532.667	4.81
533.014	4.78
533.36	4.77
533.706	4.71
534.052	4.73
534.399	4.75
534.745	4.74
535.091	4.75
535.437	4.77
535.783	4.76
536.129	4.78
536.474	4.8
536.82	4.84
537.166	4.82
537.512	4.86
537.857	4.84
538.203	4.83
538.549	4.91
538.894	4.9
539.239	4.92
539.585	4.98
539.93	4.95
540.276	4.94
540.621	5.02
540.966	5.01
541.311	5.09
541.656	4.96
542.001	4.93
542.346	4.92
542.691	4.93
543.036	4.91
543.381	5.02
543.726	4.95
544.071	5
544.415	5.06
544.76	5.04
545.105	5.09
545.449	5.17
545.794	5.17
546.138	5.11
546.483	5.17
546.827	5.24
547.171	4.99
547.516	5.22
547.86	5.2
548.204	5.25
548.548	5.17
548.892	5.23
549.236	5.33
549.58	5.32
549.924	5.24
550.268	5.4
550.612	5.31
550.956	5.37
551.3	5.44
551.643	5.45
551.987	5.37
552.33	5.51
552.674	5.52
553.017	5.36
553.361	5.57
553.704	5.53
554.048	5.4
554.391	5.53
554.734	5.45
555.077	5.44
555.42	5.47
555.764	5.7
556.107	5.53
556.45	5.57
556.793	5.5
557.135	5.72
557.478	5.61
557.821	5.68
558.164	5.85
558.507	5.77
558.849	5.74
559.192	5.83
559.534	5.8
559.877	5.57
560.219	5.91
560.562	5.85
560.904	5.7
561.246	5.92
561.589	5.83
561.931	5.95
562.273	5.84
562.615	5.81
562.957	5.92
563.299	5.92
563.641	6.04
563.983	6.04
564.325	5.97
564.667	5.87
565.008	5.83
565.35	5.99
565.692	5.99
566.033	6.14
566.375	5.86
566.716	5.95
567.058	5.9
567.399	6.18
567.741	5.98
568.082	6.02
568.423	6.13
568.764	6.09
569.105	6.23
569.447	6.3
569.788	6.33
570.129	6.11
570.47	5.96
570.811	6.07
571.151	6.4
571.492	6.18
571.833	6.15
572.174	6.15
572.514	6.48
572.855	6.23
573.195	6.27
573.536	6.25
573.876	6.38
574.217	6.36
574.557	6.4
574.898	6.42
575.238	6.32
575.578	6.55
575.918	6.33
576.258	6.52
576.598	6.41
576.938	6.64
577.278	6.44
577.618	6.46
577.958	6.57
578.298	6.37
578.638	6.62
578.977	6.75
579.317	6.55
579.657	6.75
579.996	6.58
580.336	6.54
580.675	6.73
581.014	6.91
581.354	6.77
581.693	6.66
582.032	6.93
582.372	6.7
582.711	6.58
583.05	6.86
583.389	6.88
583.728	6.89
584.067	6.88
584.406	7.02
584.745	6.97
585.083	6.99
585.422	7.03
585.761	7.12
586.1	6.79
586.438	7.07
586.777	6.91
587.115	7.04
587.454	7.12
587.792	7.46
588.13	7.25
588.469	7.13
588.807	7.23
589.145	7.27
589.483	7.42
589.821	7.29
590.159	7.25
590.497	7.34
590.835	7.31
591.173	7.23
591.511	7.11
591.849	7.38
592.187	7.33
592.524	7.51
592.862	7.55
593.2	7.38
593.537	7.51
593.875	7.8
594.212	7.6
594.55	7.33
594.887	7.54
595.224	7.67
595.561	7.49
595.899	7.59
596.236	7.73
596.573	7.81
596.91	7.82
597.247	7.62
597.584	7.64
597.921	7.67
598.258	7.63
598.594	7.81
598.931	7.75
599.268	7.63
599.604	7.76
599.941	7.79
600.277	7.66
600.614	8.09
600.95	8.17
601.287	7.87
601.623	8.03
601.959	7.98
602.296	7.98
602.632	8
602.968	7.86
603.304	8.12
603.64	8
603.976	8.23
604.312	8.18
604.648	8.08
604.984	8.45
605.319	8.32
605.655	8.15
605.991	8.33
606.326	8.35
606.662	8.14
606.998	8.22
607.333	8.3
607.668	8.44
608.004	8.39
608.339	8.26
608.674	8.35
609.01	8.22
609.345	8.55
609.68	8.44
610.015	8.56
610.35	8.49
610.685	8.61
611.02	8.6
611.355	8.78
611.689	8.74
612.024	8.56
612.359	8.59
612.694	8.77
613.028	9
613.363	8.67
613.697	8.72
614.032	9.04
614.366	8.82
614.7	8.66
615.035	8.99
615.369	8.69
615.703	9.1
616.037	8.73
616.371	9.19
616.705	8.77
617.039	9.19
617.373	8.75
617.707	8.52
618.041	9.1
618.375	8.84
618.709	9.42
619.042	9.36
619.376	9.15
619.71	9.24
620.043	9.02
620.377	9.36
620.71	9.5
621.043	9.12
621.377	9.39
621.71	9.17
622.043	9.16
622.376	9.3
622.709	9.47
623.043	9.47
623.376	9.04
623.709	9.33
624.041	9.5
624.374	9.68
624.707	9.78
625.04	9.82
625.373	9.73
625.705	9.9
626.038	9.77
626.37	9.57
626.703	9.85
627.035	9.61
627.368	9.87
627.7	9.75
628.032	9.74
628.365	9.84
628.697	9.98
629.029	10.22
629.361	9.84
629.693	9.74
630.025	10.49
630.357	10.06
630.689	9.93
631.021	9.72
631.353	10.33
631.684	10.04
632.016	10.53
632.348	10.52
632.679	10.22
633.011	10.34
633.342	10.1
633.674	10.35
634.005	10.15
634.336	10.51
634.668	10.1
634.999	10.61
635.33	10.44
635.661	10.52
635.992	10.5
636.323	10.55
636.654	10.39
636.985	10.49
637.316	10.3
637.647	10.58
637.977	10.81
638.308	10.53
638.639	11.04
638.969	10.58
639.3	10.53
639.63	11.06
639.961	10.75
640.291	10.6
640.622	10.95
640.952	10.88
641.282	11.28
641.612	11.01
641.943	11.09
642.273	11.14
642.603	10.99
642.933	11.18
643.263	11.09
643.592	10.72
643.922	11.08
644.252	10.66
644.582	10.67
644.911	11.73
645.241	11.89
645.571	11.14
645.9	10.67
646.23	10.99
646.559	11.43
646.888	11.43
647.218	11.88
647.547	11.46
647.876	11.28
648.205	11.24
648.534	10.84
648.863	11.05
649.192	11.82
649.521	12.11
649.85	11.7
650.179	11.18
650.508	11.69
650.837	11.97
651.165	12.26
651.494	12.11
651.822	11.55
652.151	11.8
652.479	12.34
652.808	12.12
653.136	11.83
653.465	12.36
653.793	11.97
654.121	11.86
654.449	12.21
654.777	12.37
655.105	11.88
655.433	12.05
655.761	12.21
656.089	12.23
656.417	12.25
656.745	11.83
657.073	12.27
657.4	12.46
657.728	12.05
658.056	12.18
658.383	12.63
658.711	11.9
659.038	12.36
659.365	12.83
659.693	12.57
660.02	12.68
660.347	12.34
660.674	12.57
661.001	12.66
661.329	12.61
661.656	12.72
661.982	12.79
662.309	12.47
662.636	12.75
662.963	12.92
663.29	12.92
663.616	12.41
663.943	12.81
664.27	13
664.596	12.6
664.923	12.88
665.249	12.27
665.576	12.9
665.902	13.15
666.228	13.05
666.554	13.04
666.881	13.02
667.207	12.95
667.533	13.27
667.859	13.17
668.185	13.49
668.511	12.12
668.837	13.17
669.162	12.52
669.488	12.76
669.814	13.82
670.139	13.13
670.465	13.24
670.791	13.44
671.116	13.33
671.442	13.03
671.767	14.1
672.092	13.56
672.418	13.34
672.743	13.46
673.068	13.99
673.393	14.54
673.718	13.33
674.043	12.77
674.368	13.75
674.693	13.77
675.018	13.35
675.343	13.96
675.667	13.75
675.992	13.73
676.317	14.61
676.641	14.76
676.966	14.26
677.29	14.18
677.615	13.44
677.939	14.34
678.264	14.33
678.588	14.2
678.912	14.03
679.236	14.53
679.56	13.26
679.885	14.3
680.209	14.25
680.532	13.53
680.856	14.11
681.18	14.19
681.504	14.82
681.828	14.33
682.152	14.03
682.475	14.81
682.799	13.84
683.122	14.56
683.446	14.69
683.769	14.34
684.093	14.33
684.416	14.51
684.739	14.43
685.062	14.35
685.386	14.37
685.709	14.72
686.032	14.21
686.355	15.22
686.678	14.36
687.001	15.37
687.324	15.2
687.646	14.76
687.969	14.88
688.292	15.02
688.614	15.3
