Data from 0024_forehead_Reflection__2__73.txt Node

Date: Thu Oct 20 20:53:39 CDT 2022
User: ToomeyLab
Spectrometer: FLMS14357
Trigger mode: 0
Integration Time (sec): 1.000000E-2
Scans to average: 100
Electric dark correction enabled: true
Nonlinearity correction enabled: false
Boxcar width: 0
XAxis mode: Wavelengths
Number of Pixels in Spectrum: 2048
>>>>>Begin Spectral Data<<<<<
189.047	77.55
189.435	77.55
189.823	77.55
190.211	110.84
190.599	177.82
190.987	19.12
191.375	67.11
191.763	-14.48
192.151	-70.96
192.538	-3712.9
192.926	164.32
193.314	-128.68
193.702	76.4
194.089	404.63
194.477	-795.22
194.864	-30.73
195.252	106.32
195.639	122.57
196.027	670.05
196.414	29.25
196.801	-12.15
197.189	15.36
197.576	330.34
197.963	-35.12
198.351	-23.69
198.738	2.81
199.125	42.11
199.512	23.52
199.899	9.63
200.286	-22.17
200.673	26.94
201.06	25.44
201.447	43.78
201.833	39.79
202.22	19.49
202.607	52.11
202.994	10.3
203.38	33.92
203.767	10.2
204.154	-9.55
204.54	-31.66
204.927	34.86
205.313	9.57
205.699	65.55
206.086	6.61
206.472	38.64
206.858	17.47
207.245	0.7
207.631	-21.61
208.017	60.82
208.403	22.18
208.789	-64.17
209.175	26.9
209.561	-22.26
209.947	-0.42
210.333	-8.24
210.719	13.23
211.105	-15.09
211.491	23.23
211.876	9.79
212.262	14.67
212.648	-39.21
213.034	-6.44
213.419	11.72
213.805	-11.39
214.19	2.32
214.576	23.94
214.961	15.63
215.346	-41.35
215.732	2.25
216.117	19.47
216.502	-34.88
216.888	9.36
217.273	26.46
217.658	18.12
218.043	22.77
218.428	26.73
218.813	14.14
219.198	23.56
219.583	-22.8
219.968	22.87
220.353	2.59
220.738	19.58
221.122	16.47
221.507	6.81
221.892	7.16
222.276	4.02
222.661	-5.1
223.046	19.66
223.43	15.06
223.815	-2.32
224.199	7.69
224.583	2.66
224.968	4.74
225.352	2.25
225.736	15.45
226.121	8.82
226.505	-7.03
226.889	9.71
227.273	17.67
227.657	5.14
228.041	2.6
228.425	4.31
228.809	2.3
229.193	1.8
229.577	2.95
229.961	2.45
230.344	2.87
230.728	2.63
231.112	2.53
231.495	2.22
231.879	1.83
232.263	3.04
232.646	2.23
233.03	2.79
233.413	3.01
233.797	2.28
234.18	3.82
234.563	1.99
234.946	2.75
235.33	0.92
235.713	1.73
236.096	2.86
236.479	3.96
236.862	1.52
237.245	1.74
237.628	3.15
238.011	3.57
238.394	3
238.777	4.18
239.16	2.15
239.543	2.79
239.925	3.04
240.308	2.2
240.691	3.18
241.073	3.36
241.456	2.34
241.838	2.79
242.221	2.9
242.603	1.79
242.986	2.68
243.368	3.11
243.75	2.32
244.133	2.18
244.515	3.17
244.897	3.19
245.279	3.1
245.661	2.97
246.043	3.35
246.425	3.85
246.807	3.17
247.189	2.57
247.571	2.53
247.953	2.38
248.335	2.7
248.717	2.67
249.098	2.66
249.48	2.4
249.862	2.51
250.243	2.61
250.625	2.67
251.006	3.64
251.388	2.53
251.769	3.07
252.151	2.54
252.532	2.66
252.913	2.46
253.295	2.92
253.676	3.07
254.057	2.72
254.438	3.32
254.819	3.77
255.2	3.42
255.581	3.2
255.962	3.78
256.343	2.95
256.724	3.24
257.105	3.91
257.486	2.62
257.867	4.11
258.247	3.37
258.628	2.63
259.009	1.89
259.389	3.28
259.77	2.39
260.15	2.38
260.531	2.62
260.911	2.32
261.292	2.51
261.672	2.39
262.052	2.64
262.432	2.72
262.813	3.27
263.193	2.49
263.573	2.75
263.953	2.4
264.333	2.5
264.713	2.93
265.093	3.2
265.473	2.68
265.853	2.97
266.233	2.53
266.612	2.84
266.992	2.09
267.372	1.85
267.752	2.83
268.131	2.12
268.511	2.71
268.89	2.11
269.27	2.2
269.649	2.98
270.029	2.73
270.408	2.51
270.787	2.54
271.167	2.41
271.546	2.69
271.925	3.01
272.304	3.04
272.683	2.62
273.062	2.73
273.441	2.75
273.82	2.85
274.199	2.45
274.578	2.33
274.957	2.2
275.336	2.81
275.715	2.38
276.093	2.7
276.472	3.11
276.851	2.11
277.229	2.55
277.608	2.45
277.986	2.31
278.365	2.68
278.743	2.58
279.122	2.53
279.5	2.74
279.878	2.93
280.257	2.34
280.635	3.03
281.013	3.12
281.391	2.74
281.769	3.04
282.147	2.71
282.525	2.58
282.903	2.64
283.281	2.91
283.659	2.24
284.037	2.72
284.415	2.63
284.792	2.13
285.17	2.77
285.548	2.24
285.925	2.58
286.303	2.73
286.68	2.53
287.058	2.53
287.435	2.57
287.813	2.42
288.19	2.67
288.567	2.37
288.945	2.92
289.322	2.58
289.699	2.74
290.076	2.43
290.453	2.77
290.83	2.5
291.207	2.67
291.584	2.6
291.961	2.58
292.338	2.96
292.715	2.73
293.092	2.41
293.469	2.65
293.845	2.94
294.222	2.92
294.599	3.32
294.975	3.24
295.352	2.19
295.728	2.54
296.105	2.92
296.481	2.96
296.858	3.16
297.234	2.91
297.61	2.5
297.986	2.81
298.363	3.28
298.739	3.02
299.115	3.14
299.491	3.1
299.867	2.94
300.243	2.77
300.619	2.79
300.995	3.01
301.371	2.75
301.746	3.07
302.122	3.26
302.498	3.23
302.874	2.9
303.249	2.97
303.625	2.92
304	2.94
304.376	3.54
304.751	3.32
305.127	3.39
305.502	3.21
305.878	3.04
306.253	3.42
306.628	2.83
307.003	3.13
307.378	3.31
307.754	3.84
308.129	3.95
308.504	3.72
308.879	3.63
309.254	2.85
309.629	3.66
310.003	3.51
310.378	3.51
310.753	3.53
311.128	3.18
311.502	3.81
311.877	3.28
312.252	3.34
312.626	3.58
313.001	3.73
313.375	3.46
313.75	3.62
314.124	4.11
314.498	3.41
314.873	4.56
315.247	3.73
315.621	3.68
315.995	3.82
316.369	3.87
316.743	4.27
317.117	3.94
317.491	4.46
317.865	4.84
318.239	3.93
318.613	3.53
318.987	4.21
319.361	4.04
319.734	3.88
320.108	3.79
320.482	4.33
320.855	4.12
321.229	4.11
321.602	4.37
321.976	4.18
322.349	4.4
322.723	3.96
323.096	4.93
323.469	4.68
323.843	3.8
324.216	4.12
324.589	4.31
324.962	4.36
325.335	4.09
325.708	4.67
326.081	4.09
326.454	4.37
326.827	4.16
327.2	4.28
327.573	4.3
327.945	4.49
328.318	4.39
328.691	4.93
329.063	4.17
329.436	4.01
329.809	5.02
330.181	5.07
330.553	4.59
330.926	4.71
331.298	4.68
331.671	4.29
332.043	4.6
332.415	4.9
332.787	4.98
333.159	4.65
333.532	5.03
333.904	5.04
334.276	5.17
334.648	4.76
335.02	4.67
335.391	4.46
335.763	4.86
336.135	4.93
336.507	4.78
336.879	4.5
337.25	4.89
337.622	4.85
337.993	5.15
338.365	5.32
338.736	4.76
339.108	5.21
339.479	4.37
339.851	4.81
340.222	4.48
340.593	4.81
340.964	5.18
341.336	5.31
341.707	5.09
342.078	5.15
342.449	5.43
342.82	5.14
343.191	5.55
343.562	5.62
343.933	5.17
344.303	5.86
344.674	5.63
345.045	5.65
345.416	5.21
345.786	5.34
346.157	5.42
346.527	5.28
346.898	5.05
347.268	5.49
347.639	5.2
348.009	5.95
348.38	5.45
348.75	6.03
349.12	6.19
349.49	5.57
349.861	6.33
350.231	5.83
350.601	5.9
350.971	6.01
351.341	6.12
351.711	5.55
352.081	5.91
352.45	6.04
352.82	6.06
353.19	5.92
353.56	5.7
353.929	6.13
354.299	5.9
354.669	6.02
355.038	6.07
355.408	5.82
355.777	6.1
356.147	6.02
356.516	6.03
356.885	6.4
357.254	6.14
357.624	6.24
357.993	6.7
358.362	6.4
358.731	6.4
359.1	6.1
359.469	6.23
359.838	6.14
360.207	6.28
360.576	6.51
360.945	6.07
361.314	6.45
361.682	6.82
362.051	6.51
362.42	6.68
362.788	6.36
363.157	6.37
363.525	6.27
363.894	6.61
364.262	6.71
364.631	6.64
364.999	6.53
365.367	6.69
365.735	6.76
366.104	6.93
366.472	7.07
366.84	7.22
367.208	6.74
367.576	7.41
367.944	6.91
368.312	7.02
368.68	7.15
369.048	6.93
369.416	7.23
369.783	7.41
370.151	7.42
370.519	7.21
370.886	7.23
371.254	7.41
371.621	7.43
371.989	7.85
372.356	7.54
372.724	7.4
373.091	7.56
373.458	7.41
373.826	7.96
374.193	7.58
374.56	7.81
374.927	7.6
375.294	7.67
375.661	7.72
376.028	7.69
376.395	7.91
376.762	8.07
377.129	7.99
377.496	8.03
377.863	8.13
378.229	8.06
378.596	7.85
378.963	7.81
379.329	8.15
379.696	8
380.062	8.33
380.429	8.31
380.795	8.07
381.161	8.1
381.528	8.38
381.894	8.53
382.26	8.3
382.626	8.41
382.993	8.61
383.359	8.38
383.725	8.91
384.091	8.95
384.457	8.33
384.823	8.69
385.188	8.84
385.554	8.84
385.92	8.49
386.286	9.03
386.651	8.87
387.017	9.01
387.383	8.85
387.748	8.93
388.114	9.13
388.479	9.21
388.845	8.96
389.21	8.9
389.575	9.05
389.94	9.33
390.306	9.13
390.671	9.4
391.036	9.31
391.401	9.66
391.766	9.16
392.131	9.13
392.496	9.47
392.861	9.29
393.226	9.5
393.591	9.87
393.956	9.78
394.32	10.1
394.685	9.94
395.05	9.87
395.414	9.74
395.779	9.78
396.143	9.84
396.508	9.92
396.872	10.07
397.236	10.02
397.601	10.13
397.965	10.08
398.329	10.31
398.694	10.18
399.058	10.36
399.422	10.2
399.786	10.4
400.15	10.55
400.514	10.47
400.878	10.7
401.242	10.47
401.605	10.5
401.969	10.51
402.333	10.71
402.697	10.92
403.06	10.83
403.424	10.6
403.787	10.94
404.151	10.87
404.514	10.87
404.878	10.77
405.241	11.05
405.604	10.91
405.968	10.8
406.331	10.98
406.694	10.97
407.057	11.02
407.42	10.98
407.783	11.1
408.146	11.23
408.509	11.38
408.872	11.65
409.235	11.39
409.598	11.53
409.961	11.49
410.323	11.3
410.686	11.55
411.049	11.71
411.411	11.78
411.774	11.78
412.136	11.91
412.499	11.89
412.861	11.98
413.223	12.08
413.586	12.23
413.948	12.04
414.31	11.89
414.672	11.96
415.035	12.13
415.397	12.24
415.759	12.16
416.121	12.17
416.483	12.22
416.845	12.26
417.206	12.17
417.568	12.36
417.93	12.16
418.292	12.45
418.653	12.34
419.015	12.22
419.377	12.18
419.738	12.44
420.1	12.41
420.461	12.31
420.822	12.55
421.184	12.58
421.545	12.54
421.906	12.41
422.267	12.42
422.629	12.32
422.99	12.52
423.351	12.56
423.712	12.58
424.073	12.78
424.434	12.74
424.795	12.76
425.155	12.65
425.516	12.9
425.877	12.79
426.238	12.95
426.598	12.95
426.959	13.26
427.32	13.18
427.68	13.43
428.041	13.28
428.401	13.53
428.761	13.71
429.122	13.59
429.482	13.71
429.842	13.79
430.202	13.63
430.563	13.86
430.923	13.67
431.283	13.95
431.643	13.98
432.003	14.01
432.363	14
432.722	14.15
433.082	14.12
433.442	14
433.802	14.16
434.161	14.12
434.521	14.22
434.881	14.16
435.24	14.19
435.6	14.17
435.959	14.34
436.319	14.49
436.678	14.52
437.037	14.57
437.396	14.55
437.756	14.5
438.115	14.79
438.474	14.64
438.833	14.52
439.192	14.92
439.551	14.76
439.91	14.79
440.269	14.79
440.628	14.89
440.987	14.77
441.345	15.07
441.704	14.87
442.063	14.79
442.421	14.95
442.78	14.94
443.138	15.07
443.497	15.18
443.855	15.3
444.214	15.41
444.572	15.55
444.93	15.27
445.288	15.51
445.647	15.57
446.005	15.46
446.363	15.55
446.721	15.33
447.079	15.45
447.437	15.48
447.795	15.33
448.153	15.42
448.51	15.58
448.868	15.45
449.226	15.61
449.584	15.83
449.941	16.01
450.299	16.03
450.656	16.15
451.014	16.02
451.371	16.2
451.729	16.37
452.086	16.55
452.443	16.45
452.801	16.39
453.158	16.65
453.515	16.37
453.872	16.63
454.229	16.54
454.586	16.71
454.943	16.73
455.3	16.82
455.657	16.76
456.014	16.94
456.371	16.8
456.727	17.05
457.084	17.06
457.441	17.21
457.797	17.09
458.154	17.35
458.51	17.14
458.867	17.29
459.223	17.35
459.58	17.39
459.936	17.27
460.292	17.26
460.648	17.16
461.005	17.06
461.361	17.11
461.717	17.06
462.073	17.12
462.429	17.32
462.785	17.42
463.141	17.59
463.496	17.72
463.852	17.73
464.208	17.77
464.564	17.95
464.919	18.08
465.275	18.08
465.631	18.17
465.986	18.31
466.342	18.28
466.697	18.33
467.052	18.45
467.408	18.22
467.763	18.43
468.118	18.43
468.473	18.33
468.829	18.48
469.184	18.63
469.539	18.65
469.894	18.69
470.249	18.83
470.603	18.66
470.958	18.96
471.313	18.84
471.668	18.95
472.023	18.75
472.377	18.98
472.732	19.11
473.086	19.02
473.441	19.08
473.795	19.2
474.15	19.21
474.504	19.16
474.859	19.34
475.213	19.27
475.567	19.38
475.921	19.41
476.275	19.49
476.63	19.29
476.984	19.64
477.338	19.59
477.692	19.66
478.045	19.65
478.399	19.59
478.753	19.89
479.107	19.86
479.461	19.58
479.814	19.77
480.168	19.83
480.521	19.82
480.875	19.99
481.228	20.11
481.582	20.06
481.935	20.16
482.289	20.07
482.642	20.03
482.995	20.04
483.348	19.8
483.701	19.81
484.055	19.61
484.408	19.38
484.761	19.13
485.114	18.99
485.466	19.07
485.819	19.25
486.172	19.41
486.525	19.64
486.878	19.71
487.23	19.91
487.583	19.94
487.936	19.92
488.288	19.75
488.641	19.67
488.993	19.68
489.345	19.84
489.698	19.78
490.05	19.88
490.402	20.06
490.754	20.35
491.107	20.6
491.459	20.84
491.811	20.77
492.163	20.62
492.515	20.41
492.866	20.23
493.218	20.25
493.57	20.4
493.922	20.64
494.274	20.77
494.625	21
494.977	21.33
495.328	21.58
495.68	21.57
496.031	21.75
496.383	21.78
496.734	21.97
497.086	21.86
497.437	21.98
497.788	21.79
498.139	21.77
498.49	21.73
498.842	21.88
499.193	21.86
499.544	22.04
499.894	22
500.245	22.14
500.596	22.35
500.947	22.31
501.298	22.44
501.648	22.45
501.999	22.51
502.35	22.63
502.7	22.77
503.051	22.92
503.401	22.89
503.752	22.82
504.102	22.94
504.452	22.89
504.803	22.94
505.153	22.94
505.503	23.05
505.853	22.9
506.203	22.78
506.553	23.1
506.903	23.21
507.253	23.27
507.603	23.19
507.953	23.27
508.303	23.34
508.652	23.42
509.002	23.5
509.352	23.39
509.701	23.59
510.051	23.23
510.4	23.28
510.75	23.29
511.099	23.37
511.449	23.41
511.798	23.45
512.147	23.57
512.496	23.64
512.846	23.75
513.195	23.76
513.544	23.79
513.893	23.62
514.242	23.79
514.591	23.89
514.939	23.99
515.288	23.94
515.637	23.9
515.986	24.09
516.334	24.31
516.683	24.34
517.032	24.12
517.38	24.4
517.729	24.25
518.077	24.45
518.426	24.35
518.774	24.24
519.122	24.18
519.47	24.05
519.819	24.01
520.167	24.01
520.515	24.08
520.863	24.1
521.211	24.16
521.559	24.33
521.907	24.46
522.255	24.57
522.602	24.84
522.95	24.83
523.298	24.95
523.645	24.96
523.993	25.03
524.341	24.95
524.688	25.22
525.036	25.24
525.383	25.25
525.73	25.03
526.078	25.05
526.425	24.95
526.772	24.66
527.119	24.57
527.466	24.77
527.814	24.76
528.161	24.82
528.508	24.7
528.854	24.69
529.201	24.68
529.548	24.22
529.895	24.06
530.242	24.15
530.588	24.36
530.935	24.41
531.282	24.58
531.628	24.74
531.975	24.89
532.321	25.08
532.667	25.23
533.014	25.47
533.36	25.37
533.706	25.4
534.052	25.2
534.399	24.96
534.745	24.78
535.091	25.08
535.437	25.21
535.783	25.41
536.129	25.49
536.474	25.77
536.82	25.83
537.166	26.07
537.512	25.83
537.857	25.89
538.203	25.69
538.549	25.83
538.894	26.15
539.239	26.2
539.585	26.31
539.93	26.46
540.276	26.45
540.621	26.63
540.966	26.66
541.311	26.88
541.656	26.53
542.001	26.14
542.346	25.85
542.691	25.7
543.036	25.77
543.381	26.04
543.726	26
544.071	26.1
544.415	26.08
544.76	26.25
545.105	26.53
545.449	26.77
545.794	26.87
546.138	27.04
546.483	27.05
546.827	27.07
547.171	27.05
547.516	27.11
547.86	27.01
548.204	27.05
548.548	27.11
548.892	27.25
549.236	27.5
549.58	27.58
549.924	27.72
550.268	27.93
550.612	28.16
550.956	28.02
551.3	28.34
551.643	28.13
551.987	28.29
552.33	28.41
552.674	28.44
553.017	28.25
553.361	28.23
553.704	28.16
554.048	28.07
554.391	28.26
554.734	28.36
555.077	28.27
555.42	28.41
555.764	28.62
556.107	28.61
556.45	28.78
556.793	28.79
557.135	28.86
557.478	28.67
557.821	29.2
558.164	28.99
558.507	29.04
558.849	29.05
559.192	29.17
559.534	29.28
559.877	29.18
560.219	29.04
560.562	29.36
560.904	29.59
561.246	29.42
561.589	29.4
561.931	29.65
562.273	29.41
562.615	29.48
562.957	29.34
563.299	29.27
563.641	29.6
563.983	29.43
564.325	29.83
564.667	29.69
565.008	29.77
565.35	29.79
565.692	29.6
566.033	29.92
566.375	29.61
566.716	29.75
567.058	29.69
567.399	29.5
567.741	29.49
568.082	29.55
568.423	29.52
568.764	29.63
569.105	29.91
569.447	29.98
569.788	29.77
570.129	30.01
570.47	29.95
570.811	29.86
571.151	30.41
571.492	30.01
571.833	30.01
572.174	30.2
572.514	30.11
572.855	30.11
573.195	30.13
573.536	29.92
573.876	29.89
574.217	30.16
574.557	30.14
574.898	30.47
575.238	30.25
575.578	30.21
575.918	30.31
576.258	30.36
576.598	30.17
576.938	30.47
577.278	30.35
577.618	30.62
577.958	30.62
578.298	30.68
578.638	30.81
578.977	31.09
579.317	31.1
579.657	30.7
579.996	30.84
580.336	30.83
580.675	31.2
581.014	31.34
581.354	31.46
581.693	31.27
582.032	30.96
582.372	31.49
582.711	30.96
583.05	31.33
583.389	31.56
583.728	31.45
584.067	31.58
584.406	31.78
584.745	31.59
585.083	31.82
585.422	31.92
585.761	31.97
586.1	31.9
586.438	31.87
586.777	31.75
587.115	32.12
587.454	32.21
587.792	32.02
588.13	31.86
588.469	32.24
588.807	31.94
589.145	32.06
589.483	32.2
589.821	32.22
590.159	31.9
590.497	32.22
590.835	32.33
591.173	31.95
591.511	32.2
591.849	32.15
592.187	32.23
592.524	32.42
592.862	32.37
593.2	32.12
593.537	32.31
593.875	32.43
594.212	32.32
594.55	32.77
594.887	32.61
595.224	32.53
595.561	32.4
595.899	32.39
596.236	32.59
596.573	32.82
596.91	32.84
597.247	32.67
597.584	32.2
597.921	32.26
598.258	32.37
598.594	32.42
598.931	32.45
599.268	32.41
599.604	32.56
599.941	32.74
600.277	32.89
600.614	32.92
600.95	33.12
601.287	33.28
601.623	33.42
601.959	32.96
602.296	33.14
602.632	33.02
602.968	33.24
603.304	33.21
603.64	33.08
603.976	33.39
604.312	32.89
604.648	33.29
604.984	32.98
605.319	32.94
605.655	32.89
605.991	32.92
606.326	32.95
606.662	32.76
606.998	33.04
607.333	33.23
607.668	33.55
608.004	33.4
608.339	33.43
608.674	33.54
609.01	33.67
609.345	33.66
609.68	33.28
610.015	33.76
610.35	33.56
610.685	33.25
611.02	33.39
611.355	33.66
611.689	33.54
612.024	33.42
612.359	33.62
612.694	33.75
613.028	34.19
613.363	34.03
613.697	34.01
614.032	34.24
614.366	34.17
614.7	34.04
615.035	34.06
615.369	33.72
615.703	34.53
616.037	34.42
616.371	34.3
616.705	34.43
617.039	34.44
617.373	34.24
617.707	34.3
618.041	34.36
618.375	34.38
618.709	34.84
619.042	34.71
619.376	34.44
619.71	34.39
620.043	34.63
620.377	34.69
620.71	34.65
621.043	34.79
621.377	35.05
621.71	35.03
622.043	34.71
622.376	34.61
622.709	34.8
623.043	35.03
623.376	34.85
623.709	35.2
624.041	35.17
624.374	35.23
624.707	35.08
625.04	34.81
625.373	35.04
625.705	34.95
626.038	35.15
626.37	34.95
626.703	35.5
627.035	35.4
627.368	34.65
627.7	35.02
628.032	34.72
628.365	35.06
628.697	35.1
629.029	35.15
629.361	34.95
629.693	35
630.025	35.58
630.357	35.44
630.689	35.19
631.021	35.27
631.353	35.48
631.684	35.52
632.016	35.59
632.348	35.38
632.679	35.88
633.011	35.62
633.342	35.22
633.674	35.85
634.005	35.43
634.336	35.79
634.668	35.56
634.999	35.45
635.33	35.64
635.661	35.46
635.992	35.71
636.323	35.9
636.654	35.46
636.985	35.63
637.316	35.48
637.647	35.65
637.977	35.71
638.308	36.01
638.639	36.41
638.969	36
639.3	35.9
639.63	36.24
639.961	35.93
640.291	36.04
640.622	36.36
640.952	36.25
641.282	36.24
641.612	35.89
641.943	36.11
642.273	36.28
642.603	36.15
642.933	36.84
643.263	36.17
643.592	36.35
643.922	36.23
644.252	36.15
644.582	36.42
644.911	36.81
645.241	36.59
645.571	36.33
645.9	36.31
646.23	36.43
646.559	36.11
646.888	36.56
647.218	37.18
647.547	37.11
647.876	36.3
648.205	36.54
648.534	36.76
648.863	36.75
649.192	36.79
649.521	36.48
649.85	36.86
650.179	36.43
650.508	36.72
650.837	36.94
651.165	36.96
651.494	36.97
651.822	36.88
652.151	36.72
652.479	37.05
652.808	36.7
653.136	36.55
653.465	37
653.793	37.35
654.121	37.04
654.449	37.29
654.777	37.07
655.105	37.14
655.433	36.52
655.761	36.8
656.089	37.55
656.417	37.93
656.745	37.09
657.073	36.9
657.4	36.77
657.728	37.23
658.056	36.82
658.383	37.39
658.711	37.16
659.038	37.15
659.365	37.11
659.693	37.49
660.02	37.34
660.347	37.06
660.674	37.13
661.001	37.15
661.329	37.26
661.656	37.18
661.982	37.04
662.309	37.5
662.636	37.51
662.963	37.46
663.29	37.7
663.616	37.82
663.943	37.67
664.27	38.26
664.596	37.8
664.923	37.73
665.249	37.81
665.576	37.89
665.902	38.05
666.228	37.7
666.554	37.83
666.881	38.1
667.207	37.91
667.533	38.3
667.859	37.61
668.185	38.28
668.511	37.7
668.837	38.5
669.162	37.72
669.488	38.04
669.814	38.31
670.139	38.27
670.465	37.73
670.791	38.1
671.116	38.13
671.442	37.74
671.767	37.93
672.092	38.42
672.418	38.2
672.743	37.96
673.068	38.26
673.393	39.31
673.718	38.5
