Data from 0024_chest_Reflection__2__63.txt Node

Date: Thu Oct 20 20:50:47 CDT 2022
User: ToomeyLab
Spectrometer: FLMS14357
Trigger mode: 0
Integration Time (sec): 1.000000E-2
Scans to average: 100
Electric dark correction enabled: true
Nonlinearity correction enabled: false
Boxcar width: 0
XAxis mode: Wavelengths
Number of Pixels in Spectrum: 2048
>>>>>Begin Spectral Data<<<<<
189.047	16.67
189.435	16.67
189.823	16.67
190.211	325.01
190.599	3.59
190.987	41.43
191.375	20.84
191.763	-67.74
192.151	-13.59
192.538	8583.87
192.926	93.06
193.314	-214.94
193.702	90.75
194.089	106.24
194.477	-483.37
194.864	-9.66
195.252	-45.69
195.639	60.18
196.027	446.88
196.414	-101.82
196.801	56.76
197.189	31.33
197.576	159.86
197.963	5.1
198.351	-21.49
198.738	-19.68
199.125	21.66
199.512	2.5
199.899	9.67
200.286	1.01
200.673	18.64
201.06	15.72
201.447	26.88
201.833	29.27
202.22	39.01
202.607	-14.63
202.994	22.65
203.38	-28.82
203.767	-3.31
204.154	-14.07
204.54	-1.73
204.927	19.34
205.313	47.67
205.699	30.17
206.086	2.63
206.472	30.67
206.858	-12.28
207.245	6.92
207.631	-34.54
208.017	45.92
208.403	52.18
208.789	-10.23
209.175	-45.25
209.561	13.1
209.947	9.58
210.333	-7.86
210.719	4.66
211.105	-12.27
211.491	-3.57
211.876	8.19
212.262	2.61
212.648	-27.65
213.034	-22.39
213.419	-18.09
213.805	-11.92
214.19	-39.06
214.576	17.71
214.961	31.42
215.346	-44.01
215.732	-23.11
216.117	22.18
216.502	-21.97
216.888	26.3
217.273	25.13
217.658	10.44
218.043	29.29
218.428	-2.66
218.813	4.02
219.198	-19.01
219.583	-29.39
219.968	6.36
220.353	-7.17
220.738	15.5
221.122	40.8
221.507	14.4
221.892	-12.16
222.276	10.85
222.661	16.71
223.046	5.6
223.43	10.43
223.815	-2.06
224.199	7.58
224.583	-0.05
224.968	2.92
225.352	13.26
225.736	7.63
226.121	15.23
226.505	1.26
226.889	3.33
227.273	8.36
227.657	3.28
228.041	1.39
228.425	5.96
228.809	2.5
229.193	6.11
229.577	4.37
229.961	5.31
230.344	3.91
230.728	4.31
231.112	4.78
231.495	5.76
231.879	4.02
232.263	4.26
232.646	4.46
233.03	2.92
233.413	4.63
233.797	5.41
234.18	6.61
234.563	5.09
234.946	4.42
235.33	3.81
235.713	4.68
236.096	4.24
236.479	5.62
236.862	3.3
237.245	4.7
237.628	4.87
238.011	5.47
238.394	4.39
238.777	5.59
239.16	2.97
239.543	2.97
239.925	5.36
240.308	5.28
240.691	4.99
241.073	4.79
241.456	4.67
241.838	4.67
242.221	4.15
242.603	4.12
242.986	4.32
243.368	4.61
243.75	4.21
244.133	4.23
244.515	3.97
244.897	4.36
245.279	4.58
245.661	4.74
246.043	3.95
246.425	5.67
246.807	3.8
247.189	4.49
247.571	4.17
247.953	4.44
248.335	4.38
248.717	4.5
249.098	4.27
249.48	4.36
249.862	4.37
250.243	4.44
250.625	4.2
251.006	5.26
251.388	4.41
251.769	4.82
252.151	4.63
252.532	4.07
252.913	4.59
253.295	4.98
253.676	4.58
254.057	3.95
254.438	4.28
254.819	3.28
255.2	4.62
255.581	4.51
255.962	3.74
256.343	3.23
256.724	4.18
257.105	5.55
257.486	5.55
257.867	5.01
258.247	4.38
258.628	4.33
259.009	3.91
259.389	4.47
259.77	4.71
260.15	4.44
260.531	4.19
260.911	4.17
261.292	4.07
261.672	3.65
262.052	3.98
262.432	4.27
262.813	3.87
263.193	4.14
263.573	4.09
263.953	4.27
264.333	4.37
264.713	4.85
265.093	4.06
265.473	3.42
265.853	4.17
266.233	4.64
266.612	3.92
266.992	4.19
267.372	3.79
267.752	3.97
268.131	4.31
268.511	3.65
268.89	4.06
269.27	3.78
269.649	4.34
270.029	4.08
270.408	3.73
270.787	3.71
271.167	4.58
271.546	3.58
271.925	4.23
272.304	4.46
272.683	4.17
273.062	3.81
273.441	4.16
273.82	4.64
274.199	3.97
274.578	3.43
274.957	3.82
275.336	4.13
275.715	3.73
276.093	4.39
276.472	3.92
276.851	3.24
277.229	4.22
277.608	4.05
277.986	4.03
278.365	3.76
278.743	3.8
279.122	4.17
279.5	4.16
279.878	3.99
280.257	3.64
280.635	5.06
281.013	3.74
281.391	3.73
281.769	3.91
282.147	3.82
282.525	4.21
282.903	3.91
283.281	4.23
283.659	3.73
284.037	3.88
284.415	4.1
284.792	3.87
285.17	3.83
285.548	3.79
285.925	3.43
286.303	3.91
286.68	3.93
287.058	3.59
287.435	3.83
287.813	3.82
288.19	3.5
288.567	3.59
288.945	3.91
289.322	3.82
289.699	3.75
290.076	3.62
290.453	3.89
290.83	3.92
291.207	3.74
291.584	3.6
291.961	4.05
292.338	3.88
292.715	3.41
293.092	3.49
293.469	4.18
293.845	3.4
294.222	4.01
294.599	3.75
294.975	3.76
295.352	3.55
295.728	3.18
296.105	3.7
296.481	3.66
296.858	4.06
297.234	3.67
297.61	3.68
297.986	3.77
298.363	3.95
298.739	3.87
299.115	3.84
299.491	3.87
299.867	3.59
300.243	3.94
300.619	3.49
300.995	3.91
301.371	3.38
301.746	3.83
302.122	3.93
302.498	4.13
302.874	3.33
303.249	3.56
303.625	3.58
304	3.45
304.376	4.2
304.751	3.32
305.127	3.7
305.502	3.72
305.878	3.62
306.253	3.38
306.628	3.93
307.003	3.84
307.378	3.53
307.754	4.17
308.129	3.96
308.504	4.68
308.879	4.14
309.254	3.12
309.629	4.07
310.003	3.92
310.378	3.79
310.753	3.67
311.128	3.91
311.502	4.08
311.877	3.61
312.252	3.75
312.626	3.79
313.001	3.94
313.375	3.65
313.75	3.49
314.124	3.99
314.498	3.73
314.873	4.26
315.247	4.3
315.621	3.69
315.995	4.03
316.369	3.84
316.743	4.3
317.117	3.98
317.491	3.74
317.865	4.34
318.239	3.82
318.613	3.47
318.987	3.48
319.361	3.41
319.734	3.62
320.108	3.54
320.482	3.84
320.855	4.17
321.229	3.93
321.602	4.02
321.976	4.16
322.349	3.4
322.723	4.1
323.096	3.89
323.469	3.87
323.843	3.01
324.216	3.42
324.589	3.69
324.962	3.57
325.335	3.4
325.708	3.88
326.081	3.66
326.454	3.81
326.827	3.98
327.2	3.93
327.573	4.05
327.945	3.72
328.318	3.46
328.691	4.13
329.063	3.75
329.436	3.66
329.809	4.09
330.181	3.66
330.553	3.4
330.926	4
331.298	3.5
331.671	3.61
332.043	4.03
332.415	4.01
332.787	4.11
333.159	3.6
333.532	4.11
333.904	3.8
334.276	3.93
334.648	3.12
335.02	3.83
335.391	3.42
335.763	3.73
336.135	3.74
336.507	3.42
336.879	3.39
337.25	3.98
337.622	3.24
337.993	3.38
338.365	3.42
338.736	3.72
339.108	4.02
339.479	2.88
339.851	4.09
340.222	3.73
340.593	3.92
340.964	4.05
341.336	3.42
341.707	3.8
342.078	3.52
342.449	3.66
342.82	3.77
343.191	4.17
343.562	4.34
343.933	3.65
344.303	3.7
344.674	4.26
345.045	4.16
345.416	3.65
345.786	3.76
346.157	3.88
346.527	3.65
346.898	3.44
347.268	4.05
347.639	3.62
348.009	4.47
348.38	3.41
348.75	4.04
349.12	4.3
349.49	3.58
349.861	3.93
350.231	3.98
350.601	4.26
350.971	4.01
351.341	3.92
351.711	3.81
352.081	3.45
352.45	3.79
352.82	3.49
353.19	3.41
353.56	3.44
353.929	3.88
354.299	3.39
354.669	3.56
355.038	3.87
355.408	3.64
355.777	3.72
356.147	3.74
356.516	3.78
356.885	4.01
357.254	3.94
357.624	3.65
357.993	4.08
358.362	3.89
358.731	3.7
359.1	3.56
359.469	3.74
359.838	3.67
360.207	3.61
360.576	3.9
360.945	3.33
361.314	3.96
361.682	4.05
362.051	3.71
362.42	3.88
362.788	3.6
363.157	3.78
363.525	3.86
363.894	3.76
364.262	3.82
364.631	3.39
364.999	4.01
365.367	3.61
365.735	4.06
366.104	4.02
366.472	4.09
366.84	4.16
367.208	3.9
367.576	4.14
367.944	3.66
368.312	3.76
368.68	3.81
369.048	3.84
369.416	3.79
369.783	3.33
370.151	3.72
370.519	3.73
370.886	3.84
371.254	3.91
371.621	3.92
371.989	3.87
372.356	4
372.724	3.72
373.091	3.8
373.458	4.04
373.826	3.79
374.193	3.82
374.56	3.95
374.927	3.73
375.294	3.69
375.661	3.91
376.028	3.68
376.395	3.84
376.762	3.81
377.129	3.49
377.496	3.77
377.863	3.75
378.229	4.14
378.596	3.95
378.963	3.86
379.329	3.8
379.696	3.64
380.062	3.87
380.429	4.03
380.795	3.72
381.161	3.8
381.528	3.94
381.894	3.97
382.26	3.74
382.626	3.7
382.993	3.78
383.359	4.13
383.725	4.17
384.091	4.19
384.457	4.05
384.823	4.03
385.188	3.83
385.554	3.7
385.92	3.7
386.286	4.1
386.651	3.85
387.017	3.98
387.383	3.87
387.748	3.83
388.114	4.19
388.479	4.21
388.845	3.53
389.21	3.68
389.575	4.05
389.94	3.69
390.306	4.15
390.671	3.98
391.036	3.95
391.401	4.04
391.766	3.72
392.131	3.8
392.496	3.95
392.861	3.98
393.226	3.86
393.591	3.98
393.956	3.87
394.32	4.18
394.685	4.25
395.05	4.25
395.414	4.08
395.779	3.89
396.143	3.97
396.508	4.08
396.872	4.04
397.236	3.62
397.601	4.28
397.965	4.01
398.329	3.71
398.694	4.11
399.058	4.32
399.422	4.1
399.786	3.95
400.15	3.98
400.514	3.9
400.878	4.29
401.242	3.93
401.605	4.23
401.969	3.81
402.333	4.09
402.697	4.09
403.06	3.95
403.424	3.96
403.787	4.11
404.151	4.24
404.514	4.11
404.878	3.97
405.241	3.99
405.604	4.2
405.968	3.77
406.331	4.16
406.694	4.08
407.057	3.88
407.42	3.89
407.783	3.8
408.146	4.09
408.509	4.12
408.872	4.2
409.235	3.99
409.598	3.96
409.961	4.17
410.323	3.73
410.686	4.02
411.049	4.05
411.411	4.17
411.774	4.23
412.136	4.07
412.499	4.05
412.861	4.08
413.223	4.05
413.586	4.13
413.948	4.34
414.31	4.14
414.672	4.06
415.035	4.06
415.397	4.1
415.759	4.19
416.121	4.12
416.483	4.07
416.845	4.1
417.206	4
417.568	4.19
417.93	3.95
418.292	4.14
418.653	4.13
419.015	4
419.377	4.07
419.738	4.05
420.1	4.05
420.461	4.02
420.822	4.05
421.184	4.19
421.545	4.1
421.906	4.01
422.267	4.02
422.629	3.98
422.99	4.07
423.351	3.89
423.712	3.99
424.073	3.94
424.434	4.05
424.795	4.12
425.155	4
425.516	4.12
425.877	4.04
426.238	3.97
426.598	4
426.959	4.19
427.32	3.94
427.68	4.15
428.041	4.09
428.401	4.09
428.761	4.21
429.122	4.13
429.482	4.05
429.842	4.01
430.202	4.24
430.563	4.23
430.923	4.17
431.283	4.12
431.643	4.22
432.003	4.24
432.363	3.91
432.722	4.07
433.082	4.21
433.442	4.18
433.802	4.28
434.161	4.13
434.521	4.03
434.881	4.26
435.24	4.14
435.6	4.34
435.959	3.96
436.319	4.17
436.678	4.19
437.037	4.19
437.396	3.98
437.756	4.22
438.115	4.31
438.474	4.36
438.833	4.32
439.192	4.31
439.551	4.21
439.91	4.17
440.269	4.23
440.628	4.19
440.987	4.15
441.345	4.2
441.704	4.14
442.063	4.05
442.421	4.22
442.78	4.22
443.138	4.16
443.497	4.18
443.855	4.41
444.214	4.24
444.572	4.3
444.93	4.14
445.288	4.05
445.647	4.16
446.005	4.23
446.363	4.17
446.721	4.23
447.079	4.23
447.437	4.29
447.795	4.19
448.153	4.14
448.51	4.13
448.868	4.16
449.226	4.1
449.584	4.14
449.941	4.29
450.299	4.34
450.656	4.28
451.014	4.2
451.371	4.18
451.729	4.36
452.086	4.31
452.443	4.39
452.801	4.24
453.158	4.37
453.515	4.26
453.872	4.33
454.229	4.31
454.586	4.32
454.943	4.25
455.3	4.43
455.657	4.31
456.014	4.16
456.371	4.37
456.727	4.41
457.084	4.26
457.441	4.43
457.797	4.28
458.154	4.32
458.51	4.28
458.867	4.25
459.223	4.34
459.58	4.46
459.936	4.39
460.292	4.41
460.648	4.28
461.005	4.46
461.361	4.23
461.717	4.26
462.073	4.24
462.429	4.31
462.785	4.26
463.141	4.4
463.496	4.29
463.852	4.11
464.208	4.41
464.564	4.49
464.919	4.32
465.275	4.37
465.631	4.54
465.986	4.4
466.342	4.42
466.697	4.53
467.052	4.5
467.408	4.45
467.763	4.53
468.118	4.48
468.473	4.43
468.829	4.4
469.184	4.49
469.539	4.52
469.894	4.39
470.249	4.43
470.603	4.31
470.958	4.46
471.313	4.47
471.668	4.59
472.023	4.33
472.377	4.47
472.732	4.57
473.086	4.5
473.441	4.54
473.795	4.4
474.15	4.52
474.504	4.52
474.859	4.39
475.213	4.55
475.567	4.39
475.921	4.44
476.275	4.45
476.63	4.38
476.984	4.5
477.338	4.51
477.692	4.47
478.045	4.44
478.399	4.47
478.753	4.6
479.107	4.56
479.461	4.4
479.814	4.6
480.168	4.46
480.521	4.53
480.875	4.5
481.228	4.58
481.582	4.6
481.935	4.62
482.289	4.48
482.642	4.54
482.995	4.53
483.348	4.47
483.701	4.42
484.055	4.48
484.408	4.4
484.761	4.42
485.114	4.38
485.466	4.36
485.819	4.3
486.172	4.23
486.525	4.21
486.878	4.31
487.23	4.42
487.583	4.4
487.936	4.44
488.288	4.44
488.641	4.37
488.993	4.4
489.345	4.3
489.698	4.35
490.05	4.37
490.402	4.35
490.754	4.37
491.107	4.47
491.459	4.52
491.811	4.45
492.163	4.53
492.515	4.5
492.866	4.53
493.218	4.42
493.57	4.46
493.922	4.43
494.274	4.38
494.625	4.52
494.977	4.52
495.328	4.54
495.68	4.56
496.031	4.74
496.383	4.68
496.734	4.74
497.086	4.66
497.437	4.68
497.788	4.7
498.139	4.64
498.49	4.68
498.842	4.63
499.193	4.6
499.544	4.64
499.894	4.65
500.245	4.64
500.596	4.65
500.947	4.59
501.298	4.79
501.648	4.71
501.999	4.69
502.35	4.84
502.7	4.72
503.051	4.74
503.401	4.65
503.752	4.73
504.102	4.68
504.452	4.75
504.803	4.79
505.153	4.78
505.503	4.85
505.853	4.83
506.203	4.65
506.553	4.76
506.903	4.81
507.253	4.81
507.603	4.81
507.953	4.71
508.303	4.97
508.652	4.73
509.002	4.79
509.352	4.65
509.701	5.06
510.051	4.86
510.4	4.83
510.75	4.83
511.099	4.87
511.449	4.79
511.798	4.85
512.147	4.82
512.496	4.8
512.846	4.9
513.195	4.94
513.544	4.93
513.893	4.84
514.242	4.9
514.591	4.89
514.939	4.78
515.288	4.95
515.637	4.94
515.986	5.06
516.334	5
516.683	4.89
517.032	4.98
517.38	5.03
517.729	4.9
518.077	5.1
518.426	4.93
518.774	4.94
519.122	5.04
519.47	4.9
519.819	4.9
520.167	4.93
520.515	4.96
520.863	4.83
521.211	4.84
521.559	4.91
521.907	4.86
522.255	5.08
522.602	5.05
522.95	5
523.298	5.08
523.645	5.01
523.993	5
524.341	5.03
524.688	5.14
525.036	4.97
525.383	5.21
525.73	5.04
526.078	5.02
526.425	5.07
526.772	5.13
527.119	4.96
527.466	5.08
527.814	5.05
528.161	5.06
528.508	5.15
528.854	5.03
529.201	5.13
529.548	5.1
529.895	5.04
530.242	5.05
530.588	4.96
530.935	4.88
531.282	4.87
531.628	4.9
531.975	4.99
532.321	5.02
532.667	5.09
533.014	5.19
533.36	5.25
533.706	5.17
534.052	5.18
534.399	5.21
534.745	5.22
535.091	5.24
535.437	5.16
535.783	5.12
536.129	5.08
536.474	5.15
536.82	5.27
537.166	5.27
537.512	5.32
537.857	5.35
538.203	5.4
538.549	5.4
538.894	5.28
539.239	5.31
539.585	5.4
539.93	5.4
540.276	5.41
540.621	5.48
540.966	5.52
541.311	5.59
541.656	5.47
542.001	5.48
542.346	5.48
542.691	5.42
543.036	5.41
543.381	5.4
543.726	5.32
544.071	5.35
544.415	5.42
544.76	5.39
545.105	5.35
545.449	5.57
545.794	5.61
546.138	5.45
546.483	5.58
546.827	5.58
547.171	5.58
547.516	5.64
547.86	5.69
548.204	5.72
548.548	5.66
548.892	5.62
549.236	5.7
549.58	5.7
549.924	5.69
550.268	5.72
550.612	5.75
550.956	5.66
551.3	5.97
551.643	5.94
551.987	5.82
552.33	5.94
552.674	5.99
553.017	5.9
553.361	5.97
553.704	6.03
554.048	5.84
554.391	5.94
554.734	5.99
555.077	5.96
555.42	5.97
555.764	5.99
556.107	5.95
556.45	6.18
556.793	5.99
557.135	6.23
557.478	6.15
557.821	6.17
558.164	6.19
558.507	6.22
558.849	5.88
559.192	6.13
559.534	6.39
559.877	6.24
560.219	6.16
560.562	6.29
560.904	6.27
561.246	6.29
561.589	6.24
561.931	6.56
562.273	6.23
562.615	6.43
562.957	6.34
563.299	6.4
563.641	6.49
563.983	6.36
564.325	6.38
564.667	6.42
565.008	6.44
565.35	6.61
565.692	6.51
566.033	6.78
566.375	6.55
566.716	6.53
567.058	6.62
567.399	6.64
567.741	6.46
568.082	6.54
568.423	6.55
568.764	6.5
569.105	6.55
569.447	6.65
569.788	6.75
570.129	6.62
570.47	6.72
570.811	6.66
571.151	6.88
571.492	6.72
571.833	6.71
572.174	6.75
572.514	6.89
572.855	6.71
573.195	6.97
573.536	6.92
573.876	6.83
574.217	6.87
574.557	6.84
574.898	6.86
575.238	6.82
575.578	6.87
575.918	7.01
576.258	7.04
576.598	6.98
576.938	7.01
577.278	6.95
577.618	6.96
577.958	7.14
578.298	6.91
578.638	7.13
578.977	7.07
579.317	7.26
579.657	7.11
579.996	7.32
580.336	7.1
580.675	7.29
581.014	7.35
581.354	7.2
581.693	7.29
582.032	7.13
582.372	7.31
582.711	7.32
583.05	7.54
583.389	7.46
583.728	7.32
584.067	7.32
584.406	7.56
584.745	7.5
585.083	7.66
585.422	7.65
585.761	7.58
586.1	7.52
586.438	7.59
586.777	7.71
587.115	7.88
587.454	7.93
587.792	7.87
588.13	7.51
588.469	7.77
588.807	7.98
589.145	7.64
589.483	7.87
589.821	7.64
590.159	7.73
590.497	8.02
590.835	7.98
591.173	7.85
591.511	7.74
591.849	7.85
592.187	8.13
592.524	8.01
592.862	7.92
593.2	8.1
593.537	7.99
593.875	8.19
594.212	8.02
594.55	8.24
594.887	8.26
595.224	8.36
595.561	8.16
595.899	8.12
596.236	8.37
596.573	8.48
596.91	8.33
597.247	8.49
597.584	8.57
597.921	8.23
598.258	8.39
598.594	8.35
598.931	8.53
599.268	8.3
599.604	8.4
599.941	8.39
600.277	8.34
600.614	8.5
600.95	8.6
601.287	8.97
601.623	8.71
601.959	8.84
602.296	8.88
602.632	8.81
602.968	8.79
603.304	8.63
603.64	8.52
603.976	8.88
604.312	9.1
604.648	8.95
604.984	8.95
605.319	9
605.655	8.88
605.991	8.82
606.326	9.15
606.662	8.82
606.998	8.95
607.333	8.88
607.668	9.11
608.004	8.87
608.339	9
608.674	9.04
609.01	8.89
609.345	9.22
609.68	9.15
610.015	9.11
610.35	9.15
610.685	9.38
611.02	9.36
611.355	9.4
611.689	9.1
612.024	9.05
612.359	8.88
612.694	9.27
613.028	9.68
613.363	9.52
613.697	9.6
614.032	9.36
614.366	9.55
614.7	9.52
615.035	9.72
615.369	9.64
615.703	9.62
616.037	9.69
616.371	9.48
616.705	9.96
617.039	9.99
617.373	9.84
617.707	9.63
618.041	9.89
618.375	9.45
618.709	10.19
619.042	9.94
619.376	9.94
619.71	10.12
620.043	10.06
620.377	10.12
620.71	10.02
621.043	10.03
621.377	10.45
621.71	10.24
622.043	10.18
622.376	10.27
622.709	10.39
623.043	10.37
623.376	9.96
623.709	10.24
624.041	10.64
624.374	10.72
624.707	10.46
625.04	10.65
625.373	10.48
625.705	10.52
626.038	10.57
626.37	10.59
626.703	10.69
627.035	10.51
627.368	10.62
627.7	10.66
628.032	10.92
628.365	10.48
628.697	10.75
629.029	10.78
629.361	10.8
629.693	10.75
630.025	10.92
630.357	10.91
630.689	10.64
631.021	10.65
631.353	10.73
631.684	11
632.016	11.15
632.348	11.19
632.679	11.18
633.011	11.33
633.342	10.72
633.674	11.54
634.005	11.13
634.336	11.36
634.668	10.9
634.999	11.62
635.33	11.37
635.661	11.37
635.992	11.27
636.323	11.72
636.654	11.28
636.985	11.39
637.316	11.13
637.647	11.79
637.977	11.47
638.308	11.84
638.639	11.68
638.969	11.44
639.3	11.44
639.63	11.95
639.961	11.06
640.291	11.62
640.622	11.72
640.952	12.19
641.282	12.07
641.612	11.63
641.943	12.25
642.273	11.74
642.603	12.15
642.933	12.34
643.263	11.92
643.592	12
643.922	12.63
644.252	11.76
644.582	11.95
644.911	12.53
645.241	12.44
645.571	12.58
645.9	11.97
646.23	11.99
646.559	11.94
646.888	12.77
647.218	12.91
647.547	12.3
647.876	12.33
648.205	12.52
648.534	12.25
648.863	12.49
649.192	12.7
649.521	12.91
649.85	12.72
650.179	13
650.508	12.73
650.837	12.88
651.165	12.7
651.494	13.15
651.822	12.78
652.151	12.74
652.479	13.23
652.808	13.2
653.136	12.47
653.465	13
653.793	12.93
654.121	12.68
654.449	12.95
654.777	13.09
655.105	13.21
655.433	13.28
655.761	13.17
656.089	13.34
656.417	13.12
656.745	12.91
657.073	13.1
657.4	12.97
657.728	13.3
658.056	12.4
658.383	13.96
658.711	13.26
659.038	13.59
659.365	13.25
659.693	13.89
660.02	13.78
660.347	13.76
660.674	13.58
661.001	13.95
661.329	13.99
661.656	13.62
661.982	13.48
662.309	13.88
662.636	13.77
662.963	13.6
663.29	13.9
663.616	13.61
663.943	13.85
664.27	14.32
664.596	13.82
664.923	13.67
665.249	14.22
665.576	14.18
665.902	14.36
666.228	14.04
666.554	14.4
666.881	14.38
667.207	14.21
667.533	14.63
667.859	13.95
668.185	14.17
668.511	13.55
668.837	14.96
669.162	13.84
669.488	14.27
669.814	14.45
670.139	14.38
670.465	14.1
670.791	14.35
671.116	14.49
671.442	13.8
671.767	14.53
672.092	14.32
672.418	14.97
672.743	14.58
673.068	15.42
673.393	14.8
673.718	14.63
674.043	14.43
674.368	15.11
674.693	15.26
675.018	15.06
675.343	14.96
675.667	14.99
675.992	14.7
676.317	15.71
676.641	15.52
676.966	14.67
677.29	15.31
677.615	14.48
677.939	15.23
678.264	15.42
678.588	15.39
678.912	15.15
679.236	15.16
679.56	14.7
679.885	15.63
680.209	15.27
680.532	15.52
680.856	15.51
681.18	15.42
681.504	15.63
681.828	15.31
682.152	15.27
682.475	15.51
682.799	15.07
683.122	15.48
683.446	15.77
683.769	15.92
684.093	16.09
684.416	16.1
684.739	16.2
685.062	15.6
685.386	16.23
685.709	16.21
686.032	15.5
686.355	16.03
686.678	15.81
687.001	16.45
687.324	16.39
687.646	15.97
687.969	16.7
688.292	16.8
