Data from 0024_crown_Reflection__4__70.txt Node

Date: Thu Oct 20 20:52:46 CDT 2022
User: ToomeyLab
Spectrometer: FLMS14357
Trigger mode: 0
Integration Time (sec): 1.000000E-2
Scans to average: 100
Electric dark correction enabled: true
Nonlinearity correction enabled: false
Boxcar width: 0
XAxis mode: Wavelengths
Number of Pixels in Spectrum: 2048
>>>>>Begin Spectral Data<<<<<
189.047	16.67
189.435	16.67
189.823	16.67
190.211	295.25
190.599	-20.74
190.987	64.32
191.375	42.7
191.763	17.27
192.151	23.92
192.538	2958.06
192.926	93.8
193.314	77.95
193.702	238.14
194.089	399.03
194.477	-200.62
194.864	-90.19
195.252	42.89
195.639	124.2
196.027	1276.83
196.414	2.41
196.801	133.63
197.189	33.33
197.576	295.22
197.963	-103.94
198.351	-60.81
198.738	6.9
199.125	10.75
199.512	-3.36
199.899	-22.7
200.286	-8.5
200.673	23.44
201.06	-4.84
201.447	34.62
201.833	27.18
202.22	-2.82
202.607	56.67
202.994	19.99
203.38	21.69
203.767	-19.76
204.154	-14.07
204.54	0.77
204.927	14.77
205.313	12.19
205.699	21.21
206.086	-2.42
206.472	16.56
206.858	21.5
207.245	1.83
207.631	-63.22
208.017	22.37
208.403	9.74
208.789	-165.93
209.175	-2.15
209.561	34.52
209.947	17.39
210.333	12.85
210.719	-25.02
211.105	-28.71
211.491	7.62
211.876	-10.73
212.262	20.44
212.648	-10.74
213.034	-21.03
213.419	-12.98
213.805	-8.06
214.19	-56.21
214.576	28.14
214.961	26.72
215.346	-0.93
215.732	-18.06
216.117	27.36
216.502	-32.05
216.888	24.74
217.273	7.72
217.658	17.88
218.043	42.36
218.428	9.6
218.813	-1.25
219.198	11.41
219.583	4.46
219.968	15.38
220.353	10.21
220.738	18.41
221.122	28.39
221.507	6.18
221.892	-11.26
222.276	-3.78
222.661	-2.92
223.046	3.78
223.43	3.05
223.815	-6.6
224.199	18.89
224.583	7.64
224.968	8.65
225.352	19.98
225.736	12.72
226.121	8.45
226.505	6.06
226.889	3.2
227.273	13.11
227.657	4.75
228.041	6.74
228.425	9.46
228.809	4.99
229.193	6.78
229.577	7.02
229.961	7.85
230.344	7.96
230.728	7.14
231.112	6.86
231.495	6.12
231.879	6.59
232.263	7.2
232.646	6.85
233.03	5.19
233.413	7.31
233.797	6.2
234.18	5.17
234.563	5.86
234.946	6.56
235.33	6.1
235.713	7.13
236.096	6.65
236.479	5.85
236.862	6.08
237.245	5.44
237.628	5.8
238.011	7.91
238.394	5.91
238.777	8.76
239.16	5.55
239.543	5.28
239.925	5.77
240.308	5.76
240.691	5.71
241.073	7.35
241.456	6.67
241.838	5.74
242.221	7.14
242.603	6.07
242.986	6.86
243.368	6.97
243.75	6.64
244.133	6.83
244.515	7.14
244.897	7.65
245.279	6.96
245.661	7.32
246.043	6.81
246.425	7.94
246.807	5.97
247.189	5.96
247.571	6.76
247.953	6.47
248.335	6.52
248.717	6.77
249.098	6.72
249.48	6.81
249.862	6.5
250.243	6.72
250.625	6.48
251.006	7.44
251.388	5.25
251.769	7.48
252.151	6.29
252.532	6.49
252.913	6.05
253.295	6.84
253.676	6.76
254.057	6.6
254.438	6.08
254.819	6.71
255.2	6.24
255.581	6.8
255.962	5.39
256.343	7.13
256.724	5.61
257.105	7.62
257.486	6.11
257.867	6.74
258.247	5.38
258.628	6.35
259.009	6.23
259.389	6.3
259.77	6.25
260.15	6.22
260.531	5.89
260.911	6.1
261.292	6.27
261.672	5.9
262.052	6.19
262.432	6.32
262.813	5.47
263.193	6.32
263.573	6.54
263.953	6.07
264.333	6.43
264.713	6.53
265.093	5.63
265.473	5.36
265.853	5.91
266.233	6.58
266.612	5.83
266.992	5.58
267.372	5.67
267.752	6.29
268.131	5.54
268.511	5.7
268.89	5.85
269.27	5.45
269.649	6.23
270.029	5.96
270.408	5.65
270.787	5.77
271.167	5.43
271.546	5.85
271.925	5.68
272.304	6.2
272.683	5.76
273.062	5.62
273.441	6.18
273.82	6.08
274.199	5.79
274.578	5.21
274.957	5.65
275.336	5.6
275.715	5.99
276.093	5.81
276.472	5.54
276.851	5.15
277.229	5.56
277.608	5.47
277.986	5.74
278.365	5.8
278.743	5.79
279.122	6.32
279.5	5.7
279.878	5.23
280.257	5.1
280.635	6.05
281.013	5.21
281.391	5.57
281.769	5.44
282.147	5.53
282.525	5.6
282.903	5.39
283.281	5.61
283.659	5.21
284.037	5.51
284.415	5.58
284.792	5.06
285.17	5.35
285.548	5.24
285.925	4.9
286.303	5.34
286.68	5.38
287.058	5.03
287.435	5.22
287.813	5.17
288.19	4.98
288.567	4.95
288.945	5.49
289.322	5.19
289.699	5.52
290.076	5.33
290.453	5.28
290.83	4.97
291.207	5
291.584	5.13
291.961	5.14
292.338	5.37
292.715	5.21
293.092	4.83
293.469	5.42
293.845	4.49
294.222	4.71
294.599	4.75
294.975	5.45
295.352	4.76
295.728	4.61
296.105	4.96
296.481	5
296.858	5.55
297.234	4.67
297.61	5.12
297.986	4.92
298.363	4.96
298.739	4.98
299.115	4.94
299.491	5.17
299.867	4.51
300.243	4.87
300.619	4.98
300.995	4.86
301.371	4.82
301.746	4.57
302.122	5.31
302.498	5.06
302.874	4.44
303.249	4.78
303.625	4.53
304	4.8
304.376	5.55
304.751	4.79
305.127	4.61
305.502	4.77
305.878	4.49
306.253	4.4
306.628	5.32
307.003	4.76
307.378	4.41
307.754	5.18
308.129	5.01
308.504	5.6
308.879	5.51
309.254	4.75
309.629	5.29
310.003	4.74
310.378	4.7
310.753	4.59
311.128	4.91
311.502	5.12
311.877	4.92
312.252	4.62
312.626	4.76
313.001	4.77
313.375	4.69
313.75	4.61
314.124	5.02
314.498	4.37
314.873	4.87
315.247	4.67
315.621	4.52
315.995	5.04
316.369	4.81
316.743	4.97
317.117	4.89
317.491	4.76
317.865	4.94
318.239	4.67
318.613	4.12
318.987	4.39
319.361	4.63
319.734	4.86
320.108	4.47
320.482	4.45
320.855	4.72
321.229	4.59
321.602	4.81
321.976	4.51
322.349	4.66
322.723	4.5
323.096	4.89
323.469	4.88
323.843	3.91
324.216	4.24
324.589	4.44
324.962	4.51
325.335	4.22
325.708	4.65
326.081	4.49
326.454	4.87
326.827	4.05
327.2	4.86
327.573	4.65
327.945	4.68
328.318	4.35
328.691	5.09
329.063	4
329.436	4.02
329.809	5.12
330.181	4.8
330.553	4.01
330.926	4.33
331.298	4.01
331.671	4.64
332.043	4.5
332.415	4.96
332.787	4.53
333.159	4.45
333.532	4.82
333.904	5
334.276	4.54
334.648	4.53
335.02	4.37
335.391	4.3
335.763	4.46
336.135	4.76
336.507	4.63
336.879	3.87
337.25	4.64
337.622	4.15
337.993	4.05
338.365	4.19
338.736	4.36
339.108	4.59
339.479	3.9
339.851	4.64
340.222	4.26
340.593	4.65
340.964	4.97
341.336	4.54
341.707	4.84
342.078	4.53
342.449	4.72
342.82	4.7
343.191	4.89
343.562	4.91
343.933	4.64
344.303	4.76
344.674	5.17
345.045	5.11
345.416	4.78
345.786	4.5
346.157	4.84
346.527	4.53
346.898	4.61
347.268	4.82
347.639	4.6
348.009	5.2
348.38	4.31
348.75	4.69
349.12	5.12
349.49	4.61
349.861	4.67
350.231	4.67
350.601	5.07
350.971	4.65
351.341	4.99
351.711	4.52
352.081	4.7
352.45	4.59
352.82	4.78
353.19	4.65
353.56	4.71
353.929	4.88
354.299	4.73
354.669	4.98
355.038	4.68
355.408	4.49
355.777	4.94
356.147	4.78
356.516	4.47
356.885	5.06
357.254	4.79
357.624	4.55
357.993	5.07
358.362	4.76
358.731	5.04
359.1	4.56
359.469	4.8
359.838	4.9
360.207	4.8
360.576	5
360.945	4.45
361.314	4.99
361.682	5.1
362.051	4.66
362.42	4.81
362.788	4.77
363.157	4.95
363.525	4.64
363.894	4.87
364.262	5.05
364.631	4.67
364.999	4.9
365.367	4.77
365.735	5.05
366.104	4.86
366.472	4.91
366.84	5.14
367.208	4.79
367.576	5.26
367.944	4.93
368.312	4.91
368.68	4.93
369.048	4.91
369.416	5.11
369.783	4.72
370.151	4.54
370.519	4.87
370.886	5
371.254	5.07
371.621	5.24
371.989	5.19
372.356	5.24
372.724	4.67
373.091	5.08
373.458	5.03
373.826	5.27
374.193	4.9
374.56	5
374.927	5.06
375.294	5.03
375.661	4.89
376.028	5.04
376.395	5.05
376.762	5.06
377.129	4.97
377.496	4.81
377.863	5.17
378.229	5.48
378.596	5.09
378.963	4.84
379.329	5.07
379.696	5.07
380.062	5.1
380.429	5.24
380.795	4.85
381.161	5.1
381.528	5.45
381.894	4.98
382.26	5.2
382.626	5.22
382.993	5.43
383.359	5.24
383.725	5.68
384.091	5.5
384.457	5.03
384.823	5.33
385.188	5.12
385.554	5.32
385.92	4.97
386.286	5.1
386.651	5.21
387.017	5.26
387.383	5.2
387.748	5.45
388.114	5.53
388.479	5.69
388.845	5.22
389.21	5.03
389.575	5.39
389.94	5.12
390.306	5.54
390.671	5.19
391.036	5.35
391.401	5.57
391.766	5.1
392.131	4.93
392.496	5.42
392.861	5.22
393.226	5.29
393.591	5.57
393.956	5.45
394.32	5.47
394.685	5.67
395.05	5.35
395.414	5.4
395.779	5.35
396.143	5.36
396.508	5.86
396.872	5.54
397.236	5.33
397.601	5.57
397.965	5.58
398.329	5.36
398.694	5.29
399.058	5.33
399.422	5.54
399.786	5.49
400.15	5.67
400.514	5.71
400.878	5.62
401.242	5.43
401.605	5.48
401.969	5.37
402.333	5.55
402.697	5.75
403.06	5.34
403.424	5.53
403.787	5.76
404.151	5.66
404.514	5.77
404.878	5.52
405.241	5.61
405.604	5.61
405.968	5.43
406.331	5.53
406.694	5.6
407.057	5.34
407.42	5.44
407.783	5.49
408.146	5.68
408.509	5.5
408.872	5.71
409.235	5.69
409.598	5.39
409.961	5.63
410.323	5.48
410.686	5.83
411.049	5.77
411.411	5.64
411.774	5.78
412.136	5.84
412.499	5.87
412.861	5.78
413.223	5.7
413.586	6
413.948	5.66
414.31	5.78
414.672	5.63
415.035	5.77
415.397	5.84
415.759	5.73
416.121	5.74
416.483	5.71
416.845	5.78
417.206	5.52
417.568	5.67
417.93	5.6
418.292	5.79
418.653	5.88
419.015	5.79
419.377	5.72
419.738	5.78
420.1	5.73
420.461	5.71
420.822	5.61
421.184	5.7
421.545	5.67
421.906	5.59
422.267	5.66
422.629	5.57
422.99	5.65
423.351	5.6
423.712	5.78
424.073	5.8
424.434	5.66
424.795	5.72
425.155	5.6
425.516	5.76
425.877	5.7
426.238	5.67
426.598	5.6
426.959	5.81
427.32	5.75
427.68	5.83
428.041	5.92
428.401	5.91
428.761	5.99
429.122	5.87
429.482	5.77
429.842	5.8
430.202	5.95
430.563	5.76
430.923	5.97
431.283	5.8
431.643	5.95
432.003	5.94
432.363	5.67
432.722	5.8
433.082	5.96
433.442	5.86
433.802	5.93
434.161	5.84
434.521	5.78
434.881	5.8
435.24	5.98
435.6	5.79
435.959	5.92
436.319	5.89
436.678	6.03
437.037	6.07
437.396	5.9
437.756	5.96
438.115	5.96
438.474	5.89
438.833	5.7
439.192	5.94
439.551	5.94
439.91	5.76
440.269	5.8
440.628	5.98
440.987	5.92
441.345	5.94
441.704	5.86
442.063	5.76
442.421	5.89
442.78	5.89
443.138	5.84
443.497	6
443.855	5.89
444.214	5.99
444.572	6.02
444.93	6
445.288	5.91
445.647	5.92
446.005	5.95
446.363	5.91
446.721	5.86
447.079	5.89
447.437	5.93
447.795	5.82
448.153	5.86
448.51	5.87
448.868	5.89
449.226	5.84
449.584	5.96
449.941	6.03
450.299	6
450.656	5.92
451.014	5.86
451.371	6.01
451.729	6.06
452.086	6.08
452.443	6.06
452.801	6.05
453.158	5.95
453.515	5.79
453.872	5.99
454.229	5.99
454.586	6.16
454.943	5.92
455.3	6.06
455.657	6.15
456.014	5.77
456.371	6.01
456.727	6.1
457.084	6.04
457.441	6.09
457.797	6.06
458.154	6.17
458.51	6.16
458.867	6.12
459.223	6.1
459.58	6.27
459.936	6.04
460.292	6.06
460.648	6.03
461.005	6
461.361	5.9
461.717	5.9
462.073	5.89
462.429	6.04
462.785	6
463.141	6.09
463.496	5.95
463.852	5.89
464.208	6.16
464.564	6.1
464.919	6.11
465.275	6.01
465.631	6.17
465.986	6.17
466.342	6.07
466.697	6.18
467.052	6.13
467.408	5.99
467.763	6.29
468.118	6.02
468.473	6.13
468.829	6.12
469.184	6.17
469.539	6.1
469.894	6.04
470.249	6.18
470.603	6.11
470.958	6.11
471.313	6.03
471.668	6.02
472.023	5.99
472.377	6.01
472.732	6.02
473.086	6.12
473.441	6.07
473.795	5.99
474.15	6.28
474.504	6.01
474.859	6.16
475.213	6.18
475.567	6.14
475.921	6.02
476.275	6
476.63	6.03
476.984	6.12
477.338	6.23
477.692	6.08
478.045	6.18
478.399	6.19
478.753	6.19
479.107	6.06
479.461	6.12
479.814	6.01
480.168	5.94
480.521	6.03
480.875	6.16
481.228	6.24
481.582	6.17
481.935	6.17
482.289	6.18
482.642	6.26
482.995	6.16
483.348	6.12
483.701	6.02
484.055	6
484.408	6.03
484.761	5.84
485.114	5.81
485.466	5.76
485.819	5.86
486.172	5.88
486.525	5.93
486.878	6.02
487.23	6.05
487.583	6.05
487.936	5.99
488.288	5.91
488.641	5.95
488.993	5.88
489.345	5.92
489.698	5.92
490.05	5.94
490.402	5.96
490.754	5.99
491.107	6.15
491.459	6.16
491.811	6.14
492.163	6.06
492.515	6
492.866	5.99
493.218	5.93
493.57	5.94
493.922	5.98
494.274	6.07
494.625	6.07
494.977	6.11
495.328	6.16
495.68	6.1
496.031	6.1
496.383	6.12
496.734	6.27
497.086	6.2
497.437	6.33
497.788	6.15
498.139	6.18
498.49	6.21
498.842	6.08
499.193	6.14
499.544	6.21
499.894	6.26
500.245	6.14
500.596	6.21
500.947	6.17
501.298	6.18
501.648	6.13
501.999	6.09
502.35	6.3
502.7	6.17
503.051	6.22
503.401	6.3
503.752	6.1
504.102	6.19
504.452	6.32
504.803	6.09
505.153	6.14
505.503	6.22
505.853	6.24
506.203	6.3
506.553	6.22
506.903	6.32
507.253	6.43
507.603	6.16
507.953	6.26
508.303	6.23
508.652	6.21
509.002	6.27
509.352	6.22
509.701	6.45
510.051	6.19
510.4	6.15
510.75	6.16
511.099	6.22
511.449	6.05
511.798	6.15
512.147	6.23
512.496	6.23
512.846	6.23
513.195	6.19
513.544	6.12
513.893	6.14
514.242	6.3
514.591	6.19
514.939	6.2
515.288	6.14
515.637	6.3
515.986	6.22
516.334	6.27
516.683	6.25
517.032	6.29
517.38	6.25
517.729	6.18
518.077	6.31
518.426	6.26
518.774	6.1
519.122	6.23
519.47	6.16
519.819	6.11
520.167	6.25
520.515	6.24
520.863	6.2
521.211	6.09
521.559	6.25
521.907	6.24
522.255	6.31
522.602	6.2
522.95	6.22
523.298	6.34
523.645	6.32
523.993	6.22
524.341	6.14
524.688	6.3
525.036	6.17
525.383	6.32
525.73	6.26
526.078	6.22
526.425	6.2
526.772	6.26
527.119	6.11
527.466	6.26
527.814	6.23
528.161	6.22
528.508	6.14
528.854	6.09
529.201	6.16
529.548	6.07
529.895	5.98
530.242	5.96
530.588	6.01
530.935	6.05
531.282	6.04
531.628	6.12
531.975	6.12
532.321	6.19
532.667	6.24
533.014	6.2
533.36	6.29
533.706	6.28
534.052	6.13
534.399	6.12
534.745	6.12
535.091	6.09
535.437	6.06
535.783	6.09
536.129	6.14
536.474	6.21
536.82	6.38
537.166	6.18
537.512	6.15
537.857	6.19
538.203	6.17
538.549	6.23
538.894	6.15
539.239	6.19
539.585	6.35
539.93	6.31
540.276	6.15
540.621	6.3
540.966	6.17
541.311	6.37
541.656	6.34
542.001	6.15
542.346	6.14
542.691	6.07
543.036	6.08
543.381	6.12
543.726	6.16
544.071	6.2
544.415	6.19
544.76	6.13
545.105	6.14
545.449	6.24
545.794	6.25
546.138	6.22
546.483	6.24
546.827	6.3
547.171	6.25
547.516	6.16
547.86	6.19
548.204	6.29
548.548	6.29
548.892	6.24
549.236	6.39
549.58	6.36
549.924	6.3
550.268	6.38
550.612	6.3
550.956	6.22
551.3	6.31
551.643	6.33
551.987	6.21
552.33	6.37
552.674	6.46
553.017	6.26
553.361	6.27
553.704	6.3
554.048	6.35
554.391	6.28
554.734	6.42
555.077	6.17
555.42	6.39
555.764	6.38
556.107	6.24
556.45	6.23
556.793	6.23
557.135	6.43
557.478	6.3
557.821	6.34
558.164	6.54
558.507	6.43
558.849	6.31
559.192	6.19
559.534	6.4
559.877	6.18
560.219	6.44
560.562	6.41
560.904	6.19
561.246	6.19
561.589	6.34
561.931	6.5
562.273	6.18
562.615	6.34
562.957	6.24
563.299	6.34
563.641	6.49
563.983	6.18
564.325	6.46
564.667	6.42
565.008	6.13
565.35	6.38
565.692	6.22
566.033	6.42
566.375	6.16
566.716	6.31
567.058	6.37
567.399	6.36
567.741	6.1
568.082	6.24
568.423	6.3
568.764	6.18
569.105	6.27
569.447	6.43
569.788	6.42
570.129	6.37
570.47	6.14
570.811	6.29
571.151	6.4
571.492	6.29
571.833	6.07
572.174	6.19
572.514	6.35
572.855	6.27
573.195	6.41
573.536	6.22
573.876	6.26
574.217	6.15
574.557	6.22
574.898	6.3
575.238	6.08
575.578	6.41
575.918	6.11
576.258	6.27
576.598	6.2
576.938	6.23
577.278	6.15
577.618	6.19
577.958	6.31
578.298	6.33
578.638	6.25
578.977	6.27
579.317	6.17
579.657	6.2
579.996	6.27
580.336	6.2
580.675	6.15
581.014	6.14
581.354	6.29
581.693	6.15
582.032	6.24
582.372	5.95
582.711	6.05
583.05	6.27
583.389	6.38
583.728	6.31
584.067	6.34
584.406	6.3
584.745	6.35
585.083	6.07
585.422	6.35
585.761	6.44
586.1	6.24
586.438	6.13
586.777	6.23
587.115	6.19
587.454	6.26
587.792	6.38
588.13	6.3
588.469	6.29
588.807	6.26
589.145	6.36
589.483	6.25
589.821	6.01
590.159	6.06
590.497	6.34
590.835	6.32
591.173	6.19
591.511	6.21
591.849	6.2
592.187	6.15
592.524	6.33
592.862	6.14
593.2	6.2
593.537	6.37
593.875	6.2
594.212	6.09
594.55	6.1
594.887	6.33
595.224	6.36
595.561	6.08
595.899	6.09
596.236	6.27
596.573	6.23
596.91	6.19
597.247	6.23
597.584	6.17
597.921	6.24
598.258	6.18
598.594	6.26
598.931	6.3
599.268	5.98
599.604	6.14
599.941	6.09
600.277	6.11
600.614	6.21
600.95	6.39
601.287	6.33
601.623	6.3
601.959	6.15
602.296	6.15
602.632	6.19
602.968	6.03
603.304	6.07
603.64	5.96
603.976	6.35
604.312	6.35
604.648	6.23
604.984	6.28
605.319	6.25
605.655	6.12
605.991	6.31
606.326	6.2
606.662	6.06
606.998	6.29
607.333	6.19
607.668	6.23
608.004	6.08
608.339	6.16
608.674	6.16
609.01	5.93
609.345	5.98
609.68	6.07
610.015	6.25
610.35	6.11
610.685	6.29
611.02	6.16
611.355	6.23
611.689	6.1
612.024	6.03
612.359	5.86
612.694	6.1
613.028	6.41
613.363	6.36
613.697	6.17
614.032	6.13
614.366	6.26
614.7	5.85
615.035	5.93
615.369	5.8
615.703	6.17
616.037	6.22
616.371	6.22
616.705	6.03
617.039	6.27
617.373	5.92
617.707	5.85
618.041	6.21
618.375	5.97
618.709	6.26
619.042	6.17
619.376	6.17
619.71	6.06
620.043	5.66
620.377	6.39
620.71	6.15
621.043	5.94
621.377	6.46
621.71	6.08
622.043	6.07
622.376	6.38
622.709	6.25
623.043	5.72
623.376	5.8
623.709	6.15
624.041	6.31
624.374	6.39
624.707	5.69
625.04	6
625.373	6.05
625.705	6.08
626.038	6.1
626.37	6.03
626.703	6.27
627.035	5.99
627.368	5.78
627.7	6.1
628.032	5.92
628.365	5.85
628.697	6.18
629.029	6.17
629.361	6.22
629.693	5.84
630.025	6.31
630.357	6.3
630.689	6.03
631.021	5.98
631.353	6.02
631.684	6.26
632.016	6.4
632.348	6.33
632.679	6.07
633.011	6.32
633.342	5.81
633.674	6.3
634.005	5.98
634.336	5.96
634.668	5.61
634.999	6.26
635.33	6.38
635.661	6.17
635.992	6.08
636.323	6.3
636.654	6.24
636.985	5.84
637.316	5.74
637.647	6.09
637.977	6
638.308	6.41
638.639	6.14
638.969	5.81
639.3	6.22
639.63	6.28
639.961	5.92
640.291	6.18
640.622	6.39
640.952	6.05
641.282	6.45
641.612	5.93
641.943	6.08
642.273	6
642.603	6.01
642.933	6.46
643.263	6.24
643.592	5.55
643.922	6.12
644.252	5.86
644.582	6.36
644.911	6.4
645.241	6.44
645.571	6.16
645.9	5.76
646.23	6.11
646.559	5.67
646.888	5.9
647.218	6.57
647.547	6.16
647.876	5.93
648.205	6.22
648.534	5.84
648.863	5.78
649.192	6.05
649.521	6.01
649.85	6.47
650.179	5.72
650.508	6.37
650.837	6.51
651.165	6.21
651.494	6.22
651.822	6.21
652.151	6.1
652.479	6.18
652.808	6.28
653.136	5.82
653.465	6.08
653.793	6.22
654.121	5.96
654.449	6.4
654.777	6.18
655.105	5.97
655.433	6.31
655.761	5.75
656.089	6.5
656.417	5.81
656.745	5.87
657.073	6.39
657.4	5.83
657.728	6.12
658.056	6.03
658.383	6.16
658.711	5.97
659.038	6.41
659.365	6.45
659.693	6.33
660.02	6.07
660.347	6.35
660.674	6.15
661.001	6.22
661.329	6.22
661.656	6.22
661.982	5.99
662.309	6.24
662.636	5.99
662.963	6.05
663.29	6.21
663.616	6.39
663.943	6.35
664.27	6.69
664.596	6.01
664.923	6.38
665.249	6.08
665.576	6.03
665.902	6.67
666.228	5.83
666.554	6.26
666.881	6.12
667.207	6.07
667.533	6.09
667.859	5.71
668.185	6.57
668.511	6.03
668.837	6.07
669.162	5.63
669.488	5.85
669.814	5.87
670.139	6.18
670.465	6.33
670.791	6.34
671.116	6.27
671.442	5.58
671.767	6.29
672.092	6.17
672.418	6.53
672.743	5.95
673.068	6.62
673.393	6.51
673.718	6.01
674.043	5.76
674.368	6.06
674.693	6.98
675.018	5.9
675.343	6.65
675.667	6.21
675.992	6.74
676.317	6.68
676.641	6.79
676.966	6.75
677.29	6.13
677.615	6.35
677.939	6.27
678.264	6.36
678.588	6.43
678.912	6.41
679.236	6.62
679.56	6
679.885	6.57
680.209	6.17
680.532	6.8
680.856	6.76
681.18	6.36
681.504	6.95
681.828	5.91
682.152	6.47
682.475	6.79
682.799	6.01
683.122	5.78
683.446	6.15
683.769	6.12
684.093	6.21
684.416	6.57
684.739	6.66
685.062	6.2
685.386	6.48
685.709	6.37
686.032	6.3
686.355	6.3
686.678	6.41
687.001	6.93
687.324	6.38
687.646	6.46
687.969	7.05
688.292	6.59
688.614	7.35
688.937	7.09
689.26	6.48
689.582	6.21
689.904	6.3
690.227	6.74
690.549	6.15
690.871	6.86
691.194	6.77
691.516	6.03
691.838	6.24
692.16	6.66
692.482	6.66
692.804	6.66
693.126	6.32
693.448	6.63
693.769	6.3
