Data from 0024_chest_Reflection__3__64.txt Node

Date: Thu Oct 20 20:51:02 CDT 2022
User: ToomeyLab
Spectrometer: FLMS14357
Trigger mode: 0
Integration Time (sec): 1.000000E-2
Scans to average: 100
Electric dark correction enabled: true
Nonlinearity correction enabled: false
Boxcar width: 0
XAxis mode: Wavelengths
Number of Pixels in Spectrum: 2048
>>>>>Begin Spectral Data<<<<<
189.047	3.99
189.435	3.99
189.823	3.99
190.211	194.7
190.599	99.7
190.987	1.64
191.375	34.75
191.763	31.36
192.151	39.32
192.538	-9987.1
192.926	-75.15
193.314	-131.67
193.702	77.25
194.089	200.65
194.477	58.21
194.864	23.03
195.252	82.58
195.639	54.27
196.027	888.41
196.414	45.34
196.801	107.07
197.189	-18.22
197.576	183.54
197.963	67.36
198.351	-92.2
198.738	30.98
199.125	43.3
199.512	-3.43
199.899	-26.8
200.286	4.06
200.673	35.8
201.06	12.4
201.447	20.01
201.833	58.52
202.22	25.14
202.607	-23.47
202.994	23.3
203.38	-12.92
203.767	-77.95
204.154	-52.71
204.54	-61.81
204.927	34.8
205.313	2.67
205.699	25.58
206.086	-11.32
206.472	12.38
206.858	6.55
207.245	-21.31
207.631	-54.83
208.017	33.96
208.403	46.33
208.789	-120.77
209.175	-49.82
209.561	-7.73
209.947	-32.59
210.333	-36.11
210.719	3.39
211.105	20.3
211.491	-17.39
211.876	-4.51
212.262	16.63
212.648	-55.76
213.034	-12.83
213.419	7.66
213.805	-17.05
214.19	-55.79
214.576	7.9
214.961	17.77
215.346	-39.48
215.732	-24.89
216.117	28.05
216.502	-35.27
216.888	6.9
217.273	14.08
217.658	-3.89
218.043	13.16
218.428	1.15
218.813	-9.7
219.198	15.48
219.583	-29.01
219.968	26.48
220.353	-14.97
220.738	3.28
221.122	13.86
221.507	-0.32
221.892	-12.53
222.276	4.21
222.661	-2.62
223.046	2.6
223.43	1.76
223.815	-2.13
224.199	9.27
224.583	-2.29
224.968	3.47
225.352	11.33
225.736	5.19
226.121	8.55
226.505	0.04
226.889	1.06
227.273	6.82
227.657	2.55
228.041	1.9
228.425	3.59
228.809	2.83
229.193	2.31
229.577	1.8
229.961	1.68
230.344	1.7
230.728	1.48
231.112	1.89
231.495	2.56
231.879	1.95
232.263	3.16
232.646	1.47
233.03	0.57
233.413	1.88
233.797	1.02
234.18	3.86
234.563	2.05
234.946	2.7
235.33	2
235.713	1.68
236.096	1.29
236.479	1.33
236.862	0.32
237.245	-0.15
237.628	1.62
238.011	2.1
238.394	1.01
238.777	2.02
239.16	-0.17
239.543	0.1
239.925	1.9
240.308	2.5
240.691	0.23
241.073	1.63
241.456	1.1
241.838	2.3
242.221	1.2
242.603	1.32
242.986	1.56
243.368	2.32
243.75	1.4
244.133	1.92
244.515	1.43
244.897	2.27
245.279	1.35
245.661	1.66
246.043	1.62
246.425	2.44
246.807	1.28
247.189	1.19
247.571	1.86
247.953	1.26
248.335	1.7
248.717	1.85
249.098	1.77
249.48	1.61
249.862	1.44
250.243	1.7
250.625	1.88
251.006	2.67
251.388	1.31
251.769	2.59
252.151	2.34
252.532	1.54
252.913	2.32
253.295	1.96
253.676	2.32
254.057	1.78
254.438	1.74
254.819	1.22
255.2	2.93
255.581	2.14
255.962	0.96
256.343	2.2
256.724	0.61
257.105	2.8
257.486	1.97
257.867	2.16
258.247	1.68
258.628	2.37
259.009	1.53
259.389	1.88
259.77	1.79
260.15	1.21
260.531	1.69
260.911	1.64
261.292	1.58
261.672	1.56
262.052	1.74
262.432	1.86
262.813	1.74
263.193	1.88
263.573	1.59
263.953	1.41
264.333	1.54
264.713	1.99
265.093	2.21
265.473	1.45
265.853	1.77
266.233	1.24
266.612	1.16
266.992	1.36
267.372	1.11
267.752	1.56
268.131	1.29
268.511	1.72
268.89	1.69
269.27	1.27
269.649	1.81
270.029	1.95
270.408	0.84
270.787	1.47
271.167	2
271.546	1.09
271.925	1.08
272.304	1.74
272.683	1.42
273.062	1.43
273.441	1.66
273.82	2.11
274.199	1.28
274.578	1.17
274.957	1.17
275.336	1.28
275.715	1.59
276.093	1.84
276.472	1.64
276.851	1.32
277.229	1.8
277.608	1.3
277.986	1.27
278.365	1.55
278.743	1.84
279.122	1.87
279.5	1.76
279.878	1.07
280.257	1.06
280.635	2.34
281.013	1.44
281.391	1.41
281.769	1.35
282.147	1.25
282.525	1.71
282.903	1.88
283.281	1.48
283.659	1.17
284.037	1.57
284.415	1.65
284.792	1.16
285.17	1.12
285.548	1.69
285.925	1.43
286.303	1.69
286.68	1.56
287.058	1.27
287.435	1.76
287.813	1.28
288.19	1.29
288.567	1.5
288.945	1.84
289.322	1.16
289.699	1.62
290.076	1.76
290.453	1.34
290.83	1.4
291.207	1.51
291.584	1.47
291.961	1.51
292.338	1.78
292.715	1.57
293.092	1.43
293.469	1.86
293.845	1.35
294.222	1.23
294.599	2.05
294.975	1.77
295.352	1.46
295.728	1.35
296.105	1.42
296.481	1.95
296.858	1.82
297.234	1.6
297.61	1.32
297.986	1.52
298.363	1.8
298.739	1.44
299.115	1.74
299.491	1.89
299.867	1.49
300.243	1.87
300.619	1.49
300.995	1.95
301.371	1.89
301.746	1.6
302.122	2
302.498	1.82
302.874	1.68
303.249	1.13
303.625	1.32
304	1.32
304.376	1.96
304.751	1.72
305.127	1.39
305.502	1.79
305.878	1.69
306.253	1.85
306.628	1.74
307.003	1.66
307.378	1.8
307.754	2.18
308.129	1.89
308.504	1.94
308.879	2.02
309.254	1.59
309.629	2.22
310.003	1.77
310.378	1.6
310.753	1.63
311.128	1.72
311.502	2.13
311.877	1.84
312.252	1.57
312.626	1.68
313.001	2.09
313.375	1.71
313.75	1.6
314.124	2
314.498	1.99
314.873	2.38
315.247	1.68
315.621	1.76
315.995	1.97
316.369	1.81
316.743	2.39
317.117	2.12
317.491	1.92
317.865	2.34
318.239	1.93
318.613	1.63
318.987	1.85
319.361	1.68
319.734	2.37
320.108	2.07
320.482	2.06
320.855	2.41
321.229	2.28
321.602	2.12
321.976	2.48
322.349	1.3
322.723	2.16
323.096	1.59
323.469	2.06
323.843	1.42
324.216	1.91
324.589	1.99
324.962	2.02
325.335	1.59
325.708	1.97
326.081	2.1
326.454	1.79
326.827	1.49
327.2	2.07
327.573	2.54
327.945	2
328.318	1.87
328.691	2.12
329.063	1.71
329.436	1.3
329.809	2.11
330.181	1.84
330.553	1.41
330.926	1.88
331.298	1.58
331.671	1.42
332.043	2.19
332.415	2.58
332.787	2.29
333.159	2.22
333.532	1.78
333.904	2.22
334.276	2.32
334.648	1.76
335.02	1.48
335.391	1.52
335.763	2.13
336.135	2.15
336.507	2.12
336.879	1.5
337.25	1.94
337.622	1.61
337.993	1.68
338.365	1.78
338.736	1.71
339.108	2.16
339.479	1.4
339.851	2.33
340.222	2.01
340.593	1.86
340.964	2.35
341.336	1.71
341.707	2.03
342.078	1.88
342.449	2.03
342.82	2.12
343.191	2.23
343.562	2.44
343.933	1.89
344.303	2.09
344.674	2.61
345.045	2.47
345.416	2.07
345.786	2.13
346.157	2.12
346.527	1.88
346.898	1.77
347.268	2.02
347.639	2.1
348.009	2.77
348.38	1.94
348.75	2.01
349.12	2.18
349.49	1.58
349.861	2.31
350.231	1.99
350.601	2.31
350.971	1.99
351.341	2.2
351.711	2.15
352.081	2.29
352.45	2.28
352.82	2.13
353.19	2.07
353.56	1.61
353.929	2.25
354.299	1.97
354.669	2.05
355.038	1.98
355.408	1.79
355.777	2.34
356.147	1.8
356.516	2.03
356.885	2.38
357.254	2.39
357.624	1.88
357.993	2.17
358.362	2.24
358.731	2.09
359.1	1.59
359.469	1.89
359.838	2.19
360.207	2.18
360.576	2.1
360.945	1.98
361.314	2
361.682	2.23
362.051	2.17
362.42	2.16
362.788	1.8
363.157	2.17
363.525	2.03
363.894	2.17
364.262	2.11
364.631	2.06
364.999	2.21
365.367	2.09
365.735	2.39
366.104	2.34
366.472	2.13
366.84	2.44
367.208	1.93
367.576	2.31
367.944	1.98
368.312	1.87
368.68	2.18
369.048	1.93
369.416	2.18
369.783	2.09
370.151	2.06
370.519	2.09
370.886	2.46
371.254	2.17
371.621	2.14
371.989	2.24
372.356	2.27
372.724	2.06
373.091	1.9
373.458	1.97
373.826	2.43
374.193	2.08
374.56	2.26
374.927	2.31
375.294	2.23
375.661	2
376.028	2.26
376.395	2
376.762	2.29
377.129	2.01
377.496	1.91
377.863	2.32
378.229	2.12
378.596	2.14
378.963	1.98
379.329	2.13
379.696	1.95
380.062	2.36
380.429	2.55
380.795	1.95
381.161	2.12
381.528	2.42
381.894	2.33
382.26	2.06
382.626	2.2
382.993	2.26
383.359	2.03
383.725	2.46
384.091	2.58
384.457	2.17
384.823	2.37
385.188	2
385.554	1.94
385.92	2.16
386.286	2.24
386.651	2.18
387.017	2.1
387.383	2.1
387.748	2.29
388.114	2.43
388.479	2.52
388.845	2.03
389.21	2.08
389.575	2.29
389.94	2.23
390.306	2.25
390.671	2.28
391.036	2.23
391.401	2.31
391.766	2.1
392.131	1.99
392.496	2.16
392.861	2
393.226	2.11
393.591	2.54
393.956	2.32
394.32	2.62
394.685	2.48
395.05	2.32
395.414	2.04
395.779	2.38
396.143	2.47
396.508	2.47
396.872	2.31
397.236	2.08
397.601	2.46
397.965	2.44
398.329	2.31
398.694	2.36
399.058	2.38
399.422	2.08
399.786	2.27
400.15	2.43
400.514	2.36
400.878	2.31
401.242	2.36
401.605	2.37
401.969	2.33
402.333	2.37
402.697	2.3
403.06	2.33
403.424	2.32
403.787	2.44
404.151	2.36
404.514	2.32
404.878	2.22
405.241	2.35
405.604	2.36
405.968	2.38
406.331	2.46
406.694	2.37
407.057	2.11
407.42	2.18
407.783	2.13
408.146	2.44
408.509	2.34
408.872	2.29
409.235	2.48
409.598	2.39
409.961	2.52
410.323	2.34
410.686	2.38
411.049	2.21
411.411	2.32
411.774	2.48
412.136	2.52
412.499	2.39
412.861	2.33
413.223	2.54
413.586	2.5
413.948	2.44
414.31	2.28
414.672	2.31
415.035	2.56
415.397	2.73
415.759	2.35
416.121	2.42
416.483	2.45
416.845	2.46
417.206	2.33
417.568	2.34
417.93	2.32
418.292	2.39
418.653	2.52
419.015	2.39
419.377	2.38
419.738	2.45
420.1	2.43
420.461	2.42
420.822	2.28
421.184	2.42
421.545	2.33
421.906	2.3
422.267	2.27
422.629	2.28
422.99	2.38
423.351	2.27
423.712	2.37
424.073	2.38
424.434	2.45
424.795	2.46
425.155	2.29
425.516	2.36
425.877	2.34
426.238	2.44
426.598	2.36
426.959	2.6
427.32	2.38
427.68	2.53
428.041	2.41
428.401	2.38
428.761	2.61
429.122	2.52
429.482	2.51
429.842	2.43
430.202	2.46
430.563	2.48
430.923	2.5
431.283	2.57
431.643	2.48
432.003	2.6
432.363	2.41
432.722	2.59
433.082	2.66
433.442	2.35
433.802	2.63
434.161	2.38
434.521	2.29
434.881	2.56
435.24	2.44
435.6	2.52
435.959	2.5
436.319	2.56
436.678	2.62
437.037	2.78
437.396	2.39
437.756	2.73
438.115	2.65
438.474	2.6
438.833	2.55
439.192	2.73
439.551	2.55
439.91	2.52
440.269	2.58
440.628	2.63
440.987	2.42
441.345	2.54
441.704	2.63
442.063	2.38
442.421	2.45
442.78	2.54
443.138	2.53
443.497	2.55
443.855	2.57
444.214	2.61
444.572	2.68
444.93	2.56
445.288	2.52
445.647	2.58
446.005	2.61
446.363	2.5
446.721	2.61
447.079	2.6
447.437	2.6
447.795	2.46
448.153	2.54
448.51	2.54
448.868	2.6
449.226	2.64
449.584	2.58
449.941	2.62
450.299	2.64
450.656	2.59
451.014	2.53
451.371	2.56
451.729	2.66
452.086	2.62
452.443	2.73
452.801	2.58
453.158	2.7
453.515	2.65
453.872	2.46
454.229	2.69
454.586	2.79
454.943	2.61
455.3	2.74
455.657	2.73
456.014	2.53
456.371	2.61
456.727	2.75
457.084	2.52
457.441	2.7
457.797	2.82
458.154	2.78
458.51	2.66
458.867	2.61
459.223	2.65
459.58	2.77
459.936	2.76
460.292	2.77
460.648	2.63
461.005	2.71
461.361	2.61
461.717	2.59
462.073	2.59
462.429	2.86
462.785	2.65
463.141	2.7
463.496	2.65
463.852	2.61
464.208	2.74
464.564	2.57
464.919	2.63
465.275	2.6
465.631	2.77
465.986	2.7
466.342	2.76
466.697	2.67
467.052	2.76
467.408	2.7
467.763	2.78
468.118	2.71
468.473	2.86
468.829	2.94
469.184	2.81
469.539	2.75
469.894	2.67
470.249	2.77
470.603	2.8
470.958	2.85
471.313	2.76
471.668	2.71
472.023	2.66
472.377	2.74
472.732	2.86
473.086	2.72
473.441	2.73
473.795	2.79
474.15	2.88
474.504	2.83
474.859	2.79
475.213	2.86
475.567	2.73
475.921	2.77
476.275	2.77
476.63	2.67
476.984	2.83
477.338	2.91
477.692	2.91
478.045	2.72
478.399	2.83
478.753	2.9
479.107	2.84
479.461	2.75
479.814	2.86
480.168	2.85
480.521	2.8
480.875	2.96
481.228	2.86
481.582	2.8
481.935	2.95
482.289	2.97
482.642	2.9
482.995	2.9
483.348	2.89
483.701	2.79
484.055	2.78
484.408	2.74
484.761	2.71
485.114	2.66
485.466	2.7
485.819	2.75
486.172	2.81
486.525	2.81
486.878	2.95
487.23	2.95
487.583	2.89
487.936	2.87
488.288	2.82
488.641	2.74
488.993	2.74
489.345	2.76
489.698	2.79
490.05	2.86
490.402	2.84
490.754	2.92
491.107	3.03
491.459	2.97
491.811	2.98
492.163	2.92
492.515	2.83
492.866	2.81
493.218	2.79
493.57	2.93
493.922	2.96
494.274	3.02
494.625	2.96
494.977	3.1
495.328	2.95
495.68	3.12
496.031	3.17
496.383	3.03
496.734	3.19
497.086	3.11
497.437	3.17
497.788	3.03
498.139	3.01
498.49	3.02
498.842	3.07
499.193	3.14
499.544	3.06
499.894	3.16
500.245	3.1
500.596	3.12
500.947	3.11
501.298	3.18
501.648	3.2
501.999	3.12
502.35	3.23
502.7	3.2
503.051	3.26
503.401	3.15
503.752	3.21
504.102	3.01
504.452	3.17
504.803	3.15
505.153	3.16
505.503	3.15
505.853	3.18
506.203	3.03
506.553	3.15
506.903	3.26
507.253	3.34
507.603	3.1
507.953	3.23
508.303	3.29
508.652	3.17
509.002	3.26
509.352	3.22
509.701	3.43
510.051	3.29
510.4	3.17
510.75	3.32
511.099	3.22
511.449	3.14
511.798	3.29
512.147	3.21
512.496	3.22
512.846	3.3
513.195	3.37
513.544	3.2
513.893	3.26
514.242	3.36
514.591	3.42
514.939	3.24
515.288	3.3
515.637	3.22
515.986	3.48
516.334	3.34
516.683	3.3
517.032	3.37
517.38	3.25
517.729	3.33
518.077	3.46
518.426	3.41
518.774	3.34
519.122	3.36
519.47	3.35
519.819	3.33
520.167	3.3
520.515	3.37
520.863	3.39
521.211	3.36
521.559	3.38
521.907	3.31
522.255	3.48
522.602	3.42
522.95	3.46
523.298	3.5
523.645	3.51
523.993	3.53
524.341	3.39
524.688	3.51
525.036	3.43
525.383	3.54
525.73	3.54
526.078	3.43
526.425	3.58
526.772	3.47
527.119	3.4
527.466	3.46
527.814	3.52
528.161	3.57
528.508	3.59
528.854	3.41
529.201	3.49
529.548	3.37
529.895	3.37
530.242	3.35
530.588	3.37
530.935	3.47
531.282	3.47
531.628	3.52
531.975	3.56
532.321	3.53
532.667	3.65
533.014	3.62
533.36	3.65
533.706	3.64
534.052	3.56
534.399	3.49
534.745	3.6
535.091	3.57
535.437	3.65
535.783	3.62
536.129	3.58
536.474	3.63
536.82	3.69
537.166	3.78
537.512	3.75
537.857	3.67
538.203	3.7
538.549	3.71
538.894	3.7
539.239	3.84
539.585	3.98
539.93	3.91
540.276	3.76
540.621	3.88
540.966	3.67
541.311	3.93
541.656	3.76
542.001	3.8
542.346	3.65
542.691	3.69
543.036	3.73
543.381	3.8
543.726	3.79
544.071	3.86
544.415	3.86
544.76	3.83
545.105	3.86
545.449	3.98
545.794	4.01
546.138	3.91
546.483	3.94
546.827	4
547.171	3.93
547.516	4.02
547.86	3.86
548.204	3.97
548.548	4.02
548.892	4.06
549.236	4.09
549.58	4.17
549.924	4.07
550.268	4.12
550.612	4.12
550.956	4.21
551.3	4.19
551.643	4.18
551.987	4.21
552.33	4.14
552.674	4.35
553.017	4.28
553.361	4.22
553.704	4.35
554.048	4.32
554.391	4.21
554.734	4.21
555.077	4.34
555.42	4.49
555.764	4.55
556.107	4.43
556.45	4.36
556.793	4.45
557.135	4.53
557.478	4.45
557.821	4.4
558.164	4.42
558.507	4.41
558.849	4.4
559.192	4.38
559.534	4.48
559.877	4.31
560.219	4.64
560.562	4.64
560.904	4.59
561.246	4.65
561.589	4.58
561.931	4.78
562.273	4.36
562.615	4.78
562.957	4.56
563.299	4.73
563.641	4.73
563.983	4.54
564.325	4.67
564.667	4.69
565.008	4.7
565.35	4.83
565.692	4.53
566.033	4.84
566.375	4.61
566.716	4.75
567.058	4.61
567.399	4.86
567.741	4.55
568.082	4.63
568.423	4.77
568.764	4.77
569.105	4.86
569.447	4.98
569.788	5.01
570.129	4.83
570.47	4.71
570.811	4.67
571.151	5.02
571.492	4.84
571.833	4.75
572.174	4.81
572.514	4.99
572.855	4.86
573.195	4.92
573.536	5.04
573.876	4.92
574.217	4.93
574.557	4.89
574.898	4.92
575.238	5.07
575.578	5.02
575.918	5.05
576.258	5.16
576.598	5
576.938	5.31
577.278	5.29
577.618	5.16
577.958	5.18
578.298	5.05
578.638	5.3
578.977	5.45
579.317	5.5
579.657	5.08
579.996	5.14
580.336	5.27
580.675	5.5
581.014	5.27
581.354	5.35
581.693	5.32
582.032	5.27
582.372	5.22
582.711	5.25
583.05	5.42
583.389	5.47
583.728	5.49
584.067	5.67
584.406	5.64
584.745	5.57
585.083	5.42
585.422	5.72
585.761	5.88
586.1	5.53
586.438	5.82
586.777	5.59
587.115	5.63
587.454	5.58
587.792	5.82
588.13	5.59
588.469	5.96
588.807	5.79
589.145	5.78
589.483	5.83
589.821	5.81
590.159	5.73
590.497	5.8
590.835	5.7
591.173	5.7
591.511	5.62
591.849	5.95
592.187	5.9
592.524	6.14
592.862	6
593.2	5.97
593.537	6
593.875	6
594.212	5.85
594.55	6.03
594.887	6
595.224	6.16
595.561	6.03
595.899	5.75
596.236	6.18
596.573	6.44
596.91	6.15
597.247	6.16
597.584	6.07
597.921	6.05
598.258	6.22
598.594	6.21
598.931	6.26
599.268	6.08
599.604	6.25
599.941	6.28
600.277	6.29
600.614	6.32
600.95	6.46
601.287	6.51
601.623	6.38
601.959	6.43
602.296	6.47
602.632	6.19
602.968	6.35
603.304	6.42
603.64	6.31
603.976	6.65
604.312	6.53
604.648	6.29
604.984	6.54
605.319	6.6
605.655	6.51
605.991	6.64
606.326	6.69
606.662	6.58
606.998	6.68
607.333	6.76
607.668	6.84
608.004	6.71
608.339	6.67
608.674	6.74
609.01	6.65
609.345	6.65
609.68	6.93
610.015	6.84
610.35	6.78
610.685	7.05
611.02	6.85
611.355	6.87
611.689	6.91
612.024	6.9
612.359	6.68
612.694	6.87
613.028	7.13
613.363	7.3
613.697	7.26
614.032	7.28
614.366	7.08
614.7	7.25
615.035	7.05
615.369	6.8
615.703	7.2
616.037	7.04
616.371	7.29
616.705	7.19
617.039	7.24
617.373	7.32
617.707	7.27
618.041	7.34
618.375	7.14
618.709	7.44
619.042	7.67
619.376	7.32
619.71	7.48
620.043	7.13
620.377	7.61
620.71	7.38
621.043	7.44
621.377	7.72
621.71	7.33
622.043	7.63
622.376	7.52
622.709	7.71
623.043	7.68
623.376	7.47
623.709	7.75
624.041	8.17
624.374	7.81
624.707	7.5
625.04	7.45
625.373	7.84
625.705	7.64
626.038	7.98
626.37	7.99
626.703	7.94
627.035	7.63
627.368	7.62
627.7	7.71
628.032	7.84
628.365	7.9
628.697	8.02
629.029	8.14
629.361	7.93
629.693	7.85
630.025	8.37
630.357	8.09
630.689	8.31
631.021	7.91
631.353	8
631.684	8.33
632.016	8.17
632.348	8.34
632.679	8.12
633.011	8.29
633.342	8.16
633.674	8.51
634.005	8.16
634.336	8.38
634.668	8.09
634.999	8.53
635.33	8.32
635.661	8.42
635.992	8.32
636.323	8.6
636.654	8.38
636.985	8.52
637.316	8.23
637.647	8.58
637.977	8.92
638.308	8.77
638.639	8.79
638.969	8.52
639.3	8.32
639.63	8.88
639.961	8.45
640.291	8.59
640.622	8.81
640.952	8.9
641.282	8.71
641.612	8.46
641.943	8.81
642.273	9.24
642.603	8.88
642.933	9.11
643.263	8.94
643.592	8.89
643.922	9.25
644.252	8.87
644.582	9.26
644.911	9
645.241	9.64
645.571	8.96
645.9	8.09
646.23	8.9
646.559	8.67
646.888	9.17
647.218	9.61
647.547	9.57
647.876	9.3
648.205	8.93
648.534	9.02
648.863	9.16
649.192	9.2
649.521	9.4
649.85	9.52
650.179	9.49
650.508	10.02
650.837	9.84
651.165	9.63
651.494	9.69
651.822	9.25
652.151	9.46
652.479	9.86
652.808	9.58
653.136	9.5
653.465	9.9
653.793	9.99
654.121	9.74
654.449	10.12
654.777	9.9
655.105	10.12
655.433	9.46
655.761	9.34
656.089	10.22
656.417	9.69
656.745	9.86
657.073	9.95
657.4	9.66
657.728	9.74
658.056	9.84
658.383	9.68
658.711	10.22
659.038	10.05
659.365	10.03
659.693	9.88
660.02	9.96
660.347	10.15
660.674	10.36
661.001	9.88
661.329	10.23
661.656	10.12
661.982	10.28
662.309	10.15
662.636	10.23
662.963	10.18
663.29	10.39
663.616	10.13
663.943	10.43
664.27	10.53
664.596	9.74
664.923	10.43
665.249	10.42
665.576	10.53
665.902	10.48
666.228	10.05
666.554	10.65
666.881	10.92
667.207	9.78
667.533	10.61
667.859	10.36
668.185	10.28
668.511	10.04
668.837	11.05
669.162	10.22
669.488	10.47
669.814	10.96
670.139	10.66
670.465	10.46
670.791	10.39
671.116	10.88
671.442	10.33
671.767	11.41
672.092	10.96
672.418	11.2
672.743	10.94
673.068	10.82
673.393	11.2
673.718	11.16
674.043	10.49
674.368	11.48
674.693	11.37
675.018	11.46
675.343	11.44
675.667	11.11
675.992	11.03
676.317	11.4
676.641	11.84
676.966	11.08
677.29	11.8
677.615	10.57
677.939	11.64
678.264	11.21
678.588	11.69
678.912	11.28
679.236	11.61
679.56	10.92
679.885	11.77
680.209	11.58
680.532	11.62
680.856	11.56
681.18	11.59
681.504	11.95
681.828	11.5
682.152	11.45
682.475	12.16
682.799	11.34
683.122	12.03
683.446	11.77
683.769	11.96
684.093	12.05
684.416	12.04
684.739	12.15
685.062	11.87
685.386	12.06
685.709	11.58
686.032	11.42
686.355	12.49
686.678	11.53
687.001	11.88
687.324	12.31
687.646	12.5
687.969	12.46
688.292	12.07
688.614	12.02
688.937	12.51
689.26	12.83
689.582	13.26
689.904	12.6
690.227	12.62
690.549	12.15
690.871	12.79
