Data from 0024_crown_Reflection__0__66.txt Node

Date: Thu Oct 20 20:52:00 CDT 2022
User: ToomeyLab
Spectrometer: FLMS14357
Trigger mode: 0
Integration Time (sec): 1.000000E-2
Scans to average: 100
Electric dark correction enabled: true
Nonlinearity correction enabled: false
Boxcar width: 0
XAxis mode: Wavelengths
Number of Pixels in Spectrum: 2048
>>>>>Begin Spectral Data<<<<<
189.047	70.33
189.435	70.33
189.823	70.33
190.211	131.1
190.599	-104.06
190.987	52.29
191.375	181.89
191.763	-25.36
192.151	144.42
192.538	-13158.06
192.926	-16.34
193.314	-133.89
193.702	-13.58
194.089	65.34
194.477	661.75
194.864	9.19
195.252	215.73
195.639	200.09
196.027	421.93
196.414	-96.87
196.801	188.81
197.189	54.48
197.576	306.8
197.963	-17.09
198.351	-33.74
198.738	19.31
199.125	60.49
199.512	-3.93
199.899	-0.3
200.286	-7.57
200.673	30.57
201.06	13.89
201.447	57.45
201.833	53.86
202.22	36.8
202.607	-39.35
202.994	17.95
203.38	-27.41
203.767	12.55
204.154	-31.38
204.54	-11.62
204.927	53.46
205.313	33.84
205.699	17.24
206.086	1.82
206.472	-2.41
206.858	-37.75
207.245	10.89
207.631	-24.78
208.017	27.32
208.403	-34.65
208.789	-71.39
209.175	-39.22
209.561	3.98
209.947	-0.57
210.333	-3.36
210.719	0.65
211.105	5.26
211.491	-1.56
211.876	7.62
212.262	15.01
212.648	-26.23
213.034	-29.11
213.419	-12.51
213.805	-3.4
214.19	-20.03
214.576	-28.3
214.961	33.36
215.346	-33.29
215.732	-9.54
216.117	31.79
216.502	-83.41
216.888	-3.71
217.273	14.8
217.658	-6.47
218.043	32.9
218.428	-2.69
218.813	2.8
219.198	3.91
219.583	-12.03
219.968	10.82
220.353	-7.11
220.738	2.19
221.122	29.26
221.507	15.67
221.892	-4.57
222.276	13.08
222.661	2.89
223.046	16.44
223.43	5.16
223.815	-1.57
224.199	9.65
224.583	4.68
224.968	2.88
225.352	8.99
225.736	8.74
226.121	20.24
226.505	5.65
226.889	3.04
227.273	8.31
227.657	2.11
228.041	3.71
228.425	3.88
228.809	5.55
229.193	3.01
229.577	3.92
229.961	4.2
230.344	3.82
230.728	4.17
231.112	4.29
231.495	3.52
231.879	3.75
232.263	4.31
232.646	3.89
233.03	4.19
233.413	3.37
233.797	3.88
234.18	2.78
234.563	2.68
234.946	4.1
235.33	2.97
235.713	4.44
236.096	3.19
236.479	4.53
236.862	1.94
237.245	3.73
237.628	3.87
238.011	3.25
238.394	1.99
238.777	2.52
239.16	2.02
239.543	1.56
239.925	4.18
240.308	3.04
240.691	3.45
241.073	4.54
241.456	2.03
241.838	3.03
242.221	3.56
242.603	3.87
242.986	3.54
243.368	4.14
243.75	3.8
244.133	3.78
244.515	3.76
244.897	4.28
245.279	3.94
245.661	4.58
246.043	4.67
246.425	4.52
246.807	3.89
247.189	3.2
247.571	3.59
247.953	3.35
248.335	3.75
248.717	3.98
249.098	3.83
249.48	3.78
249.862	3.93
250.243	3.96
250.625	3.44
251.006	4.84
251.388	4.22
251.769	4.1
252.151	3.4
252.532	3.45
252.913	3.33
253.295	4.12
253.676	4.11
254.057	3.52
254.438	3.48
254.819	4.06
255.2	4.14
255.581	3.52
255.962	3.14
256.343	3.18
256.724	3.65
257.105	4.62
257.486	2.57
257.867	4.25
258.247	3.18
258.628	3.25
259.009	2.99
259.389	4.46
259.77	4.04
260.15	3.53
260.531	3.45
260.911	3.66
261.292	3.44
261.672	3.25
262.052	3.57
262.432	3.9
262.813	3.2
263.193	3.64
263.573	3.62
263.953	3.22
264.333	3.37
264.713	3.96
265.093	4.29
265.473	3.22
265.853	3.11
266.233	3.44
266.612	3.94
266.992	2.68
267.372	2.36
267.752	3.99
268.131	3.16
268.511	3.48
268.89	3.14
269.27	3.15
269.649	3.95
270.029	3.75
270.408	3.02
270.787	3.07
271.167	3.35
271.546	3.53
271.925	3.56
272.304	3.68
272.683	3.21
273.062	3.38
273.441	3.44
273.82	3.71
274.199	3.26
274.578	2.96
274.957	3.18
275.336	3.33
275.715	3.51
276.093	3.86
276.472	3.84
276.851	3.29
277.229	3.73
277.608	3.41
277.986	3.02
278.365	3.18
278.743	3.47
279.122	3.25
279.5	3.56
279.878	3.37
280.257	2.5
280.635	3.4
281.013	3.28
281.391	2.98
281.769	3.63
282.147	3.47
282.525	3.47
282.903	3.05
283.281	3.33
283.659	3.1
284.037	3.4
284.415	3.39
284.792	3.05
285.17	3.47
285.548	2.92
285.925	2.89
286.303	3.39
286.68	3.23
287.058	3.22
287.435	3.25
287.813	2.93
288.19	3.23
288.567	3.22
288.945	3.24
289.322	2.94
289.699	3.5
290.076	3.24
290.453	3.27
290.83	2.97
291.207	3.05
291.584	3.04
291.961	2.89
292.338	3.72
292.715	3.19
293.092	3.09
293.469	3.4
293.845	3.35
294.222	3.13
294.599	3.91
294.975	3.79
295.352	3.07
295.728	3.26
296.105	3.3
296.481	3.44
296.858	3.87
297.234	3.49
297.61	3.55
297.986	3.31
298.363	3.62
298.739	3.22
299.115	3.42
299.491	3.66
299.867	3.15
300.243	3.53
300.619	3.54
300.995	3.64
301.371	3.6
301.746	3.48
302.122	3.34
302.498	3.67
302.874	3.06
303.249	3.16
303.625	3.51
304	3.6
304.376	3.86
304.751	3.13
305.127	3.26
305.502	3.63
305.878	2.93
306.253	3.24
306.628	3.38
307.003	3.51
307.378	3.26
307.754	3.67
308.129	3.63
308.504	3.85
308.879	3.8
309.254	3.58
309.629	3.51
310.003	3.68
310.378	3.41
310.753	3.08
311.128	3.57
311.502	3.85
311.877	3.23
312.252	3.19
312.626	3.72
313.001	3.76
313.375	3.35
313.75	3.71
314.124	3.59
314.498	3.74
314.873	3.64
315.247	3.19
315.621	3.59
315.995	3.59
316.369	3.54
316.743	4.35
317.117	3.92
317.491	3.62
317.865	4.01
318.239	3.51
318.613	3.29
318.987	3.09
319.361	2.71
319.734	3.54
320.108	3.8
320.482	3.44
320.855	3.8
321.229	3.72
321.602	3.9
321.976	3.98
322.349	3.61
322.723	3.82
323.096	4.11
323.469	4.06
323.843	3.61
324.216	3.41
324.589	3.6
324.962	3.42
325.335	3.2
325.708	3.93
326.081	3.67
326.454	3.8
326.827	2.82
327.2	4.05
327.573	3.59
327.945	3.96
328.318	3.45
328.691	4.28
329.063	3.48
329.436	3.56
329.809	3.49
330.181	3.55
330.553	3.39
330.926	3.6
331.298	3.35
331.671	3.49
332.043	4.01
332.415	4.05
332.787	3.48
333.159	3.35
333.532	3.43
333.904	3.85
334.276	3.77
334.648	3.33
335.02	3.3
335.391	2.87
335.763	3.74
336.135	3.71
336.507	3.39
336.879	3.23
337.25	3.6
337.622	3.34
337.993	3.47
338.365	3.6
338.736	3.5
339.108	3.83
339.479	3.22
339.851	3.56
340.222	2.93
340.593	3.29
340.964	4.01
341.336	3.64
341.707	3.48
342.078	3.58
342.449	3.81
342.82	3.48
343.191	3.8
343.562	4.07
343.933	3.75
344.303	3.3
344.674	3.96
345.045	3.98
345.416	3.38
345.786	3.69
346.157	3.74
346.527	3.43
346.898	3.52
347.268	3.92
347.639	3.31
348.009	4.42
348.38	3.44
348.75	3.65
349.12	4.12
349.49	3.58
349.861	3.96
350.231	3.67
350.601	3.79
350.971	3.49
351.341	3.92
351.711	3.36
352.081	3.66
352.45	3.86
352.82	3.46
353.19	3.72
353.56	3.62
353.929	4.19
354.299	3.65
354.669	3.53
355.038	3.83
355.408	3.67
355.777	3.26
356.147	3.61
356.516	3.81
356.885	4.12
357.254	3.96
357.624	3.55
357.993	3.94
358.362	3.32
358.731	3.65
359.1	3.35
359.469	3.53
359.838	3.59
360.207	3.63
360.576	3.85
360.945	3.3
361.314	3.83
361.682	3.83
362.051	3.49
362.42	3.57
362.788	3.39
363.157	3.52
363.525	3.57
363.894	3.86
364.262	3.58
364.631	3.34
364.999	3.43
365.367	3.58
365.735	3.8
366.104	3.33
366.472	3.81
366.84	4.06
367.208	3.8
367.576	3.63
367.944	3.66
368.312	3.59
368.68	3.87
369.048	3.87
369.416	3.68
369.783	3.32
370.151	3.74
370.519	3.89
370.886	3.88
371.254	3.64
371.621	3.81
371.989	3.89
372.356	3.95
372.724	3.51
373.091	3.66
373.458	3.76
373.826	3.86
374.193	4.11
374.56	3.63
374.927	3.75
375.294	3.45
375.661	3.84
376.028	3.64
376.395	3.86
376.762	3.69
377.129	3.84
377.496	3.52
377.863	4.14
378.229	3.79
378.596	3.66
378.963	3.55
379.329	4.03
379.696	3.49
380.062	3.57
380.429	3.76
380.795	3.62
381.161	4
381.528	3.99
381.894	3.69
382.26	3.77
382.626	3.62
382.993	4.03
383.359	3.55
383.725	4.38
384.091	4.14
384.457	3.74
384.823	3.95
385.188	3.71
385.554	3.74
385.92	3.56
386.286	3.78
386.651	3.87
387.017	3.82
387.383	3.69
387.748	3.81
388.114	3.88
388.479	3.81
388.845	3.64
389.21	3.69
389.575	3.87
389.94	3.7
390.306	4.05
390.671	3.45
391.036	3.98
391.401	3.94
391.766	3.6
392.131	3.43
392.496	3.85
392.861	3.63
393.226	3.83
393.591	3.98
393.956	3.95
394.32	3.93
394.685	4
395.05	4.27
395.414	3.68
395.779	3.97
396.143	3.84
396.508	4.04
396.872	3.78
397.236	3.77
397.601	4.16
397.965	3.91
398.329	3.84
398.694	3.93
399.058	3.94
399.422	3.87
399.786	3.98
400.15	3.86
400.514	4.01
400.878	3.88
401.242	3.9
401.605	3.81
401.969	3.99
402.333	4.16
402.697	4.11
403.06	3.82
403.424	3.72
403.787	4.26
404.151	4.06
404.514	3.98
404.878	3.84
405.241	3.99
405.604	3.93
405.968	3.96
406.331	3.96
406.694	3.86
407.057	3.83
407.42	3.9
407.783	3.68
408.146	3.96
408.509	3.91
408.872	4.17
409.235	4.11
409.598	3.89
409.961	4.21
410.323	3.94
410.686	4.01
411.049	3.96
411.411	3.99
411.774	4.04
412.136	4.17
412.499	4.05
412.861	3.94
413.223	4.22
413.586	4.32
413.948	4.03
414.31	3.99
414.672	4.16
415.035	4.3
415.397	4.27
415.759	4.13
416.121	3.97
416.483	4.04
416.845	4.02
417.206	3.87
417.568	4.06
417.93	3.81
418.292	4.04
418.653	4.11
419.015	4.13
419.377	4
419.738	4.05
420.1	4.11
420.461	4.02
420.822	3.92
421.184	4.03
421.545	3.99
421.906	3.98
422.267	3.97
422.629	3.93
422.99	4.14
423.351	4.03
423.712	4.07
424.073	4.08
424.434	4.01
424.795	3.98
425.155	3.98
425.516	4.04
425.877	4.02
426.238	4.01
426.598	4
426.959	4.12
427.32	4.15
427.68	4.2
428.041	4.08
428.401	4.2
428.761	4.26
429.122	4.05
429.482	4.21
429.842	4.19
430.202	4.37
430.563	4.19
430.923	4.09
431.283	4.04
431.643	4.28
432.003	4.33
432.363	4.15
432.722	4.1
433.082	4.23
433.442	4.09
433.802	4.32
434.161	4.11
434.521	4.05
434.881	4.14
435.24	4.15
435.6	4.17
435.959	4.18
436.319	4.23
436.678	4.09
437.037	4.27
437.396	4.07
437.756	4.39
438.115	4.41
438.474	4.3
438.833	4.21
439.192	4.37
439.551	4.15
439.91	4.26
440.269	4.14
440.628	4.37
440.987	4.06
441.345	4.1
441.704	4.24
442.063	4.12
442.421	4.15
442.78	4.16
443.138	4.11
443.497	4.34
443.855	4.26
444.214	4.16
444.572	4.29
444.93	4.24
445.288	4.26
445.647	4.27
446.005	4.17
446.363	4.12
446.721	4.16
447.079	4.28
447.437	4.24
447.795	4.21
448.153	4.25
448.51	4.15
448.868	4.25
449.226	4.16
449.584	4.21
449.941	4.32
450.299	4.27
450.656	4.3
451.014	4.3
451.371	4.21
451.729	4.46
452.086	4.35
452.443	4.38
452.801	4.33
453.158	4.44
453.515	4.38
453.872	4.33
454.229	4.29
454.586	4.4
454.943	4.32
455.3	4.39
455.657	4.43
456.014	4.1
456.371	4.27
456.727	4.44
457.084	4.23
457.441	4.42
457.797	4.35
458.154	4.49
458.51	4.44
458.867	4.39
459.223	4.26
459.58	4.38
459.936	4.31
460.292	4.28
460.648	4.29
461.005	4.3
461.361	4.3
461.717	4.33
462.073	4.43
462.429	4.43
462.785	4.34
463.141	4.37
463.496	4.38
463.852	4.11
464.208	4.38
464.564	4.5
464.919	4.45
465.275	4.57
465.631	4.67
465.986	4.46
466.342	4.56
466.697	4.47
467.052	4.49
467.408	4.39
467.763	4.66
468.118	4.33
468.473	4.47
468.829	4.55
469.184	4.4
469.539	4.5
469.894	4.38
470.249	4.56
470.603	4.52
470.958	4.58
471.313	4.43
471.668	4.51
472.023	4.44
472.377	4.55
472.732	4.57
473.086	4.49
473.441	4.53
473.795	4.5
474.15	4.47
474.504	4.57
474.859	4.36
475.213	4.54
475.567	4.56
475.921	4.45
476.275	4.53
476.63	4.42
476.984	4.38
477.338	4.48
477.692	4.58
478.045	4.52
478.399	4.57
478.753	4.6
479.107	4.66
479.461	4.42
479.814	4.54
480.168	4.44
480.521	4.38
480.875	4.66
481.228	4.61
481.582	4.42
481.935	4.5
482.289	4.55
482.642	4.57
482.995	4.47
483.348	4.48
483.701	4.39
484.055	4.5
484.408	4.31
484.761	4.23
485.114	4.15
485.466	4.2
485.819	4.32
486.172	4.39
486.525	4.46
486.878	4.58
487.23	4.58
487.583	4.5
487.936	4.35
488.288	4.41
488.641	4.28
488.993	4.34
489.345	4.34
489.698	4.41
490.05	4.48
490.402	4.47
490.754	4.56
491.107	4.62
491.459	4.53
491.811	4.63
492.163	4.54
492.515	4.36
492.866	4.36
493.218	4.35
493.57	4.41
493.922	4.59
494.274	4.57
494.625	4.6
494.977	4.71
495.328	4.8
495.68	4.73
496.031	4.67
496.383	4.56
496.734	4.66
497.086	4.72
497.437	4.67
497.788	4.5
498.139	4.64
498.49	4.51
498.842	4.68
499.193	4.73
499.544	4.64
499.894	4.72
500.245	4.77
500.596	4.69
500.947	4.59
501.298	4.7
501.648	4.7
501.999	4.62
502.35	4.88
502.7	4.8
503.051	4.83
503.401	4.83
503.752	4.71
504.102	4.81
504.452	4.85
504.803	4.62
505.153	4.73
505.503	4.85
505.853	4.83
506.203	4.71
506.553	4.69
506.903	4.94
507.253	4.89
507.603	4.73
507.953	4.7
508.303	4.79
508.652	4.8
509.002	4.8
509.352	4.69
509.701	4.97
510.051	4.83
510.4	4.74
510.75	4.87
511.099	4.86
511.449	4.8
511.798	4.87
512.147	4.77
512.496	4.8
512.846	4.84
513.195	4.91
513.544	4.84
513.893	4.79
514.242	4.9
514.591	4.78
514.939	4.89
515.288	4.86
515.637	4.83
515.986	4.92
516.334	4.91
516.683	4.82
517.032	4.87
517.38	4.82
517.729	4.76
518.077	4.98
518.426	4.84
518.774	4.81
519.122	4.89
519.47	4.93
519.819	4.9
520.167	4.79
520.515	4.83
520.863	4.88
521.211	4.81
521.559	5.05
521.907	4.94
522.255	4.93
522.602	5.04
522.95	4.9
523.298	4.97
523.645	5.03
523.993	4.94
524.341	4.88
524.688	4.99
525.036	4.95
525.383	4.96
525.73	4.91
526.078	4.87
526.425	5.01
526.772	4.95
527.119	4.78
527.466	4.93
527.814	4.96
528.161	5.01
528.508	4.95
528.854	4.89
529.201	4.88
529.548	4.79
529.895	4.72
530.242	4.71
530.588	4.82
530.935	4.87
531.282	4.91
531.628	4.9
531.975	4.92
532.321	4.89
532.667	4.99
533.014	5.06
533.36	5.1
533.706	4.9
534.052	4.91
534.399	4.83
534.745	4.86
535.091	4.94
535.437	5
535.783	5
536.129	5
536.474	5.05
536.82	5.22
537.166	5.13
537.512	5.07
537.857	4.95
538.203	5.03
538.549	5.09
538.894	5.08
539.239	5.13
539.585	5.23
539.93	5.25
540.276	5.15
540.621	5.26
540.966	5.16
541.311	5.29
541.656	5.06
542.001	5.04
542.346	4.94
542.691	4.93
543.036	4.97
543.381	5.03
543.726	5.05
544.071	5.12
544.415	5.11
544.76	5.08
545.105	5.08
545.449	5.22
545.794	5.27
546.138	5.18
546.483	5.16
546.827	5.25
547.171	5.18
547.516	5.2
547.86	5.15
548.204	5.31
548.548	5.26
548.892	5.25
549.236	5.27
549.58	5.36
549.924	5.35
550.268	5.32
550.612	5.4
550.956	5.31
551.3	5.49
551.643	5.43
551.987	5.37
552.33	5.52
552.674	5.43
553.017	5.32
553.361	5.45
553.704	5.5
554.048	5.32
554.391	5.29
554.734	5.43
555.077	5.35
555.42	5.48
555.764	5.57
556.107	5.47
556.45	5.49
556.793	5.47
557.135	5.34
557.478	5.31
557.821	5.39
558.164	5.45
558.507	5.55
558.849	5.4
559.192	5.34
559.534	5.44
559.877	5.36
560.219	5.45
560.562	5.58
560.904	5.44
561.246	5.64
561.589	5.53
561.931	5.82
562.273	5.54
562.615	5.55
562.957	5.43
563.299	5.63
563.641	5.62
563.983	5.46
564.325	5.5
564.667	5.52
565.008	5.54
565.35	5.68
565.692	5.63
566.033	5.78
566.375	5.53
566.716	5.44
567.058	5.45
567.399	5.52
567.741	5.57
568.082	5.4
568.423	5.65
568.764	5.63
569.105	5.7
569.447	5.67
569.788	5.69
570.129	5.61
570.47	5.55
570.811	5.39
571.151	5.75
571.492	5.69
571.833	5.5
572.174	5.73
572.514	5.77
572.855	5.57
573.195	5.66
573.536	5.58
573.876	5.65
574.217	5.67
574.557	5.64
574.898	5.71
575.238	5.7
575.578	5.69
575.918	5.74
576.258	5.85
576.598	5.67
576.938	5.75
577.278	5.69
577.618	5.73
577.958	5.84
578.298	5.67
578.638	5.89
578.977	5.85
579.317	5.89
579.657	5.63
579.996	5.63
580.336	5.66
580.675	5.82
581.014	5.84
581.354	5.91
581.693	5.84
582.032	5.85
582.372	5.64
582.711	5.62
583.05	5.78
583.389	5.76
583.728	5.87
584.067	5.79
584.406	6.1
584.745	5.88
585.083	5.92
585.422	6.04
585.761	6
586.1	5.92
586.438	5.85
586.777	5.8
587.115	5.92
587.454	5.92
587.792	6.07
588.13	6.15
588.469	6
588.807	6.13
589.145	5.88
589.483	6.05
589.821	5.9
590.159	5.94
590.497	6.12
590.835	5.71
591.173	5.71
591.511	5.94
591.849	5.9
592.187	6.11
592.524	5.78
592.862	5.79
593.2	5.92
593.537	6.09
593.875	6.1
594.212	5.95
594.55	5.95
594.887	5.98
595.224	6.09
595.561	5.96
595.899	5.96
596.236	6.16
596.573	6.17
596.91	6.1
597.247	6.33
597.584	6
597.921	6.01
598.258	6.13
598.594	6.13
598.931	6.18
599.268	5.93
599.604	5.99
599.941	6.15
600.277	6.08
600.614	6.33
600.95	6.32
601.287	6.27
601.623	6.04
601.959	6.09
602.296	6.32
602.632	5.99
602.968	5.97
603.304	6.18
603.64	6.27
603.976	6.24
604.312	6.14
604.648	6.14
604.984	6.1
605.319	6.22
605.655	5.96
605.991	6.17
606.326	6.19
606.662	6.28
606.998	6.19
607.333	6.09
607.668	6.45
608.004	6.38
608.339	6.13
608.674	6.14
609.01	6.25
609.345	6.3
609.68	6.26
610.015	6.46
610.35	6.13
610.685	6.01
611.02	6.32
611.355	6.18
611.689	6.27
612.024	6.17
612.359	6.1
612.694	6.38
613.028	6.46
613.363	6.14
613.697	6.51
614.032	6.43
614.366	6.14
614.7	6.24
615.035	6.22
615.369	6.15
615.703	6.49
616.037	6.29
616.371	6.32
616.705	6.5
617.039	6.33
617.373	6.43
617.707	6.32
618.041	6.46
618.375	6.26
618.709	6.45
619.042	6.44
619.376	6.62
619.71	6.43
620.043	6.38
620.377	6.48
620.71	6.46
621.043	6.46
621.377	6.59
621.71	6.49
622.043	6.14
622.376	6.3
622.709	6.62
623.043	6.25
623.376	6.26
623.709	6.21
624.041	6.62
624.374	6.82
624.707	6.42
625.04	6.58
625.373	6.9
625.705	6.41
626.038	6.61
626.37	6.49
626.703	6.53
627.035	6.45
627.368	6.34
627.7	6.49
628.032	6.68
628.365	6.74
628.697	6.75
629.029	6.81
629.361	6.69
629.693	6.36
630.025	6.85
630.357	6.57
630.689	6.5
631.021	6.39
631.353	6.59
631.684	6.67
632.016	6.75
632.348	7.02
632.679	6.76
633.011	6.81
633.342	6.41
633.674	6.68
634.005	6.23
634.336	6.8
634.668	6.55
634.999	6.98
635.33	6.82
635.661	6.63
635.992	6.75
636.323	6.81
636.654	6.91
636.985	6.62
637.316	6.69
637.647	6.87
637.977	6.88
638.308	6.81
638.639	6.97
638.969	6.41
639.3	6.75
639.63	7.13
639.961	6.46
640.291	6.44
640.622	6.81
640.952	6.76
641.282	7.11
641.612	6.62
641.943	6.94
642.273	6.96
642.603	6.94
642.933	6.57
643.263	7.33
643.592	6.41
643.922	6.77
644.252	6.51
644.582	7.09
644.911	6.86
645.241	7.37
645.571	7.1
645.9	6.22
646.23	7.01
646.559	6.67
646.888	7.34
647.218	7.1
647.547	6.88
647.876	6.79
648.205	6.83
648.534	6.95
648.863	7.02
649.192	7.25
649.521	7.36
649.85	7
650.179	7.19
650.508	6.93
650.837	7.27
651.165	7.21
651.494	7.11
651.822	7.19
652.151	7.03
652.479	6.98
652.808	7.27
653.136	6.58
653.465	6.72
653.793	7.31
654.121	7.38
654.449	7.33
654.777	7.2
655.105	7.32
655.433	7.21
655.761	7.26
656.089	7.1
656.417	7.37
656.745	7.32
657.073	7.53
657.4	7.36
657.728	6.81
658.056	6.76
658.383	7.58
658.711	6.75
659.038	6.83
659.365	7.01
659.693	7.29
660.02	7.27
660.347	7.45
660.674	7.28
661.001	7.37
661.329	7.48
661.656	7.34
661.982	7.47
662.309	7.56
662.636	7.43
662.963	7.45
663.29	7.6
663.616	7.2
663.943	7.46
664.27	7.7
664.596	7.3
664.923	6.96
665.249	7.33
665.576	7.48
665.902	7.19
666.228	7.15
666.554	7.45
666.881	7.54
667.207	7.1
667.533	7.04
667.859	7.37
668.185	7.6
668.511	7.05
668.837	7.43
669.162	7.06
669.488	7.3
669.814	7.37
670.139	7.01
670.465	7.72
670.791	7.31
671.116	7.44
671.442	7.3
671.767	7.4
672.092	8.09
672.418	7.43
672.743	7.82
673.068	7.96
673.393	8.01
673.718	7.13
674.043	7.09
674.368	7.63
674.693	7.79
675.018	7.27
675.343	8.11
675.667	7.52
675.992	7.42
676.317	8.07
676.641	7.95
676.966	7.32
677.29	7.76
677.615	7.11
677.939	7.6
678.264	7.17
678.588	7.99
678.912	7.38
679.236	7.78
679.56	7.45
679.885	7.75
680.209	7.78
680.532	7.65
680.856	7.49
681.18	7.58
681.504	7.72
681.828	8.12
682.152	7.95
682.475	7.86
682.799	7.72
683.122	7.92
683.446	8.11
683.769	8.41
684.093	7.31
684.416	7.96
684.739	7.57
685.062	7.55
685.386	7.24
685.709	7.92
686.032	7.11
686.355	8.17
686.678	7.85
687.001	8.15
687.324	7.95
687.646	7.95
687.969	8.53
688.292	7.75
688.614	8.09
688.937	8.38
689.26	7.88
689.582	8.24
689.904	7.97
690.227	8.53
690.549	8.5
690.871	8.3
691.194	7.67
691.516	8.05
691.838	8.56
692.16	8.85
692.482	8.58
