Data from 0024_crown_Reflection__3__69.txt Node

Date: Thu Oct 20 20:52:36 CDT 2022
User: ToomeyLab
Spectrometer: FLMS14357
Trigger mode: 0
Integration Time (sec): 1.000000E-2
Scans to average: 100
Electric dark correction enabled: true
Nonlinearity correction enabled: false
Boxcar width: 0
XAxis mode: Wavelengths
Number of Pixels in Spectrum: 2048
>>>>>Begin Spectral Data<<<<<
189.047	35.4
189.435	35.4
189.823	35.4
190.211	148.56
190.599	-124.63
190.987	105.28
191.375	4.2
191.763	-15.23
192.151	-8.62
192.538	-11219.35
192.926	-206.29
193.314	-255.19
193.702	103.37
194.089	396.77
194.477	-411.23
194.864	76.56
195.252	45.13
195.639	187.37
196.027	600
196.414	264.36
196.801	462.73
197.189	11.49
197.576	25.47
197.963	18.3
198.351	-38.13
198.738	0.09
199.125	24.94
199.512	24.4
199.899	-38.99
200.286	-16.86
200.673	27.1
201.06	2.94
201.447	25.71
201.833	21.28
202.22	-36.16
202.607	31.56
202.994	37.01
203.38	-27.47
203.767	7.21
204.154	-39.58
204.54	-32.09
204.927	27.09
205.313	5.26
205.699	8.23
206.086	12.11
206.472	16.18
206.858	-15.44
207.245	-0.54
207.631	-11.44
208.017	40.17
208.403	32.11
208.789	-48.04
209.175	-16.83
209.561	-5.87
209.947	44.46
210.333	-21.61
210.719	-3.16
211.105	-37.18
211.491	-15.69
211.876	-0.26
212.262	-3.11
212.648	-38.54
213.034	-23.84
213.419	2.67
213.805	-15.29
214.19	-63.09
214.576	-0.73
214.961	28.64
215.346	-27
215.732	-27.46
216.117	14.32
216.502	-11.53
216.888	28.85
217.273	8.42
217.658	-16.83
218.043	24.68
218.428	-22.67
218.813	-1.79
219.198	-0.73
219.583	-28.18
219.968	9.82
220.353	-0.72
220.738	10.97
221.122	27.48
221.507	9.07
221.892	-3.44
222.276	2.18
222.661	-1.63
223.046	1.89
223.43	4.77
223.815	-3.19
224.199	11.09
224.583	7.55
224.968	-0.01
225.352	7.46
225.736	16.11
226.121	10.68
226.505	6.29
226.889	3.68
227.273	11.93
227.657	8.53
228.041	5.09
228.425	4.36
228.809	5.34
229.193	5.25
229.577	7.8
229.961	7
230.344	5.9
230.728	6.25
231.112	6.9
231.495	6.35
231.879	5.87
232.263	6.37
232.646	7.79
233.03	5.13
233.413	6.36
233.797	3.34
234.18	7.19
234.563	7
234.946	5.69
235.33	5.08
235.713	5.2
236.096	6.23
236.479	5.41
236.862	4.89
237.245	5.35
237.628	6.71
238.011	7.55
238.394	5.59
238.777	5.98
239.16	3.43
239.543	5.74
239.925	6.36
240.308	5.91
240.691	5.49
241.073	6.67
241.456	6.17
241.838	6.61
242.221	5.25
242.603	5.42
242.986	5.64
243.368	6.06
243.75	5.95
244.133	5.96
244.515	5.86
244.897	6.33
245.279	6.94
245.661	6.2
246.043	6.24
246.425	6.53
246.807	5.91
247.189	6.01
247.571	5.75
247.953	5.56
248.335	5.81
248.717	6.12
249.098	5.54
249.48	5.83
249.862	5.42
250.243	5.92
250.625	5.69
251.006	6.69
251.388	5.62
251.769	6.82
252.151	6.13
252.532	6.25
252.913	5.73
253.295	5.8
253.676	6.03
254.057	5.4
254.438	5.35
254.819	5.5
255.2	7.01
255.581	5.25
255.962	6.09
256.343	6.16
256.724	6.3
257.105	6.08
257.486	5.66
257.867	5.78
258.247	6
258.628	5.84
259.009	4.76
259.389	6.01
259.77	5.94
260.15	5.75
260.531	5.29
260.911	5.17
261.292	5.21
261.672	5.04
262.052	5.31
262.432	5.36
262.813	5.4
263.193	5.06
263.573	5.51
263.953	5.5
264.333	5.05
264.713	5.09
265.093	4.61
265.473	4.46
265.853	5.41
266.233	4.36
266.612	4.5
266.992	4.47
267.372	4.91
267.752	4.72
268.131	4.87
268.511	4.92
268.89	4.96
269.27	4.93
269.649	5.35
270.029	4.79
270.408	5.05
270.787	5.02
271.167	5.02
271.546	4.58
271.925	5.14
272.304	5.41
272.683	5.07
273.062	4.88
273.441	4.79
273.82	5.06
274.199	4.89
274.578	4.69
274.957	4.5
275.336	4.39
275.715	5.34
276.093	4.53
276.472	4.97
276.851	4.12
277.229	5.35
277.608	4.55
277.986	4.57
278.365	4.34
278.743	5.06
279.122	4.91
279.5	4.99
279.878	5.04
280.257	3.96
280.635	4.99
281.013	4.5
281.391	4.83
281.769	4.56
282.147	4.92
282.525	4.73
282.903	5
283.281	4.3
283.659	4.57
284.037	4.8
284.415	4.73
284.792	4.35
285.17	4.49
285.548	4.56
285.925	4.18
286.303	4.48
286.68	4.72
287.058	4.44
287.435	4.57
287.813	4.17
288.19	4.26
288.567	4.51
288.945	4.63
289.322	4.32
289.699	4.48
290.076	4.74
290.453	4.25
290.83	4.11
291.207	4.28
291.584	4.26
291.961	4.28
292.338	4.64
292.715	4.17
293.092	3.88
293.469	4.63
293.845	4.02
294.222	4.34
294.599	4.36
294.975	4.18
295.352	3.94
295.728	3.9
296.105	4.49
296.481	4.06
296.858	4.41
297.234	4.23
297.61	4.12
297.986	4.21
298.363	4.19
298.739	4.13
299.115	4.13
299.491	4.42
299.867	4.14
300.243	4.15
300.619	4
300.995	3.89
301.371	3.8
301.746	4.05
302.122	4.45
302.498	4.63
302.874	3.66
303.249	4.2
303.625	4.13
304	3.86
304.376	4.4
304.751	3.96
305.127	4.22
305.502	4.03
305.878	3.97
306.253	3.72
306.628	4.17
307.003	4.29
307.378	4.07
307.754	4.48
308.129	4.33
308.504	4.79
308.879	4.46
309.254	3.9
309.629	4.42
310.003	4.3
310.378	4.44
310.753	3.69
311.128	4.17
311.502	4.31
311.877	4.21
312.252	4
312.626	4.12
313.001	4.32
313.375	4.19
313.75	4.21
314.124	3.83
314.498	4.13
314.873	4.45
315.247	4.31
315.621	3.64
315.995	4.05
316.369	4.02
316.743	4.72
317.117	4.36
317.491	4.3
317.865	4.29
318.239	3.58
318.613	4.05
318.987	4.29
319.361	3.95
319.734	4
320.108	3.7
320.482	4.51
320.855	4.04
321.229	3.74
321.602	4.17
321.976	4.77
322.349	4.21
322.723	3.63
323.096	4.96
323.469	4.21
323.843	3.64
324.216	3.6
324.589	3.86
324.962	4.13
325.335	3.36
325.708	4.13
326.081	4.35
326.454	4.09
326.827	3.79
327.2	3.81
327.573	4.45
327.945	3.93
328.318	3.73
328.691	4.47
329.063	3.63
329.436	3.64
329.809	4.14
330.181	4.32
330.553	3.9
330.926	4
331.298	3.99
331.671	3.75
332.043	4.33
332.415	4.4
332.787	4.04
333.159	4.25
333.532	4.03
333.904	3.94
334.276	4.07
334.648	3.95
335.02	4.03
335.391	3.62
335.763	4.28
336.135	4.4
336.507	4.31
336.879	3.99
337.25	3.82
337.622	3.88
337.993	3.81
338.365	3.65
338.736	4.08
339.108	4.57
339.479	3.5
339.851	4.63
340.222	4.12
340.593	4.41
340.964	4.42
341.336	3.63
341.707	4.43
342.078	4.43
342.449	3.81
342.82	4.04
343.191	4.59
343.562	4.34
343.933	4.07
344.303	4.04
344.674	4.4
345.045	4.77
345.416	4.19
345.786	4.03
346.157	3.9
346.527	4.21
346.898	4.13
347.268	3.97
347.639	4.01
348.009	4.7
348.38	3.78
348.75	4.37
349.12	4.88
349.49	3.71
349.861	4.23
350.231	4.42
350.601	4.77
350.971	4.28
351.341	3.89
351.711	4.05
352.081	4.53
352.45	4.37
352.82	4.53
353.19	4.05
353.56	4.35
353.929	4.16
354.299	4.31
354.669	4.33
355.038	4.07
355.408	4.14
355.777	4.22
356.147	4.42
356.516	4.23
356.885	4.48
357.254	4.5
357.624	4.09
357.993	4.54
358.362	4.09
358.731	4.52
359.1	4.04
359.469	4.12
359.838	4.27
360.207	4.36
360.576	4.25
360.945	3.69
361.314	4.47
361.682	4.57
362.051	4.28
362.42	4.44
362.788	4.32
363.157	4.49
363.525	4.36
363.894	4.36
364.262	4.64
364.631	4.5
364.999	4.25
365.367	4.49
365.735	4.66
366.104	4.07
366.472	4.52
366.84	5.03
367.208	4.47
367.576	4.56
367.944	4.19
368.312	4.23
368.68	4.52
369.048	4.62
369.416	4.47
369.783	4.48
370.151	4.42
370.519	4.4
370.886	4.67
371.254	4.58
371.621	4.47
371.989	4.78
372.356	4.75
372.724	4.33
373.091	4.49
373.458	4.51
373.826	4.66
374.193	4.44
374.56	4.55
374.927	4.94
375.294	4.63
375.661	4.44
376.028	4.44
376.395	4.67
376.762	4.67
377.129	4.87
377.496	4.24
377.863	4.58
378.229	4.87
378.596	4.69
378.963	4.4
379.329	4.58
379.696	4.68
380.062	4.81
380.429	4.79
380.795	4.55
381.161	4.73
381.528	4.92
381.894	4.64
382.26	4.59
382.626	4.67
382.993	4.71
383.359	4.64
383.725	4.95
384.091	4.98
384.457	4.64
384.823	4.85
385.188	4.7
385.554	4.65
385.92	4.47
386.286	4.73
386.651	4.59
387.017	4.87
387.383	4.84
387.748	4.51
388.114	4.95
388.479	5.27
388.845	4.87
389.21	4.7
389.575	4.78
389.94	4.54
390.306	5.04
390.671	4.82
391.036	4.87
391.401	5.24
391.766	4.49
392.131	4.58
392.496	4.93
392.861	4.69
393.226	5
393.591	5.09
393.956	4.97
394.32	5.03
394.685	4.93
395.05	4.98
395.414	4.93
395.779	4.96
396.143	4.74
396.508	5.05
396.872	5
397.236	4.92
397.601	5.12
397.965	5.12
398.329	4.83
398.694	4.91
399.058	5.06
399.422	4.78
399.786	4.99
400.15	4.89
400.514	4.9
400.878	5.05
401.242	4.8
401.605	5
401.969	5.01
402.333	4.94
402.697	5.03
403.06	5.03
403.424	4.89
403.787	5.14
404.151	5.01
404.514	5.1
404.878	5.01
405.241	5.09
405.604	4.98
405.968	4.89
406.331	5.01
406.694	5.05
407.057	4.95
407.42	4.77
407.783	4.63
408.146	4.98
408.509	4.85
408.872	5.11
409.235	5.02
409.598	4.94
409.961	5.08
410.323	4.77
410.686	5.26
411.049	5.11
411.411	5.24
411.774	5
412.136	5.29
412.499	5.12
412.861	5.27
413.223	5.09
413.586	5.11
413.948	5.33
414.31	5.02
414.672	5.02
415.035	5.17
415.397	5.33
415.759	5.18
416.121	5.09
416.483	5.12
416.845	5.15
417.206	4.95
417.568	5.09
417.93	5.07
418.292	5.06
418.653	5.21
419.015	5.16
419.377	5.19
419.738	5.23
420.1	5.05
420.461	5.07
420.822	5.02
421.184	5.07
421.545	5.03
421.906	5.02
422.267	5.06
422.629	5.03
422.99	5.02
423.351	4.98
423.712	5.03
424.073	5.12
424.434	5.04
424.795	5.11
425.155	4.96
425.516	5.05
425.877	5.15
426.238	5.06
426.598	4.97
426.959	5.17
427.32	5.08
427.68	5.27
428.041	5.07
428.401	5.19
428.761	5.26
429.122	5.14
429.482	5.24
429.842	5.09
430.202	5.07
430.563	5.09
430.923	5.27
431.283	5.24
431.643	5.23
432.003	5.2
432.363	5.06
432.722	5.08
433.082	5.38
433.442	5.17
433.802	5.3
434.161	5.12
434.521	5.14
434.881	5.29
435.24	5.17
435.6	5.28
435.959	5.13
436.319	5.33
436.678	5.32
437.037	5.39
437.396	5.25
437.756	5.31
438.115	5.4
438.474	5.3
438.833	5.14
439.192	5.39
439.551	5.15
439.91	5.21
440.269	5.25
440.628	5.29
440.987	5.16
441.345	5.19
441.704	5.14
442.063	5.05
442.421	5.22
442.78	5.15
443.138	5.11
443.497	5.25
443.855	5.29
444.214	5.15
444.572	5.26
444.93	5.14
445.288	5.24
445.647	5.17
446.005	5.25
446.363	5.06
446.721	5.18
447.079	5.16
447.437	5.14
447.795	5.15
448.153	5.19
448.51	5.2
448.868	5.17
449.226	5.18
449.584	5.23
449.941	5.33
450.299	5.24
450.656	5.24
451.014	5.26
451.371	5.33
451.729	5.29
452.086	5.32
452.443	5.26
452.801	5.28
453.158	5.39
453.515	5.22
453.872	5.23
454.229	5.27
454.586	5.43
454.943	5.2
455.3	5.39
455.657	5.32
456.014	5.2
456.371	5.35
456.727	5.25
457.084	5.21
457.441	5.29
457.797	5.33
458.154	5.48
458.51	5.36
458.867	5.31
459.223	5.32
459.58	5.38
459.936	5.29
460.292	5.24
460.648	5.2
461.005	5.31
461.361	5.15
461.717	5.17
462.073	5.18
462.429	5.27
462.785	5.16
463.141	5.41
463.496	5.25
463.852	5.14
464.208	5.45
464.564	5.3
464.919	5.31
465.275	5.3
465.631	5.34
465.986	5.42
466.342	5.37
466.697	5.28
467.052	5.42
467.408	5.35
467.763	5.45
468.118	5.35
468.473	5.3
468.829	5.3
469.184	5.46
469.539	5.19
469.894	5.29
470.249	5.35
470.603	5.41
470.958	5.46
471.313	5.22
471.668	5.45
472.023	5.32
472.377	5.33
472.732	5.38
473.086	5.32
473.441	5.38
473.795	5.27
474.15	5.32
474.504	5.35
474.859	5.31
475.213	5.32
475.567	5.38
475.921	5.31
476.275	5.47
476.63	5.09
476.984	5.49
477.338	5.34
477.692	5.27
478.045	5.34
478.399	5.39
478.753	5.35
479.107	5.42
479.461	5.3
479.814	5.3
480.168	5.3
480.521	5.37
480.875	5.42
481.228	5.41
481.582	5.36
481.935	5.21
482.289	5.37
482.642	5.48
482.995	5.32
483.348	5.29
483.701	5.25
484.055	5.22
484.408	5.16
484.761	5.07
485.114	5.04
485.466	5.01
485.819	5.04
486.172	5.01
486.525	5.07
486.878	5.18
487.23	5.22
487.583	5.26
487.936	5.18
488.288	5.13
488.641	5.05
488.993	5.06
489.345	5.06
489.698	5.09
490.05	5.17
490.402	5.14
490.754	5.13
491.107	5.17
491.459	5.39
491.811	5.18
492.163	5.26
492.515	5.12
492.866	5.16
493.218	5.15
493.57	5.08
493.922	5.16
494.274	5.2
494.625	5.18
494.977	5.27
495.328	5.27
495.68	5.33
496.031	5.39
496.383	5.12
496.734	5.44
497.086	5.28
497.437	5.36
497.788	5.36
498.139	5.31
498.49	5.25
498.842	5.22
499.193	5.28
499.544	5.27
499.894	5.39
500.245	5.3
500.596	5.37
500.947	5.36
501.298	5.37
501.648	5.29
501.999	5.19
502.35	5.43
502.7	5.36
503.051	5.39
503.401	5.22
503.752	5.47
504.102	5.38
504.452	5.41
504.803	5.24
505.153	5.35
505.503	5.35
505.853	5.38
506.203	5.42
506.553	5.33
506.903	5.41
507.253	5.42
507.603	5.45
507.953	5.33
508.303	5.36
508.652	5.34
509.002	5.41
509.352	5.26
509.701	5.46
510.051	5.35
510.4	5.3
510.75	5.28
511.099	5.37
511.449	5.18
511.798	5.22
512.147	5.27
512.496	5.32
512.846	5.31
513.195	5.42
513.544	5.27
513.893	5.21
514.242	5.4
514.591	5.39
514.939	5.23
515.288	5.16
515.637	5.26
515.986	5.42
516.334	5.35
516.683	5.38
517.032	5.24
517.38	5.16
517.729	5.2
518.077	5.33
518.426	5.3
518.774	5.26
519.122	5.37
519.47	5.24
519.819	5.24
520.167	5.27
520.515	5.22
520.863	5.25
521.211	5.13
521.559	5.2
521.907	5.3
522.255	5.31
522.602	5.31
522.95	5.22
523.298	5.3
523.645	5.36
523.993	5.23
524.341	5.22
524.688	5.33
525.036	5.18
525.383	5.31
525.73	5.29
526.078	5.13
526.425	5.2
526.772	5.25
527.119	5.13
527.466	5.25
527.814	5.18
528.161	5.26
528.508	5.23
528.854	5.12
529.201	5.19
529.548	5.12
529.895	5.07
530.242	5.02
530.588	5.05
530.935	5.07
531.282	5.04
531.628	5.08
531.975	5.16
532.321	5.1
532.667	5.24
533.014	5.16
533.36	5.25
533.706	5.19
534.052	5.17
534.399	5.13
534.745	5.11
535.091	5.14
535.437	5.09
535.783	5.13
536.129	5.12
536.474	5.1
536.82	5.3
537.166	5.27
537.512	5.1
537.857	5.22
538.203	5.28
538.549	5.24
538.894	5.18
539.239	5.22
539.585	5.34
539.93	5.31
540.276	5.24
540.621	5.36
540.966	5.29
541.311	5.33
541.656	5.2
542.001	5.18
542.346	5.11
542.691	5
543.036	5.09
543.381	5.06
543.726	5.13
544.071	5.1
544.415	5.13
544.76	5.14
545.105	5.07
545.449	5.13
545.794	5.24
546.138	5.19
546.483	5.21
546.827	5.23
547.171	5.18
547.516	5.13
547.86	5.18
548.204	5.18
548.548	5.21
548.892	5.13
549.236	5.19
549.58	5.22
549.924	5.34
550.268	5.3
550.612	5.3
550.956	5.23
551.3	5.44
551.643	5.31
551.987	5.28
552.33	5.21
552.674	5.38
553.017	5.27
553.361	5.2
553.704	5.31
554.048	5.14
554.391	5.06
554.734	5.22
555.077	5.11
555.42	5.25
555.764	5.38
556.107	5.31
556.45	5.23
556.793	5.17
557.135	5.35
557.478	5.25
557.821	5.29
558.164	5.47
558.507	5.31
558.849	4.98
559.192	5.29
559.534	5.21
559.877	5.05
560.219	5.37
560.562	5.19
560.904	5.07
561.246	5.3
561.589	5.16
561.931	5.41
562.273	5.11
562.615	5.29
562.957	5.35
563.299	5.28
563.641	5.36
563.983	5.19
564.325	5.26
564.667	5.22
565.008	5.14
565.35	5.24
565.692	5.18
566.033	5.3
566.375	5.23
566.716	5.13
567.058	5.12
567.399	5.26
567.741	5.26
568.082	5.18
568.423	5.1
568.764	5.19
569.105	5.11
569.447	5.32
569.788	5.19
570.129	5.22
570.47	5.18
570.811	5.05
571.151	5.21
571.492	4.97
571.833	5.2
572.174	5.06
572.514	5.21
572.855	5.06
573.195	5.28
573.536	5.05
573.876	5.21
574.217	5.26
574.557	5.11
574.898	5.14
575.238	5.07
575.578	4.98
575.918	5.09
576.258	5.2
576.598	5.12
576.938	5.18
577.278	5.08
577.618	5.05
577.958	5.08
578.298	4.95
578.638	5.1
578.977	5.06
579.317	5.17
579.657	4.87
579.996	5.13
580.336	4.97
580.675	5.04
581.014	5.2
581.354	5.07
581.693	5.01
582.032	4.94
582.372	4.91
582.711	4.99
583.05	5.23
583.389	5.19
583.728	5.21
584.067	4.89
584.406	5.29
584.745	5.23
585.083	5.23
585.422	5.19
585.761	5.29
586.1	5.01
586.438	5.15
586.777	4.97
587.115	5.21
587.454	5.13
587.792	5.26
588.13	5.16
588.469	5.22
588.807	5.22
589.145	5.2
589.483	5.27
589.821	5.13
590.159	5.05
590.497	5.24
590.835	5.12
591.173	4.76
591.511	4.9
591.849	5.12
592.187	5.01
592.524	5.08
592.862	5.17
593.2	5.08
593.537	5.21
593.875	5.11
594.212	4.88
594.55	5.13
594.887	4.99
595.224	5.1
595.561	5.02
595.899	4.76
596.236	5.1
596.573	5.18
596.91	5.12
597.247	5.13
597.584	4.97
597.921	5.13
598.258	5.03
598.594	5.07
598.931	5.15
599.268	4.84
599.604	4.93
599.941	5.08
600.277	4.88
600.614	4.84
600.95	5.16
601.287	5.33
601.623	5.15
601.959	4.91
602.296	5.07
602.632	5.1
602.968	4.91
603.304	5.11
603.64	5.11
603.976	4.99
604.312	5.02
604.648	4.91
604.984	4.98
605.319	5.14
605.655	4.86
605.991	5.12
606.326	5.06
606.662	4.93
606.998	4.94
607.333	4.96
607.668	5.02
608.004	5.06
608.339	4.81
608.674	4.98
609.01	4.94
609.345	4.9
609.68	4.99
610.015	5.1
610.35	4.91
610.685	4.89
611.02	5.11
611.355	5.17
611.689	5.03
612.024	4.8
612.359	4.58
612.694	4.86
613.028	5.26
613.363	5.28
613.697	5.17
614.032	4.91
614.366	5.03
614.7	4.57
615.035	4.95
615.369	4.85
615.703	4.97
616.037	4.7
616.371	5.01
616.705	4.89
617.039	5.15
617.373	4.83
617.707	4.81
618.041	4.89
618.375	4.67
618.709	5.07
619.042	5.09
619.376	5.27
619.71	4.74
620.043	4.55
620.377	5.28
620.71	5.05
621.043	4.74
621.377	4.8
621.71	4.51
622.043	4.85
622.376	4.91
622.709	5.05
623.043	4.71
623.376	4.84
623.709	4.86
624.041	5.15
624.374	4.94
624.707	4.79
625.04	4.89
625.373	4.82
625.705	4.74
626.038	4.87
626.37	5.08
626.703	4.93
627.035	4.77
627.368	4.78
627.7	5.14
628.032	4.59
628.365	4.97
628.697	5.05
629.029	5.06
629.361	4.78
629.693	4.71
630.025	5.22
630.357	4.82
630.689	4.98
631.021	4.73
631.353	4.69
631.684	5.18
632.016	5.24
632.348	4.81
632.679	4.48
633.011	4.74
633.342	4.66
633.674	4.9
634.005	4.47
634.336	5.14
634.668	4.58
634.999	5.14
635.33	5
635.661	5.09
635.992	4.91
636.323	5.09
636.654	4.68
636.985	5.14
637.316	4.76
637.647	4.73
637.977	5
638.308	5.13
638.639	4.78
638.969	4.49
639.3	4.9
639.63	5.02
639.961	4.61
640.291	4.41
640.622	4.78
640.952	4.85
641.282	5.15
641.612	4.55
641.943	4.63
642.273	5.24
642.603	5.14
642.933	5.11
643.263	4.9
643.592	4.79
643.922	4.78
644.252	4.12
644.582	4.85
644.911	5.13
645.241	5.16
645.571	4.84
645.9	4.59
646.23	4.93
646.559	4.76
646.888	4.82
647.218	5.16
647.547	5.32
647.876	4.63
648.205	4.49
648.534	4.68
648.863	4.91
649.192	4.82
649.521	5.03
649.85	5.02
650.179	4.65
650.508	5.3
650.837	5.14
651.165	5.17
651.494	4.75
651.822	4.51
652.151	4.56
652.479	5.11
652.808	4.89
653.136	4.41
653.465	4.88
653.793	4.8
654.121	4.54
654.449	5.08
654.777	5.13
655.105	5.19
655.433	4.58
655.761	5.16
656.089	4.92
656.417	5.23
656.745	4.65
657.073	5.22
657.4	4.6
657.728	4.7
658.056	5.03
658.383	5.16
658.711	4.85
659.038	5.12
659.365	4.83
659.693	4.99
660.02	5.3
660.347	5.53
660.674	4.79
661.001	4.95
661.329	5.32
661.656	4.57
661.982	4.99
662.309	4.87
662.636	5.03
662.963	4.78
663.29	4.84
663.616	4.44
663.943	4.67
664.27	4.95
664.596	4.7
664.923	4.88
665.249	4.42
665.576	5.31
665.902	5.28
666.228	4.86
666.554	5.47
666.881	5.22
667.207	4.57
667.533	5.19
667.859	4.52
668.185	5.02
668.511	3.91
668.837	5.06
669.162	4.37
669.488	4.64
669.814	4.69
670.139	4.81
670.465	4.63
670.791	4.6
671.116	5.23
671.442	4.34
671.767	5.05
672.092	5.15
672.418	5.02
672.743	4.79
673.068	5.12
673.393	5.17
673.718	4.54
674.043	4.64
674.368	4.63
674.693	5.46
675.018	5.51
675.343	4.92
675.667	4.73
675.992	4.6
676.317	5.53
676.641	5.5
676.966	4.35
677.29	5.31
677.615	4.7
677.939	5.43
678.264	4.66
678.588	5.13
678.912	4.78
679.236	4.72
679.56	4.59
679.885	5.32
680.209	5.26
680.532	5.03
680.856	4.42
681.18	4.95
681.504	5.14
681.828	4.75
682.152	5.01
682.475	5.07
682.799	4.65
683.122	4.92
683.446	5.19
683.769	5.05
684.093	4.8
684.416	4.77
684.739	5.53
685.062	4.55
685.386	4.48
685.709	4.76
686.032	4.8
686.355	4.21
686.678	4.26
687.001	4.96
687.324	4.92
687.646	5.3
687.969	5.6
688.292	5.2
688.614	5.47
688.937	5.43
689.26	5.46
689.582	5.24
689.904	4.84
690.227	5.56
690.549	5.05
690.871	5.23
691.194	5.3
691.516	4.78
691.838	5.75
692.16	5.51
692.482	5.43
