Data from 0024_forehead_Reflection__1__72.txt Node

Date: Thu Oct 20 20:53:26 CDT 2022
User: ToomeyLab
Spectrometer: FLMS14357
Trigger mode: 0
Integration Time (sec): 1.000000E-2
Scans to average: 100
Electric dark correction enabled: true
Nonlinearity correction enabled: false
Boxcar width: 0
XAxis mode: Wavelengths
Number of Pixels in Spectrum: 2048
>>>>>Begin Spectral Data<<<<<
189.047	46.53
189.435	46.53
189.823	46.53
190.211	93.35
190.599	94.25
190.987	77.81
191.375	212.05
191.763	-5.47
192.151	-18.38
192.538	14216.13
192.926	247.71
193.314	-62.09
193.702	107.4
194.089	-30.03
194.477	397.71
194.864	61.95
195.252	160.18
195.639	177.27
196.027	41.53
196.414	-55.83
196.801	10.5
197.189	-51.31
197.576	231.31
197.963	51.56
198.351	-15.72
198.738	40.9
199.125	41.19
199.512	25.93
199.899	8.77
200.286	23.2
200.673	52.25
201.06	24.3
201.447	46.25
201.833	19.5
202.22	28.94
202.607	30.72
202.994	41.13
203.38	18.97
203.767	75.32
204.154	-17.37
204.54	29.6
204.927	38.3
205.313	23.61
205.699	14.44
206.086	45.6
206.472	31.49
206.858	22.29
207.245	18.01
207.631	-24.72
208.017	54.16
208.403	61.89
208.789	-36.49
209.175	3.4
209.561	29.85
209.947	59.03
210.333	2.77
210.719	28.76
211.105	30.7
211.491	22.92
211.876	18.64
212.262	29.2
212.648	1.67
213.034	27.32
213.419	19.76
213.805	14.2
214.19	15.69
214.576	28.15
214.961	34.65
215.346	17.99
215.732	-13.43
216.117	27.24
216.502	-19.16
216.888	45.5
217.273	30.47
217.658	12.37
218.043	24.36
218.428	13.01
218.813	1.95
219.198	18.37
219.583	-12.81
219.968	41.49
220.353	4.64
220.738	24.82
221.122	38.61
221.507	2.31
221.892	18.26
222.276	1.1
222.661	6.59
223.046	16.03
223.43	4.05
223.815	9.52
224.199	4.93
224.583	12.8
224.968	9.2
225.352	9.98
225.736	14.29
226.121	14.61
226.505	3.68
226.889	8.41
227.273	10.14
227.657	6.33
228.041	4.08
228.425	8.34
228.809	5.95
229.193	5.28
229.577	5.58
229.961	4.93
230.344	5.16
230.728	5.23
231.112	5.65
231.495	5.31
231.879	6.07
232.263	7.12
232.646	5.8
233.03	4.57
233.413	5.37
233.797	5.41
234.18	4.73
234.563	5.28
234.946	6.84
235.33	5
235.713	5.07
236.096	5.73
236.479	6.76
236.862	4.25
237.245	4
237.628	6.21
238.011	8.45
238.394	6.69
238.777	5.96
239.16	5.63
239.543	4.04
239.925	6.52
240.308	6.86
240.691	4.45
241.073	5.09
241.456	4.88
241.838	5.32
242.221	5.44
242.603	4.5
242.986	5.03
243.368	5.89
243.75	5.06
244.133	4.73
244.515	5.16
244.897	5.56
245.279	5.91
245.661	5.39
246.043	5.12
246.425	6.38
246.807	5.32
247.189	5.59
247.571	5.47
247.953	5.16
248.335	5.23
248.717	5.22
249.098	5.01
249.48	5.04
249.862	4.92
250.243	5.17
250.625	4.98
251.006	5.94
251.388	4.97
251.769	5.64
252.151	5.45
252.532	4.93
252.913	5.12
253.295	5.32
253.676	5.53
254.057	5.23
254.438	6.05
254.819	4.86
255.2	6.19
255.581	6.2
255.962	5.69
256.343	6.77
256.724	6.07
257.105	6.84
257.486	6.28
257.867	5.49
258.247	5.02
258.628	5.52
259.009	5.42
259.389	5.94
259.77	5.2
260.15	5.1
260.531	5.04
260.911	4.98
261.292	5.01
261.672	4.57
262.052	5.06
262.432	5.07
262.813	4.95
263.193	5.21
263.573	5.38
263.953	5.05
264.333	4.86
264.713	5.66
265.093	5.55
265.473	5.29
265.853	5.21
266.233	5.16
266.612	5.06
266.992	4.86
267.372	4.37
267.752	5.2
268.131	5.29
268.511	4.82
268.89	4.6
269.27	4.76
269.649	5.32
270.029	5.6
270.408	4.5
270.787	4.7
271.167	5
271.546	5.05
271.925	4.88
272.304	5.83
272.683	4.67
273.062	5.13
273.441	5.27
273.82	5.31
274.199	4.82
274.578	4.76
274.957	4.73
275.336	5.12
275.715	5.17
276.093	5.51
276.472	5.05
276.851	4.71
277.229	5.14
277.608	4.92
277.986	4.85
278.365	5.29
278.743	5.22
279.122	5.04
279.5	5.21
279.878	5.05
280.257	4.24
280.635	5.52
281.013	5
281.391	4.71
281.769	4.33
282.147	5
282.525	5.43
282.903	5.36
283.281	5.06
283.659	4.87
284.037	5.35
284.415	5.56
284.792	4.94
285.17	5.19
285.548	4.8
285.925	4.75
286.303	5.08
286.68	5.2
287.058	5.05
287.435	4.97
287.813	4.72
288.19	4.81
288.567	4.86
288.945	4.9
289.322	5.36
289.699	5.37
290.076	5.33
290.453	5.4
290.83	4.7
291.207	5.04
291.584	5.42
291.961	5.44
292.338	5.71
292.715	5.34
293.092	5.43
293.469	5.68
293.845	5.13
294.222	5.63
294.599	6.01
294.975	5.92
295.352	5.64
295.728	5.35
296.105	5.71
296.481	5.91
296.858	6.27
297.234	5.91
297.61	5.53
297.986	6.07
298.363	6.13
298.739	5.94
299.115	6.04
299.491	5.95
299.867	6.01
300.243	6.16
300.619	6.13
300.995	6.29
301.371	6.06
301.746	5.79
302.122	6.82
302.498	6.76
302.874	6.27
303.249	6.55
303.625	6.68
304	7
304.376	7.22
304.751	6.37
305.127	6.26
305.502	6.7
305.878	6.6
306.253	6.59
306.628	6.58
307.003	6.76
307.378	6.97
307.754	7.03
308.129	6.95
308.504	7.54
308.879	7.43
309.254	7.02
309.629	7.13
310.003	7.17
310.378	7.34
310.753	6.95
311.128	7.02
311.502	7.66
311.877	7.03
312.252	7.26
312.626	7.29
313.001	7.69
313.375	7.23
313.75	7.45
314.124	7.85
314.498	7.93
314.873	8.36
315.247	8.07
315.621	7.65
315.995	8.03
316.369	7.74
316.743	7.74
317.117	8.17
317.491	8.42
317.865	8.54
318.239	7.97
318.613	8.21
318.987	7.85
319.361	8.32
319.734	8.14
320.108	8.4
320.482	8.41
320.855	8.41
321.229	8.34
321.602	8.7
321.976	8.9
322.349	8.89
322.723	8.45
323.096	8.91
323.469	9.33
323.843	9.01
324.216	8.79
324.589	8.73
324.962	8.8
325.335	8.92
325.708	9.19
326.081	9.03
326.454	9.14
326.827	8.78
327.2	9.24
327.573	9.19
327.945	9.2
328.318	8.95
328.691	9.8
329.063	9.04
329.436	8.5
329.809	9.78
330.181	9.38
330.553	9.35
330.926	9.51
331.298	9.65
331.671	9
332.043	9.83
332.415	10.27
332.787	9.82
333.159	9.57
333.532	9.93
333.904	9.87
334.276	9.88
334.648	9.32
335.02	9.88
335.391	9.36
335.763	10.09
336.135	9.89
336.507	10.04
336.879	9.77
337.25	10.25
337.622	9.87
337.993	9.98
338.365	9.96
338.736	10.03
339.108	10.66
339.479	9.62
339.851	10.42
340.222	9.82
340.593	10.78
340.964	11.07
341.336	10.56
341.707	10.43
342.078	10.72
342.449	10.39
342.82	11.08
343.191	11.14
343.562	10.62
343.933	10.75
344.303	11.17
344.674	11.44
345.045	11.26
345.416	11.13
345.786	10.97
346.157	10.99
346.527	10.81
346.898	11
347.268	11.13
347.639	10.91
348.009	11.41
348.38	11.19
348.75	11.71
349.12	12.01
349.49	10.99
349.861	11.62
350.231	11.64
350.601	11.56
350.971	11.67
351.341	11.93
351.711	11.3
352.081	12.02
352.45	12.01
352.82	11.91
353.19	11.6
353.56	11.88
353.929	12.12
354.299	12.04
354.669	12.08
355.038	12.07
355.408	12.07
355.777	12.18
356.147	12.32
356.516	12.08
356.885	12.36
357.254	12.24
357.624	12.32
357.993	12.69
358.362	12.19
358.731	12.3
359.1	12.37
359.469	12.32
359.838	12.52
360.207	12.35
360.576	12.54
360.945	12.43
361.314	12.48
361.682	13.33
362.051	12.78
362.42	12.8
362.788	12.79
363.157	13.09
363.525	12.92
363.894	12.95
364.262	12.95
364.631	12.67
364.999	13.18
365.367	13.02
365.735	13.19
366.104	13.3
366.472	13.05
366.84	13.6
367.208	13.68
367.576	13.64
367.944	13.48
368.312	13.26
368.68	13.35
369.048	13.3
369.416	13.67
369.783	13.6
370.151	13.65
370.519	13.8
370.886	13.87
371.254	14.07
371.621	14.02
371.989	14.12
372.356	14.26
372.724	13.83
373.091	13.93
373.458	14.1
373.826	14.32
374.193	14.24
374.56	14.28
374.927	14.3
375.294	14.37
375.661	14.32
376.028	14.35
376.395	14.33
376.762	14.7
377.129	14.7
377.496	14.49
377.863	14.92
378.229	14.84
378.596	14.93
378.963	14.49
379.329	14.7
379.696	14.92
380.062	14.95
380.429	15.09
380.795	14.63
381.161	15.3
381.528	15.39
381.894	14.99
382.26	15.15
382.626	15.19
382.993	15.64
383.359	15.56
383.725	15.6
384.091	15.46
384.457	15.46
384.823	15.61
385.188	15.54
385.554	15.84
385.92	15.64
386.286	15.76
386.651	15.57
387.017	15.83
387.383	15.91
387.748	15.93
388.114	16.3
388.479	16.16
388.845	15.83
389.21	15.81
389.575	16.17
389.94	16.18
390.306	16.36
390.671	16.35
391.036	16.18
391.401	16.69
391.766	16.22
392.131	16.3
392.496	16.47
392.861	16.51
393.226	16.32
393.591	16.74
393.956	16.63
394.32	16.81
394.685	16.95
395.05	16.91
395.414	16.81
395.779	16.96
396.143	16.92
396.508	17.2
396.872	17.04
397.236	16.85
397.601	17.22
397.965	17.12
398.329	17.32
398.694	17.68
399.058	17.29
399.422	17.38
399.786	17.44
400.15	17.52
400.514	17.38
400.878	17.77
401.242	17.43
401.605	17.66
401.969	17.46
402.333	17.62
402.697	17.9
403.06	18
403.424	17.9
403.787	18.17
404.151	18.28
404.514	17.99
404.878	17.95
405.241	18.06
405.604	18.18
405.968	18.06
406.331	17.93
406.694	18.27
407.057	18.15
407.42	18.26
407.783	18.11
408.146	18.58
408.509	18.35
408.872	18.68
409.235	18.49
409.598	18.58
409.961	18.73
410.323	18.62
410.686	18.96
411.049	19.04
411.411	18.92
411.774	18.93
412.136	19.06
412.499	18.89
412.861	18.77
413.223	19.05
413.586	19.4
413.948	19.23
414.31	19.41
414.672	19.38
415.035	19.48
415.397	19.66
415.759	19.56
416.121	19.44
416.483	19.27
416.845	19.51
417.206	19.48
417.568	19.61
417.93	19.26
418.292	19.52
418.653	19.61
419.015	19.78
419.377	19.78
419.738	19.79
420.1	19.74
420.461	19.75
420.822	19.79
421.184	19.8
421.545	19.7
421.906	19.77
422.267	19.75
422.629	19.72
422.99	19.75
423.351	19.8
423.712	19.86
424.073	20.02
424.434	20.1
424.795	20.17
425.155	20.15
425.516	20.12
425.877	20.14
426.238	20.26
426.598	20.32
426.959	20.36
427.32	20.48
427.68	20.8
428.041	20.53
428.401	20.82
428.761	20.94
429.122	20.81
429.482	21.01
429.842	21.11
430.202	21.36
430.563	21.32
430.923	21.35
431.283	21.15
431.643	21.32
432.003	21.6
432.363	21.37
432.722	21.33
433.082	21.73
433.442	21.51
433.802	21.67
434.161	21.41
434.521	21.49
434.881	21.6
435.24	21.67
435.6	21.64
435.959	21.71
436.319	21.87
436.678	21.93
437.037	22.03
437.396	22
437.756	22.08
438.115	22.35
438.474	22.36
438.833	22.11
439.192	22.3
439.551	22.34
439.91	22.19
440.269	22.28
440.628	22.49
440.987	22.29
441.345	22.25
441.704	22.34
442.063	22.27
442.421	22.33
442.78	22.36
443.138	22.51
443.497	22.66
443.855	22.65
444.214	22.78
444.572	22.9
444.93	22.9
445.288	22.79
445.647	22.97
446.005	22.92
446.363	23.03
446.721	22.85
447.079	22.86
447.437	22.96
447.795	22.9
448.153	22.91
448.51	22.96
448.868	23
449.226	22.99
449.584	23.13
449.941	23.48
450.299	23.44
450.656	23.3
451.014	23.43
451.371	23.72
451.729	23.81
452.086	23.96
452.443	23.86
452.801	23.88
453.158	24.16
453.515	23.99
453.872	24.04
454.229	24.11
454.586	24.31
454.943	24.21
455.3	24.26
455.657	24.12
456.014	24.22
456.371	24.26
456.727	24.44
457.084	24.56
457.441	24.58
457.797	24.71
458.154	24.84
458.51	24.66
458.867	24.74
459.223	24.89
459.58	24.94
459.936	24.71
460.292	24.96
460.648	24.71
461.005	24.77
461.361	24.65
461.717	24.69
462.073	24.63
462.429	24.8
462.785	24.97
463.141	24.9
463.496	25.16
463.852	24.91
464.208	25.52
464.564	25.48
464.919	25.57
465.275	25.89
465.631	25.77
465.986	25.71
466.342	25.88
466.697	25.91
467.052	26.08
467.408	25.79
467.763	26.12
468.118	25.88
468.473	26.14
468.829	25.99
469.184	26.09
469.539	26.03
469.894	26.14
470.249	26.39
470.603	26.27
470.958	26.34
471.313	26.32
471.668	26.31
472.023	26.41
472.377	26.4
472.732	26.5
473.086	26.65
473.441	26.78
473.795	26.53
474.15	26.63
474.504	26.68
474.859	26.58
475.213	26.81
475.567	26.86
475.921	26.7
476.275	26.95
476.63	26.94
476.984	27.2
477.338	27.2
477.692	27.15
478.045	27.31
478.399	27.23
478.753	27.41
479.107	27.28
479.461	27.16
479.814	27.28
480.168	27.28
480.521	27.3
480.875	27.49
481.228	27.68
481.582	27.64
481.935	27.62
482.289	27.57
482.642	27.77
482.995	27.57
483.348	27.53
483.701	27.37
484.055	27.43
484.408	27.24
484.761	26.95
485.114	27.06
485.466	27.13
485.819	27.06
486.172	27.01
486.525	26.97
486.878	27.09
487.23	27.19
487.583	27.31
487.936	27.42
488.288	27.57
488.641	27.62
488.993	27.45
489.345	27.5
489.698	27.62
490.05	27.59
490.402	27.65
490.754	27.68
491.107	28.04
491.459	28.25
491.811	28.31
492.163	28.29
492.515	28.21
492.866	28.16
493.218	28.13
493.57	28.26
493.922	28.26
494.274	28.27
494.625	28.31
494.977	28.68
495.328	29.01
495.68	29.15
496.031	29.24
496.383	29.45
496.734	29.58
497.086	29.58
497.437	29.47
497.788	29.39
498.139	29.38
498.49	29.52
498.842	29.47
499.193	29.57
499.544	29.53
499.894	29.61
500.245	29.81
500.596	29.84
500.947	29.8
501.298	29.99
501.648	30.04
501.999	29.89
502.35	30.38
502.7	30.44
503.051	30.42
503.401	30.41
503.752	30.46
504.102	30.41
504.452	30.68
504.803	30.41
505.153	30.66
505.503	30.61
505.853	30.73
506.203	30.52
506.553	30.75
506.903	30.8
507.253	30.86
507.603	30.74
507.953	30.78
508.303	30.92
508.652	31.11
509.002	31.1
509.352	30.95
509.701	31.11
510.051	31.04
510.4	30.94
510.75	31.07
511.099	31.17
511.449	31.01
511.798	31.15
512.147	31.19
512.496	31.5
512.846	31.39
513.195	31.57
513.544	31.44
513.893	31.42
514.242	31.7
514.591	31.65
514.939	31.64
515.288	31.62
515.637	31.85
515.986	31.89
516.334	31.75
516.683	31.98
517.032	32.1
517.38	31.99
517.729	32.04
518.077	32.22
518.426	32.27
518.774	32.06
519.122	32.12
519.47	32
519.819	32.03
520.167	31.97
520.515	32
520.863	31.98
521.211	32.14
521.559	32.19
521.907	32.26
522.255	32.53
522.602	32.55
522.95	32.62
523.298	32.9
523.645	32.71
523.993	32.77
524.341	32.82
524.688	32.91
525.036	33.08
525.383	32.99
525.73	33.18
526.078	32.97
526.425	32.8
526.772	32.86
527.119	32.74
527.466	32.92
527.814	32.78
528.161	32.83
528.508	32.72
528.854	32.74
529.201	32.94
529.548	32.77
529.895	32.83
530.242	32.82
530.588	32.87
530.935	32.69
531.282	32.52
531.628	32.68
531.975	32.88
532.321	33.1
532.667	33.24
533.014	33.46
533.36	33.6
533.706	33.54
534.052	33.52
534.399	33.38
534.745	33.44
535.091	33.56
535.437	33.53
535.783	33.42
536.129	33.52
536.474	33.68
536.82	33.75
537.166	33.91
537.512	34.08
537.857	34.23
538.203	34.39
538.549	34.18
538.894	34.19
539.239	34.17
539.585	34.21
539.93	34.46
540.276	34.67
540.621	34.78
540.966	34.87
541.311	34.86
541.656	34.74
542.001	34.59
542.346	34.62
542.691	34.43
543.036	34.5
543.381	34.53
543.726	34.23
544.071	34.48
544.415	34.47
544.76	34.67
545.105	34.9
545.449	34.88
545.794	35.11
546.138	35.08
546.483	35.3
546.827	35.39
547.171	35.42
547.516	35.65
547.86	35.34
548.204	35.4
548.548	35.55
548.892	35.76
549.236	35.91
549.58	35.85
549.924	36.09
550.268	36.13
550.612	36.28
550.956	36.06
551.3	36.48
551.643	36.3
551.987	36.38
552.33	36.51
552.674	36.71
553.017	36.46
553.361	36.39
553.704	36.69
554.048	36.68
554.391	36.71
554.734	36.91
555.077	36.78
555.42	36.98
555.764	36.84
556.107	36.91
556.45	37.08
556.793	37.19
557.135	37.38
557.478	37.21
557.821	37.24
558.164	37.45
558.507	37.61
558.849	37.2
559.192	37.6
559.534	37.56
559.877	37.59
560.219	37.55
560.562	37.45
560.904	37.78
561.246	37.88
561.589	37.83
561.931	38.12
562.273	37.92
562.615	37.99
562.957	37.88
563.299	37.96
563.641	38.22
563.983	38.14
564.325	38.19
564.667	38.24
565.008	37.91
565.35	38.36
565.692	38.31
566.033	38.62
566.375	38.08
566.716	38.36
567.058	38.48
567.399	38.4
567.741	38.53
568.082	38.41
568.423	38.23
568.764	38.38
569.105	38.52
569.447	38.57
569.788	38.68
570.129	38.78
570.47	38.63
570.811	38.5
571.151	38.81
571.492	38.94
571.833	38.99
572.174	38.66
572.514	38.92
572.855	38.7
573.195	38.9
573.536	38.81
573.876	38.81
574.217	39.03
574.557	38.91
574.898	39.05
575.238	39.28
575.578	39.16
575.918	39.17
576.258	39.25
576.598	39.21
576.938	39.34
577.278	39.37
577.618	39.68
577.958	39.54
578.298	39.58
578.638	39.77
578.977	39.73
579.317	39.63
579.657	39.92
579.996	39.92
580.336	39.82
580.675	39.78
581.014	40.1
581.354	40.17
581.693	40.3
582.032	40.42
582.372	40.12
582.711	40.2
583.05	40.37
583.389	40.58
583.728	40.53
584.067	40.48
584.406	40.67
584.745	40.52
585.083	40.43
585.422	40.79
585.761	40.79
586.1	40.61
586.438	41.25
586.777	40.89
587.115	40.6
587.454	41.07
587.792	41.17
588.13	41.11
588.469	41.1
588.807	40.82
589.145	41.27
589.483	41.11
589.821	41.36
590.159	41.08
590.497	41.38
590.835	41.16
591.173	41.09
591.511	41.46
591.849	41.39
592.187	41.54
592.524	41.47
592.862	41.32
593.2	41.23
593.537	41.28
593.875	41.66
594.212	41.52
594.55	41.33
594.887	41.76
595.224	41.8
595.561	41.72
595.899	41.84
596.236	41.91
596.573	41.91
596.91	41.93
597.247	42.07
597.584	41.75
597.921	41.76
598.258	42.16
598.594	42.16
598.931	42.15
599.268	42.04
599.604	41.73
599.941	41.7
600.277	42.38
600.614	42.2
600.95	42.52
601.287	42.52
601.623	42.42
601.959	42.11
602.296	42.88
602.632	42.66
602.968	42.47
603.304	42.6
603.64	42.61
603.976	42.99
604.312	42.62
604.648	42.82
604.984	42.97
605.319	42.62
605.655	42.6
605.991	42.62
606.326	43.03
606.662	42.65
606.998	42.72
607.333	42.81
607.668	42.89
608.004	42.49
608.339	43.05
608.674	43.14
609.01	42.96
609.345	43.61
609.68	43.11
610.015	43.19
610.35	43.21
610.685	43.39
611.02	43.23
611.355	43.28
611.689	43.13
612.024	43.19
612.359	43.32
612.694	43.14
613.028	43.8
613.363	43.67
613.697	43.86
614.032	43.7
614.366	43.81
614.7	43.92
615.035	43.8
615.369	43.91
615.703	43.95
616.037	43.93
616.371	44.08
616.705	44.31
617.039	44.31
617.373	44.49
617.707	43.75
618.041	44.32
618.375	43.63
618.709	44.3
619.042	44.65
619.376	44.65
619.71	44.37
620.043	44.09
620.377	44.55
620.71	44.51
621.043	44.37
621.377	44.98
621.71	44.84
622.043	44.27
622.376	44.84
622.709	44.76
623.043	44.5
623.376	45.03
623.709	45.17
624.041	44.85
624.374	45.08
624.707	45.01
625.04	44.94
625.373	45.17
625.705	44.94
626.038	45.58
626.37	44.85
626.703	45.29
627.035	45.54
627.368	45.31
627.7	45.52
628.032	45.3
628.365	45.45
628.697	45.86
629.029	45.58
629.361	45.67
629.693	45.1
630.025	45.46
630.357	45.56
630.689	45.49
631.021	45.32
631.353	45.79
631.684	45.74
632.016	45.36
632.348	45.52
632.679	45.75
633.011	45.5
633.342	45.8
633.674	46.49
634.005	46.06
634.336	46.09
634.668	45.71
634.999	46.15
635.33	45.7
635.661	46.01
635.992	45.96
636.323	46.16
636.654	46.03
636.985	45.65
637.316	46.05
637.647	46.12
637.977	46.31
638.308	46.69
638.639	46.17
638.969	46.2
639.3	46.43
639.63	46.84
639.961	46.3
640.291	46.79
640.622	46.72
640.952	46.46
641.282	46.89
641.612	46.4
641.943	46.7
642.273	47.36
642.603	46.71
642.933	47.09
643.263	46.81
643.592	46.22
643.922	46.71
644.252	46.79
644.582	47.05
644.911	47.12
645.241	47.29
645.571	47.22
645.9	46.98
646.23	46.83
646.559	47.28
646.888	46.9
647.218	47.75
647.547	47.26
647.876	47.28
648.205	47.15
648.534	47.25
648.863	47.09
649.192	47.31
649.521	47.1
649.85	47.35
650.179	47.52
650.508	47.28
650.837	47.69
651.165	47.52
651.494	47.91
651.822	47.92
652.151	47.67
652.479	47.83
652.808	47.92
653.136	47.48
653.465	48.12
653.793	48.07
654.121	47.9
654.449	47.52
654.777	48.24
655.105	47.8
655.433	48.06
655.761	47.89
656.089	47.91
656.417	47.8
656.745	47.74
657.073	48.52
657.4	47.86
657.728	47.9
658.056	48.16
658.383	48.31
658.711	48.25
659.038	48.06
659.365	48.56
659.693	48.66
660.02	48.36
660.347	48.51
660.674	49.02
661.001	48.69
661.329	48.7
661.656	48.55
661.982	48.69
662.309	48.51
662.636	48.4
662.963	48.87
663.29	48.93
663.616	48.62
663.943	49.17
664.27	49.26
664.596	48.69
664.923	48.32
665.249	48.97
665.576	49.42
665.902	49.24
666.228	48.69
666.554	48.87
666.881	49.34
667.207	48.43
667.533	48.7
667.859	48.58
668.185	49.19
668.511	48.76
668.837	48.96
669.162	48.8
669.488	48.52
669.814	49.56
670.139	49.31
670.465	48.4
670.791	49.33
671.116	49.03
