Data from 0024_crown_Reflection__2__68.txt Node

Date: Thu Oct 20 20:52:27 CDT 2022
User: ToomeyLab
Spectrometer: FLMS14357
Trigger mode: 0
Integration Time (sec): 1.000000E-2
Scans to average: 100
Electric dark correction enabled: true
Nonlinearity correction enabled: false
Boxcar width: 0
XAxis mode: Wavelengths
Number of Pixels in Spectrum: 2048
>>>>>Begin Spectral Data<<<<<
189.047	81.99
189.435	81.99
189.823	81.99
190.211	49.9
190.599	-189.4
190.987	49.14
191.375	151.63
191.763	157.47
192.151	5.17
192.538	-7235.48
192.926	183.76
193.314	-235.36
193.702	282.83
194.089	281.05
194.477	-694.59
194.864	18.49
195.252	-33.44
195.639	86.93
196.027	767.74
196.414	93.62
196.801	328.55
197.189	-7.96
197.576	102.11
197.963	-37.03
198.351	-9.91
198.738	8.23
199.125	34.43
199.512	1.17
199.899	-21.56
200.286	25.05
200.673	41.12
201.06	-2
201.447	-7.04
201.833	28.77
202.22	-24.28
202.607	-27.29
202.994	24.61
203.38	-42.74
203.767	-27.99
204.154	-51.4
204.54	-4.86
204.927	4.42
205.313	-23.38
205.699	-4.23
206.086	10.97
206.472	32.97
206.858	-18.82
207.245	-0.42
207.631	-41.53
208.017	-0.02
208.403	22
208.789	-119.14
209.175	-27.85
209.561	24.51
209.947	2.29
210.333	-25.29
210.719	15.68
211.105	-28.77
211.491	8.4
211.876	-0.89
212.262	4.15
212.648	31.03
213.034	-5.6
213.419	-6.53
213.805	-9.94
214.19	-30.48
214.576	13.39
214.961	22.83
215.346	-17.64
215.732	-27.78
216.117	24.57
216.502	-52.59
216.888	15.81
217.273	25.18
217.658	11.1
218.043	29.45
218.428	-5.8
218.813	1.98
219.198	-9.3
219.583	-15.31
219.968	1.78
220.353	-9.09
220.738	15.53
221.122	7.07
221.507	6.15
221.892	1.34
222.276	11.43
222.661	-6.39
223.046	3.72
223.43	1.36
223.815	2.99
224.199	11.64
224.583	6.58
224.968	15.32
225.352	14.46
225.736	8.35
226.121	13.62
226.505	-0.88
226.889	9.04
227.273	8.1
227.657	9.35
228.041	2.97
228.425	6.69
228.809	6.36
229.193	4.38
229.577	4.92
229.961	6.79
230.344	5.89
230.728	5.77
231.112	5.74
231.495	4.82
231.879	6.13
232.263	6.36
232.646	6.06
233.03	3.84
233.413	6.07
233.797	4.73
234.18	5.01
234.563	7.33
234.946	5.09
235.33	3.61
235.713	6.16
236.096	5.28
236.479	6.09
236.862	4.3
237.245	2.85
237.628	6.79
238.011	5.91
238.394	6.08
238.777	5.41
239.16	4.36
239.543	4.07
239.925	5.15
240.308	6.32
240.691	5.57
241.073	5.03
241.456	4.96
241.838	5.92
242.221	4.72
242.603	5.46
242.986	4.94
243.368	5.87
243.75	5.5
244.133	5.18
244.515	5.18
244.897	5.88
245.279	5.37
245.661	5.09
246.043	5.01
246.425	5.42
246.807	4.63
247.189	5.28
247.571	5.03
247.953	4.98
248.335	5.15
248.717	5.18
249.098	5.14
249.48	4.78
249.862	4.76
250.243	5.22
250.625	5.23
251.006	5.24
251.388	5.31
251.769	5.05
252.151	4.94
252.532	4.87
252.913	5
253.295	5.44
253.676	5.81
254.057	5.19
254.438	4.73
254.819	4.98
255.2	5.45
255.581	4.08
255.962	4.01
256.343	6.11
256.724	4.07
257.105	5.79
257.486	4.61
257.867	4.19
258.247	5.03
258.628	5
259.009	5.08
259.389	5.58
259.77	5.34
260.15	4.84
260.531	4.91
260.911	4.5
261.292	4.66
261.672	4.35
262.052	4.51
262.432	4.84
262.813	4.71
263.193	4.69
263.573	4.91
263.953	4.94
264.333	4.67
264.713	4.71
265.093	4.31
265.473	3.65
265.853	4.12
266.233	4.27
266.612	4.45
266.992	3.96
267.372	3.91
267.752	4.72
268.131	4.48
268.511	4.33
268.89	4.28
269.27	4.18
269.649	4.83
270.029	4.24
270.408	4.39
270.787	4.33
271.167	3.96
271.546	4.77
271.925	3.96
272.304	4.59
272.683	4.03
273.062	4.13
273.441	4.2
273.82	4.14
274.199	4.03
274.578	3.85
274.957	3.51
275.336	4.01
275.715	4.25
276.093	4.14
276.472	3.76
276.851	3.49
277.229	4.13
277.608	4.01
277.986	4.52
278.365	4.32
278.743	4.41
279.122	4.54
279.5	3.83
279.878	4.49
280.257	3.88
280.635	4.33
281.013	4.08
281.391	3.96
281.769	4.04
282.147	4.27
282.525	3.85
282.903	4.31
283.281	4.21
283.659	3.63
284.037	3.93
284.415	4.21
284.792	4.09
285.17	4.18
285.548	3.7
285.925	3.86
286.303	4.09
286.68	4.11
287.058	3.99
287.435	4.03
287.813	3.78
288.19	3.92
288.567	3.68
288.945	4.21
289.322	3.73
289.699	3.99
290.076	3.75
290.453	3.59
290.83	3.72
291.207	3.56
291.584	3.65
291.961	3.58
292.338	4.1
292.715	3.69
293.092	3.84
293.469	3.96
293.845	3.15
294.222	3.75
294.599	4.14
294.975	3.97
295.352	3.42
295.728	3.57
296.105	3.35
296.481	3.43
296.858	3.81
297.234	3.32
297.61	3.48
297.986	3.9
298.363	3.74
298.739	3.53
299.115	3.85
299.491	4.07
299.867	3.15
300.243	3.65
300.619	3.6
300.995	3.52
301.371	3.63
301.746	3.72
302.122	4.06
302.498	3.84
302.874	3.1
303.249	3.59
303.625	3.28
304	3.69
304.376	3.67
304.751	3.75
305.127	3.48
305.502	3.32
305.878	3.43
306.253	3.42
306.628	3.65
307.003	3.43
307.378	3.62
307.754	3.73
308.129	3.48
308.504	4.01
308.879	3.84
309.254	3.04
309.629	3.62
310.003	3.28
310.378	3.64
310.753	3.29
311.128	3.49
311.502	3.98
311.877	3.51
312.252	3.56
312.626	3.46
313.001	3.52
313.375	3.54
313.75	3.29
314.124	3.73
314.498	3.62
314.873	3.96
315.247	3.14
315.621	3.15
315.995	3.49
316.369	3.71
316.743	3.9
317.117	3.82
317.491	3.5
317.865	4.02
318.239	3.75
318.613	3.2
318.987	3.28
319.361	2.83
319.734	3.16
320.108	2.85
320.482	3.16
320.855	3.75
321.229	3.36
321.602	3.81
321.976	4.02
322.349	3.46
322.723	3.67
323.096	4.03
323.469	3.64
323.843	3.03
324.216	3.26
324.589	3.62
324.962	3.31
325.335	3.26
325.708	3.84
326.081	3.75
326.454	3.52
326.827	3
327.2	3.52
327.573	3.87
327.945	3.35
328.318	3.82
328.691	4.01
329.063	3.19
329.436	3.44
329.809	4.17
330.181	3.81
330.553	3.36
330.926	3.34
331.298	3.17
331.671	2.93
332.043	3.88
332.415	3.61
332.787	3.73
333.159	3.55
333.532	3.88
333.904	3.56
334.276	3.89
334.648	3.1
335.02	3.14
335.391	3.18
335.763	3.4
336.135	3.63
336.507	3.35
336.879	3.71
337.25	3.54
337.622	3.32
337.993	2.89
338.365	3.9
338.736	3.82
339.108	3.6
339.479	3.19
339.851	3.58
340.222	3.77
340.593	3.76
340.964	4.21
341.336	3.36
341.707	3.78
342.078	3.77
342.449	4
342.82	3.39
343.191	3.98
343.562	4.02
343.933	3.72
344.303	4.09
344.674	3.5
345.045	3.99
345.416	3.89
345.786	3.81
346.157	3.5
346.527	3.29
346.898	3.47
347.268	3.95
347.639	3.32
348.009	4.03
348.38	3.82
348.75	3.96
349.12	3.79
349.49	3.52
349.861	4.02
350.231	3.77
350.601	3.67
350.971	4.05
351.341	3.85
351.711	3.85
352.081	3.6
352.45	3.56
352.82	3.5
353.19	3.89
353.56	3.59
353.929	4.05
354.299	3.66
354.669	3.69
355.038	3.62
355.408	3.8
355.777	3.71
356.147	3.76
356.516	3.66
356.885	4.07
357.254	3.71
357.624	3.7
357.993	3.82
358.362	3.8
358.731	3.62
359.1	3.45
359.469	3.67
359.838	3.93
360.207	4.13
360.576	3.81
360.945	3.66
361.314	3.84
361.682	3.93
362.051	3.85
362.42	4.01
362.788	3.45
363.157	3.8
363.525	3.72
363.894	3.89
364.262	3.81
364.631	3.91
364.999	3.75
365.367	3.96
365.735	4.02
366.104	3.86
366.472	3.81
366.84	4.09
367.208	3.79
367.576	4.07
367.944	3.83
368.312	4.03
368.68	3.93
369.048	3.88
369.416	3.76
369.783	3.92
370.151	3.83
370.519	4.06
370.886	4.2
371.254	4.08
371.621	3.87
371.989	4.35
372.356	4.07
372.724	3.9
373.091	3.97
373.458	3.88
373.826	3.88
374.193	3.98
374.56	4.24
374.927	4.29
375.294	3.83
375.661	3.86
376.028	3.82
376.395	3.87
376.762	4.26
377.129	3.9
377.496	3.76
377.863	4.3
378.229	3.96
378.596	3.9
378.963	3.83
379.329	4.05
379.696	3.87
380.062	4.09
380.429	4.19
380.795	3.98
381.161	4.11
381.528	4.26
381.894	4.12
382.26	4.11
382.626	4.27
382.993	4.2
383.359	3.86
383.725	4.32
384.091	4.35
384.457	4.06
384.823	4.19
385.188	4.02
385.554	4.05
385.92	4.05
386.286	4.3
386.651	4.23
387.017	4.19
387.383	4.23
387.748	4.19
388.114	4.43
388.479	4.27
388.845	3.91
389.21	3.9
389.575	4.37
389.94	4.11
390.306	4.52
390.671	4.1
391.036	4.31
391.401	4.5
391.766	4.13
392.131	3.69
392.496	4.31
392.861	4.22
393.226	4.21
393.591	4.51
393.956	4.3
394.32	4.52
394.685	4.39
395.05	4.44
395.414	4.36
395.779	4.34
396.143	4.37
396.508	4.55
396.872	4.27
397.236	4.13
397.601	4.54
397.965	4.54
398.329	4.35
398.694	4.25
399.058	4.31
399.422	4.11
399.786	4.14
400.15	4.5
400.514	4.61
400.878	4.55
401.242	4.28
401.605	4.3
401.969	4.35
402.333	4.36
402.697	4.47
403.06	4.43
403.424	4.3
403.787	4.55
404.151	4.49
404.514	4.67
404.878	4.25
405.241	4.33
405.604	4.27
405.968	4.3
406.331	4.54
406.694	4.18
407.057	4.21
407.42	4.25
407.783	4.13
408.146	4.41
408.509	4.4
408.872	4.24
409.235	4.38
409.598	4.44
409.961	4.32
410.323	4.51
410.686	4.56
411.049	4.69
411.411	4.41
411.774	4.48
412.136	4.44
412.499	4.43
412.861	4.69
413.223	4.57
413.586	4.62
413.948	4.41
414.31	4.37
414.672	4.54
415.035	4.54
415.397	4.6
415.759	4.67
416.121	4.45
416.483	4.56
416.845	4.4
417.206	4.22
417.568	4.43
417.93	4.55
418.292	4.62
418.653	4.66
419.015	4.36
419.377	4.45
419.738	4.57
420.1	4.44
420.461	4.35
420.822	4.41
421.184	4.45
421.545	4.37
421.906	4.28
422.267	4.3
422.629	4.33
422.99	4.37
423.351	4.32
423.712	4.39
424.073	4.45
424.434	4.39
424.795	4.45
425.155	4.34
425.516	4.5
425.877	4.42
426.238	4.42
426.598	4.38
426.959	4.6
427.32	4.48
427.68	4.49
428.041	4.36
428.401	4.39
428.761	4.56
429.122	4.57
429.482	4.58
429.842	4.65
430.202	4.64
430.563	4.62
430.923	4.48
431.283	4.4
431.643	4.5
432.003	4.65
432.363	4.47
432.722	4.51
433.082	4.51
433.442	4.52
433.802	4.71
434.161	4.49
434.521	4.35
434.881	4.61
435.24	4.62
435.6	4.52
435.959	4.51
436.319	4.54
436.678	4.55
437.037	4.62
437.396	4.4
437.756	4.59
438.115	4.64
438.474	4.65
438.833	4.54
439.192	4.67
439.551	4.57
439.91	4.59
440.269	4.51
440.628	4.6
440.987	4.49
441.345	4.6
441.704	4.5
442.063	4.42
442.421	4.5
442.78	4.5
443.138	4.47
443.497	4.49
443.855	4.57
444.214	4.65
444.572	4.53
444.93	4.65
445.288	4.63
445.647	4.64
446.005	4.59
446.363	4.49
446.721	4.45
447.079	4.61
447.437	4.54
447.795	4.56
448.153	4.5
448.51	4.44
448.868	4.5
449.226	4.44
449.584	4.62
449.941	4.64
450.299	4.59
450.656	4.6
451.014	4.63
451.371	4.66
451.729	4.67
452.086	4.63
452.443	4.78
452.801	4.64
453.158	4.86
453.515	4.55
453.872	4.64
454.229	4.56
454.586	4.61
454.943	4.53
455.3	4.71
455.657	4.7
456.014	4.46
456.371	4.68
456.727	4.86
457.084	4.66
457.441	4.77
457.797	4.66
458.154	4.67
458.51	4.78
458.867	4.58
459.223	4.6
459.58	4.7
459.936	4.59
460.292	4.67
460.648	4.56
461.005	4.64
461.361	4.47
461.717	4.52
462.073	4.65
462.429	4.64
462.785	4.61
463.141	4.76
463.496	4.62
463.852	4.47
464.208	4.84
464.564	4.56
464.919	4.7
465.275	4.7
465.631	4.75
465.986	4.78
466.342	4.64
466.697	4.79
467.052	4.78
467.408	4.5
467.763	4.72
468.118	4.54
468.473	4.68
468.829	4.79
469.184	4.78
469.539	4.59
469.894	4.6
470.249	4.6
470.603	4.67
470.958	4.66
471.313	4.61
471.668	4.74
472.023	4.6
472.377	4.66
472.732	4.77
473.086	4.68
473.441	4.74
473.795	4.64
474.15	4.68
474.504	4.69
474.859	4.57
475.213	4.55
475.567	4.55
475.921	4.64
476.275	4.74
476.63	4.53
476.984	4.72
477.338	4.69
477.692	4.73
478.045	4.65
478.399	4.54
478.753	4.75
479.107	4.63
479.461	4.66
479.814	4.67
480.168	4.59
480.521	4.63
480.875	4.73
481.228	4.7
481.582	4.64
481.935	4.74
482.289	4.68
482.642	4.68
482.995	4.6
483.348	4.65
483.701	4.56
484.055	4.53
484.408	4.49
484.761	4.42
485.114	4.36
485.466	4.36
485.819	4.42
486.172	4.47
486.525	4.44
486.878	4.54
487.23	4.55
487.583	4.55
487.936	4.55
488.288	4.48
488.641	4.44
488.993	4.44
489.345	4.43
489.698	4.44
490.05	4.52
490.402	4.52
490.754	4.52
491.107	4.63
491.459	4.55
491.811	4.63
492.163	4.52
492.515	4.48
492.866	4.49
493.218	4.41
493.57	4.46
493.922	4.51
494.274	4.55
494.625	4.57
494.977	4.57
495.328	4.69
495.68	4.7
496.031	4.77
496.383	4.58
496.734	4.72
497.086	4.61
497.437	4.66
497.788	4.63
498.139	4.56
498.49	4.61
498.842	4.55
499.193	4.54
499.544	4.6
499.894	4.69
500.245	4.73
500.596	4.66
500.947	4.56
501.298	4.61
501.648	4.59
501.999	4.59
502.35	4.8
502.7	4.73
503.051	4.7
503.401	4.64
503.752	4.58
504.102	4.62
504.452	4.7
504.803	4.61
505.153	4.74
505.503	4.66
505.853	4.71
506.203	4.69
506.553	4.56
506.903	4.74
507.253	4.72
507.603	4.68
507.953	4.74
508.303	4.57
508.652	4.66
509.002	4.67
509.352	4.55
509.701	4.91
510.051	4.79
510.4	4.65
510.75	4.68
511.099	4.66
511.449	4.5
511.798	4.6
512.147	4.54
512.496	4.61
512.846	4.67
513.195	4.64
513.544	4.67
513.893	4.57
514.242	4.65
514.591	4.64
514.939	4.62
515.288	4.55
515.637	4.58
515.986	4.71
516.334	4.67
516.683	4.77
517.032	4.67
517.38	4.67
517.729	4.64
518.077	4.72
518.426	4.56
518.774	4.64
519.122	4.67
519.47	4.6
519.819	4.64
520.167	4.58
520.515	4.6
520.863	4.61
521.211	4.52
521.559	4.55
521.907	4.62
522.255	4.6
522.602	4.68
522.95	4.67
523.298	4.64
523.645	4.62
523.993	4.64
524.341	4.6
524.688	4.7
525.036	4.52
525.383	4.71
525.73	4.6
526.078	4.47
526.425	4.57
526.772	4.57
527.119	4.4
527.466	4.51
527.814	4.46
528.161	4.6
528.508	4.55
528.854	4.45
529.201	4.49
529.548	4.39
529.895	4.4
530.242	4.36
530.588	4.38
530.935	4.42
531.282	4.43
531.628	4.42
531.975	4.48
532.321	4.49
532.667	4.54
533.014	4.52
533.36	4.51
533.706	4.51
534.052	4.47
534.399	4.43
534.745	4.41
535.091	4.42
535.437	4.45
535.783	4.46
536.129	4.48
536.474	4.44
536.82	4.66
537.166	4.47
537.512	4.46
537.857	4.45
538.203	4.47
538.549	4.47
538.894	4.49
539.239	4.51
539.585	4.6
539.93	4.69
540.276	4.63
540.621	4.47
540.966	4.55
541.311	4.59
541.656	4.58
542.001	4.46
542.346	4.45
542.691	4.39
543.036	4.4
543.381	4.44
543.726	4.43
544.071	4.41
544.415	4.49
544.76	4.44
545.105	4.42
545.449	4.6
545.794	4.58
546.138	4.52
546.483	4.6
546.827	4.53
547.171	4.46
547.516	4.51
547.86	4.35
548.204	4.56
548.548	4.61
548.892	4.53
549.236	4.61
549.58	4.63
549.924	4.62
550.268	4.62
550.612	4.67
550.956	4.54
551.3	4.66
551.643	4.66
551.987	4.58
552.33	4.52
552.674	4.73
553.017	4.42
553.361	4.57
553.704	4.65
554.048	4.55
554.391	4.48
554.734	4.49
555.077	4.44
555.42	4.56
555.764	4.64
556.107	4.58
556.45	4.61
556.793	4.51
557.135	4.68
557.478	4.53
557.821	4.6
558.164	4.65
558.507	4.7
558.849	4.51
559.192	4.47
559.534	4.57
559.877	4.51
560.219	4.59
560.562	4.65
560.904	4.67
561.246	4.69
561.589	4.51
561.931	4.85
562.273	4.54
562.615	4.48
562.957	4.34
563.299	4.59
563.641	4.74
563.983	4.59
564.325	4.44
564.667	4.48
565.008	4.51
565.35	4.56
565.692	4.47
566.033	4.72
566.375	4.36
566.716	4.4
567.058	4.43
567.399	4.47
567.741	4.38
568.082	4.43
568.423	4.42
568.764	4.51
569.105	4.59
569.447	4.65
569.788	4.61
570.129	4.58
570.47	4.39
570.811	4.4
571.151	4.56
571.492	4.4
571.833	4.66
572.174	4.31
572.514	4.56
572.855	4.31
573.195	4.48
573.536	4.43
573.876	4.41
574.217	4.46
574.557	4.48
574.898	4.5
575.238	4.35
575.578	4.32
575.918	4.45
576.258	4.5
576.598	4.36
576.938	4.51
577.278	4.53
577.618	4.38
577.958	4.39
578.298	4.36
578.638	4.41
578.977	4.59
579.317	4.66
579.657	4.35
579.996	4.39
580.336	4.43
580.675	4.44
581.014	4.58
581.354	4.38
581.693	4.55
582.032	4.34
582.372	4.31
582.711	4.25
583.05	4.35
583.389	4.38
583.728	4.42
584.067	4.55
584.406	4.51
584.745	4.37
585.083	4.28
585.422	4.47
585.761	4.7
586.1	4.28
586.438	4.53
586.777	4.37
587.115	4.52
587.454	4.3
587.792	4.51
588.13	4.46
588.469	4.75
588.807	4.48
589.145	4.29
589.483	4.43
589.821	4.41
590.159	4.18
590.497	4.44
590.835	4.46
591.173	4.11
591.511	4.35
591.849	4.33
592.187	4.4
592.524	4.33
592.862	4.24
593.2	4.32
593.537	4.4
593.875	4.35
594.212	4.18
594.55	4.09
594.887	4.35
595.224	4.65
595.561	4.17
595.899	4.29
596.236	4.31
596.573	4.34
596.91	4.37
597.247	4.53
597.584	4.34
597.921	4.29
598.258	4.46
598.594	4.36
598.931	4.47
599.268	4.25
599.604	4.37
599.941	4.36
600.277	4.2
600.614	4.43
600.95	4.25
601.287	4.34
601.623	4.46
601.959	4.2
602.296	4.57
602.632	4.14
602.968	4.14
603.304	4.33
603.64	4.39
603.976	4.17
604.312	4.38
604.648	4.22
604.984	4.27
605.319	4.34
605.655	4.22
605.991	4.33
606.326	4.5
606.662	4.2
606.998	4.32
607.333	4.3
607.668	4.49
608.004	4.29
608.339	4.11
608.674	4.12
609.01	4.05
609.345	4.3
609.68	4.17
610.015	4.22
610.35	4.33
610.685	4.35
611.02	4.26
611.355	4.33
611.689	4.34
612.024	4.17
612.359	4.18
612.694	4.19
613.028	4.43
613.363	4.27
613.697	4.44
614.032	4.25
614.366	4.39
614.7	4.13
615.035	4.35
615.369	3.79
615.703	4.18
616.037	4.29
616.371	4.24
616.705	4.31
617.039	4.74
617.373	4.32
617.707	4.2
618.041	4.47
618.375	4
618.709	4.56
619.042	4.37
619.376	4.31
619.71	4.27
620.043	4.28
620.377	4.47
620.71	4.25
621.043	3.9
621.377	4.11
621.71	4.08
622.043	4.34
622.376	4.25
622.709	4.32
623.043	4.03
623.376	3.94
623.709	4.16
624.041	4.55
624.374	4.37
624.707	4.11
625.04	4.47
625.373	4.2
625.705	4.32
626.038	4.17
626.37	3.95
626.703	4.26
627.035	4.22
627.368	4.17
627.7	4.3
628.032	4.12
628.365	4.3
628.697	4.35
629.029	4.34
629.361	4.07
629.693	4.19
630.025	4.46
630.357	4.4
630.689	4.15
631.021	4.22
631.353	4.27
631.684	4.26
632.016	4.2
632.348	4.42
632.679	4.05
633.011	4.21
633.342	3.71
633.674	4.48
634.005	4
634.336	4.36
634.668	4.19
634.999	4.37
635.33	4.14
635.661	4.24
635.992	4.49
636.323	4.12
636.654	3.92
636.985	4.3
637.316	4.3
637.647	4.27
637.977	4.66
638.308	4.22
638.639	4.25
638.969	4.21
639.3	4.11
639.63	4.4
639.961	3.81
640.291	3.77
640.622	3.93
640.952	4.23
641.282	4.34
641.612	3.83
641.943	4.2
642.273	4.57
642.603	4.33
642.933	4.38
643.263	4.26
643.592	4.07
643.922	3.96
644.252	3.74
644.582	3.9
644.911	4.12
645.241	4.73
645.571	4.34
645.9	3.67
646.23	3.71
646.559	4.24
646.888	4.44
647.218	3.98
647.547	4.21
647.876	4.38
648.205	4.24
648.534	4.13
648.863	3.86
649.192	4.18
649.521	4.45
649.85	4.14
650.179	3.76
650.508	4.19
650.837	4.16
651.165	4.72
651.494	4.22
651.822	4.19
652.151	4.07
652.479	4.13
652.808	4.61
653.136	3.92
653.465	4.22
653.793	3.98
654.121	4.19
654.449	4.19
654.777	4.05
655.105	4.36
655.433	4.12
655.761	3.95
656.089	4.24
656.417	4.48
656.745	4.19
657.073	4.64
657.4	3.82
657.728	4.12
658.056	3.69
658.383	4.65
658.711	4.18
659.038	4.37
659.365	4.16
659.693	4.1
660.02	3.94
660.347	4.28
660.674	4.18
661.001	4.24
661.329	4.49
661.656	3.87
661.982	3.94
662.309	4.22
662.636	4.45
662.963	4.72
663.29	4.42
663.616	3.89
663.943	4.45
664.27	4.42
664.596	4.07
664.923	4.19
665.249	4.08
665.576	4.36
665.902	4.63
666.228	4.26
666.554	4.13
666.881	4.3
667.207	3.56
667.533	4.34
667.859	4.04
668.185	4.42
668.511	3.83
668.837	4.3
669.162	3.65
669.488	4.53
669.814	3.8
670.139	3.81
670.465	4.28
670.791	4.25
671.116	4.86
671.442	3.69
671.767	4.42
672.092	4.9
672.418	4.26
672.743	4.75
673.068	4.82
673.393	4.55
673.718	4.2
674.043	3.68
674.368	4.42
674.693	4.9
675.018	3.95
675.343	4
675.667	4.46
675.992	4.25
676.317	4.2
676.641	4.34
676.966	4.52
677.29	4.24
677.615	4.23
677.939	4.2
678.264	3.82
678.588	3.97
678.912	3.83
679.236	4.31
679.56	4.23
679.885	4.12
680.209	4.27
680.532	4.26
680.856	4.59
681.18	4.02
681.504	4.45
681.828	4.4
682.152	4.45
682.475	4.46
682.799	3.45
683.122	4.37
683.446	4.21
683.769	4.28
684.093	4.42
684.416	4.51
684.739	4.69
685.062	3.95
685.386	4.48
685.709	4.3
686.032	3.93
686.355	3.92
686.678	3.42
687.001	4.34
687.324	4.69
687.646	4.76
687.969	4.59
688.292	4.56
688.614	4.6
688.937	4.65
689.26	4.69
689.582	4.39
689.904	3.71
690.227	4.52
690.549	4.7
690.871	4.61
691.194	4.96
691.516	4.49
691.838	4.59
692.16	4.47
692.482	4.52
692.804	4.38
