Data from 0024_forehead_Reflection__3__74.txt Node

Date: Thu Oct 20 20:53:57 CDT 2022
User: ToomeyLab
Spectrometer: FLMS14357
Trigger mode: 0
Integration Time (sec): 1.000000E-2
Scans to average: 100
Electric dark correction enabled: true
Nonlinearity correction enabled: false
Boxcar width: 0
XAxis mode: Wavelengths
Number of Pixels in Spectrum: 2048
>>>>>Begin Spectral Data<<<<<
189.047	42.5
189.435	42.5
189.823	42.5
190.211	143.13
190.599	-112.84
190.987	56.03
191.375	166.28
191.763	54.45
192.151	207.34
192.538	261.29
192.926	182.83
193.314	-58.28
193.702	147.43
194.089	285.79
194.477	222.66
194.864	-27.66
195.252	102.67
195.639	145.58
196.027	1035.12
196.414	79.28
196.801	450.17
197.189	96.95
197.576	-17.61
197.963	-6.73
198.351	-22.07
198.738	38.05
199.125	47.76
199.512	17.3
199.899	-9.76
200.286	-10.32
200.673	1.28
201.06	10.2
201.447	34.96
201.833	57.81
202.22	23.31
202.607	2.91
202.994	22.83
203.38	16.61
203.767	-10.95
204.154	-62.57
204.54	15.93
204.927	45.39
205.313	77.23
205.699	2.18
206.086	-28.33
206.472	37.43
206.858	-18.59
207.245	3.5
207.631	-3.31
208.017	21.84
208.403	28.35
208.789	-86.85
209.175	-70.53
209.561	3.13
209.947	20.68
210.333	-16.15
210.719	40.12
211.105	-17
211.491	14.45
211.876	5.33
212.262	13.92
212.648	21.44
213.034	10.05
213.419	14.12
213.805	-5.33
214.19	-102.89
214.576	18.48
214.961	15.91
215.346	-2.25
215.732	-9.77
216.117	29.77
216.502	-59.22
216.888	17.87
217.273	49.97
217.658	-11.46
218.043	17.14
218.428	-18.04
218.813	-11.5
219.198	-10.45
219.583	-9.59
219.968	12.19
220.353	5.1
220.738	3.14
221.122	10.43
221.507	-0.41
221.892	-7.28
222.276	-1.81
222.661	1.52
223.046	5.76
223.43	-3.69
223.815	2.43
224.199	2.29
224.583	2.99
224.968	-2.49
225.352	14.75
225.736	7.7
226.121	11.92
226.505	-1.91
226.889	-1.69
227.273	6.02
227.657	1.31
228.041	3.35
228.425	3.42
228.809	-2.38
229.193	2.04
229.577	3.15
229.961	2.23
230.344	1.44
230.728	2.09
231.112	1.97
231.495	0.19
231.879	2.63
232.263	1.92
232.646	1.82
233.03	0.4
233.413	3.53
233.797	0.12
234.18	1.96
234.563	1.2
234.946	0.31
235.33	-0.59
235.713	1.18
236.096	3.52
236.479	2.08
236.862	0.6
237.245	0.32
237.628	1.13
238.011	2.86
238.394	2.34
238.777	1.9
239.16	2.33
239.543	2.01
239.925	3.22
240.308	1.28
240.691	0.18
241.073	1.82
241.456	-0.07
241.838	2.29
242.221	0.84
242.603	0.65
242.986	1.25
243.368	2.07
243.75	1.64
244.133	1.93
244.515	1.74
244.897	2.25
245.279	2.4
245.661	2.63
246.043	1.82
246.425	2.13
246.807	2.25
247.189	1.44
247.571	1.36
247.953	1.56
248.335	1.64
248.717	1.77
249.098	1.79
249.48	1.93
249.862	1.71
250.243	1.88
250.625	2.01
251.006	2.57
251.388	0.86
251.769	2.43
252.151	2.59
252.532	2.44
252.913	1.63
253.295	1.98
253.676	2.71
254.057	1.54
254.438	2.43
254.819	2.5
255.2	3.2
255.581	2.13
255.962	2.56
256.343	1.82
256.724	1.29
257.105	3.37
257.486	2.65
257.867	3.22
258.247	3.13
258.628	2.77
259.009	2.52
259.389	2.4
259.77	2.02
260.15	1.78
260.531	1.65
260.911	1.76
261.292	1.95
261.672	1.63
262.052	2.03
262.432	2.12
262.813	1.74
263.193	1.73
263.573	1.87
263.953	1.58
264.333	1.84
264.713	2.27
265.093	2.15
265.473	1.97
265.853	1.72
266.233	2.14
266.612	2.05
266.992	1.2
267.372	1.74
267.752	1.97
268.131	1.82
268.511	2.09
268.89	1.45
269.27	1.51
269.649	2.23
270.029	2.22
270.408	2.42
270.787	2.02
271.167	1.9
271.546	1.81
271.925	1.42
272.304	1.73
272.683	1.83
273.062	1.82
273.441	2.05
273.82	2.24
274.199	1.74
274.578	1.6
274.957	1.66
275.336	1.67
275.715	2.16
276.093	1.73
276.472	1.54
276.851	1.2
277.229	1.76
277.608	1.78
277.986	1.86
278.365	1.71
278.743	2.07
279.122	1.53
279.5	2.29
279.878	1.88
280.257	1.66
280.635	2.05
281.013	1.51
281.391	1.99
281.769	1.99
282.147	2.2
282.525	1.84
282.903	1.66
283.281	2.04
283.659	1.89
284.037	1.87
284.415	2.53
284.792	1.89
285.17	1.73
285.548	1.34
285.925	1.79
286.303	2.1
286.68	1.89
287.058	2.03
287.435	2.02
287.813	1.64
288.19	1.69
288.567	1.66
288.945	2.32
289.322	2.01
289.699	2.47
290.076	2.06
290.453	1.93
290.83	2
291.207	1.88
291.584	1.86
291.961	1.96
292.338	2.66
292.715	2.01
293.092	2.12
293.469	2.15
293.845	1.85
294.222	2.2
294.599	2.52
294.975	2.56
295.352	2.07
295.728	2.01
296.105	2.36
296.481	2.49
296.858	2.8
297.234	2.13
297.61	2.15
297.986	2.67
298.363	2.21
298.739	2.46
299.115	2.62
299.491	2.53
299.867	2.22
300.243	2.43
300.619	2.45
300.995	2.89
301.371	2.75
301.746	3.03
302.122	3.24
302.498	3.06
302.874	2.65
303.249	2.66
303.625	3.08
304	2.55
304.376	3.56
304.751	2.62
305.127	3.1
305.502	3.09
305.878	2.68
306.253	2.71
306.628	3.12
307.003	3.14
307.378	2.78
307.754	3.31
308.129	3.33
308.504	3.72
308.879	3.63
309.254	3.15
309.629	3.22
310.003	3.12
310.378	3.18
310.753	2.76
311.128	3.5
311.502	3.89
311.877	3.18
312.252	3.37
312.626	3.62
313.001	3.45
313.375	3.63
313.75	3.57
314.124	3.72
314.498	3.48
314.873	3.72
315.247	2.96
315.621	3.76
315.995	3.49
316.369	3.78
316.743	4.45
317.117	4.51
317.491	4.02
317.865	4.23
318.239	3.69
318.613	3.69
318.987	3.79
319.361	4.53
319.734	4.21
320.108	3.83
320.482	4.07
320.855	4.13
321.229	4.14
321.602	4.68
321.976	4.78
322.349	4.63
322.723	4.45
323.096	4.34
323.469	4.81
323.843	4.27
324.216	4.41
324.589	4.37
324.962	4.35
325.335	4.33
325.708	4.53
326.081	4.45
326.454	4.77
326.827	4.28
327.2	4.77
327.573	4.91
327.945	4.99
328.318	4.66
328.691	5.47
329.063	4.56
329.436	4.91
329.809	4.93
330.181	4.95
330.553	5.1
330.926	4.79
331.298	5.06
331.671	4.52
332.043	5.34
332.415	5.47
332.787	5.34
333.159	5.3
333.532	5.22
333.904	5.63
334.276	5.26
334.648	4.65
335.02	5.28
335.391	4.77
335.763	5.25
336.135	6.07
336.507	4.88
336.879	4.94
337.25	5.27
337.622	4.87
337.993	5.22
338.365	5.44
338.736	5.61
339.108	5.59
339.479	4.89
339.851	5.68
340.222	5.37
340.593	5.68
340.964	5.84
341.336	5.74
341.707	6.06
342.078	5.72
342.449	5.97
342.82	6.12
343.191	6.21
343.562	6.13
343.933	5.98
344.303	5.6
344.674	6.26
345.045	6.34
345.416	6.04
345.786	6.17
346.157	6.53
346.527	6.34
346.898	5.94
347.268	6.75
347.639	6.22
348.009	6.77
348.38	6.18
348.75	6.62
349.12	6.91
349.49	6.57
349.861	6.75
350.231	6.82
350.601	6.52
350.971	6.85
351.341	6.89
351.711	6.6
352.081	6.87
352.45	6.94
352.82	7
353.19	6.62
353.56	6.78
353.929	6.96
354.299	6.92
354.669	7.07
355.038	6.84
355.408	6.76
355.777	7.2
356.147	7.08
356.516	6.99
356.885	7.23
357.254	7.61
357.624	7.07
357.993	7.47
358.362	7.21
358.731	7.24
359.1	7.08
359.469	7.06
359.838	7.4
360.207	7.34
360.576	7.65
360.945	7.23
361.314	7.5
361.682	7.42
362.051	7.49
362.42	7.55
362.788	7.11
363.157	7.67
363.525	7.71
363.894	7.85
364.262	7.94
364.631	7.85
364.999	7.9
365.367	7.61
365.735	7.98
366.104	8.13
366.472	8.04
366.84	8.2
367.208	8.19
367.576	8.38
367.944	7.99
368.312	8.06
368.68	8.26
369.048	8.15
369.416	8.44
369.783	8.37
370.151	8.24
370.519	8.11
370.886	8.57
371.254	8.63
371.621	8.44
371.989	8.86
372.356	8.74
372.724	8.73
373.091	8.58
373.458	8.63
373.826	9.1
374.193	8.65
374.56	8.85
374.927	9.18
375.294	8.72
375.661	8.48
376.028	9.02
376.395	8.89
376.762	9.05
377.129	9.08
377.496	9.13
377.863	9.07
378.229	9.11
378.596	9.01
378.963	9.15
379.329	9.11
379.696	9.32
380.062	9.27
380.429	9.4
380.795	9.09
381.161	9.34
381.528	9.72
381.894	9.47
382.26	9.27
382.626	9.79
382.993	9.55
383.359	9.55
383.725	10.05
384.091	9.85
384.457	10
384.823	10.16
385.188	9.7
385.554	9.84
385.92	9.85
386.286	10.12
386.651	9.91
387.017	9.93
387.383	10.14
387.748	10.02
388.114	10.23
388.479	10.34
388.845	10.04
389.21	10
389.575	10.49
389.94	10.25
390.306	10.54
390.671	10.34
391.036	10.44
391.401	10.92
391.766	10.34
392.131	10.34
392.496	10.62
392.861	10.33
393.226	10.46
393.591	10.79
393.956	10.71
394.32	10.9
394.685	10.92
395.05	10.77
395.414	10.9
395.779	10.83
396.143	10.94
396.508	11.14
396.872	11.14
397.236	11.01
397.601	11.13
397.965	11.08
398.329	11.07
398.694	11.07
399.058	11.35
399.422	11.24
399.786	11.39
400.15	11.37
400.514	11.43
400.878	11.41
401.242	11.48
401.605	11.41
401.969	11.58
402.333	11.46
402.697	11.34
403.06	11.84
403.424	11.5
403.787	11.93
404.151	11.9
404.514	11.87
404.878	11.83
405.241	11.84
405.604	11.85
405.968	11.86
406.331	11.89
406.694	11.92
407.057	12.06
407.42	12.06
407.783	11.98
408.146	12.15
408.509	12.1
408.872	12.45
409.235	12.36
409.598	12.28
409.961	12.27
410.323	12.44
410.686	12.47
411.049	12.46
411.411	12.43
411.774	12.51
412.136	12.68
412.499	12.79
412.861	12.66
413.223	12.65
413.586	12.69
413.948	12.99
414.31	12.82
414.672	12.99
415.035	13.02
415.397	13.01
415.759	12.92
416.121	12.89
416.483	12.96
416.845	13.03
417.206	12.91
417.568	12.96
417.93	12.97
418.292	13.07
418.653	13
419.015	13.06
419.377	13.03
419.738	13.11
420.1	13.11
420.461	13.08
420.822	13.07
421.184	13.06
421.545	13.09
421.906	12.93
422.267	13.02
422.629	12.99
422.99	13.2
423.351	13.12
423.712	13.38
424.073	13.37
424.434	13.43
424.795	13.4
425.155	13.32
425.516	13.3
425.877	13.44
426.238	13.44
426.598	13.52
426.959	13.76
427.32	13.69
427.68	13.81
428.041	13.73
428.401	13.85
428.761	14.08
429.122	14.23
429.482	14.07
429.842	14.16
430.202	14.28
430.563	14.23
430.923	14.28
431.283	14.22
431.643	14.21
432.003	14.45
432.363	14.31
432.722	14.39
433.082	14.53
433.442	14.39
433.802	14.41
434.161	14.38
434.521	14.29
434.881	14.36
435.24	14.51
435.6	14.43
435.959	14.59
436.319	14.68
436.678	14.79
437.037	15.04
437.396	14.79
437.756	14.85
438.115	14.95
438.474	14.84
438.833	14.85
439.192	14.96
439.551	14.9
439.91	14.87
440.269	14.93
440.628	15.14
440.987	14.93
441.345	14.97
441.704	14.95
442.063	14.96
442.421	15.08
442.78	15.19
443.138	15.14
443.497	15.44
443.855	15.34
444.214	15.38
444.572	15.54
444.93	15.48
445.288	15.4
445.647	15.49
446.005	15.47
446.363	15.37
446.721	15.26
447.079	15.3
447.437	15.29
447.795	15.33
448.153	15.38
448.51	15.42
448.868	15.41
449.226	15.58
449.584	15.83
449.941	15.85
450.299	15.98
450.656	15.84
451.014	15.87
451.371	16.04
451.729	16.19
452.086	16.12
452.443	16.2
452.801	16.14
453.158	16.27
453.515	16.14
453.872	16.1
454.229	16.18
454.586	16.49
454.943	16.21
455.3	16.52
455.657	16.35
456.014	16.34
456.371	16.61
456.727	16.73
457.084	16.42
457.441	16.61
457.797	16.64
458.154	16.66
458.51	16.74
458.867	16.67
459.223	16.66
459.58	16.7
459.936	16.66
460.292	16.65
460.648	16.5
461.005	16.46
461.361	16.37
461.717	16.5
462.073	16.72
462.429	16.92
462.785	16.95
463.141	17
463.496	17.07
463.852	17.13
464.208	17.25
464.564	17.32
464.919	17.33
465.275	17.19
465.631	17.33
465.986	17.48
466.342	17.52
466.697	17.53
467.052	17.8
467.408	17.5
467.763	17.44
468.118	17.49
468.473	17.49
468.829	17.68
469.184	17.68
469.539	17.62
469.894	17.65
470.249	17.81
470.603	17.77
470.958	18.06
471.313	17.88
471.668	17.94
472.023	17.67
472.377	17.97
472.732	18.09
473.086	18.16
473.441	18.18
473.795	17.94
474.15	18.23
474.504	18.12
474.859	18.17
475.213	18.22
475.567	18.11
475.921	18.35
476.275	18.38
476.63	18.42
476.984	18.56
477.338	18.63
477.692	18.36
478.045	18.51
478.399	18.34
478.753	18.43
479.107	18.47
479.461	18.49
479.814	18.59
480.168	18.49
480.521	18.63
480.875	18.64
481.228	18.77
481.582	18.72
481.935	18.57
482.289	18.69
482.642	18.68
482.995	18.61
483.348	18.56
483.701	18.44
484.055	18.29
484.408	18.1
484.761	17.75
485.114	17.65
485.466	17.72
485.819	17.89
486.172	18.13
486.525	18.24
486.878	18.5
487.23	18.47
487.583	18.51
487.936	18.38
488.288	18.31
488.641	18.25
488.993	18.2
489.345	18.22
489.698	18.29
490.05	18.52
490.402	18.71
490.754	18.79
491.107	19
491.459	19.11
491.811	19.04
492.163	19.1
492.515	18.72
492.866	18.62
493.218	18.57
493.57	18.8
493.922	19.09
494.274	19.24
494.625	19.41
494.977	19.62
495.328	19.68
495.68	19.67
496.031	19.92
496.383	20.06
496.734	19.97
497.086	19.91
497.437	19.98
497.788	19.84
498.139	19.81
498.49	19.76
498.842	19.72
499.193	19.97
499.544	19.96
499.894	20.04
500.245	20.15
500.596	20.24
500.947	20.23
501.298	20.29
501.648	20.34
501.999	20.28
502.35	20.49
502.7	20.45
503.051	20.6
503.401	20.61
503.752	20.55
504.102	20.7
504.452	20.71
504.803	20.63
505.153	20.64
505.503	20.6
505.853	20.77
506.203	20.61
506.553	20.71
506.903	20.87
507.253	20.75
507.603	20.65
507.953	20.83
508.303	20.88
508.652	20.9
509.002	20.89
509.352	20.96
509.701	21.08
510.051	20.85
510.4	20.82
510.75	20.81
511.099	21.07
511.449	20.78
511.798	20.85
512.147	21.03
512.496	21.11
512.846	21.2
513.195	21.22
513.544	21.03
513.893	21.04
514.242	21.32
514.591	21.29
514.939	21.38
515.288	21.26
515.637	21.27
515.986	21.55
516.334	21.47
516.683	21.51
517.032	21.43
517.38	21.52
517.729	21.57
518.077	21.68
518.426	21.47
518.774	21.34
519.122	21.47
519.47	21.33
519.819	21.15
520.167	21.16
520.515	21.32
520.863	21.39
521.211	21.5
521.559	21.6
521.907	21.71
522.255	21.73
522.602	21.97
522.95	22.04
523.298	22.05
523.645	22
523.993	21.96
524.341	22.07
524.688	22.18
525.036	22.01
525.383	22.2
525.73	22.17
526.078	21.99
526.425	22.02
526.772	21.72
527.119	21.59
527.466	21.83
527.814	21.86
528.161	21.91
528.508	21.86
528.854	21.73
529.201	21.77
529.548	21.33
529.895	21.2
530.242	21.22
530.588	21.43
530.935	21.55
531.282	21.64
531.628	21.73
531.975	21.88
532.321	22.1
532.667	22.28
533.014	22.32
533.36	22.35
533.706	22.29
534.052	22.06
534.399	21.93
534.745	21.74
535.091	21.93
535.437	22.05
535.783	22.25
536.129	22.46
536.474	22.54
536.82	22.72
537.166	22.69
537.512	22.5
537.857	22.47
538.203	22.48
538.549	22.62
538.894	22.77
539.239	22.78
539.585	22.93
539.93	23.1
540.276	23.05
540.621	23.19
540.966	23.21
541.311	23.29
541.656	23.04
542.001	22.85
542.346	22.51
542.691	22.29
543.036	22.37
543.381	22.46
543.726	22.66
544.071	22.77
544.415	22.86
544.76	22.85
545.105	23
545.449	23.34
545.794	23.3
546.138	23.34
546.483	23.44
546.827	23.42
547.171	23.46
547.516	23.33
547.86	23.44
548.204	23.38
548.548	23.39
548.892	23.46
549.236	23.6
549.58	23.84
549.924	23.98
550.268	24.08
550.612	24.17
550.956	24.2
551.3	24.2
551.643	24.39
551.987	24.27
552.33	24.39
552.674	24.45
553.017	24.25
553.361	24.19
553.704	24.49
554.048	24.29
554.391	24.16
554.734	24.29
555.077	24.26
555.42	24.48
555.764	24.46
556.107	24.51
556.45	24.49
556.793	24.79
557.135	24.85
557.478	24.65
557.821	24.73
558.164	24.88
558.507	24.93
558.849	24.82
559.192	24.93
559.534	24.95
559.877	25.07
560.219	25.05
560.562	25.04
560.904	24.99
561.246	24.97
561.589	25.14
561.931	25.28
562.273	25
562.615	25.11
562.957	25.06
563.299	25.1
563.641	25.24
563.983	25.05
564.325	25.35
564.667	25.11
565.008	25.34
565.35	25.25
565.692	25.38
566.033	25.37
566.375	25.2
566.716	25.27
567.058	25.3
567.399	25.23
567.741	25.12
568.082	25.02
568.423	25.08
568.764	25.25
569.105	25.35
569.447	25.6
569.788	25.46
570.129	25.61
570.47	25.45
570.811	25.33
571.151	25.58
571.492	25.65
571.833	25.29
572.174	25.49
572.514	25.89
572.855	25.24
573.195	25.37
573.536	25.58
573.876	25.43
574.217	25.47
574.557	25.47
574.898	25.54
575.238	25.48
575.578	25.94
575.918	25.8
576.258	25.63
576.598	25.68
576.938	25.99
577.278	25.71
577.618	25.96
577.958	25.99
578.298	25.94
578.638	26.01
578.977	26.06
579.317	26.18
579.657	26.13
579.996	26.26
580.336	26.24
580.675	26.26
581.014	26.27
581.354	26.31
581.693	26.43
582.032	26.34
582.372	26.28
582.711	26.24
583.05	26.26
583.389	26.5
583.728	26.59
584.067	26.6
584.406	26.92
584.745	26.69
585.083	26.65
585.422	26.69
585.761	26.81
586.1	26.54
586.438	26.89
586.777	26.68
587.115	26.78
587.454	26.93
587.792	26.77
588.13	26.83
588.469	26.88
588.807	26.87
589.145	26.95
589.483	26.83
589.821	26.7
590.159	26.48
590.497	27.01
590.835	26.84
591.173	26.84
591.511	26.86
591.849	26.79
592.187	26.98
592.524	27.11
592.862	27.08
593.2	26.86
593.537	26.91
593.875	27.11
594.212	27.08
594.55	26.75
594.887	27.15
595.224	27.24
595.561	27.01
595.899	27.03
596.236	27.47
596.573	27.2
596.91	27.06
597.247	27.53
597.584	27.17
597.921	26.94
598.258	27.16
598.594	27.08
598.931	27.1
599.268	26.96
599.604	27.04
599.941	27.02
600.277	27.41
600.614	27.48
600.95	27.62
601.287	27.63
601.623	28.03
601.959	27.55
602.296	27.88
602.632	27.57
602.968	27.6
603.304	27.62
603.64	27.36
603.976	27.62
604.312	27.54
604.648	27.67
604.984	27.72
605.319	27.45
605.655	27.62
605.991	27.52
606.326	27.53
606.662	27.42
606.998	27.65
607.333	27.7
607.668	28.08
608.004	27.59
608.339	27.54
608.674	27.78
609.01	28.03
609.345	27.75
609.68	27.65
610.015	27.85
610.35	27.78
610.685	27.92
611.02	27.56
611.355	27.62
611.689	27.72
612.024	27.86
612.359	27.87
612.694	27.99
613.028	28.2
613.363	28.17
613.697	28.62
614.032	28.26
614.366	28.57
614.7	28.41
615.035	28.27
615.369	28.14
615.703	28.55
616.037	28.54
616.371	28.69
616.705	28.52
617.039	28.82
617.373	28.45
617.707	28.06
618.041	28.76
618.375	28.23
618.709	28.75
619.042	28.89
619.376	28.77
619.71	28.55
620.043	28.11
620.377	28.49
620.71	28.9
621.043	28.28
621.377	28.95
621.71	28.5
622.043	28.64
622.376	28.62
622.709	28.59
623.043	28.55
623.376	28.6
623.709	28.75
624.041	28.89
624.374	28.65
624.707	28.61
625.04	28.6
625.373	28.68
625.705	28.84
626.038	29
626.37	28.78
626.703	29.26
627.035	28.6
627.368	28.74
627.7	28.78
628.032	28.86
628.365	28.93
628.697	28.79
629.029	28.9
629.361	28.6
629.693	29.12
630.025	29.43
630.357	29.08
630.689	28.93
631.021	29.28
631.353	28.92
631.684	29.3
632.016	29.09
632.348	29.28
632.679	29.32
633.011	29.61
633.342	29.16
633.674	29.36
634.005	28.87
634.336	29.42
634.668	29.15
634.999	29.69
635.33	29.46
635.661	29.3
635.992	29.25
636.323	29.5
636.654	29.38
636.985	29.22
637.316	29.14
637.647	29.03
637.977	29.77
638.308	29.63
638.639	29.89
638.969	29.15
639.3	29.24
639.63	29.39
639.961	29.36
640.291	29.27
640.622	29.67
640.952	29.82
641.282	30.14
641.612	29.59
641.943	29.81
642.273	29.86
642.603	29.77
642.933	30.28
643.263	29.81
643.592	29.8
643.922	29.85
644.252	29.11
644.582	29.65
644.911	29.91
645.241	29.97
645.571	29.75
645.9	29.29
646.23	29.58
646.559	29.86
646.888	29.68
647.218	30.02
647.547	30.32
647.876	29.77
648.205	29.8
648.534	29.8
648.863	29.9
649.192	30.29
649.521	29.95
649.85	30.33
650.179	30.05
650.508	29.89
650.837	30.36
651.165	30.81
651.494	30.48
651.822	30.26
652.151	30.13
652.479	30.74
652.808	30.31
653.136	30.21
653.465	30.2
653.793	30.11
654.121	29.75
654.449	30.17
654.777	30.18
655.105	30.31
655.433	30.37
655.761	30.24
656.089	30.57
656.417	30.25
656.745	30.15
657.073	30.18
657.4	30.25
657.728	30.33
658.056	29.98
658.383	30.52
658.711	30
659.038	30.62
659.365	30.66
659.693	30.86
660.02	30.68
660.347	30.34
660.674	30.18
661.001	30.4
661.329	30.5
661.656	30.33
661.982	30.27
662.309	30.23
662.636	30.49
662.963	30.64
663.29	30.88
663.616	31.04
663.943	30.49
664.27	30.63
664.596	30.45
664.923	30.39
665.249	30.74
665.576	30.88
665.902	31.08
666.228	31
666.554	30.93
666.881	31
667.207	31.27
667.533	31.21
667.859	30.66
668.185	30.91
668.511	30.08
668.837	31.24
669.162	30.82
669.488	30.71
669.814	30.39
670.139	30.08
670.465	30.73
670.791	31.19
671.116	31.22
671.442	30.49
671.767	31.23
672.092	31.17
672.418	31.32
672.743	31.13
673.068	31.58
