Data from 0140_chest_Reflection__4__172.txt Node

Date: Mon Aug 28 20:10:04 CDT 2023
User: ToomeyLab
Spectrometer: FLMS14357
Trigger mode: 0
Integration Time (sec): 1.000000E-2
Scans to average: 100
Electric dark correction enabled: true
Nonlinearity correction enabled: false
Boxcar width: 0
XAxis mode: Wavelengths
Number of Pixels in Spectrum: 2048
>>>>>Begin Spectral Data<<<<<
189.047	-191.3
189.435	-191.3
189.823	-191.3
190.211	-206.4
190.599	176
190.987	61.18
191.375	-302.97
191.763	81.06
192.151	-102.8
192.538	26.4
192.926	151.25
193.314	-386.83
193.702	1087.57
194.089	27.06
194.477	-300.87
194.864	-229.5
195.252	-887.23
195.639	-41.79
196.027	147.6
196.414	69.65
196.801	1.36
197.189	53.11
197.576	15.43
197.963	-3144.53
198.351	-14.41
198.738	-32.59
199.125	47.36
199.512	35.52
199.899	24.87
200.286	74.43
200.673	13.59
201.06	52.72
201.447	-45.8
201.833	-32.06
202.22	-22.08
202.607	7.32
202.994	28.56
203.38	44.49
203.767	5.59
204.154	26.44
204.54	-19.43
204.927	-4.72
205.313	24.73
205.699	12.66
206.086	27.44
206.472	-0.29
206.858	-0.22
207.245	11.79
207.631	27.22
208.017	-17.1
208.403	-32.54
208.789	-11.77
209.175	-16.76
209.561	14.51
209.947	2.19
210.333	-10.65
210.719	22.68
211.105	18.31
211.491	-29.31
211.876	5.03
212.262	14.07
212.648	40.21
213.034	2.17
213.419	-3.79
213.805	12.55
214.19	-12.51
214.576	-14.27
214.961	-6
215.346	3.07
215.732	13.21
216.117	-52.72
216.502	7.82
216.888	-50.88
217.273	9.16
217.658	19.83
218.043	12.7
218.428	24.7
218.813	-5.24
219.198	14.49
219.583	-16.43
219.968	31.26
220.353	-5.79
220.738	30.94
221.122	-7.31
221.507	-12.2
221.892	-6.7
222.276	-2.3
222.661	-3.12
223.046	-2.71
223.43	12.11
223.815	-2.91
224.199	12.72
224.583	9.36
224.968	12.34
225.352	13.3
225.736	-0.72
226.121	-2.08
226.505	0.34
226.889	1.35
227.273	16.15
227.657	11.62
228.041	6.31
228.425	-3.12
228.809	4.32
229.193	3.33
229.577	6.58
229.961	0.01
230.344	3.47
230.728	3.95
231.112	2.72
231.495	3.42
231.879	2.92
232.263	3.35
232.646	1.57
233.03	4.68
233.413	5.77
233.797	3.44
234.18	1.17
234.563	0.62
234.946	3.35
235.33	2.94
235.713	0.46
236.096	4.22
236.479	3.42
236.862	5.27
237.245	0.62
237.628	1.12
238.011	4.59
238.394	4.15
238.777	3.18
239.16	2.38
239.543	3.37
239.925	4.72
240.308	3.4
240.691	1.85
241.073	3.44
241.456	2.78
241.838	3.66
242.221	3.99
242.603	2.63
242.986	3.25
243.368	3.3
243.75	2.71
244.133	2.71
244.515	2.82
244.897	3.29
245.279	3.29
245.661	2.98
246.043	3.45
246.425	3.25
246.807	3.99
247.189	2.73
247.571	3.06
247.953	3.33
248.335	2.99
248.717	2.91
249.098	3.47
249.48	3.17
249.862	3.26
250.243	3.01
250.625	3.39
251.006	3.2
251.388	3.67
251.769	3.21
252.151	3.23
252.532	2.6
252.913	3.84
253.295	1.78
253.676	2.58
254.057	3.08
254.438	3.24
254.819	3.07
255.2	3.64
255.581	4.01
255.962	3.14
256.343	4.07
256.724	1.38
257.105	2.7
257.486	2.54
257.867	2.08
258.247	2.61
258.628	3.48
259.009	3.41
259.389	2.07
259.77	3.32
260.15	2.23
260.531	2.64
260.911	3.1
261.292	3.07
261.672	3.03
262.052	2.59
262.432	3.06
262.813	3.21
263.193	2.83
263.573	2.71
263.953	3.56
264.333	2.64
264.713	3.12
265.093	3.36
265.473	3.02
265.853	2.49
266.233	2.44
266.612	2.86
266.992	2.51
267.372	2.76
267.752	3.37
268.131	2.65
268.511	2.66
268.89	2.94
269.27	2.41
269.649	2.81
270.029	3.4
270.408	2.86
270.787	3.02
271.167	2.46
271.546	2.51
271.925	3.07
272.304	2.07
272.683	2.85
273.062	2.37
273.441	3.11
273.82	2.73
274.199	2.15
274.578	2.77
274.957	2.97
275.336	3.31
275.715	3.53
276.093	2.17
276.472	2.39
276.851	2.42
277.229	3.34
277.608	2.92
277.986	2.46
278.365	3.23
278.743	2.34
279.122	2.73
279.5	2.47
279.878	2.11
280.257	2.64
280.635	2.69
281.013	3.04
281.391	2.26
281.769	2.49
282.147	2.46
282.525	3.27
282.903	2.62
283.281	2.78
283.659	3.11
284.037	3.03
284.415	3.14
284.792	2.93
285.17	2.48
285.548	2.4
285.925	3.21
286.303	2.82
286.68	3.18
287.058	2.91
287.435	2.65
287.813	2.65
288.19	3.27
288.567	3.2
288.945	2.81
289.322	2.58
289.699	3.37
290.076	3.5
290.453	3.36
290.83	2.26
291.207	2.78
291.584	2.83
291.961	3.47
292.338	2.66
292.715	2.91
293.092	2.87
293.469	3.09
293.845	3.21
294.222	2.61
294.599	2.87
294.975	3.51
295.352	2.57
295.728	3.01
296.105	3.26
296.481	3.08
296.858	3.11
297.234	2.9
297.61	3.36
297.986	2.94
298.363	3.66
298.739	2.89
299.115	2.85
299.491	3.16
299.867	3.19
300.243	3.23
300.619	3.12
300.995	3.13
301.371	2.7
301.746	3.38
302.122	2.97
302.498	2.6
302.874	2.66
303.249	3.15
303.625	3.42
304	3.26
304.376	2.77
304.751	3.38
305.127	3.51
305.502	3.3
305.878	3.4
306.253	3.18
306.628	3.25
307.003	3.37
307.378	3.27
307.754	3.37
308.129	2.91
308.504	3.35
308.879	3.06
309.254	3.44
309.629	3.09
310.003	3
310.378	2.87
310.753	3.27
311.128	3.19
311.502	3.32
311.877	3.6
312.252	3.28
312.626	3.37
313.001	3.27
313.375	3.59
313.75	3.15
314.124	3.07
314.498	3.42
314.873	3.45
315.247	3.33
315.621	2.68
315.995	3.65
316.369	3.33
316.743	2.81
317.117	3.47
317.491	2.68
317.865	2.87
318.239	2.97
318.613	3.71
318.987	2.84
319.361	3.45
319.734	3.65
320.108	3.49
320.482	3.37
320.855	2.96
321.229	2.89
321.602	3.94
321.976	2.92
322.349	3.81
322.723	2.87
323.096	3.65
323.469	2.83
323.843	2.9
324.216	3.93
324.589	3.72
324.962	3.82
325.335	3.63
325.708	3.35
326.081	3.19
326.454	3.66
326.827	3.59
327.2	2.91
327.573	3.55
327.945	3.89
328.318	3.67
328.691	3.07
329.063	3.25
329.436	3.19
329.809	3.65
330.181	3.03
330.553	3.31
330.926	3.22
331.298	3.55
331.671	2.98
332.043	3.99
332.415	3.98
332.787	2.98
333.159	3.11
333.532	3.6
333.904	3.71
334.276	3.46
334.648	3.56
335.02	3.86
335.391	3.13
335.763	3.82
336.135	3.42
336.507	3.55
336.879	3.36
337.25	3.86
337.622	3.17
337.993	3.49
338.365	3.28
338.736	3.87
339.108	2.82
339.479	2.69
339.851	3.87
340.222	3.56
340.593	3.31
340.964	3.37
341.336	3.21
341.707	2.97
342.078	3.29
342.449	3.29
342.82	3.93
343.191	3.08
343.562	3.13
343.933	3.08
344.303	3.49
344.674	3.61
345.045	3.65
345.416	3.78
345.786	3.65
346.157	3.62
346.527	3.09
346.898	3.45
347.268	3.12
347.639	3.38
348.009	3.47
348.38	3.49
348.75	3.4
349.12	3.35
349.49	3.55
349.861	3.13
350.231	3.22
350.601	3.69
350.971	3.49
351.341	3.41
351.711	3.3
352.081	3.49
352.45	3.61
352.82	3.26
353.19	4.11
353.56	3.66
353.929	3.85
354.299	3.31
354.669	3.47
355.038	3.6
355.408	3.63
355.777	3.44
356.147	3.71
356.516	3.92
356.885	3.61
357.254	3.33
357.624	3.31
357.993	3.57
358.362	3.54
358.731	3.56
359.1	3.8
359.469	3.5
359.838	3.19
360.207	3.74
360.576	3.73
360.945	3.24
361.314	3.36
361.682	3.13
362.051	3.44
362.42	3.22
362.788	3.55
363.157	3.86
363.525	3.35
363.894	3.52
364.262	3.49
364.631	3.42
364.999	3.51
365.367	3.42
365.735	3.55
366.104	3.39
366.472	3.53
366.84	3.32
367.208	3.63
367.576	3.23
367.944	3.46
368.312	3.5
368.68	3.32
369.048	3.51
369.416	3.49
369.783	3.28
370.151	3.69
370.519	3.41
370.886	3.38
371.254	3.27
371.621	3.27
371.989	3.57
372.356	3.55
372.724	3.96
373.091	3.72
373.458	3.43
373.826	3.38
374.193	3.44
374.56	3.64
374.927	3.02
375.294	3.72
375.661	3.59
376.028	3.3
376.395	3.36
376.762	3.97
377.129	3.33
377.496	3.64
377.863	3.78
378.229	3.28
378.596	3.82
378.963	3.94
379.329	3.59
379.696	3.35
380.062	3.42
380.429	3.59
380.795	3.63
381.161	3.7
381.528	4.02
381.894	3.76
382.26	3.79
382.626	3.57
382.993	3.86
383.359	3.74
383.725	3.65
384.091	3.37
384.457	3.68
384.823	3.5
385.188	3.41
385.554	3.29
385.92	3.42
386.286	3.87
386.651	3.73
387.017	3.78
387.383	3.71
387.748	3.56
388.114	3.41
388.479	3.5
388.845	3.55
389.21	3.75
389.575	3.93
389.94	3.39
390.306	4.09
390.671	3.63
391.036	3.92
391.401	3.63
391.766	3.74
392.131	3.63
392.496	3.37
392.861	3.65
393.226	3.65
393.591	3.43
393.956	3.78
394.32	3.64
394.685	3.62
395.05	3.78
395.414	3.73
395.779	3.69
396.143	3.71
396.508	3.78
396.872	3.87
397.236	3.62
397.601	3.53
397.965	3.71
398.329	3.97
398.694	3.8
399.058	3.36
399.422	3.88
399.786	3.78
400.15	3.83
400.514	3.72
400.878	3.73
401.242	3.98
401.605	3.92
401.969	3.67
402.333	3.76
402.697	3.8
403.06	3.68
403.424	3.76
403.787	3.61
404.151	3.55
404.514	3.7
404.878	3.77
405.241	3.76
405.604	3.76
405.968	3.55
406.331	4
406.694	3.88
407.057	4.06
407.42	3.72
407.783	3.6
408.146	3.75
408.509	3.8
408.872	3.77
409.235	3.72
409.598	3.78
409.961	3.8
410.323	4.01
410.686	3.59
411.049	4.02
411.411	3.93
411.774	3.79
412.136	3.89
412.499	3.87
412.861	3.78
413.223	3.69
413.586	3.72
413.948	3.86
414.31	3.81
414.672	3.71
415.035	3.8
415.397	3.58
415.759	3.92
416.121	3.94
416.483	3.85
416.845	3.96
417.206	4.11
417.568	3.91
417.93	3.57
418.292	3.86
418.653	3.76
419.015	3.85
419.377	3.69
419.738	4
420.1	3.87
420.461	3.77
420.822	3.95
421.184	3.89
421.545	3.81
421.906	3.75
422.267	3.84
422.629	3.7
422.99	3.8
423.351	3.89
423.712	3.82
424.073	3.69
424.434	3.84
424.795	3.86
425.155	3.79
425.516	3.78
425.877	3.7
426.238	3.82
426.598	3.74
426.959	3.79
427.32	3.87
427.68	3.81
428.041	3.78
428.401	3.84
428.761	3.83
429.122	3.77
429.482	4.03
429.842	3.89
430.202	3.67
430.563	3.92
430.923	4.06
431.283	3.77
431.643	3.91
432.003	3.83
432.363	4.08
432.722	4.1
433.082	3.92
433.442	4.01
433.802	3.89
434.161	3.9
434.521	3.9
434.881	3.88
435.24	3.96
435.6	3.93
435.959	3.89
436.319	3.94
436.678	3.91
437.037	3.98
437.396	4.09
437.756	3.94
438.115	4.13
438.474	4.1
438.833	3.94
439.192	3.88
439.551	3.91
439.91	4.07
440.269	3.91
440.628	4.03
440.987	4.06
441.345	3.96
441.704	3.96
442.063	3.88
442.421	3.99
442.78	3.92
443.138	3.99
443.497	3.94
443.855	4.04
444.214	4.01
444.572	3.92
444.93	4.18
445.288	3.92
445.647	4.04
446.005	4.12
446.363	4.18
446.721	4.08
447.079	4.09
447.437	3.91
447.795	4.13
448.153	4.09
448.51	3.97
448.868	4.08
449.226	3.99
449.584	4
449.941	4.04
450.299	4.13
450.656	4.07
451.014	3.95
451.371	4.1
451.729	3.94
452.086	4.01
452.443	4.34
452.801	4.18
453.158	4.22
453.515	4.04
453.872	4.23
454.229	4.22
454.586	4.21
454.943	4.13
455.3	4.15
455.657	4.18
456.014	4.07
456.371	4.13
456.727	4.23
457.084	4.11
457.441	4.26
457.797	4.08
458.154	4.2
458.51	4.24
458.867	4.02
459.223	4.19
459.58	4.11
459.936	4.19
460.292	4.16
460.648	4.14
461.005	4.2
461.361	4.15
461.717	4.13
462.073	4.12
462.429	4.1
462.785	4.14
463.141	4.11
463.496	4.24
463.852	4.23
464.208	4.12
464.564	4.11
464.919	4.25
465.275	4.44
465.631	4.12
465.986	4.54
466.342	4.41
466.697	4.21
467.052	4.31
467.408	4.32
467.763	4.11
468.118	4.14
468.473	4.26
468.829	4.23
469.184	4.14
469.539	4.32
469.894	4.33
470.249	4.27
470.603	4.16
470.958	4.21
471.313	4.36
471.668	4.22
472.023	4.48
472.377	4.3
472.732	4.3
473.086	4.37
473.441	4.23
473.795	4.33
474.15	4.38
474.504	4.46
474.859	4.33
475.213	4.54
475.567	4.27
475.921	4.69
476.275	4.41
476.63	4.51
476.984	4.54
477.338	4.54
477.692	4.39
478.045	4.42
478.399	4.51
478.753	4.38
479.107	4.38
479.461	4.46
479.814	4.42
480.168	4.49
480.521	4.52
480.875	4.41
481.228	4.56
481.582	4.42
481.935	4.49
482.289	4.54
482.642	4.6
482.995	4.51
483.348	4.42
483.701	4.53
484.055	4.38
484.408	4.38
484.761	4.49
485.114	4.34
485.466	4.3
485.819	4.2
486.172	4.17
486.525	4.26
486.878	4.25
487.23	4.35
487.583	4.35
487.936	4.44
488.288	4.39
488.641	4.42
488.993	4.37
489.345	4.38
489.698	4.34
490.05	4.35
490.402	4.32
490.754	4.41
491.107	4.42
491.459	4.52
491.811	4.42
492.163	4.57
492.515	4.6
492.866	4.58
493.218	4.44
493.57	4.44
493.922	4.32
494.274	4.39
494.625	4.42
494.977	4.54
495.328	4.57
495.68	4.47
496.031	4.58
496.383	4.47
496.734	4.57
497.086	4.74
497.437	4.88
497.788	4.76
498.139	4.72
498.49	4.67
498.842	4.67
499.193	4.72
499.544	4.68
499.894	4.68
500.245	4.62
500.596	4.74
500.947	4.71
501.298	4.82
501.648	4.66
501.999	4.79
502.35	4.75
502.7	4.78
503.051	4.75
503.401	4.83
503.752	4.79
504.102	4.71
504.452	4.74
504.803	4.96
505.153	4.86
505.503	4.78
505.853	4.8
506.203	4.79
506.553	4.74
506.903	4.93
507.253	5
507.603	4.9
507.953	4.97
508.303	4.98
508.652	4.97
509.002	5.02
509.352	4.79
509.701	4.97
510.051	4.93
510.4	5.02
510.75	5.06
511.099	4.98
511.449	4.94
511.798	4.95
512.147	5
512.496	5.01
512.846	4.97
513.195	5.07
513.544	5.05
513.893	4.99
514.242	5.07
514.591	5.02
514.939	4.88
515.288	4.98
515.637	5.02
515.986	5.06
516.334	5.17
516.683	5.18
517.032	5.13
517.38	5.23
517.729	5.2
518.077	5.19
518.426	5.08
518.774	5.11
519.122	5.19
519.47	5.14
519.819	5.11
520.167	4.97
520.515	5.11
520.863	5.04
521.211	5.14
521.559	5.14
521.907	5.16
522.255	5.16
522.602	5.24
522.95	5.29
523.298	5.26
523.645	5.32
523.993	5.29
524.341	5.33
524.688	5.37
525.036	5.36
525.383	5.39
525.73	5.35
526.078	5.5
526.425	5.35
526.772	5.38
527.119	5.34
527.466	5.28
527.814	5.21
528.161	5.23
528.508	5.24
528.854	5.31
529.201	5.39
529.548	5.34
529.895	5.36
530.242	5.34
530.588	5.22
530.935	5.2
531.282	5.24
531.628	5.23
531.975	5.31
532.321	5.3
532.667	5.34
533.014	5.52
533.36	5.57
533.706	5.54
534.052	5.48
534.399	5.57
534.745	5.56
535.091	5.5
535.437	5.49
535.783	5.57
536.129	5.55
536.474	5.51
536.82	5.61
537.166	5.58
537.512	5.64
537.857	5.74
538.203	5.69
538.549	5.71
538.894	5.78
539.239	5.65
539.585	5.76
539.93	5.81
540.276	5.84
540.621	5.81
540.966	5.81
541.311	5.86
541.656	5.96
542.001	6
542.346	6.01
542.691	5.87
543.036	5.9
543.381	5.79
543.726	5.81
544.071	5.84
544.415	5.83
544.76	5.79
545.105	5.9
545.449	5.94
545.794	5.92
546.138	6.09
546.483	6.01
546.827	6.11
547.171	5.97
547.516	6.04
547.86	6.15
548.204	6.25
548.548	6.21
548.892	6.07
549.236	6.04
549.58	6.06
549.924	6.14
550.268	6.31
550.612	6.13
550.956	6.37
551.3	6.33
551.643	6.33
551.987	6.4
552.33	6.55
552.674	6.38
553.017	6.51
553.361	6.69
553.704	6.54
554.048	6.62
554.391	6.56
554.734	6.51
555.077	6.43
555.42	6.56
555.764	6.63
556.107	6.52
556.45	6.57
556.793	6.46
557.135	6.74
557.478	6.73
557.821	6.79
558.164	6.95
558.507	6.91
558.849	6.82
559.192	6.68
559.534	6.9
559.877	6.91
560.219	6.98
560.562	6.81
560.904	7.04
561.246	6.91
561.589	7.01
561.931	6.95
562.273	7
562.615	7.04
562.957	7.12
563.299	7.32
563.641	7.16
563.983	7.25
564.325	7.11
564.667	7.05
565.008	7.1
565.35	7.3
565.692	7.34
566.033	7.1
566.375	7.16
566.716	7.02
567.058	7.21
567.399	7.1
567.741	7.27
568.082	7.21
568.423	7.43
568.764	7.34
569.105	7.43
569.447	7.51
569.788	7.39
570.129	7.37
570.47	7.59
570.811	7.36
571.151	7.4
571.492	7.58
571.833	7.58
572.174	7.64
572.514	7.59
572.855	7.62
573.195	7.79
573.536	7.78
573.876	7.65
574.217	7.65
574.557	7.73
574.898	7.75
575.238	7.66
575.578	7.65
575.918	7.71
576.258	7.84
576.598	7.7
576.938	8.01
577.278	7.84
577.618	7.82
577.958	7.95
578.298	8.02
578.638	7.94
578.977	8.04
579.317	8.02
579.657	7.89
579.996	7.93
580.336	8.14
580.675	8.19
581.014	8.37
581.354	8.33
581.693	8.29
582.032	8.27
582.372	8.35
582.711	8.45
583.05	8.44
583.389	8.48
583.728	8.36
584.067	8.57
584.406	8.48
584.745	8.49
585.083	8.42
585.422	8.47
585.761	8.73
586.1	8.99
586.438	8.56
586.777	8.75
587.115	8.72
587.454	9.03
587.792	8.72
588.13	8.7
588.469	8.93
588.807	8.88
589.145	9.15
589.483	8.7
589.821	8.91
590.159	9.01
590.497	8.77
590.835	8.91
591.173	9.06
591.511	8.86
591.849	8.99
592.187	9.17
592.524	9.29
592.862	9.13
593.2	9.3
593.537	8.99
593.875	9.41
594.212	9.32
594.55	9.39
594.887	9.18
595.224	9.49
595.561	9.18
595.899	9.32
596.236	9.64
596.573	9.57
596.91	9.36
597.247	9.65
597.584	9.63
597.921	9.55
598.258	9.61
598.594	9.68
598.931	9.54
599.268	9.82
599.604	9.5
599.941	9.74
600.277	9.6
600.614	9.86
600.95	9.74
601.287	9.9
601.623	9.99
601.959	10.05
602.296	9.82
602.632	9.82
602.968	10.07
603.304	10.12
603.64	10.15
603.976	10.13
604.312	10.24
604.648	10.06
604.984	10.04
605.319	10.34
605.655	10.19
605.991	10.21
606.326	10.32
606.662	10.13
606.998	10.25
607.333	10.26
607.668	10.23
608.004	10.56
608.339	10.38
608.674	10.14
609.01	10.53
609.345	10.45
609.68	10.46
610.015	10.8
610.35	10.67
610.685	10.56
611.02	10.59
611.355	10.79
611.689	10.68
612.024	10.71
612.359	10.86
612.694	10.75
613.028	10.64
613.363	10.86
613.697	10.75
614.032	11.09
614.366	10.6
614.7	11.03
615.035	11.03
615.369	11.15
615.703	11.07
616.037	11.14
616.371	11.21
616.705	11.14
617.039	11.09
617.373	11.32
617.707	11.09
618.041	11.31
618.375	11.42
618.709	11.52
619.042	11.13
619.376	11.27
619.71	11.29
620.043	11.54
620.377	11.49
620.71	11.78
621.043	11.34
621.377	11.47
621.71	11.5
622.043	11.14
622.376	11.73
622.709	11.71
623.043	11.69
623.376	12.1
623.709	12.01
624.041	12.27
624.374	11.78
624.707	12.01
625.04	11.73
625.373	11.82
625.705	12.14
626.038	12.19
626.37	12.05
626.703	12.28
627.035	12.28
627.368	12.28
627.7	12.44
628.032	12.15
628.365	12.15
628.697	12.46
629.029	12.57
629.361	12.41
629.693	12.46
630.025	12.4
630.357	12.44
630.689	12.24
631.021	12.59
631.353	12.58
631.684	12.59
632.016	12.33
632.348	12.62
632.679	12.66
633.011	12.76
633.342	12.34
633.674	12.8
634.005	12.82
634.336	12.96
634.668	12.83
634.999	12.93
635.33	12.97
635.661	13.22
635.992	12.93
636.323	13.12
636.654	13.18
636.985	13.28
637.316	13.1
637.647	13.04
637.977	12.95
638.308	13.59
638.639	13.05
638.969	13.45
639.3	13.16
639.63	13.29
639.961	13.32
640.291	13.33
640.622	13.64
640.952	13.53
641.282	13.45
641.612	13.28
641.943	13.46
642.273	14.07
642.603	13.53
642.933	13.49
643.263	13.73
643.592	13.36
643.922	13.52
644.252	13.82
644.582	13.75
644.911	14.39
645.241	14.03
645.571	14.45
645.9	14.11
646.23	13.81
646.559	13.86
646.888	14.17
647.218	13.98
647.547	14.12
647.876	14.57
648.205	14.18
648.534	14.5
648.863	14.02
649.192	14.23
649.521	14.47
649.85	14.5
650.179	14.7
650.508	14.15
650.837	14.26
651.165	15.14
651.494	14.84
651.822	14.73
652.151	14.57
652.479	14.99
652.808	14.42
653.136	14.58
653.465	14.89
653.793	15.07
654.121	14.91
654.449	15.05
654.777	14.76
655.105	14.86
655.433	15.04
655.761	14.92
656.089	14.9
656.417	14.96
656.745	15.68
657.073	14.86
657.4	15.12
657.728	15.49
658.056	14.97
658.383	15.21
658.711	15.07
659.038	15.41
659.365	15.14
659.693	15.24
660.02	15.71
660.347	15.66
660.674	15.54
661.001	15.65
661.329	15.39
661.656	15.24
661.982	15.76
662.309	16.04
662.636	15.29
662.963	15.98
663.29	15.67
663.616	15.31
663.943	15.75
664.27	15.92
664.596	15.84
664.923	16.11
665.249	16.25
665.576	15.96
665.902	15.59
666.228	16.15
666.554	15.66
666.881	15.99
667.207	15.9
667.533	16.46
667.859	15.39
668.185	16.02
668.511	16
668.837	15.64
669.162	16.09
669.488	16.14
669.814	15.96
670.139	15.92
670.465	16.26
670.791	16.82
671.116	16.58
671.442	16.33
671.767	15.98
672.092	16.53
672.418	16.05
672.743	16.31
673.068	16.46
673.393	16.78
673.718	16.67
674.043	16.32
674.368	16.72
674.693	17.13
675.018	17.47
675.343	16.71
675.667	17.24
675.992	17.19
676.317	16.2
676.641	16.93
676.966	16.96
677.29	17.06
677.615	17.84
677.939	16.85
678.264	16.78
678.588	17.04
678.912	17.37
679.236	16.99
679.56	16.8
679.885	17.56
680.209	17.08
680.532	17.86
680.856	17.23
681.18	17.75
681.504	17.04
681.828	17.07
682.152	17.11
682.475	17.92
682.799	17.64
683.122	17.33
683.446	17.19
683.769	18.11
684.093	17.84
684.416	17.95
684.739	17.15
685.062	17.45
685.386	17.72
685.709	18.04
