Data from 0140_chest_Reflection__3__171.txt Node

Date: Mon Aug 28 20:09:54 CDT 2023
User: ToomeyLab
Spectrometer: FLMS14357
Trigger mode: 0
Integration Time (sec): 1.000000E-2
Scans to average: 100
Electric dark correction enabled: true
Nonlinearity correction enabled: false
Boxcar width: 0
XAxis mode: Wavelengths
Number of Pixels in Spectrum: 2048
>>>>>Begin Spectral Data<<<<<
189.047	80.76
189.435	80.76
189.823	80.76
190.211	-46.13
190.599	250.65
190.987	44.61
191.375	-174.58
191.763	24.93
192.151	-115.87
192.538	6.56
192.926	75.51
193.314	358.98
193.702	2210.27
194.089	68.28
194.477	67.47
194.864	-145.02
195.252	343.61
195.639	182.95
196.027	112.59
196.414	112.68
196.801	30.25
197.189	117.56
197.576	278.7
197.963	-1266.42
198.351	-1.76
198.738	-4.22
199.125	-19.14
199.512	41.56
199.899	-14.21
200.286	-24.58
200.673	13.02
201.06	94.09
201.447	-87.73
201.833	-5.59
202.22	27.76
202.607	36.45
202.994	40.66
203.38	-21.26
203.767	-37.3
204.154	-18.49
204.54	-16.11
204.927	-70.99
205.313	29.14
205.699	-28.01
206.086	-2.77
206.472	-10.63
206.858	-57.01
207.245	-2.44
207.631	25.41
208.017	17.93
208.403	20.85
208.789	-5.56
209.175	-66.74
209.561	-10.68
209.947	-23.34
210.333	-25.38
210.719	-19.74
211.105	32.49
211.491	-23.01
211.876	17.21
212.262	-39.14
212.648	17.78
213.034	6.34
213.419	-25.46
213.805	23.66
214.19	-17.8
214.576	27.28
214.961	-20.84
215.346	-12.2
215.732	20.49
216.117	-79.23
216.502	16.2
216.888	-20.34
217.273	-57.36
217.658	-14.14
218.043	-5.3
218.428	8.23
218.813	-0.57
219.198	-8.01
219.583	-7.65
219.968	12.45
220.353	-15.91
220.738	3.66
221.122	17.82
221.507	-2.6
221.892	-20.16
222.276	-27.49
222.661	2.35
223.046	-4.21
223.43	12.29
223.815	10.94
224.199	8.07
224.583	-1.03
224.968	8.27
225.352	7.56
225.736	2.75
226.121	-1.15
226.505	3.44
226.889	1.88
227.273	3.96
227.657	0.98
228.041	6.71
228.425	2.67
228.809	3.43
229.193	1.59
229.577	0.95
229.961	1.75
230.344	4.64
230.728	1.85
231.112	2.31
231.495	2.22
231.879	2.3
232.263	2.31
232.646	2.44
233.03	2.5
233.413	5.15
233.797	1.23
234.18	1.91
234.563	0.1
234.946	3.7
235.33	1.64
235.713	0.54
236.096	3.37
236.479	2.86
236.862	3.05
237.245	2.63
237.628	1.53
238.011	4.01
238.394	3.9
238.777	4.37
239.16	2.31
239.543	0.04
239.925	4.18
240.308	2.33
240.691	2.17
241.073	1.13
241.456	1.25
241.838	1.57
242.221	3.72
242.603	3.5
242.986	2.71
243.368	2.38
243.75	2.26
244.133	1.87
244.515	2.25
244.897	3
245.279	2.49
245.661	2
246.043	2.53
246.425	0.74
246.807	2.41
247.189	2.14
247.571	2.72
247.953	2.68
248.335	2.31
248.717	2.21
249.098	2.23
249.48	2.23
249.862	2.47
250.243	2.67
250.625	2.73
251.006	2.41
251.388	2.92
251.769	3.13
252.151	2.33
252.532	2.32
252.913	2.32
253.295	0.41
253.676	1.73
254.057	2.11
254.438	1.75
254.819	1.91
255.2	3.33
255.581	1.91
255.962	2.2
256.343	2.77
256.724	2.57
257.105	2.06
257.486	2.1
257.867	1.44
258.247	2.29
258.628	2.41
259.009	1.67
259.389	1.27
259.77	2.64
260.15	1.15
260.531	2.39
260.911	1.8
261.292	2.5
261.672	2.34
262.052	1.86
262.432	1.92
262.813	2.03
263.193	2.17
263.573	2.25
263.953	2.46
264.333	1.76
264.713	1.43
265.093	2.51
265.473	2.14
265.853	1.44
266.233	1.19
266.612	2.52
266.992	1.25
267.372	1.14
267.752	2.5
268.131	2.18
268.511	1.71
268.89	2.39
269.27	1.83
269.649	2.29
270.029	2.68
270.408	2.55
270.787	2.44
271.167	2.18
271.546	2.02
271.925	2.37
272.304	2.66
272.683	2.04
273.062	2
273.441	1.84
273.82	1.8
274.199	1.75
274.578	1.48
274.957	2.01
275.336	2.6
275.715	2.39
276.093	1.73
276.472	1.8
276.851	1.71
277.229	2.4
277.608	2.22
277.986	2.16
278.365	2.12
278.743	2.11
279.122	1.61
279.5	1.52
279.878	1.66
280.257	1.81
280.635	2.41
281.013	1.66
281.391	1.5
281.769	1.45
282.147	2.02
282.525	2.29
282.903	1.76
283.281	2.02
283.659	2.65
284.037	2.67
284.415	1.75
284.792	2.41
285.17	1.7
285.548	2.11
285.925	2.33
286.303	2.2
286.68	1.95
287.058	2.21
287.435	1.8
287.813	2.07
288.19	2.65
288.567	2.07
288.945	2.26
289.322	1.99
289.699	2.52
290.076	2.17
290.453	2.04
290.83	1.52
291.207	1.86
291.584	2.25
291.961	2.61
292.338	1.72
292.715	1.7
293.092	2.01
293.469	2.2
293.845	2.11
294.222	1.79
294.599	2.28
294.975	2.47
295.352	1.86
295.728	2.17
296.105	2.03
296.481	1.54
296.858	2.13
297.234	2.36
297.61	2.36
297.986	1.96
298.363	2.17
298.739	2.43
299.115	2.17
299.491	2.28
299.867	2.37
300.243	2.41
300.619	2.2
300.995	2.7
301.371	2.46
301.746	2.15
302.122	2.39
302.498	2.29
302.874	2.59
303.249	2.52
303.625	2.47
304	1.96
304.376	2.1
304.751	2.04
305.127	1.56
305.502	2.28
305.878	2.19
306.253	1.99
306.628	2.16
307.003	2.71
307.378	2.57
307.754	2.68
308.129	2.08
308.504	2.7
308.879	2.5
309.254	2.14
309.629	1.74
310.003	1.48
310.378	1.96
310.753	2.05
311.128	2.5
311.502	2.38
311.877	2.25
312.252	2.2
312.626	2.42
313.001	2.74
313.375	2.15
313.75	2.24
314.124	2.28
314.498	2.71
314.873	2.73
315.247	2.49
315.621	1.62
315.995	3.04
316.369	2.38
316.743	1.9
317.117	2.48
317.491	1.97
317.865	1.91
318.239	2.03
318.613	2.74
318.987	2.33
319.361	2.51
319.734	2.24
320.108	2.29
320.482	2.31
320.855	2
321.229	1.89
321.602	2.62
321.976	2.2
322.349	2.17
322.723	2.4
323.096	2.47
323.469	2.25
323.843	1.55
324.216	2.95
324.589	2.62
324.962	2.58
325.335	2.75
325.708	2.45
326.081	1.94
326.454	2.49
326.827	2.56
327.2	2.12
327.573	2.96
327.945	2.44
328.318	2.45
328.691	2.21
329.063	2.14
329.436	1.85
329.809	2.37
330.181	2.56
330.553	1.89
330.926	2.38
331.298	2.06
331.671	2.64
332.043	2.1
332.415	3.26
332.787	2.08
333.159	2.7
333.532	2.95
333.904	2.3
334.276	1.94
334.648	2.82
335.02	2.86
335.391	2.1
335.763	2.2
336.135	2.67
336.507	2.61
336.879	1.82
337.25	2.41
337.622	2.04
337.993	2.38
338.365	2.63
338.736	3.03
339.108	1.75
339.479	1.78
339.851	2.06
340.222	2.28
340.593	2.29
340.964	2.7
341.336	2.49
341.707	2.08
342.078	1.88
342.449	2.56
342.82	2.31
343.191	2.23
343.562	1.93
343.933	2.48
344.303	2.34
344.674	2.53
345.045	2.82
345.416	2.75
345.786	2.7
346.157	2.58
346.527	2.38
346.898	2.71
347.268	2.08
347.639	1.7
348.009	1.98
348.38	2.36
348.75	2.11
349.12	2.23
349.49	2.09
349.861	1.78
350.231	1.83
350.601	2.2
350.971	2.32
351.341	2.52
351.711	2.43
352.081	2.12
352.45	2.64
352.82	2.39
353.19	2.91
353.56	2.4
353.929	2.44
354.299	1.97
354.669	2.75
355.038	2.57
355.408	2.77
355.777	2.41
356.147	2.5
356.516	2.94
356.885	2.77
357.254	2.74
357.624	2.43
357.993	2.85
358.362	2.12
358.731	2.55
359.1	2.67
359.469	2.56
359.838	2.15
360.207	2.24
360.576	2.41
360.945	2.58
361.314	2.49
361.682	1.94
362.051	2.9
362.42	2.26
362.788	2.26
363.157	2.55
363.525	2.29
363.894	2.42
364.262	2.71
364.631	2.45
364.999	2.6
365.367	2.33
365.735	2.49
366.104	2.53
366.472	2.44
366.84	2.74
367.208	2.59
367.576	2.35
367.944	2.91
368.312	2.59
368.68	2.5
369.048	2.26
369.416	2.38
369.783	2.22
370.151	2.51
370.519	2.47
370.886	2.19
371.254	2.37
371.621	2.46
371.989	2.65
372.356	2.77
372.724	2.57
373.091	2.44
373.458	2.32
373.826	2.18
374.193	2.42
374.56	2.82
374.927	2.47
375.294	2.35
375.661	2.77
376.028	2.19
376.395	2.43
376.762	2.84
377.129	2.52
377.496	2.27
377.863	2.7
378.229	2.12
378.596	2.49
378.963	2.77
379.329	2.84
379.696	2.19
380.062	2.31
380.429	2.35
380.795	2.59
381.161	2.77
381.528	2.72
381.894	2.75
382.26	2.64
382.626	2.53
382.993	2.65
383.359	2.68
383.725	2.82
384.091	2.62
384.457	2.46
384.823	2.29
385.188	2.4
385.554	2.34
385.92	2.45
386.286	2.66
386.651	2.6
387.017	2.75
387.383	2.62
387.748	2.64
388.114	2.42
388.479	2.36
388.845	2.44
389.21	2.69
389.575	2.72
389.94	2.7
390.306	2.82
390.671	2.79
391.036	2.67
391.401	2.8
391.766	2.92
392.131	2.56
392.496	2.5
392.861	2.4
393.226	2.64
393.591	2.4
393.956	2.58
394.32	2.49
394.685	2.57
395.05	2.64
395.414	2.64
395.779	2.57
396.143	2.56
396.508	2.45
396.872	2.54
397.236	2.75
397.601	2.59
397.965	2.73
398.329	2.82
398.694	2.91
399.058	2.71
399.422	2.77
399.786	2.79
400.15	2.81
400.514	2.76
400.878	2.64
401.242	2.58
401.605	2.58
401.969	2.56
402.333	2.55
402.697	2.49
403.06	2.59
403.424	2.84
403.787	2.48
404.151	2.32
404.514	2.51
404.878	2.36
405.241	2.81
405.604	2.67
405.968	2.39
406.331	2.85
406.694	2.84
407.057	2.65
407.42	2.6
407.783	2.61
408.146	2.43
408.509	2.76
408.872	2.84
409.235	2.65
409.598	2.57
409.961	2.64
410.323	2.83
410.686	2.74
411.049	2.86
411.411	2.89
411.774	2.78
412.136	2.56
412.499	2.75
412.861	2.85
413.223	2.6
413.586	2.47
413.948	2.7
414.31	2.89
414.672	2.54
415.035	2.6
415.397	2.82
415.759	2.51
416.121	2.89
416.483	2.72
416.845	2.74
417.206	2.96
417.568	2.87
417.93	2.41
418.292	2.61
418.653	2.58
419.015	2.61
419.377	2.56
419.738	2.75
420.1	2.74
420.461	2.76
420.822	2.8
421.184	2.74
421.545	2.7
421.906	2.7
422.267	2.69
422.629	2.59
422.99	2.61
423.351	2.68
423.712	2.53
424.073	2.64
424.434	2.75
424.795	2.7
425.155	2.64
425.516	2.72
425.877	2.61
426.238	2.66
426.598	2.62
426.959	2.7
427.32	2.75
427.68	2.77
428.041	2.77
428.401	2.82
428.761	2.58
429.122	2.57
429.482	2.69
429.842	2.93
430.202	2.71
430.563	2.71
430.923	2.88
431.283	2.68
431.643	2.7
432.003	2.72
432.363	2.87
432.722	2.73
433.082	2.85
433.442	2.74
433.802	2.78
434.161	2.77
434.521	2.72
434.881	2.71
435.24	2.78
435.6	2.68
435.959	2.9
436.319	2.82
436.678	2.72
437.037	2.79
437.396	2.89
437.756	2.72
438.115	2.81
438.474	2.92
438.833	2.8
439.192	2.93
439.551	2.83
439.91	2.78
440.269	2.73
440.628	2.69
440.987	2.89
441.345	2.69
441.704	2.78
442.063	2.79
442.421	2.82
442.78	2.79
443.138	2.71
443.497	2.76
443.855	2.79
444.214	2.86
444.572	2.97
444.93	2.83
445.288	2.69
445.647	2.92
446.005	2.91
446.363	2.88
446.721	2.83
447.079	2.79
447.437	2.73
447.795	2.77
448.153	2.92
448.51	2.83
448.868	2.86
449.226	2.71
449.584	2.78
449.941	2.89
450.299	2.87
450.656	2.86
451.014	2.8
451.371	2.89
451.729	2.76
452.086	2.77
452.443	2.99
452.801	2.82
453.158	3.02
453.515	2.74
453.872	2.8
454.229	2.8
454.586	2.96
454.943	2.92
455.3	2.89
455.657	2.88
456.014	2.97
456.371	2.96
456.727	2.93
457.084	2.98
457.441	2.94
457.797	2.88
458.154	3.11
458.51	3.07
458.867	2.88
459.223	2.96
459.58	3
459.936	2.97
460.292	3.05
460.648	2.82
461.005	2.83
461.361	2.83
461.717	2.87
462.073	2.93
462.429	2.78
462.785	2.96
463.141	2.86
463.496	3.08
463.852	2.98
464.208	2.98
464.564	2.92
464.919	2.94
465.275	3.16
465.631	2.91
465.986	3.17
466.342	3.05
466.697	2.86
467.052	3
467.408	3.01
467.763	2.9
468.118	2.89
468.473	2.88
468.829	2.9
469.184	2.67
469.539	3.03
469.894	3
470.249	2.83
470.603	2.9
470.958	2.96
471.313	3.09
471.668	2.95
472.023	3.06
472.377	3
472.732	3.04
473.086	3.01
473.441	2.99
473.795	3.06
474.15	3.04
474.504	3.06
474.859	3
475.213	3.02
475.567	2.96
475.921	3.26
476.275	3.02
476.63	3.16
476.984	3
477.338	3.05
477.692	3.11
478.045	3.18
478.399	3.19
478.753	3
479.107	2.94
479.461	3.05
479.814	3.14
480.168	3.21
480.521	3.06
480.875	3.07
481.228	3.04
481.582	3.08
481.935	2.99
482.289	3.18
482.642	3.21
482.995	3.17
483.348	2.98
483.701	3.06
484.055	2.96
484.408	2.96
484.761	3.05
485.114	2.97
485.466	2.92
485.819	2.83
486.172	2.85
486.525	2.91
486.878	2.96
487.23	3.05
487.583	3.14
487.936	3.09
488.288	3.08
488.641	3.04
488.993	3.07
489.345	3.02
489.698	3.03
490.05	2.98
490.402	2.98
490.754	3.07
491.107	3.06
491.459	3.09
491.811	3.11
492.163	3.16
492.515	3.18
492.866	3.24
493.218	3.02
493.57	3.1
493.922	3
494.274	3.09
494.625	3.06
494.977	3.22
495.328	3.16
495.68	3.25
496.031	3.26
496.383	3.17
496.734	3.21
497.086	3.27
497.437	3.36
497.788	3.25
498.139	3.24
498.49	3.2
498.842	3.27
499.193	3.16
499.544	3.17
499.894	3.2
500.245	3.17
500.596	3.19
500.947	3.24
501.298	3.4
501.648	3.25
501.999	3.37
502.35	3.28
502.7	3.42
503.051	3.26
503.401	3.31
503.752	3.18
504.102	3.37
504.452	3.39
504.803	3.42
505.153	3.25
505.503	3.32
505.853	3.26
506.203	3.36
506.553	3.37
506.903	3.44
507.253	3.48
507.603	3.4
507.953	3.43
508.303	3.46
508.652	3.42
509.002	3.52
509.352	3.4
509.701	3.43
510.051	3.42
510.4	3.34
510.75	3.4
511.099	3.5
511.449	3.48
511.798	3.43
512.147	3.45
512.496	3.52
512.846	3.43
513.195	3.48
513.544	3.52
513.893	3.54
514.242	3.6
514.591	3.61
514.939	3.38
515.288	3.45
515.637	3.59
515.986	3.44
516.334	3.63
516.683	3.62
517.032	3.5
517.38	3.47
517.729	3.61
518.077	3.58
518.426	3.57
518.774	3.63
519.122	3.63
519.47	3.55
519.819	3.54
520.167	3.5
520.515	3.52
520.863	3.5
521.211	3.43
521.559	3.54
521.907	3.56
522.255	3.54
522.602	3.6
522.95	3.78
523.298	3.65
523.645	3.67
523.993	3.58
524.341	3.73
524.688	3.78
525.036	3.71
525.383	3.69
525.73	3.63
526.078	3.78
526.425	3.73
526.772	3.75
527.119	3.76
527.466	3.64
527.814	3.66
528.161	3.55
528.508	3.55
528.854	3.62
529.201	3.72
529.548	3.74
529.895	3.68
530.242	3.63
530.588	3.58
530.935	3.54
531.282	3.58
531.628	3.66
531.975	3.74
532.321	3.78
532.667	3.8
533.014	3.9
533.36	3.87
533.706	3.81
534.052	3.83
534.399	3.91
534.745	3.89
535.091	3.79
535.437	3.83
535.783	3.86
536.129	3.84
536.474	3.92
536.82	3.91
537.166	3.98
537.512	3.99
537.857	4.03
538.203	3.95
538.549	3.92
538.894	3.95
539.239	3.89
539.585	3.98
539.93	4.04
540.276	3.93
540.621	4.13
540.966	4.11
541.311	4.14
541.656	4.1
542.001	4.15
542.346	4.14
542.691	4.06
543.036	4.02
543.381	3.98
543.726	4.02
544.071	4.05
544.415	4.12
544.76	4.12
545.105	4.22
545.449	4.12
545.794	4.22
546.138	4.24
546.483	4.23
546.827	4.38
547.171	4.33
547.516	4.24
547.86	4.29
548.204	4.37
548.548	4.34
548.892	4.26
549.236	4.21
549.58	4.25
549.924	4.35
550.268	4.51
550.612	4.45
550.956	4.58
551.3	4.48
551.643	4.62
551.987	4.39
552.33	4.64
552.674	4.55
553.017	4.52
553.361	4.65
553.704	4.59
554.048	4.7
554.391	4.64
554.734	4.66
555.077	4.78
555.42	4.71
555.764	4.74
556.107	4.61
556.45	4.64
556.793	4.73
557.135	4.84
557.478	4.71
557.821	4.68
558.164	4.96
558.507	4.81
558.849	5.01
559.192	4.68
559.534	4.69
559.877	4.86
560.219	4.91
560.562	5
560.904	5.17
561.246	4.88
561.589	4.9
561.931	5.02
562.273	4.79
562.615	5.07
562.957	5.26
563.299	5.15
563.641	4.83
563.983	5.06
564.325	5.11
564.667	5
565.008	5.04
565.35	5.22
565.692	5.28
566.033	5.19
566.375	5.13
566.716	5.16
567.058	5.03
567.399	5
567.741	5.26
568.082	5.07
568.423	5.3
568.764	5.25
569.105	5.45
569.447	5.38
569.788	5.47
570.129	5.4
570.47	5.37
570.811	5.38
571.151	5.26
571.492	5.46
571.833	5.43
572.174	5.67
572.514	5.52
572.855	5.5
573.195	5.59
573.536	5.44
573.876	5.47
574.217	5.62
574.557	5.68
574.898	5.64
575.238	5.56
575.578	5.51
575.918	5.55
576.258	5.82
576.598	5.87
576.938	5.58
577.278	5.79
577.618	5.71
577.958	5.77
578.298	5.89
578.638	5.82
578.977	6.08
579.317	5.81
579.657	5.92
579.996	5.91
580.336	5.83
580.675	5.94
581.014	6.2
581.354	5.98
581.693	6.21
582.032	6.25
582.372	6.16
582.711	6.32
583.05	5.99
583.389	6.18
583.728	6.38
584.067	6.36
584.406	5.99
584.745	6.31
585.083	6.42
585.422	6.29
585.761	6.43
586.1	6.46
586.438	6.35
586.777	6.38
587.115	6.56
587.454	6.79
587.792	6.53
588.13	6.6
588.469	6.58
588.807	6.54
589.145	6.47
589.483	6.66
589.821	6.55
590.159	6.51
590.497	6.66
590.835	6.95
591.173	6.58
591.511	6.6
591.849	6.76
592.187	6.84
592.524	6.71
592.862	6.69
593.2	6.92
593.537	6.97
593.875	7.19
594.212	7.17
594.55	7.05
594.887	6.87
595.224	7.19
595.561	6.94
595.899	7.09
596.236	7.42
596.573	7.29
596.91	7.01
597.247	7.21
597.584	7.41
597.921	7.38
598.258	6.96
598.594	7.31
598.931	7.12
599.268	7.4
599.604	7.25
599.941	7.47
600.277	7.49
600.614	7.56
600.95	7.53
601.287	7.81
601.623	7.73
601.959	7.68
602.296	7.59
602.632	7.54
602.968	7.57
603.304	7.74
603.64	7.38
603.976	7.75
604.312	7.7
604.648	7.47
604.984	7.8
605.319	7.72
605.655	7.74
605.991	7.88
606.326	7.74
606.662	7.91
606.998	7.88
607.333	7.79
607.668	7.98
608.004	8.02
608.339	8.18
608.674	7.98
609.01	8.27
609.345	8.3
609.68	7.94
610.015	8.38
610.35	8.35
610.685	8.24
611.02	8.18
611.355	8.44
611.689	8.17
612.024	8.17
612.359	8.31
612.694	8.49
613.028	8.42
613.363	8.38
613.697	8.36
614.032	8.62
614.366	8.44
614.7	8.8
615.035	8.45
615.369	8.44
615.703	8.82
616.037	8.71
616.371	8.61
616.705	8.82
617.039	8.9
617.373	8.84
617.707	8.71
618.041	9.06
618.375	8.75
618.709	8.97
619.042	8.94
619.376	8.97
619.71	8.86
620.043	9.35
620.377	9.26
620.71	9.38
621.043	9.37
621.377	9.55
621.71	9.33
622.043	8.84
622.376	9.29
622.709	9.11
623.043	9.29
623.376	9.53
623.709	9.45
624.041	9.53
624.374	9.28
624.707	9.01
625.04	9.35
625.373	9.39
625.705	9.67
626.038	9.45
626.37	9.63
626.703	10.1
627.035	9.69
627.368	10.12
627.7	9.74
628.032	9.57
628.365	9.41
628.697	9.83
629.029	9.85
629.361	9.9
629.693	9.87
630.025	9.7
630.357	9.7
630.689	10.26
631.021	10.17
631.353	10.18
631.684	10.16
632.016	9.99
632.348	10.16
632.679	9.96
633.011	10.23
633.342	10.26
633.674	10.32
634.005	10.13
634.336	10.11
634.668	10.49
634.999	10.17
635.33	10.42
635.661	10.9
635.992	10.42
636.323	10.64
636.654	10.2
636.985	10.57
637.316	10.75
637.647	10.91
637.977	10.76
638.308	10.89
638.639	10.64
638.969	11.13
639.3	10.8
639.63	10.58
639.961	11.19
640.291	10.72
640.622	11.01
640.952	10.84
641.282	10.98
641.612	10.53
641.943	11.16
642.273	11.56
642.603	10.76
642.933	10.86
643.263	11.4
643.592	10.63
643.922	11.3
644.252	11.21
644.582	11.24
644.911	11.45
645.241	11.33
645.571	11.59
645.9	11.37
646.23	11.42
646.559	11.58
646.888	11.74
647.218	11.87
647.547	11.22
647.876	11.6
648.205	12.1
648.534	11.74
648.863	11.62
649.192	11.82
649.521	12.4
649.85	11.78
650.179	12.08
650.508	12.22
650.837	11.92
651.165	11.84
651.494	12.43
651.822	12.14
652.151	12.52
652.479	12.31
652.808	11.88
653.136	12.05
653.465	12.58
653.793	12.47
654.121	12.46
654.449	13.15
654.777	12.33
655.105	12.43
655.433	12.56
655.761	12.32
656.089	12.94
656.417	11.87
656.745	12.54
657.073	11.98
657.4	12.66
657.728	13.03
658.056	12.84
658.383	12.66
658.711	13.09
659.038	12.68
659.365	12.59
659.693	13.02
660.02	12.76
660.347	13.51
660.674	13.08
661.001	13.48
661.329	13.06
661.656	13.15
661.982	13.12
662.309	13.22
662.636	13.12
662.963	13.52
663.29	13.36
663.616	13.07
663.943	13.41
664.27	13.15
664.596	13.57
664.923	13.41
665.249	13.98
665.576	13.49
665.902	13.38
666.228	13.52
666.554	13.47
666.881	13.91
667.207	13.6
667.533	13.68
667.859	13.41
668.185	13.82
668.511	13.8
668.837	13.71
669.162	13.98
669.488	13.57
669.814	14.01
670.139	14.55
670.465	14.32
670.791	14.09
671.116	13.91
671.442	14.35
671.767	13.29
672.092	13.96
672.418	14.07
672.743	14.45
673.068	14.04
673.393	14.16
673.718	14.14
674.043	13.99
674.368	14.39
674.693	14.54
675.018	15.3
675.343	14.73
675.667	14.74
675.992	14.58
676.317	14.32
676.641	14.77
676.966	14.81
677.29	14.4
677.615	15.33
677.939	15.11
678.264	14.83
678.588	15.05
678.912	14.79
679.236	14.55
679.56	14.76
679.885	15.52
680.209	14.11
680.532	14.82
680.856	15.06
681.18	15.2
681.504	14.31
681.828	15.32
682.152	15.15
682.475	15.65
682.799	15.35
683.122	15.19
683.446	14.82
683.769	16.16
684.093	15.7
684.416	15.97
684.739	14.93
685.062	15.49
685.386	15.15
685.709	15.42
686.032	14.96
686.355	15.61
686.678	15.94
687.001	15.34
687.324	16
687.646	15.77
687.969	16.31
688.292	16.1
