Data from 0140_crown_Reflection__3__181.txt Node

Date: Mon Aug 28 20:13:54 CDT 2023
User: ToomeyLab
Spectrometer: FLMS14357
Trigger mode: 0
Integration Time (sec): 1.000000E-2
Scans to average: 100
Electric dark correction enabled: true
Nonlinearity correction enabled: false
Boxcar width: 0
XAxis mode: Wavelengths
Number of Pixels in Spectrum: 2048
>>>>>Begin Spectral Data<<<<<
189.047	16.74
189.435	16.74
189.823	16.74
190.211	215.65
190.599	-158.22
190.987	71.23
191.375	255.35
191.763	181.06
192.151	76.25
192.538	-9.64
192.926	-27.06
193.314	560.36
193.702	-265.41
194.089	87.55
194.477	-44.43
194.864	409.1
195.252	-570.45
195.639	-131.58
196.027	89.3
196.414	111.15
196.801	72.54
197.189	27.78
197.576	225.96
197.963	365.69
198.351	24.4
198.738	-1.26
199.125	2.32
199.512	21.14
199.899	33.31
200.286	9.73
200.673	47.64
201.06	17.82
201.447	-38.17
201.833	-43.76
202.22	29.49
202.607	-7.88
202.994	-1.49
203.38	-33.47
203.767	-4.9
204.154	-26.57
204.54	-22.83
204.927	24.92
205.313	20.97
205.699	-20.48
206.086	36.11
206.472	-20.99
206.858	-44.48
207.245	24.4
207.631	14.02
208.017	16.2
208.403	50.76
208.789	9.62
209.175	22.8
209.561	-1.74
209.947	8.02
210.333	6.96
210.719	19.82
211.105	21.87
211.491	-29.78
211.876	6.93
212.262	13
212.648	-4.45
213.034	7.74
213.419	14.02
213.805	1.7
214.19	2.48
214.576	18.01
214.961	-4.94
215.346	-8.27
215.732	27.67
216.117	-3.1
216.502	-25.5
216.888	-39.04
217.273	3.29
217.658	1.86
218.043	-0.08
218.428	-5.05
218.813	-23.21
219.198	23.86
219.583	23.06
219.968	56.84
220.353	3.34
220.738	10.66
221.122	-3.08
221.507	6.12
221.892	-4.69
222.276	12.27
222.661	1.83
223.046	9.99
223.43	2.55
223.815	24.54
224.199	19.87
224.583	4.59
224.968	6.07
225.352	20.42
225.736	13.15
226.121	9.2
226.505	16.11
226.889	17.41
227.273	13.16
227.657	12.03
228.041	17.63
228.425	11.02
228.809	11.82
229.193	14.58
229.577	13.78
229.961	11.64
230.344	13.23
230.728	12.17
231.112	12.98
231.495	12.78
231.879	11.02
232.263	13.24
232.646	14.26
233.03	12.39
233.413	13.15
233.797	11.8
234.18	12.24
234.563	8.38
234.946	13.79
235.33	12.65
235.713	9
236.096	12.06
236.479	11.42
236.862	11.52
237.245	11.66
237.628	11.49
238.011	13.92
238.394	12.84
238.777	12.15
239.16	9.42
239.543	9.99
239.925	11.32
240.308	10.11
240.691	11.16
241.073	8.63
241.456	10.3
241.838	10.43
242.221	12.82
242.603	12.14
242.986	12.42
243.368	12.06
243.75	11.13
244.133	11.26
244.515	11.45
244.897	11.49
245.279	10.95
245.661	11.06
246.043	11.45
246.425	10.84
246.807	11.29
247.189	10.11
247.571	10.69
247.953	10.67
248.335	10.28
248.717	10.51
249.098	10.26
249.48	10.67
249.862	10.55
250.243	10.52
250.625	10.85
251.006	10.2
251.388	10.42
251.769	10.97
252.151	10.4
252.532	9.58
252.913	11.4
253.295	9.42
253.676	9.77
254.057	10.6
254.438	9.4
254.819	9.62
255.2	9.99
255.581	9.81
255.962	9.8
256.343	10.2
256.724	9.27
257.105	9.87
257.486	10.06
257.867	7.7
258.247	9.61
258.628	10.29
259.009	9.15
259.389	9.28
259.77	10.4
260.15	8.74
260.531	9.55
260.911	9.47
261.292	9.47
261.672	9.41
262.052	8.97
262.432	9.17
262.813	9.45
263.193	9.31
263.573	8.27
263.953	9.53
264.333	9.3
264.713	8.88
265.093	9.32
265.473	8.67
265.853	9.03
266.233	8.52
266.612	9.83
266.992	9.46
267.372	7.75
267.752	9.46
268.131	9.25
268.511	9.14
268.89	8.74
269.27	8.62
269.649	9.07
270.029	9.29
270.408	8.98
270.787	9.19
271.167	8.48
271.546	8.02
271.925	8.78
272.304	9.04
272.683	9.01
273.062	8.81
273.441	9.1
273.82	8.73
274.199	8.16
274.578	8.38
274.957	8.36
275.336	8.94
275.715	8.77
276.093	7.77
276.472	8.26
276.851	7.88
277.229	9.16
277.608	9.11
277.986	8.14
278.365	8.65
278.743	8.32
279.122	8.8
279.5	8.01
279.878	7.4
280.257	8.25
280.635	7.89
281.013	8.33
281.391	7.8
281.769	8.01
282.147	8.18
282.525	8.59
282.903	8.25
283.281	8.03
283.659	8.82
284.037	9
284.415	8.09
284.792	8.77
285.17	7.8
285.548	8.16
285.925	8.38
286.303	8.38
286.68	8.29
287.058	8.02
287.435	7.69
287.813	7.99
288.19	8.22
288.567	8.31
288.945	7.83
289.322	8.15
289.699	8.1
290.076	7.78
290.453	7.7
290.83	7.32
291.207	7.94
291.584	7.98
291.961	8.54
292.338	7.75
292.715	7.44
293.092	7.98
293.469	7.56
293.845	7.37
294.222	7.03
294.599	7.37
294.975	7.55
295.352	7.29
295.728	8.26
296.105	7.5
296.481	7.74
296.858	7.97
297.234	7.7
297.61	7.41
297.986	7.31
298.363	7.53
298.739	7.65
299.115	7.16
299.491	7.82
299.867	7.5
300.243	7.55
300.619	7.16
300.995	7.82
301.371	7.36
301.746	7.19
302.122	7.12
302.498	7.38
302.874	7.72
303.249	7.58
303.625	7.57
304	7.06
304.376	7.34
304.751	7.26
305.127	7.43
305.502	6.88
305.878	7.3
306.253	7.56
306.628	7.69
307.003	7.47
307.378	7.15
307.754	7.2
308.129	7.29
308.504	7.67
308.879	7.36
309.254	7.48
309.629	6.89
310.003	7.33
310.378	6.87
310.753	7.59
311.128	7.61
311.502	7.23
311.877	7.22
312.252	7.37
312.626	7.36
313.001	7.18
313.375	7.37
313.75	7.36
314.124	7.39
314.498	7.14
314.873	7.17
315.247	7.04
315.621	6.91
315.995	7.12
316.369	7.03
316.743	7.13
317.117	7.03
317.491	6.9
317.865	6.15
318.239	6.58
318.613	7.2
318.987	7.64
319.361	7.14
319.734	6.68
320.108	7.31
320.482	7.27
320.855	7.01
321.229	7.09
321.602	7.11
321.976	6.41
322.349	7.33
322.723	6.52
323.096	6.87
323.469	7.02
323.843	6.52
324.216	7.14
324.589	7.17
324.962	7.39
325.335	7.51
325.708	6.84
326.081	7.3
326.454	6.88
326.827	6.96
327.2	6.62
327.573	6.91
327.945	7.42
328.318	7.81
328.691	6.92
329.063	6.55
329.436	7.06
329.809	6.98
330.181	6.42
330.553	6.52
330.926	7.07
331.298	6.78
331.671	7.11
332.043	7.11
332.415	7.43
332.787	6.88
333.159	7.11
333.532	7.42
333.904	7.39
334.276	6.55
334.648	6.98
335.02	7.36
335.391	7.23
335.763	6.94
336.135	7.44
336.507	7.07
336.879	6.77
337.25	7.79
337.622	6.95
337.993	7.72
338.365	7.18
338.736	7.45
339.108	6.26
339.479	6.56
339.851	7.23
340.222	6.96
340.593	6.89
340.964	6.89
341.336	6.9
341.707	6.67
342.078	6.78
342.449	6.82
342.82	6.95
343.191	7.05
343.562	7.04
343.933	6.74
344.303	6.82
344.674	7.44
345.045	7.49
345.416	7.03
345.786	7.61
346.157	7.23
346.527	6.65
346.898	7.42
347.268	7.21
347.639	7.01
348.009	7.22
348.38	7.46
348.75	7.23
349.12	7.33
349.49	7.06
349.861	6.97
350.231	7.1
350.601	7.77
350.971	8.13
351.341	7.3
351.711	6.91
352.081	7.28
352.45	7.76
352.82	7.46
353.19	8.04
353.56	7.27
353.929	7.63
354.299	7.07
354.669	7.74
355.038	7.53
355.408	7.14
355.777	7.33
356.147	7.34
356.516	7.44
356.885	7.51
357.254	7.34
357.624	7.51
357.993	7.67
358.362	7.41
358.731	7.68
359.1	7.89
359.469	7.9
359.838	7.27
360.207	7.52
360.576	7.67
360.945	7.78
361.314	7.58
361.682	7.49
362.051	7.65
362.42	7.75
362.788	7.88
363.157	7.59
363.525	7.38
363.894	7.67
364.262	7.66
364.631	7.44
364.999	7.76
365.367	7.65
365.735	7.66
366.104	7.61
366.472	7.7
366.84	7.52
367.208	7.49
367.576	7.42
367.944	7.92
368.312	7.99
368.68	7.64
369.048	7.69
369.416	7.95
369.783	7.45
370.151	7.7
370.519	7.83
370.886	8.06
371.254	7.71
371.621	7.56
371.989	7.33
372.356	7.75
372.724	7.85
373.091	7.78
373.458	7.78
373.826	7.89
374.193	7.83
374.56	8.09
374.927	7.57
375.294	7.81
375.661	8.11
376.028	7.54
376.395	7.57
376.762	7.94
377.129	7.66
377.496	7.74
377.863	8.38
378.229	7.5
378.596	8.13
378.963	8.21
379.329	8.27
379.696	8.09
380.062	7.96
380.429	7.63
380.795	8.09
381.161	8.12
381.528	8.3
381.894	8.15
382.26	7.97
382.626	8.25
382.993	7.83
383.359	7.99
383.725	8.09
384.091	8.06
384.457	8.14
384.823	8.21
385.188	7.92
385.554	7.91
385.92	7.99
386.286	8.39
386.651	7.97
387.017	8.16
387.383	8.17
387.748	8.39
388.114	7.93
388.479	7.8
388.845	8.29
389.21	8.01
389.575	8.52
389.94	8.26
390.306	8.32
390.671	8.14
391.036	8.21
391.401	8.28
391.766	8.42
392.131	8.37
392.496	8.11
392.861	8.18
393.226	8.31
393.591	8.01
393.956	8.47
394.32	8.34
394.685	8.25
395.05	8.45
395.414	8.18
395.779	8.31
396.143	8.26
396.508	7.98
396.872	8.28
397.236	8.29
397.601	8.34
397.965	8.08
398.329	8.29
398.694	8.41
399.058	8.19
399.422	8.3
399.786	8.25
400.15	8.44
400.514	8.38
400.878	8
401.242	8.24
401.605	8.32
401.969	8.46
402.333	8.18
402.697	8.48
403.06	8.67
403.424	8.57
403.787	8.3
404.151	8.25
404.514	8.4
404.878	8.55
405.241	8.62
405.604	8.53
405.968	8.14
406.331	8.63
406.694	8.33
407.057	8.61
407.42	8.32
407.783	8.37
408.146	8.25
408.509	8.61
408.872	8.23
409.235	8.62
409.598	8.48
409.961	8.28
410.323	8.79
410.686	8.74
411.049	8.52
411.411	8.61
411.774	8.54
412.136	8.44
412.499	8.48
412.861	8.49
413.223	8.46
413.586	8.37
413.948	8.45
414.31	8.49
414.672	8.5
415.035	8.29
415.397	8.58
415.759	8.62
416.121	8.66
416.483	8.61
416.845	8.72
417.206	8.8
417.568	8.52
417.93	8.53
418.292	8.82
418.653	8.56
419.015	8.69
419.377	8.44
419.738	8.61
420.1	8.58
420.461	8.64
420.822	8.66
421.184	8.73
421.545	8.64
421.906	8.45
422.267	8.64
422.629	8.52
422.99	8.52
423.351	8.53
423.712	8.48
424.073	8.45
424.434	8.47
424.795	8.55
425.155	8.58
425.516	8.51
425.877	8.49
426.238	8.37
426.598	8.5
426.959	8.58
427.32	8.46
427.68	8.66
428.041	8.39
428.401	8.53
428.761	8.4
429.122	8.54
429.482	8.61
429.842	8.79
430.202	8.49
430.563	8.56
430.923	8.78
431.283	8.48
431.643	8.57
432.003	8.49
432.363	8.73
432.722	8.7
433.082	8.57
433.442	8.55
433.802	8.75
434.161	8.81
434.521	8.54
434.881	8.5
435.24	8.77
435.6	8.76
435.959	8.79
436.319	8.62
436.678	8.63
437.037	8.56
437.396	8.57
437.756	8.46
438.115	8.78
438.474	8.83
438.833	8.78
439.192	8.72
439.551	8.72
439.91	8.83
440.269	8.68
440.628	8.64
440.987	8.7
441.345	8.6
441.704	8.74
442.063	8.63
442.421	8.59
442.78	8.75
443.138	8.61
443.497	8.67
443.855	8.63
444.214	8.68
444.572	8.66
444.93	8.73
445.288	8.49
445.647	8.82
446.005	8.81
446.363	8.79
446.721	8.78
447.079	8.62
447.437	8.58
447.795	8.6
448.153	8.71
448.51	8.63
448.868	8.64
449.226	8.57
449.584	8.55
449.941	8.67
450.299	8.56
450.656	8.67
451.014	8.71
451.371	8.64
451.729	8.38
452.086	8.62
452.443	8.9
452.801	8.71
453.158	8.63
453.515	8.84
453.872	8.78
454.229	8.87
454.586	8.84
454.943	8.71
455.3	8.86
455.657	8.78
456.014	8.71
456.371	8.81
456.727	8.77
457.084	8.64
457.441	8.88
457.797	8.62
458.154	8.75
458.51	8.79
458.867	8.9
459.223	8.92
459.58	8.69
459.936	8.95
460.292	8.79
460.648	8.83
461.005	8.81
461.361	8.79
461.717	8.74
462.073	8.73
462.429	8.71
462.785	8.75
463.141	8.79
463.496	8.73
463.852	8.82
464.208	8.81
464.564	8.69
464.919	8.8
465.275	8.76
465.631	8.53
465.986	8.9
466.342	8.95
466.697	8.64
467.052	8.85
467.408	8.77
467.763	8.77
468.118	8.75
468.473	8.76
468.829	8.78
469.184	8.58
469.539	8.87
469.894	8.79
470.249	8.65
470.603	8.8
470.958	8.79
471.313	8.75
471.668	8.59
472.023	8.75
472.377	9.01
472.732	8.87
473.086	8.74
473.441	8.81
473.795	8.71
474.15	8.82
474.504	8.82
474.859	8.87
475.213	8.93
475.567	8.79
475.921	9.05
476.275	8.67
476.63	8.93
476.984	8.76
477.338	8.87
477.692	8.93
478.045	8.88
478.399	8.76
478.753	8.75
479.107	8.65
479.461	8.9
479.814	8.84
480.168	8.74
480.521	8.8
480.875	8.8
481.228	8.64
481.582	8.71
481.935	8.73
482.289	8.79
482.642	8.84
482.995	8.77
483.348	8.75
483.701	8.85
484.055	8.72
484.408	8.64
484.761	8.62
485.114	8.55
485.466	8.47
485.819	8.46
486.172	8.41
486.525	8.39
486.878	8.36
487.23	8.31
487.583	8.32
487.936	8.43
488.288	8.5
488.641	8.55
488.993	8.54
489.345	8.52
489.698	8.55
490.05	8.46
490.402	8.47
490.754	8.47
491.107	8.43
491.459	8.39
491.811	8.48
492.163	8.57
492.515	8.72
492.866	8.68
493.218	8.61
493.57	8.6
493.922	8.43
494.274	8.51
494.625	8.49
494.977	8.55
495.328	8.59
495.68	8.56
496.031	8.56
496.383	8.5
496.734	8.6
497.086	8.83
497.437	8.84
497.788	8.75
498.139	8.85
498.49	8.57
498.842	8.7
499.193	8.62
499.544	8.7
499.894	8.61
500.245	8.64
500.596	8.74
500.947	8.64
501.298	8.91
501.648	8.57
501.999	8.74
502.35	8.54
502.7	8.6
503.051	8.64
503.401	8.75
503.752	8.74
504.102	8.67
504.452	8.69
504.803	8.8
505.153	8.78
505.503	8.73
505.853	8.61
506.203	8.65
506.553	8.66
506.903	8.72
507.253	8.68
507.603	8.56
507.953	8.79
508.303	8.83
508.652	8.72
509.002	8.76
509.352	8.67
509.701	8.59
510.051	8.66
510.4	8.63
510.75	8.63
511.099	8.62
511.449	8.55
511.798	8.55
512.147	8.56
512.496	8.63
512.846	8.61
513.195	8.61
513.544	8.65
513.893	8.51
514.242	8.62
514.591	8.63
514.939	8.53
515.288	8.59
515.637	8.57
515.986	8.48
516.334	8.61
516.683	8.67
517.032	8.61
517.38	8.59
517.729	8.55
518.077	8.57
518.426	8.47
518.774	8.64
519.122	8.66
519.47	8.54
519.819	8.54
520.167	8.54
520.515	8.59
520.863	8.38
521.211	8.4
521.559	8.5
521.907	8.46
522.255	8.24
522.602	8.43
522.95	8.57
523.298	8.57
523.645	8.54
523.993	8.41
524.341	8.51
524.688	8.49
525.036	8.55
525.383	8.63
525.73	8.47
526.078	8.57
526.425	8.58
526.772	8.56
527.119	8.42
527.466	8.39
527.814	8.4
528.161	8.27
528.508	8.24
528.854	8.31
529.201	8.31
529.548	8.31
529.895	8.33
530.242	8.24
530.588	8.18
530.935	8.13
531.282	8.17
531.628	8.08
531.975	8.04
532.321	8.12
532.667	8.1
533.014	8.23
533.36	8.22
533.706	8.3
534.052	8.3
534.399	8.32
534.745	8.25
535.091	8.25
535.437	8.21
535.783	8.2
536.129	8.18
536.474	8.09
536.82	8.19
537.166	8.25
537.512	8.14
537.857	8.35
538.203	8.3
538.549	8.25
538.894	8.27
539.239	8.16
539.585	8.17
539.93	8.27
540.276	8.22
540.621	8.29
540.966	8.25
541.311	8.42
541.656	8.21
542.001	8.25
542.346	8.37
542.691	8.15
543.036	8.18
543.381	8.17
543.726	8.1
544.071	8.13
544.415	8.06
544.76	7.97
545.105	8.05
545.449	7.98
545.794	8.13
546.138	8.08
546.483	8.12
546.827	8.13
547.171	8.15
547.516	8.16
547.86	8.22
548.204	8.23
548.548	8.15
548.892	8.1
549.236	8.09
549.58	8.09
549.924	8.07
550.268	8.16
550.612	8.18
550.956	8.1
551.3	8.29
551.643	8.17
551.987	8.16
552.33	8.3
552.674	8.15
553.017	8.1
553.361	8.18
553.704	8.12
554.048	8.23
554.391	8.14
554.734	8.11
555.077	8.21
555.42	7.99
555.764	8.05
556.107	7.97
556.45	8.11
556.793	7.98
557.135	8.17
557.478	8.18
557.821	8.09
558.164	8.28
558.507	8.01
558.849	8.26
559.192	8.04
559.534	7.94
559.877	8.14
560.219	8.21
560.562	8.03
560.904	8.25
561.246	7.99
561.589	7.96
561.931	8.08
562.273	7.81
562.615	7.77
562.957	8.24
563.299	8.06
563.641	7.86
563.983	7.93
564.325	7.97
564.667	7.77
565.008	8
565.35	8.23
565.692	7.93
566.033	7.94
566.375	7.97
566.716	7.93
567.058	7.93
567.399	7.83
567.741	7.98
568.082	7.91
568.423	7.9
568.764	7.73
569.105	7.98
569.447	7.95
569.788	7.77
570.129	7.76
570.47	7.9
570.811	7.83
571.151	7.73
571.492	7.73
571.833	7.68
572.174	7.97
572.514	7.91
572.855	7.77
573.195	7.85
573.536	7.89
573.876	7.83
574.217	8.02
574.557	7.85
574.898	7.99
575.238	7.79
575.578	7.73
575.918	7.85
576.258	7.83
576.598	7.75
576.938	7.77
577.278	7.72
577.618	7.78
577.958	7.79
578.298	7.83
578.638	7.52
578.977	7.76
579.317	7.64
579.657	7.63
579.996	7.78
580.336	7.61
580.675	7.79
581.014	7.83
581.354	7.75
581.693	7.71
582.032	7.93
582.372	7.66
582.711	7.86
583.05	7.58
583.389	7.88
583.728	7.83
584.067	7.87
584.406	7.59
584.745	7.69
585.083	7.56
585.422	7.73
585.761	7.85
586.1	8.01
586.438	7.52
586.777	7.55
587.115	7.87
587.454	7.71
587.792	7.68
588.13	7.54
588.469	7.62
588.807	7.64
589.145	7.51
589.483	7.52
589.821	7.58
590.159	7.66
590.497	7.62
590.835	7.75
591.173	7.53
591.511	7.39
591.849	7.59
592.187	7.57
592.524	7.76
592.862	7.69
593.2	7.51
593.537	7.53
593.875	7.72
594.212	7.71
594.55	7.7
594.887	7.51
595.224	7.42
595.561	7.47
595.899	7.56
596.236	7.52
596.573	7.78
596.91	7.62
597.247	7.57
597.584	7.49
597.921	7.51
598.258	7.54
598.594	7.6
598.931	7.5
599.268	7.53
599.604	7.58
599.941	7.76
600.277	7.31
600.614	7.7
600.95	7.54
601.287	7.61
601.623	7.6
601.959	7.68
602.296	7.5
602.632	7.47
602.968	7.56
603.304	7.68
603.64	7.48
603.976	7.56
604.312	7.33
604.648	7.51
604.984	7.53
605.319	7.48
605.655	7.46
605.991	7.61
606.326	7.44
606.662	7.54
606.998	7.46
607.333	7.34
607.668	7.31
608.004	7.37
608.339	7.33
608.674	7.19
609.01	7.4
609.345	7.27
609.68	7.37
610.015	7.57
610.35	7.64
610.685	7.44
611.02	7.61
611.355	7.57
611.689	7.36
612.024	7.46
612.359	7.25
612.694	7.45
613.028	7.28
613.363	7.04
613.697	7.27
614.032	7.17
614.366	7.27
614.7	7.31
615.035	7.23
615.369	7.3
615.703	7.77
616.037	7.19
616.371	7.16
616.705	7.37
617.039	7.4
617.373	7.31
617.707	7.38
618.041	7.54
618.375	7.42
618.709	7.26
619.042	7.03
619.376	7.2
619.71	7.19
620.043	7.25
620.377	7.62
620.71	7.56
621.043	7.36
621.377	7.52
621.71	7.48
622.043	6.73
622.376	7.33
622.709	7.19
623.043	7.4
623.376	7.33
623.709	7.56
624.041	7.3
624.374	7.56
624.707	6.69
625.04	6.9
625.373	7
625.705	7.58
626.038	7.02
626.37	7.28
626.703	7.17
627.035	7.31
627.368	7.5
627.7	7.45
628.032	7.16
628.365	6.95
628.697	7.38
629.029	7.36
629.361	7.35
629.693	7.46
630.025	7.33
630.357	7.15
630.689	7.29
631.021	7.24
631.353	7.16
631.684	7.22
632.016	7.37
632.348	7.11
632.679	7.03
633.011	7.31
633.342	6.97
633.674	7.06
634.005	6.91
634.336	7.15
634.668	7.08
634.999	7.44
635.33	7.52
635.661	7.13
635.992	7.31
636.323	7.22
636.654	7.15
636.985	7.24
637.316	7.24
637.647	7.21
637.977	7.17
638.308	7.5
638.639	7.1
638.969	7.56
639.3	7
639.63	6.79
639.961	7.05
640.291	7.44
640.622	7.48
640.952	6.79
641.282	7.12
641.612	6.86
641.943	7.16
642.273	7.89
642.603	7.12
642.933	6.76
643.263	7.41
643.592	6.97
643.922	7.38
644.252	7.06
644.582	6.85
644.911	7.37
645.241	7.57
645.571	7.34
645.9	6.84
646.23	6.96
646.559	7.17
646.888	7.39
647.218	7.02
647.547	6.93
647.876	7.35
648.205	7.14
648.534	7.18
648.863	6.5
649.192	6.97
649.521	6.86
649.85	7.36
650.179	7.15
650.508	7.1
650.837	6.97
651.165	6.82
651.494	6.95
651.822	6.46
652.151	6.81
652.479	7.6
652.808	6.77
653.136	7.07
653.465	7.08
653.793	7.25
654.121	7.72
654.449	7.45
654.777	7.42
655.105	7.05
655.433	7.38
655.761	7.02
656.089	6.96
656.417	6.65
656.745	7.41
657.073	6.99
657.4	7.3
657.728	7.49
658.056	7.09
658.383	7
658.711	7.39
659.038	7.27
659.365	7.18
659.693	7.08
660.02	6.99
660.347	7.08
660.674	7.57
661.001	7.24
661.329	6.89
661.656	7.02
661.982	6.98
662.309	7.44
662.636	6.86
662.963	7.54
663.29	6.88
663.616	7.21
663.943	7.29
664.27	7.58
664.596	6.98
664.923	7.37
665.249	7.25
665.576	7.42
665.902	7.13
666.228	7.34
666.554	7.53
666.881	7.32
667.207	7.56
667.533	7.07
667.859	6.23
668.185	7.05
668.511	7.5
668.837	6.63
669.162	7.29
669.488	6.83
669.814	7.53
670.139	7.14
670.465	7.31
670.791	7.19
671.116	7.52
671.442	7.01
671.767	6.85
672.092	7.37
672.418	6.66
672.743	7.66
673.068	7.26
673.393	7.36
673.718	6.59
674.043	6.83
674.368	6.89
674.693	7.21
675.018	8.07
675.343	7.31
675.667	7.11
675.992	7.38
676.317	6.82
676.641	7.11
676.966	7.17
677.29	6.98
677.615	7.79
677.939	6.73
678.264	6.98
678.588	7.49
678.912	6.99
679.236	6.56
679.56	6.77
679.885	7.48
680.209	6.97
680.532	7.07
680.856	7.29
681.18	6.77
681.504	7
681.828	7.23
682.152	6.94
682.475	7.25
682.799	7.36
683.122	6.66
683.446	7.57
683.769	7.27
684.093	7.32
684.416	7.72
684.739	7.1
685.062	7.61
685.386	6.95
685.709	7.31
686.032	6.85
686.355	7.11
686.678	7.78
687.001	6.74
687.324	6.68
687.646	7.07
687.969	7.17
688.292	7.24
688.614	7.48
688.937	7.84
689.26	7.94
689.582	6.41
689.904	7.28
690.227	7.68
690.549	6.61
690.871	7.39
