Data from 0140_forehead_Reflection__1__174.txt Node

Date: Mon Aug 28 20:11:51 CDT 2023
User: ToomeyLab
Spectrometer: FLMS14357
Trigger mode: 0
Integration Time (sec): 1.000000E-2
Scans to average: 100
Electric dark correction enabled: true
Nonlinearity correction enabled: false
Boxcar width: 0
XAxis mode: Wavelengths
Number of Pixels in Spectrum: 2048
>>>>>Begin Spectral Data<<<<<
189.047	-24.42
189.435	-24.42
189.823	-24.42
190.211	-212.68
190.599	76.31
190.987	59.91
191.375	-153.81
191.763	208.11
192.151	-25.46
192.538	74.72
192.926	69.58
193.314	235.94
193.702	1500.54
194.089	-26.85
194.477	-129.33
194.864	-204.94
195.252	-395.35
195.639	-117.52
196.027	148.65
196.414	137.25
196.801	83.32
197.189	-8.09
197.576	-154.29
197.963	-1594.16
198.351	49.78
198.738	48.63
199.125	-6.76
199.512	-9.2
199.899	9.85
200.286	34.42
200.673	29.87
201.06	32.42
201.447	-75.93
201.833	14.37
202.22	29.52
202.607	34.89
202.994	36.82
203.38	14.43
203.767	22.97
204.154	40.12
204.54	30.03
204.927	-29.36
205.313	23.26
205.699	12.09
206.086	54.56
206.472	-2.74
206.858	10.57
207.245	51.98
207.631	41.18
208.017	41.37
208.403	36.19
208.789	-4.61
209.175	-58.59
209.561	23.81
209.947	4.6
210.333	40.58
210.719	30.14
211.105	60.78
211.491	-19.04
211.876	49.35
212.262	24.22
212.648	17.58
213.034	8.31
213.419	48.61
213.805	60.04
214.19	-34.66
214.576	59.41
214.961	1.06
215.346	22.13
215.732	17.24
216.117	18.25
216.502	0.5
216.888	-33.38
217.273	-30.26
217.658	38.87
218.043	4.14
218.428	8.96
218.813	22.04
219.198	10.16
219.583	-12
219.968	37.44
220.353	3.92
220.738	32.37
221.122	8.4
221.507	30.29
221.892	-22.82
222.276	7.65
222.661	14.33
223.046	10.95
223.43	19.2
223.815	16.39
224.199	15.69
224.583	10.37
224.968	11.64
225.352	8.5
225.736	12.55
226.121	7.89
226.505	8.64
226.889	7.1
227.273	12.52
227.657	11.28
228.041	13.88
228.425	3.76
228.809	4.3
229.193	7.54
229.577	8.13
229.961	5.23
230.344	5.6
230.728	4.8
231.112	4.58
231.495	5.13
231.879	4.52
232.263	5.04
232.646	3.82
233.03	5.5
233.413	6.94
233.797	5.33
234.18	4.45
234.563	5.3
234.946	8.42
235.33	7.29
235.713	3.25
236.096	5.18
236.479	4.28
236.862	6.82
237.245	4.36
237.628	6.28
238.011	8.2
238.394	6.33
238.777	6.31
239.16	3.97
239.543	1.45
239.925	7.43
240.308	5.1
240.691	4.5
241.073	3.32
241.456	6.06
241.838	3.2
242.221	6.38
242.603	4.91
242.986	6.33
243.368	4.73
243.75	5.04
244.133	4.38
244.515	3.75
244.897	4.52
245.279	4.42
245.661	3.93
246.043	5.08
246.425	4.99
246.807	5.68
247.189	4.03
247.571	4.29
247.953	4.47
248.335	4.18
248.717	4.18
249.098	4.32
249.48	4.22
249.862	4.03
250.243	4.36
250.625	4.5
251.006	4.8
251.388	4.62
251.769	4.78
252.151	4.49
252.532	4.33
252.913	4.92
253.295	3.77
253.676	4.13
254.057	4.29
254.438	3.78
254.819	4.26
255.2	5.63
255.581	5.45
255.962	4.79
256.343	5.92
256.724	4.61
257.105	3.23
257.486	4.96
257.867	4.49
258.247	5.34
258.628	5.73
259.009	4.43
259.389	3.83
259.77	5.1
260.15	4.24
260.531	3.77
260.911	4.08
261.292	4.31
261.672	3.97
262.052	3.75
262.432	4.05
262.813	4.24
263.193	4.03
263.573	4.3
263.953	4.65
264.333	3.36
264.713	4.04
265.093	4.89
265.473	4.17
265.853	3.98
266.233	3.93
266.612	5.44
266.992	5.71
267.372	3.9
267.752	4.76
268.131	4.95
268.511	3.45
268.89	4.64
269.27	4.14
269.649	4.42
270.029	5.11
270.408	4.83
270.787	4.28
271.167	4.2
271.546	4.39
271.925	4.47
272.304	4.62
272.683	4.33
273.062	3.67
273.441	4.62
273.82	3.71
274.199	3.37
274.578	4.2
274.957	4.11
275.336	4.84
275.715	4.68
276.093	4.17
276.472	3.73
276.851	3.83
277.229	4.47
277.608	4.18
277.986	3.84
278.365	4.04
278.743	4.27
279.122	3.72
279.5	3.41
279.878	3.93
280.257	3.99
280.635	3.34
281.013	3.73
281.391	4.08
281.769	4.26
282.147	4.56
282.525	4.17
282.903	4.34
283.281	4.24
283.659	4.87
284.037	4.61
284.415	3.72
284.792	4.32
285.17	4.1
285.548	3.94
285.925	4.32
286.303	4.04
286.68	4.18
287.058	4.37
287.435	4.28
287.813	3.98
288.19	4.38
288.567	4.24
288.945	3.9
289.322	3.96
289.699	4.6
290.076	4.74
290.453	4.14
290.83	3.73
291.207	4.25
291.584	4.29
291.961	4.87
292.338	4.36
292.715	3.84
293.092	4.72
293.469	4.52
293.845	4.34
294.222	4.72
294.599	4.68
294.975	4.86
295.352	4.67
295.728	5.09
296.105	4.85
296.481	4.62
296.858	5.02
297.234	5.3
297.61	4.84
297.986	4.8
298.363	5.03
298.739	4.77
299.115	4.67
299.491	5.12
299.867	4.92
300.243	5.16
300.619	5.17
300.995	5.29
301.371	4.64
301.746	5.75
302.122	4.84
302.498	4.94
302.874	5.63
303.249	5.91
303.625	5.42
304	5.42
304.376	5.05
304.751	5.39
305.127	6.43
305.502	5.79
305.878	5.64
306.253	5.84
306.628	5.77
307.003	5.69
307.378	6.23
307.754	5.65
308.129	5.57
308.504	6.44
308.879	6.07
309.254	6.03
309.629	6.08
310.003	5.77
310.378	5.48
310.753	6.49
311.128	6.58
311.502	6.62
311.877	6.24
312.252	6.74
312.626	6.36
313.001	6.37
313.375	6.36
313.75	6.46
314.124	6.43
314.498	6.79
314.873	7.43
315.247	7.13
315.621	6.97
315.995	7.56
316.369	7.27
316.743	6.82
317.117	7
317.491	6.3
317.865	6.85
318.239	7.13
318.613	7.02
318.987	7.69
319.361	7.69
319.734	7.24
320.108	7.5
320.482	7.7
320.855	7.72
321.229	7.37
321.602	8.15
321.976	7.98
322.349	7.54
322.723	7.59
323.096	7.85
323.469	7.9
323.843	7.61
324.216	7.64
324.589	8.52
324.962	8.36
325.335	8.05
325.708	7.91
326.081	7.96
326.454	8.39
326.827	8.46
327.2	7.93
327.573	8.09
327.945	8.92
328.318	9.04
328.691	8.15
329.063	8.69
329.436	8.49
329.809	8.73
330.181	8.73
330.553	8.73
330.926	8.78
331.298	9.16
331.671	8.82
332.043	9.38
332.415	9.52
332.787	9.26
333.159	9.3
333.532	9.54
333.904	9.56
334.276	9.2
334.648	9.43
335.02	9.72
335.391	9.48
335.763	9.27
336.135	9.9
336.507	9.18
336.879	9.58
337.25	9.85
337.622	9.67
337.993	10.15
338.365	9.87
338.736	9.9
339.108	9.36
339.479	9.62
339.851	9.92
340.222	9.78
340.593	10.1
340.964	10.56
341.336	10.34
341.707	10.01
342.078	10.14
342.449	10.21
342.82	10.71
343.191	10.44
343.562	10.03
343.933	10.55
344.303	10.53
344.674	10.89
345.045	11.06
345.416	10.99
345.786	11.04
346.157	11.1
346.527	10.45
346.898	10.78
347.268	10.79
347.639	11.02
348.009	11.09
348.38	11.26
348.75	11.41
349.12	11.68
349.49	11.19
349.861	10.79
350.231	10.98
350.601	11.7
350.971	12.03
351.341	11.29
351.711	11.71
352.081	11.73
352.45	12.01
352.82	11.86
353.19	12.19
353.56	12.01
353.929	12.55
354.299	11.99
354.669	11.92
355.038	12.68
355.408	12.5
355.777	11.74
356.147	12.23
356.516	12.88
356.885	12.56
357.254	12.07
357.624	12.25
357.993	12.85
358.362	12.26
358.731	12.75
359.1	12.68
359.469	12.8
359.838	12.59
360.207	12.87
360.576	12.94
360.945	13.08
361.314	12.75
361.682	12.42
362.051	13.3
362.42	13.05
362.788	12.83
363.157	12.88
363.525	13.15
363.894	13.62
364.262	13.44
364.631	13.01
364.999	13.29
365.367	13.43
365.735	13.45
366.104	13.92
366.472	13.54
366.84	13.71
367.208	13.91
367.576	13.57
367.944	13.94
368.312	14.27
368.68	14.03
369.048	14.22
369.416	14.54
369.783	14.43
370.151	14.61
370.519	14.49
370.886	14.33
371.254	14.32
371.621	14.52
371.989	14.48
372.356	14.68
372.724	15.09
373.091	14.9
373.458	14.71
373.826	15.03
374.193	14.86
374.56	15.2
374.927	14.8
375.294	15.17
375.661	15.26
376.028	15.23
376.395	15.09
376.762	15.89
377.129	15.27
377.496	15.47
377.863	15.7
378.229	15.2
378.596	15.36
378.963	15.76
379.329	16.09
379.696	15.93
380.062	15.59
380.429	15.78
380.795	16.27
381.161	15.91
381.528	16.35
381.894	16.19
382.26	16.35
382.626	16.47
382.993	16.38
383.359	16.46
383.725	16.58
384.091	16.52
384.457	16.31
384.823	16.68
385.188	16.75
385.554	16.64
385.92	16.84
386.286	17.18
386.651	17.14
387.017	17.13
387.383	17.14
387.748	17.12
388.114	16.82
388.479	16.9
388.845	17.08
389.21	17.33
389.575	17.64
389.94	17.14
390.306	17.72
390.671	17.64
391.036	17.44
391.401	17.73
391.766	17.84
392.131	17.62
392.496	17.43
392.861	17.88
393.226	17.78
393.591	17.62
393.956	18.09
394.32	17.98
394.685	18.08
395.05	18.2
395.414	18.07
395.779	18.19
396.143	18.3
396.508	18.03
396.872	18.32
397.236	18.51
397.601	18.54
397.965	18.6
398.329	19.02
398.694	18.97
399.058	19.29
399.422	19.17
399.786	18.94
400.15	19.24
400.514	19.3
400.878	19.09
401.242	19.57
401.605	19.18
401.969	19.11
402.333	19.29
402.697	19.27
403.06	19.51
403.424	19.73
403.787	19.52
404.151	19.74
404.514	19.55
404.878	19.81
405.241	19.64
405.604	19.9
405.968	19.74
406.331	20.08
406.694	20.03
407.057	20.11
407.42	19.84
407.783	19.96
408.146	19.97
408.509	20.24
408.872	20.03
409.235	20.38
409.598	20.34
409.961	20.38
410.323	20.6
410.686	20.38
411.049	20.7
411.411	20.67
411.774	20.64
412.136	20.62
412.499	20.84
412.861	20.77
413.223	20.59
413.586	20.76
413.948	21.14
414.31	21.05
414.672	20.94
415.035	21.18
415.397	21.31
415.759	21.33
416.121	21.43
416.483	21.14
416.845	21.68
417.206	21.59
417.568	21.75
417.93	21.5
418.292	21.75
418.653	21.62
419.015	21.84
419.377	21.55
419.738	21.78
420.1	21.71
420.461	21.74
420.822	21.71
421.184	21.79
421.545	21.81
421.906	21.73
422.267	21.88
422.629	21.87
422.99	21.89
423.351	21.84
423.712	21.88
424.073	21.91
424.434	22.11
424.795	22.03
425.155	22.28
425.516	22.2
425.877	22.28
426.238	22.3
426.598	22.33
426.959	22.45
427.32	22.47
427.68	22.57
428.041	22.68
428.401	22.91
428.761	23.02
429.122	23.14
429.482	23.24
429.842	23.34
430.202	23.32
430.563	23.5
430.923	23.79
431.283	23.64
431.643	23.55
432.003	23.64
432.363	23.69
432.722	23.95
433.082	23.9
433.442	24.06
433.802	23.85
434.161	24.1
434.521	24.21
434.881	24.2
435.24	24.24
435.6	24.25
435.959	24.32
436.319	24.26
436.678	24.22
437.037	24.22
437.396	24.51
437.756	24.39
438.115	24.7
438.474	24.89
438.833	24.72
439.192	24.83
439.551	24.84
439.91	25.06
440.269	24.81
440.628	25.05
440.987	24.96
441.345	25.07
441.704	25.11
442.063	25.07
442.421	25.06
442.78	24.99
443.138	25.08
443.497	25.1
443.855	25.21
444.214	25.25
444.572	25.59
444.93	25.52
445.288	25.48
445.647	25.75
446.005	25.84
446.363	25.88
446.721	25.72
447.079	25.9
447.437	25.82
447.795	25.76
448.153	25.82
448.51	25.83
448.868	25.75
449.226	25.74
449.584	25.86
449.941	25.9
450.299	26.14
450.656	26.36
451.014	26.32
451.371	26.35
451.729	26.33
452.086	26.55
452.443	26.84
452.801	26.68
453.158	27.02
453.515	27.04
453.872	27.12
454.229	27.32
454.586	27.21
454.943	27.16
455.3	27.48
455.657	27.24
456.014	27.62
456.371	27.45
456.727	27.46
457.084	27.67
457.441	27.52
457.797	27.85
458.154	27.65
458.51	27.84
458.867	27.81
459.223	27.99
459.58	28.07
459.936	28.1
460.292	28.09
460.648	28.15
461.005	28.08
461.361	28.16
461.717	27.86
462.073	27.82
462.429	27.86
462.785	27.83
463.141	27.89
463.496	28.14
463.852	28.17
464.208	28.57
464.564	28.52
464.919	28.56
465.275	28.89
465.631	28.69
465.986	28.91
466.342	28.93
466.697	28.67
467.052	28.86
467.408	29.16
467.763	29.13
468.118	29.14
468.473	29.14
468.829	29.39
469.184	29.02
469.539	29.5
469.894	29.46
470.249	29.35
470.603	29.64
470.958	29.4
471.313	29.61
471.668	29.63
472.023	29.9
472.377	29.81
472.732	29.93
473.086	29.9
473.441	30.25
473.795	29.92
474.15	30.35
474.504	30.27
474.859	29.93
475.213	30.36
475.567	30.34
475.921	30.49
476.275	29.93
476.63	30.5
476.984	30.54
477.338	30.62
477.692	30.78
478.045	30.63
478.399	30.81
478.753	30.72
479.107	30.55
479.461	30.68
479.814	30.91
480.168	31.11
480.521	30.98
480.875	30.71
481.228	30.58
481.582	30.82
481.935	30.92
482.289	31.17
482.642	31.31
482.995	31.23
483.348	31.17
483.701	31.19
484.055	31.02
484.408	30.96
484.761	30.97
485.114	30.75
485.466	30.53
485.819	30.56
486.172	30.74
486.525	30.44
486.878	30.2
487.23	30.05
487.583	30.25
487.936	30.5
488.288	30.85
488.641	31.1
488.993	31.14
489.345	31.05
489.698	31.12
490.05	30.94
490.402	30.9
490.754	30.92
491.107	31
491.459	31.16
491.811	31.43
492.163	31.63
492.515	31.75
492.866	32.09
493.218	31.94
493.57	31.83
493.922	31.76
494.274	31.7
494.625	31.43
494.977	31.64
495.328	31.89
495.68	32.08
496.031	32.41
496.383	32.6
496.734	32.66
497.086	33.07
497.437	33.15
497.788	33.18
498.139	33.11
498.49	33.22
498.842	33.14
499.193	33.05
499.544	33.02
499.894	32.97
500.245	33.13
500.596	33.22
500.947	33.36
501.298	33.45
501.648	33.66
501.999	33.57
502.35	33.69
502.7	33.6
503.051	33.73
503.401	33.93
503.752	34.08
504.102	34.02
504.452	34.03
504.803	34.15
505.153	34.01
505.503	34.03
505.853	34.23
506.203	34.32
506.553	34.36
506.903	34.48
507.253	34.22
507.603	34.45
507.953	34.37
508.303	34.53
508.652	34.53
509.002	34.81
509.352	34.57
509.701	34.51
510.051	34.6
510.4	34.64
510.75	34.75
511.099	34.74
511.449	34.74
511.798	34.5
512.147	34.62
512.496	34.66
512.846	34.81
513.195	34.89
513.544	35.01
513.893	35.09
514.242	35.03
514.591	34.99
514.939	35.03
515.288	35.02
515.637	35.07
515.986	35.31
516.334	35.36
516.683	35.48
517.032	35.46
517.38	35.61
517.729	35.77
518.077	35.84
518.426	35.72
518.774	35.69
519.122	35.85
519.47	35.74
519.819	35.64
520.167	35.52
520.515	35.47
520.863	35.43
521.211	35.34
521.559	35.44
521.907	35.52
522.255	35.61
522.602	35.75
522.95	35.97
523.298	35.81
523.645	36.21
523.993	36.14
524.341	36.34
524.688	36.24
525.036	36.49
525.383	36.27
525.73	36.61
526.078	36.75
526.425	36.69
526.772	36.59
527.119	36.33
527.466	36.18
527.814	36.22
528.161	36.14
528.508	36.13
528.854	36.12
529.201	36.11
529.548	36.35
529.895	36.32
530.242	36.15
530.588	36.2
530.935	36.21
531.282	36
531.628	35.66
531.975	35.68
532.321	35.83
532.667	35.97
533.014	36.34
533.36	36.47
533.706	36.64
534.052	36.81
534.399	36.88
534.745	36.82
535.091	36.98
535.437	36.76
535.783	36.8
536.129	36.67
536.474	36.65
536.82	36.64
537.166	36.79
537.512	37.02
537.857	37.56
538.203	37.46
538.549	37.55
538.894	37.4
539.239	37.36
539.585	37.5
539.93	37.27
540.276	37.45
540.621	37.56
540.966	37.7
541.311	37.91
541.656	38.14
542.001	38.13
542.346	38.3
542.691	37.98
543.036	37.9
543.381	37.77
543.726	37.68
544.071	37.53
544.415	37.43
544.76	37.21
545.105	37.63
545.449	37.59
545.794	37.85
546.138	37.95
546.483	38.09
546.827	38.28
547.171	38.44
547.516	38.54
547.86	38.7
548.204	38.66
548.548	38.74
548.892	38.63
549.236	38.52
549.58	38.55
549.924	38.5
550.268	38.91
550.612	39.04
550.956	39.01
551.3	39.24
551.643	39.24
551.987	39.5
552.33	39.76
552.674	39.59
553.017	39.7
553.361	39.64
553.704	39.55
554.048	39.89
554.391	39.9
554.734	39.59
555.077	39.87
555.42	40.03
555.764	39.74
556.107	39.8
556.45	39.57
556.793	39.81
557.135	40.1
557.478	40.21
557.821	40.02
558.164	40.18
558.507	40.13
558.849	40.27
559.192	40.31
559.534	40.15
559.877	40.61
560.219	40.56
560.562	40.88
560.904	40.86
561.246	40.53
561.589	40.76
561.931	40.95
562.273	40.8
562.615	40.78
562.957	40.88
563.299	40.87
563.641	41.02
563.983	40.78
564.325	40.74
564.667	40.71
565.008	40.96
565.35	41.16
565.692	41.02
566.033	41.15
566.375	41.28
566.716	41.39
567.058	41.04
567.399	41.17
567.741	41.01
568.082	41.1
568.423	41.02
568.764	41.25
569.105	41.21
569.447	41.11
569.788	40.92
570.129	41.12
570.47	41.19
570.811	41.37
571.151	41.31
571.492	41.8
571.833	41.63
572.174	41.66
572.514	41.74
572.855	41.36
573.195	41.61
573.536	41.78
573.876	41.72
574.217	41.74
574.557	41.95
574.898	41.68
575.238	41.75
575.578	41.7
575.918	42.01
576.258	42.01
576.598	41.93
576.938	42.07
577.278	42.09
577.618	42.15
577.958	42.05
578.298	41.95
578.638	41.74
578.977	42.14
579.317	42.09
579.657	42.37
579.996	42.4
580.336	42.43
580.675	42.32
581.014	42.7
581.354	42.67
581.693	42.95
582.032	43.06
582.372	42.89
582.711	42.79
583.05	42.79
583.389	42.89
583.728	42.93
584.067	43.05
584.406	42.99
584.745	43.17
585.083	43.25
585.422	43.17
585.761	43.09
586.1	43.21
586.438	43.26
586.777	43.53
587.115	43.18
587.454	43.54
587.792	43.61
588.13	43.5
588.469	43.46
588.807	43.48
589.145	43.42
589.483	43.72
589.821	43.75
590.159	43.94
590.497	43.76
590.835	43.58
591.173	43.74
591.511	43.27
591.849	43.7
592.187	43.84
592.524	43.98
592.862	43.73
593.2	43.58
593.537	43.7
593.875	43.95
594.212	44.05
594.55	43.99
594.887	43.79
595.224	44.23
595.561	43.92
595.899	44.07
596.236	44.43
596.573	44.41
596.91	44.09
597.247	44.13
597.584	44.24
597.921	44.24
598.258	44.03
598.594	44.11
598.931	44.12
599.268	44.27
599.604	44.2
599.941	43.99
600.277	44.36
600.614	44.17
600.95	44.12
601.287	44.23
601.623	44.56
601.959	44.56
602.296	44.68
602.632	44.69
602.968	44.82
603.304	44.8
603.64	44.58
603.976	44.92
604.312	44.75
604.648	44.94
604.984	44.53
605.319	44.99
605.655	44.9
605.991	44.58
606.326	44.68
606.662	44.81
606.998	44.53
607.333	44.51
607.668	44.55
608.004	44.55
608.339	44.6
608.674	44.82
609.01	44.65
609.345	44.64
609.68	45.26
610.015	45.45
610.35	45.24
610.685	45.65
611.02	45.52
611.355	45.56
611.689	45.08
612.024	45.23
612.359	45.01
612.694	45.23
613.028	44.86
613.363	45.07
613.697	45.1
614.032	46.02
614.366	45.59
614.7	45.49
615.035	45.93
615.369	45.6
615.703	45.65
616.037	45.89
616.371	46.26
616.705	46
617.039	45.89
617.373	45.55
617.707	46.29
618.041	45.83
618.375	45.91
618.709	46.02
619.042	46.45
619.376	46.13
619.71	46.28
620.043	46.34
620.377	46.28
620.71	46.14
621.043	46.02
621.377	46.36
621.71	46.31
622.043	45.89
622.376	45.86
622.709	46.45
623.043	46.36
623.376	46.77
623.709	46.25
624.041	46.62
624.374	46.22
624.707	46.42
625.04	46.19
625.373	46.93
625.705	46.55
626.038	46.75
626.37	47.01
626.703	47.05
627.035	46.9
627.368	46.84
627.7	46.79
628.032	46.9
628.365	46.46
628.697	46.75
629.029	47.1
629.361	47.04
629.693	46.64
630.025	46.62
630.357	46.99
630.689	46.77
631.021	46.85
631.353	47.14
631.684	47.2
632.016	46.94
632.348	46.95
632.679	46.93
633.011	46.97
633.342	46.39
633.674	47.32
634.005	47.24
634.336	47.71
634.668	47.62
634.999	47.02
635.33	47.03
635.661	47.08
635.992	47.38
636.323	47.68
636.654	47.56
636.985	47.79
637.316	47.51
637.647	47.14
637.977	47.32
638.308	47.77
638.639	47.52
638.969	47.51
639.3	47.28
639.63	47.59
639.961	47.72
640.291	47.54
640.622	47.95
640.952	47.59
641.282	47.4
641.612	47.54
641.943	47.84
642.273	47.62
642.603	47.23
642.933	48.08
643.263	47.99
643.592	48.16
643.922	47.84
644.252	47.41
644.582	47.97
644.911	48.01
645.241	48.61
645.571	48.06
645.9	48.05
646.23	48.28
646.559	48.27
646.888	47.63
647.218	47.61
647.547	47.89
647.876	48.33
648.205	48.28
648.534	48.31
648.863	47.6
649.192	47.63
649.521	48.69
649.85	48.71
650.179	48.36
650.508	48.2
650.837	48.4
651.165	48.5
651.494	48.24
651.822	48.68
652.151	48.8
652.479	48.76
652.808	48.97
653.136	48.65
653.465	48.69
653.793	48.47
654.121	48.69
654.449	48.23
654.777	48.4
655.105	48.87
655.433	48.54
655.761	48.61
656.089	48.89
656.417	48.19
656.745	49.02
657.073	48.11
657.4	49.45
657.728	49.19
658.056	48.11
658.383	48.78
658.711	48.93
659.038	48.87
659.365	49.14
659.693	48.97
660.02	49.2
660.347	48.56
660.674	48.92
661.001	49.3
661.329	49.23
661.656	48.81
661.982	49.53
662.309	49.24
662.636	49.26
662.963	48.98
663.29	48.85
663.616	48.8
663.943	49.3
664.27	49.38
664.596	49.3
664.923	49.77
665.249	49.43
665.576	49.37
665.902	49.01
666.228	49.09
666.554	49.05
666.881	49.56
667.207	49.36
667.533	49.41
667.859	49.06
668.185	48.6
668.511	49.83
668.837	49.25
669.162	49.54
669.488	49.72
669.814	50.22
