Data from 0140_crown_Reflection__1__179.txt Node

Date: Mon Aug 28 20:13:32 CDT 2023
User: ToomeyLab
Spectrometer: FLMS14357
Trigger mode: 0
Integration Time (sec): 1.000000E-2
Scans to average: 100
Electric dark correction enabled: true
Nonlinearity correction enabled: false
Boxcar width: 0
XAxis mode: Wavelengths
Number of Pixels in Spectrum: 2048
>>>>>Begin Spectral Data<<<<<
189.047	-280.76
189.435	-280.76
189.823	-280.76
190.211	-7.74
190.599	151.94
190.987	94.4
191.375	370.97
191.763	146.87
192.151	-43.85
192.538	56.71
192.926	176
193.314	48.97
193.702	-637.3
194.089	47.49
194.477	183.25
194.864	-9.81
195.252	-504.39
195.639	65.75
196.027	137.41
196.414	110.74
196.801	-31.04
197.189	28.47
197.576	-136.96
197.963	-2986.13
198.351	9.69
198.738	10.03
199.125	-16.04
199.512	-63.39
199.899	-29.11
200.286	8.63
200.673	29.3
201.06	26.69
201.447	-20.98
201.833	-11.15
202.22	-2.36
202.607	3.02
202.994	27.99
203.38	7.39
203.767	-14.97
204.154	6.56
204.54	18.1
204.927	-50.62
205.313	29.43
205.699	-23.05
206.086	65.02
206.472	20.31
206.858	-10.95
207.245	-10.6
207.631	31.6
208.017	-21.48
208.403	23.07
208.789	13.58
209.175	-69.32
209.561	28.98
209.947	13.79
210.333	12.27
210.719	17.99
211.105	32.04
211.491	-22.64
211.876	33.51
212.262	26.16
212.648	10.06
213.034	9.06
213.419	-8.52
213.805	7.49
214.19	-41.24
214.576	-5.87
214.961	-8.8
215.346	-10.5
215.732	30.37
216.117	-24.29
216.502	23.36
216.888	23.38
217.273	-22.11
217.658	-3.37
218.043	-13.16
218.428	21.31
218.813	-0.91
219.198	19.08
219.583	0.36
219.968	10.7
220.353	0.6
220.738	5.74
221.122	5.09
221.507	-20.29
221.892	-17.6
222.276	-2.33
222.661	-2.14
223.046	3.66
223.43	-3.26
223.815	-0.81
224.199	5.12
224.583	-6.36
224.968	8.87
225.352	4.84
225.736	12.15
226.121	-4.17
226.505	0.36
226.889	8.96
227.273	3.95
227.657	17.51
228.041	9.95
228.425	9.03
228.809	2.76
229.193	9.34
229.577	10.47
229.961	6.59
230.344	8.77
230.728	8.24
231.112	7.4
231.495	8.51
231.879	8.56
232.263	6.82
232.646	7.78
233.03	9.37
233.413	11.57
233.797	5.32
234.18	7.06
234.563	7
234.946	10.06
235.33	8.03
235.713	5.61
236.096	8.44
236.479	8.54
236.862	6.84
237.245	6.71
237.628	8.77
238.011	10
238.394	7.58
238.777	6.41
239.16	6.55
239.543	7.09
239.925	8.94
240.308	6.21
240.691	7.12
241.073	6.27
241.456	6.59
241.838	5.66
242.221	8.75
242.603	7.5
242.986	8.43
243.368	7.31
243.75	7.86
244.133	7.1
244.515	7.37
244.897	7.32
245.279	8.07
245.661	7.5
246.043	8.19
246.425	7.76
246.807	8.71
247.189	6.95
247.571	6.72
247.953	7.07
248.335	6.72
248.717	7.03
249.098	7.13
249.48	6.98
249.862	7.18
250.243	6.85
250.625	7.61
251.006	7.59
251.388	6.64
251.769	6.92
252.151	5.95
252.532	6.49
252.913	8.03
253.295	6.28
253.676	6.51
254.057	6.34
254.438	6.52
254.819	6.34
255.2	7.07
255.581	7.1
255.962	6.86
256.343	7.45
256.724	5.99
257.105	6.88
257.486	6.67
257.867	6.71
258.247	5.86
258.628	7.02
259.009	6.38
259.389	5.62
259.77	7
260.15	6.25
260.531	6.2
260.911	6.45
261.292	6.27
261.672	6.6
262.052	6.33
262.432	6.37
262.813	6.41
263.193	6.06
263.573	5.66
263.953	6.04
264.333	6.26
264.713	6.05
265.093	6.35
265.473	5.67
265.853	5.26
266.233	5.53
266.612	6.62
266.992	6.63
267.372	5.9
267.752	6.69
268.131	6.46
268.511	5.63
268.89	6.56
269.27	6.4
269.649	5.99
270.029	6.99
270.408	6.07
270.787	6.73
271.167	5.46
271.546	6.22
271.925	6.04
272.304	6.13
272.683	6.01
273.062	5.83
273.441	5.96
273.82	6.02
274.199	5.11
274.578	5.87
274.957	5.71
275.336	6.09
275.715	6.03
276.093	5.65
276.472	5.25
276.851	5.32
277.229	5.99
277.608	5.99
277.986	5.69
278.365	5.78
278.743	5.88
279.122	5.44
279.5	5.45
279.878	4.75
280.257	5.43
280.635	5.27
281.013	5.34
281.391	5.56
281.769	5.69
282.147	5.57
282.525	5.95
282.903	5.98
283.281	5.78
283.659	5.98
284.037	6.14
284.415	5.7
284.792	6.05
285.17	5.73
285.548	5.49
285.925	5.78
286.303	5.52
286.68	5.81
287.058	5.88
287.435	5.39
287.813	5.31
288.19	5.73
288.567	5.58
288.945	5.68
289.322	5.32
289.699	5.83
290.076	6.01
290.453	5.4
290.83	4.9
291.207	5.23
291.584	5.33
291.961	5.78
292.338	5.28
292.715	5.32
293.092	5.58
293.469	5.52
293.845	5.3
294.222	5.07
294.599	4.68
294.975	5.34
295.352	4.73
295.728	5.27
296.105	5.41
296.481	5.35
296.858	5.67
297.234	5.22
297.61	5.35
297.986	5.15
298.363	5.86
298.739	4.94
299.115	4.91
299.491	5.05
299.867	5.1
300.243	5.46
300.619	5.07
300.995	5.39
301.371	4.97
301.746	5.4
302.122	5.29
302.498	5.42
302.874	5.38
303.249	5.14
303.625	5.28
304	5.12
304.376	4.79
304.751	4.38
305.127	5.13
305.502	4.93
305.878	4.63
306.253	4.94
306.628	4.67
307.003	5.39
307.378	5.27
307.754	5.19
308.129	4.84
308.504	5.18
308.879	4.81
309.254	4.63
309.629	4.57
310.003	4.97
310.378	4.97
310.753	4.94
311.128	5.34
311.502	5.13
311.877	4.6
312.252	5.37
312.626	4.99
313.001	4.75
313.375	5.03
313.75	4.89
314.124	4.86
314.498	5.06
314.873	5.1
315.247	5.37
315.621	4.76
315.995	4.92
316.369	5.7
316.743	3.92
317.117	4.97
317.491	4.61
317.865	4.59
318.239	4.92
318.613	4.8
318.987	5.05
319.361	4.21
319.734	4.75
320.108	4.81
320.482	5
320.855	4.83
321.229	5.02
321.602	4.47
321.976	4.16
322.349	5.07
322.723	4.31
323.096	4.76
323.469	4.73
323.843	4.22
324.216	4.65
324.589	5.12
324.962	4.91
325.335	4.97
325.708	4.63
326.081	4.33
326.454	4.89
326.827	4.78
327.2	4.32
327.573	4.47
327.945	5.2
328.318	5.02
328.691	4.38
329.063	3.86
329.436	4.3
329.809	4.5
330.181	4.49
330.553	5.01
330.926	4.83
331.298	4.73
331.671	4.87
332.043	5.14
332.415	5.19
332.787	4.37
333.159	4.24
333.532	4.95
333.904	4.68
334.276	4.47
334.648	4.42
335.02	5.1
335.391	4.96
335.763	5.09
336.135	5.09
336.507	4.69
336.879	4.85
337.25	4.7
337.622	4.78
337.993	5.05
338.365	4.15
338.736	4.98
339.108	3.84
339.479	3.76
339.851	4.92
340.222	4.63
340.593	4.25
340.964	5.12
341.336	4.62
341.707	4.53
342.078	4.37
342.449	4.77
342.82	4.93
343.191	4.61
343.562	4.17
343.933	4.27
344.303	4.61
344.674	5.14
345.045	5.04
345.416	5.08
345.786	4.77
346.157	4.97
346.527	4.49
346.898	4.72
347.268	4.58
347.639	4.47
348.009	4.74
348.38	4.93
348.75	4.61
349.12	5.31
349.49	4.6
349.861	4.29
350.231	4.06
350.601	5.35
350.971	5.04
351.341	4.54
351.711	4.87
352.081	5
352.45	4.72
352.82	4.32
353.19	4.97
353.56	4.9
353.929	4.72
354.299	4.59
354.669	5.16
355.038	4.79
355.408	5.07
355.777	4.61
356.147	4.55
356.516	5.11
356.885	4.6
357.254	4.73
357.624	4.76
357.993	5.13
358.362	4.72
358.731	4.96
359.1	4.94
359.469	5.26
359.838	4.46
360.207	4.71
360.576	5.18
360.945	4.88
361.314	4.38
361.682	4.7
362.051	5.06
362.42	4.87
362.788	4.81
363.157	5.03
363.525	4.72
363.894	4.83
364.262	4.69
364.631	4.83
364.999	4.92
365.367	5.14
365.735	4.79
366.104	4.8
366.472	5.07
366.84	5.21
367.208	5.05
367.576	4.48
367.944	4.95
368.312	5.22
368.68	4.9
369.048	4.87
369.416	4.96
369.783	4.92
370.151	4.91
370.519	4.94
370.886	4.63
371.254	4.76
371.621	4.79
371.989	5.08
372.356	4.93
372.724	5.37
373.091	4.99
373.458	4.77
373.826	5
374.193	4.95
374.56	5.27
374.927	4.84
375.294	5.15
375.661	5.21
376.028	4.98
376.395	4.94
376.762	5.35
377.129	5.35
377.496	4.88
377.863	5.18
378.229	4.98
378.596	5.19
378.963	5.34
379.329	5.72
379.696	5.02
380.062	5.03
380.429	4.85
380.795	5.43
381.161	5.21
381.528	5.32
381.894	4.69
382.26	5.23
382.626	5.23
382.993	5.2
383.359	5.25
383.725	5.22
384.091	5.4
384.457	5.07
384.823	5.38
385.188	5.32
385.554	4.92
385.92	4.9
386.286	5.06
386.651	5.02
387.017	5.18
387.383	5.07
387.748	5.17
388.114	5.06
388.479	5.23
388.845	5.15
389.21	5.2
389.575	5.42
389.94	5.34
390.306	5.33
390.671	5.27
391.036	5.11
391.401	5.56
391.766	5.62
392.131	5.4
392.496	4.98
392.861	5.16
393.226	5.31
393.591	5.05
393.956	5.45
394.32	5.16
394.685	5.11
395.05	5.22
395.414	5.2
395.779	5.4
396.143	5.26
396.508	5.17
396.872	5.29
397.236	5.4
397.601	5.29
397.965	5.26
398.329	5.52
398.694	5.56
399.058	5.27
399.422	5.54
399.786	5.35
400.15	5.46
400.514	5.35
400.878	5.21
401.242	5.24
401.605	5.32
401.969	5.3
402.333	5.33
402.697	5.5
403.06	5.27
403.424	5.64
403.787	5.42
404.151	5.42
404.514	5.53
404.878	5.35
405.241	5.39
405.604	5.5
405.968	5.1
406.331	5.31
406.694	5.33
407.057	5.61
407.42	5.28
407.783	5.36
408.146	5.47
408.509	5.46
408.872	5.48
409.235	5.51
409.598	5.41
409.961	5.23
410.323	5.47
410.686	5.61
411.049	5.55
411.411	5.44
411.774	5.68
412.136	5.53
412.499	5.27
412.861	5.53
413.223	5.53
413.586	5.42
413.948	5.55
414.31	5.71
414.672	5.32
415.035	5.18
415.397	5.32
415.759	5.38
416.121	5.71
416.483	5.39
416.845	5.63
417.206	5.83
417.568	5.74
417.93	5.37
418.292	5.62
418.653	5.51
419.015	5.43
419.377	5.35
419.738	5.68
420.1	5.52
420.461	5.48
420.822	5.44
421.184	5.47
421.545	5.55
421.906	5.43
422.267	5.43
422.629	5.41
422.99	5.42
423.351	5.44
423.712	5.4
424.073	5.46
424.434	5.48
424.795	5.4
425.155	5.48
425.516	5.5
425.877	5.46
426.238	5.33
426.598	5.42
426.959	5.37
427.32	5.51
427.68	5.41
428.041	5.52
428.401	5.6
428.761	5.45
429.122	5.56
429.482	5.62
429.842	5.76
430.202	5.61
430.563	5.51
430.923	5.56
431.283	5.56
431.643	5.36
432.003	5.51
432.363	5.71
432.722	5.76
433.082	5.7
433.442	5.67
433.802	5.6
434.161	5.62
434.521	5.63
434.881	5.6
435.24	5.58
435.6	5.59
435.959	5.64
436.319	5.61
436.678	5.62
437.037	5.58
437.396	5.65
437.756	5.65
438.115	5.86
438.474	5.81
438.833	5.71
439.192	5.85
439.551	5.5
439.91	5.83
440.269	5.52
440.628	5.65
440.987	5.6
441.345	5.64
441.704	5.66
442.063	5.63
442.421	5.58
442.78	5.69
443.138	5.63
443.497	5.54
443.855	5.57
444.214	5.64
444.572	5.58
444.93	5.8
445.288	5.55
445.647	5.81
446.005	5.67
446.363	5.82
446.721	5.65
447.079	5.71
447.437	5.58
447.795	5.52
448.153	5.67
448.51	5.59
448.868	5.63
449.226	5.57
449.584	5.63
449.941	5.65
450.299	5.62
450.656	5.6
451.014	5.51
451.371	5.65
451.729	5.5
452.086	5.66
452.443	5.83
452.801	5.78
453.158	5.86
453.515	5.84
453.872	5.69
454.229	5.89
454.586	5.8
454.943	5.73
455.3	5.84
455.657	5.81
456.014	5.88
456.371	5.72
456.727	5.73
457.084	5.76
457.441	5.94
457.797	5.77
458.154	5.81
458.51	5.96
458.867	5.67
459.223	5.91
459.58	5.66
459.936	5.95
460.292	5.6
460.648	5.76
461.005	5.72
461.361	5.8
461.717	5.72
462.073	5.59
462.429	5.65
462.785	5.75
463.141	5.71
463.496	5.83
463.852	5.82
464.208	5.77
464.564	5.93
464.919	5.89
465.275	5.92
465.631	5.79
465.986	5.7
466.342	5.78
466.697	5.69
467.052	5.85
467.408	5.94
467.763	5.61
468.118	5.73
468.473	5.74
468.829	5.75
469.184	5.63
469.539	6.02
469.894	5.89
470.249	5.83
470.603	5.88
470.958	5.69
471.313	5.82
471.668	5.65
472.023	5.9
472.377	5.78
472.732	5.84
473.086	5.72
473.441	5.83
473.795	5.84
474.15	5.98
474.504	6.04
474.859	5.96
475.213	5.89
475.567	5.86
475.921	6.1
476.275	5.75
476.63	6.01
476.984	6.04
477.338	5.96
477.692	5.94
478.045	5.98
478.399	5.79
478.753	5.79
479.107	5.87
479.461	5.75
479.814	6.13
480.168	5.83
480.521	5.86
480.875	5.91
481.228	5.79
481.582	5.88
481.935	5.8
482.289	5.94
482.642	5.9
482.995	5.97
483.348	5.83
483.701	5.94
484.055	5.79
484.408	5.76
484.761	5.74
485.114	5.67
485.466	5.59
485.819	5.49
486.172	5.46
486.525	5.51
486.878	5.59
487.23	5.67
487.583	5.74
487.936	5.84
488.288	5.82
488.641	5.75
488.993	5.73
489.345	5.61
489.698	5.64
490.05	5.6
490.402	5.58
490.754	5.7
491.107	5.75
491.459	5.67
491.811	5.92
492.163	5.9
492.515	5.88
492.866	5.83
493.218	5.73
493.57	5.67
493.922	5.61
494.274	5.69
494.625	5.72
494.977	5.81
495.328	5.84
495.68	5.98
496.031	5.94
496.383	5.82
496.734	5.99
497.086	6.06
497.437	5.92
497.788	6
498.139	5.87
498.49	5.78
498.842	5.89
499.193	5.87
499.544	5.87
499.894	5.91
500.245	5.89
500.596	5.89
500.947	5.94
501.298	5.98
501.648	5.86
501.999	5.94
502.35	5.87
502.7	5.88
503.051	5.91
503.401	5.96
503.752	5.95
504.102	5.98
504.452	5.95
504.803	5.96
505.153	6.03
505.503	5.93
505.853	5.95
506.203	5.99
506.553	5.84
506.903	6.1
507.253	6.03
507.603	6
507.953	6.09
508.303	6.13
508.652	6.07
509.002	6.09
509.352	5.9
509.701	5.94
510.051	5.9
510.4	6
510.75	5.97
511.099	6.02
511.449	5.9
511.798	5.93
512.147	5.91
512.496	5.94
512.846	5.9
513.195	5.94
513.544	5.93
513.893	5.96
514.242	5.89
514.591	5.98
514.939	5.83
515.288	5.98
515.637	6.02
515.986	5.9
516.334	6.11
516.683	6.07
517.032	6
517.38	6.04
517.729	6.11
518.077	6.06
518.426	5.91
518.774	5.93
519.122	6.04
519.47	5.87
519.819	5.89
520.167	5.9
520.515	5.93
520.863	5.76
521.211	5.78
521.559	5.85
521.907	5.86
522.255	5.82
522.602	5.93
522.95	6.04
523.298	5.93
523.645	6.01
523.993	5.92
524.341	5.95
524.688	5.99
525.036	6.04
525.383	6.02
525.73	5.89
526.078	6.05
526.425	6.05
526.772	5.9
527.119	5.87
527.466	5.83
527.814	5.79
528.161	5.75
528.508	5.8
528.854	5.86
529.201	5.86
529.548	5.83
529.895	5.82
530.242	5.67
530.588	5.61
530.935	5.62
531.282	5.63
531.628	5.64
531.975	5.72
532.321	5.79
532.667	5.77
533.014	5.91
533.36	5.91
533.706	5.91
534.052	5.78
534.399	5.81
534.745	5.88
535.091	5.76
535.437	5.77
535.783	5.71
536.129	5.75
536.474	5.81
536.82	5.85
537.166	5.84
537.512	5.88
537.857	5.88
538.203	5.82
538.549	5.9
538.894	5.81
539.239	5.8
539.585	5.86
539.93	5.93
540.276	5.97
540.621	5.97
540.966	5.93
541.311	5.99
541.656	5.9
542.001	5.97
542.346	5.89
542.691	5.86
543.036	5.75
543.381	5.71
543.726	5.68
544.071	5.77
544.415	5.76
544.76	5.8
545.105	5.78
545.449	5.84
545.794	5.87
546.138	5.88
546.483	5.89
546.827	5.94
547.171	5.9
547.516	5.91
547.86	5.94
548.204	5.93
548.548	5.96
548.892	5.77
549.236	5.74
549.58	5.71
549.924	5.9
550.268	6.01
550.612	5.89
550.956	6.03
551.3	6.04
551.643	5.93
551.987	5.98
552.33	6.14
552.674	5.95
553.017	6.03
553.361	6.13
553.704	5.93
554.048	6.03
554.391	6.09
554.734	6
555.077	5.93
555.42	5.9
555.764	6
556.107	5.96
556.45	6
556.793	6.04
557.135	5.99
557.478	5.98
557.821	5.89
558.164	6.11
558.507	6.13
558.849	6.05
559.192	5.87
559.534	6.01
559.877	5.96
560.219	6.2
560.562	5.96
560.904	6.1
561.246	6.06
561.589	5.93
561.931	5.98
562.273	5.85
562.615	5.82
562.957	5.9
563.299	6
563.641	5.78
563.983	5.88
564.325	5.87
564.667	5.76
565.008	5.8
565.35	6
565.692	5.98
566.033	5.83
566.375	6.04
566.716	5.78
567.058	5.99
567.399	5.87
567.741	5.88
568.082	5.8
568.423	5.9
568.764	5.83
569.105	6.04
569.447	5.88
569.788	5.92
570.129	5.79
570.47	5.77
570.811	5.93
571.151	5.56
571.492	6.01
571.833	5.79
572.174	6.06
572.514	5.91
572.855	5.84
573.195	5.93
573.536	6.01
573.876	5.72
574.217	5.7
574.557	5.84
574.898	5.92
575.238	5.73
575.578	5.83
575.918	5.86
576.258	5.86
576.598	5.78
576.938	5.85
577.278	5.88
577.618	5.78
577.958	5.82
578.298	5.91
578.638	5.73
578.977	5.9
579.317	5.72
579.657	5.79
579.996	5.7
580.336	5.78
580.675	5.9
581.014	6.08
581.354	5.84
581.693	5.82
582.032	5.89
582.372	5.9
582.711	6.12
583.05	5.85
583.389	5.77
583.728	5.79
584.067	5.86
584.406	5.91
584.745	5.88
585.083	5.9
585.422	5.95
585.761	5.91
586.1	6.11
586.438	5.8
586.777	5.87
587.115	6.1
587.454	5.78
587.792	5.67
588.13	6
588.469	5.89
588.807	5.89
589.145	5.96
589.483	5.8
589.821	5.64
590.159	5.64
590.497	6.02
590.835	5.86
591.173	5.85
591.511	5.51
591.849	5.6
592.187	5.54
592.524	5.66
592.862	5.75
593.2	5.58
593.537	5.57
593.875	5.86
594.212	5.85
594.55	5.85
594.887	5.62
595.224	5.77
595.561	5.55
595.899	5.44
596.236	5.9
596.573	5.92
596.91	5.84
597.247	5.87
597.584	5.73
597.921	5.75
598.258	5.8
598.594	5.54
598.931	5.56
599.268	5.57
599.604	5.63
599.941	5.81
600.277	5.44
600.614	5.83
600.95	5.62
601.287	5.77
601.623	5.89
601.959	5.89
602.296	5.81
602.632	5.72
602.968	5.71
603.304	5.63
603.64	5.73
603.976	5.66
604.312	5.67
604.648	5.63
604.984	5.79
605.319	5.9
605.655	5.88
605.991	5.8
606.326	5.83
606.662	5.65
606.998	5.62
607.333	5.64
607.668	5.73
608.004	5.61
608.339	5.72
608.674	5.38
609.01	5.64
609.345	5.86
609.68	5.61
610.015	5.86
610.35	5.79
610.685	5.8
611.02	5.83
611.355	5.95
611.689	5.6
612.024	5.77
612.359	5.67
612.694	5.92
613.028	5.57
613.363	5.59
613.697	5.71
614.032	5.73
614.366	5.44
614.7	5.73
615.035	5.6
615.369	5.26
615.703	5.95
616.037	5.52
616.371	5.4
616.705	5.61
617.039	5.83
617.373	5.61
617.707	5.62
618.041	5.85
618.375	5.55
618.709	5.94
619.042	5.71
619.376	5.56
619.71	5.61
620.043	5.73
620.377	5.67
620.71	5.74
621.043	5.77
621.377	5.89
621.71	5.85
622.043	5.15
622.376	5.76
622.709	5.63
623.043	5.83
623.376	5.74
623.709	5.57
624.041	5.83
624.374	5.55
624.707	5.43
625.04	5.47
625.373	5.86
625.705	6.04
626.038	5.21
626.37	5.78
626.703	5.51
627.035	5.75
627.368	6.11
627.7	6.02
628.032	5.79
628.365	5.36
628.697	5.64
629.029	5.51
629.361	5.5
629.693	5.28
630.025	5.56
630.357	5.36
630.689	5.58
631.021	5.79
631.353	5.57
631.684	5.73
632.016	5.61
632.348	5.41
632.679	5.8
633.011	5.67
633.342	5.3
633.674	5.69
634.005	5.62
634.336	5.36
634.668	5.14
634.999	5.64
635.33	5.77
635.661	5.66
635.992	5.29
636.323	5.93
636.654	5.4
636.985	5.5
637.316	5.99
637.647	5.87
637.977	5.71
638.308	5.66
638.639	5.41
638.969	5.78
639.3	5.49
639.63	5.41
639.961	5.84
640.291	5.41
640.622	5.56
640.952	5.07
641.282	5.51
641.612	5.49
641.943	5.81
642.273	6.3
642.603	5.65
642.933	5.03
643.263	6.03
643.592	5.47
643.922	5.88
644.252	5.5
644.582	5.49
644.911	5.5
645.241	5.8
645.571	5.51
645.9	5.81
646.23	5.55
646.559	5.54
646.888	5.62
647.218	5.37
647.547	5.19
647.876	5.63
648.205	5.93
648.534	5.7
648.863	5.27
649.192	5.67
649.521	5.7
649.85	5.52
650.179	5.72
650.508	5.8
650.837	5.4
651.165	5.84
651.494	5.56
651.822	5.58
652.151	5.36
652.479	6.27
652.808	5.63
653.136	5.33
653.465	5.79
653.793	5.81
654.121	5.68
654.449	5.62
654.777	5.74
655.105	5.64
655.433	5.62
655.761	5.34
656.089	5.53
656.417	4.83
656.745	6
657.073	5.37
657.4	5.81
657.728	6.13
658.056	5.42
658.383	5.64
658.711	6.15
659.038	5.66
659.365	5.94
659.693	5.47
660.02	5.61
660.347	5.87
660.674	5.6
661.001	5.92
661.329	5.53
661.656	5.59
661.982	5.52
662.309	5.78
662.636	5.56
662.963	5.79
663.29	5.77
663.616	5.32
663.943	5.85
664.27	5.89
664.596	5.36
664.923	5.95
665.249	5.72
665.576	5.51
665.902	5.65
666.228	5.49
666.554	5.97
666.881	5.37
667.207	5.42
667.533	5.88
667.859	4.71
668.185	5.63
668.511	5.67
668.837	5.36
669.162	5.79
669.488	5.13
669.814	6.03
670.139	5.77
670.465	6.05
670.791	5.38
671.116	5.77
671.442	6.26
671.767	5.19
672.092	5.86
672.418	5.34
672.743	5.8
673.068	5.46
673.393	5.92
673.718	4.77
674.043	5.84
674.368	5.28
674.693	6.31
675.018	6.4
675.343	5.44
675.667	6.44
675.992	6.18
676.317	5.34
676.641	6.46
676.966	5.76
677.29	5.2
677.615	5.97
677.939	6
678.264	5.08
678.588	6.03
678.912	5.9
679.236	5.33
679.56	5.74
679.885	6.11
680.209	5.81
680.532	6.05
680.856	4.91
681.18	5.53
681.504	5.41
681.828	5.49
682.152	5.59
682.475	5.54
682.799	5.46
683.122	5.61
683.446	5.38
683.769	5.86
684.093	6.29
684.416	6.26
684.739	5.4
685.062	6.19
685.386	5.19
685.709	5.66
686.032	5.78
686.355	5.49
686.678	5.8
687.001	5.59
687.324	5.43
687.646	5.94
687.969	5.86
688.292	5.91
688.614	5.86
688.937	5.62
689.26	6.14
689.582	5.32
689.904	5.83
690.227	6.17
690.549	5.72
690.871	6.24
691.194	5.52
691.516	5.5
691.838	5.58
692.16	6
692.482	5.8
692.804	5.45
693.126	5.04
