Data from 0140_forehead_Reflection__2__175.txt Node

Date: Mon Aug 28 20:12:03 CDT 2023
User: ToomeyLab
Spectrometer: FLMS14357
Trigger mode: 0
Integration Time (sec): 1.000000E-2
Scans to average: 100
Electric dark correction enabled: true
Nonlinearity correction enabled: false
Boxcar width: 0
XAxis mode: Wavelengths
Number of Pixels in Spectrum: 2048
>>>>>Begin Spectral Data<<<<<
189.047	-166.79
189.435	-166.79
189.823	-166.79
190.211	7.16
190.599	59.38
190.987	53.15
191.375	81.94
191.763	81.23
192.151	-30.17
192.538	11.66
192.926	174.8
193.314	55.56
193.702	2043.78
194.089	29.96
194.477	-10.36
194.864	-6.42
195.252	-35.74
195.639	386.25
196.027	175.16
196.414	177.42
196.801	105.95
197.189	93.54
197.576	38.98
197.963	1451.82
198.351	12.39
198.738	85.09
199.125	50.72
199.512	18.46
199.899	15.02
200.286	21.28
200.673	6.25
201.06	-3.8
201.447	-43.54
201.833	-16.65
202.22	5.68
202.607	-11.28
202.994	57.09
203.38	16.9
203.767	-23.86
204.154	51.46
204.54	-31.66
204.927	7.32
205.313	17.57
205.699	-11.17
206.086	59.93
206.472	33.05
206.858	-9.03
207.245	21.18
207.631	25.74
208.017	22.69
208.403	74.38
208.789	33.47
209.175	29.6
209.561	-18.09
209.947	1.14
210.333	32.53
210.719	17.63
211.105	44.55
211.491	27.26
211.876	25.01
212.262	5.16
212.648	19.61
213.034	-10.64
213.419	2.6
213.805	38.76
214.19	5.31
214.576	22.44
214.961	-13.4
215.346	-2.94
215.732	34.88
216.117	-13.27
216.502	31.21
216.888	42.85
217.273	45.91
217.658	44.78
218.043	17.31
218.428	42.76
218.813	12.12
219.198	2.81
219.583	42.94
219.968	22.1
220.353	-0.44
220.738	16.8
221.122	36.45
221.507	14.66
221.892	12.71
222.276	5.2
222.661	3.13
223.046	-3.35
223.43	9.92
223.815	19.23
224.199	17.69
224.583	13.43
224.968	14.78
225.352	14.22
225.736	12.65
226.121	8.93
226.505	18.38
226.889	13.6
227.273	19.68
227.657	11.61
228.041	10.75
228.425	9.72
228.809	7.46
229.193	10.54
229.577	6.29
229.961	6.88
230.344	6.42
230.728	7.14
231.112	5.16
231.495	6.84
231.879	6.23
232.263	7.41
232.646	6.75
233.03	7.4
233.413	8.88
233.797	6.61
234.18	4.67
234.563	8.47
234.946	11.62
235.33	5.55
235.713	4.68
236.096	7.09
236.479	6.89
236.862	8.72
237.245	5.6
237.628	7.34
238.011	6.38
238.394	7.7
238.777	9.1
239.16	3.47
239.543	6.35
239.925	8.03
240.308	4.94
240.691	5.45
241.073	4.63
241.456	6.04
241.838	5.99
242.221	6.49
242.603	7.76
242.986	6.02
243.368	5.17
243.75	5.75
244.133	5.71
244.515	5.57
244.897	6.25
245.279	6.03
245.661	6.47
246.043	6.41
246.425	5.8
246.807	7.62
247.189	6.14
247.571	6.45
247.953	6.68
248.335	6.04
248.717	5.91
249.098	5.81
249.48	5.95
249.862	5.76
250.243	5.78
250.625	6.56
251.006	6.16
251.388	6.3
251.769	6.08
252.151	6.42
252.532	5.36
252.913	6.2
253.295	5.63
253.676	5.98
254.057	6.42
254.438	5.61
254.819	5.79
255.2	6.04
255.581	6
255.962	6.53
256.343	6.78
256.724	6.89
257.105	6.66
257.486	5.91
257.867	5.49
258.247	7.3
258.628	6.69
259.009	5.7
259.389	5.52
259.77	6.99
260.15	5.3
260.531	5.66
260.911	5.69
261.292	5.98
261.672	5.7
262.052	5.53
262.432	5.67
262.813	5.71
263.193	5.67
263.573	5.43
263.953	6.16
264.333	5.55
264.713	5.93
265.093	7.18
265.473	6.12
265.853	6.11
266.233	5.64
266.612	6.03
266.992	5.96
267.372	6.15
267.752	6.34
268.131	5.67
268.511	5.4
268.89	5.33
269.27	5.57
269.649	5.62
270.029	6.2
270.408	5.64
270.787	6.05
271.167	5.29
271.546	5.17
271.925	5.58
272.304	5.34
272.683	6.09
273.062	5.4
273.441	5.69
273.82	5.52
274.199	5.17
274.578	5.21
274.957	5.87
275.336	6.31
275.715	6.03
276.093	5.2
276.472	5.5
276.851	5.8
277.229	6.16
277.608	5.68
277.986	5.89
278.365	5.77
278.743	5.64
279.122	6.38
279.5	5.16
279.878	4.96
280.257	5.66
280.635	6.1
281.013	5.46
281.391	5.71
281.769	5.81
282.147	5.72
282.525	6
282.903	5.9
283.281	5.58
283.659	6.46
284.037	6.23
284.415	5.58
284.792	6.35
285.17	5.48
285.548	5.39
285.925	5.69
286.303	5.62
286.68	5.83
287.058	6
287.435	5.41
287.813	5.46
288.19	5.99
288.567	5.71
288.945	6.19
289.322	5.88
289.699	5.82
290.076	6.24
290.453	5.95
290.83	5.7
291.207	6.05
291.584	6.06
291.961	6.42
292.338	6.25
292.715	6.18
293.092	6.34
293.469	6.24
293.845	6.14
294.222	6.37
294.599	6.38
294.975	6.53
295.352	6.45
295.728	6.56
296.105	6.64
296.481	6.41
296.858	6.46
297.234	6.85
297.61	6.88
297.986	6.54
298.363	6.88
298.739	6.79
299.115	6.78
299.491	6.73
299.867	6.85
300.243	7.15
300.619	6.82
300.995	7.27
301.371	6.99
301.746	7.26
302.122	7.32
302.498	7.34
302.874	7.61
303.249	7.31
303.625	7.46
304	6.95
304.376	7.34
304.751	6.91
305.127	7.54
305.502	7.44
305.878	7.34
306.253	7.45
306.628	7.36
307.003	7.4
307.378	7.87
307.754	8.07
308.129	7.63
308.504	8.35
308.879	7.92
309.254	8.61
309.629	7.68
310.003	7.88
310.378	7.57
310.753	8.18
311.128	8.52
311.502	8.56
311.877	8.34
312.252	8.61
312.626	8.25
313.001	8.51
313.375	8.56
313.75	8.65
314.124	8.91
314.498	9.17
314.873	9.25
315.247	9.12
315.621	8.94
315.995	9.53
316.369	9.25
316.743	8.53
317.117	8.99
317.491	8.84
317.865	8.63
318.239	9.1
318.613	9.5
318.987	8.74
319.361	9.23
319.734	9.41
320.108	9.37
320.482	9.86
320.855	9.36
321.229	9.81
321.602	9.7
321.976	10.13
322.349	9.6
322.723	9.57
323.096	9.91
323.469	9.95
323.843	10.05
324.216	10.54
324.589	10.84
324.962	10.71
325.335	10.77
325.708	10.21
326.081	10.25
326.454	10.46
326.827	10.54
327.2	10.33
327.573	10.2
327.945	10.87
328.318	10.8
328.691	10.47
329.063	10.32
329.436	10.48
329.809	10.49
330.181	10.79
330.553	11.09
330.926	11.21
331.298	11.91
331.671	10.92
332.043	11.16
332.415	11.89
332.787	11.41
333.159	11.54
333.532	11.39
333.904	11.18
334.276	11.55
334.648	12.03
335.02	12
335.391	11.61
335.763	11.63
336.135	11.72
336.507	11.58
336.879	11.58
337.25	12.19
337.622	12
337.993	11.47
338.365	11.85
338.736	12.7
339.108	11.01
339.479	11.51
339.851	12.36
340.222	12.17
340.593	11.82
340.964	12.06
341.336	11.94
341.707	11.93
342.078	12.26
342.449	12.74
342.82	12.68
343.191	12.63
343.562	12.22
343.933	12.11
344.303	12.27
344.674	13.01
345.045	12.95
345.416	13.27
345.786	13.21
346.157	13.26
346.527	12.59
346.898	12.72
347.268	12.97
347.639	12.82
348.009	12.9
348.38	13.18
348.75	13.56
349.12	13.95
349.49	13.22
349.861	13.6
350.231	13.26
350.601	13.98
350.971	14.12
351.341	13.78
351.711	13.73
352.081	13.77
352.45	13.85
352.82	13.58
353.19	14.33
353.56	14.17
353.929	14.15
354.299	14.04
354.669	14.18
355.038	14.3
355.408	14.24
355.777	14.53
356.147	14.21
356.516	14.65
356.885	14.63
357.254	14.31
357.624	14.34
357.993	14.87
358.362	14.33
358.731	14.94
359.1	14.89
359.469	14.91
359.838	14.9
360.207	15.06
360.576	15.18
360.945	14.88
361.314	15.09
361.682	15.16
362.051	15.33
362.42	14.87
362.788	15.37
363.157	15.36
363.525	15.15
363.894	15.47
364.262	15.27
364.631	15.21
364.999	15.56
365.367	15.28
365.735	15.59
366.104	15.68
366.472	15.98
366.84	15.72
367.208	15.93
367.576	15.71
367.944	16.23
368.312	16.22
368.68	16.13
369.048	16.35
369.416	16.26
369.783	16.35
370.151	16.47
370.519	16.78
370.886	16.36
371.254	16.43
371.621	16.24
371.989	16.77
372.356	16.56
372.724	16.88
373.091	16.71
373.458	16.68
373.826	17.23
374.193	16.68
374.56	17.03
374.927	16.89
375.294	17.06
375.661	17.38
376.028	17.11
376.395	17
376.762	17.8
377.129	17.35
377.496	17.24
377.863	17.59
378.229	17.26
378.596	17.56
378.963	17.9
379.329	17.71
379.696	17.7
380.062	17.69
380.429	17.74
380.795	18.04
381.161	17.87
381.528	18.61
381.894	17.89
382.26	18.32
382.626	18.36
382.993	18.47
383.359	18.27
383.725	18.68
384.091	18.67
384.457	18.54
384.823	18.31
385.188	18.26
385.554	18.42
385.92	18.72
386.286	18.7
386.651	18.69
387.017	18.97
387.383	19.18
387.748	19.08
388.114	18.84
388.479	18.94
388.845	19.01
389.21	18.96
389.575	19.22
389.94	19.13
390.306	19.34
390.671	19.68
391.036	19.45
391.401	19.61
391.766	19.83
392.131	19.48
392.496	19.46
392.861	19.55
393.226	19.94
393.591	19.73
393.956	19.93
394.32	19.79
394.685	19.97
395.05	20.07
395.414	19.99
395.779	20.2
396.143	20
396.508	19.86
396.872	20.32
397.236	20.27
397.601	20.52
397.965	20.56
398.329	20.7
398.694	20.62
399.058	20.59
399.422	20.65
399.786	21.05
400.15	20.92
400.514	20.98
400.878	21.12
401.242	21.03
401.605	20.96
401.969	20.94
402.333	20.79
402.697	21.22
403.06	21.08
403.424	21.51
403.787	21.16
404.151	21.34
404.514	21.33
404.878	21.54
405.241	21.66
405.604	21.69
405.968	21.41
406.331	21.63
406.694	21.9
407.057	22.01
407.42	21.73
407.783	21.66
408.146	21.86
408.509	22.4
408.872	21.85
409.235	22.02
409.598	22.22
409.961	22.24
410.323	22.5
410.686	22.43
411.049	22.74
411.411	22.43
411.774	22.54
412.136	22.53
412.499	22.44
412.861	22.68
413.223	22.77
413.586	22.56
413.948	22.8
414.31	22.79
414.672	22.63
415.035	23.18
415.397	23.05
415.759	23.12
416.121	23.19
416.483	23.28
416.845	23.4
417.206	23.43
417.568	23.4
417.93	23.2
418.292	23.58
418.653	23.31
419.015	23.49
419.377	23.28
419.738	23.59
420.1	23.33
420.461	23.53
420.822	23.34
421.184	23.44
421.545	23.5
421.906	23.58
422.267	23.57
422.629	23.48
422.99	23.4
423.351	23.68
423.712	23.46
424.073	23.66
424.434	23.93
424.795	24.02
425.155	23.93
425.516	24
425.877	24.02
426.238	23.98
426.598	23.93
426.959	24.2
427.32	24.27
427.68	24.42
428.041	24.45
428.401	24.78
428.761	24.8
429.122	24.81
429.482	24.85
429.842	25.01
430.202	25.02
430.563	25.13
430.923	25.4
431.283	25.08
431.643	25.07
432.003	25.28
432.363	25.39
432.722	25.44
433.082	25.57
433.442	25.52
433.802	25.42
434.161	25.83
434.521	25.68
434.881	25.55
435.24	25.62
435.6	25.6
435.959	25.81
436.319	25.62
436.678	25.82
437.037	25.83
437.396	26.15
437.756	26.03
438.115	26.42
438.474	26.42
438.833	26.29
439.192	26.22
439.551	26.18
439.91	26.39
440.269	26.47
440.628	26.38
440.987	26.37
441.345	26.4
441.704	26.6
442.063	26.47
442.421	26.38
442.78	26.55
443.138	26.44
443.497	26.44
443.855	26.76
444.214	26.71
444.572	26.95
444.93	26.97
445.288	27.07
445.647	27.16
446.005	27.39
446.363	27.41
446.721	27.12
447.079	27.31
447.437	27.07
447.795	27.1
448.153	27.07
448.51	27.09
448.868	27.08
449.226	27.21
449.584	27.28
449.941	27.49
450.299	27.75
450.656	27.63
451.014	27.71
451.371	27.9
451.729	27.85
452.086	27.8
452.443	28.28
452.801	28.12
453.158	28.32
453.515	28.39
453.872	28.26
454.229	28.42
454.586	28.57
454.943	28.51
455.3	28.7
455.657	28.5
456.014	28.71
456.371	28.69
456.727	28.74
457.084	28.59
457.441	28.85
457.797	29.02
458.154	29.07
458.51	29.01
458.867	29.07
459.223	29.18
459.58	29.27
459.936	29.27
460.292	29.07
460.648	29.16
461.005	29.08
461.361	29.18
461.717	28.82
462.073	28.78
462.429	28.96
462.785	29.12
463.141	29.33
463.496	29.45
463.852	29.74
464.208	29.82
464.564	29.85
464.919	29.98
465.275	30.2
465.631	30.06
465.986	30.37
466.342	30.3
466.697	29.8
467.052	30.3
467.408	30.4
467.763	30.53
468.118	30.44
468.473	30.42
468.829	30.43
469.184	30.28
469.539	30.46
469.894	30.53
470.249	30.64
470.603	30.49
470.958	30.79
471.313	30.75
471.668	30.71
472.023	30.92
472.377	30.86
472.732	31
473.086	30.88
473.441	31.14
473.795	31.15
474.15	31.42
474.504	31.35
474.859	31.24
475.213	31.41
475.567	31.37
475.921	31.55
476.275	31.33
476.63	31.73
476.984	31.76
477.338	31.64
477.692	31.8
478.045	31.77
478.399	31.72
478.753	31.7
479.107	31.59
479.461	31.87
479.814	31.91
480.168	31.95
480.521	32.06
480.875	31.97
481.228	31.91
481.582	32.06
481.935	32.08
482.289	32.29
482.642	32.35
482.995	32.2
483.348	32.2
483.701	31.98
484.055	32.03
484.408	31.98
484.761	31.89
485.114	31.53
485.466	31.42
485.819	31.25
486.172	31.29
486.525	31.48
486.878	31.59
487.23	31.8
487.583	32.07
487.936	32.26
488.288	32.32
488.641	32.35
488.993	32.15
489.345	31.96
489.698	32.05
490.05	31.94
490.402	32.01
490.754	32.25
491.107	32.45
491.459	32.71
491.811	32.89
492.163	33.11
492.515	33.16
492.866	33.13
493.218	32.82
493.57	32.61
493.922	32.42
494.274	32.72
494.625	32.93
494.977	33.33
495.328	33.39
495.68	33.54
496.031	33.87
496.383	34.12
496.734	34.07
497.086	34.28
497.437	34.28
497.788	34.35
498.139	34.35
498.49	34.27
498.842	34.15
499.193	34.07
499.544	34.25
499.894	34.27
500.245	34.39
500.596	34.51
500.947	34.61
501.298	34.63
501.648	34.57
501.999	34.87
502.35	34.95
502.7	34.75
503.051	35.11
503.401	34.87
503.752	35.19
504.102	35.33
504.452	35.12
504.803	35.29
505.153	35.33
505.503	35.24
505.853	35.25
506.203	35.47
506.553	35.53
506.903	35.55
507.253	35.6
507.603	35.51
507.953	35.61
508.303	35.64
508.652	35.82
509.002	35.75
509.352	35.75
509.701	35.67
510.051	35.79
510.4	35.79
510.75	35.75
511.099	35.8
511.449	35.86
511.798	35.73
512.147	35.95
512.496	35.95
512.846	36.06
513.195	36.18
513.544	36.34
513.893	36.13
514.242	36.25
514.591	36.22
514.939	36.27
515.288	36.38
515.637	36.52
515.986	36.72
516.334	36.79
516.683	36.64
517.032	36.91
517.38	36.84
517.729	37.07
518.077	36.93
518.426	36.95
518.774	37
519.122	36.92
519.47	36.92
519.819	36.8
520.167	36.74
520.515	36.65
520.863	36.54
521.211	36.75
521.559	36.81
521.907	36.98
522.255	37.08
522.602	37.28
522.95	37.56
523.298	37.35
523.645	37.65
523.993	37.67
524.341	37.65
524.688	37.7
525.036	37.77
525.383	38.01
525.73	38.06
526.078	38
526.425	37.6
526.772	37.94
527.119	37.77
527.466	37.56
527.814	37.39
528.161	37.46
528.508	37.46
528.854	37.66
529.201	37.76
529.548	37.77
529.895	37.64
530.242	37.29
530.588	37.09
530.935	37.27
531.282	37.44
531.628	37.43
531.975	37.6
532.321	37.77
532.667	38.01
533.014	38.32
533.36	38.29
533.706	38.5
534.052	38.49
534.399	38.27
534.745	38.23
535.091	38.32
535.437	37.98
535.783	38.15
536.129	38.37
536.474	38.63
536.82	38.75
537.166	38.92
537.512	39.15
537.857	39.21
538.203	39.07
538.549	38.97
538.894	38.85
539.239	38.92
539.585	39.1
539.93	39.21
540.276	39.35
540.621	39.7
540.966	39.68
541.311	39.85
541.656	39.91
542.001	39.9
542.346	39.79
542.691	39.42
543.036	39.16
543.381	38.84
543.726	38.96
544.071	39.14
544.415	39.4
544.76	39.47
545.105	39.71
545.449	39.65
545.794	39.83
546.138	39.88
546.483	40.13
546.827	40.4
547.171	40.38
547.516	40.5
547.86	40.42
548.204	40.43
548.548	40.58
548.892	40.39
549.236	40.28
549.58	40.5
549.924	40.63
550.268	41.04
550.612	41.32
550.956	41.21
551.3	41.39
551.643	41.7
551.987	41.5
552.33	41.85
552.674	41.3
553.017	41.42
553.361	41.69
553.704	41.47
554.048	41.69
554.391	41.98
554.734	41.58
555.077	41.81
555.42	41.77
555.764	41.82
556.107	41.74
556.45	41.95
556.793	41.96
557.135	42.22
557.478	42.51
557.821	42.05
558.164	42.3
558.507	42.2
558.849	42.6
559.192	42.37
559.534	42.26
559.877	42.66
560.219	42.54
560.562	42.91
560.904	42.62
561.246	42.61
561.589	42.81
561.931	42.79
562.273	42.72
562.615	42.88
562.957	42.81
563.299	42.71
563.641	42.99
563.983	42.87
564.325	42.98
564.667	42.93
565.008	42.93
565.35	43.33
565.692	43.28
566.033	43.28
566.375	43.27
566.716	43.42
567.058	43.18
567.399	43.31
567.741	43.29
568.082	43.22
568.423	43.25
568.764	43.4
569.105	43.26
569.447	43.44
569.788	43.29
570.129	43.72
570.47	43.68
570.811	43.77
571.151	43.67
571.492	43.66
571.833	43.77
572.174	43.97
572.514	43.85
572.855	44.05
573.195	44.19
573.536	43.74
573.876	43.63
574.217	43.91
574.557	43.95
574.898	44.06
575.238	44.15
575.578	44.29
575.918	44.19
576.258	44.34
576.598	44.3
576.938	44.36
577.278	44.3
577.618	44.16
577.958	44.49
578.298	44.26
578.638	44.65
578.977	44.8
579.317	44.52
579.657	45.07
579.996	44.74
580.336	44.76
580.675	45.24
581.014	45.37
581.354	45.32
581.693	45.15
582.032	45.61
582.372	45.25
582.711	45.51
583.05	45.4
583.389	45.67
583.728	45.49
584.067	45.57
584.406	45.4
584.745	45.79
585.083	45.35
585.422	45.76
585.761	45.75
586.1	45.78
586.438	45.76
586.777	45.8
587.115	45.91
587.454	46.14
587.792	45.79
588.13	45.8
588.469	46.23
588.807	46.23
589.145	46.29
589.483	46.26
589.821	46.33
590.159	46.41
590.497	46.33
590.835	46.16
591.173	46.33
591.511	46.36
591.849	46.45
592.187	46.21
592.524	46.32
592.862	46.62
593.2	46.23
593.537	46.52
593.875	46.81
594.212	46.72
594.55	46.62
594.887	46.47
595.224	46.8
595.561	46.78
595.899	46.41
596.236	47.05
596.573	47
596.91	46.98
597.247	46.91
597.584	46.85
597.921	47
598.258	47.14
598.594	47.05
598.931	46.8
599.268	46.9
599.604	47.15
599.941	46.83
600.277	46.99
600.614	47.26
600.95	47.47
601.287	47.4
601.623	47.69
601.959	47.95
602.296	47.67
602.632	47.55
602.968	47.69
603.304	47.96
603.64	47.66
603.976	47.88
604.312	47.6
604.648	47.69
604.984	47.48
605.319	47.76
605.655	47.57
605.991	47.49
606.326	47.53
606.662	47.53
606.998	47.64
607.333	47.61
607.668	47.56
608.004	47.92
608.339	47.82
608.674	48.08
609.01	48.26
609.345	48.34
609.68	48.12
610.015	48.23
610.35	48.65
610.685	48.4
611.02	48.88
611.355	48.69
611.689	48.07
612.024	48.25
612.359	48.29
612.694	48.66
613.028	48.2
613.363	48.51
613.697	48.59
614.032	48.82
614.366	48.88
614.7	48.82
615.035	48.85
615.369	49.14
615.703	49.48
616.037	48.89
616.371	49.25
616.705	49.09
617.039	48.93
617.373	49.33
617.707	49.14
618.041	49
618.375	49.25
618.709	49.23
619.042	49.78
619.376	49.5
619.71	49.36
620.043	49.61
620.377	49.42
620.71	49.81
621.043	49.68
621.377	49.69
621.71	49.54
622.043	49.56
622.376	49.59
622.709	49.45
623.043	49.77
623.376	49.41
623.709	49.79
624.041	50.21
624.374	49.78
624.707	49.7
625.04	49.92
625.373	49.71
625.705	50.28
626.038	50.27
626.37	50.25
626.703	50.17
627.035	50.34
627.368	50.71
627.7	50.36
628.032	50.42
628.365	49.78
628.697	50.45
629.029	50.16
629.361	50.12
629.693	50.18
630.025	50.08
630.357	50.78
630.689	50.24
631.021	50.47
631.353	50.71
631.684	50.88
632.016	50.74
632.348	50.51
632.679	50.38
633.011	50.45
633.342	50.58
633.674	50.93
634.005	51.07
634.336	50.97
634.668	50.71
634.999	51.17
635.33	50.69
635.661	51.1
635.992	50.97
636.323	51.38
636.654	51.26
636.985	51.66
637.316	51.22
637.647	50.7
637.977	50.92
638.308	51.32
638.639	50.62
638.969	51.25
639.3	50.97
639.63	51.18
639.961	51.51
640.291	51.55
640.622	51.97
640.952	51.07
641.282	51.11
641.612	51.36
641.943	51.48
642.273	52.29
642.603	51.81
642.933	51.18
643.263	51.59
643.592	51.72
643.922	51.36
644.252	51.63
644.582	51.54
644.911	52.25
645.241	51.85
645.571	51.89
645.9	51.61
646.23	51.64
646.559	52.07
646.888	51.85
647.218	51.39
647.547	51.59
647.876	52.03
648.205	51.56
648.534	52.41
648.863	52.41
649.192	52.09
649.521	52.02
649.85	52.27
650.179	52.39
650.508	51.8
650.837	52.12
651.165	52.41
651.494	52.8
651.822	52.46
652.151	52.63
652.479	52.17
652.808	52.47
653.136	52.31
653.465	52.51
653.793	52.48
654.121	52.91
654.449	52.55
654.777	52.48
655.105	52.92
655.433	53.07
655.761	52.78
656.089	52.53
656.417	52.07
656.745	52.23
657.073	52.83
657.4	52.78
657.728	53.94
658.056	52.67
658.383	52.99
658.711	52.43
659.038	52.79
659.365	53.2
659.693	52.49
660.02	53.59
660.347	52.89
660.674	52.97
661.001	53.18
661.329	53.35
661.656	52.98
661.982	53.13
662.309	53.23
662.636	53.47
662.963	53.75
663.29	53.97
663.616	53.02
663.943	52.86
664.27	53.71
664.596	53.65
664.923	53.7
665.249	54.09
665.576	53.56
665.902	53.05
666.228	53.22
666.554	53.25
666.881	54.3
667.207	54.35
667.533	53.28
667.859	53.72
668.185	53.21
668.511	54.23
668.837	53.64
669.162	54.35
669.488	53.72
