Data from 0140_crown_Reflection__0__178.txt Node

Date: Mon Aug 28 20:13:21 CDT 2023
User: ToomeyLab
Spectrometer: FLMS14357
Trigger mode: 0
Integration Time (sec): 1.000000E-2
Scans to average: 100
Electric dark correction enabled: true
Nonlinearity correction enabled: false
Boxcar width: 0
XAxis mode: Wavelengths
Number of Pixels in Spectrum: 2048
>>>>>Begin Spectral Data<<<<<
189.047	-193.15
189.435	-193.15
189.823	-193.15
190.211	-191.27
190.599	82.22
190.987	58.34
191.375	71.23
191.763	52.86
192.151	-11.02
192.538	27.24
192.926	273.83
193.314	-167.9
193.702	1483.24
194.089	45.77
194.477	-276.48
194.864	153
195.252	-564.65
195.639	84.84
196.027	207.38
196.414	110.25
196.801	123.83
197.189	17.73
197.576	61.26
197.963	659.85
198.351	-7.52
198.738	20.98
199.125	-22.13
199.512	6.7
199.899	-24.84
200.286	8.04
200.673	-8.56
201.06	-55.62
201.447	-60.25
201.833	-4.59
202.22	34.99
202.607	6.44
202.994	-29.16
203.38	0.92
203.767	-17.5
204.154	9.35
204.54	-17.99
204.927	4.27
205.313	36.67
205.699	-0.74
206.086	18.03
206.472	-23.13
206.858	-21.22
207.245	56.21
207.631	45.84
208.017	-6.89
208.403	2.03
208.789	-39.48
209.175	-44.99
209.561	-39.62
209.947	4.38
210.333	6.48
210.719	6.7
211.105	25.59
211.491	-8.59
211.876	21.5
212.262	21.79
212.648	36.19
213.034	-7.76
213.419	-17.35
213.805	25.54
214.19	-7.39
214.576	7.91
214.961	-1.68
215.346	-16.18
215.732	-2.48
216.117	-6.23
216.502	2.27
216.888	2.01
217.273	-19.35
217.658	12.93
218.043	7.65
218.428	6.75
218.813	11.62
219.198	11.44
219.583	-11.57
219.968	17.37
220.353	-2.5
220.738	13.56
221.122	12.57
221.507	15.27
221.892	9
222.276	-5.52
222.661	13.17
223.046	2.26
223.43	18.46
223.815	21.07
224.199	17.82
224.583	18.05
224.968	23.88
225.352	15.37
225.736	19.03
226.121	17.75
226.505	9.28
226.889	21.02
227.273	19.5
227.657	12.68
228.041	21.08
228.425	12.48
228.809	12.09
229.193	16.45
229.577	15.97
229.961	14.04
230.344	16.45
230.728	14.85
231.112	14.38
231.495	14.91
231.879	15.36
232.263	14.37
232.646	13.78
233.03	16
233.413	16.91
233.797	14.16
234.18	13.3
234.563	14.32
234.946	17.52
235.33	14.44
235.713	11.37
236.096	14.97
236.479	15.24
236.862	16.25
237.245	11.35
237.628	14.15
238.011	16.18
238.394	14.68
238.777	14.71
239.16	14.19
239.543	12.48
239.925	15.68
240.308	13.85
240.691	12.95
241.073	12.1
241.456	12.74
241.838	13.12
242.221	15.31
242.603	15.06
242.986	14.85
243.368	14.39
243.75	13.79
244.133	13.72
244.515	13.42
244.897	14.13
245.279	13.58
245.661	13.44
246.043	12.91
246.425	13
246.807	13.76
247.189	13.08
247.571	13.14
247.953	13.77
248.335	13.19
248.717	12.75
249.098	12.88
249.48	12.88
249.862	12.94
250.243	12.32
250.625	13.01
251.006	12.66
251.388	13.26
251.769	13.02
252.151	11.69
252.532	11.52
252.913	12.91
253.295	11.41
253.676	13.54
254.057	12.54
254.438	11.41
254.819	11.78
255.2	12.62
255.581	12.72
255.962	11.6
256.343	13.02
256.724	11.22
257.105	11.2
257.486	12.09
257.867	12.59
258.247	11.72
258.628	12.08
259.009	10.92
259.389	11.19
259.77	11.23
260.15	11.66
260.531	11.64
260.911	11.75
261.292	11.97
261.672	11.45
262.052	11.32
262.432	11.43
262.813	11.29
263.193	10.67
263.573	10.9
263.953	11.04
264.333	11.09
264.713	11.48
265.093	11.54
265.473	10.84
265.853	10.07
266.233	10.17
266.612	10.51
266.992	10.35
267.372	10.79
267.752	11.55
268.131	10.58
268.511	10.36
268.89	11.11
269.27	10.94
269.649	10.88
270.029	10.77
270.408	11.04
270.787	11.35
271.167	10.84
271.546	11.34
271.925	10.54
272.304	10.61
272.683	11.09
273.062	10.53
273.441	10.65
273.82	9.92
274.199	9.81
274.578	10.45
274.957	10.49
275.336	10.06
275.715	10.66
276.093	9.56
276.472	9.87
276.851	10.71
277.229	10.8
277.608	10
277.986	9.92
278.365	10
278.743	10.71
279.122	10.21
279.5	9.67
279.878	9.51
280.257	9.72
280.635	9.74
281.013	9.99
281.391	9.81
281.769	9.61
282.147	9.33
282.525	9.75
282.903	10.14
283.281	9.94
283.659	10.01
284.037	10.15
284.415	9.6
284.792	10.08
285.17	9.3
285.548	9.49
285.925	10.2
286.303	9.94
286.68	9.61
287.058	10.02
287.435	9.27
287.813	9.4
288.19	10.05
288.567	9.56
288.945	9.44
289.322	9.67
289.699	10.04
290.076	9.64
290.453	9.44
290.83	9.04
291.207	9.5
291.584	9.34
291.961	9.43
292.338	9.32
292.715	9.39
293.092	9.55
293.469	9.12
293.845	9.08
294.222	8.87
294.599	9.22
294.975	9.56
295.352	8.95
295.728	9.04
296.105	9.32
296.481	9.29
296.858	9.06
297.234	9.01
297.61	9.48
297.986	8.84
298.363	9.01
298.739	8.91
299.115	8.64
299.491	9.34
299.867	8.72
300.243	9.17
300.619	8.65
300.995	9.06
301.371	8.42
301.746	8.71
302.122	8.25
302.498	8.59
302.874	9.24
303.249	8.65
303.625	8.25
304	8.43
304.376	8.73
304.751	8.34
305.127	8.69
305.502	8.21
305.878	8.94
306.253	8.32
306.628	8.79
307.003	8.25
307.378	8.59
307.754	9
308.129	7.98
308.504	9.33
308.879	8.51
309.254	8.54
309.629	8.15
310.003	8.16
310.378	8.04
310.753	8.22
311.128	8.21
311.502	8.5
311.877	8.7
312.252	8.57
312.626	8.57
313.001	8.48
313.375	8.5
313.75	8.43
314.124	8.26
314.498	8.5
314.873	8.69
315.247	8.45
315.621	7.83
315.995	9.06
316.369	8.65
316.743	7.82
317.117	8.36
317.491	7.64
317.865	7.99
318.239	7.94
318.613	8.05
318.987	8.38
319.361	8.52
319.734	8.15
320.108	7.97
320.482	9.16
320.855	8.21
321.229	8.48
321.602	8.24
321.976	7.97
322.349	8.6
322.723	8.4
323.096	8.4
323.469	7.57
323.843	7.83
324.216	9.17
324.589	8.89
324.962	7.93
325.335	8.43
325.708	7.97
326.081	8.13
326.454	8.47
326.827	8
327.2	7.56
327.573	8.19
327.945	8.5
328.318	8.56
328.691	7.89
329.063	7.68
329.436	7.63
329.809	8.24
330.181	7.92
330.553	8.06
330.926	7.86
331.298	8.25
331.671	7.75
332.043	8.13
332.415	8.85
332.787	8.41
333.159	7.68
333.532	8.73
333.904	8.04
334.276	8.27
334.648	8.3
335.02	8.67
335.391	8.18
335.763	8.22
336.135	8.58
336.507	8.24
336.879	7.53
337.25	8.56
337.622	8.52
337.993	8.36
338.365	8.21
338.736	8.86
339.108	7.51
339.479	7.27
339.851	8.04
340.222	8.37
340.593	7.92
340.964	8.48
341.336	7.92
341.707	7.88
342.078	8.08
342.449	8.44
342.82	8.28
343.191	8.52
343.562	8.15
343.933	7.9
344.303	8.4
344.674	9.03
345.045	8.51
345.416	8.32
345.786	9.25
346.157	8.71
346.527	7.98
346.898	8.65
347.268	8.07
347.639	8.21
348.009	8.37
348.38	8.56
348.75	8.8
349.12	8.61
349.49	8.51
349.861	7.47
350.231	8.24
350.601	8.78
350.971	8.31
351.341	8.21
351.711	8.45
352.081	8.93
352.45	8.81
352.82	8.57
353.19	9.29
353.56	8.62
353.929	8.47
354.299	8.46
354.669	8.72
355.038	8.69
355.408	8.7
355.777	8.66
356.147	8.36
356.516	9.08
356.885	8.87
357.254	8.51
357.624	8.88
357.993	8.96
358.362	8.42
358.731	8.8
359.1	8.88
359.469	8.86
359.838	8.83
360.207	9.04
360.576	9.06
360.945	8.87
361.314	8.76
361.682	8.98
362.051	8.93
362.42	8.6
362.788	9
363.157	8.91
363.525	8.86
363.894	9.01
364.262	9.26
364.631	8.7
364.999	8.89
365.367	8.95
365.735	8.84
366.104	8.94
366.472	9.06
366.84	9.11
367.208	8.95
367.576	8.48
367.944	9.18
368.312	9.17
368.68	9.05
369.048	8.99
369.416	9.04
369.783	8.96
370.151	9.32
370.519	9.3
370.886	8.92
371.254	9.06
371.621	9.18
371.989	9.18
372.356	9.18
372.724	9.71
373.091	9.54
373.458	9.13
373.826	9.57
374.193	9.15
374.56	9.18
374.927	9.1
375.294	9.3
375.661	9.37
376.028	9.15
376.395	8.98
376.762	9.7
377.129	9.25
377.496	8.99
377.863	9.62
378.229	8.93
378.596	9.73
378.963	9.8
379.329	9.54
379.696	9.52
380.062	9.17
380.429	9.13
380.795	9.32
381.161	9.35
381.528	9.94
381.894	9.35
382.26	9.46
382.626	9.62
382.993	9.61
383.359	9.65
383.725	9.55
384.091	9.56
384.457	9.47
384.823	9.47
385.188	9.61
385.554	9.9
385.92	9.75
386.286	10.02
386.651	9.64
387.017	9.64
387.383	9.86
387.748	9.58
388.114	9.54
388.479	9.4
388.845	9.67
389.21	9.53
389.575	9.82
389.94	9.45
390.306	9.79
390.671	9.63
391.036	9.81
391.401	9.76
391.766	9.81
392.131	10.01
392.496	9.53
392.861	9.74
393.226	9.62
393.591	9.51
393.956	10.04
394.32	9.72
394.685	9.8
395.05	10.15
395.414	9.75
395.779	9.79
396.143	9.64
396.508	9.72
396.872	9.91
397.236	9.85
397.601	9.98
397.965	9.83
398.329	9.77
398.694	9.91
399.058	9.78
399.422	10.13
399.786	10.07
400.15	10.14
400.514	9.93
400.878	10.07
401.242	10.04
401.605	9.83
401.969	9.73
402.333	9.91
402.697	9.72
403.06	10.01
403.424	9.87
403.787	9.95
404.151	9.97
404.514	9.94
404.878	9.93
405.241	10.23
405.604	10.38
405.968	9.96
406.331	10.24
406.694	10.1
407.057	10.06
407.42	10
407.783	9.77
408.146	9.95
408.509	10.29
408.872	10.03
409.235	10.22
409.598	10.06
409.961	9.87
410.323	10.27
410.686	9.96
411.049	10.17
411.411	10.27
411.774	10.49
412.136	10.3
412.499	10.28
412.861	10.08
413.223	10.04
413.586	10.04
413.948	10.2
414.31	10.1
414.672	10.1
415.035	10.22
415.397	10.11
415.759	10.32
416.121	10.26
416.483	10.37
416.845	10.53
417.206	10.43
417.568	10.25
417.93	10.2
418.292	10.39
418.653	10.26
419.015	10.29
419.377	10.42
419.738	10.37
420.1	10.35
420.461	10.53
420.822	10.3
421.184	10.4
421.545	10.27
421.906	10.21
422.267	10.31
422.629	10.13
422.99	10.21
423.351	10.23
423.712	10.08
424.073	10.21
424.434	10.24
424.795	10.18
425.155	10.15
425.516	10.2
425.877	10.14
426.238	10.2
426.598	10.17
426.959	10.13
427.32	10.21
427.68	10.33
428.041	10.24
428.401	10.32
428.761	10.28
429.122	10.21
429.482	10.32
429.842	10.38
430.202	10.35
430.563	10.45
430.923	10.6
431.283	10.41
431.643	10.27
432.003	10.4
432.363	10.28
432.722	10.41
433.082	10.53
433.442	10.46
433.802	10.5
434.161	10.45
434.521	10.4
434.881	10.55
435.24	10.5
435.6	10.53
435.959	10.55
436.319	10.56
436.678	10.45
437.037	10.39
437.396	10.43
437.756	10.34
438.115	10.59
438.474	10.65
438.833	10.45
439.192	10.57
439.551	10.58
439.91	10.55
440.269	10.6
440.628	10.42
440.987	10.63
441.345	10.5
441.704	10.5
442.063	10.58
442.421	10.44
442.78	10.53
443.138	10.55
443.497	10.42
443.855	10.38
444.214	10.39
444.572	10.46
444.93	10.51
445.288	10.41
445.647	10.62
446.005	10.56
446.363	10.7
446.721	10.58
447.079	10.56
447.437	10.42
447.795	10.52
448.153	10.57
448.51	10.57
448.868	10.55
449.226	10.37
449.584	10.47
449.941	10.47
450.299	10.57
450.656	10.44
451.014	10.43
451.371	10.46
451.729	10.39
452.086	10.59
452.443	10.6
452.801	10.54
453.158	10.75
453.515	10.81
453.872	10.52
454.229	10.76
454.586	10.8
454.943	10.7
455.3	10.78
455.657	10.73
456.014	10.73
456.371	10.56
456.727	10.74
457.084	10.66
457.441	10.62
457.797	10.61
458.154	10.65
458.51	10.75
458.867	10.57
459.223	10.76
459.58	10.55
459.936	10.64
460.292	10.71
460.648	10.78
461.005	10.68
461.361	10.72
461.717	10.63
462.073	10.55
462.429	10.52
462.785	10.55
463.141	10.55
463.496	10.55
463.852	10.57
464.208	10.51
464.564	10.71
464.919	10.81
465.275	10.76
465.631	10.69
465.986	10.86
466.342	10.8
466.697	10.49
467.052	10.83
467.408	10.75
467.763	10.62
468.118	10.61
468.473	10.69
468.829	10.58
469.184	10.62
469.539	10.68
469.894	10.73
470.249	10.63
470.603	10.55
470.958	10.71
471.313	10.62
471.668	10.56
472.023	10.69
472.377	10.72
472.732	10.73
473.086	10.68
473.441	10.71
473.795	10.79
474.15	10.81
474.504	10.7
474.859	10.65
475.213	10.62
475.567	10.71
475.921	10.85
476.275	10.59
476.63	10.85
476.984	10.75
477.338	10.82
477.692	10.65
478.045	10.76
478.399	10.71
478.753	10.58
479.107	10.6
479.461	10.51
479.814	10.71
480.168	10.82
480.521	10.71
480.875	10.75
481.228	10.64
481.582	10.74
481.935	10.62
482.289	10.67
482.642	10.87
482.995	10.73
483.348	10.69
483.701	10.63
484.055	10.68
484.408	10.49
484.761	10.63
485.114	10.56
485.466	10.52
485.819	10.47
486.172	10.4
486.525	10.34
486.878	10.16
487.23	10.02
487.583	10.08
487.936	10.27
488.288	10.33
488.641	10.44
488.993	10.54
489.345	10.54
489.698	10.59
490.05	10.38
490.402	10.33
490.754	10.33
491.107	10.29
491.459	10.22
491.811	10.35
492.163	10.4
492.515	10.49
492.866	10.61
493.218	10.59
493.57	10.57
493.922	10.46
494.274	10.47
494.625	10.35
494.977	10.32
495.328	10.27
495.68	10.35
496.031	10.48
496.383	10.55
496.734	10.63
497.086	10.66
497.437	10.8
497.788	10.79
498.139	10.57
498.49	10.7
498.842	10.76
499.193	10.78
499.544	10.7
499.894	10.39
500.245	10.51
500.596	10.48
500.947	10.71
501.298	10.72
501.648	10.63
501.999	10.59
502.35	10.67
502.7	10.74
503.051	10.68
503.401	10.67
503.752	10.6
504.102	10.58
504.452	10.71
504.803	10.74
505.153	10.72
505.503	10.67
505.853	10.68
506.203	10.72
506.553	10.6
506.903	10.68
507.253	10.7
507.603	10.62
507.953	10.74
508.303	10.75
508.652	10.57
509.002	10.68
509.352	10.71
509.701	10.65
510.051	10.64
510.4	10.64
510.75	10.58
511.099	10.55
511.449	10.63
511.798	10.57
512.147	10.59
512.496	10.64
512.846	10.43
513.195	10.56
513.544	10.64
513.893	10.54
514.242	10.6
514.591	10.53
514.939	10.39
515.288	10.46
515.637	10.55
515.986	10.48
516.334	10.6
516.683	10.56
517.032	10.58
517.38	10.67
517.729	10.54
518.077	10.64
518.426	10.6
518.774	10.43
519.122	10.64
519.47	10.47
519.819	10.51
520.167	10.58
520.515	10.53
520.863	10.44
521.211	10.41
521.559	10.36
521.907	10.33
522.255	10.25
522.602	10.34
522.95	10.54
523.298	10.43
523.645	10.49
523.993	10.39
524.341	10.4
524.688	10.43
525.036	10.36
525.383	10.54
525.73	10.45
526.078	10.67
526.425	10.55
526.772	10.47
527.119	10.48
527.466	10.4
527.814	10.45
528.161	10.39
528.508	10.38
528.854	10.22
529.201	10.26
529.548	10.32
529.895	10.36
530.242	10.24
530.588	10.26
530.935	10.24
531.282	10.1
531.628	9.97
531.975	9.83
532.321	9.92
532.667	9.88
533.014	10.09
533.36	10.1
533.706	10.16
534.052	10.16
534.399	10.27
534.745	10.28
535.091	10.29
535.437	10.3
535.783	10.23
536.129	10.13
536.474	10
536.82	10
537.166	9.93
537.512	10.07
537.857	10.26
538.203	10.17
538.549	10.23
538.894	10.27
539.239	10.19
539.585	10.12
539.93	10.02
540.276	10.04
540.621	10.16
540.966	10.23
541.311	10.37
541.656	10.28
542.001	10.32
542.346	10.35
542.691	10.24
543.036	10.15
543.381	10.23
543.726	10.06
544.071	10.02
544.415	9.9
544.76	9.82
545.105	9.88
545.449	9.77
545.794	10
546.138	10.06
546.483	9.96
546.827	10
547.171	9.99
547.516	10.01
547.86	10.14
548.204	10.16
548.548	10.06
548.892	10.15
549.236	10.07
549.58	9.97
549.924	9.93
550.268	10.05
550.612	9.97
550.956	10.02
551.3	10.05
551.643	10.14
551.987	10.11
552.33	10.27
552.674	10.04
553.017	9.93
553.361	10.06
553.704	10.04
554.048	10.15
554.391	10.16
554.734	10.08
555.077	10.11
555.42	10.04
555.764	9.9
556.107	9.91
556.45	10
556.793	9.91
557.135	10.1
557.478	9.93
557.821	10.02
558.164	10.18
558.507	10.03
558.849	10
559.192	10.09
559.534	9.89
559.877	9.87
560.219	10.07
560.562	10.04
560.904	10.15
561.246	9.84
561.589	9.66
561.931	9.94
562.273	9.81
562.615	9.83
562.957	10.17
563.299	9.97
563.641	9.88
563.983	9.87
564.325	9.95
564.667	9.63
565.008	9.75
565.35	9.9
565.692	9.87
566.033	9.83
566.375	9.82
566.716	10.03
567.058	9.82
567.399	9.78
567.741	9.96
568.082	9.74
568.423	9.91
568.764	9.78
569.105	9.85
569.447	9.71
569.788	9.62
570.129	9.65
570.47	9.64
570.811	9.69
571.151	9.68
571.492	9.73
571.833	9.67
572.174	9.66
572.514	9.84
572.855	9.79
573.195	9.72
573.536	9.81
573.876	9.68
574.217	9.7
574.557	9.73
574.898	9.65
575.238	9.6
575.578	9.53
575.918	9.63
576.258	9.62
576.598	9.49
576.938	9.62
577.278	9.57
577.618	9.63
577.958	9.49
578.298	9.64
578.638	9.44
578.977	9.42
579.317	9.43
579.657	9.41
579.996	9.51
580.336	9.48
580.675	9.59
581.014	9.58
581.354	9.31
581.693	9.5
582.032	9.61
582.372	9.59
582.711	9.59
583.05	9.42
583.389	9.49
583.728	9.57
584.067	9.44
584.406	9.4
584.745	9.55
585.083	9.41
585.422	9.45
585.761	9.42
586.1	9.74
586.438	9.36
586.777	9.24
587.115	9.43
587.454	9.36
587.792	9.25
588.13	9.46
588.469	9.35
588.807	9.19
589.145	9.4
589.483	9.19
589.821	9.55
590.159	9.52
590.497	9.5
590.835	9.41
591.173	9.25
591.511	9.17
591.849	9.18
592.187	9.49
592.524	9.58
592.862	9.35
593.2	9.18
593.537	9.25
593.875	9.52
594.212	9.2
594.55	9.44
594.887	8.98
595.224	9.05
595.561	8.88
595.899	8.83
596.236	9.42
596.573	9.57
596.91	9.12
597.247	9.24
597.584	9.13
597.921	9.25
598.258	9.11
598.594	9.29
598.931	9.09
599.268	9.27
599.604	8.93
599.941	9.11
600.277	9
600.614	9.24
600.95	9.13
601.287	9.05
601.623	9.28
601.959	9.08
602.296	9.15
602.632	9.22
602.968	9.03
603.304	9.35
603.64	8.92
603.976	9.04
604.312	8.93
604.648	8.79
604.984	8.88
605.319	9.21
605.655	9.15
605.991	9.14
606.326	9.11
606.662	8.97
606.998	9.13
607.333	8.96
607.668	9.02
608.004	8.87
608.339	9.05
608.674	8.58
609.01	9.2
609.345	9.03
609.68	9.13
610.015	9.04
610.35	9.1
610.685	9.08
611.02	9.07
611.355	9.38
611.689	8.99
612.024	8.87
612.359	9.1
612.694	8.92
613.028	8.74
613.363	8.64
613.697	8.87
614.032	8.69
614.366	8.9
614.7	8.93
615.035	8.69
615.369	8.9
615.703	8.9
616.037	8.69
616.371	8.85
616.705	8.72
617.039	8.73
617.373	8.84
617.707	8.41
618.041	9.1
618.375	8.78
618.709	9
619.042	9.03
619.376	8.81
619.71	8.49
620.043	8.65
620.377	8.87
620.71	8.77
621.043	8.74
621.377	8.87
621.71	8.82
622.043	8.4
622.376	8.71
622.709	8.53
623.043	8.74
623.376	8.99
623.709	8.78
624.041	8.56
624.374	8.37
624.707	8.76
625.04	8.45
625.373	8.9
625.705	8.85
626.038	8.79
626.37	9.14
626.703	9.06
627.035	9.01
627.368	8.92
627.7	8.84
628.032	8.78
628.365	8.4
628.697	8.83
629.029	8.79
629.361	8.68
629.693	8.67
630.025	8.8
630.357	8.4
630.689	8.59
631.021	8.88
631.353	8.25
631.684	8.97
632.016	8.55
632.348	8.43
632.679	8.45
633.011	8.06
633.342	8.3
633.674	8.82
634.005	8.49
634.336	8.46
634.668	8.98
634.999	8.57
635.33	8.75
635.661	8.44
635.992	8.69
636.323	9.31
636.654	8.58
636.985	8.52
637.316	8.5
637.647	8.55
637.977	8.43
638.308	8.69
638.639	8.13
638.969	8.87
639.3	8.57
639.63	8.23
639.961	8.68
640.291	8.36
640.622	8.43
640.952	8.31
641.282	8.37
641.612	8.34
641.943	8.12
642.273	9.03
642.603	8.1
642.933	8.14
643.263	8.7
643.592	8.5
643.922	8.08
644.252	8.51
644.582	8.29
644.911	8.35
645.241	8.39
645.571	8.41
645.9	8.44
646.23	8.4
646.559	8.44
646.888	8.32
647.218	8.19
647.547	8.12
647.876	8.82
648.205	8.29
648.534	8.82
648.863	8.01
649.192	8.64
649.521	9.45
649.85	8.8
650.179	8.38
650.508	8.44
650.837	8.47
651.165	8.25
651.494	8.63
651.822	8.36
652.151	8.69
652.479	8.85
652.808	8.22
653.136	8.62
653.465	8.51
653.793	8.57
654.121	8.44
654.449	8.6
654.777	8.46
655.105	8.43
655.433	8.49
655.761	8.28
656.089	8.85
656.417	8.04
656.745	8.44
657.073	8.33
657.4	8.32
657.728	8.72
658.056	8.58
658.383	8.33
658.711	8.68
659.038	8.74
659.365	8.67
659.693	8.09
660.02	8.23
660.347	8.38
660.674	8.47
661.001	8.55
661.329	8.58
661.656	8.4
661.982	8.79
662.309	8.54
662.636	8.54
662.963	8.05
663.29	8.48
663.616	8.39
663.943	8.64
664.27	8.84
664.596	8.35
664.923	9.2
665.249	8.63
665.576	7.83
665.902	8.2
666.228	8.35
666.554	8.45
666.881	8.83
667.207	8.05
667.533	8.6
667.859	8.39
668.185	8.34
668.511	8.36
668.837	8.16
669.162	8.28
669.488	8.37
669.814	8.52
670.139	8.58
670.465	8.8
670.791	8.46
671.116	8.24
671.442	8.56
671.767	8.12
672.092	8.42
672.418	8.22
672.743	8.53
673.068	8.33
673.393	8.34
673.718	7.92
674.043	8.22
674.368	8.7
674.693	8.44
675.018	8.57
675.343	7.64
675.667	7.98
675.992	8.9
676.317	8.02
676.641	8.91
676.966	8.22
677.29	7.72
677.615	8.95
677.939	8.8
678.264	8.46
678.588	7.41
678.912	8.37
679.236	7.93
679.56	7.55
679.885	8.32
