Data from 0140_forehead_Reflection__0__173.txt Node

Date: Mon Aug 28 20:11:40 CDT 2023
User: ToomeyLab
Spectrometer: FLMS14357
Trigger mode: 0
Integration Time (sec): 1.000000E-2
Scans to average: 100
Electric dark correction enabled: true
Nonlinearity correction enabled: false
Boxcar width: 0
XAxis mode: Wavelengths
Number of Pixels in Spectrum: 2048
>>>>>Begin Spectral Data<<<<<
189.047	37.28
189.435	37.28
189.823	37.28
190.211	37.99
190.599	176.43
190.987	-42.35
191.375	-248.13
191.763	271.51
192.151	-185.32
192.538	29.58
192.926	180.25
193.314	575.45
193.702	3115.14
194.089	3.29
194.477	-193.32
194.864	-172.55
195.252	-233.68
195.639	-176.98
196.027	276.09
196.414	82.97
196.801	-15.53
197.189	28.86
197.576	65.57
197.963	1754.01
198.351	33.5
198.738	48.76
199.125	19.53
199.512	-21.77
199.899	6.87
200.286	13.3
200.673	26.59
201.06	2.32
201.447	36.56
201.833	-14.43
202.22	36.39
202.607	35.55
202.994	23.51
203.38	47.4
203.767	59.46
204.154	17.63
204.54	-20.71
204.927	-8.49
205.313	44.27
205.699	2.46
206.086	35.13
206.472	13.28
206.858	16.62
207.245	28.94
207.631	66.48
208.017	6.96
208.403	14.17
208.789	-5.37
209.175	38.13
209.561	22.13
209.947	30.86
210.333	50.3
210.719	23.45
211.105	53.43
211.491	14.59
211.876	49.91
212.262	12.15
212.648	22.42
213.034	-3.06
213.419	-1.77
213.805	69.35
214.19	3.63
214.576	16.82
214.961	30.64
215.346	6.72
215.732	6.95
216.117	17.63
216.502	26.66
216.888	26.09
217.273	37.2
217.658	28.57
218.043	30.61
218.428	17.37
218.813	44.83
219.198	2.8
219.583	19.03
219.968	74.98
220.353	9.37
220.738	11.66
221.122	14.32
221.507	14.55
221.892	27.89
222.276	22.38
222.661	0.09
223.046	22.92
223.43	4.06
223.815	17.05
224.199	19.4
224.583	6.75
224.968	15.97
225.352	11.63
225.736	10.42
226.121	9.12
226.505	1.96
226.889	11.91
227.273	14.42
227.657	9.52
228.041	7.14
228.425	12.86
228.809	11.9
229.193	6.97
229.577	11.35
229.961	7.79
230.344	7.71
230.728	5.68
231.112	6.17
231.495	6.99
231.879	5.79
232.263	7.97
232.646	7.4
233.03	8.83
233.413	9.69
233.797	7.01
234.18	6.34
234.563	5.49
234.946	10.73
235.33	8.28
235.713	5.53
236.096	7.64
236.479	6.8
236.862	8.8
237.245	7.41
237.628	7.93
238.011	9.43
238.394	7.81
238.777	10.31
239.16	8.33
239.543	6.11
239.925	9.57
240.308	5.95
240.691	7.95
241.073	7.07
241.456	6.72
241.838	7.41
242.221	7.5
242.603	7.66
242.986	6.74
243.368	6.77
243.75	6.01
244.133	6.82
244.515	6.04
244.897	6.75
245.279	6.72
245.661	6.19
246.043	6.96
246.425	6.24
246.807	8.42
247.189	6.93
247.571	7.23
247.953	6.77
248.335	6.57
248.717	6.32
249.098	6.13
249.48	6.15
249.862	6.15
250.243	6.15
250.625	6.87
251.006	6.39
251.388	6.72
251.769	6.73
252.151	6.97
252.532	6.29
252.913	6.98
253.295	5.01
253.676	6.96
254.057	6.02
254.438	5.88
254.819	6.24
255.2	6.85
255.581	7.07
255.962	7.09
256.343	8.59
256.724	5.87
257.105	6.49
257.486	7.54
257.867	6.95
258.247	7.92
258.628	7.13
259.009	6.29
259.389	6.47
259.77	7.09
260.15	6.09
260.531	5.41
260.911	6.68
261.292	6.28
261.672	6.31
262.052	5.84
262.432	6.04
262.813	6.11
263.193	5.96
263.573	5.78
263.953	6.52
264.333	5.88
264.713	5.87
265.093	6.59
265.473	6.15
265.853	5.88
266.233	6.55
266.612	6.81
266.992	6.95
267.372	6.02
267.752	7.01
268.131	6.18
268.511	6
268.89	6.4
269.27	6.22
269.649	6.29
270.029	6.83
270.408	6.31
270.787	6.84
271.167	6.53
271.546	5.95
271.925	6.12
272.304	6.18
272.683	5.88
273.062	6.04
273.441	6.29
273.82	5.98
274.199	5.58
274.578	6.05
274.957	6.28
275.336	6.47
275.715	6.22
276.093	5.45
276.472	5.97
276.851	5.27
277.229	6.66
277.608	6
277.986	6.02
278.365	6.35
278.743	5.98
279.122	6.23
279.5	5.64
279.878	5.87
280.257	6.08
280.635	6.49
281.013	5.69
281.391	6.56
281.769	6.24
282.147	6.32
282.525	5.97
282.903	6.57
283.281	5.9
283.659	6.69
284.037	6.7
284.415	6.34
284.792	6.54
285.17	6.06
285.548	6.06
285.925	6.67
286.303	6.11
286.68	6.27
287.058	6.57
287.435	6.14
287.813	6.06
288.19	6.66
288.567	6.52
288.945	5.89
289.322	6.08
289.699	6.47
290.076	6.38
290.453	6.76
290.83	6.44
291.207	6.63
291.584	6.47
291.961	6.91
292.338	6.57
292.715	6.21
293.092	6.74
293.469	6.78
293.845	6.03
294.222	6.89
294.599	7.13
294.975	6.79
295.352	6.52
295.728	7.1
296.105	7.44
296.481	7.4
296.858	7.64
297.234	7.19
297.61	7.56
297.986	7.26
298.363	7.31
298.739	7.07
299.115	6.98
299.491	7.38
299.867	7.22
300.243	7.59
300.619	7.62
300.995	7.95
301.371	7.22
301.746	8.28
302.122	7.52
302.498	7.71
302.874	7.94
303.249	8.01
303.625	7.97
304	7.83
304.376	8.15
304.751	8.16
305.127	8.48
305.502	8.97
305.878	8.08
306.253	7.86
306.628	8.4
307.003	8.44
307.378	9.11
307.754	8.8
308.129	8.62
308.504	9.29
308.879	8.68
309.254	9.06
309.629	9.01
310.003	8.95
310.378	8.85
310.753	9.24
311.128	9.24
311.502	9.64
311.877	8.79
312.252	9.25
312.626	9.5
313.001	9.5
313.375	9.6
313.75	9.55
314.124	9.47
314.498	10.09
314.873	10.3
315.247	10.05
315.621	9.59
315.995	10.19
316.369	10.14
316.743	9.83
317.117	10.83
317.491	10.07
317.865	9.72
318.239	10.25
318.613	10.69
318.987	10.55
319.361	10.84
319.734	10.16
320.108	10.59
320.482	10.6
320.855	10.47
321.229	11.06
321.602	11.13
321.976	10.52
322.349	10.83
322.723	11.24
323.096	11.07
323.469	10.41
323.843	10.76
324.216	11.34
324.589	11.45
324.962	11.41
325.335	11.52
325.708	11.46
326.081	11.53
326.454	11.65
326.827	11.51
327.2	11.36
327.573	11.87
327.945	12.36
328.318	12.38
328.691	11.7
329.063	11.49
329.436	11.64
329.809	12.4
330.181	11.82
330.553	12.41
330.926	12.46
331.298	12.58
331.671	12.66
332.043	13.03
332.415	13.24
332.787	12.62
333.159	12.78
333.532	13.22
333.904	12.64
334.276	12.58
334.648	12.81
335.02	13.13
335.391	13.26
335.763	12.92
336.135	13.4
336.507	13.2
336.879	12.73
337.25	13.47
337.622	13.65
337.993	13.55
338.365	13.69
338.736	13.74
339.108	13.41
339.479	13.14
339.851	14.08
340.222	13.71
340.593	13.66
340.964	13.73
341.336	14.09
341.707	13.37
342.078	14.06
342.449	14.2
342.82	14.65
343.191	14.28
343.562	13.62
343.933	13.56
344.303	13.97
344.674	14.23
345.045	14.64
345.416	14.75
345.786	14.7
346.157	14.55
346.527	14.41
346.898	14.66
347.268	14.71
347.639	14.59
348.009	14.6
348.38	15.19
348.75	14.99
349.12	15.53
349.49	15.09
349.861	14.95
350.231	15.14
350.601	15.69
350.971	15.39
351.341	15.45
351.711	15.33
352.081	15.89
352.45	15.58
352.82	15.78
353.19	16.4
353.56	15.64
353.929	16.3
354.299	16.2
354.669	16.35
355.038	16.01
355.408	16.27
355.777	15.95
356.147	16.52
356.516	16.77
356.885	16.81
357.254	16.64
357.624	16.35
357.993	16.79
358.362	16.56
358.731	16.86
359.1	17.04
359.469	16.81
359.838	16.81
360.207	16.84
360.576	16.88
360.945	17.04
361.314	16.97
361.682	17.32
362.051	17.78
362.42	17.24
362.788	17.35
363.157	17.46
363.525	17.35
363.894	17.45
364.262	17.76
364.631	17.21
364.999	17.61
365.367	17.62
365.735	17.63
366.104	17.93
366.472	17.92
366.84	17.54
367.208	18.05
367.576	18.06
367.944	18.13
368.312	18.33
368.68	18.39
369.048	18.5
369.416	18.71
369.783	18.48
370.151	18.91
370.519	18.76
370.886	18.82
371.254	18.84
371.621	18.96
371.989	19.14
372.356	19.16
372.724	19.09
373.091	19.51
373.458	19.13
373.826	19.12
374.193	19.16
374.56	19.48
374.927	18.99
375.294	19.45
375.661	19.92
376.028	19.73
376.395	19.63
376.762	20.17
377.129	19.89
377.496	19.71
377.863	20.16
378.229	20.07
378.596	20.3
378.963	20.37
379.329	20.06
379.696	20.02
380.062	20.05
380.429	20.02
380.795	20.6
381.161	20.54
381.528	21.11
381.894	20.38
382.26	21.05
382.626	20.83
382.993	20.83
383.359	20.96
383.725	21.36
384.091	21.25
384.457	21.16
384.823	21.55
385.188	21.32
385.554	21.3
385.92	21.34
386.286	21.16
386.651	21.47
387.017	21.69
387.383	21.38
387.748	21.81
388.114	21.47
388.479	21.75
388.845	21.91
389.21	21.87
389.575	22.28
389.94	21.85
390.306	21.77
390.671	22.2
391.036	22.12
391.401	22.87
391.766	22.44
392.131	22.49
392.496	22.44
392.861	22.38
393.226	22.71
393.591	22.68
393.956	22.74
394.32	23.13
394.685	22.9
395.05	23.04
395.414	22.9
395.779	22.99
396.143	23.04
396.508	22.98
396.872	23.03
397.236	23.25
397.601	23.13
397.965	23.44
398.329	23.41
398.694	23.53
399.058	23.55
399.422	23.83
399.786	23.77
400.15	24.06
400.514	24.03
400.878	23.83
401.242	23.97
401.605	23.97
401.969	23.83
402.333	24.23
402.697	24.01
403.06	24.33
403.424	24.57
403.787	24.2
404.151	24.22
404.514	24.28
404.878	24.59
405.241	24.74
405.604	24.8
405.968	24.55
406.331	24.74
406.694	24.74
407.057	24.83
407.42	24.96
407.783	24.91
408.146	25.06
408.509	25.17
408.872	25.1
409.235	25.07
409.598	25.04
409.961	25.13
410.323	25.45
410.686	25.51
411.049	25.83
411.411	25.61
411.774	25.73
412.136	25.68
412.499	25.59
412.861	25.81
413.223	25.69
413.586	26.13
413.948	26.12
414.31	25.93
414.672	26.29
415.035	26.16
415.397	26.07
415.759	26.07
416.121	26.43
416.483	26.46
416.845	26.72
417.206	26.63
417.568	26.54
417.93	26.37
418.292	26.74
418.653	26.56
419.015	26.63
419.377	26.61
419.738	26.89
420.1	26.63
420.461	26.74
420.822	26.61
421.184	26.97
421.545	26.82
421.906	26.67
422.267	26.89
422.629	26.95
422.99	26.87
423.351	26.84
423.712	26.84
424.073	26.85
424.434	27.11
424.795	27.18
425.155	27.32
425.516	27.4
425.877	27.44
426.238	27.5
426.598	27.2
426.959	27.51
427.32	27.68
427.68	27.8
428.041	27.85
428.401	27.91
428.761	27.98
429.122	28.13
429.482	28.34
429.842	28.52
430.202	28.55
430.563	28.77
430.923	28.84
431.283	28.97
431.643	28.76
432.003	28.71
432.363	28.82
432.722	29.1
433.082	29.12
433.442	29.36
433.802	29.32
434.161	29.3
434.521	29.33
434.881	29.25
435.24	29.22
435.6	29.3
435.959	29.43
436.319	29.52
436.678	29.65
437.037	29.67
437.396	29.78
437.756	29.65
438.115	29.98
438.474	30.11
438.833	30.24
439.192	30.18
439.551	30.38
439.91	30.2
440.269	30.18
440.628	30.28
440.987	30.34
441.345	30.27
441.704	30.4
442.063	30.26
442.421	30.4
442.78	30.52
443.138	30.36
443.497	30.37
443.855	30.58
444.214	30.72
444.572	30.96
444.93	31.03
445.288	30.96
445.647	31.28
446.005	31.22
446.363	31.19
446.721	31.35
447.079	31.26
447.437	31.11
447.795	31.24
448.153	31.11
448.51	31.07
448.868	31.22
449.226	31.31
449.584	31.28
449.941	31.58
450.299	31.58
450.656	31.76
451.014	31.98
451.371	31.89
451.729	31.98
452.086	32.18
452.443	32.39
452.801	32.29
453.158	32.49
453.515	32.63
453.872	32.52
454.229	32.66
454.586	32.96
454.943	32.66
455.3	32.84
455.657	32.89
456.014	32.93
456.371	32.87
456.727	33.07
457.084	33.06
457.441	33.21
457.797	33.3
458.154	33.33
458.51	33.67
458.867	33.3
459.223	33.58
459.58	33.33
459.936	33.76
460.292	33.58
460.648	33.62
461.005	33.56
461.361	33.6
461.717	33.45
462.073	33.37
462.429	33.36
462.785	33.51
463.141	33.65
463.496	33.9
463.852	33.89
464.208	34.05
464.564	34.4
464.919	34.55
465.275	34.64
465.631	34.62
465.986	34.81
466.342	34.66
466.697	34.66
467.052	34.95
467.408	35.09
467.763	34.89
468.118	34.74
468.473	35.18
468.829	34.92
469.184	34.93
469.539	35.07
469.894	35.22
470.249	35.2
470.603	35.24
470.958	35.65
471.313	35.65
471.668	35.55
472.023	35.48
472.377	35.69
472.732	35.77
473.086	35.76
473.441	35.91
473.795	35.78
474.15	36
474.504	35.86
474.859	35.82
475.213	36.3
475.567	36.23
475.921	36.33
476.275	35.98
476.63	36.41
476.984	36.5
477.338	36.63
477.692	36.71
478.045	36.63
478.399	36.51
478.753	36.52
479.107	36.54
479.461	36.66
479.814	36.54
480.168	36.93
480.521	36.86
480.875	36.93
481.228	36.98
481.582	37.04
481.935	37.29
482.289	37.25
482.642	37.25
482.995	37.14
483.348	37.21
483.701	37.2
484.055	37.16
484.408	36.9
484.761	37.05
485.114	36.81
485.466	36.52
485.819	36.57
486.172	36.6
486.525	36.53
486.878	36.43
487.23	36.45
487.583	36.55
487.936	36.86
488.288	37.11
488.641	37.2
488.993	37.15
489.345	36.94
489.698	37.13
490.05	37.09
490.402	37.07
490.754	37.22
491.107	37.4
491.459	37.51
491.811	37.64
492.163	38
492.515	38.05
492.866	38.18
493.218	37.99
493.57	37.84
493.922	37.77
494.274	37.81
494.625	37.81
494.977	38.09
495.328	38.22
495.68	38.45
496.031	38.74
496.383	38.98
496.734	39.22
497.086	39.29
497.437	39.39
497.788	39.54
498.139	39.28
498.49	39.55
498.842	39.42
499.193	39.16
499.544	39.22
499.894	39.28
500.245	39.46
500.596	39.41
500.947	39.74
501.298	39.82
501.648	39.91
501.999	40
502.35	40.12
502.7	40
503.051	40.29
503.401	40.35
503.752	40.21
504.102	40.51
504.452	40.28
504.803	40.45
505.153	40.54
505.503	40.61
505.853	40.66
506.203	40.6
506.553	40.62
506.903	40.86
507.253	40.8
507.603	40.87
507.953	40.9
508.303	41
508.652	41.11
509.002	41.27
509.352	41.22
509.701	41.01
510.051	40.98
510.4	41.06
510.75	41.19
511.099	40.92
511.449	41.13
511.798	41.13
512.147	41.27
512.496	41.26
512.846	41.38
513.195	41.28
513.544	41.63
513.893	41.65
514.242	41.57
514.591	41.53
514.939	41.5
515.288	41.54
515.637	41.81
515.986	41.78
516.334	42.12
516.683	42.09
517.032	42.21
517.38	42.21
517.729	42.55
518.077	42.36
518.426	42.31
518.774	42.49
519.122	42.41
519.47	42.32
519.819	42.2
520.167	42.19
520.515	42.31
520.863	42.04
521.211	42.17
521.559	42.23
521.907	42.11
522.255	42.27
522.602	42.58
522.95	42.8
523.298	42.84
523.645	42.93
523.993	43
524.341	43.01
524.688	43.09
525.036	43.46
525.383	43.19
525.73	43.46
526.078	43.35
526.425	43.23
526.772	43.46
527.119	43.14
527.466	43.02
527.814	43.06
528.161	42.93
528.508	42.96
528.854	43
529.201	43.15
529.548	43.21
529.895	42.95
530.242	42.79
530.588	42.99
530.935	42.95
531.282	43.04
531.628	42.79
531.975	42.72
532.321	42.87
532.667	42.9
533.014	43.3
533.36	43.53
533.706	43.78
534.052	43.88
534.399	43.84
534.745	43.9
535.091	43.79
535.437	43.52
535.783	43.67
536.129	43.6
536.474	43.65
536.82	43.9
537.166	44.01
537.512	44.48
537.857	44.52
538.203	44.37
538.549	44.49
538.894	44.56
539.239	44.41
539.585	44.68
539.93	44.63
540.276	44.88
540.621	44.91
540.966	45.11
541.311	45.37
541.656	45.4
542.001	45.33
542.346	45.4
542.691	45.15
543.036	45
543.381	44.85
543.726	44.6
544.071	44.81
544.415	44.68
544.76	44.69
545.105	44.99
545.449	44.89
545.794	45.2
546.138	45.19
546.483	45.4
546.827	45.69
547.171	45.74
547.516	45.81
547.86	45.99
548.204	46.08
548.548	45.88
548.892	45.82
549.236	46.02
549.58	45.95
549.924	46.15
550.268	46.27
550.612	46.47
550.956	46.45
551.3	46.62
551.643	46.61
551.987	47.17
552.33	47.32
552.674	46.89
553.017	47.03
553.361	47.12
553.704	46.91
554.048	47.41
554.391	47.27
554.734	47.24
555.077	47.19
555.42	47.32
555.764	47.32
556.107	47.34
556.45	47.28
556.793	47.3
557.135	47.72
557.478	47.7
557.821	47.75
558.164	47.99
558.507	47.93
558.849	48.07
559.192	47.94
559.534	47.64
559.877	48.17
560.219	48.55
560.562	48.56
560.904	48.39
561.246	48.3
561.589	48.5
561.931	48.48
562.273	48.24
562.615	48.36
562.957	48.61
563.299	48.58
563.641	48.53
563.983	48.37
564.325	48.67
564.667	48.46
565.008	48.6
565.35	48.8
565.692	48.79
566.033	48.82
566.375	49.18
566.716	49.22
567.058	48.89
567.399	48.7
567.741	48.77
568.082	48.94
568.423	48.68
568.764	48.82
569.105	49.07
569.447	49.2
569.788	48.79
570.129	49.24
570.47	49.36
570.811	49.32
571.151	49.31
571.492	49.33
571.833	49.18
572.174	49.44
572.514	49.38
572.855	49.63
573.195	49.51
573.536	49.47
573.876	49.31
574.217	49.62
574.557	49.77
574.898	49.53
575.238	49.54
575.578	49.69
575.918	49.63
576.258	49.8
576.598	50
576.938	50.04
577.278	50.26
577.618	50.12
577.958	50.08
578.298	49.96
578.638	50.11
578.977	50.36
579.317	50.35
579.657	50.48
579.996	50.26
580.336	50.61
580.675	50.56
581.014	50.83
581.354	51.11
581.693	51.11
582.032	51.23
582.372	51.08
582.711	51.03
583.05	50.87
583.389	51.1
583.728	50.8
584.067	51.36
584.406	51.04
584.745	51.06
585.083	51.21
585.422	51.29
585.761	50.95
586.1	51.71
586.438	51.58
586.777	51.51
587.115	51.52
587.454	51.75
587.792	51.76
588.13	51.43
588.469	52
588.807	52.08
589.145	51.5
589.483	52.02
589.821	51.76
590.159	51.77
590.497	51.83
590.835	51.85
591.173	52.06
591.511	51.91
591.849	52.2
592.187	52.44
592.524	52.11
592.862	52.33
593.2	52.17
593.537	52.27
593.875	52.36
594.212	52.47
594.55	52.3
594.887	52.33
595.224	52.45
595.561	52.42
595.899	52.54
596.236	53.02
596.573	52.76
596.91	52.59
597.247	52.73
597.584	52.5
597.921	52.81
598.258	52.8
598.594	52.9
598.931	52.73
599.268	52.93
599.604	52.86
599.941	52.38
600.277	52.37
600.614	52.94
600.95	53.07
601.287	53.18
601.623	53.32
601.959	53.29
602.296	53.59
602.632	53.43
602.968	53.47
603.304	53.56
603.64	53.29
603.976	53.7
604.312	53.67
604.648	53.58
604.984	53.17
605.319	53.71
605.655	53.64
605.991	53.07
606.326	53.24
606.662	53.43
606.998	53.47
607.333	53.26
607.668	53.36
608.004	53.56
608.339	53.26
608.674	53.58
609.01	53.89
609.345	53.98
609.68	53.95
610.015	54.1
610.35	53.97
610.685	54.01
611.02	54.13
611.355	54.21
611.689	53.77
612.024	54.04
612.359	53.74
612.694	54.35
613.028	53.89
613.363	54.2
613.697	53.98
614.032	54.21
614.366	54.56
614.7	54.17
615.035	54.86
615.369	54.71
615.703	54.61
616.037	54.68
616.371	54.79
616.705	54.61
617.039	54.97
617.373	54.9
617.707	54.64
618.041	54.97
618.375	55.38
618.709	55.22
619.042	55.24
619.376	54.9
619.71	55.34
620.043	55.43
620.377	55.49
620.71	55.56
621.043	55.39
621.377	55.66
621.71	55.31
622.043	55.08
622.376	55.29
622.709	55.24
623.043	55.77
623.376	55.68
623.709	55.43
624.041	56.02
624.374	55.75
624.707	55.76
625.04	55.74
625.373	56.04
625.705	55.9
626.038	55.56
626.37	56.29
626.703	56.2
627.035	56.04
627.368	56.22
627.7	55.94
628.032	56.19
628.365	55.68
628.697	56.25
629.029	55.9
629.361	55.98
629.693	55.95
630.025	56.09
630.357	56.12
630.689	55.86
631.021	56.05
631.353	56.36
631.684	56.37
632.016	56.66
632.348	56.07
632.679	56.57
633.011	56.35
633.342	55.92
633.674	56.21
634.005	56.32
634.336	57.07
634.668	57.02
634.999	57.17
635.33	56.87
635.661	57.29
635.992	57.14
636.323	57
636.654	56.68
636.985	56.93
637.316	56.8
637.647	56.66
637.977	56.54
638.308	56.93
638.639	57.01
638.969	56.99
639.3	57.12
639.63	57.23
639.961	57.44
640.291	57.34
640.622	57.41
640.952	57.13
641.282	57.42
641.612	57.31
641.943	57.42
642.273	57.5
642.603	57.34
642.933	57.5
643.263	57.71
643.592	57.82
643.922	57.85
644.252	57.99
644.582	58.02
644.911	58.02
645.241	58.09
645.571	57.65
645.9	58.05
646.23	57.89
646.559	57.96
646.888	57.87
647.218	57.64
647.547	58.06
647.876	58.44
648.205	58.18
648.534	58.14
648.863	58.19
649.192	58.31
649.521	58.03
649.85	58.08
650.179	59.02
650.508	58.14
650.837	58.23
651.165	58.5
651.494	58.04
651.822	58.8
652.151	58.48
652.479	58.4
652.808	58.57
653.136	58.62
653.465	58.65
653.793	58.26
654.121	58.77
654.449	58.55
654.777	58.82
655.105	58.55
655.433	59.09
655.761	58.41
656.089	58.54
656.417	58.48
656.745	59.02
657.073	58.42
657.4	59.21
657.728	59.32
658.056	58.53
658.383	59.02
658.711	59.1
659.038	59.51
659.365	59.48
659.693	58.68
660.02	59.18
660.347	59.81
660.674	59.59
661.001	59
661.329	59.28
661.656	59.19
661.982	59.44
662.309	58.95
662.636	59.3
662.963	58.95
663.29	59.4
663.616	59.19
663.943	59.54
664.27	59.65
664.596	59.59
664.923	59.86
665.249	60.3
665.576	59.61
665.902	59.72
666.228	59
666.554	59.65
666.881	60.35
667.207	59.78
667.533	60.01
667.859	58.77
668.185	58.83
668.511	60.03
668.837	60.23
669.162	60.17
