Data from 0140_chest_Reflection__0__168.txt Node

Date: Mon Aug 28 20:09:23 CDT 2023
User: ToomeyLab
Spectrometer: FLMS14357
Trigger mode: 0
Integration Time (sec): 1.000000E-2
Scans to average: 100
Electric dark correction enabled: true
Nonlinearity correction enabled: false
Boxcar width: 0
XAxis mode: Wavelengths
Number of Pixels in Spectrum: 2048
>>>>>Begin Spectral Data<<<<<
189.047	124.51
189.435	124.51
189.823	124.51
190.211	-304.48
190.599	242.34
190.987	44.05
191.375	264
191.763	116.68
192.151	-15.87
192.538	-20.35
192.926	-80.1
193.314	-21.67
193.702	-1339.46
194.089	61.17
194.477	-115.97
194.864	45.31
195.252	-423.48
195.639	94.42
196.027	216.78
196.414	78.09
196.801	74.71
197.189	98.08
197.576	41.57
197.963	-1108.03
198.351	27.41
198.738	36.52
199.125	-1.83
199.512	-36.43
199.899	-23.82
200.286	2.52
200.673	-10.5
201.06	20.5
201.447	-28.33
201.833	-41.56
202.22	-2.71
202.607	4.97
202.994	54.64
203.38	0.02
203.767	-31.4
204.154	-6.77
204.54	-43.06
204.927	-68
205.313	17.86
205.699	-9.03
206.086	8.44
206.472	-1.9
206.858	24.47
207.245	26.05
207.631	13.04
208.017	-39.94
208.403	2.58
208.789	-19.4
209.175	-9.5
209.561	11.34
209.947	-0.54
210.333	17.68
210.719	21.53
211.105	14.85
211.491	-25.69
211.876	23.4
212.262	11.4
212.648	9.17
213.034	8.05
213.419	10.84
213.805	-25.03
214.19	-24.93
214.576	15.44
214.961	-12.3
215.346	-27.01
215.732	24.68
216.117	-0.98
216.502	-30.06
216.888	-59.19
217.273	6.5
217.658	10.72
218.043	15.07
218.428	-13.74
218.813	9.29
219.198	-12.58
219.583	14.79
219.968	17.61
220.353	-8.96
220.738	6.16
221.122	10.85
221.507	6.88
221.892	-10.55
222.276	2.29
222.661	-2.44
223.046	8.36
223.43	-0.78
223.815	1.7
224.199	7.13
224.583	4.24
224.968	-1.8
225.352	15.35
225.736	9.21
226.121	-7.82
226.505	0.2
226.889	12.91
227.273	4.32
227.657	4.11
228.041	3.55
228.425	6.29
228.809	0.54
229.193	6.16
229.577	3.52
229.961	0.88
230.344	1.59
230.728	1.58
231.112	-0
231.495	1.12
231.879	1.34
232.263	1.09
232.646	-0.55
233.03	0.69
233.413	3.31
233.797	0.48
234.18	0.47
234.563	-1.72
234.946	3.28
235.33	1.06
235.713	0.38
236.096	3.8
236.479	0.24
236.862	3
237.245	1.66
237.628	1.15
238.011	2.75
238.394	1.13
238.777	2.95
239.16	-1.14
239.543	-0.95
239.925	2.54
240.308	-1.78
240.691	-0.35
241.073	-2.42
241.456	0.57
241.838	0.28
242.221	2.43
242.603	2.11
242.986	2.34
243.368	1.38
243.75	1.03
244.133	1.25
244.515	0.74
244.897	1.48
245.279	0.95
245.661	0.39
246.043	1.48
246.425	1.82
246.807	1.25
247.189	0.32
247.571	0.48
247.953	1.18
248.335	1.13
248.717	0.78
249.098	0.94
249.48	1.14
249.862	1.12
250.243	0.79
250.625	1.5
251.006	1.75
251.388	1.54
251.769	1.51
252.151	0.64
252.532	0.37
252.913	1.86
253.295	0.02
253.676	1.41
254.057	0.91
254.438	1.05
254.819	1.02
255.2	0.96
255.581	0.47
255.962	0.36
256.343	3.09
256.724	0.12
257.105	0.04
257.486	1.6
257.867	-0.76
258.247	0.81
258.628	2.28
259.009	0.11
259.389	0.98
259.77	0.94
260.15	0.56
260.531	0.87
260.911	1.46
261.292	0.87
261.672	1.1
262.052	0.73
262.432	1.06
262.813	1.03
263.193	1.01
263.573	0.65
263.953	1.61
264.333	1.6
264.713	0.75
265.093	1.26
265.473	0.82
265.853	1.62
266.233	0.83
266.612	1.48
266.992	1.26
267.372	0.54
267.752	1.53
268.131	1.62
268.511	0.81
268.89	1.49
269.27	0.74
269.649	0.68
270.029	1.57
270.408	1.53
270.787	1.12
271.167	0.78
271.546	0.93
271.925	1.45
272.304	0.86
272.683	1.04
273.062	1.19
273.441	0.71
273.82	0.77
274.199	0.3
274.578	1.33
274.957	1.26
275.336	1.48
275.715	1.3
276.093	0.82
276.472	1.11
276.851	0.79
277.229	1.16
277.608	1.04
277.986	0.61
278.365	1.11
278.743	1.3
279.122	1.1
279.5	0.58
279.878	-0.04
280.257	0.55
280.635	1.19
281.013	1.1
281.391	1.27
281.769	0.74
282.147	1.03
282.525	1.26
282.903	0.94
283.281	1.04
283.659	1.8
284.037	1.03
284.415	1.09
284.792	1.23
285.17	1
285.548	1.03
285.925	2.05
286.303	1.06
286.68	1.29
287.058	1.04
287.435	1.08
287.813	0.91
288.19	1.33
288.567	1.26
288.945	1.17
289.322	0.75
289.699	1.52
290.076	1.33
290.453	1.43
290.83	0.29
291.207	0.96
291.584	1.03
291.961	1.41
292.338	1.29
292.715	0.92
293.092	1.59
293.469	1.58
293.845	1.33
294.222	1.22
294.599	1.62
294.975	1.53
295.352	1.32
295.728	1.44
296.105	0.98
296.481	1.58
296.858	1.73
297.234	1.74
297.61	1.31
297.986	1.44
298.363	1.74
298.739	1.5
299.115	1.5
299.491	1.64
299.867	1.33
300.243	1.51
300.619	1.5
300.995	1.97
301.371	1.52
301.746	1.78
302.122	1.58
302.498	1.35
302.874	1.48
303.249	1.4
303.625	1.53
304	1.45
304.376	1.62
304.751	1.56
305.127	1.37
305.502	1.9
305.878	1.7
306.253	1.34
306.628	1.39
307.003	1.61
307.378	1.71
307.754	2.04
308.129	1.3
308.504	2.39
308.879	2
309.254	1.94
309.629	1.19
310.003	2.13
310.378	1.29
310.753	2.01
311.128	1.88
311.502	2.13
311.877	1.5
312.252	2.04
312.626	1.92
313.001	1.75
313.375	2.04
313.75	1.92
314.124	1.46
314.498	2
314.873	2.23
315.247	2.27
315.621	1.55
315.995	1.81
316.369	2.2
316.743	1.6
317.117	1.46
317.491	1.32
317.865	1.54
318.239	1.62
318.613	1.65
318.987	2.06
319.361	1.77
319.734	2.03
320.108	1.9
320.482	2.47
320.855	1.78
321.229	1.18
321.602	2.24
321.976	1.74
322.349	2.38
322.723	1.76
323.096	1.85
323.469	1.63
323.843	1.99
324.216	1.68
324.589	1.93
324.962	2.11
325.335	1.92
325.708	1.81
326.081	1.99
326.454	2.05
326.827	2.14
327.2	1.6
327.573	1.5
327.945	2.05
328.318	2.54
328.691	1.86
329.063	1.4
329.436	1.56
329.809	2.32
330.181	1.64
330.553	1.62
330.926	2.08
331.298	2.15
331.671	1.8
332.043	1.76
332.415	2.58
332.787	1.75
333.159	2.43
333.532	3.04
333.904	2.14
334.276	1.51
334.648	1.78
335.02	1.82
335.391	1.99
335.763	1.88
336.135	2.24
336.507	1.78
336.879	1.71
337.25	2.96
337.622	2.22
337.993	2.03
338.365	1.87
338.736	1.91
339.108	1.7
339.479	1.23
339.851	2.07
340.222	2.46
340.593	2.16
340.964	1.83
341.336	2.05
341.707	1.95
342.078	2.04
342.449	2.2
342.82	2.22
343.191	2.15
343.562	1.94
343.933	1.88
344.303	2.09
344.674	2.75
345.045	2.41
345.416	2.24
345.786	2.6
346.157	2.24
346.527	1.77
346.898	2.19
347.268	1.85
347.639	1.84
348.009	2.15
348.38	2.12
348.75	2.08
349.12	2.27
349.49	1.46
349.861	1.87
350.231	1.42
350.601	2.14
350.971	2.15
351.341	2.03
351.711	2.22
352.081	1.83
352.45	2.14
352.82	2.02
353.19	2.79
353.56	2.45
353.929	1.95
354.299	1.78
354.669	2.33
355.038	2.41
355.408	2.33
355.777	2.13
356.147	1.86
356.516	2.44
356.885	2.02
357.254	2.37
357.624	2.17
357.993	2.51
358.362	2.16
358.731	2.07
359.1	2.24
359.469	2.37
359.838	2.04
360.207	2.4
360.576	2.55
360.945	2.15
361.314	2.01
361.682	2.13
362.051	2.38
362.42	2.29
362.788	2.32
363.157	2.11
363.525	2.06
363.894	2.33
364.262	2.38
364.631	2.03
364.999	2.28
365.367	2.52
365.735	2.16
366.104	2.16
366.472	1.9
366.84	2.06
367.208	2.2
367.576	2.01
367.944	2.27
368.312	2.53
368.68	1.96
369.048	2.57
369.416	1.87
369.783	1.9
370.151	2.64
370.519	2.46
370.886	2.21
371.254	2.11
371.621	2.02
371.989	2.36
372.356	2.41
372.724	2.85
373.091	2.59
373.458	2.2
373.826	2.41
374.193	2.31
374.56	2.17
374.927	2.37
375.294	2.79
375.661	2.55
376.028	2.29
376.395	2.15
376.762	2.53
377.129	2.5
377.496	2.29
377.863	2.68
378.229	2.37
378.596	2.32
378.963	2.64
379.329	2.59
379.696	2.45
380.062	2.09
380.429	2.29
380.795	2.29
381.161	2.59
381.528	2.33
381.894	2.33
382.26	2.81
382.626	2.24
382.993	2.38
383.359	2.29
383.725	2.68
384.091	2.06
384.457	2.49
384.823	2.35
385.188	2.43
385.554	2.12
385.92	2.39
386.286	2.42
386.651	2.49
387.017	2.51
387.383	2.72
387.748	2.3
388.114	2.48
388.479	2.41
388.845	2.56
389.21	2.45
389.575	2.58
389.94	2.41
390.306	2.82
390.671	2.48
391.036	2.38
391.401	2.56
391.766	2.61
392.131	2.43
392.496	2.36
392.861	2.44
393.226	2.52
393.591	2.16
393.956	2.28
394.32	2.47
394.685	2.42
395.05	2.82
395.414	2.45
395.779	2.63
396.143	2.3
396.508	2.26
396.872	2.68
397.236	2.39
397.601	2.45
397.965	2.72
398.329	2.68
398.694	2.63
399.058	2.4
399.422	2.56
399.786	2.82
400.15	2.66
400.514	2.69
400.878	2.56
401.242	2.73
401.605	2.4
401.969	2.28
402.333	2.43
402.697	2.66
403.06	2.58
403.424	2.67
403.787	2.32
404.151	2.29
404.514	2.57
404.878	2.64
405.241	2.53
405.604	2.71
405.968	2.59
406.331	2.79
406.694	2.55
407.057	2.83
407.42	2.57
407.783	2.55
408.146	2.57
408.509	2.7
408.872	2.49
409.235	2.68
409.598	2.74
409.961	2.48
410.323	2.81
410.686	2.89
411.049	2.78
411.411	2.89
411.774	2.65
412.136	2.64
412.499	2.68
412.861	2.56
413.223	2.57
413.586	2.46
413.948	2.6
414.31	2.66
414.672	2.59
415.035	2.82
415.397	2.42
415.759	2.67
416.121	2.9
416.483	2.69
416.845	2.93
417.206	2.83
417.568	2.71
417.93	2.57
418.292	2.77
418.653	2.57
419.015	2.89
419.377	2.43
419.738	2.87
420.1	2.77
420.461	2.76
420.822	2.69
421.184	2.73
421.545	2.77
421.906	2.74
422.267	2.73
422.629	2.64
422.99	2.71
423.351	2.73
423.712	2.68
424.073	2.7
424.434	2.8
424.795	2.72
425.155	2.75
425.516	2.77
425.877	2.67
426.238	2.63
426.598	2.69
426.959	2.7
427.32	2.71
427.68	2.79
428.041	2.69
428.401	2.76
428.761	2.75
429.122	2.61
429.482	2.97
429.842	2.95
430.202	2.76
430.563	2.8
430.923	2.85
431.283	2.81
431.643	2.52
432.003	2.75
432.363	2.79
432.722	2.81
433.082	2.82
433.442	2.8
433.802	2.79
434.161	3.02
434.521	2.89
434.881	2.81
435.24	2.86
435.6	2.88
435.959	2.93
436.319	2.91
436.678	2.77
437.037	2.82
437.396	2.86
437.756	2.67
438.115	3.17
438.474	2.93
438.833	3
439.192	2.95
439.551	2.86
439.91	2.98
440.269	2.95
440.628	2.68
440.987	3.02
441.345	2.81
441.704	2.97
442.063	2.91
442.421	2.9
442.78	2.99
443.138	2.94
443.497	2.86
443.855	2.98
444.214	2.95
444.572	3.04
444.93	3.02
445.288	2.97
445.647	2.92
446.005	3.06
446.363	3.06
446.721	3.03
447.079	3.1
447.437	2.85
447.795	2.98
448.153	3.04
448.51	2.97
448.868	3
449.226	2.96
449.584	3
449.941	2.99
450.299	3.03
450.656	2.87
451.014	2.86
451.371	2.99
451.729	2.85
452.086	2.95
452.443	3.08
452.801	3.04
453.158	3.19
453.515	3.07
453.872	2.93
454.229	2.98
454.586	3.2
454.943	3
455.3	3.09
455.657	3
456.014	3.26
456.371	3.13
456.727	3.23
457.084	3.08
457.441	3.17
457.797	3.04
458.154	3.16
458.51	3.18
458.867	3.03
459.223	3.06
459.58	3.08
459.936	3.13
460.292	3.21
460.648	3.22
461.005	3.16
461.361	3.16
461.717	3.11
462.073	3.14
462.429	3.09
462.785	3.08
463.141	3.16
463.496	3.26
463.852	3.23
464.208	3.18
464.564	3.14
464.919	3.35
465.275	3.34
465.631	3.27
465.986	3.27
466.342	3.23
466.697	3.28
467.052	3.21
467.408	3.34
467.763	3.17
468.118	3.08
468.473	3.2
468.829	3.17
469.184	3.24
469.539	3.27
469.894	3.18
470.249	3.21
470.603	3.37
470.958	3.21
471.313	3.26
471.668	3.1
472.023	3.24
472.377	3.4
472.732	3.37
473.086	3.28
473.441	3.41
473.795	3.32
474.15	3.35
474.504	3.36
474.859	3.33
475.213	3.37
475.567	3.44
475.921	3.6
476.275	3.31
476.63	3.57
476.984	3.3
477.338	3.44
477.692	3.36
478.045	3.37
478.399	3.34
478.753	3.35
479.107	3.35
479.461	3.34
479.814	3.52
480.168	3.42
480.521	3.51
480.875	3.48
481.228	3.46
481.582	3.4
481.935	3.37
482.289	3.4
482.642	3.64
482.995	3.41
483.348	3.42
483.701	3.51
484.055	3.42
484.408	3.39
484.761	3.47
485.114	3.36
485.466	3.33
485.819	3.27
486.172	3.25
486.525	3.24
486.878	3.27
487.23	3.3
487.583	3.37
487.936	3.4
488.288	3.47
488.641	3.46
488.993	3.43
489.345	3.39
489.698	3.43
490.05	3.38
490.402	3.36
490.754	3.37
491.107	3.36
491.459	3.45
491.811	3.46
492.163	3.45
492.515	3.56
492.866	3.63
493.218	3.43
493.57	3.51
493.922	3.41
494.274	3.45
494.625	3.43
494.977	3.51
495.328	3.59
495.68	3.61
496.031	3.68
496.383	3.56
496.734	3.65
497.086	3.87
497.437	3.89
497.788	3.73
498.139	3.65
498.49	3.61
498.842	3.69
499.193	3.7
499.544	3.68
499.894	3.62
500.245	3.67
500.596	3.73
500.947	3.8
501.298	3.79
501.648	3.83
501.999	3.77
502.35	3.83
502.7	3.79
503.051	3.74
503.401	3.96
503.752	3.83
504.102	3.76
504.452	3.87
504.803	3.85
505.153	3.8
505.503	3.74
505.853	3.86
506.203	3.98
506.553	3.73
506.903	4
507.253	3.94
507.603	3.8
507.953	3.93
508.303	4.09
508.652	3.95
509.002	4.09
509.352	3.87
509.701	3.88
510.051	3.88
510.4	3.87
510.75	3.97
511.099	4.05
511.449	4.04
511.798	3.9
512.147	4
512.496	3.92
512.846	3.91
513.195	4
513.544	4.02
513.893	3.95
514.242	4.05
514.591	4.13
514.939	3.91
515.288	4.17
515.637	4.04
515.986	4.06
516.334	4.2
516.683	4.18
517.032	4.15
517.38	4.19
517.729	4.24
518.077	4.27
518.426	4.15
518.774	4.04
519.122	4.21
519.47	4.14
519.819	4.12
520.167	4.08
520.515	4.25
520.863	4.08
521.211	4.11
521.559	4.2
521.907	4.2
522.255	4.1
522.602	4.16
522.95	4.38
523.298	4.32
523.645	4.31
523.993	4.18
524.341	4.4
524.688	4.43
525.036	4.37
525.383	4.42
525.73	4.49
526.078	4.46
526.425	4.46
526.772	4.4
527.119	4.39
527.466	4.27
527.814	4.36
528.161	4.28
528.508	4.25
528.854	4.28
529.201	4.42
529.548	4.35
529.895	4.36
530.242	4.27
530.588	4.23
530.935	4.22
531.282	4.22
531.628	4.29
531.975	4.29
532.321	4.32
532.667	4.4
533.014	4.56
533.36	4.51
533.706	4.49
534.052	4.47
534.399	4.47
534.745	4.54
535.091	4.5
535.437	4.5
535.783	4.46
536.129	4.5
536.474	4.55
536.82	4.49
537.166	4.61
537.512	4.7
537.857	4.8
538.203	4.67
538.549	4.68
538.894	4.59
539.239	4.64
539.585	4.7
539.93	4.74
540.276	4.7
540.621	4.73
540.966	4.71
541.311	4.93
541.656	4.84
542.001	4.88
542.346	4.97
542.691	4.81
543.036	4.77
543.381	4.72
543.726	4.79
544.071	4.79
544.415	4.81
544.76	4.79
545.105	4.91
545.449	4.83
545.794	4.97
546.138	4.97
546.483	4.95
546.827	5.03
547.171	4.95
547.516	5.05
547.86	5.08
548.204	5.13
548.548	5.19
548.892	4.99
549.236	5.03
549.58	5.06
549.924	5.19
550.268	5.19
550.612	5.18
550.956	5.38
551.3	5.32
551.643	5.43
551.987	5.26
552.33	5.44
552.674	5.38
553.017	5.48
553.361	5.42
553.704	5.37
554.048	5.52
554.391	5.44
554.734	5.55
555.077	5.41
555.42	5.32
555.764	5.43
556.107	5.46
556.45	5.5
556.793	5.5
557.135	5.62
557.478	5.53
557.821	5.55
558.164	5.86
558.507	5.59
558.849	5.79
559.192	5.95
559.534	5.69
559.877	5.95
560.219	5.82
560.562	5.77
560.904	5.92
561.246	5.77
561.589	5.79
561.931	5.88
562.273	5.66
562.615	5.88
562.957	6.02
563.299	6.04
563.641	5.8
563.983	5.93
564.325	5.86
564.667	5.83
565.008	6.02
565.35	6.21
565.692	6.17
566.033	5.95
566.375	6.09
566.716	6.17
567.058	6.22
567.399	5.99
567.741	6.01
568.082	6.1
568.423	6.22
568.764	6.11
569.105	6.36
569.447	6.24
569.788	6.18
570.129	6.19
570.47	6.33
570.811	6.35
571.151	6.29
571.492	6.16
571.833	6.29
572.174	6.34
572.514	6.32
572.855	6.29
573.195	6.49
573.536	6.45
573.876	6.19
574.217	6.37
574.557	6.52
574.898	6.45
575.238	6.4
575.578	6.39
575.918	6.61
576.258	6.69
576.598	6.64
576.938	6.66
577.278	6.68
577.618	6.62
577.958	6.74
578.298	6.83
578.638	6.62
578.977	6.9
579.317	6.71
579.657	6.68
579.996	6.86
580.336	6.57
580.675	6.74
581.014	6.93
581.354	6.87
581.693	7
582.032	7.18
582.372	7.02
582.711	7.28
583.05	6.99
583.389	7.16
583.728	7.19
584.067	7.3
584.406	7.03
584.745	7.19
585.083	7.2
585.422	7.05
585.761	7.17
586.1	7.5
586.438	7.33
586.777	7.29
587.115	7.18
587.454	7.32
587.792	7.44
588.13	7.4
588.469	7.34
588.807	7.34
589.145	7.43
589.483	7.46
589.821	7.51
590.159	7.56
590.497	7.52
590.835	7.75
591.173	7.34
591.511	7.49
591.849	7.64
592.187	7.65
592.524	7.74
592.862	7.82
593.2	7.55
593.537	7.81
593.875	7.84
594.212	7.77
594.55	8.04
594.887	7.93
595.224	7.91
595.561	7.72
595.899	7.67
596.236	8.28
596.573	8.08
596.91	7.91
597.247	7.76
597.584	8.08
597.921	8.02
598.258	8.05
598.594	7.91
598.931	7.77
599.268	7.97
599.604	8.14
599.941	8.09
600.277	8.12
600.614	8.11
600.95	8.19
601.287	8.34
601.623	8.55
601.959	8.36
602.296	8.18
602.632	8.48
602.968	8.42
603.304	8.47
603.64	8.13
603.976	8.52
604.312	8.52
604.648	8.47
604.984	8.41
605.319	8.41
605.655	8.51
605.991	8.64
606.326	8.46
606.662	8.46
606.998	8.54
607.333	8.71
607.668	8.48
608.004	8.61
608.339	8.76
608.674	8.72
609.01	8.74
609.345	8.74
609.68	8.87
610.015	8.79
610.35	8.9
610.685	8.86
611.02	8.87
611.355	8.9
611.689	8.78
612.024	8.97
612.359	9.03
612.694	9.14
613.028	8.97
613.363	8.82
613.697	8.97
614.032	9.14
614.366	9.1
614.7	9.42
615.035	8.97
615.369	9.3
615.703	9.3
616.037	9.16
616.371	9.14
616.705	9.09
617.039	9.46
617.373	9.42
617.707	9.45
618.041	9.42
618.375	9.31
618.709	9.91
619.042	9.51
619.376	9.45
619.71	9.49
620.043	9.55
620.377	9.76
620.71	9.59
621.043	9.62
621.377	10.13
621.71	9.69
622.043	9.03
622.376	9.56
622.709	9.8
623.043	9.81
623.376	9.99
623.709	9.99
624.041	9.94
624.374	9.62
624.707	9.64
625.04	9.38
625.373	10.18
625.705	9.98
626.038	10.27
626.37	10.05
626.703	10.34
627.035	10.04
627.368	10.27
627.7	10.41
628.032	10.42
628.365	9.93
628.697	10.21
629.029	10.2
629.361	10.47
629.693	10.07
630.025	10.11
630.357	10.08
630.689	10.28
631.021	10.35
631.353	10.44
631.684	10.66
632.016	10.53
632.348	10.41
632.679	10.24
633.011	10.46
633.342	10.38
633.674	10.56
634.005	10.37
634.336	10.33
634.668	10.92
634.999	10.83
635.33	10.98
635.661	11.11
635.992	10.53
636.323	10.98
636.654	10.88
636.985	10.52
637.316	11.04
637.647	11.5
637.977	10.62
638.308	11.04
638.639	10.78
638.969	11.42
639.3	11.13
639.63	10.8
639.961	11.22
640.291	11.09
640.622	11.15
640.952	10.76
641.282	11.15
641.612	11
641.943	11.42
642.273	11.76
642.603	11.02
642.933	10.87
643.263	11.57
643.592	11.46
643.922	11.21
644.252	11
644.582	11.44
644.911	11.48
645.241	11.41
645.571	11.16
645.9	11.32
646.23	11.65
646.559	11.3
646.888	11.49
647.218	11.37
647.547	11.62
647.876	12.23
648.205	11.86
648.534	11.66
648.863	11.62
649.192	11.75
649.521	12.06
649.85	11.95
650.179	11.88
650.508	11.87
650.837	11.86
651.165	11.67
651.494	12.13
651.822	12.11
652.151	11.88
652.479	12.2
652.808	12.02
653.136	11.84
653.465	12.41
653.793	12.27
654.121	12.11
654.449	12.18
654.777	12.03
655.105	12.27
655.433	12.06
655.761	12
656.089	12.31
656.417	11.43
656.745	12.49
657.073	11.73
657.4	12.11
657.728	13.1
658.056	12.35
658.383	12.41
658.711	12.25
659.038	12.78
659.365	12.53
659.693	12.45
660.02	12.26
660.347	12.83
660.674	12.46
661.001	12.79
661.329	12.41
661.656	12.33
661.982	12.76
662.309	12.84
662.636	12.49
662.963	12.84
663.29	13.26
663.616	12.5
663.943	13.04
664.27	13.25
664.596	12.87
664.923	13.39
665.249	12.97
665.576	12.74
665.902	12.98
666.228	12.55
666.554	12.69
666.881	13.16
667.207	13.17
667.533	13.61
667.859	12.75
668.185	12.36
668.511	13.24
668.837	13.06
669.162	13.2
669.488	12.99
669.814	13.56
670.139	13.58
670.465	13.92
670.791	13.38
671.116	13.05
671.442	13.38
671.767	12.99
672.092	13.89
672.418	13.2
672.743	13.75
673.068	13.43
673.393	13.46
673.718	13.23
674.043	13.84
674.368	12.92
674.693	13.8
675.018	14.16
675.343	13.67
675.667	14.16
675.992	13.92
676.317	13.64
676.641	14.2
676.966	14.31
677.29	14.09
677.615	14.58
677.939	13.98
678.264	14.09
678.588	14.15
678.912	14.4
679.236	14.33
679.56	13.52
679.885	14.28
680.209	14.09
680.532	14.31
680.856	13.74
681.18	14.07
681.504	14.17
681.828	14.02
682.152	14.21
682.475	14.52
682.799	14.19
683.122	14.12
683.446	14.19
683.769	14.59
684.093	14.59
684.416	14.56
684.739	14.53
685.062	14.65
685.386	14.26
685.709	14.44
686.032	13.81
686.355	14.45
686.678	14.64
687.001	14.37
687.324	14.92
687.646	15.14
687.969	14.77
688.292	14.89
