Data from 0140_chest_Reflection__1__169.txt Node

Date: Mon Aug 28 20:09:34 CDT 2023
User: ToomeyLab
Spectrometer: FLMS14357
Trigger mode: 0
Integration Time (sec): 1.000000E-2
Scans to average: 100
Electric dark correction enabled: true
Nonlinearity correction enabled: false
Boxcar width: 0
XAxis mode: Wavelengths
Number of Pixels in Spectrum: 2048
>>>>>Begin Spectral Data<<<<<
189.047	244.96
189.435	244.96
189.823	244.96
190.211	82.37
190.599	-35.94
190.987	-6.48
191.375	333.42
191.763	71.33
192.151	52.83
192.538	78.68
192.926	137.66
193.314	156.93
193.702	393.51
194.089	93.9
194.477	273.38
194.864	51.38
195.252	-325.16
195.639	-53.42
196.027	166.26
196.414	80.39
196.801	105.46
197.189	47.34
197.576	48.36
197.963	-1278.83
198.351	-72.94
198.738	0.85
199.125	21.28
199.512	42.27
199.899	28.49
200.286	5.23
200.673	24.88
201.06	5.12
201.447	-87.31
201.833	-39.85
202.22	10.86
202.607	-19.04
202.994	8.87
203.38	-30.61
203.767	31.68
204.154	-41.09
204.54	-4.61
204.927	-65.58
205.313	41.72
205.699	-27.21
206.086	49.16
206.472	30.02
206.858	-18.43
207.245	11.24
207.631	39.39
208.017	-1.54
208.403	8.35
208.789	6.77
209.175	-57.82
209.561	6.38
209.947	-34.77
210.333	14.14
210.719	2.14
211.105	-12.24
211.491	-20.41
211.876	9.38
212.262	-0.7
212.648	26.74
213.034	-16.78
213.419	6.24
213.805	-2.28
214.19	-34.79
214.576	19.41
214.961	-20.47
215.346	-42.34
215.732	5.18
216.117	-28.84
216.502	-17.19
216.888	-46.74
217.273	-20.2
217.658	20.42
218.043	-33.33
218.428	-1.6
218.813	4.64
219.198	-14.15
219.583	-7.55
219.968	3.42
220.353	-24.7
220.738	0.18
221.122	2.98
221.507	1.62
221.892	-9.15
222.276	-18.75
222.661	-5.88
223.046	-17.48
223.43	9.89
223.815	-7.84
224.199	-0.82
224.583	-7.89
224.968	-0.67
225.352	9.13
225.736	2.39
226.121	-10.97
226.505	-6.6
226.889	-3.38
227.273	1.09
227.657	1.99
228.041	1.9
228.425	0.57
228.809	0.26
229.193	2.05
229.577	2.28
229.961	0.37
230.344	1.27
230.728	1.47
231.112	1.12
231.495	0.6
231.879	1.03
232.263	0.96
232.646	-0.22
233.03	1.53
233.413	3.76
233.797	2.72
234.18	1.34
234.563	-0.45
234.946	5.1
235.33	0.09
235.713	0.16
236.096	1.36
236.479	1.2
236.862	2.54
237.245	1.76
237.628	2.94
238.011	0.75
238.394	1.04
238.777	1.72
239.16	1.43
239.543	-0.76
239.925	2.36
240.308	-0.84
240.691	0.65
241.073	1.04
241.456	0.32
241.838	-0.43
242.221	2.81
242.603	2.44
242.986	1.83
243.368	1.54
243.75	1.26
244.133	1.09
244.515	0.95
244.897	1.84
245.279	1.55
245.661	0.8
246.043	1.17
246.425	1.42
246.807	2.02
247.189	0.88
247.571	1.08
247.953	1.16
248.335	1.15
248.717	1.13
249.098	1.27
249.48	1.28
249.862	1.28
250.243	1.14
250.625	1.55
251.006	1.2
251.388	1.46
251.769	2.27
252.151	-0.32
252.532	0.7
252.913	2.31
253.295	0.21
253.676	0.75
254.057	1.08
254.438	1.08
254.819	1.37
255.2	1.29
255.581	0.44
255.962	1.71
256.343	2.5
256.724	0.62
257.105	-0.27
257.486	2.82
257.867	0.66
258.247	1.51
258.628	1.04
259.009	0.21
259.389	0.63
259.77	1.27
260.15	1.13
260.531	1.08
260.911	1.19
261.292	1.15
261.672	1.28
262.052	1.09
262.432	1.32
262.813	1.34
263.193	1.27
263.573	1.01
263.953	1.96
264.333	1.28
264.713	1.18
265.093	2.21
265.473	0.97
265.853	0.98
266.233	1.46
266.612	1.57
266.992	0.22
267.372	0.97
267.752	1.66
268.131	1.09
268.511	0.61
268.89	1.6
269.27	1.31
269.649	1.11
270.029	2.01
270.408	1.45
270.787	1.8
271.167	1.35
271.546	0.99
271.925	1.53
272.304	1.61
272.683	1.59
273.062	0.82
273.441	1.85
273.82	0.62
274.199	1.03
274.578	1.47
274.957	1.13
275.336	1.6
275.715	1.85
276.093	0.9
276.472	1.08
276.851	0.77
277.229	1.08
277.608	0.97
277.986	1.2
278.365	1.37
278.743	1.18
279.122	1.51
279.5	0.69
279.878	0.84
280.257	0.5
280.635	1.46
281.013	1.39
281.391	1.34
281.769	1.22
282.147	1.44
282.525	0.91
282.903	1.71
283.281	1.16
283.659	1.58
284.037	1.48
284.415	0.96
284.792	1.41
285.17	0.69
285.548	0.93
285.925	1.04
286.303	0.91
286.68	1.11
287.058	1.58
287.435	1.15
287.813	1.04
288.19	1.56
288.567	1.35
288.945	1.09
289.322	1.21
289.699	1.28
290.076	1.35
290.453	1.02
290.83	0.64
291.207	1.18
291.584	1.29
291.961	1.2
292.338	1.13
292.715	0.89
293.092	1.33
293.469	1.23
293.845	1.09
294.222	1.27
294.599	1.03
294.975	1.33
295.352	1.08
295.728	1.38
296.105	1.45
296.481	1.17
296.858	1.65
297.234	1.33
297.61	1.8
297.986	1.18
298.363	1.52
298.739	1.38
299.115	1.01
299.491	1.52
299.867	1.47
300.243	1.22
300.619	1.41
300.995	1.37
301.371	1.24
301.746	1.33
302.122	1.39
302.498	1.58
302.874	1.67
303.249	1.09
303.625	1.36
304	1.48
304.376	1.08
304.751	1.09
305.127	1.56
305.502	1.63
305.878	1.36
306.253	1.27
306.628	1.55
307.003	1.27
307.378	1.94
307.754	1.53
308.129	1.62
308.504	2.19
308.879	1.19
309.254	2.1
309.629	1.25
310.003	1.64
310.378	0.92
310.753	1.51
311.128	1.74
311.502	1.64
311.877	1.26
312.252	1.65
312.626	1.49
313.001	1.67
313.375	1.39
313.75	1.69
314.124	1.29
314.498	1.74
314.873	1.72
315.247	2.4
315.621	1.21
315.995	1.7
316.369	1.4
316.743	1.25
317.117	1.57
317.491	1.03
317.865	0.98
318.239	1.08
318.613	1.54
318.987	1.28
319.361	2.15
319.734	1.84
320.108	2.09
320.482	1.4
320.855	0.96
321.229	1.19
321.602	1.36
321.976	1.08
322.349	2.06
322.723	1.39
323.096	1.85
323.469	1.04
323.843	0.94
324.216	1.55
324.589	1.62
324.962	1.68
325.335	2.36
325.708	1.78
326.081	1.26
326.454	2.08
326.827	1.46
327.2	1.55
327.573	1.61
327.945	1.68
328.318	1.88
328.691	0.7
329.063	1.11
329.436	1.12
329.809	1.11
330.181	1.18
330.553	1.21
330.926	1.72
331.298	2.08
331.671	1.57
332.043	1.67
332.415	2.62
332.787	1.1
333.159	2.04
333.532	2.34
333.904	1.29
334.276	0.91
334.648	1.8
335.02	2.14
335.391	1.46
335.763	1.67
336.135	1.96
336.507	1.36
336.879	0.86
337.25	1.82
337.622	1.82
337.993	2
338.365	1.93
338.736	1.82
339.108	1.3
339.479	1.5
339.851	1.68
340.222	1.71
340.593	1.7
340.964	1.77
341.336	1.03
341.707	1.37
342.078	1.32
342.449	1.32
342.82	1.7
343.191	1.69
343.562	1.18
343.933	1.65
344.303	1.49
344.674	1.73
345.045	1.87
345.416	1.73
345.786	1.63
346.157	1.86
346.527	1.38
346.898	1.56
347.268	1.52
347.639	1.37
348.009	1.53
348.38	1.67
348.75	1.21
349.12	1.75
349.49	1.49
349.861	1.39
350.231	1.17
350.601	2.1
350.971	2.11
351.341	1.69
351.711	1.8
352.081	2.27
352.45	1.66
352.82	1.97
353.19	2.36
353.56	1.59
353.929	1.71
354.299	1.53
354.669	1.95
355.038	2.03
355.408	1.77
355.777	1.3
356.147	1.64
356.516	2.03
356.885	1.78
357.254	1.9
357.624	1.8
357.993	1.72
358.362	1.29
358.731	1.71
359.1	1.75
359.469	1.75
359.838	1.57
360.207	1.88
360.576	2.03
360.945	1.77
361.314	1.56
361.682	1.43
362.051	1.71
362.42	1.64
362.788	1.59
363.157	2.05
363.525	1.75
363.894	1.85
364.262	1.82
364.631	1.52
364.999	1.7
365.367	1.95
365.735	1.69
366.104	1.85
366.472	1.61
366.84	1.84
367.208	1.72
367.576	1.38
367.944	2.11
368.312	2.12
368.68	1.9
369.048	1.76
369.416	1.67
369.783	1.82
370.151	1.95
370.519	1.82
370.886	1.48
371.254	1.26
371.621	1.6
371.989	1.7
372.356	1.86
372.724	2.01
373.091	2.01
373.458	1.89
373.826	1.82
374.193	1.59
374.56	1.84
374.927	1.23
375.294	1.71
375.661	1.91
376.028	1.66
376.395	1.35
376.762	2
377.129	1.96
377.496	1.8
377.863	2.07
378.229	1.58
378.596	2.04
378.963	2.03
379.329	2.16
379.696	1.79
380.062	1.67
380.429	1.61
380.795	1.78
381.161	1.86
381.528	1.95
381.894	1.56
382.26	1.68
382.626	1.85
382.993	1.85
383.359	1.83
383.725	2.1
384.091	1.71
384.457	1.81
384.823	1.83
385.188	2.01
385.554	1.93
385.92	1.87
386.286	2.1
386.651	1.84
387.017	1.95
387.383	1.79
387.748	1.71
388.114	1.71
388.479	1.51
388.845	1.85
389.21	1.87
389.575	2.33
389.94	1.59
390.306	1.87
390.671	1.76
391.036	1.91
391.401	2.08
391.766	2.1
392.131	2.06
392.496	1.83
392.861	1.81
393.226	2.11
393.591	1.77
393.956	1.91
394.32	1.9
394.685	1.98
395.05	2.09
395.414	2.03
395.779	1.74
396.143	1.81
396.508	1.8
396.872	2.09
397.236	1.74
397.601	1.81
397.965	1.82
398.329	2.13
398.694	1.91
399.058	1.75
399.422	1.98
399.786	2.25
400.15	2.19
400.514	2.03
400.878	1.98
401.242	1.86
401.605	1.87
401.969	2.11
402.333	1.84
402.697	1.95
403.06	1.87
403.424	1.97
403.787	1.89
404.151	2
404.514	2.02
404.878	1.79
405.241	2.12
405.604	1.93
405.968	1.73
406.331	2.1
406.694	2.05
407.057	2.21
407.42	1.87
407.783	1.92
408.146	1.92
408.509	2.11
408.872	1.87
409.235	1.98
409.598	2.05
409.961	1.95
410.323	2.21
410.686	1.94
411.049	2.25
411.411	2.09
411.774	1.98
412.136	1.85
412.499	2.15
412.861	2.2
413.223	1.82
413.586	1.77
413.948	1.84
414.31	2.2
414.672	1.95
415.035	2.03
415.397	2.01
415.759	1.98
416.121	2.18
416.483	2.03
416.845	2.16
417.206	2.07
417.568	1.99
417.93	2.08
418.292	2.1
418.653	2
419.015	2.04
419.377	1.78
419.738	2.14
420.1	1.91
420.461	2.14
420.822	2.06
421.184	2.09
421.545	1.97
421.906	2.01
422.267	2
422.629	2.03
422.99	2.04
423.351	2.06
423.712	1.99
424.073	1.95
424.434	2.11
424.795	1.96
425.155	2.02
425.516	2.06
425.877	1.92
426.238	1.94
426.598	1.92
426.959	2.03
427.32	1.99
427.68	2.04
428.041	2.02
428.401	2.2
428.761	2.01
429.122	1.99
429.482	2.15
429.842	2.17
430.202	2.11
430.563	2.05
430.923	2.15
431.283	1.82
431.643	1.97
432.003	2
432.363	2.17
432.722	2.17
433.082	1.99
433.442	2.01
433.802	2.11
434.161	1.99
434.521	2.02
434.881	2.01
435.24	2.17
435.6	2.1
435.959	2.02
436.319	2.19
436.678	2.02
437.037	2.15
437.396	2.25
437.756	2.06
438.115	2.19
438.474	2.32
438.833	2.14
439.192	2.01
439.551	2.07
439.91	2.17
440.269	2.17
440.628	2.01
440.987	2.15
441.345	1.98
441.704	2.12
442.063	2.06
442.421	2.03
442.78	2.1
443.138	2.02
443.497	2.1
443.855	2.17
444.214	2.11
444.572	2.06
444.93	2.15
445.288	2.05
445.647	2.36
446.005	2.24
446.363	2.25
446.721	2.2
447.079	2.06
447.437	2
447.795	2.04
448.153	2.17
448.51	2.06
448.868	2.16
449.226	2.09
449.584	2.07
449.941	2.2
450.299	2.18
450.656	2.08
451.014	2.12
451.371	2.11
451.729	1.97
452.086	2.13
452.443	2.22
452.801	2.3
453.158	2.37
453.515	2.09
453.872	2.13
454.229	2.21
454.586	2.25
454.943	2.24
455.3	2.22
455.657	2.23
456.014	2.21
456.371	2.19
456.727	2.24
457.084	2.19
457.441	2.35
457.797	2.31
458.154	2.21
458.51	2.22
458.867	2.27
459.223	2.28
459.58	2.31
459.936	2.27
460.292	2.25
460.648	2.22
461.005	2.1
461.361	2.23
461.717	2.22
462.073	2.17
462.429	2.2
462.785	2.22
463.141	2.29
463.496	2.22
463.852	2.2
464.208	2.4
464.564	2.17
464.919	2.34
465.275	2.4
465.631	2.22
465.986	2.17
466.342	2.38
466.697	2.21
467.052	2.26
467.408	2.35
467.763	2.09
468.118	2.04
468.473	2.29
468.829	2.35
469.184	2.23
469.539	2.35
469.894	2.27
470.249	2.19
470.603	2.33
470.958	2.2
471.313	2.25
471.668	2.24
472.023	2.39
472.377	2.27
472.732	2.52
473.086	2.43
473.441	2.36
473.795	2.34
474.15	2.5
474.504	2.34
474.859	2.33
475.213	2.44
475.567	2.52
475.921	2.5
476.275	2.45
476.63	2.45
476.984	2.45
477.338	2.39
477.692	2.32
478.045	2.36
478.399	2.34
478.753	2.43
479.107	2.3
479.461	2.23
479.814	2.54
480.168	2.42
480.521	2.39
480.875	2.32
481.228	2.38
481.582	2.28
481.935	2.44
482.289	2.43
482.642	2.47
482.995	2.49
483.348	2.24
483.701	2.44
484.055	2.4
484.408	2.31
484.761	2.38
485.114	2.28
485.466	2.29
485.819	2.2
486.172	2.2
486.525	2.25
486.878	2.27
487.23	2.36
487.583	2.41
487.936	2.42
488.288	2.42
488.641	2.4
488.993	2.38
489.345	2.37
489.698	2.34
490.05	2.34
490.402	2.28
490.754	2.38
491.107	2.4
491.459	2.38
491.811	2.43
492.163	2.52
492.515	2.47
492.866	2.43
493.218	2.41
493.57	2.38
493.922	2.33
494.274	2.42
494.625	2.39
494.977	2.51
495.328	2.59
495.68	2.53
496.031	2.57
496.383	2.4
496.734	2.46
497.086	2.66
497.437	2.65
497.788	2.51
498.139	2.52
498.49	2.52
498.842	2.51
499.193	2.43
499.544	2.51
499.894	2.56
500.245	2.53
500.596	2.59
500.947	2.58
501.298	2.69
501.648	2.52
501.999	2.61
502.35	2.6
502.7	2.56
503.051	2.63
503.401	2.69
503.752	2.6
504.102	2.66
504.452	2.52
504.803	2.62
505.153	2.53
505.503	2.54
505.853	2.62
506.203	2.67
506.553	2.55
506.903	2.8
507.253	2.75
507.603	2.54
507.953	2.74
508.303	2.81
508.652	2.71
509.002	2.85
509.352	2.66
509.701	2.64
510.051	2.62
510.4	2.73
510.75	2.77
511.099	2.76
511.449	2.69
511.798	2.73
512.147	2.72
512.496	2.71
512.846	2.7
513.195	2.82
513.544	2.76
513.893	2.72
514.242	2.77
514.591	2.81
514.939	2.7
515.288	2.8
515.637	2.89
515.986	2.77
516.334	2.89
516.683	2.93
517.032	2.86
517.38	2.89
517.729	2.85
518.077	2.88
518.426	2.68
518.774	2.85
519.122	2.86
519.47	2.82
519.819	2.78
520.167	2.78
520.515	2.9
520.863	2.75
521.211	2.81
521.559	2.82
521.907	2.92
522.255	2.82
522.602	2.82
522.95	3.03
523.298	3
523.645	2.96
523.993	2.92
524.341	2.98
524.688	2.98
525.036	2.99
525.383	3.02
525.73	3.01
526.078	3.09
526.425	2.99
526.772	3.03
527.119	2.94
527.466	2.89
527.814	2.85
528.161	2.93
528.508	2.99
528.854	2.95
529.201	3.08
529.548	2.95
529.895	2.96
530.242	2.93
530.588	2.83
530.935	2.81
531.282	2.88
531.628	2.91
531.975	2.95
532.321	2.97
532.667	3.03
533.014	3.12
533.36	3.09
533.706	3.16
534.052	3.05
534.399	3.05
534.745	3.14
535.091	3.06
535.437	3.06
535.783	3.07
536.129	3.08
536.474	3.09
536.82	3.21
537.166	3.18
537.512	3.19
537.857	3.26
538.203	3.21
538.549	3.15
538.894	3.16
539.239	3.1
539.585	3.14
539.93	3.2
540.276	3.27
540.621	3.35
540.966	3.33
541.311	3.45
541.656	3.26
542.001	3.37
542.346	3.33
542.691	3.25
543.036	3.21
543.381	3.23
543.726	3.21
544.071	3.33
544.415	3.31
544.76	3.31
545.105	3.44
545.449	3.34
545.794	3.46
546.138	3.49
546.483	3.44
546.827	3.49
547.171	3.46
547.516	3.47
547.86	3.55
548.204	3.57
548.548	3.54
548.892	3.51
549.236	3.44
549.58	3.58
549.924	3.59
550.268	3.74
550.612	3.63
550.956	3.66
551.3	3.72
551.643	3.8
551.987	3.68
552.33	3.82
552.674	3.83
553.017	3.7
553.361	3.93
553.704	3.66
554.048	3.78
554.391	3.74
554.734	3.83
555.077	3.85
555.42	3.7
555.764	3.89
556.107	3.76
556.45	3.86
556.793	3.89
557.135	3.99
557.478	3.94
557.821	4.05
558.164	4.12
558.507	4.06
558.849	4.22
559.192	3.88
559.534	4
559.877	4.27
560.219	4.15
560.562	4.17
560.904	4.17
561.246	4
561.589	3.93
561.931	4.11
562.273	4.1
562.615	4.13
562.957	4.28
563.299	4.34
563.641	4.07
563.983	4.11
564.325	4.23
564.667	4.17
565.008	4.17
565.35	4.41
565.692	4.38
566.033	4.24
566.375	4.23
566.716	4.24
567.058	4.39
567.399	4.2
567.741	4.33
568.082	4.25
568.423	4.39
568.764	4.22
569.105	4.5
569.447	4.39
569.788	4.5
570.129	4.48
570.47	4.54
570.811	4.65
571.151	4.32
571.492	4.35
571.833	4.41
572.174	4.62
572.514	4.44
572.855	4.61
573.195	4.63
573.536	4.76
573.876	4.62
574.217	4.66
574.557	4.74
574.898	4.81
575.238	4.86
575.578	4.67
575.918	4.79
576.258	4.8
576.598	4.8
576.938	4.65
577.278	4.73
577.618	4.77
577.958	4.9
578.298	4.97
578.638	4.95
578.977	5.03
579.317	4.83
579.657	4.78
579.996	4.91
580.336	4.81
580.675	5.14
581.014	5.13
581.354	4.91
581.693	5.25
582.032	5.28
582.372	5.33
582.711	5.34
583.05	5.03
583.389	5.31
583.728	5.38
584.067	5.37
584.406	5.29
584.745	5.23
585.083	5.27
585.422	5.11
585.761	5.46
586.1	5.54
586.438	5.35
586.777	5.48
587.115	5.61
587.454	5.66
587.792	5.67
588.13	5.6
588.469	5.48
588.807	5.64
589.145	5.57
589.483	5.55
589.821	5.73
590.159	5.87
590.497	5.54
590.835	5.66
591.173	5.62
591.511	5.59
591.849	5.56
592.187	5.91
592.524	5.83
592.862	6.04
593.2	5.61
593.537	5.93
593.875	6.21
594.212	5.85
594.55	6.08
594.887	5.87
595.224	6.16
595.561	5.87
595.899	5.75
596.236	6.08
596.573	6.21
596.91	5.99
597.247	6.15
597.584	6.18
597.921	6.31
598.258	6.16
598.594	6.21
598.931	6.26
599.268	6.09
599.604	6.13
599.941	6.29
600.277	6.14
600.614	6.43
600.95	6.44
601.287	6.42
601.623	6.51
601.959	6.55
602.296	6.63
602.632	6.49
602.968	6.5
603.304	6.54
603.64	6.56
603.976	6.76
604.312	6.42
604.648	6.6
604.984	6.63
605.319	6.74
605.655	6.81
605.991	6.69
606.326	6.84
606.662	6.54
606.998	6.8
607.333	6.59
607.668	6.79
608.004	6.9
608.339	7.04
608.674	6.79
609.01	7.18
609.345	7.17
609.68	7
610.015	7.19
610.35	7.33
610.685	7.05
611.02	7.15
611.355	7.38
611.689	7.05
612.024	7.15
612.359	7.43
612.694	7.41
613.028	7.06
613.363	7.25
613.697	7.11
614.032	7.32
614.366	7.33
614.7	7.23
615.035	7.3
615.369	7.58
615.703	7.27
616.037	7.27
616.371	7.3
616.705	7.54
617.039	7.41
617.373	7.7
617.707	7.58
618.041	7.75
618.375	7.94
618.709	7.96
619.042	7.99
619.376	7.85
619.71	7.69
620.043	7.87
620.377	8.14
620.71	7.91
621.043	8.02
621.377	8.3
621.71	8.05
622.043	7.85
622.376	8.06
622.709	8.07
623.043	7.87
623.376	8.08
623.709	8.3
624.041	8.43
624.374	7.84
624.707	8.04
625.04	8.03
625.373	8.24
625.705	8.28
626.038	8.06
626.37	8.57
626.703	8.96
627.035	8.73
627.368	8.38
627.7	8.6
628.032	8.47
628.365	7.96
628.697	8.34
629.029	8.68
629.361	8.83
629.693	8.65
630.025	8.72
630.357	8.79
630.689	8.82
631.021	8.76
631.353	8.73
631.684	8.94
632.016	8.73
632.348	8.92
632.679	8.92
633.011	8.99
633.342	8.48
633.674	8.8
634.005	9.18
634.336	8.88
634.668	9.08
634.999	9.14
635.33	9.09
635.661	9.56
635.992	8.83
636.323	9.15
636.654	9.08
636.985	9.18
637.316	9.1
637.647	9.6
637.977	9.23
638.308	9.57
638.639	9.29
638.969	9.46
639.3	9.39
639.63	9.53
639.961	9.59
640.291	9.46
640.622	9.74
640.952	9.36
641.282	9.35
641.612	9.44
641.943	9.46
642.273	10.31
642.603	9.51
642.933	9.48
643.263	10.49
643.592	9.33
643.922	10.09
644.252	9.72
644.582	9.86
644.911	10.28
645.241	10.2
645.571	9.48
645.9	9.7
646.23	9.97
646.559	10
646.888	10.27
647.218	10.25
647.547	10.01
647.876	10.43
648.205	10.31
648.534	10.62
648.863	9.67
649.192	10.63
649.521	10.47
649.85	10.74
650.179	10.32
650.508	10.38
650.837	10.08
651.165	10.55
651.494	10.37
651.822	10.72
652.151	10.71
652.479	10.77
652.808	10.61
653.136	10.3
653.465	10.51
653.793	10.86
654.121	11.24
654.449	10.92
654.777	10.61
655.105	10.77
655.433	10.91
655.761	10.79
656.089	11.14
656.417	10.32
656.745	11.18
657.073	10.66
657.4	11.04
657.728	11.43
658.056	11.06
658.383	11.23
658.711	11.36
659.038	11.3
659.365	11.33
659.693	10.7
660.02	11.04
660.347	11.1
660.674	11.19
661.001	11.48
661.329	11.15
661.656	11.26
661.982	11.41
662.309	11.52
662.636	11.56
662.963	11.76
663.29	11.83
663.616	11.69
663.943	11.65
664.27	11.97
664.596	11.16
664.923	12.04
665.249	11.78
665.576	11.69
665.902	11.4
666.228	11.53
666.554	11.92
666.881	11.66
667.207	11.83
667.533	11.59
667.859	11.51
668.185	11.01
668.511	12.37
668.837	12.06
669.162	12.34
669.488	11.58
669.814	12.52
670.139	11.62
670.465	12.72
670.791	12.01
671.116	12.04
671.442	12.01
671.767	11.79
672.092	12.57
672.418	12.37
672.743	12.32
673.068	12.08
673.393	12.17
673.718	12.32
674.043	11.9
674.368	11.66
674.693	12.98
675.018	13.13
675.343	12.28
675.667	13.39
675.992	13.17
676.317	12.49
676.641	12.89
676.966	13.22
677.29	12.57
677.615	13.78
677.939	13.02
678.264	12.39
678.588	12.86
678.912	13.18
679.236	12.66
679.56	12.2
679.885	13.26
680.209	12.95
680.532	13.69
680.856	12.82
681.18	13.35
681.504	13.45
681.828	13.5
682.152	13.06
682.475	13.02
682.799	13.45
683.122	13.38
683.446	13.3
683.769	13.61
684.093	13.88
684.416	13.74
684.739	13.14
685.062	13.59
685.386	13.29
685.709	13.59
686.032	12.6
686.355	13.28
686.678	14.24
687.001	13.49
687.324	14.02
687.646	13.56
687.969	13.86
688.292	13.84
688.614	14.24
688.937	14
689.26	13.97
