Data from 0140_chest_Reflection__2__170.txt Node

Date: Mon Aug 28 20:09:44 CDT 2023
User: ToomeyLab
Spectrometer: FLMS14357
Trigger mode: 0
Integration Time (sec): 1.000000E-2
Scans to average: 100
Electric dark correction enabled: true
Nonlinearity correction enabled: false
Boxcar width: 0
XAxis mode: Wavelengths
Number of Pixels in Spectrum: 2048
>>>>>Begin Spectral Data<<<<<
189.047	227.1
189.435	227.1
189.823	227.1
190.211	-220.07
190.599	240.68
190.987	8.42
191.375	-42.19
191.763	215.99
192.151	5.65
192.538	-0.48
192.926	115.6
193.314	602.33
193.702	38.38
194.089	6.83
194.477	-273.48
194.864	61.47
195.252	-510.84
195.639	70.93
196.027	184.43
196.414	54.64
196.801	111.33
197.189	43.23
197.576	-96.32
197.963	-648.91
198.351	-5
198.738	24.73
199.125	26.82
199.512	40.47
199.899	34.98
200.286	-18.04
200.673	22.17
201.06	-29.93
201.447	-62.63
201.833	-40.07
202.22	23.88
202.607	-9.14
202.994	39.24
203.38	15.75
203.767	5.88
204.154	15.44
204.54	-30.57
204.927	-47.23
205.313	21.81
205.699	-27.89
206.086	59
206.472	-20.21
206.858	-4.46
207.245	0.07
207.631	4.12
208.017	27.14
208.403	26.4
208.789	-10.73
209.175	-53.55
209.561	-15.01
209.947	-0.84
210.333	-32.93
210.719	13.35
211.105	21.77
211.491	5.83
211.876	5.76
212.262	5.73
212.648	4.33
213.034	6.32
213.419	-37.05
213.805	-12.86
214.19	-9.46
214.576	-0.94
214.961	1.55
215.346	-28.59
215.732	-4.01
216.117	-47.32
216.502	17.07
216.888	-91.79
217.273	-6.4
217.658	5.96
218.043	-13.61
218.428	20.99
218.813	3.69
219.198	1.95
219.583	7.54
219.968	34.06
220.353	-13.56
220.738	27.08
221.122	8.39
221.507	20.17
221.892	-16.53
222.276	1.86
222.661	-2.49
223.046	-19.3
223.43	11.08
223.815	2.48
224.199	0.48
224.583	-4.59
224.968	2.82
225.352	7.95
225.736	3.17
226.121	-4.27
226.505	0.27
226.889	-0.05
227.273	10.18
227.657	8.15
228.041	2.38
228.425	-0.54
228.809	0.89
229.193	-0.13
229.577	1.88
229.961	1.24
230.344	1.21
230.728	1.18
231.112	1.92
231.495	1.99
231.879	0.94
232.263	0.81
232.646	-0.94
233.03	2.42
233.413	4.01
233.797	1.19
234.18	-1.61
234.563	-1.26
234.946	6.58
235.33	1.23
235.713	-0.7
236.096	1.17
236.479	1.58
236.862	2.65
237.245	1.74
237.628	2.41
238.011	5.14
238.394	2.3
238.777	3.3
239.16	0.6
239.543	0.25
239.925	2.41
240.308	0.27
240.691	1.96
241.073	0.99
241.456	1.63
241.838	2.17
242.221	4.06
242.603	2.57
242.986	2.75
243.368	1.14
243.75	1.34
244.133	2.04
244.515	1.74
244.897	1.59
245.279	2.15
245.661	1.32
246.043	1.69
246.425	1.37
246.807	3.06
247.189	1.36
247.571	2.39
247.953	1.49
248.335	1.99
248.717	1.83
249.098	1.67
249.48	1.92
249.862	2.04
250.243	1.59
250.625	2.43
251.006	1.92
251.388	1.46
251.769	1.67
252.151	1.46
252.532	1.43
252.913	2.79
253.295	0.57
253.676	1.94
254.057	1.56
254.438	1.62
254.819	1.19
255.2	1.76
255.581	2.25
255.962	1.38
256.343	2.67
256.724	0.88
257.105	1.15
257.486	2.33
257.867	1.01
258.247	0.32
258.628	2.26
259.009	0.65
259.389	1.14
259.77	1.91
260.15	1.3
260.531	1.54
260.911	1.72
261.292	1.71
261.672	1.47
262.052	1.63
262.432	1.71
262.813	1.79
263.193	1.5
263.573	1.4
263.953	1.49
264.333	1.52
264.713	1.3
265.093	2.04
265.473	2.06
265.853	1.44
266.233	2.29
266.612	2.08
266.992	1.38
267.372	1.21
267.752	1.91
268.131	2.09
268.511	0.98
268.89	2.15
269.27	1.31
269.649	1.56
270.029	2.05
270.408	1.98
270.787	2.23
271.167	1.24
271.546	1.55
271.925	1.87
272.304	1.49
272.683	1.8
273.062	1.12
273.441	2.07
273.82	1.53
274.199	0.95
274.578	1.49
274.957	1.81
275.336	2.21
275.715	2.18
276.093	1.33
276.472	1.56
276.851	1.24
277.229	1.51
277.608	1.98
277.986	1.58
278.365	1.6
278.743	1.99
279.122	0.9
279.5	1.52
279.878	1.18
280.257	0.97
280.635	1.95
281.013	1.48
281.391	2.07
281.769	1.6
282.147	1.47
282.525	1.57
282.903	1.65
283.281	1.24
283.659	2.54
284.037	1.99
284.415	1.61
284.792	1.66
285.17	1.48
285.548	1.62
285.925	1.87
286.303	1.43
286.68	1.87
287.058	1.98
287.435	1.63
287.813	1.56
288.19	2.3
288.567	1.74
288.945	1.51
289.322	1.98
289.699	1.46
290.076	1.98
290.453	1.89
290.83	1.2
291.207	1.58
291.584	1.94
291.961	2.24
292.338	1.61
292.715	1.47
293.092	1.88
293.469	1.81
293.845	1.69
294.222	1.4
294.599	1.65
294.975	1.78
295.352	1.35
295.728	1.92
296.105	1.92
296.481	2.18
296.858	2.01
297.234	2.22
297.61	2.44
297.986	1.91
298.363	2.19
298.739	1.76
299.115	1.87
299.491	2.16
299.867	2.15
300.243	2.02
300.619	1.84
300.995	2.26
301.371	2.1
301.746	2.24
302.122	1.91
302.498	1.7
302.874	2.6
303.249	2.19
303.625	2.28
304	2.02
304.376	1.94
304.751	1.62
305.127	2.5
305.502	2.01
305.878	1.85
306.253	2.37
306.628	2.02
307.003	2.14
307.378	2.2
307.754	2.26
308.129	1.79
308.504	2.42
308.879	1.89
309.254	1.99
309.629	2.27
310.003	1.77
310.378	2.1
310.753	2.15
311.128	2.36
311.502	2.66
311.877	1.99
312.252	2.69
312.626	2.04
313.001	2.12
313.375	2.18
313.75	1.89
314.124	1.96
314.498	2.69
314.873	2.56
315.247	2.45
315.621	1.29
315.995	2.28
316.369	1.97
316.743	1.82
317.117	2.09
317.491	2.01
317.865	1.7
318.239	2.14
318.613	2.56
318.987	2.31
319.361	1.72
319.734	2.26
320.108	1.99
320.482	2.49
320.855	2.14
321.229	2.62
321.602	2.66
321.976	1.8
322.349	2.46
322.723	2.45
323.096	2.45
323.469	1.61
323.843	1.85
324.216	2.09
324.589	3.01
324.962	2.77
325.335	2.58
325.708	1.94
326.081	2
326.454	2.65
326.827	2.23
327.2	1.9
327.573	2.27
327.945	2.73
328.318	2.27
328.691	2.48
329.063	1.77
329.436	1.77
329.809	2.31
330.181	2.83
330.553	2.15
330.926	2.25
331.298	2.8
331.671	1.94
332.043	2.36
332.415	2.72
332.787	2.24
333.159	2.22
333.532	2.64
333.904	2.7
334.276	1.91
334.648	1.9
335.02	2.71
335.391	2.23
335.763	1.71
336.135	2.69
336.507	2.35
336.879	1.86
337.25	2.51
337.622	1.97
337.993	2.66
338.365	2.38
338.736	2.94
339.108	2.18
339.479	1.64
339.851	2.66
340.222	1.98
340.593	2
340.964	2.29
341.336	2.28
341.707	2.42
342.078	2.16
342.449	2.86
342.82	2.83
343.191	2.76
343.562	2.15
343.933	2.36
344.303	2.12
344.674	2.58
345.045	2.87
345.416	2.36
345.786	2.74
346.157	2.34
346.527	1.87
346.898	2.26
347.268	2.35
347.639	2.03
348.009	2.22
348.38	2.05
348.75	2.38
349.12	2.53
349.49	2.09
349.861	2.13
350.231	2.41
350.601	2.81
350.971	2.89
351.341	2.26
351.711	2.26
352.081	2.19
352.45	2.1
352.82	2.46
353.19	2.87
353.56	2.52
353.929	2.66
354.299	2.1
354.669	2.49
355.038	2.85
355.408	2.8
355.777	2.42
356.147	2.48
356.516	3.17
356.885	2.88
357.254	2.47
357.624	2.31
357.993	2.76
358.362	2.2
358.731	2.39
359.1	2.51
359.469	2.58
359.838	2.45
360.207	2.49
360.576	2.57
360.945	2.49
361.314	2.3
361.682	2.29
362.051	2.74
362.42	2.23
362.788	2.54
363.157	2.48
363.525	2.39
363.894	2.4
364.262	2.36
364.631	2.24
364.999	2.41
365.367	2.43
365.735	2.1
366.104	2.46
366.472	2.29
366.84	2.38
367.208	2.19
367.576	2.55
367.944	2.8
368.312	3
368.68	2.6
369.048	2.59
369.416	2.51
369.783	2.25
370.151	2.84
370.519	2.64
370.886	2.25
371.254	2.42
371.621	2.09
371.989	2.43
372.356	2.46
372.724	2.68
373.091	2.62
373.458	2.31
373.826	2.46
374.193	2.59
374.56	2.82
374.927	2.06
375.294	2.37
375.661	2.46
376.028	2.18
376.395	2.22
376.762	2.94
377.129	2.25
377.496	2.41
377.863	2.73
378.229	2.48
378.596	2.57
378.963	2.58
379.329	2.75
379.696	2.53
380.062	2.51
380.429	2.42
380.795	2.61
381.161	2.6
381.528	2.85
381.894	2.57
382.26	2.77
382.626	2.85
382.993	2.59
383.359	2.63
383.725	2.96
384.091	2.62
384.457	2.54
384.823	2.25
385.188	2.39
385.554	2.13
385.92	2.53
386.286	2.64
386.651	2.57
387.017	2.8
387.383	2.72
387.748	2.67
388.114	2.58
388.479	2.34
388.845	2.31
389.21	2.71
389.575	2.68
389.94	2.47
390.306	2.7
390.671	2.52
391.036	2.51
391.401	3.01
391.766	2.78
392.131	2.66
392.496	2.47
392.861	2.76
393.226	2.78
393.591	2.36
393.956	2.53
394.32	2.53
394.685	2.59
395.05	2.68
395.414	2.57
395.779	2.74
396.143	2.6
396.508	2.47
396.872	2.73
397.236	2.59
397.601	2.52
397.965	2.69
398.329	2.86
398.694	2.68
399.058	2.57
399.422	2.67
399.786	2.7
400.15	2.82
400.514	2.49
400.878	2.63
401.242	2.78
401.605	2.99
401.969	2.64
402.333	2.57
402.697	2.58
403.06	2.79
403.424	2.79
403.787	2.74
404.151	2.38
404.514	2.66
404.878	2.65
405.241	2.66
405.604	2.79
405.968	2.73
406.331	2.83
406.694	2.79
407.057	2.84
407.42	2.8
407.783	2.55
408.146	2.53
408.509	2.9
408.872	2.69
409.235	2.92
409.598	2.75
409.961	2.65
410.323	2.85
410.686	2.8
411.049	2.88
411.411	2.84
411.774	2.86
412.136	2.62
412.499	2.74
412.861	2.76
413.223	2.7
413.586	2.55
413.948	2.85
414.31	2.77
414.672	2.69
415.035	2.83
415.397	2.6
415.759	2.93
416.121	2.92
416.483	2.64
416.845	2.84
417.206	2.93
417.568	2.76
417.93	2.87
418.292	2.84
418.653	2.56
419.015	2.71
419.377	2.74
419.738	2.93
420.1	2.8
420.461	2.75
420.822	2.83
421.184	2.77
421.545	2.74
421.906	2.79
422.267	2.83
422.629	2.66
422.99	2.66
423.351	2.77
423.712	2.69
424.073	2.79
424.434	2.84
424.795	2.74
425.155	2.77
425.516	2.69
425.877	2.71
426.238	2.69
426.598	2.71
426.959	2.76
427.32	2.78
427.68	2.88
428.041	2.81
428.401	2.87
428.761	2.8
429.122	2.76
429.482	2.83
429.842	2.92
430.202	2.81
430.563	2.99
430.923	3.04
431.283	2.84
431.643	2.67
432.003	2.74
432.363	2.91
432.722	2.77
433.082	2.75
433.442	2.96
433.802	3.07
434.161	2.87
434.521	2.75
434.881	2.76
435.24	2.92
435.6	2.9
435.959	2.94
436.319	2.93
436.678	2.93
437.037	3.09
437.396	3.04
437.756	2.89
438.115	2.96
438.474	3.12
438.833	2.86
439.192	2.85
439.551	2.92
439.91	3.03
440.269	2.84
440.628	2.82
440.987	2.85
441.345	2.84
441.704	2.95
442.063	2.95
442.421	2.95
442.78	2.91
443.138	2.94
443.497	2.99
443.855	2.93
444.214	3.01
444.572	2.98
444.93	3
445.288	2.87
445.647	3.04
446.005	3.04
446.363	3.05
446.721	3.05
447.079	3.08
447.437	2.98
447.795	2.82
448.153	2.92
448.51	2.9
448.868	3
449.226	2.96
449.584	2.86
449.941	2.96
450.299	2.99
450.656	3.04
451.014	2.97
451.371	3
451.729	2.85
452.086	3.18
452.443	3.09
452.801	3.18
453.158	3.13
453.515	3.07
453.872	3.16
454.229	3.09
454.586	3.21
454.943	3.08
455.3	3
455.657	3.04
456.014	3.24
456.371	3.09
456.727	3.2
457.084	3
457.441	3.13
457.797	3.01
458.154	3.18
458.51	3.23
458.867	3
459.223	3.06
459.58	2.97
459.936	3.21
460.292	3.15
460.648	3.08
461.005	3.01
461.361	3.08
461.717	3.14
462.073	3.06
462.429	2.95
462.785	3.08
463.141	3.07
463.496	3.26
463.852	3.21
464.208	3.25
464.564	3.1
464.919	3.22
465.275	3.38
465.631	3.22
465.986	3.26
466.342	3.27
466.697	3.16
467.052	3.17
467.408	3.15
467.763	3.09
468.118	3.2
468.473	3.06
468.829	3.15
469.184	3.11
469.539	3.17
469.894	3.11
470.249	3.29
470.603	3.17
470.958	3.11
471.313	3.22
471.668	3.13
472.023	3.22
472.377	3.1
472.732	3.43
473.086	3.41
473.441	3.29
473.795	3.32
474.15	3.29
474.504	3.26
474.859	3.3
475.213	3.39
475.567	3.33
475.921	3.51
476.275	3.3
476.63	3.38
476.984	3.25
477.338	3.33
477.692	3.25
478.045	3.36
478.399	3.25
478.753	3.23
479.107	3.36
479.461	3.4
479.814	3.42
480.168	3.39
480.521	3.34
480.875	3.38
481.228	3.22
481.582	3.36
481.935	3.33
482.289	3.45
482.642	3.36
482.995	3.49
483.348	3.25
483.701	3.32
484.055	3.31
484.408	3.27
484.761	3.28
485.114	3.21
485.466	3.16
485.819	3.13
486.172	3.07
486.525	3.13
486.878	3.18
487.23	3.26
487.583	3.36
487.936	3.37
488.288	3.41
488.641	3.36
488.993	3.3
489.345	3.3
489.698	3.26
490.05	3.23
490.402	3.27
490.754	3.31
491.107	3.39
491.459	3.37
491.811	3.36
492.163	3.46
492.515	3.41
492.866	3.49
493.218	3.4
493.57	3.33
493.922	3.33
494.274	3.38
494.625	3.38
494.977	3.57
495.328	3.55
495.68	3.5
496.031	3.58
496.383	3.43
496.734	3.51
497.086	3.65
497.437	3.74
497.788	3.55
498.139	3.5
498.49	3.57
498.842	3.55
499.193	3.56
499.544	3.52
499.894	3.55
500.245	3.45
500.596	3.56
500.947	3.6
501.298	3.75
501.648	3.57
501.999	3.76
502.35	3.69
502.7	3.7
503.051	3.74
503.401	3.82
503.752	3.7
504.102	3.67
504.452	3.6
504.803	3.69
505.153	3.58
505.503	3.57
505.853	3.63
506.203	3.63
506.553	3.64
506.903	3.74
507.253	3.84
507.603	3.76
507.953	3.92
508.303	3.89
508.652	3.74
509.002	3.96
509.352	3.79
509.701	3.74
510.051	3.81
510.4	3.76
510.75	3.9
511.099	3.9
511.449	3.89
511.798	3.88
512.147	3.91
512.496	3.9
512.846	3.81
513.195	3.84
513.544	3.91
513.893	3.85
514.242	3.92
514.591	3.92
514.939	3.8
515.288	3.91
515.637	4
515.986	3.96
516.334	4.03
516.683	4
517.032	4.02
517.38	4.02
517.729	4.08
518.077	3.96
518.426	3.89
518.774	3.98
519.122	4.04
519.47	4.06
519.819	4.02
520.167	3.95
520.515	4.05
520.863	3.92
521.211	3.96
521.559	4.03
521.907	4.07
522.255	3.98
522.602	4.04
522.95	4.21
523.298	4.18
523.645	4.24
523.993	4.14
524.341	4.18
524.688	4.27
525.036	4.16
525.383	4.21
525.73	4.17
526.078	4.38
526.425	4.2
526.772	4.21
527.119	4.19
527.466	4.15
527.814	4.09
528.161	4.1
528.508	4.14
528.854	4.23
529.201	4.27
529.548	4.17
529.895	4.19
530.242	4.15
530.588	4.09
530.935	4.01
531.282	4.1
531.628	4.14
531.975	4.22
532.321	4.21
532.667	4.32
533.014	4.37
533.36	4.4
533.706	4.37
534.052	4.37
534.399	4.37
534.745	4.37
535.091	4.36
535.437	4.33
535.783	4.31
536.129	4.33
536.474	4.37
536.82	4.48
537.166	4.48
537.512	4.56
537.857	4.58
538.203	4.45
538.549	4.52
538.894	4.5
539.239	4.51
539.585	4.61
539.93	4.58
540.276	4.62
540.621	4.74
540.966	4.63
541.311	4.79
541.656	4.77
542.001	4.72
542.346	4.72
542.691	4.58
543.036	4.55
543.381	4.56
543.726	4.58
544.071	4.69
544.415	4.62
544.76	4.79
545.105	4.82
545.449	4.7
545.794	4.81
546.138	4.84
546.483	4.81
546.827	4.82
547.171	4.88
547.516	4.9
547.86	4.87
548.204	5.09
548.548	4.94
548.892	4.87
549.236	4.91
549.58	4.99
549.924	4.97
550.268	5.09
550.612	5.08
550.956	5.24
551.3	5.17
551.643	5.16
551.987	5.08
552.33	5.26
552.674	5.21
553.017	5.38
553.361	5.38
553.704	5.22
554.048	5.49
554.391	5.38
554.734	5.23
555.077	5.31
555.42	5.42
555.764	5.46
556.107	5.28
556.45	5.56
556.793	5.41
557.135	5.59
557.478	5.57
557.821	5.53
558.164	5.67
558.507	5.7
558.849	5.59
559.192	5.47
559.534	5.37
559.877	5.51
560.219	5.71
560.562	5.76
560.904	5.82
561.246	5.68
561.589	5.73
561.931	5.77
562.273	5.58
562.615	5.53
562.957	6.03
563.299	5.95
563.641	5.78
563.983	5.91
564.325	6
564.667	5.84
565.008	5.78
565.35	6.14
565.692	6.1
566.033	5.85
566.375	5.92
566.716	5.84
567.058	6.03
567.399	5.99
567.741	6.06
568.082	6.07
568.423	6.11
568.764	6.01
569.105	6.32
569.447	6.1
569.788	6.16
570.129	6.31
570.47	6.35
570.811	6.29
571.151	6.16
571.492	6.27
571.833	6.42
572.174	6.4
572.514	6.35
572.855	6.4
573.195	6.47
573.536	6.49
573.876	6.15
574.217	6.51
574.557	6.56
574.898	6.61
575.238	6.52
575.578	6.59
575.918	6.67
576.258	6.65
576.598	6.49
576.938	6.55
577.278	6.64
577.618	6.61
577.958	6.71
578.298	6.84
578.638	6.75
578.977	6.9
579.317	6.73
579.657	6.83
579.996	6.88
580.336	6.82
580.675	6.82
581.014	7.18
581.354	7.09
581.693	7.26
582.032	7.23
582.372	7.07
582.711	7.38
583.05	7.07
583.389	7.09
583.728	7.22
584.067	7.34
584.406	7.1
584.745	7.25
585.083	7.13
585.422	7.24
585.761	7.29
586.1	7.69
586.438	7.34
586.777	7.45
587.115	7.72
587.454	7.65
587.792	7.52
588.13	7.61
588.469	7.51
588.807	7.59
589.145	7.59
589.483	7.68
589.821	7.65
590.159	7.85
590.497	7.71
590.835	7.65
591.173	7.57
591.511	7.57
591.849	7.87
592.187	8.05
592.524	7.94
592.862	8.12
593.2	7.93
593.537	7.89
593.875	8.12
594.212	8.15
594.55	8.14
594.887	7.9
595.224	8.01
595.561	7.91
595.899	7.88
596.236	8.24
596.573	8.56
596.91	8.35
597.247	8.34
597.584	8.36
597.921	8.29
598.258	8.38
598.594	8.19
598.931	8.28
599.268	8.29
599.604	8.41
599.941	8.38
600.277	8.44
600.614	8.67
600.95	8.52
601.287	8.65
601.623	8.71
601.959	8.66
602.296	8.62
602.632	8.54
602.968	8.77
603.304	8.71
603.64	8.68
603.976	8.82
604.312	8.74
604.648	8.68
604.984	8.8
605.319	8.75
605.655	8.88
605.991	8.9
606.326	8.88
606.662	8.84
606.998	8.89
607.333	8.9
607.668	9.1
608.004	9.02
608.339	9.04
608.674	9.03
609.01	9.13
609.345	9.37
609.68	9.29
610.015	9.53
610.35	9.46
610.685	9.28
611.02	9.32
611.355	9.55
611.689	9.43
612.024	9.51
612.359	9.43
612.694	9.7
613.028	9.69
613.363	9.26
613.697	9.56
614.032	9.87
614.366	9.48
614.7	9.54
615.035	9.43
615.369	9.84
615.703	10.02
616.037	9.51
616.371	9.88
616.705	9.62
617.039	9.67
617.373	9.8
617.707	9.99
618.041	9.98
618.375	10.09
618.709	10.08
619.042	10.31
619.376	10.06
619.71	10
620.043	10.37
620.377	10.42
620.71	10.57
621.043	10.25
621.377	10.15
621.71	10.29
622.043	9.69
622.376	10.31
622.709	10.54
623.043	10.55
623.376	10.91
623.709	10.58
624.041	10.66
624.374	10.3
624.707	10.31
625.04	10.25
625.373	10.52
625.705	10.84
626.038	10.66
626.37	10.68
626.703	10.88
627.035	10.76
627.368	11.02
627.7	10.95
628.032	11.02
628.365	10.37
628.697	10.89
629.029	10.98
629.361	10.92
629.693	10.79
630.025	10.79
630.357	10.97
630.689	11.16
631.021	11.25
631.353	11.16
631.684	11.44
632.016	11.39
632.348	11.27
632.679	11.38
633.011	11.26
633.342	11.08
633.674	11.3
634.005	11.39
634.336	11.41
634.668	11.61
634.999	11.71
635.33	11.8
635.661	11.58
635.992	11.41
636.323	11.88
636.654	11.46
636.985	11.94
637.316	11.45
637.647	11.78
637.977	11.9
638.308	12.03
638.639	11.52
638.969	11.99
639.3	11.8
639.63	11.79
639.961	12
640.291	11.98
640.622	11.92
640.952	11.71
641.282	12.02
641.612	12.08
641.943	12.03
642.273	12.61
642.603	11.96
642.933	12.02
643.263	12.47
643.592	12.33
643.922	12.42
644.252	12.28
644.582	12.03
644.911	12.45
645.241	12.72
645.571	12.51
645.9	12.06
646.23	12.15
646.559	12.7
646.888	12.97
647.218	12.08
647.547	11.99
647.876	12.61
648.205	12.61
648.534	12.83
648.863	12.22
649.192	13.19
649.521	12.92
649.85	13.06
650.179	12.67
650.508	12.9
650.837	12.56
651.165	12.87
651.494	13.01
651.822	12.89
652.151	12.91
652.479	13.48
652.808	13.1
653.136	13.12
653.465	13.3
653.793	13.34
654.121	13.39
654.449	13.13
654.777	13.31
655.105	12.93
655.433	13.49
655.761	13.01
656.089	13.5
656.417	12.88
656.745	13.45
657.073	13.18
657.4	13.5
657.728	13.84
658.056	13.75
658.383	13.42
658.711	13.13
659.038	13.82
659.365	13.52
659.693	13.67
660.02	13.57
660.347	13.62
660.674	13.73
661.001	14.22
661.329	13.7
661.656	13.82
661.982	13.84
662.309	13.88
662.636	14.11
662.963	14.24
663.29	13.98
663.616	14.15
663.943	14.31
664.27	14.34
664.596	14.14
664.923	14.67
665.249	14.52
665.576	14.24
665.902	13.94
666.228	14.13
666.554	14.39
666.881	14.05
667.207	14.66
667.533	14.18
667.859	14.01
668.185	14.54
668.511	14.59
668.837	14.01
669.162	14.81
669.488	14.56
669.814	14.82
670.139	14.53
670.465	14.92
670.791	14.38
671.116	14.47
671.442	14.54
671.767	13.84
672.092	14.44
672.418	14.44
672.743	14.95
673.068	14.8
673.393	15.17
673.718	14.46
674.043	15.12
674.368	15.06
674.693	14.85
675.018	15.89
675.343	15.25
675.667	15.42
675.992	15.17
676.317	14.65
676.641	15.36
676.966	15.51
677.29	15.02
677.615	15.74
677.939	15.05
678.264	15.13
678.588	15.39
678.912	15.43
679.236	14.91
679.56	14.73
679.885	16.15
680.209	15.58
680.532	16.15
680.856	15.04
681.18	15.34
681.504	14.93
681.828	15.34
682.152	15.82
682.475	15.86
682.799	16.14
683.122	15.67
683.446	15.6
683.769	16.18
684.093	15.77
684.416	16.3
684.739	15.53
685.062	16.1
685.386	15.95
685.709	16.3
686.032	15.36
686.355	16.67
686.678	16.33
687.001	16.01
687.324	16.31
687.646	16.24
