Data from 0344_chest_Reflection__3__327.txt Node

Date: Fri Oct 20 23:16:58 CDT 2023
User: ToomeyLab
Spectrometer: FLMS14357
Trigger mode: 0
Integration Time (sec): 1.000000E-2
Scans to average: 100
Electric dark correction enabled: true
Nonlinearity correction enabled: false
Boxcar width: 0
XAxis mode: Wavelengths
Number of Pixels in Spectrum: 2048
>>>>>Begin Spectral Data<<<<<
189.047	53.67
189.435	53.67
189.823	53.67
190.211	102.15
190.599	-104.62
190.987	228.29
191.375	-224.28
191.763	46.16
192.151	-294.69
192.538	71.28
192.926	18.48
193.314	267.07
193.702	52.13
194.089	70.46
194.477	-87.8
194.864	127.3
195.252	163.01
195.639	142.79
196.027	-1152.32
196.414	100.09
196.801	146.79
197.189	-360.72
197.576	124.25
197.963	-141.71
198.351	55.08
198.738	-14.71
199.125	28.04
199.512	30.23
199.899	-1.36
200.286	-45.59
200.673	3.75
201.06	24.43
201.447	-11.68
201.833	43.5
202.22	-12.49
202.607	33.69
202.994	26.92
203.38	-0.06
203.767	-3.23
204.154	37.58
204.54	49.93
204.927	16.18
205.313	-12.11
205.699	47.47
206.086	14.28
206.472	27.28
206.858	57.36
207.245	-50.23
207.631	22.88
208.017	15.61
208.403	9
208.789	27.62
209.175	4.06
209.561	2.86
209.947	-7.38
210.333	31.45
210.719	-0.87
211.105	39.54
211.491	33.36
211.876	36.63
212.262	30.66
212.648	-1.54
213.034	-3.28
213.419	0.07
213.805	19.74
214.19	-5.26
214.576	-5.11
214.961	9.31
215.346	41.69
215.732	-2.5
216.117	-44.72
216.502	-5.63
216.888	-13.26
217.273	3.44
217.658	3.89
218.043	-9.65
218.428	-0.19
218.813	24.03
219.198	17.67
219.583	-63.71
219.968	-17.15
220.353	13.23
220.738	15.52
221.122	12.9
221.507	16.73
221.892	-3.2
222.276	3.71
222.661	16.41
223.046	0.98
223.43	3.75
223.815	11.33
224.199	7.4
224.583	-0.81
224.968	0.59
225.352	-7.92
225.736	4.99
226.121	2.72
226.505	-8.76
226.889	3.75
227.273	-2.28
227.657	9.56
228.041	9.62
228.425	1.34
228.809	6.02
229.193	2.28
229.577	8.47
229.961	2.72
230.344	4.28
230.728	2.9
231.112	4.89
231.495	3.98
231.879	4.13
232.263	4.24
232.646	3.95
233.03	3.51
233.413	3.74
233.797	3.25
234.18	3.16
234.563	3.71
234.946	3.6
235.33	3.64
235.713	5.36
236.096	4.81
236.479	4.26
236.862	4.11
237.245	4.44
237.628	4.1
238.011	3.3
238.394	2.69
238.777	6.1
239.16	5.5
239.543	3.99
239.925	4.08
240.308	4.8
240.691	3
241.073	5.56
241.456	4.94
241.838	3.31
242.221	4.07
242.603	3.7
242.986	5.04
243.368	4.67
243.75	4.29
244.133	3.69
244.515	3.93
244.897	4.3
245.279	4.65
245.661	3.86
246.043	3.75
246.425	4.47
246.807	3.89
247.189	3.98
247.571	3.2
247.953	4.43
248.335	4.1
248.717	3.85
249.098	3.75
249.48	3.92
249.862	4.23
250.243	4.1
250.625	4.19
251.006	4.14
251.388	4.05
251.769	4.22
252.151	2.91
252.532	3.58
252.913	3.74
253.295	3.29
253.676	4.21
254.057	3.53
254.438	4.25
254.819	4.42
255.2	3.54
255.581	3.43
255.962	3.79
256.343	4.37
256.724	2.48
257.105	4.1
257.486	3.88
257.867	4.06
258.247	3.2
258.628	3.41
259.009	3.44
259.389	3.13
259.77	3.69
260.15	3.75
260.531	4.27
260.911	4.22
261.292	3.72
261.672	3.82
262.052	3.79
262.432	3.8
262.813	3.82
263.193	3.21
263.573	4.09
263.953	3.72
264.333	3.95
264.713	4.28
265.093	4.06
265.473	4.26
265.853	3.26
266.233	4.39
266.612	3.61
266.992	3.85
267.372	2.89
267.752	3.43
268.131	3.72
268.511	3.97
268.89	4.18
269.27	3.07
269.649	3.24
270.029	3.79
270.408	3.94
270.787	3.32
271.167	3.37
271.546	3.97
271.925	3.68
272.304	3.89
272.683	3.93
273.062	3.91
273.441	3.45
273.82	3.83
274.199	3.89
274.578	3.55
274.957	3.78
275.336	3.75
275.715	3.91
276.093	3.56
276.472	3.53
276.851	3.93
277.229	4
277.608	3.49
277.986	3.17
278.365	3.79
278.743	3.4
279.122	3.47
279.5	3.49
279.878	2.77
280.257	3.48
280.635	3.61
281.013	3.64
281.391	4.13
281.769	2.96
282.147	3.14
282.525	3.55
282.903	3.77
283.281	3.71
283.659	3.41
284.037	3.77
284.415	3.75
284.792	3.25
285.17	3.44
285.548	3.35
285.925	3.01
286.303	3.33
286.68	3.36
287.058	3.74
287.435	3.56
287.813	3.03
288.19	3.57
288.567	3.31
288.945	3.57
289.322	4.05
289.699	3.09
290.076	3.93
290.453	3.67
290.83	3.28
291.207	3.84
291.584	3.38
291.961	3.85
292.338	3.57
292.715	3.75
293.092	3.61
293.469	3.95
293.845	3.44
294.222	3.35
294.599	3.39
294.975	4.15
295.352	3.77
295.728	3.58
296.105	3.65
296.481	3.42
296.858	3.66
297.234	3.81
297.61	3.22
297.986	3.45
298.363	3.98
298.739	3.77
299.115	3.4
299.491	4.01
299.867	3.81
300.243	3.72
300.619	3.81
300.995	3.63
301.371	3.66
301.746	3.63
302.122	3.77
302.498	3.26
302.874	3.62
303.249	3.57
303.625	3.64
304	3.94
304.376	3.14
304.751	3.47
305.127	3.24
305.502	4.04
305.878	3.61
306.253	3.26
306.628	3.88
307.003	4.09
307.378	3.92
307.754	3.39
308.129	4.36
308.504	3.96
308.879	4.12
309.254	4.09
309.629	3.78
310.003	3.43
310.378	4.09
310.753	3.53
311.128	3.64
311.502	3.63
311.877	3.73
312.252	3.49
312.626	3.86
313.001	3.56
313.375	3.84
313.75	3.74
314.124	3.54
314.498	3.53
314.873	3.73
315.247	3.54
315.621	2.96
315.995	3.9
316.369	3.14
316.743	4.07
317.117	3.92
317.491	2.92
317.865	3.7
318.239	3.74
318.613	3.64
318.987	3.7
319.361	2.75
319.734	3.63
320.108	3.59
320.482	3.59
320.855	4.06
321.229	3.85
321.602	3.75
321.976	3.65
322.349	4.19
322.723	3.23
323.096	4.22
323.469	4.22
323.843	3.64
324.216	3.58
324.589	3.92
324.962	3.99
325.335	3.96
325.708	3.65
326.081	3.59
326.454	3.87
326.827	4.4
327.2	4.07
327.573	3.78
327.945	4.17
328.318	3.73
328.691	3.7
329.063	3.89
329.436	3.5
329.809	4.13
330.181	3.98
330.553	4.3
330.926	3.95
331.298	3.66
331.671	3.91
332.043	3.53
332.415	4.16
332.787	3.59
333.159	3.23
333.532	3.97
333.904	4.24
334.276	3.41
334.648	3.95
335.02	3.74
335.391	3.57
335.763	3.96
336.135	3.76
336.507	3.59
336.879	3.88
337.25	3.78
337.622	4.32
337.993	4.37
338.365	3.28
338.736	3.89
339.108	4.15
339.479	4.26
339.851	4.14
340.222	3.36
340.593	3.71
340.964	3.96
341.336	4.46
341.707	3.81
342.078	3.93
342.449	3.69
342.82	3.91
343.191	3.96
343.562	3.76
343.933	3.81
344.303	3.95
344.674	4.23
345.045	3.97
345.416	3.9
345.786	4.2
346.157	4.01
346.527	4.01
346.898	3.86
347.268	4.17
347.639	4.1
348.009	3.46
348.38	3.93
348.75	3.75
349.12	3.48
349.49	3.37
349.861	4.33
350.231	3.61
350.601	4.07
350.971	4.24
351.341	3.9
351.711	4.26
352.081	3.82
352.45	4
352.82	4.06
353.19	4.03
353.56	3.94
353.929	3.6
354.299	3.76
354.669	3.66
355.038	4.12
355.408	4.11
355.777	4.22
356.147	3.74
356.516	3.53
356.885	3.92
357.254	4.15
357.624	4.13
357.993	3.99
358.362	4.22
358.731	3.73
359.1	3.46
359.469	3.81
359.838	4.16
360.207	3.96
360.576	4.1
360.945	3.67
361.314	4.03
361.682	4.09
362.051	3.59
362.42	3.69
362.788	4.27
363.157	4.01
363.525	3.79
363.894	3.88
364.262	3.76
364.631	4.18
364.999	4.06
365.367	4.05
365.735	3.78
366.104	3.92
366.472	3.81
366.84	3.97
367.208	3.85
367.576	3.78
367.944	3.78
368.312	3.79
368.68	3.98
369.048	4.2
369.416	4.12
369.783	4.08
370.151	3.8
370.519	4.16
370.886	4.01
371.254	4.35
371.621	4.25
371.989	3.58
372.356	3.87
372.724	3.94
373.091	3.67
373.458	3.8
373.826	3.72
374.193	3.67
374.56	4.04
374.927	3.96
375.294	4.14
375.661	4.13
376.028	4.13
376.395	4.04
376.762	3.91
377.129	4.1
377.496	4.26
377.863	4.23
378.229	4.25
378.596	4.1
378.963	4.14
379.329	4.05
379.696	3.98
380.062	4.1
380.429	3.79
380.795	3.62
381.161	3.92
381.528	4.12
381.894	3.94
382.26	4.02
382.626	4.31
382.993	4.1
383.359	3.75
383.725	3.97
384.091	3.99
384.457	3.85
384.823	4
385.188	4.31
385.554	3.98
385.92	4.18
386.286	4.1
386.651	3.86
387.017	4.32
387.383	4.05
387.748	3.9
388.114	4.05
388.479	4
388.845	4.3
389.21	3.94
389.575	3.75
389.94	4.11
390.306	4.07
390.671	4.21
391.036	4
391.401	4.27
391.766	4.07
392.131	4.14
392.496	4.02
392.861	4.07
393.226	4.2
393.591	3.98
393.956	3.88
394.32	4.24
394.685	4.05
395.05	4.37
395.414	4.24
395.779	3.8
396.143	4.1
396.508	3.91
396.872	4.1
397.236	4.04
397.601	3.95
397.965	3.96
398.329	4.13
398.694	4.31
399.058	3.94
399.422	4.01
399.786	4.08
400.15	4.04
400.514	3.87
400.878	4.19
401.242	4.05
401.605	4.08
401.969	3.98
402.333	4.08
402.697	4.14
403.06	4.24
403.424	4.2
403.787	4.09
404.151	4.06
404.514	4.03
404.878	4.24
405.241	4.14
405.604	4.19
405.968	4.15
406.331	3.98
406.694	4.08
407.057	4.05
407.42	4.59
407.783	4.27
408.146	3.96
408.509	4.19
408.872	4.28
409.235	4.01
409.598	4.28
409.961	4.01
410.323	4.07
410.686	4.02
411.049	4.11
411.411	4.16
411.774	4.19
412.136	4.06
412.499	4.33
412.861	4.21
413.223	4.17
413.586	4.02
413.948	4.21
414.31	4.26
414.672	4.09
415.035	4.04
415.397	4.2
415.759	4.03
416.121	4.01
416.483	4.25
416.845	4.14
417.206	4.16
417.568	4.23
417.93	4.17
418.292	3.94
418.653	4.25
419.015	4.3
419.377	4.06
419.738	4.2
420.1	4.05
420.461	4.09
420.822	4.15
421.184	4.09
421.545	4.14
421.906	4.08
422.267	4.14
422.629	4.22
422.99	4.16
423.351	4.13
423.712	4.11
424.073	4.15
424.434	4.14
424.795	4.19
425.155	4.23
425.516	4.05
425.877	4.09
426.238	4.02
426.598	4.12
426.959	4.11
427.32	4.16
427.68	4.17
428.041	4.06
428.401	4.1
428.761	4.26
429.122	4.08
429.482	4.19
429.842	4.19
430.202	4.03
430.563	4.39
430.923	4.25
431.283	4.13
431.643	4.19
432.003	4.22
432.363	4.2
432.722	4.29
433.082	4.37
433.442	4.11
433.802	4.29
434.161	4.16
434.521	4.28
434.881	4.28
435.24	4.28
435.6	4.19
435.959	4.23
436.319	4.34
436.678	4.3
437.037	4.32
437.396	4.32
437.756	4.33
438.115	4.32
438.474	4.37
438.833	4.42
439.192	4.11
439.551	4.18
439.91	4.42
440.269	4.43
440.628	4.36
440.987	4.36
441.345	4.19
441.704	4.32
442.063	4.37
442.421	4.06
442.78	4.19
443.138	4.33
443.497	4.32
443.855	4.32
444.214	4.23
444.572	4.27
444.93	4.42
445.288	4.48
445.647	4.55
446.005	4.21
446.363	4.36
446.721	4.13
447.079	4.38
447.437	4.25
447.795	4.2
448.153	4.27
448.51	4.3
448.868	4.23
449.226	4.25
449.584	4.36
449.941	4.32
450.299	4.31
450.656	4.21
451.014	4.35
451.371	4.37
451.729	4.24
452.086	4.38
452.443	4.37
452.801	4.23
453.158	4.41
453.515	4.36
453.872	4.4
454.229	4.41
454.586	4.64
454.943	4.39
455.3	4.37
455.657	4.48
456.014	4.28
456.371	4.34
456.727	4.49
457.084	4.41
457.441	4.49
457.797	4.47
458.154	4.31
458.51	4.44
458.867	4.34
459.223	4.47
459.58	4.47
459.936	4.47
460.292	4.35
460.648	4.29
461.005	4.19
461.361	4.48
461.717	4.23
462.073	4.4
462.429	4.39
462.785	4.34
463.141	4.48
463.496	4.5
463.852	4.43
464.208	4.55
464.564	4.59
464.919	4.42
465.275	4.47
465.631	4.57
465.986	4.54
466.342	4.51
466.697	4.55
467.052	4.44
467.408	4.63
467.763	4.67
468.118	4.71
468.473	4.57
468.829	4.51
469.184	4.56
469.539	4.48
469.894	4.53
470.249	4.51
470.603	4.46
470.958	4.57
471.313	4.55
471.668	4.64
472.023	4.63
472.377	4.54
472.732	4.35
473.086	4.74
473.441	4.68
473.795	4.73
474.15	4.54
474.504	4.51
474.859	4.46
475.213	4.68
475.567	4.67
475.921	4.74
476.275	4.54
476.63	4.63
476.984	4.68
477.338	4.56
477.692	4.61
478.045	4.6
478.399	4.59
478.753	4.68
479.107	4.66
479.461	4.71
479.814	4.75
480.168	4.63
480.521	4.65
480.875	4.74
481.228	4.66
481.582	4.62
481.935	4.66
482.289	4.58
482.642	4.72
482.995	4.55
483.348	4.62
483.701	4.64
484.055	4.69
484.408	4.45
484.761	4.52
485.114	4.44
485.466	4.46
485.819	4.36
486.172	4.31
486.525	4.37
486.878	4.43
487.23	4.44
487.583	4.46
487.936	4.56
488.288	4.51
488.641	4.52
488.993	4.45
489.345	4.51
489.698	4.46
490.05	4.51
490.402	4.44
490.754	4.51
491.107	4.56
491.459	4.62
491.811	4.67
492.163	4.62
492.515	4.72
492.866	4.77
493.218	4.54
493.57	4.55
493.922	4.49
494.274	4.55
494.625	4.55
494.977	4.57
495.328	4.74
495.68	4.71
496.031	4.65
496.383	4.76
496.734	4.8
497.086	4.89
497.437	4.75
497.788	4.72
498.139	4.92
498.49	4.87
498.842	4.61
499.193	4.84
499.544	4.86
499.894	4.83
500.245	4.78
500.596	4.87
500.947	4.81
501.298	4.76
501.648	4.96
501.999	5
502.35	4.86
502.7	5.1
503.051	4.96
503.401	4.96
503.752	5.04
504.102	4.96
504.452	4.96
504.803	4.85
505.153	4.96
505.503	4.97
505.853	5.03
506.203	4.86
506.553	4.9
506.903	4.91
507.253	4.92
507.603	4.99
507.953	5.01
508.303	5.03
508.652	5.05
509.002	5.07
509.352	5.06
509.701	5.04
510.051	4.89
510.4	4.95
510.75	5.01
511.099	4.94
511.449	5.03
511.798	5.05
512.147	4.94
512.496	5.01
512.846	5.01
513.195	5.16
513.544	5.06
513.893	5.03
514.242	5.03
514.591	5.12
514.939	5.05
515.288	5.02
515.637	5.13
515.986	5.12
516.334	5.11
516.683	5.07
517.032	4.99
517.38	5.01
517.729	5.18
518.077	5.23
518.426	5.13
518.774	5.12
519.122	5.18
519.47	5.09
519.819	5.17
520.167	5.13
520.515	5.16
520.863	5.16
521.211	5.12
521.559	5.2
521.907	5.2
522.255	5.08
522.602	5.26
522.95	5.23
523.298	5.16
523.645	5.22
523.993	5.23
524.341	5.31
524.688	5.33
525.036	5.33
525.383	5.21
525.73	5.42
526.078	5.2
526.425	5.3
526.772	5.33
527.119	5.25
527.466	5.24
527.814	5.29
528.161	5.32
528.508	5.25
528.854	5.26
529.201	5.22
529.548	5.25
529.895	5.24
530.242	5.16
530.588	5.12
530.935	5.1
531.282	5.17
531.628	5.2
531.975	5.15
532.321	5.23
532.667	5.32
533.014	5.36
533.36	5.43
533.706	5.36
534.052	5.4
534.399	5.4
534.745	5.28
535.091	5.38
535.437	5.38
535.783	5.37
536.129	5.51
536.474	5.44
536.82	5.52
537.166	5.53
537.512	5.59
537.857	5.56
538.203	5.6
538.549	5.52
538.894	5.5
539.239	5.53
539.585	5.51
539.93	5.62
540.276	5.64
540.621	5.78
540.966	5.71
541.311	5.73
541.656	5.82
542.001	5.76
542.346	5.71
542.691	5.71
543.036	5.64
543.381	5.51
543.726	5.52
544.071	5.57
544.415	5.59
544.76	5.65
545.105	5.71
545.449	5.73
545.794	5.76
546.138	5.77
546.483	5.82
546.827	5.85
547.171	5.96
547.516	5.82
547.86	5.85
548.204	5.76
548.548	5.94
548.892	5.91
549.236	5.91
549.58	5.85
549.924	5.89
550.268	5.86
550.612	5.94
550.956	6.3
551.3	6.18
551.643	6.08
551.987	6.19
552.33	6.18
552.674	6.2
553.017	6.29
553.361	6.15
553.704	6.18
554.048	6.2
554.391	6.35
554.734	6.32
555.077	6.3
555.42	6.14
555.764	6.29
556.107	6.48
556.45	6.25
556.793	6.23
557.135	6.37
557.478	6.38
557.821	6.53
558.164	6.39
558.507	6.31
558.849	6.82
559.192	6.56
559.534	6.7
559.877	6.51
560.219	6.74
560.562	6.52
560.904	6.44
561.246	6.63
561.589	6.48
561.931	6.85
562.273	6.78
562.615	6.73
562.957	6.69
563.299	6.72
563.641	6.86
563.983	6.75
564.325	6.71
564.667	6.92
565.008	6.59
565.35	6.78
565.692	6.83
566.033	6.93
566.375	6.81
566.716	6.88
567.058	6.69
567.399	6.94
567.741	6.98
568.082	7.02
568.423	6.99
568.764	6.88
569.105	7.08
569.447	6.91
569.788	7.01
570.129	6.87
570.47	6.99
570.811	7.26
571.151	7.09
571.492	7.12
571.833	7.18
572.174	7.38
572.514	7.21
572.855	7.22
573.195	7.16
573.536	7.05
573.876	7.3
574.217	7.15
574.557	7.19
574.898	7.12
575.238	7.23
575.578	7.24
575.918	7.23
576.258	7.34
576.598	7.44
576.938	7.35
577.278	7.45
577.618	7.33
577.958	7.42
578.298	7.4
578.638	7.73
578.977	7.48
579.317	7.48
579.657	7.52
579.996	7.53
580.336	7.68
580.675	7.68
581.014	7.74
581.354	7.74
581.693	7.67
582.032	7.8
582.372	7.82
582.711	7.86
583.05	8.12
583.389	7.8
583.728	7.9
584.067	7.96
584.406	7.79
584.745	8.13
585.083	7.9
585.422	7.99
585.761	7.88
586.1	8.16
586.438	7.67
586.777	8.24
587.115	8.15
587.454	8.31
587.792	8.1
588.13	8.3
588.469	8.32
588.807	8.02
589.145	8.21
589.483	8.07
589.821	8.28
590.159	8.33
590.497	8.42
590.835	8.59
591.173	8.44
591.511	8.35
591.849	8.3
592.187	8.56
592.524	8.43
592.862	8.63
593.2	8.76
593.537	8.62
593.875	8.61
594.212	8.68
594.55	8.68
594.887	8.73
595.224	8.59
595.561	8.55
595.899	8.61
596.236	8.57
596.573	8.83
596.91	8.94
597.247	8.84
597.584	9
597.921	9.03
598.258	8.95
598.594	8.86
598.931	8.81
599.268	8.76
599.604	8.93
599.941	8.87
600.277	9.14
600.614	9.03
600.95	9.03
601.287	8.99
601.623	9.13
601.959	9.42
602.296	9.33
602.632	9.24
602.968	9.15
603.304	9.2
603.64	9.2
603.976	9.3
604.312	9.48
604.648	9.28
604.984	9.18
605.319	9.37
605.655	9.3
605.991	9.56
606.326	9.4
606.662	9.25
606.998	9.27
607.333	9.46
607.668	9.31
608.004	9.37
608.339	9.6
608.674	9.67
609.01	9.57
609.345	9.75
609.68	9.58
610.015	9.69
610.35	9.84
610.685	9.95
611.02	9.77
611.355	9.67
611.689	9.9
612.024	10.08
612.359	9.92
612.694	9.86
613.028	9.91
613.363	10.18
613.697	10.23
614.032	10.11
614.366	10.21
614.7	10.35
615.035	10.34
615.369	10.25
615.703	9.74
616.037	10.27
616.371	10.53
616.705	10.23
617.039	10.37
617.373	10.43
617.707	10.53
618.041	10.42
618.375	10.25
618.709	10.53
619.042	10.59
619.376	10.9
619.71	10.67
620.043	10.88
620.377	10.8
620.71	10.89
621.043	11.15
621.377	10.33
621.71	10.84
622.043	10.79
622.376	11.02
622.709	11.18
623.043	11.15
623.376	10.62
623.709	10.7
624.041	10.86
624.374	11.14
624.707	10.82
625.04	11.14
625.373	11.17
625.705	10.97
626.038	11.07
626.37	11.33
626.703	10.68
627.035	11.12
627.368	11.56
627.7	11.09
628.032	10.96
628.365	11.37
628.697	11.6
629.029	11.4
629.361	11.53
629.693	11.53
630.025	11.57
630.357	11.41
630.689	11.5
631.021	11.58
631.353	11.73
631.684	11.62
632.016	12.07
632.348	11.46
632.679	11.43
633.011	11.59
633.342	11.61
633.674	11.75
634.005	12.06
634.336	11.96
634.668	11.94
634.999	11.94
635.33	11.53
635.661	12.13
635.992	12.19
636.323	12.22
636.654	12.24
636.985	12.39
637.316	12.28
637.647	11.95
637.977	12.07
638.308	12.15
638.639	12.12
638.969	12.4
639.3	12.27
639.63	12.09
639.961	12.26
640.291	12.61
640.622	12.52
640.952	12.66
641.282	12.38
641.612	12.7
641.943	12.79
642.273	12.35
642.603	12.87
642.933	12.63
643.263	12.58
643.592	12.78
643.922	13.07
644.252	12.77
644.582	12.43
644.911	13.05
645.241	13.11
645.571	13.43
645.9	13.11
646.23	13.07
646.559	12.96
646.888	13.31
647.218	13.07
647.547	12.79
647.876	13.23
648.205	13.56
648.534	13.09
648.863	13.43
649.192	13.03
649.521	13.63
649.85	13.75
650.179	13.23
650.508	13.26
650.837	13.63
651.165	13.42
651.494	13.53
651.822	13.47
652.151	13.89
652.479	13.92
652.808	14.04
653.136	13.84
653.465	13.5
653.793	13.9
654.121	13.81
654.449	13.98
654.777	13.56
655.105	14.02
655.433	14.28
655.761	13.91
656.089	14.45
656.417	14.06
656.745	14.04
657.073	14.05
657.4	15.03
657.728	14.31
658.056	14.55
658.383	14.23
658.711	13.64
659.038	14.67
659.365	14.49
659.693	14.55
660.02	14.54
660.347	14.15
660.674	14.38
661.001	14.41
661.329	14.51
661.656	14.73
661.982	14.48
662.309	14.32
662.636	14.66
662.963	14.51
663.29	14.8
663.616	14.83
663.943	14.54
664.27	14.96
664.596	15.04
664.923	14.62
665.249	15.02
665.576	14.89
665.902	14.87
666.228	15
666.554	15.13
666.881	14.78
667.207	15.67
667.533	14.97
667.859	15.52
668.185	15.27
668.511	15.87
668.837	15.55
669.162	15.53
669.488	15.87
669.814	15.09
670.139	15.24
670.465	15.39
670.791	15.83
671.116	15.44
671.442	15.46
671.767	15.75
672.092	15.77
672.418	16.12
672.743	15.89
673.068	15.91
673.393	15.59
673.718	16.07
674.043	15.67
674.368	15.88
674.693	16.18
675.018	16.2
675.343	15.76
675.667	16.26
675.992	16.52
676.317	16.5
676.641	16.53
676.966	16.06
677.29	16.67
677.615	16.33
677.939	16.35
678.264	16.4
678.588	16.82
678.912	16.65
679.236	16.01
679.56	16.61
679.885	16.88
680.209	17.08
680.532	16.84
680.856	16.13
681.18	16.57
681.504	17.05
681.828	17.09
682.152	16.78
682.475	16.93
682.799	16.88
683.122	16.59
683.446	17.39
683.769	17.04
684.093	17.03
684.416	17.28
684.739	16.64
685.062	17.36
685.386	16.22
685.709	16.93
686.032	17.3
686.355	17.66
686.678	16.85
687.001	17.62
