Data from 0344_crown_Reflection__1__330.txt Node

Date: Fri Oct 20 23:18:12 CDT 2023
User: ToomeyLab
Spectrometer: FLMS14357
Trigger mode: 0
Integration Time (sec): 1.000000E-2
Scans to average: 100
Electric dark correction enabled: true
Nonlinearity correction enabled: false
Boxcar width: 0
XAxis mode: Wavelengths
Number of Pixels in Spectrum: 2048
>>>>>Begin Spectral Data<<<<<
189.047	-73.69
189.435	-73.69
189.823	-73.69
190.211	178.11
190.599	-4.99
190.987	109.84
191.375	-268.69
191.763	59.18
192.151	-153.36
192.538	9.65
192.926	21
193.314	56.18
193.702	33.17
194.089	21.73
194.477	154.61
194.864	46.89
195.252	66.81
195.639	240.2
196.027	-833.24
196.414	66.34
196.801	94.48
197.189	500.4
197.576	97.57
197.963	15.84
198.351	50.69
198.738	5.93
199.125	33.46
199.512	18.26
199.899	17.63
200.286	-26.02
200.673	18.22
201.06	-18.04
201.447	-59.5
201.833	6.16
202.22	40.23
202.607	40.49
202.994	35.78
203.38	7.88
203.767	-9.03
204.154	24.57
204.54	57.02
204.927	30.1
205.313	1.36
205.699	36.5
206.086	40.37
206.472	46.36
206.858	55.97
207.245	-2.97
207.631	13.36
208.017	-4.17
208.403	-6.09
208.789	15.15
209.175	5.5
209.561	16.79
209.947	1.64
210.333	40.86
210.719	-4.61
211.105	23.68
211.491	-8.64
211.876	-22.04
212.262	17.48
212.648	22.86
213.034	-25.97
213.419	7.75
213.805	3.48
214.19	-0.01
214.576	8.38
214.961	7.54
215.346	26.24
215.732	-2.58
216.117	-38.08
216.502	22.11
216.888	-6.17
217.273	8.88
217.658	-2.14
218.043	1.01
218.428	9.86
218.813	24.13
219.198	-2.05
219.583	-11.49
219.968	-5.6
220.353	21.64
220.738	13.51
221.122	-10.59
221.507	-5.78
221.892	-0.8
222.276	2.61
222.661	14.13
223.046	8.83
223.43	1.59
223.815	11.77
224.199	31.26
224.583	-4.47
224.968	-0.99
225.352	2.98
225.736	-0.91
226.121	6.26
226.505	-1.25
226.889	9.28
227.273	7.02
227.657	12.35
228.041	6.81
228.425	8.33
228.809	7.35
229.193	4.5
229.577	7.36
229.961	5.65
230.344	6.89
230.728	6.03
231.112	6.51
231.495	6.28
231.879	6.42
232.263	7.5
232.646	5.37
233.03	5.76
233.413	5.81
233.797	6.93
234.18	4.81
234.563	6.73
234.946	8.68
235.33	5.27
235.713	6.39
236.096	6.65
236.479	6.51
236.862	6.25
237.245	5.98
237.628	5.53
238.011	6.19
238.394	5.63
238.777	6.36
239.16	6.15
239.543	9.29
239.925	7.94
240.308	6.88
240.691	6.36
241.073	7.32
241.456	6.89
241.838	6.02
242.221	7.48
242.603	6.34
242.986	6.56
243.368	6.59
243.75	5.74
244.133	6.12
244.515	5.97
244.897	5.91
245.279	5.94
245.661	6.19
246.043	5.45
246.425	6.08
246.807	6.4
247.189	5.67
247.571	5.52
247.953	5.68
248.335	6.2
248.717	5.33
249.098	5.57
249.48	5.46
249.862	5.56
250.243	5.77
250.625	5.7
251.006	5.92
251.388	5.63
251.769	6.41
252.151	5.12
252.532	5.92
252.913	5.04
253.295	4.19
253.676	6.18
254.057	5.4
254.438	5.47
254.819	5.93
255.2	5.38
255.581	5.46
255.962	5.39
256.343	5.59
256.724	5.55
257.105	6.48
257.486	5.47
257.867	6.02
258.247	6.9
258.628	4.32
259.009	4.95
259.389	4.52
259.77	5.44
260.15	5.42
260.531	5.42
260.911	5.94
261.292	5.45
261.672	5.49
262.052	5.32
262.432	5.48
262.813	5.49
263.193	5.59
263.573	5.18
263.953	5.81
264.333	5.51
264.713	5.69
265.093	5.8
265.473	5.42
265.853	5.67
266.233	6.07
266.612	4.96
266.992	5.01
267.372	4.92
267.752	4.36
268.131	5.18
268.511	5.35
268.89	5.53
269.27	4.8
269.649	4.18
270.029	5.06
270.408	5.32
270.787	5.8
271.167	5.43
271.546	5.13
271.925	6.04
272.304	4.81
272.683	5.19
273.062	5.6
273.441	5.45
273.82	5.59
274.199	5.5
274.578	5.09
274.957	5.11
275.336	5.49
275.715	5.22
276.093	5.02
276.472	5.26
276.851	5.54
277.229	4.74
277.608	4.8
277.986	4.92
278.365	5.62
278.743	5.23
279.122	4.94
279.5	5.49
279.878	4.96
280.257	5.11
280.635	5.29
281.013	5.44
281.391	5.31
281.769	5
282.147	4.93
282.525	4.98
282.903	5.13
283.281	4.78
283.659	4.99
284.037	5.08
284.415	4.96
284.792	5.48
285.17	4.96
285.548	4.94
285.925	4.49
286.303	4.65
286.68	4.73
287.058	5.44
287.435	5.74
287.813	4.69
288.19	4.83
288.567	4.85
288.945	5.18
289.322	5.29
289.699	4.49
290.076	5.66
290.453	5.01
290.83	5.15
291.207	5.22
291.584	4.51
291.961	5.19
292.338	4.73
292.715	5.05
293.092	5.2
293.469	5.23
293.845	4.55
294.222	5.06
294.599	4.99
294.975	5.48
295.352	4.44
295.728	4.47
296.105	4.65
296.481	4.93
296.858	4.84
297.234	5.27
297.61	4.58
297.986	4.78
298.363	4.86
298.739	4.89
299.115	5.05
299.491	4.97
299.867	4.9
300.243	5.02
300.619	5.01
300.995	4.79
301.371	4.9
301.746	5.04
302.122	5.39
302.498	4.7
302.874	5.12
303.249	5.09
303.625	5.14
304	5.29
304.376	4.62
304.751	4.83
305.127	4.6
305.502	5.5
305.878	5.07
306.253	4.69
306.628	5.02
307.003	4.92
307.378	4.78
307.754	4.81
308.129	5.06
308.504	5.3
308.879	4.86
309.254	5.42
309.629	4.71
310.003	3.98
310.378	4.67
310.753	4.89
311.128	4.71
311.502	5.07
311.877	5.15
312.252	4.69
312.626	4.88
313.001	4.92
313.375	4.83
313.75	4.9
314.124	4.41
314.498	5.15
314.873	4.39
315.247	5.03
315.621	4.71
315.995	4.91
316.369	4.89
316.743	5.13
317.117	4.76
317.491	4.42
317.865	5.47
318.239	5.09
318.613	5.32
318.987	4.73
319.361	4.01
319.734	4.44
320.108	4.78
320.482	5.27
320.855	4.84
321.229	5.63
321.602	4.69
321.976	4.84
322.349	5.24
322.723	4.76
323.096	5.22
323.469	4.32
323.843	4.79
324.216	4.43
324.589	4.86
324.962	4.65
325.335	5.32
325.708	4.56
326.081	4.65
326.454	5.09
326.827	5
327.2	5.04
327.573	5.25
327.945	4.91
328.318	4.88
328.691	4.77
329.063	4.91
329.436	4.49
329.809	5.2
330.181	5.18
330.553	5.13
330.926	4.51
331.298	4.37
331.671	4.43
332.043	3.82
332.415	4.84
332.787	5.18
333.159	4.61
333.532	4.46
333.904	4.89
334.276	4.77
334.648	4.75
335.02	4.58
335.391	4.92
335.763	5.09
336.135	4.77
336.507	4.23
336.879	4.14
337.25	4.83
337.622	4.92
337.993	5.23
338.365	4.68
338.736	4.76
339.108	4.81
339.479	4.65
339.851	4.71
340.222	4.35
340.593	4.34
340.964	4.31
341.336	5.12
341.707	4.9
342.078	4.76
342.449	4.67
342.82	4.52
343.191	4.86
343.562	4.85
343.933	4.73
344.303	4.79
344.674	4.93
345.045	5.09
345.416	4.68
345.786	4.48
346.157	4.93
346.527	4.59
346.898	4.53
347.268	4.9
347.639	4.92
348.009	4.36
348.38	4.71
348.75	4.82
349.12	4.75
349.49	4.22
349.861	4.77
350.231	4.63
350.601	4.65
350.971	4.92
351.341	5.08
351.711	5.11
352.081	4.89
352.45	4.77
352.82	4.78
353.19	4.9
353.56	4.62
353.929	4.63
354.299	4.8
354.669	4.9
355.038	5.08
355.408	4.94
355.777	4.62
356.147	4.42
356.516	4.69
356.885	4.87
357.254	4.65
357.624	4.68
357.993	4.65
358.362	4.36
358.731	4.4
359.1	4.4
359.469	4.63
359.838	4.63
360.207	4.67
360.576	4.75
360.945	4.53
361.314	4.82
361.682	4.57
362.051	4.49
362.42	4.39
362.788	4.93
363.157	4.57
363.525	4.51
363.894	4.93
364.262	4.62
364.631	4.98
364.999	4.75
365.367	4.6
365.735	4.6
366.104	4.52
366.472	4.59
366.84	4.98
367.208	4.59
367.576	4.22
367.944	4.85
368.312	4.45
368.68	4.68
369.048	4.89
369.416	5.07
369.783	4.69
370.151	4.69
370.519	4.55
370.886	5.01
371.254	4.65
371.621	4.81
371.989	4.82
372.356	4.74
372.724	5.18
373.091	4.78
373.458	4.67
373.826	4.71
374.193	4.27
374.56	4.9
374.927	4.72
375.294	4.94
375.661	4.53
376.028	5.02
376.395	5.01
376.762	4.82
377.129	4.91
377.496	4.89
377.863	5.18
378.229	5.26
378.596	4.75
378.963	4.94
379.329	4.93
379.696	4.8
380.062	4.75
380.429	4.58
380.795	4.58
381.161	4.87
381.528	4.85
381.894	4.45
382.26	5
382.626	4.91
382.993	4.98
383.359	4.75
383.725	4.94
384.091	4.86
384.457	5.02
384.823	4.87
385.188	5.2
385.554	4.84
385.92	4.84
386.286	4.88
386.651	4.59
387.017	5.03
387.383	4.7
387.748	4.57
388.114	4.6
388.479	4.7
388.845	5.12
389.21	4.67
389.575	4.7
389.94	4.84
390.306	4.87
390.671	4.51
391.036	5.01
391.401	4.93
391.766	5.03
392.131	4.82
392.496	4.81
392.861	5.05
393.226	4.87
393.591	4.76
393.956	4.89
394.32	5.15
394.685	4.77
395.05	5.03
395.414	5.22
395.779	4.65
396.143	4.68
396.508	4.77
396.872	4.78
397.236	4.89
397.601	4.93
397.965	4.45
398.329	4.56
398.694	5.05
399.058	4.67
399.422	4.79
399.786	4.69
400.15	4.83
400.514	4.8
400.878	5.05
401.242	4.97
401.605	4.89
401.969	4.72
402.333	5.05
402.697	4.97
403.06	4.93
403.424	4.81
403.787	4.97
404.151	4.96
404.514	4.99
404.878	4.86
405.241	4.84
405.604	4.83
405.968	4.88
406.331	4.88
406.694	4.95
407.057	4.76
407.42	5.04
407.783	5.09
408.146	4.88
408.509	4.89
408.872	5.1
409.235	4.92
409.598	5.1
409.961	4.81
410.323	4.94
410.686	4.72
411.049	4.75
411.411	4.89
411.774	4.83
412.136	4.9
412.499	5.05
412.861	4.92
413.223	4.83
413.586	4.95
413.948	5.04
414.31	5.27
414.672	5.03
415.035	5.02
415.397	4.94
415.759	5.01
416.121	4.98
416.483	5.16
416.845	4.86
417.206	5.06
417.568	5.05
417.93	5.25
418.292	4.78
418.653	5.19
419.015	4.95
419.377	4.83
419.738	5
420.1	4.84
420.461	4.79
420.822	4.94
421.184	4.98
421.545	4.86
421.906	4.94
422.267	4.97
422.629	4.93
422.99	4.86
423.351	4.85
423.712	4.84
424.073	4.91
424.434	4.83
424.795	4.78
425.155	4.91
425.516	4.9
425.877	5.01
426.238	4.83
426.598	5.01
426.959	4.91
427.32	5.04
427.68	4.95
428.041	4.92
428.401	4.99
428.761	5.04
429.122	4.88
429.482	4.92
429.842	5.09
430.202	5.01
430.563	5.08
430.923	5.09
431.283	4.98
431.643	5.02
432.003	5.3
432.363	4.99
432.722	5.11
433.082	5.13
433.442	4.95
433.802	5.35
434.161	4.97
434.521	5.1
434.881	5.19
435.24	5.16
435.6	5.07
435.959	5.01
436.319	5.08
436.678	5.21
437.037	4.96
437.396	5.28
437.756	5.23
438.115	5.08
438.474	5.15
438.833	5.03
439.192	4.97
439.551	4.79
439.91	5.16
440.269	5.15
440.628	5.03
440.987	5.17
441.345	4.98
441.704	5.03
442.063	5.08
442.421	5.02
442.78	5.04
443.138	5.2
443.497	5.14
443.855	5.18
444.214	5.05
444.572	5.09
444.93	5.28
445.288	5.19
445.647	5.38
446.005	4.96
446.363	5.19
446.721	5.16
447.079	5.3
447.437	5.13
447.795	5.08
448.153	5
448.51	5.1
448.868	5.07
449.226	5.06
449.584	5.07
449.941	5.08
450.299	5.16
450.656	5.04
451.014	5.14
451.371	5.29
451.729	5.09
452.086	5.05
452.443	5.15
452.801	5.15
453.158	5.35
453.515	5.24
453.872	5.25
454.229	5.39
454.586	5.24
454.943	5.13
455.3	5.13
455.657	5.21
456.014	5.28
456.371	5.24
456.727	5.24
457.084	5.43
457.441	5.39
457.797	5.32
458.154	5.25
458.51	5.21
458.867	5.26
459.223	5.23
459.58	5.28
459.936	5.23
460.292	5.3
460.648	5.04
461.005	5.03
461.361	5.22
461.717	4.97
462.073	5.21
462.429	5.22
462.785	5.3
463.141	5.28
463.496	5.18
463.852	5.34
464.208	5.36
464.564	5.31
464.919	5.36
465.275	5.39
465.631	5.49
465.986	5.28
466.342	5.42
466.697	5.24
467.052	5.18
467.408	5.3
467.763	5.28
468.118	5.59
468.473	5.43
468.829	5.21
469.184	5.34
469.539	5.41
469.894	5.3
470.249	5.42
470.603	5.32
470.958	5.31
471.313	5.34
471.668	5.35
472.023	5.43
472.377	5.36
472.732	5.32
473.086	5.49
473.441	5.43
473.795	5.58
474.15	5.35
474.504	5.34
474.859	5.41
475.213	5.4
475.567	5.48
475.921	5.44
476.275	5.4
476.63	5.57
476.984	5.46
477.338	5.37
477.692	5.52
478.045	5.56
478.399	5.39
478.753	5.44
479.107	5.4
479.461	5.5
479.814	5.5
480.168	5.59
480.521	5.44
480.875	5.44
481.228	5.52
481.582	5.47
481.935	5.5
482.289	5.36
482.642	5.4
482.995	5.29
483.348	5.53
483.701	5.41
484.055	5.31
484.408	5.38
484.761	5.31
485.114	5.22
485.466	5.21
485.819	5.14
486.172	5.07
486.525	5.12
486.878	5.17
487.23	5.2
487.583	5.21
487.936	5.28
488.288	5.22
488.641	5.33
488.993	5.21
489.345	5.29
489.698	5.25
490.05	5.2
490.402	5.25
490.754	5.22
491.107	5.26
491.459	5.34
491.811	5.38
492.163	5.44
492.515	5.45
492.866	5.4
493.218	5.34
493.57	5.28
493.922	5.27
494.274	5.3
494.625	5.3
494.977	5.35
495.328	5.36
495.68	5.5
496.031	5.36
496.383	5.59
496.734	5.48
497.086	5.52
497.437	5.51
497.788	5.49
498.139	5.63
498.49	5.46
498.842	5.42
499.193	5.6
499.544	5.52
499.894	5.55
500.245	5.45
500.596	5.63
500.947	5.65
501.298	5.5
501.648	5.53
501.999	5.57
502.35	5.62
502.7	5.75
503.051	5.63
503.401	5.53
503.752	5.72
504.102	5.53
504.452	5.52
504.803	5.5
505.153	5.53
505.503	5.63
505.853	5.78
506.203	5.49
506.553	5.43
506.903	5.52
507.253	5.69
507.603	5.64
507.953	5.7
508.303	5.54
508.652	5.81
509.002	5.58
509.352	5.7
509.701	5.68
510.051	5.57
510.4	5.55
510.75	5.69
511.099	5.58
511.449	5.61
511.798	5.6
512.147	5.62
512.496	5.67
512.846	5.67
513.195	5.76
513.544	5.6
513.893	5.59
514.242	5.63
514.591	5.69
514.939	5.69
515.288	5.55
515.637	5.67
515.986	5.7
516.334	5.61
516.683	5.71
517.032	5.62
517.38	5.63
517.729	5.7
518.077	5.79
518.426	5.69
518.774	5.65
519.122	5.73
519.47	5.7
519.819	5.65
520.167	5.63
520.515	5.54
520.863	5.69
521.211	5.61
521.559	5.65
521.907	5.66
522.255	5.7
522.602	5.77
522.95	5.6
523.298	5.71
523.645	5.8
523.993	5.69
524.341	5.78
524.688	5.82
525.036	5.84
525.383	5.68
525.73	5.95
526.078	5.8
526.425	5.87
526.772	5.78
527.119	5.72
527.466	5.69
527.814	5.67
528.161	5.69
528.508	5.71
528.854	5.67
529.201	5.66
529.548	5.8
529.895	5.76
530.242	5.64
530.588	5.56
530.935	5.51
531.282	5.56
531.628	5.61
531.975	5.51
532.321	5.65
532.667	5.7
533.014	5.77
533.36	5.73
533.706	5.81
534.052	5.7
534.399	5.67
534.745	5.65
535.091	5.63
535.437	5.73
535.783	5.69
536.129	5.73
536.474	5.76
536.82	5.81
537.166	5.74
537.512	5.92
537.857	5.96
538.203	5.77
538.549	5.89
538.894	5.75
539.239	5.77
539.585	5.78
539.93	5.92
540.276	5.87
540.621	5.95
540.966	5.94
541.311	5.99
541.656	5.98
542.001	6.05
542.346	5.94
542.691	5.9
543.036	5.78
543.381	5.81
543.726	5.74
544.071	5.76
544.415	5.75
544.76	5.7
545.105	5.89
545.449	5.85
545.794	5.95
546.138	5.87
546.483	5.85
546.827	5.93
547.171	5.98
547.516	5.85
547.86	5.97
548.204	5.82
548.548	5.92
548.892	5.99
549.236	5.99
549.58	5.93
549.924	5.89
550.268	5.97
550.612	6.05
550.956	6.1
551.3	6.04
551.643	6.05
551.987	6.18
552.33	6.07
552.674	6.14
553.017	6.03
553.361	6.26
553.704	6.16
554.048	5.96
554.391	6.02
554.734	6.18
555.077	6.01
555.42	6.08
555.764	6.01
556.107	6.27
556.45	6.12
556.793	5.94
557.135	6.13
557.478	6.03
557.821	6.07
558.164	6.25
558.507	6.12
558.849	6.11
559.192	6.25
559.534	6.32
559.877	6.08
560.219	6.26
560.562	6.13
560.904	6.06
561.246	6.36
561.589	6.03
561.931	6.3
562.273	6.24
562.615	6.35
562.957	6.39
563.299	6.07
563.641	6.22
563.983	6.03
564.325	6.09
564.667	6.28
565.008	6.12
565.35	6.27
565.692	6.2
566.033	6.22
566.375	6.12
566.716	6.27
567.058	6.19
567.399	6.47
567.741	6.25
568.082	6.27
568.423	6.3
568.764	6.09
569.105	6.34
569.447	6.25
569.788	6.29
570.129	6.2
570.47	6.21
570.811	6.3
571.151	6.23
571.492	6.39
571.833	6.36
572.174	6.39
572.514	6.29
572.855	6.24
573.195	6.2
573.536	6.17
573.876	6.4
574.217	6.12
574.557	6.24
574.898	6.11
575.238	6.19
575.578	6.14
575.918	6.21
576.258	6.18
576.598	6.4
576.938	6.33
577.278	6.39
577.618	6.16
577.958	6.14
578.298	6.18
578.638	6.45
578.977	6.32
579.317	6.19
579.657	6.31
579.996	6.51
580.336	6.37
580.675	6.12
581.014	6.23
581.354	6.33
581.693	6.5
582.032	6.32
582.372	6.23
582.711	6.55
583.05	6.59
583.389	6.41
583.728	6.51
584.067	6.48
584.406	6.43
584.745	6.33
585.083	6.41
585.422	6.54
585.761	6.22
586.1	6.65
586.438	6.27
586.777	6.55
587.115	6.45
587.454	6.65
587.792	6.42
588.13	6.48
588.469	6.52
588.807	6.11
589.145	6.51
589.483	6.33
589.821	6.26
590.159	6.72
590.497	6.53
590.835	6.45
591.173	6.56
591.511	6.51
591.849	6.3
592.187	6.51
592.524	6.21
592.862	6.33
593.2	6.4
593.537	6.34
593.875	6.38
594.212	6.57
594.55	6.33
594.887	6.46
595.224	6.28
595.561	6.29
595.899	6.49
596.236	6.52
596.573	6.68
596.91	6.59
597.247	6.47
597.584	6.32
597.921	6.53
598.258	6.61
598.594	6.78
598.931	6.34
599.268	6.43
599.604	6.52
599.941	6.53
600.277	6.44
600.614	6.41
600.95	6.71
601.287	6.41
601.623	6.51
601.959	6.35
602.296	6.53
602.632	6.56
602.968	6.33
603.304	6.69
603.64	6.6
603.976	6.74
604.312	6.71
604.648	6.65
604.984	6.68
605.319	6.48
605.655	6.46
605.991	6.58
606.326	6.58
606.662	6.4
606.998	6.27
607.333	6.42
607.668	6.34
608.004	6.5
608.339	6.52
608.674	6.54
609.01	6.66
609.345	6.76
609.68	6.89
610.015	6.49
610.35	6.69
610.685	6.54
611.02	6.53
611.355	6.57
611.689	6.58
612.024	6.77
612.359	6.55
612.694	6.76
613.028	6.64
613.363	6.54
613.697	6.71
614.032	6.62
614.366	6.67
614.7	6.75
615.035	6.75
615.369	6.92
615.703	6.24
616.037	6.9
616.371	6.75
616.705	6.55
617.039	6.47
617.373	6.56
617.707	7.08
618.041	6.63
618.375	6.69
618.709	6.64
619.042	6.79
619.376	6.74
619.71	6.83
620.043	6.89
620.377	6.6
620.71	6.87
621.043	6.78
621.377	6.69
621.71	6.69
622.043	6.67
622.376	7.1
622.709	6.87
623.043	6.9
623.376	6.39
623.709	6.24
624.041	6.58
624.374	6.88
624.707	6.54
625.04	6.83
625.373	6.7
625.705	6.56
626.038	6.9
626.37	6.43
626.703	6.61
627.035	6.78
627.368	6.9
627.7	6.98
628.032	6.76
628.365	6.98
628.697	6.77
629.029	6.88
629.361	6.66
629.693	6.91
630.025	7.12
630.357	6.76
630.689	6.49
631.021	6.91
631.353	6.81
631.684	6.59
632.016	7.15
632.348	7
632.679	6.38
633.011	6.88
633.342	6.85
633.674	6.94
634.005	6.96
634.336	7.34
634.668	6.95
634.999	6.8
635.33	6.45
635.661	7.48
635.992	7.25
636.323	7.17
636.654	6.99
636.985	6.8
637.316	7.01
637.647	6.76
637.977	6.79
638.308	7.12
638.639	6.97
638.969	7.04
639.3	6.76
639.63	7.09
639.961	6.8
640.291	6.84
640.622	7.14
640.952	7.05
641.282	6.87
641.612	6.97
641.943	7.3
642.273	6.87
642.603	7.09
642.933	7.07
643.263	7.45
643.592	6.83
643.922	7.48
644.252	7.05
644.582	6.83
644.911	7.02
645.241	7.23
645.571	7.5
645.9	6.54
646.23	7
646.559	7.02
646.888	7.21
647.218	7.15
647.547	7.04
647.876	7.01
648.205	7.27
648.534	7
648.863	6.94
649.192	7.03
649.521	7.1
649.85	6.84
650.179	7.12
650.508	7.26
650.837	7.42
651.165	7.28
651.494	7.14
651.822	6.76
652.151	7.43
652.479	6.99
652.808	6.99
653.136	6.93
653.465	7.59
653.793	7.15
654.121	7.03
654.449	7.41
654.777	7.12
655.105	7.53
655.433	7.47
655.761	7.43
656.089	7.63
656.417	7.01
656.745	6.94
657.073	7.15
657.4	7.77
657.728	7.06
658.056	7.33
658.383	7.26
658.711	7
659.038	7.52
659.365	7.87
659.693	7.44
660.02	7.29
660.347	7.07
660.674	6.96
661.001	6.7
661.329	7.1
661.656	7.49
661.982	7.07
662.309	7.33
662.636	7.3
662.963	7.42
663.29	7.44
663.616	7.64
663.943	6.82
664.27	7.44
664.596	6.92
664.923	7.04
665.249	7.89
665.576	7.29
665.902	7.21
666.228	7.07
666.554	6.85
666.881	7.1
667.207	7.42
667.533	7.51
667.859	7.46
668.185	7.63
668.511	7.7
668.837	7.96
669.162	7.7
669.488	7.1
669.814	7.22
670.139	7.61
670.465	7.31
670.791	7.55
671.116	7.55
671.442	7.16
671.767	7.27
672.092	7.76
672.418	7.81
672.743	7.92
673.068	8.12
673.393	6.96
673.718	7.21
674.043	8.11
674.368	7.89
674.693	7.11
675.018	8.1
675.343	7.39
675.667	7.27
675.992	8.32
676.317	7.63
676.641	7.71
676.966	7.84
677.29	7.24
677.615	7.26
677.939	7.02
678.264	7.82
678.588	6.73
678.912	7.79
679.236	7.69
679.56	7.7
679.885	7.87
680.209	7.96
680.532	7.01
680.856	7.42
681.18	7.47
681.504	7.68
681.828	7.78
682.152	7.78
682.475	7.63
682.799	7.49
683.122	7.67
683.446	7.46
683.769	7.67
684.093	7.49
684.416	7.41
684.739	7.32
685.062	6.79
685.386	7.31
685.709	7.69
686.032	7.04
686.355	7.71
686.678	7.47
687.001	8.16
687.324	7.46
687.646	7.55
687.969	8.5
688.292	7.98
688.614	8.2
688.937	7.61
689.26	7.63
689.582	7.18
689.904	6.83
690.227	8.07
690.549	7.41
690.871	7.71
691.194	8.3
691.516	7.43
691.838	8.12
692.16	8.1
692.482	7.65
692.804	8.3
693.126	7.27
