Data from 0344_forehead_Reflection__4__338.txt Node

Date: Fri Oct 20 23:20:49 CDT 2023
User: ToomeyLab
Spectrometer: FLMS14357
Trigger mode: 0
Integration Time (sec): 1.000000E-2
Scans to average: 100
Electric dark correction enabled: true
Nonlinearity correction enabled: false
Boxcar width: 0
XAxis mode: Wavelengths
Number of Pixels in Spectrum: 2048
>>>>>Begin Spectral Data<<<<<
189.047	102.98
189.435	102.98
189.823	102.98
190.211	-111.92
190.599	-35.57
190.987	198.11
191.375	-22.63
191.763	64.06
192.151	-20
192.538	-38.41
192.926	113.15
193.314	373.47
193.702	134.29
194.089	121.44
194.477	-485.25
194.864	158.48
195.252	125.56
195.639	112.78
196.027	-1108.17
196.414	139.75
196.801	129.5
197.189	86.95
197.576	132.07
197.963	40.82
198.351	83.65
198.738	5.78
199.125	38.22
199.512	21.99
199.899	13.06
200.286	-40.1
200.673	26.36
201.06	37.06
201.447	32.88
201.833	47.92
202.22	33.39
202.607	60.06
202.994	-4.23
203.38	-2.01
203.767	33.96
204.154	49.54
204.54	34.82
204.927	46.32
205.313	19.67
205.699	73.25
206.086	15.97
206.472	42.56
206.858	51.73
207.245	-28.51
207.631	29.66
208.017	12.78
208.403	-14.51
208.789	25.55
209.175	-7.46
209.561	9.02
209.947	-1.21
210.333	-2.72
210.719	18.79
211.105	20.39
211.491	27.16
211.876	7.81
212.262	41.61
212.648	18.79
213.034	-20.28
213.419	-0.4
213.805	16.16
214.19	8.89
214.576	7.96
214.961	14.77
215.346	14.93
215.732	4.75
216.117	-19.88
216.502	27.71
216.888	33.35
217.273	-33.79
217.658	-5.21
218.043	-5.85
218.428	9.54
218.813	35.58
219.198	8.48
219.583	-41.78
219.968	0.13
220.353	-1.41
220.738	23.43
221.122	-2.28
221.507	11.85
221.892	9.01
222.276	11.33
222.661	13.27
223.046	4.12
223.43	-4.6
223.815	18.64
224.199	20.4
224.583	-5.58
224.968	1.96
225.352	-8.6
225.736	3.75
226.121	15.21
226.505	7.15
226.889	3.83
227.273	6.22
227.657	6.67
228.041	5.34
228.425	2.59
228.809	6.92
229.193	2.74
229.577	4.39
229.961	1.87
230.344	2.85
230.728	2.53
231.112	3.46
231.495	2.91
231.879	3.02
232.263	4.35
232.646	2.7
233.03	2.48
233.413	1.82
233.797	1.91
234.18	4.79
234.563	4.88
234.946	5.06
235.33	2.36
235.713	4.23
236.096	2.93
236.479	3.37
236.862	4.54
237.245	2.38
237.628	3.89
238.011	3.69
238.394	4.46
238.777	4.12
239.16	3.1
239.543	4.39
239.925	4.77
240.308	3.46
240.691	2.06
241.073	4.02
241.456	4.26
241.838	2.55
242.221	4.11
242.603	3.83
242.986	3.11
243.368	3.72
243.75	3.17
244.133	2.73
244.515	2.79
244.897	3.03
245.279	3.3
245.661	2.56
246.043	2.56
246.425	3.54
246.807	2.34
247.189	3.16
247.571	3.09
247.953	2.72
248.335	3.25
248.717	2.67
249.098	2.75
249.48	2.98
249.862	3.26
250.243	3.18
250.625	3.18
251.006	3.08
251.388	2.91
251.769	3.39
252.151	2.62
252.532	3.58
252.913	4.15
253.295	3
253.676	2.82
254.057	2.89
254.438	2.76
254.819	2.94
255.2	2.93
255.581	3.33
255.962	2.89
256.343	3.36
256.724	2.12
257.105	3.92
257.486	2.62
257.867	3.66
258.247	2.93
258.628	2.87
259.009	3
259.389	2.93
259.77	2.61
260.15	3.68
260.531	2.71
260.911	3.14
261.292	3.06
261.672	2.79
262.052	3.21
262.432	2.99
262.813	2.89
263.193	3.39
263.573	2.82
263.953	3.23
264.333	2.85
264.713	3.45
265.093	3.78
265.473	3.36
265.853	2.96
266.233	3.61
266.612	2.99
266.992	3.1
267.372	3.86
267.752	2.97
268.131	3.23
268.511	3.06
268.89	3.57
269.27	2.44
269.649	2.63
270.029	2.68
270.408	3.03
270.787	3.28
271.167	2.18
271.546	2.92
271.925	3.4
272.304	3.25
272.683	3.29
273.062	3.22
273.441	3.19
273.82	3.43
274.199	2.89
274.578	2.45
274.957	3.13
275.336	3.32
275.715	3.31
276.093	2.91
276.472	2.82
276.851	3.31
277.229	3.64
277.608	2.77
277.986	2.57
278.365	3.29
278.743	2.76
279.122	2.97
279.5	2.63
279.878	2.71
280.257	3.11
280.635	2.66
281.013	2.97
281.391	3.05
281.769	2.97
282.147	2.94
282.525	3.61
282.903	2.91
283.281	2.96
283.659	3.58
284.037	2.97
284.415	2.6
284.792	2.46
285.17	3.31
285.548	2.85
285.925	3.16
286.303	3.51
286.68	2.69
287.058	3.37
287.435	3.33
287.813	2.54
288.19	2.98
288.567	3.15
288.945	3.5
289.322	3.4
289.699	2.25
290.076	3.35
290.453	3.44
290.83	3.16
291.207	3.47
291.584	3.01
291.961	2.91
292.338	3.18
292.715	3.15
293.092	3.43
293.469	3.43
293.845	2.97
294.222	3.67
294.599	3.05
294.975	3.59
295.352	3.34
295.728	3.47
296.105	3.21
296.481	3.47
296.858	3.63
297.234	3.66
297.61	3.21
297.986	3.57
298.363	3.73
298.739	3.44
299.115	3.67
299.491	3.89
299.867	3.91
300.243	4.07
300.619	3.8
300.995	3.85
301.371	3.81
301.746	3.77
302.122	4.24
302.498	3.79
302.874	3.95
303.249	4.24
303.625	4.44
304	4.74
304.376	3.59
304.751	4.19
305.127	4.03
305.502	4.67
305.878	4.33
306.253	4.3
306.628	4.7
307.003	4.47
307.378	4.56
307.754	4.34
308.129	4.85
308.504	4.4
308.879	4.99
309.254	5.04
309.629	4.12
310.003	4.23
310.378	5.6
310.753	5.05
311.128	5.06
311.502	4.92
311.877	5.16
312.252	4.81
312.626	5.51
313.001	5.04
313.375	5.24
313.75	4.79
314.124	4.63
314.498	5.29
314.873	4.95
315.247	5.69
315.621	5.03
315.995	5.93
316.369	4.59
316.743	5.69
317.117	5.51
317.491	5.35
317.865	5.56
318.239	6.19
318.613	5.36
318.987	5.31
319.361	5.28
319.734	5.7
320.108	5.58
320.482	6.5
320.855	6.27
321.229	6.38
321.602	6.1
321.976	5.99
322.349	6.82
322.723	6.05
323.096	6.49
323.469	6.17
323.843	6.12
324.216	6.6
324.589	6.36
324.962	6.49
325.335	6.84
325.708	6.58
326.081	6.49
326.454	6.66
326.827	6.9
327.2	7.08
327.573	6.92
327.945	6.97
328.318	6.73
328.691	6.7
329.063	7.08
329.436	6.49
329.809	7.33
330.181	7.56
330.553	7.22
330.926	7.09
331.298	6.66
331.671	6.6
332.043	6.81
332.415	7.39
332.787	6.98
333.159	6.83
333.532	7.31
333.904	7.01
334.276	7.1
334.648	7.3
335.02	7.24
335.391	7.19
335.763	7.61
336.135	7.53
336.507	7.62
336.879	7.19
337.25	7.33
337.622	7.6
337.993	8.09
338.365	7.76
338.736	7.52
339.108	8.26
339.479	7.39
339.851	7.85
340.222	7.38
340.593	7.58
340.964	7.55
341.336	7.95
341.707	8.32
342.078	7.9
342.449	7.66
342.82	7.73
343.191	7.7
343.562	8.13
343.933	7.95
344.303	8.1
344.674	8.33
345.045	8.28
345.416	8.15
345.786	8.25
346.157	8.61
346.527	7.94
346.898	7.94
347.268	8.39
347.639	8.41
348.009	8.22
348.38	8.45
348.75	8.31
349.12	8.49
349.49	8.19
349.861	8.76
350.231	8.2
350.601	8.58
350.971	8.8
351.341	8.65
351.711	9.35
352.081	8.8
352.45	8.76
352.82	8.62
353.19	8.89
353.56	8.84
353.929	8.48
354.299	8.55
354.669	8.61
355.038	8.81
355.408	9.03
355.777	8.75
356.147	8.48
356.516	8.61
356.885	9.06
357.254	9.23
357.624	8.81
357.993	8.72
358.362	8.88
358.731	8.59
359.1	8.59
359.469	8.57
359.838	9.16
360.207	9.07
360.576	9.27
360.945	9.02
361.314	9.17
361.682	8.99
362.051	9.28
362.42	9.16
362.788	9.23
363.157	9.47
363.525	9.06
363.894	9.17
364.262	9.15
364.631	9.55
364.999	9.34
365.367	9.18
365.735	9.54
366.104	9.44
366.472	9.64
366.84	9.75
367.208	9.59
367.576	9.33
367.944	9.71
368.312	9.7
368.68	10.03
369.048	9.8
369.416	9.87
369.783	9.94
370.151	9.89
370.519	9.71
370.886	10.01
371.254	9.85
371.621	10.41
371.989	9.58
372.356	10.1
372.724	10.14
373.091	9.86
373.458	9.81
373.826	9.98
374.193	9.91
374.56	10.07
374.927	10.18
375.294	10.41
375.661	10.32
376.028	10.52
376.395	10.38
376.762	10.21
377.129	10.34
377.496	10.46
377.863	10.66
378.229	10.61
378.596	10.55
378.963	10.33
379.329	10.45
379.696	10.54
380.062	10.28
380.429	10.26
380.795	10.36
381.161	10.69
381.528	10.99
381.894	10.46
382.26	10.82
382.626	10.83
382.993	10.66
383.359	10.68
383.725	10.82
384.091	10.99
384.457	10.97
384.823	10.71
385.188	11.29
385.554	11.04
385.92	10.73
386.286	11.16
386.651	10.84
387.017	11.19
387.383	10.77
387.748	10.57
388.114	10.73
388.479	11.17
388.845	11.54
389.21	11.21
389.575	10.85
389.94	11.12
390.306	11.48
390.671	11.3
391.036	11.23
391.401	11.54
391.766	11.42
392.131	11.32
392.496	11.29
392.861	11.41
393.226	11.37
393.591	11.66
393.956	11.48
394.32	11.91
394.685	11.47
395.05	11.72
395.414	11.78
395.779	11.64
396.143	11.47
396.508	11.56
396.872	11.59
397.236	11.59
397.601	11.58
397.965	11.59
398.329	11.79
398.694	11.89
399.058	11.51
399.422	11.84
399.786	11.68
400.15	11.72
400.514	11.87
400.878	11.97
401.242	11.95
401.605	12.2
401.969	11.9
402.333	11.83
402.697	11.96
403.06	12.19
403.424	12.32
403.787	11.93
404.151	12.33
404.514	12.33
404.878	12.1
405.241	12.15
405.604	12.36
405.968	12.14
406.331	12.03
406.694	12.4
407.057	12.17
407.42	12.64
407.783	12.38
408.146	12.4
408.509	12.42
408.872	12.64
409.235	12.42
409.598	12.78
409.961	12.63
410.323	12.5
410.686	12.56
411.049	12.71
411.411	12.51
411.774	12.75
412.136	12.85
412.499	12.79
412.861	12.79
413.223	12.82
413.586	12.92
413.948	12.92
414.31	13.11
414.672	12.83
415.035	13.15
415.397	12.98
415.759	12.8
416.121	13.01
416.483	13.29
416.845	12.92
417.206	13.16
417.568	12.95
417.93	13.13
418.292	12.75
418.653	13.22
419.015	13.01
419.377	12.88
419.738	12.81
420.1	13.01
420.461	12.88
420.822	12.95
421.184	13.14
421.545	13.11
421.906	13.05
422.267	13.07
422.629	13.14
422.99	12.97
423.351	12.97
423.712	13.04
424.073	13.13
424.434	13.09
424.795	13.19
425.155	13.27
425.516	13.28
425.877	13.2
426.238	13.14
426.598	13.33
426.959	13.32
427.32	13.5
427.68	13.47
428.041	13.39
428.401	13.57
428.761	13.58
429.122	13.69
429.482	13.75
429.842	13.87
430.202	13.98
430.563	13.75
430.923	13.89
431.283	13.83
431.643	13.92
432.003	14.14
432.363	13.95
432.722	14.08
433.082	14.24
433.442	13.96
433.802	14.31
434.161	13.8
434.521	14
434.881	14.03
435.24	13.95
435.6	13.99
435.959	14.02
436.319	14.27
436.678	14.21
437.037	14.23
437.396	14.53
437.756	14.49
438.115	14.31
438.474	14.44
438.833	14.58
439.192	14.35
439.551	14.32
439.91	14.34
440.269	14.71
440.628	14.55
440.987	14.41
441.345	14.33
441.704	14.57
442.063	14.44
442.421	14.5
442.78	14.43
443.138	14.56
443.497	14.63
443.855	14.67
444.214	14.59
444.572	14.71
444.93	14.85
445.288	14.85
445.647	14.91
446.005	14.62
446.363	14.79
446.721	14.92
447.079	14.93
447.437	14.9
447.795	14.93
448.153	14.78
448.51	14.71
448.868	14.77
449.226	14.82
449.584	14.99
449.941	14.93
450.299	14.93
450.656	15
451.014	15.07
451.371	15.16
451.729	15.14
452.086	15.33
452.443	15.29
452.801	15.29
453.158	15.52
453.515	15.51
453.872	15.55
454.229	15.53
454.586	15.57
454.943	15.4
455.3	15.5
455.657	15.69
456.014	15.55
456.371	15.63
456.727	15.54
457.084	15.59
457.441	15.87
457.797	15.85
458.154	15.71
458.51	15.71
458.867	15.73
459.223	15.93
459.58	15.93
459.936	15.76
460.292	15.77
460.648	15.61
461.005	15.73
461.361	15.84
461.717	15.57
462.073	15.71
462.429	15.68
462.785	15.87
463.141	15.96
463.496	16.05
463.852	16.15
464.208	16.21
464.564	16.36
464.919	16.27
465.275	16.34
465.631	16.46
465.986	16.33
466.342	16.53
466.697	16.3
467.052	16.32
467.408	16.5
467.763	16.72
468.118	16.79
468.473	16.52
468.829	16.6
469.184	16.65
469.539	16.52
469.894	16.49
470.249	16.7
470.603	16.75
470.958	16.9
471.313	16.72
471.668	16.72
472.023	16.78
472.377	16.93
472.732	16.7
473.086	17
473.441	16.86
473.795	17.18
474.15	16.98
474.504	16.93
474.859	17.01
475.213	17.01
475.567	17.03
475.921	17.04
476.275	17.26
476.63	17.25
476.984	17.39
477.338	17.17
477.692	17.22
478.045	17.26
478.399	17.29
478.753	17.28
479.107	17.17
479.461	17.38
479.814	17.43
480.168	17.49
480.521	17.45
480.875	17.31
481.228	17.59
481.582	17.54
481.935	17.58
482.289	17.46
482.642	17.39
482.995	17.53
483.348	17.6
483.701	17.56
484.055	17.4
484.408	17.25
484.761	17.3
485.114	17.12
485.466	16.9
485.819	16.73
486.172	16.66
486.525	16.85
486.878	16.99
487.23	17.08
487.583	17.2
487.936	17.28
488.288	17.43
488.641	17.43
488.993	17.32
489.345	17.14
489.698	17.12
490.05	17.12
490.402	17.29
490.754	17.31
491.107	17.45
491.459	17.71
491.811	17.74
492.163	17.85
492.515	17.98
492.866	17.79
493.218	17.72
493.57	17.52
493.922	17.45
494.274	17.65
494.625	17.79
494.977	17.88
495.328	18.21
495.68	18.28
496.031	18.4
496.383	18.7
496.734	18.42
497.086	18.55
497.437	18.64
497.788	18.67
498.139	18.64
498.49	18.54
498.842	18.55
499.193	18.66
499.544	18.62
499.894	18.58
500.245	18.7
500.596	18.65
500.947	18.76
501.298	18.7
501.648	18.87
501.999	18.92
502.35	19.1
502.7	19.02
503.051	19.07
503.401	18.99
503.752	19.24
504.102	19.33
504.452	19.12
504.803	19.13
505.153	19.26
505.503	19.19
505.853	19.32
506.203	19.11
506.553	19.35
506.903	19.47
507.253	19.51
507.603	19.36
507.953	19.65
508.303	19.42
508.652	19.59
509.002	19.56
509.352	19.46
509.701	19.5
510.051	19.45
510.4	19.57
510.75	19.58
511.099	19.52
511.449	19.54
511.798	19.5
512.147	19.56
512.496	19.62
512.846	19.6
513.195	19.74
513.544	19.82
513.893	19.78
514.242	19.83
514.591	19.89
514.939	19.8
515.288	19.83
515.637	19.9
515.986	20.08
516.334	20.03
516.683	19.97
517.032	20
517.38	20.04
517.729	20.38
518.077	20.19
518.426	20.15
518.774	20.26
519.122	20.31
519.47	20.31
519.819	19.97
520.167	19.95
520.515	19.98
520.863	20.05
521.211	20.03
521.559	20.22
521.907	20.18
522.255	20.25
522.602	20.45
522.95	20.36
523.298	20.43
523.645	20.61
523.993	20.59
524.341	20.67
524.688	20.58
525.036	20.74
525.383	20.68
525.73	20.79
526.078	20.73
526.425	20.82
526.772	20.7
527.119	20.7
527.466	20.58
527.814	20.47
528.161	20.5
528.508	20.53
528.854	20.62
529.201	20.59
529.548	20.69
529.895	20.53
530.242	20.3
530.588	20.03
530.935	20.19
531.282	20.33
531.628	20.32
531.975	20.48
532.321	20.54
532.667	20.71
533.014	20.92
533.36	21.05
533.706	20.96
534.052	21.1
534.399	21
534.745	20.89
535.091	20.81
535.437	20.88
535.783	20.82
536.129	20.95
536.474	21.01
536.82	21.26
537.166	21.29
537.512	21.55
537.857	21.57
538.203	21.41
538.549	21.31
538.894	21.25
539.239	21.38
539.585	21.38
539.93	21.63
540.276	21.65
540.621	21.82
540.966	21.87
541.311	21.9
541.656	22.11
542.001	21.92
542.346	21.87
542.691	21.55
543.036	21.48
543.381	21.28
543.726	21.28
544.071	21.41
544.415	21.47
544.76	21.63
545.105	21.82
545.449	21.81
545.794	21.94
546.138	22.01
546.483	22.16
546.827	22.25
547.171	22.33
547.516	22.31
547.86	22.4
548.204	22.32
548.548	22.29
548.892	22.24
549.236	22.44
549.58	22.45
549.924	22.41
550.268	22.62
550.612	22.77
550.956	23.06
551.3	22.91
551.643	22.94
551.987	23.22
552.33	22.91
552.674	23.16
553.017	23.11
553.361	23.19
553.704	23.26
554.048	23.12
554.391	23.13
554.734	23.07
555.077	23.19
555.42	23.06
555.764	23.21
556.107	23.49
556.45	23.42
556.793	23.39
557.135	23.46
557.478	23.47
557.821	23.64
558.164	23.65
558.507	23.67
558.849	23.59
559.192	23.7
559.534	23.65
559.877	23.65
560.219	23.88
560.562	23.98
560.904	23.76
561.246	23.75
561.589	23.94
561.931	24.04
562.273	23.87
562.615	23.89
562.957	23.82
563.299	23.96
563.641	23.94
563.983	23.96
564.325	23.99
564.667	23.94
565.008	24.13
565.35	24.04
565.692	24.14
566.033	24.39
566.375	24.48
566.716	24.37
567.058	24.25
567.399	24.29
567.741	24.19
568.082	24.24
568.423	24.28
568.764	24.12
569.105	24.4
569.447	24.42
569.788	24.45
570.129	24.54
570.47	24.59
570.811	24.74
571.151	24.55
571.492	24.75
571.833	24.82
572.174	24.63
572.514	24.69
572.855	24.74
573.195	24.66
573.536	24.66
573.876	24.65
574.217	24.66
574.557	24.55
574.898	24.48
575.238	24.6
575.578	24.99
575.918	24.69
576.258	25.08
576.598	24.91
576.938	25.09
577.278	25.11
577.618	25.02
577.958	25
578.298	25.05
578.638	25.22
578.977	25.13
579.317	25.04
579.657	25.14
579.996	25.35
580.336	25.43
580.675	25.45
581.014	25.49
581.354	25.43
581.693	25.7
582.032	25.65
582.372	25.62
582.711	25.63
583.05	25.92
583.389	25.78
583.728	25.72
584.067	25.81
584.406	25.69
584.745	25.91
585.083	25.8
585.422	25.83
585.761	25.77
586.1	25.77
586.438	25.92
586.777	25.96
587.115	25.97
587.454	26.11
587.792	26.11
588.13	25.96
588.469	26.04
588.807	25.61
589.145	26.13
589.483	25.96
589.821	25.89
590.159	26.33
590.497	26.37
590.835	26.14
591.173	26.26
591.511	26.06
591.849	26.3
592.187	26.38
592.524	26.23
592.862	26.37
593.2	26.28
593.537	26.15
593.875	26.36
594.212	26.53
594.55	26.29
594.887	26.62
595.224	26.48
595.561	26.58
595.899	26.36
596.236	26.73
596.573	26.59
596.91	26.77
597.247	26.56
597.584	26.78
597.921	26.73
598.258	26.79
598.594	26.77
598.931	26.51
599.268	26.32
599.604	26.54
599.941	26.65
600.277	26.74
600.614	26.77
600.95	26.83
601.287	26.74
601.623	27.09
601.959	27.19
602.296	27.28
602.632	27.18
602.968	27.09
603.304	27.31
603.64	27.08
603.976	27.24
604.312	27.63
604.648	27.17
604.984	27.33
605.319	27.21
605.655	27.11
605.991	27.08
606.326	27.36
606.662	27.03
606.998	26.93
607.333	27.17
607.668	27.14
608.004	27.34
608.339	27.24
608.674	27.46
609.01	27.35
609.345	27.43
609.68	27.58
610.015	27.41
610.35	27.51
610.685	27.81
611.02	27.85
611.355	27.25
611.689	27.47
612.024	27.53
612.359	27.68
612.694	28.01
613.028	28.08
613.363	27.6
613.697	28.17
614.032	28.02
614.366	27.81
614.7	27.96
615.035	28.2
615.369	28.53
615.703	27.49
616.037	28.12
616.371	28.27
616.705	28.03
617.039	28.23
617.373	28.42
617.707	28.51
618.041	28.21
618.375	28.24
618.709	28.44
619.042	28.46
619.376	28.85
619.71	28.63
620.043	28.46
620.377	28.39
620.71	28.67
621.043	28.8
621.377	28.84
621.71	28.75
622.043	28.41
622.376	28.83
622.709	29.15
623.043	28.75
623.376	28.57
623.709	28.59
624.041	29.09
624.374	29.05
624.707	28.72
625.04	28.91
625.373	28.87
625.705	28.84
626.038	29.18
626.37	28.91
626.703	28.59
627.035	29.05
627.368	28.96
627.7	29.28
628.032	28.88
628.365	28.9
628.697	28.96
629.029	29.11
629.361	29.01
629.693	28.98
630.025	29.15
630.357	29.16
630.689	29.38
631.021	29.58
631.353	29.25
631.684	29.07
632.016	29.44
632.348	29.38
632.679	29.39
633.011	29.18
633.342	29.48
633.674	29.47
634.005	29.47
634.336	29.88
634.668	29.45
634.999	29.46
635.33	29.43
635.661	29.84
635.992	30.02
636.323	29.76
636.654	29.94
636.985	29.57
637.316	29.85
637.647	29.51
637.977	29.68
638.308	29.96
638.639	30.22
638.969	30.07
639.3	29.69
639.63	29.79
639.961	29.67
640.291	29.6
640.622	29.83
640.952	30.12
641.282	29.57
641.612	30.11
641.943	30.47
642.273	29.84
642.603	30.63
642.933	30.4
643.263	30.26
643.592	30.37
643.922	30.51
644.252	30
644.582	30.02
644.911	30.49
645.241	30.71
645.571	30.51
645.9	30.47
646.23	30.42
646.559	30.15
646.888	30.74
647.218	30.18
647.547	30.24
647.876	30.4
648.205	30.92
648.534	30.11
648.863	30.93
649.192	30.21
649.521	31
649.85	30.81
650.179	30.97
650.508	30.59
650.837	30.94
651.165	31.21
651.494	30.8
651.822	31.03
652.151	30.9
652.479	30.2
652.808	30.66
653.136	30.68
653.465	31.12
653.793	31.11
654.121	31.08
654.449	31.11
654.777	30.8
655.105	30.78
655.433	31.62
655.761	31.04
656.089	31.77
656.417	30.86
656.745	31.15
657.073	31.62
657.4	31.57
657.728	31.17
658.056	31.48
658.383	31
658.711	31.16
659.038	31.23
659.365	31.6
659.693	31.12
660.02	31.26
660.347	31.4
660.674	30.91
661.001	31.42
661.329	31.28
661.656	31.74
661.982	31.02
662.309	31.14
662.636	31.08
662.963	31.3
663.29	31.89
663.616	31.65
663.943	31.54
664.27	31.96
664.596	31.94
664.923	31.9
665.249	31.9
665.576	31.89
665.902	31.85
666.228	31.8
666.554	31.84
666.881	31.5
667.207	32.51
667.533	31.72
667.859	32.2
668.185	31.76
668.511	32.89
668.837	32.1
669.162	32.23
669.488	31.96
669.814	31.82
670.139	31.97
670.465	32.25
670.791	32.09
671.116	31.98
671.442	31.54
671.767	31.84
672.092	32.47
