Data from 0344_chest_Reflection__1__325.txt Node

Date: Fri Oct 20 23:15:03 CDT 2023
User: ToomeyLab
Spectrometer: FLMS14357
Trigger mode: 0
Integration Time (sec): 1.000000E-2
Scans to average: 100
Electric dark correction enabled: true
Nonlinearity correction enabled: false
Boxcar width: 0
XAxis mode: Wavelengths
Number of Pixels in Spectrum: 2048
>>>>>Begin Spectral Data<<<<<
189.047	56.14
189.435	56.14
189.823	56.14
190.211	472.55
190.599	160.92
190.987	141.14
191.375	-51.81
191.763	42.76
192.151	-100.76
192.538	40.34
192.926	-10.24
193.314	241.96
193.702	56.57
194.089	126.5
194.477	-185.11
194.864	213.84
195.252	67.62
195.639	111.92
196.027	-956.68
196.414	105.81
196.801	136.31
197.189	31.03
197.576	157.31
197.963	-26.39
198.351	36.73
198.738	18.75
199.125	29.19
199.512	27.76
199.899	11.95
200.286	-7.19
200.673	57.18
201.06	20.36
201.447	54.15
201.833	36.48
202.22	51.57
202.607	36.49
202.994	53.22
203.38	51.11
203.767	42.11
204.154	46.03
204.54	56.42
204.927	17.92
205.313	-8.92
205.699	46.82
206.086	42.11
206.472	53.2
206.858	49.82
207.245	-7.54
207.631	24.56
208.017	12.86
208.403	11.59
208.789	51.35
209.175	2.25
209.561	24.05
209.947	-0.64
210.333	-10.47
210.719	15.94
211.105	43.38
211.491	29
211.876	0.86
212.262	32.42
212.648	20.13
213.034	28.57
213.419	1.97
213.805	4.9
214.19	5.65
214.576	-24.71
214.961	29.62
215.346	20.04
215.732	24.53
216.117	-11.52
216.502	39.38
216.888	14.39
217.273	6
217.658	1.67
218.043	-0.41
218.428	26.29
218.813	-0.61
219.198	12.97
219.583	-16.55
219.968	-4.6
220.353	13.44
220.738	2.12
221.122	-9.58
221.507	13.59
221.892	2.81
222.276	7.07
222.661	17.76
223.046	8.29
223.43	1.01
223.815	11.86
224.199	14.1
224.583	-2.15
224.968	4.23
225.352	0.88
225.736	9.37
226.121	6.74
226.505	4.84
226.889	3.01
227.273	0.9
227.657	7.35
228.041	9.63
228.425	3.79
228.809	8.36
229.193	3.72
229.577	5.92
229.961	3.55
230.344	6.02
230.728	4.07
231.112	5.55
231.495	4.56
231.879	5.44
232.263	4.95
232.646	4.46
233.03	4.86
233.413	4.05
233.797	6.23
234.18	4.79
234.563	6.59
234.946	7.38
235.33	4.75
235.713	5.72
236.096	5.71
236.479	6.39
236.862	5.62
237.245	4.63
237.628	4.61
238.011	4.76
238.394	4.78
238.777	6.45
239.16	4.52
239.543	5.76
239.925	6.06
240.308	5.35
240.691	4.82
241.073	5.24
241.456	5.1
241.838	5
242.221	5.48
242.603	4.37
242.986	4.98
243.368	4.55
243.75	4.15
244.133	4.15
244.515	4.1
244.897	4.46
245.279	4.47
245.661	4.42
246.043	3.97
246.425	4.98
246.807	4.61
247.189	3.68
247.571	4.02
247.953	4.57
248.335	4.91
248.717	4.32
249.098	4.02
249.48	4.22
249.862	4.4
250.243	4.7
250.625	4.52
251.006	4.76
251.388	4.64
251.769	4.92
252.151	4.58
252.532	4.91
252.913	3.95
253.295	3.07
253.676	4.58
254.057	3.99
254.438	4.14
254.819	4.73
255.2	3.48
255.581	3.76
255.962	4.41
256.343	4.45
256.724	3.49
257.105	5
257.486	4.61
257.867	4.49
258.247	4.06
258.628	4.84
259.009	3.52
259.389	3.9
259.77	3.48
260.15	4.81
260.531	4.5
260.911	4.33
261.292	3.95
261.672	4.22
262.052	4.13
262.432	3.94
262.813	4.1
263.193	4.52
263.573	3.64
263.953	4.23
264.333	4.39
264.713	4.54
265.093	4.75
265.473	4.54
265.853	4.44
266.233	3.44
266.612	4.14
266.992	3.67
267.372	3.88
267.752	3.83
268.131	4.4
268.511	3.98
268.89	4.15
269.27	3.8
269.649	3.71
270.029	3.85
270.408	4.13
270.787	4.24
271.167	3.96
271.546	4.13
271.925	4.74
272.304	4.55
272.683	4.05
273.062	3.76
273.441	4.21
273.82	4.2
274.199	4.62
274.578	3.95
274.957	3.9
275.336	4.42
275.715	4.05
276.093	3.9
276.472	3.71
276.851	3.73
277.229	4.07
277.608	3.99
277.986	3.95
278.365	4.36
278.743	4.12
279.122	3.73
279.5	4.01
279.878	3.46
280.257	4.17
280.635	5.06
281.013	4.3
281.391	4.59
281.769	3.42
282.147	3.63
282.525	3.91
282.903	4.02
283.281	3.68
283.659	3.96
284.037	4.02
284.415	3.53
284.792	3.94
285.17	4.1
285.548	3.72
285.925	3.66
286.303	4.29
286.68	3.61
287.058	4.38
287.435	3.58
287.813	3.66
288.19	3.74
288.567	4.05
288.945	4.03
289.322	4.18
289.699	3.29
290.076	4.26
290.453	4.3
290.83	3.84
291.207	4.48
291.584	3.47
291.961	3.83
292.338	3.68
292.715	3.79
293.092	3.62
293.469	4.13
293.845	3.97
294.222	4.1
294.599	3.84
294.975	4.82
295.352	4.46
295.728	4.09
296.105	3.6
296.481	3.79
296.858	3.69
297.234	4
297.61	3.58
297.986	3.63
298.363	4.29
298.739	4.16
299.115	4.11
299.491	4.13
299.867	4.13
300.243	3.69
300.619	3.93
300.995	3.46
301.371	4.41
301.746	3.84
302.122	4.48
302.498	3.82
302.874	3.97
303.249	3.62
303.625	3.98
304	4.3
304.376	3.9
304.751	3.62
305.127	4.24
305.502	4.36
305.878	4.26
306.253	3.93
306.628	3.99
307.003	4.45
307.378	3.45
307.754	3.92
308.129	4
308.504	4.38
308.879	4.33
309.254	4.3
309.629	4.23
310.003	3.39
310.378	4.38
310.753	4.09
311.128	4.31
311.502	3.97
311.877	3.86
312.252	3.61
312.626	4.45
313.001	3.76
313.375	4.07
313.75	3.98
314.124	3.85
314.498	4.33
314.873	4.12
315.247	3.99
315.621	4.02
315.995	4.34
316.369	3.83
316.743	4.31
317.117	3.89
317.491	3.58
317.865	4.26
318.239	4.57
318.613	4.17
318.987	4.46
319.361	3.48
319.734	3.6
320.108	3.39
320.482	4.38
320.855	4.16
321.229	4.51
321.602	4.05
321.976	4.31
322.349	4.67
322.723	4.39
323.096	4.23
323.469	4.37
323.843	4.21
324.216	3.85
324.589	3.99
324.962	4.31
325.335	4.01
325.708	4.12
326.081	4.04
326.454	4.47
326.827	4.27
327.2	4.62
327.573	4.45
327.945	4.27
328.318	3.82
328.691	4.44
329.063	4.35
329.436	3.89
329.809	3.95
330.181	4.41
330.553	4.47
330.926	4.2
331.298	4.27
331.671	3.87
332.043	3.69
332.415	4.32
332.787	3.92
333.159	4.3
333.532	4.3
333.904	4.49
334.276	3.35
334.648	4.52
335.02	4.53
335.391	4.19
335.763	4.52
336.135	4.18
336.507	4.43
336.879	4.22
337.25	4.39
337.622	4.65
337.993	4.51
338.365	4.17
338.736	4.49
339.108	4.34
339.479	4.4
339.851	4.32
340.222	4.22
340.593	3.65
340.964	3.88
341.336	4.7
341.707	4.07
342.078	4.49
342.449	4.3
342.82	4.12
343.191	4.4
343.562	4.09
343.933	4.44
344.303	4.17
344.674	4.45
345.045	4.27
345.416	4.11
345.786	3.8
346.157	4.09
346.527	3.93
346.898	4.26
347.268	4.36
347.639	4.28
348.009	4.09
348.38	4.18
348.75	4.42
349.12	4.32
349.49	4.17
349.861	4.5
350.231	3.83
350.601	4.49
350.971	4.57
351.341	4.3
351.711	4.62
352.081	4.2
352.45	4.17
352.82	4.19
353.19	4.39
353.56	4.35
353.929	4.28
354.299	4.27
354.669	4.21
355.038	4.71
355.408	4.22
355.777	4.19
356.147	4.12
356.516	4.06
356.885	4.31
357.254	4.49
357.624	4.48
357.993	4.01
358.362	4.31
358.731	3.87
359.1	3.94
359.469	4
359.838	4.41
360.207	4.46
360.576	4.37
360.945	4.03
361.314	4.38
361.682	3.71
362.051	4.08
362.42	4.24
362.788	4.37
363.157	4.42
363.525	4.28
363.894	4.09
364.262	4.08
364.631	4.25
364.999	4.25
365.367	4.34
365.735	4.08
366.104	4.31
366.472	4.7
366.84	4.14
367.208	4.27
367.576	4.12
367.944	4.31
368.312	4.09
368.68	4.22
369.048	4.34
369.416	4.35
369.783	4.51
370.151	4.04
370.519	4.23
370.886	4.33
371.254	4.45
371.621	4.85
371.989	4.01
372.356	4.23
372.724	4.29
373.091	4.45
373.458	3.95
373.826	4.4
374.193	4.15
374.56	4.28
374.927	4.36
375.294	4.45
375.661	4.48
376.028	4.46
376.395	4.73
376.762	4.26
377.129	4.58
377.496	4.61
377.863	4.47
378.229	4.82
378.596	4.54
378.963	4.27
379.329	4.43
379.696	4.47
380.062	4.46
380.429	3.97
380.795	4.4
381.161	4.42
381.528	4.63
381.894	4.32
382.26	4.54
382.626	4.57
382.993	4.39
383.359	4.54
383.725	4.59
384.091	4.42
384.457	4.53
384.823	4.36
385.188	4.82
385.554	4.45
385.92	4.73
386.286	4.85
386.651	3.98
387.017	4.72
387.383	4.24
387.748	4.14
388.114	4.38
388.479	4.37
388.845	4.69
389.21	4.36
389.575	4.21
389.94	4.23
390.306	4.63
390.671	4.38
391.036	4.42
391.401	4.59
391.766	4.63
392.131	4.31
392.496	4.55
392.861	4.34
393.226	4.22
393.591	4.4
393.956	4.37
394.32	4.59
394.685	4.58
395.05	4.5
395.414	4.69
395.779	4.37
396.143	4.33
396.508	4.26
396.872	4.65
397.236	4.42
397.601	4.26
397.965	4.28
398.329	4.38
398.694	4.51
399.058	4.23
399.422	4.42
399.786	4.5
400.15	4.34
400.514	4.58
400.878	4.44
401.242	4.51
401.605	4.54
401.969	4.44
402.333	4.43
402.697	4.61
403.06	4.37
403.424	4.64
403.787	4.4
404.151	4.54
404.514	4.52
404.878	4.65
405.241	4.61
405.604	4.46
405.968	4.67
406.331	4.42
406.694	4.46
407.057	4.34
407.42	4.88
407.783	4.59
408.146	4.35
408.509	4.54
408.872	4.77
409.235	4.59
409.598	4.71
409.961	4.73
410.323	4.4
410.686	4.32
411.049	4.37
411.411	4.49
411.774	4.6
412.136	4.52
412.499	4.47
412.861	4.61
413.223	4.48
413.586	4.53
413.948	4.5
414.31	4.67
414.672	4.43
415.035	4.66
415.397	4.69
415.759	4.78
416.121	4.54
416.483	4.72
416.845	4.52
417.206	4.73
417.568	4.6
417.93	4.82
418.292	4.38
418.653	4.66
419.015	4.45
419.377	4.45
419.738	4.53
420.1	4.44
420.461	4.44
420.822	4.58
421.184	4.59
421.545	4.58
421.906	4.5
422.267	4.35
422.629	4.55
422.99	4.4
423.351	4.36
423.712	4.32
424.073	4.51
424.434	4.41
424.795	4.45
425.155	4.52
425.516	4.44
425.877	4.57
426.238	4.51
426.598	4.45
426.959	4.47
427.32	4.62
427.68	4.55
428.041	4.51
428.401	4.63
428.761	4.73
429.122	4.6
429.482	4.61
429.842	4.61
430.202	4.6
430.563	4.65
430.923	4.64
431.283	4.83
431.643	4.88
432.003	4.9
432.363	4.58
432.722	4.86
433.082	4.7
433.442	4.67
433.802	4.94
434.161	4.6
434.521	4.8
434.881	4.71
435.24	4.86
435.6	4.64
435.959	4.65
436.319	4.68
436.678	4.67
437.037	4.62
437.396	4.91
437.756	4.63
438.115	4.54
438.474	4.8
438.833	4.62
439.192	4.66
439.551	4.7
439.91	4.65
440.269	4.73
440.628	4.82
440.987	4.7
441.345	4.64
441.704	4.78
442.063	4.7
442.421	4.66
442.78	4.67
443.138	4.77
443.497	4.69
443.855	4.73
444.214	4.69
444.572	4.57
444.93	4.77
445.288	4.82
445.647	5
446.005	4.54
446.363	4.87
446.721	4.67
447.079	4.97
447.437	4.72
447.795	4.67
448.153	4.7
448.51	4.78
448.868	4.59
449.226	4.7
449.584	4.71
449.941	4.79
450.299	4.74
450.656	4.73
451.014	4.76
451.371	4.86
451.729	4.73
452.086	4.84
452.443	4.91
452.801	4.73
453.158	4.95
453.515	4.85
453.872	4.92
454.229	5.02
454.586	4.78
454.943	4.82
455.3	4.75
455.657	4.81
456.014	4.84
456.371	4.91
456.727	4.97
457.084	4.95
457.441	4.93
457.797	5.01
458.154	4.94
458.51	4.86
458.867	5.11
459.223	4.77
459.58	5.03
459.936	4.97
460.292	4.84
460.648	4.75
461.005	4.78
461.361	4.85
461.717	4.7
462.073	4.79
462.429	4.85
462.785	4.86
463.141	4.9
463.496	4.89
463.852	4.99
464.208	5
464.564	5.08
464.919	4.94
465.275	5.14
465.631	5.06
465.986	5.05
466.342	5.08
466.697	5.07
467.052	4.98
467.408	4.95
467.763	5.11
468.118	5.16
468.473	5.19
468.829	4.96
469.184	5.13
469.539	5.06
469.894	5.07
470.249	4.98
470.603	5.22
470.958	5.12
471.313	5.1
471.668	5.08
472.023	5.15
472.377	5.22
472.732	5.11
473.086	5.3
473.441	5.15
473.795	5.3
474.15	5.04
474.504	5.1
474.859	4.93
475.213	5.12
475.567	5.1
475.921	5.11
476.275	5.07
476.63	5.18
476.984	5.25
477.338	5.12
477.692	5.16
478.045	5.05
478.399	5.22
478.753	5.25
479.107	5.2
479.461	5.2
479.814	5.17
480.168	5.26
480.521	5.25
480.875	5.28
481.228	5.1
481.582	5.15
481.935	5.17
482.289	5.31
482.642	5.08
482.995	5.13
483.348	5.1
483.701	5.2
484.055	5.04
484.408	5.05
484.761	5.02
485.114	5.02
485.466	4.92
485.819	4.83
486.172	4.79
486.525	4.82
486.878	4.91
487.23	4.93
487.583	5.01
487.936	5.06
488.288	5.04
488.641	5.11
488.993	5.05
489.345	5.03
489.698	4.99
490.05	4.99
490.402	4.94
490.754	5.01
491.107	5.06
491.459	5.18
491.811	5.12
492.163	5.12
492.515	5.16
492.866	5.19
493.218	5.1
493.57	5.1
493.922	5.05
494.274	5.08
494.625	5.17
494.977	5.17
495.328	5.34
495.68	5.34
496.031	5.24
496.383	5.42
496.734	5.44
497.086	5.55
497.437	5.4
497.788	5.35
498.139	5.53
498.49	5.34
498.842	5.29
499.193	5.44
499.544	5.38
499.894	5.32
500.245	5.25
500.596	5.44
500.947	5.49
501.298	5.4
501.648	5.44
501.999	5.45
502.35	5.48
502.7	5.63
503.051	5.52
503.401	5.49
503.752	5.64
504.102	5.56
504.452	5.51
504.803	5.57
505.153	5.67
505.503	5.57
505.853	5.6
506.203	5.51
506.553	5.44
506.903	5.58
507.253	5.57
507.603	5.64
507.953	5.69
508.303	5.62
508.652	5.74
509.002	5.62
509.352	5.66
509.701	5.61
510.051	5.56
510.4	5.65
510.75	5.56
511.099	5.66
511.449	5.58
511.798	5.72
512.147	5.62
512.496	5.64
512.846	5.53
513.195	5.84
513.544	5.63
513.893	5.69
514.242	5.68
514.591	5.73
514.939	5.66
515.288	5.68
515.637	5.89
515.986	5.8
516.334	5.67
516.683	5.7
517.032	5.67
517.38	5.71
517.729	5.79
518.077	5.74
518.426	5.77
518.774	5.79
519.122	5.87
519.47	5.86
519.819	5.71
520.167	5.68
520.515	5.75
520.863	5.87
521.211	5.79
521.559	5.83
521.907	5.81
522.255	5.84
522.602	5.9
522.95	5.93
523.298	5.94
523.645	5.99
523.993	5.93
524.341	6.04
524.688	5.96
525.036	5.95
525.383	5.9
525.73	6.06
526.078	5.93
526.425	6.06
526.772	6
527.119	5.96
527.466	5.94
527.814	5.98
528.161	5.97
528.508	6.01
528.854	5.93
529.201	5.93
529.548	5.95
529.895	6.02
530.242	5.88
530.588	5.81
530.935	5.8
531.282	5.85
531.628	5.94
531.975	5.89
532.321	5.95
532.667	5.97
533.014	6.11
533.36	6.21
533.706	6.16
534.052	6.13
534.399	6.02
534.745	6.05
535.091	6.06
535.437	6.06
535.783	6.13
536.129	6.18
536.474	6.18
536.82	6.3
537.166	6.16
537.512	6.29
537.857	6.3
538.203	6.31
538.549	6.3
538.894	6.32
539.239	6.28
539.585	6.39
539.93	6.41
540.276	6.45
540.621	6.56
540.966	6.61
541.311	6.64
541.656	6.63
542.001	6.5
542.346	6.54
542.691	6.45
543.036	6.43
543.381	6.38
543.726	6.36
544.071	6.35
544.415	6.5
544.76	6.36
545.105	6.56
545.449	6.52
545.794	6.54
546.138	6.56
546.483	6.6
546.827	6.66
547.171	6.8
547.516	6.73
547.86	6.83
548.204	6.6
548.548	6.8
548.892	6.77
549.236	6.81
549.58	6.72
549.924	6.81
550.268	6.88
550.612	6.89
550.956	7.01
551.3	7
551.643	7.07
551.987	7.21
552.33	7.13
552.674	7.03
553.017	7.03
553.361	7.15
553.704	7.1
554.048	7.22
554.391	7.11
554.734	7.23
555.077	7.12
555.42	7.15
555.764	7.15
556.107	7.38
556.45	7.33
556.793	7.22
557.135	7.34
557.478	7.27
557.821	7.31
558.164	7.54
558.507	7.53
558.849	7.64
559.192	7.52
559.534	7.74
559.877	7.44
560.219	7.57
560.562	7.45
560.904	7.51
561.246	7.73
561.589	7.55
561.931	7.69
562.273	7.62
562.615	7.81
562.957	7.81
563.299	7.63
563.641	7.79
563.983	7.53
564.325	7.71
564.667	8.05
565.008	7.79
565.35	7.96
565.692	7.93
566.033	7.87
566.375	8.02
566.716	8
567.058	7.81
567.399	8.03
567.741	7.89
568.082	8.04
568.423	7.96
568.764	7.87
569.105	8.03
569.447	7.93
569.788	8.09
570.129	8
570.47	8.13
570.811	8.24
571.151	8.26
571.492	8.16
571.833	8.36
572.174	8.33
572.514	8.37
572.855	8.31
573.195	8.32
573.536	8.23
573.876	8.43
574.217	8.27
574.557	8.37
574.898	8.27
575.238	8.32
575.578	8.4
575.918	8.34
576.258	8.55
576.598	8.7
576.938	8.63
577.278	8.51
577.618	8.48
577.958	8.47
578.298	8.54
578.638	8.63
578.977	8.74
579.317	8.72
579.657	8.72
579.996	8.83
580.336	8.8
580.675	8.74
581.014	8.86
581.354	8.95
581.693	8.99
582.032	9
582.372	8.92
582.711	9.18
583.05	9.31
583.389	9.08
583.728	9.17
584.067	9.1
584.406	9.15
584.745	9.16
585.083	9.32
585.422	9.19
585.761	9.17
586.1	9.54
586.438	9.01
586.777	9.2
587.115	9.45
587.454	9.41
587.792	9.2
588.13	9.51
588.469	9.47
588.807	9.15
589.145	9.56
589.483	9.49
589.821	9.46
590.159	9.66
590.497	9.85
590.835	9.64
591.173	9.55
591.511	9.86
591.849	9.66
592.187	9.68
592.524	9.74
592.862	9.9
593.2	9.97
593.537	9.65
593.875	9.91
594.212	10.02
594.55	9.93
594.887	10.07
595.224	10.04
595.561	9.78
595.899	10.06
596.236	10.08
596.573	10.24
596.91	10.39
597.247	10.26
597.584	10.04
597.921	10.13
598.258	10.37
598.594	10.36
598.931	10.12
599.268	10.05
599.604	10.16
599.941	10.2
600.277	10.27
600.614	10.35
600.95	10.28
601.287	10.22
601.623	10.49
601.959	10.44
602.296	10.61
602.632	10.69
602.968	10.46
603.304	10.79
603.64	10.59
603.976	10.7
604.312	11.14
604.648	10.77
604.984	11.09
605.319	10.55
605.655	10.62
605.991	10.6
606.326	10.69
606.662	10.71
606.998	10.82
607.333	10.75
607.668	10.66
608.004	10.81
608.339	10.92
608.674	11.15
609.01	11.03
609.345	11.22
609.68	11.16
610.015	11.3
610.35	11.28
610.685	11.31
611.02	11.2
611.355	11.28
611.689	11.11
612.024	11.44
612.359	11.26
612.694	11.26
613.028	11.54
613.363	11.48
613.697	11.66
614.032	11.79
614.366	11.52
614.7	11.64
615.035	11.67
615.369	11.86
615.703	11.37
616.037	11.7
616.371	11.8
616.705	12.2
617.039	11.78
617.373	11.9
617.707	11.89
618.041	12.29
618.375	11.99
618.709	12.13
619.042	12.35
619.376	12.14
619.71	12.41
620.043	12.53
620.377	12.15
620.71	12.35
621.043	12.4
621.377	12.19
621.71	12.29
622.043	12.42
622.376	12.3
622.709	12.55
623.043	12.4
623.376	12.38
623.709	12.47
624.041	12.43
624.374	12.32
624.707	12.62
625.04	12.58
625.373	12.85
625.705	12.6
626.038	13.06
626.37	12.43
626.703	12.89
627.035	12.79
627.368	12.84
627.7	13.08
628.032	12.49
628.365	12.83
628.697	12.83
629.029	12.88
629.361	13
629.693	13.02
630.025	13.15
630.357	13.13
630.689	13.09
631.021	13.49
631.353	13.27
631.684	13.26
632.016	13.44
632.348	13.59
632.679	13.25
633.011	13.5
633.342	13.38
633.674	13.62
634.005	13.48
634.336	13.72
634.668	13.57
634.999	13.05
635.33	13.31
635.661	13.86
635.992	13.8
636.323	13.82
636.654	13.8
636.985	13.74
637.316	13.78
637.647	14.19
637.977	13.68
638.308	13.84
638.639	14.03
638.969	13.91
639.3	14.15
639.63	14.15
639.961	13.7
640.291	13.97
640.622	13.7
640.952	14.17
641.282	14.28
641.612	14.31
641.943	14.37
642.273	13.99
642.603	14.75
642.933	14.21
643.263	14.68
643.592	14.41
643.922	14.5
644.252	14.21
644.582	14.84
644.911	14.99
645.241	15
645.571	14.85
645.9	14.26
646.23	14.56
646.559	14.59
646.888	15.24
647.218	14.72
647.547	14.73
647.876	14.7
648.205	15.06
648.534	14.92
648.863	15.19
649.192	14.96
649.521	14.94
649.85	14.87
650.179	15.27
650.508	15.26
650.837	15.65
651.165	15.41
651.494	15.38
651.822	15.3
652.151	15.38
652.479	15.25
652.808	15.49
653.136	15.3
653.465	15.77
653.793	15.43
654.121	15.45
654.449	15.64
654.777	15.77
655.105	15.15
655.433	15.87
655.761	15.66
656.089	16.14
656.417	15.89
656.745	15.62
657.073	15.69
657.4	16.79
657.728	15.95
658.056	15.88
658.383	16.11
658.711	15.78
659.038	16.37
659.365	15.99
659.693	16.3
660.02	15.92
660.347	16.02
660.674	16.21
661.001	15.96
661.329	16.33
661.656	16.28
661.982	16.13
662.309	16.15
662.636	16.12
662.963	16.8
663.29	16.58
663.616	16.61
663.943	16.14
664.27	16.98
664.596	16.16
664.923	16.74
665.249	16.39
665.576	16.74
665.902	17.16
666.228	16.89
666.554	16.78
666.881	16.67
667.207	16.93
667.533	16.85
667.859	17.02
668.185	17.19
668.511	17.42
668.837	17.2
669.162	16.65
669.488	17.27
669.814	17.12
670.139	17.2
670.465	17.24
670.791	17.72
671.116	17.02
671.442	17.15
671.767	17.58
672.092	17.64
672.418	17.67
672.743	17.54
673.068	17.73
673.393	17.94
673.718	17.05
674.043	17.57
674.368	18.01
674.693	17.9
675.018	18.33
675.343	18.05
675.667	17.27
675.992	18.05
676.317	18.17
676.641	17.98
676.966	17.76
677.29	17.74
677.615	18.06
677.939	17.96
678.264	19.09
678.588	17.65
678.912	18.36
679.236	18.09
679.56	18.06
679.885	18.06
680.209	18.5
680.532	18.16
680.856	18.17
681.18	18.27
681.504	18.51
681.828	18.43
682.152	18.51
682.475	18.46
682.799	18.6
683.122	18.79
683.446	18.92
683.769	18.7
684.093	18.83
684.416	19.16
684.739	18.05
685.062	18.02
685.386	18.25
685.709	19.5
686.032	19.01
686.355	18.9
686.678	18.55
687.001	19.6
