Data from 0344_chest_Reflection__2__326.txt Node

Date: Fri Oct 20 23:16:49 CDT 2023
User: ToomeyLab
Spectrometer: FLMS14357
Trigger mode: 0
Integration Time (sec): 1.000000E-2
Scans to average: 100
Electric dark correction enabled: true
Nonlinearity correction enabled: false
Boxcar width: 0
XAxis mode: Wavelengths
Number of Pixels in Spectrum: 2048
>>>>>Begin Spectral Data<<<<<
189.047	60.14
189.435	60.14
189.823	60.14
190.211	155.89
190.599	25.35
190.987	13.86
191.375	-5.65
191.763	38.19
192.151	398.01
192.538	-9.47
192.926	18.61
193.314	37.08
193.702	90.86
194.089	45.9
194.477	-189.36
194.864	258.29
195.252	99.48
195.639	241.85
196.027	-490.74
196.414	76.78
196.801	158.59
197.189	139.41
197.576	215.97
197.963	-180.5
198.351	73.5
198.738	14.72
199.125	23.25
199.512	26.08
199.899	-0.07
200.286	-35.69
200.673	81.13
201.06	11.33
201.447	-3.83
201.833	19.29
202.22	17.18
202.607	13.03
202.994	27.94
203.38	-0.11
203.767	11.02
204.154	14.47
204.54	55.45
204.927	-7.1
205.313	-6.04
205.699	30.65
206.086	27.39
206.472	33.72
206.858	36.64
207.245	5.63
207.631	33.02
208.017	17.01
208.403	0.73
208.789	28.98
209.175	1.72
209.561	18.48
209.947	-25.78
210.333	-12.54
210.719	-4.66
211.105	5.27
211.491	23.91
211.876	7.66
212.262	27.17
212.648	28.32
213.034	-2.02
213.419	16.63
213.805	46.36
214.19	-21.91
214.576	8.23
214.961	9.53
215.346	16.17
215.732	32.86
216.117	-38.96
216.502	17.14
216.888	18.15
217.273	3.28
217.658	-15.89
218.043	5.22
218.428	-0.37
218.813	18.2
219.198	7.74
219.583	-44.41
219.968	-17.6
220.353	20.14
220.738	3.5
221.122	-3.13
221.507	-1.79
221.892	4.22
222.276	-0.56
222.661	23.2
223.046	0.45
223.43	4.3
223.815	7.4
224.199	6.83
224.583	2.04
224.968	-3.43
225.352	0.52
225.736	6.71
226.121	17.66
226.505	0.01
226.889	6.46
227.273	9.84
227.657	5.56
228.041	15.53
228.425	0.69
228.809	7.86
229.193	0.94
229.577	6.21
229.961	2.74
230.344	5.16
230.728	3.84
231.112	4.26
231.495	4.48
231.879	4.61
232.263	5.51
232.646	3.62
233.03	4.24
233.413	3.77
233.797	3.65
234.18	3.65
234.563	7.65
234.946	6
235.33	4.39
235.713	5.45
236.096	4.26
236.479	5.46
236.862	3.44
237.245	3.42
237.628	4.8
238.011	5.16
238.394	4.79
238.777	5.9
239.16	3.33
239.543	7.75
239.925	6.57
240.308	3.14
240.691	4.06
241.073	4.13
241.456	4.28
241.838	4.85
242.221	4.73
242.603	4.46
242.986	5.13
243.368	5.1
243.75	3.96
244.133	4.12
244.515	4.01
244.897	4.01
245.279	4.72
245.661	3.83
246.043	3.78
246.425	3.87
246.807	4.59
247.189	4.24
247.571	4.23
247.953	4.9
248.335	4.68
248.717	4.09
249.098	3.79
249.48	4.12
249.862	4.18
250.243	4.29
250.625	4.14
251.006	4.1
251.388	4.14
251.769	4.98
252.151	4.63
252.532	4.49
252.913	5.65
253.295	3.52
253.676	4.31
254.057	4.18
254.438	4.36
254.819	4.23
255.2	3.67
255.581	4.88
255.962	3.65
256.343	4.1
256.724	3.24
257.105	4.49
257.486	5.06
257.867	4.12
258.247	3.4
258.628	3.55
259.009	4.02
259.389	3.76
259.77	2.81
260.15	4.52
260.531	4.17
260.911	4.05
261.292	3.77
261.672	3.97
262.052	4.11
262.432	3.88
262.813	3.87
263.193	3.94
263.573	3.5
263.953	3.79
264.333	3.93
264.713	3.9
265.093	4.41
265.473	4.19
265.853	3.4
266.233	3.91
266.612	3.87
266.992	3.5
267.372	3.44
267.752	2.69
268.131	3.88
268.511	4.4
268.89	4.08
269.27	3.88
269.649	2.48
270.029	3.09
270.408	4.12
270.787	3.99
271.167	4.14
271.546	4.15
271.925	3.68
272.304	3.61
272.683	3.67
273.062	3.96
273.441	3.74
273.82	4.39
274.199	4.02
274.578	3.96
274.957	3.62
275.336	4.15
275.715	3.66
276.093	3.25
276.472	3.52
276.851	3.39
277.229	3.67
277.608	3.17
277.986	3.24
278.365	3.99
278.743	3.75
279.122	3.32
279.5	3.69
279.878	2.8
280.257	3.57
280.635	3.63
281.013	3.21
281.391	3.55
281.769	4
282.147	3.77
282.525	3.55
282.903	3.56
283.281	4.09
283.659	3.68
284.037	3.88
284.415	3.36
284.792	3.54
285.17	3.56
285.548	3.79
285.925	3.52
286.303	3.48
286.68	3.33
287.058	3.98
287.435	3.59
287.813	3.13
288.19	3.43
288.567	3.72
288.945	3.83
289.322	3.96
289.699	3.41
290.076	3.93
290.453	3.6
290.83	3.14
291.207	3.97
291.584	3.65
291.961	3.49
292.338	3.71
292.715	3.88
293.092	3.44
293.469	3.44
293.845	3.7
294.222	3.66
294.599	3.46
294.975	4.31
295.352	3.56
295.728	3.79
296.105	3.58
296.481	3.96
296.858	3.94
297.234	4.09
297.61	3.05
297.986	3.62
298.363	3.55
298.739	3.67
299.115	3.88
299.491	4.05
299.867	3.7
300.243	3.76
300.619	3.57
300.995	3.58
301.371	4.01
301.746	3.67
302.122	4.11
302.498	3.52
302.874	3.7
303.249	3.75
303.625	3.65
304	4.15
304.376	3.47
304.751	3.56
305.127	3.56
305.502	4.06
305.878	3.45
306.253	4.02
306.628	3.77
307.003	3.97
307.378	3.86
307.754	3.85
308.129	4.31
308.504	3.79
308.879	4.09
309.254	4.84
309.629	3.73
310.003	3.28
310.378	4.28
310.753	4.02
311.128	4.31
311.502	3.95
311.877	4.05
312.252	3.75
312.626	4.07
313.001	3.77
313.375	4.09
313.75	4.2
314.124	3.82
314.498	4.12
314.873	3.55
315.247	4.29
315.621	3.86
315.995	4.44
316.369	3.74
316.743	3.67
317.117	4.12
317.491	3.27
317.865	3.93
318.239	4.62
318.613	3.86
318.987	3.97
319.361	2.89
319.734	3.24
320.108	3.88
320.482	4.22
320.855	4.35
321.229	4.03
321.602	4.3
321.976	4.2
322.349	4.04
322.723	3.65
323.096	4.26
323.469	3.9
323.843	3.94
324.216	3.87
324.589	3.9
324.962	4.06
325.335	4.25
325.708	3.91
326.081	4.28
326.454	4.21
326.827	4.49
327.2	4.25
327.573	4.49
327.945	3.96
328.318	4.16
328.691	3.82
329.063	4.53
329.436	3.95
329.809	4.05
330.181	4.2
330.553	4.05
330.926	3.8
331.298	4.19
331.671	3.6
332.043	4.13
332.415	4.33
332.787	4.52
333.159	3.94
333.532	4.36
333.904	4.34
334.276	3.79
334.648	4.28
335.02	4.29
335.391	3.66
335.763	4.53
336.135	3.99
336.507	4.3
336.879	3.57
337.25	4.45
337.622	4.36
337.993	4.51
338.365	4.27
338.736	3.73
339.108	4.45
339.479	3.65
339.851	4.37
340.222	3.78
340.593	3.38
340.964	4.36
341.336	4.31
341.707	4.16
342.078	4.13
342.449	3.81
342.82	4.04
343.191	3.93
343.562	4.22
343.933	4.3
344.303	3.76
344.674	4.07
345.045	4.48
345.416	4.17
345.786	4.17
346.157	4.44
346.527	4.03
346.898	3.87
347.268	4.48
347.639	4.21
348.009	4.03
348.38	4.62
348.75	4.23
349.12	4.1
349.49	4.24
349.861	4.64
350.231	3.9
350.601	4.13
350.971	4.43
351.341	4.09
351.711	4.6
352.081	4.35
352.45	4.27
352.82	4.71
353.19	4.62
353.56	4.7
353.929	4.53
354.299	4.28
354.669	4.26
355.038	4.09
355.408	4.73
355.777	4.18
356.147	3.88
356.516	3.89
356.885	4.38
357.254	4.33
357.624	4.23
357.993	4.14
358.362	4.25
358.731	3.81
359.1	3.98
359.469	3.95
359.838	4.4
360.207	4.44
360.576	4.38
360.945	3.98
361.314	4.27
361.682	4.24
362.051	4
362.42	4.22
362.788	4.43
363.157	4.33
363.525	4.26
363.894	4.06
364.262	4.18
364.631	4.29
364.999	4.33
365.367	4.12
365.735	4.36
366.104	4.26
366.472	4.32
366.84	4.28
367.208	4.24
367.576	3.99
367.944	4.38
368.312	4.05
368.68	4.36
369.048	4.27
369.416	4.31
369.783	4.3
370.151	4.39
370.519	4.19
370.886	4.39
371.254	4.47
371.621	4.56
371.989	4.14
372.356	4.37
372.724	4.55
373.091	4.37
373.458	3.9
373.826	4.34
374.193	4.26
374.56	4.29
374.927	4.51
375.294	4.56
375.661	4.55
376.028	4.51
376.395	4.6
376.762	4.18
377.129	4.42
377.496	4.36
377.863	4.54
378.229	4.53
378.596	4.16
378.963	4.23
379.329	4.47
379.696	4.61
380.062	4.34
380.429	4.25
380.795	4.26
381.161	4.41
381.528	4.87
381.894	4.28
382.26	4.47
382.626	4.51
382.993	4.55
383.359	4.38
383.725	4.6
384.091	4.29
384.457	4.49
384.823	4.4
385.188	4.47
385.554	4.48
385.92	4.68
386.286	4.65
386.651	4.46
387.017	4.53
387.383	4.21
387.748	4.23
388.114	4.36
388.479	4.37
388.845	4.63
389.21	4.27
389.575	3.98
389.94	4.44
390.306	4.34
390.671	4.49
391.036	4.52
391.401	4.41
391.766	4.41
392.131	4.36
392.496	4.61
392.861	4.5
393.226	4.45
393.591	4.56
393.956	4.46
394.32	4.64
394.685	4.38
395.05	4.61
395.414	4.47
395.779	4.43
396.143	4.4
396.508	4.39
396.872	4.37
397.236	4.4
397.601	4.43
397.965	4.19
398.329	4.4
398.694	4.42
399.058	4.34
399.422	4.34
399.786	4.4
400.15	4.16
400.514	4.48
400.878	4.44
401.242	4.45
401.605	4.59
401.969	4.22
402.333	4.38
402.697	4.55
403.06	4.52
403.424	4.44
403.787	4.47
404.151	4.42
404.514	4.26
404.878	4.63
405.241	4.5
405.604	4.67
405.968	4.54
406.331	4.55
406.694	4.48
407.057	4.36
407.42	4.59
407.783	4.53
408.146	4.36
408.509	4.63
408.872	4.75
409.235	4.59
409.598	4.52
409.961	4.55
410.323	4.45
410.686	4.35
411.049	4.72
411.411	4.39
411.774	4.66
412.136	4.56
412.499	4.41
412.861	4.67
413.223	4.52
413.586	4.46
413.948	4.77
414.31	4.72
414.672	4.53
415.035	4.56
415.397	4.58
415.759	4.67
416.121	4.69
416.483	4.75
416.845	4.69
417.206	4.68
417.568	4.78
417.93	4.69
418.292	4.33
418.653	4.58
419.015	4.6
419.377	4.61
419.738	4.53
420.1	4.43
420.461	4.54
420.822	4.5
421.184	4.51
421.545	4.51
421.906	4.64
422.267	4.4
422.629	4.73
422.99	4.37
423.351	4.41
423.712	4.48
424.073	4.45
424.434	4.44
424.795	4.56
425.155	4.53
425.516	4.49
425.877	4.64
426.238	4.4
426.598	4.57
426.959	4.43
427.32	4.5
427.68	4.6
428.041	4.6
428.401	4.56
428.761	4.67
429.122	4.58
429.482	4.57
429.842	4.65
430.202	4.63
430.563	4.58
430.923	4.64
431.283	4.58
431.643	4.73
432.003	4.97
432.363	4.55
432.722	4.74
433.082	4.67
433.442	4.53
433.802	4.84
434.161	4.59
434.521	4.67
434.881	4.74
435.24	4.72
435.6	4.57
435.959	4.64
436.319	4.57
436.678	4.68
437.037	4.56
437.396	4.88
437.756	4.87
438.115	4.61
438.474	4.68
438.833	4.8
439.192	4.59
439.551	4.61
439.91	4.76
440.269	4.77
440.628	4.69
440.987	4.61
441.345	4.7
441.704	4.71
442.063	4.67
442.421	4.71
442.78	4.59
443.138	4.82
443.497	4.64
443.855	4.64
444.214	4.82
444.572	4.65
444.93	4.87
445.288	4.73
445.647	4.9
446.005	4.64
446.363	4.67
446.721	4.7
447.079	4.84
447.437	4.67
447.795	4.64
448.153	4.68
448.51	4.61
448.868	4.73
449.226	4.68
449.584	4.78
449.941	4.7
450.299	4.85
450.656	4.6
451.014	4.73
451.371	4.65
451.729	4.74
452.086	4.69
452.443	4.85
452.801	4.8
453.158	4.75
453.515	4.77
453.872	4.78
454.229	5.04
454.586	4.84
454.943	4.79
455.3	4.65
455.657	4.79
456.014	4.82
456.371	4.92
456.727	4.87
457.084	4.81
457.441	4.85
457.797	4.93
458.154	4.74
458.51	4.9
458.867	4.77
459.223	4.83
459.58	4.73
459.936	4.96
460.292	4.89
460.648	4.71
461.005	4.7
461.361	4.8
461.717	4.61
462.073	4.78
462.429	4.72
462.785	4.8
463.141	4.83
463.496	4.81
463.852	4.87
464.208	5.02
464.564	4.93
464.919	4.95
465.275	4.92
465.631	5.02
465.986	4.94
466.342	4.92
466.697	4.96
467.052	4.72
467.408	4.82
467.763	4.84
468.118	5.11
468.473	4.88
468.829	4.83
469.184	4.93
469.539	4.97
469.894	4.98
470.249	4.71
470.603	4.94
470.958	4.89
471.313	4.93
471.668	5.01
472.023	5.06
472.377	5.05
472.732	4.84
473.086	5.16
473.441	4.97
473.795	5.25
474.15	4.89
474.504	4.89
474.859	5.1
475.213	5.08
475.567	5.08
475.921	5.04
476.275	5.02
476.63	5.06
476.984	5.05
477.338	4.93
477.692	4.99
478.045	5.09
478.399	5.04
478.753	4.86
479.107	5.02
479.461	5.03
479.814	5.03
480.168	5.11
480.521	4.93
480.875	4.98
481.228	5.06
481.582	5.02
481.935	5.08
482.289	4.99
482.642	5.02
482.995	5.05
483.348	5.09
483.701	4.95
484.055	5.03
484.408	4.86
484.761	4.96
485.114	4.81
485.466	4.81
485.819	4.79
486.172	4.69
486.525	4.71
486.878	4.76
487.23	4.79
487.583	4.84
487.936	4.88
488.288	4.93
488.641	4.96
488.993	4.86
489.345	4.82
489.698	4.84
490.05	4.81
490.402	4.85
490.754	4.88
491.107	4.91
491.459	4.95
491.811	4.99
492.163	4.99
492.515	5.06
492.866	5.07
493.218	4.97
493.57	4.9
493.922	4.87
494.274	4.92
494.625	4.94
494.977	4.97
495.328	5.06
495.68	5.15
496.031	5.05
496.383	5.17
496.734	5.15
497.086	5.25
497.437	5.25
497.788	5.05
498.139	5.35
498.49	5.09
498.842	5.13
499.193	5.22
499.544	5.12
499.894	5.14
500.245	5.15
500.596	5.31
500.947	5.22
501.298	5.17
501.648	5.25
501.999	5.26
502.35	5.19
502.7	5.44
503.051	5.14
503.401	5.19
503.752	5.33
504.102	5.31
504.452	5.36
504.803	5.28
505.153	5.45
505.503	5.36
505.853	5.46
506.203	5.34
506.553	5.24
506.903	5.27
507.253	5.3
507.603	5.38
507.953	5.25
508.303	5.31
508.652	5.46
509.002	5.39
509.352	5.43
509.701	5.38
510.051	5.3
510.4	5.41
510.75	5.31
511.099	5.25
511.449	5.34
511.798	5.38
512.147	5.35
512.496	5.43
512.846	5.34
513.195	5.47
513.544	5.41
513.893	5.37
514.242	5.36
514.591	5.38
514.939	5.39
515.288	5.28
515.637	5.3
515.986	5.49
516.334	5.44
516.683	5.4
517.032	5.34
517.38	5.3
517.729	5.49
518.077	5.53
518.426	5.39
518.774	5.39
519.122	5.56
519.47	5.48
519.819	5.45
520.167	5.33
520.515	5.44
520.863	5.46
521.211	5.48
521.559	5.51
521.907	5.45
522.255	5.48
522.602	5.63
522.95	5.45
523.298	5.55
523.645	5.55
523.993	5.5
524.341	5.54
524.688	5.73
525.036	5.55
525.383	5.66
525.73	5.7
526.078	5.64
526.425	5.8
526.772	5.58
527.119	5.68
527.466	5.63
527.814	5.61
528.161	5.54
528.508	5.61
528.854	5.66
529.201	5.58
529.548	5.63
529.895	5.62
530.242	5.57
530.588	5.46
530.935	5.5
531.282	5.52
531.628	5.56
531.975	5.55
532.321	5.63
532.667	5.68
533.014	5.7
533.36	5.71
533.706	5.81
534.052	5.75
534.399	5.69
534.745	5.65
535.091	5.74
535.437	5.67
535.783	5.73
536.129	5.8
536.474	5.76
536.82	5.8
537.166	5.81
537.512	5.93
537.857	5.87
538.203	5.94
538.549	5.97
538.894	5.84
539.239	5.88
539.585	5.89
539.93	5.88
540.276	6.08
540.621	5.94
540.966	6.08
541.311	6.13
541.656	6.1
542.001	6.19
542.346	6.04
542.691	6.04
543.036	5.97
543.381	5.89
543.726	5.88
544.071	5.9
544.415	5.91
544.76	5.93
545.105	6.06
545.449	6.09
545.794	6.09
546.138	6.12
546.483	6.03
546.827	6.1
547.171	6.29
547.516	6.2
547.86	6.35
548.204	6.22
548.548	6.29
548.892	6.18
549.236	6.37
549.58	6.18
549.924	6.31
550.268	6.4
550.612	6.35
550.956	6.48
551.3	6.46
551.643	6.45
551.987	6.61
552.33	6.39
552.674	6.47
553.017	6.29
553.361	6.45
553.704	6.7
554.048	6.66
554.391	6.6
554.734	6.62
555.077	6.51
555.42	6.55
555.764	6.52
556.107	6.83
556.45	6.55
556.793	6.56
557.135	6.59
557.478	6.65
557.821	6.65
558.164	6.92
558.507	6.9
558.849	6.94
559.192	6.96
559.534	7.06
559.877	6.63
560.219	6.97
560.562	6.97
560.904	6.57
561.246	6.9
561.589	6.8
561.931	6.9
562.273	7.05
562.615	7.07
562.957	7.12
563.299	7.15
563.641	7.13
563.983	6.99
564.325	6.95
564.667	7.01
565.008	7.1
565.35	7.09
565.692	7.13
566.033	7.3
566.375	7.07
566.716	7.26
567.058	7.1
567.399	7.48
567.741	7.06
568.082	7.22
568.423	7.25
568.764	7.12
569.105	7.23
569.447	7.15
569.788	7.41
570.129	7.29
570.47	7.46
570.811	7.53
571.151	7.23
571.492	7.46
571.833	7.66
572.174	7.52
572.514	7.49
572.855	7.39
573.195	7.49
573.536	7.37
573.876	7.57
574.217	7.45
574.557	7.41
574.898	7.56
575.238	7.53
575.578	7.61
575.918	7.49
576.258	7.84
576.598	7.73
576.938	7.82
577.278	7.68
577.618	7.52
577.958	7.67
578.298	7.82
578.638	7.79
578.977	7.69
579.317	7.8
579.657	7.93
579.996	8.11
580.336	7.71
580.675	7.97
581.014	7.89
581.354	7.86
581.693	8.14
582.032	7.85
582.372	8.09
582.711	8.23
583.05	8.41
583.389	8.23
583.728	8.27
584.067	8.31
584.406	8.26
584.745	8.23
585.083	8.11
585.422	8.37
585.761	8.31
586.1	8.44
586.438	8.13
586.777	8.47
587.115	8.6
587.454	8.42
587.792	8.55
588.13	8.39
588.469	8.56
588.807	8.16
589.145	8.44
589.483	8.59
589.821	8.41
590.159	8.49
590.497	8.62
590.835	8.66
591.173	8.46
591.511	8.83
591.849	8.47
592.187	8.64
592.524	8.5
592.862	8.77
593.2	8.75
593.537	8.57
593.875	8.92
594.212	8.97
594.55	8.7
594.887	8.91
595.224	8.71
595.561	8.93
595.899	8.84
596.236	8.86
596.573	9
596.91	9
597.247	8.92
597.584	8.83
597.921	9.15
598.258	9.28
598.594	9.1
598.931	8.99
599.268	9.12
599.604	9.09
599.941	9.14
600.277	9.22
600.614	9.11
600.95	9.25
601.287	9.31
601.623	9.14
601.959	9.22
602.296	9.45
602.632	9.35
602.968	9.19
603.304	9.42
603.64	9.45
603.976	9.7
604.312	9.81
604.648	9.59
604.984	9.73
605.319	9.61
605.655	9.52
605.991	9.68
606.326	9.49
606.662	9.53
606.998	9.58
607.333	9.37
607.668	9.48
608.004	9.55
608.339	9.53
608.674	9.82
609.01	9.66
609.345	10.11
609.68	9.93
610.015	9.74
610.35	9.93
610.685	10.06
611.02	9.93
611.355	9.79
611.689	9.77
612.024	10.02
612.359	10.01
612.694	10.07
613.028	10.19
613.363	10.23
613.697	10.19
614.032	10.44
614.366	10.37
614.7	10.44
615.035	10.19
615.369	10.52
615.703	10.01
616.037	10.46
616.371	10.24
616.705	10.33
617.039	10.69
617.373	10.55
617.707	10.64
618.041	10.58
618.375	10.29
618.709	10.49
619.042	10.4
619.376	11.07
619.71	10.61
620.043	10.7
620.377	10.71
620.71	10.94
621.043	10.91
621.377	10.79
621.71	10.87
622.043	10.88
622.376	11.02
622.709	11.22
623.043	10.92
623.376	10.95
623.709	10.91
624.041	10.75
624.374	11.16
624.707	11.31
625.04	10.81
625.373	10.99
625.705	10.94
626.038	11.43
626.37	10.82
626.703	10.75
627.035	11.05
627.368	11.14
627.7	11.4
628.032	11.23
628.365	11.52
628.697	11.38
629.029	11.2
629.361	11.38
629.693	11.38
630.025	11.23
630.357	11.51
630.689	11.45
631.021	11.86
631.353	11.42
631.684	11.55
632.016	11.77
632.348	11.45
632.679	11.51
633.011	11.81
633.342	11.36
633.674	11.73
634.005	11.9
634.336	12.23
634.668	11.54
634.999	11.58
635.33	11.65
635.661	11.84
635.992	12.07
636.323	12.33
636.654	12.26
636.985	11.77
637.316	11.94
637.647	11.98
637.977	11.82
638.308	12.1
638.639	12.24
638.969	12.18
639.3	12.42
639.63	12.24
639.961	12.2
640.291	12.27
640.622	12.25
640.952	12.35
641.282	12.17
641.612	12.45
641.943	12.52
642.273	12.04
642.603	13.01
642.933	12.45
643.263	13.12
643.592	12.58
643.922	13.04
644.252	11.99
644.582	12.07
644.911	13.07
645.241	12.72
645.571	13.61
645.9	12.44
646.23	12.38
646.559	12.73
646.888	13.07
647.218	12.81
647.547	12.87
647.876	12.67
648.205	13.62
648.534	12.49
648.863	13.12
649.192	12.52
649.521	13.3
649.85	13.25
650.179	13.01
650.508	13.21
650.837	13.15
651.165	13.36
651.494	12.65
651.822	13.55
652.151	14.06
652.479	13.2
652.808	13.45
653.136	13.27
653.465	13.6
653.793	13.34
654.121	13.67
654.449	13.46
654.777	13.66
655.105	13.44
655.433	13.89
655.761	13.91
656.089	13.48
656.417	13.32
656.745	13.54
657.073	14.2
657.4	14.73
657.728	14.04
658.056	13.83
658.383	13.73
658.711	13.55
659.038	13.96
659.365	13.95
659.693	13.77
660.02	14.48
660.347	13.83
660.674	14.06
661.001	13.95
661.329	13.88
661.656	14.33
661.982	13.86
662.309	14.03
662.636	14.02
662.963	13.99
663.29	13.72
663.616	14.41
663.943	13.86
664.27	14.44
664.596	14.6
664.923	14.3
665.249	14.42
665.576	14.6
665.902	14.89
666.228	14.94
666.554	15.09
666.881	14.08
667.207	14.99
667.533	14.22
667.859	14.39
668.185	14.59
668.511	15.21
668.837	15.11
669.162	14.75
669.488	14.66
669.814	14.28
670.139	14.78
670.465	14.49
670.791	15
671.116	15.15
671.442	15.3
671.767	15.07
672.092	15.16
672.418	15.08
672.743	14.88
673.068	15.44
673.393	14.9
673.718	14.89
674.043	15.42
674.368	15.35
674.693	15.66
675.018	16.59
675.343	15.15
675.667	15.06
675.992	16.07
676.317	15.57
676.641	15.7
676.966	15.86
677.29	15.69
677.615	16.2
677.939	15.6
678.264	15.85
678.588	15.11
678.912	15.52
679.236	16.19
679.56	15.88
679.885	16.33
680.209	16.01
680.532	15.79
680.856	16.2
681.18	15.81
681.504	16.18
681.828	16.2
682.152	15.86
682.475	15.45
682.799	15.82
683.122	16.34
683.446	16.14
683.769	16.36
684.093	16.61
684.416	16.04
684.739	15.5
685.062	15.49
685.386	16.38
685.709	16.1
686.032	16.17
686.355	17.05
686.678	16.38
687.001	16.55
687.324	16.63
