Data from 0344_crown_Reflection__0__329.txt Node

Date: Fri Oct 20 23:18:03 CDT 2023
User: ToomeyLab
Spectrometer: FLMS14357
Trigger mode: 0
Integration Time (sec): 1.000000E-2
Scans to average: 100
Electric dark correction enabled: true
Nonlinearity correction enabled: false
Boxcar width: 0
XAxis mode: Wavelengths
Number of Pixels in Spectrum: 2048
>>>>>Begin Spectral Data<<<<<
189.047	11.62
189.435	11.62
189.823	11.62
190.211	128.87
190.599	9.3
190.987	85.14
191.375	-142.39
191.763	44.67
192.151	-92.7
192.538	-40.09
192.926	-16.68
193.314	342.26
193.702	-4.15
194.089	49
194.477	77.45
194.864	56.65
195.252	89.88
195.639	1.29
196.027	-401.63
196.414	96.83
196.801	131.14
197.189	148.87
197.576	153.22
197.963	-64.87
198.351	57.41
198.738	-3.48
199.125	41.41
199.512	19.34
199.899	-30.99
200.286	-15.09
200.673	50.91
201.06	39.47
201.447	15.21
201.833	74.17
202.22	31.84
202.607	23.63
202.994	-8.75
203.38	4.52
203.767	-16.52
204.154	48.55
204.54	54.35
204.927	-0.16
205.313	-11.62
205.699	77.94
206.086	18.45
206.472	42.24
206.858	70.36
207.245	7.44
207.631	32.97
208.017	21.54
208.403	14.57
208.789	50.86
209.175	-0.02
209.561	-16.01
209.947	-12.57
210.333	37.9
210.719	-3.36
211.105	22.78
211.491	10.64
211.876	-1.83
212.262	26.74
212.648	22.14
213.034	-13.58
213.419	0.08
213.805	-7.67
214.19	-17.09
214.576	-22.5
214.961	20.22
215.346	3.41
215.732	17.86
216.117	-37.84
216.502	6.75
216.888	-7.73
217.273	-14.19
217.658	27.76
218.043	0.64
218.428	-20.56
218.813	10.46
219.198	14.41
219.583	-19.61
219.968	-11.77
220.353	11.99
220.738	8.08
221.122	-1.18
221.507	-1.07
221.892	-9.32
222.276	6.51
222.661	9.85
223.046	2.32
223.43	-2.07
223.815	17.67
224.199	21.38
224.583	0.72
224.968	5.64
225.352	4.45
225.736	-0.85
226.121	4.26
226.505	-0.65
226.889	14.06
227.273	12.75
227.657	7.05
228.041	10.46
228.425	1.4
228.809	6.71
229.193	5.35
229.577	8.76
229.961	4.2
230.344	5.05
230.728	3.59
231.112	5.99
231.495	5.37
231.879	5.36
232.263	6.18
232.646	4.45
233.03	4.89
233.413	4.79
233.797	6.15
234.18	4.95
234.563	6.36
234.946	9.14
235.33	6.33
235.713	5.39
236.096	5.86
236.479	6.5
236.862	5.73
237.245	4.21
237.628	5.91
238.011	4.99
238.394	6.19
238.777	6.29
239.16	5.8
239.543	7.16
239.925	8.09
240.308	6.13
240.691	5.03
241.073	6.09
241.456	6.87
241.838	5.3
242.221	6.08
242.603	5.98
242.986	5.17
243.368	5.33
243.75	5.8
244.133	5.29
244.515	5.1
244.897	5.5
245.279	5.5
245.661	5.2
246.043	5.05
246.425	4.69
246.807	5.68
247.189	5.5
247.571	4.89
247.953	5.21
248.335	5.79
248.717	4.88
249.098	5.02
249.48	4.98
249.862	5.28
250.243	5.51
250.625	5.38
251.006	5.31
251.388	5.24
251.769	5.82
252.151	4.78
252.532	6.02
252.913	5.5
253.295	5.29
253.676	5.1
254.057	4.95
254.438	5.3
254.819	5.48
255.2	5.65
255.581	5.07
255.962	4.97
256.343	5.43
256.724	4.66
257.105	5.83
257.486	5.62
257.867	5.04
258.247	5.34
258.628	5.27
259.009	4.64
259.389	4.43
259.77	5.11
260.15	4.61
260.531	5.08
260.911	4.88
261.292	4.65
261.672	4.82
262.052	4.97
262.432	4.8
262.813	5.03
263.193	4.8
263.573	4.95
263.953	4.92
264.333	4.83
264.713	5.37
265.093	5.1
265.473	5.48
265.853	5.11
266.233	5.29
266.612	4.7
266.992	4.7
267.372	5.24
267.752	4.69
268.131	4.64
268.511	4.67
268.89	4.6
269.27	4.63
269.649	4.29
270.029	4.43
270.408	5.02
270.787	4.51
271.167	4.15
271.546	5.24
271.925	5.25
272.304	4.77
272.683	4.8
273.062	4.76
273.441	4.47
273.82	4.87
274.199	4.88
274.578	4.89
274.957	4.7
275.336	5.08
275.715	4.75
276.093	4.42
276.472	4.6
276.851	5.37
277.229	5.04
277.608	4.27
277.986	4.09
278.365	5.06
278.743	4.5
279.122	4.63
279.5	5.26
279.878	4.41
280.257	4.35
280.635	5.09
281.013	5.4
281.391	4.72
281.769	4.64
282.147	4.04
282.525	4.87
282.903	4.65
283.281	4.5
283.659	4.45
284.037	4.7
284.415	4.2
284.792	4.16
285.17	4.45
285.548	4.54
285.925	4.2
286.303	4.68
286.68	4.56
287.058	4.89
287.435	4.35
287.813	3.95
288.19	4.28
288.567	4.45
288.945	4.78
289.322	5.05
289.699	3.96
290.076	4.69
290.453	4.68
290.83	4.27
291.207	5.11
291.584	4.45
291.961	4.59
292.338	4.59
292.715	4.45
293.092	4.8
293.469	4.74
293.845	4.56
294.222	4.55
294.599	4.61
294.975	5.17
295.352	4.6
295.728	5.02
296.105	4.97
296.481	4.81
296.858	4.5
297.234	5.13
297.61	4.29
297.986	5.04
298.363	5.14
298.739	4.93
299.115	4.89
299.491	4.98
299.867	5.14
300.243	4.97
300.619	4.94
300.995	5.02
301.371	5.04
301.746	5.39
302.122	5.35
302.498	4.74
302.874	4.92
303.249	4.71
303.625	5.24
304	5.79
304.376	5.02
304.751	4.92
305.127	4.97
305.502	5.71
305.878	4.92
306.253	5.2
306.628	5.37
307.003	5.67
307.378	5.35
307.754	4.83
308.129	5.66
308.504	5.73
308.879	4.98
309.254	5.63
309.629	4.83
310.003	4.81
310.378	5.84
310.753	5.47
311.128	5.81
311.502	5.21
311.877	5.24
312.252	5.16
312.626	5.78
313.001	5.37
313.375	5.54
313.75	5.62
314.124	5.37
314.498	5.7
314.873	5.44
315.247	5.46
315.621	5.33
315.995	5.67
316.369	5.82
316.743	5.34
317.117	5.2
317.491	5.03
317.865	5.8
318.239	5.83
318.613	5.55
318.987	5.42
319.361	5.18
319.734	5.42
320.108	5.03
320.482	6.06
320.855	5.37
321.229	6.01
321.602	5.86
321.976	5.49
322.349	6.39
322.723	5.17
323.096	6.08
323.469	5.42
323.843	6.06
324.216	6.14
324.589	5.76
324.962	6.14
325.335	6.03
325.708	5.72
326.081	5.6
326.454	5.94
326.827	5.74
327.2	5.99
327.573	5.88
327.945	5.43
328.318	5.46
328.691	5.78
329.063	6.18
329.436	5.72
329.809	5.73
330.181	5.82
330.553	6.08
330.926	5.41
331.298	5.47
331.671	5.24
332.043	5.77
332.415	5.89
332.787	6.3
333.159	5.24
333.532	6.04
333.904	5.5
334.276	5.87
334.648	5.78
335.02	6.29
335.391	6.08
335.763	6.01
336.135	5.84
336.507	6.22
336.879	5.76
337.25	5.7
337.622	5.99
337.993	5.94
338.365	6.04
338.736	6.39
339.108	6.12
339.479	5.74
339.851	6.06
340.222	5.65
340.593	5.52
340.964	5.88
341.336	6.28
341.707	6.03
342.078	6.16
342.449	5.63
342.82	6.06
343.191	5.41
343.562	5.81
343.933	6.19
344.303	6.11
344.674	6.05
345.045	5.88
345.416	6.46
345.786	5.86
346.157	5.97
346.527	6.33
346.898	5.81
347.268	6.06
347.639	6.08
348.009	5.99
348.38	6.07
348.75	5.71
349.12	5.88
349.49	6.06
349.861	6.49
350.231	5.99
350.601	5.91
350.971	6.09
351.341	6.07
351.711	6.49
352.081	6.16
352.45	5.98
352.82	6.14
353.19	6.54
353.56	6.08
353.929	6.16
354.299	5.67
354.669	5.94
355.038	6.23
355.408	6.12
355.777	5.82
356.147	5.5
356.516	5.89
356.885	6.24
357.254	6.34
357.624	5.81
357.993	5.8
358.362	5.94
358.731	5.52
359.1	5.5
359.469	5.82
359.838	6.02
360.207	5.9
360.576	6.18
360.945	5.93
361.314	6.15
361.682	6.02
362.051	5.99
362.42	6
362.788	6.04
363.157	5.85
363.525	5.55
363.894	5.83
364.262	5.73
364.631	6.17
364.999	5.83
365.367	5.81
365.735	5.82
366.104	5.88
366.472	6.06
366.84	6.15
367.208	6.09
367.576	5.97
367.944	6.06
368.312	5.85
368.68	6.45
369.048	6.15
369.416	6.2
369.783	6.39
370.151	6.16
370.519	6.44
370.886	6.11
371.254	6.35
371.621	6.59
371.989	5.99
372.356	6.54
372.724	6.37
373.091	6.18
373.458	5.83
373.826	6.02
374.193	5.92
374.56	5.96
374.927	6.15
375.294	6.34
375.661	6.24
376.028	6.38
376.395	6.32
376.762	5.91
377.129	6.03
377.496	6.22
377.863	6.37
378.229	5.86
378.596	6.12
378.963	6.22
379.329	6.03
379.696	6.15
380.062	6.29
380.429	6.25
380.795	5.99
381.161	6.42
381.528	6.23
381.894	5.97
382.26	6.31
382.626	6.43
382.993	6.38
383.359	6.18
383.725	6.43
384.091	6.27
384.457	6.38
384.823	6.44
385.188	6.29
385.554	6.05
385.92	6.12
386.286	6.43
386.651	6.03
387.017	6.26
387.383	6.2
387.748	5.98
388.114	6.08
388.479	6.39
388.845	6.36
389.21	5.9
389.575	5.97
389.94	6.12
390.306	6.28
390.671	5.97
391.036	6.16
391.401	6.43
391.766	6.24
392.131	6.46
392.496	6.4
392.861	6.31
393.226	6.36
393.591	6.07
393.956	6.47
394.32	6.28
394.685	6.35
395.05	6.61
395.414	6.42
395.779	6.27
396.143	6.21
396.508	6.2
396.872	6.29
397.236	6.24
397.601	6.2
397.965	5.97
398.329	6.15
398.694	6.3
399.058	6.13
399.422	6.12
399.786	6.45
400.15	6.05
400.514	6.22
400.878	6.36
401.242	6.33
401.605	6.13
401.969	6.36
402.333	6.35
402.697	6.45
403.06	6.34
403.424	6.38
403.787	6.19
404.151	6.3
404.514	6.52
404.878	6.36
405.241	6.24
405.604	6.43
405.968	6.43
406.331	6.15
406.694	6.2
407.057	6.21
407.42	6.48
407.783	6.44
408.146	6.27
408.509	6.2
408.872	6.6
409.235	6.38
409.598	6.32
409.961	6.31
410.323	6.54
410.686	6.17
411.049	6.44
411.411	6.3
411.774	6.49
412.136	6.63
412.499	6.59
412.861	6.34
413.223	6.48
413.586	6.43
413.948	6.41
414.31	6.66
414.672	6.38
415.035	6.38
415.397	6.21
415.759	6.43
416.121	6.39
416.483	6.5
416.845	6.37
417.206	6.51
417.568	6.43
417.93	6.46
418.292	6.4
418.653	6.36
419.015	6.31
419.377	6.19
419.738	6.37
420.1	6.2
420.461	6.4
420.822	6.3
421.184	6.32
421.545	6.31
421.906	6.26
422.267	6.29
422.629	6.39
422.99	6.23
423.351	6.33
423.712	6.2
424.073	6.38
424.434	6.28
424.795	6.2
425.155	6.32
425.516	6.31
425.877	6.41
426.238	6.24
426.598	6.35
426.959	6.23
427.32	6.37
427.68	6.36
428.041	6.25
428.401	6.47
428.761	6.28
429.122	6.35
429.482	6.4
429.842	6.52
430.202	6.47
430.563	6.53
430.923	6.5
431.283	6.45
431.643	6.58
432.003	6.7
432.363	6.54
432.722	6.63
433.082	6.5
433.442	6.53
433.802	6.63
434.161	6.39
434.521	6.73
434.881	6.65
435.24	6.44
435.6	6.53
435.959	6.42
436.319	6.45
436.678	6.51
437.037	6.37
437.396	6.69
437.756	6.83
438.115	6.47
438.474	6.67
438.833	6.53
439.192	6.44
439.551	6.4
439.91	6.57
440.269	6.81
440.628	6.56
440.987	6.64
441.345	6.46
441.704	6.57
442.063	6.55
442.421	6.48
442.78	6.54
443.138	6.58
443.497	6.58
443.855	6.53
444.214	6.47
444.572	6.56
444.93	6.56
445.288	6.66
445.647	6.9
446.005	6.45
446.363	6.66
446.721	6.59
447.079	6.73
447.437	6.56
447.795	6.5
448.153	6.5
448.51	6.56
448.868	6.57
449.226	6.45
449.584	6.48
449.941	6.53
450.299	6.71
450.656	6.47
451.014	6.73
451.371	6.61
451.729	6.53
452.086	6.61
452.443	6.69
452.801	6.69
453.158	6.73
453.515	6.63
453.872	6.69
454.229	6.85
454.586	6.62
454.943	6.71
455.3	6.68
455.657	6.72
456.014	6.67
456.371	6.81
456.727	6.68
457.084	6.73
457.441	6.87
457.797	6.85
458.154	6.57
458.51	6.68
458.867	6.78
459.223	6.62
459.58	6.81
459.936	6.75
460.292	6.68
460.648	6.7
461.005	6.72
461.361	6.69
461.717	6.45
462.073	6.59
462.429	6.65
462.785	6.6
463.141	6.68
463.496	6.76
463.852	6.88
464.208	6.87
464.564	7.02
464.919	6.94
465.275	7.02
465.631	6.82
465.986	6.95
466.342	6.89
466.697	6.81
467.052	6.89
467.408	6.87
467.763	7.03
468.118	7.17
468.473	6.95
468.829	6.98
469.184	6.86
469.539	6.86
469.894	6.83
470.249	6.85
470.603	6.83
470.958	6.97
471.313	6.84
471.668	6.92
472.023	6.89
472.377	6.89
472.732	6.84
473.086	6.92
473.441	6.99
473.795	7.22
474.15	6.94
474.504	6.92
474.859	7.06
475.213	6.93
475.567	6.97
475.921	7.01
476.275	6.71
476.63	7.2
476.984	7.22
477.338	6.91
477.692	6.88
478.045	7.02
478.399	7.01
478.753	7.05
479.107	7.02
479.461	7.08
479.814	7.15
480.168	7
480.521	7.09
480.875	6.89
481.228	6.95
481.582	7.07
481.935	7.03
482.289	7.06
482.642	6.97
482.995	6.93
483.348	6.92
483.701	6.97
484.055	6.94
484.408	6.85
484.761	6.73
485.114	6.74
485.466	6.69
485.819	6.6
486.172	6.53
486.525	6.59
486.878	6.57
487.23	6.64
487.583	6.69
487.936	6.72
488.288	6.89
488.641	6.89
488.993	6.81
489.345	6.67
489.698	6.75
490.05	6.68
490.402	6.68
490.754	6.72
491.107	6.78
491.459	6.85
491.811	6.87
492.163	6.92
492.515	6.98
492.866	7.03
493.218	6.84
493.57	6.84
493.922	6.85
494.274	6.85
494.625	6.85
494.977	6.85
495.328	6.99
495.68	7.02
496.031	7.15
496.383	7.07
496.734	7.19
497.086	7.19
497.437	7.13
497.788	7.09
498.139	7.27
498.49	7.14
498.842	7.13
499.193	7.15
499.544	7.17
499.894	7.1
500.245	7.11
500.596	7.21
500.947	7.11
501.298	7.21
501.648	7.16
501.999	7.23
502.35	7.16
502.7	7.27
503.051	7.3
503.401	7.33
503.752	7.26
504.102	7.24
504.452	7.2
504.803	7.22
505.153	7.24
505.503	7.33
505.853	7.19
506.203	7.2
506.553	7.19
506.903	7.23
507.253	7.34
507.603	7.32
507.953	7.38
508.303	7.33
508.652	7.28
509.002	7.17
509.352	7.36
509.701	7.29
510.051	7.17
510.4	7.26
510.75	7.29
511.099	7.34
511.449	7.28
511.798	7.35
512.147	7.33
512.496	7.31
512.846	7.29
513.195	7.42
513.544	7.32
513.893	7.28
514.242	7.32
514.591	7.35
514.939	7.31
515.288	7.24
515.637	7.39
515.986	7.41
516.334	7.42
516.683	7.36
517.032	7.27
517.38	7.35
517.729	7.49
518.077	7.39
518.426	7.42
518.774	7.38
519.122	7.43
519.47	7.32
519.819	7.27
520.167	7.31
520.515	7.3
520.863	7.36
521.211	7.25
521.559	7.37
521.907	7.35
522.255	7.28
522.602	7.49
522.95	7.4
523.298	7.43
523.645	7.44
523.993	7.32
524.341	7.52
524.688	7.5
525.036	7.57
525.383	7.37
525.73	7.67
526.078	7.44
526.425	7.57
526.772	7.35
527.119	7.46
527.466	7.42
527.814	7.43
528.161	7.34
528.508	7.36
528.854	7.39
529.201	7.41
529.548	7.48
529.895	7.32
530.242	7.21
530.588	7.14
530.935	7.16
531.282	7.21
531.628	7.23
531.975	7.18
532.321	7.29
532.667	7.36
533.014	7.43
533.36	7.43
533.706	7.54
534.052	7.5
534.399	7.39
534.745	7.38
535.091	7.43
535.437	7.43
535.783	7.4
536.129	7.36
536.474	7.48
536.82	7.53
537.166	7.49
537.512	7.58
537.857	7.57
538.203	7.58
538.549	7.61
538.894	7.49
539.239	7.48
539.585	7.53
539.93	7.56
540.276	7.68
540.621	7.82
540.966	7.7
541.311	7.71
541.656	7.75
542.001	7.77
542.346	7.73
542.691	7.56
543.036	7.57
543.381	7.47
543.726	7.42
544.071	7.49
544.415	7.49
544.76	7.52
545.105	7.58
545.449	7.63
545.794	7.61
546.138	7.64
546.483	7.74
546.827	7.74
547.171	7.8
547.516	7.78
547.86	7.78
548.204	7.74
548.548	7.87
548.892	7.75
549.236	7.82
549.58	7.77
549.924	7.76
550.268	7.9
550.612	7.76
550.956	8.05
551.3	7.88
551.643	7.99
551.987	8.01
552.33	7.94
552.674	7.88
553.017	8.02
553.361	8.01
553.704	8.05
554.048	8.15
554.391	8.03
554.734	7.96
555.077	8.02
555.42	7.92
555.764	7.89
556.107	8.14
556.45	8.14
556.793	8.11
557.135	8.06
557.478	8.06
557.821	7.98
558.164	7.95
558.507	8.03
558.849	8.21
559.192	8.13
559.534	8.26
559.877	7.94
560.219	8.24
560.562	8.22
560.904	8.2
561.246	8.26
561.589	8.07
561.931	8.27
562.273	8.25
562.615	8.28
562.957	8.32
563.299	8.24
563.641	8.24
563.983	8.03
564.325	8.03
564.667	8.32
565.008	8.18
565.35	8.13
565.692	8.23
566.033	8.26
566.375	8.28
566.716	8.41
567.058	8.22
567.399	8.41
567.741	8.16
568.082	8.28
568.423	8.19
568.764	8.23
569.105	8.34
569.447	8.23
569.788	8.16
570.129	8.33
570.47	8.42
570.811	8.56
571.151	8.24
571.492	8.41
571.833	8.51
572.174	8.33
572.514	8.48
572.855	8.43
573.195	8.44
573.536	8.39
573.876	8.43
574.217	8.2
574.557	8.16
574.898	8.2
575.238	8.22
575.578	8.23
575.918	8.23
576.258	8.42
576.598	8.44
576.938	8.49
577.278	8.41
577.618	8.24
577.958	8.31
578.298	8.4
578.638	8.53
578.977	8.45
579.317	8.52
579.657	8.48
579.996	8.51
580.336	8.46
580.675	8.47
581.014	8.4
581.354	8.44
581.693	8.75
582.032	8.69
582.372	8.61
582.711	8.67
583.05	8.88
583.389	8.74
583.728	8.63
584.067	8.54
584.406	8.5
584.745	8.56
585.083	8.61
585.422	8.73
585.761	8.85
586.1	8.9
586.438	8.42
586.777	8.99
587.115	8.8
587.454	8.88
587.792	8.76
588.13	8.98
588.469	8.86
588.807	8.48
589.145	8.7
589.483	8.56
589.821	8.73
590.159	8.76
590.497	8.86
590.835	8.85
591.173	8.83
591.511	8.83
591.849	8.61
592.187	8.77
592.524	8.72
592.862	8.56
593.2	8.85
593.537	8.59
593.875	8.59
594.212	8.85
594.55	8.91
594.887	8.72
595.224	8.49
595.561	8.65
595.899	8.73
596.236	8.84
596.573	8.95
596.91	8.79
597.247	8.82
597.584	8.63
597.921	8.98
598.258	9.07
598.594	9.05
598.931	8.86
599.268	8.87
599.604	8.85
599.941	8.83
600.277	8.93
600.614	9.03
600.95	9.06
601.287	8.95
601.623	9.15
601.959	9.29
602.296	8.93
602.632	9.08
602.968	9.05
603.304	9.27
603.64	9.01
603.976	9.34
604.312	9.17
604.648	8.94
604.984	9.15
605.319	9.26
605.655	8.89
605.991	9.04
606.326	9.15
606.662	8.83
606.998	8.91
607.333	9.03
607.668	8.94
608.004	9.15
608.339	8.88
608.674	9.18
609.01	9.09
609.345	9.23
609.68	9.29
610.015	9.23
610.35	9.17
610.685	9.34
611.02	9.35
611.355	9.09
611.689	9.08
612.024	9.47
612.359	9.15
612.694	9.19
613.028	9.32
613.363	9.12
613.697	9.23
614.032	9.43
614.366	9.29
614.7	9.35
615.035	9.37
615.369	9.67
615.703	9.35
616.037	9.39
616.371	9.49
616.705	8.98
617.039	9.22
617.373	9.39
617.707	9.68
618.041	9.63
618.375	9.31
618.709	9.25
619.042	9.28
619.376	9.88
619.71	9.68
620.043	9.38
620.377	9.21
620.71	9.54
621.043	9.94
621.377	9.23
621.71	9.25
622.043	9.2
622.376	9.73
622.709	9.82
623.043	9.62
623.376	9.25
623.709	9.49
624.041	9.58
624.374	9.68
624.707	9.62
625.04	9.48
625.373	9.82
625.705	9.64
626.038	9.89
626.37	9.36
626.703	9.72
627.035	9.22
627.368	9.66
627.7	9.89
628.032	9.4
628.365	9.83
628.697	9.75
629.029	9.44
629.361	9.85
629.693	9.68
630.025	9.9
630.357	9.34
630.689	9.8
631.021	10.14
631.353	9.76
631.684	9.71
632.016	9.73
632.348	9.66
632.679	9.95
633.011	9.86
633.342	9.71
633.674	9.85
634.005	10.05
634.336	10.18
634.668	9.9
634.999	9.65
635.33	9.47
635.661	10.04
635.992	10.03
636.323	10.1
636.654	9.98
636.985	10.04
637.316	10.07
637.647	9.62
637.977	9.77
638.308	9.98
638.639	10.11
638.969	10.05
639.3	9.73
639.63	10.07
639.961	9.67
640.291	9.9
640.622	9.9
640.952	10.12
641.282	9.6
641.612	10
641.943	10.34
642.273	9.68
642.603	10.17
642.933	10.26
643.263	10.36
643.592	10.31
643.922	10.32
644.252	9.57
644.582	9.74
644.911	10.16
645.241	10.31
645.571	10.4
645.9	10.12
646.23	10.42
646.559	10.28
646.888	10.2
647.218	10.34
647.547	9.96
647.876	10.27
648.205	10.38
648.534	10.59
648.863	10.44
649.192	10
649.521	10.62
649.85	10.24
650.179	9.86
650.508	10.68
650.837	10.48
651.165	10.51
651.494	9.97
651.822	10.55
652.151	10.98
652.479	10.45
652.808	10.45
653.136	10.53
653.465	11.02
653.793	10.63
654.121	10.98
654.449	10.47
654.777	10.27
655.105	10.55
655.433	10.84
655.761	10.64
656.089	10.75
656.417	10.71
656.745	10.61
657.073	10.25
657.4	11.33
657.728	11.06
658.056	11.01
658.383	10.6
658.711	10.29
659.038	10.57
659.365	11.05
659.693	10.49
660.02	10.42
660.347	10.28
660.674	10.55
661.001	10.6
661.329	10.72
661.656	10.86
661.982	10.61
662.309	10.5
662.636	10.44
662.963	10.4
663.29	10.63
663.616	10.92
663.943	10.66
664.27	10.78
664.596	10.7
664.923	10.43
665.249	10.48
665.576	10.51
665.902	10.59
666.228	11.16
666.554	10.83
666.881	10.98
667.207	11.6
667.533	10.32
667.859	11.11
668.185	10.98
668.511	11.34
668.837	11.06
669.162	11.22
669.488	10.68
669.814	10.36
670.139	10.41
670.465	10.88
670.791	11.17
671.116	10.73
671.442	10.88
671.767	10.92
672.092	11.13
672.418	11.65
672.743	11.16
673.068	11.37
673.393	10.65
673.718	11.08
674.043	11.02
674.368	11.49
674.693	11.81
675.018	11.6
675.343	11.24
675.667	10.81
675.992	11.84
676.317	11.65
676.641	11.31
676.966	11.07
677.29	11.5
677.615	11.41
677.939	11.58
678.264	12.22
678.588	11.06
678.912	11.59
679.236	11.35
679.56	11.92
679.885	11.68
680.209	11.54
680.532	11.29
680.856	11.17
681.18	11.5
681.504	11.79
681.828	12.13
682.152	11.69
682.475	11.17
682.799	11.58
683.122	11.34
683.446	11.31
683.769	11.69
684.093	11.49
684.416	11.61
684.739	10.98
685.062	10.52
685.386	11.26
685.709	11.56
686.032	11.66
686.355	11.74
686.678	11.62
687.001	11.57
687.324	11.1
687.646	12.02
687.969	11.82
688.292	12.26
688.614	11.86
