Data from 0344_forehead_Reflection__0__334.txt Node

Date: Fri Oct 20 23:20:05 CDT 2023
User: ToomeyLab
Spectrometer: FLMS14357
Trigger mode: 0
Integration Time (sec): 1.000000E-2
Scans to average: 100
Electric dark correction enabled: true
Nonlinearity correction enabled: false
Boxcar width: 0
XAxis mode: Wavelengths
Number of Pixels in Spectrum: 2048
>>>>>Begin Spectral Data<<<<<
189.047	34.56
189.435	34.56
189.823	34.56
190.211	146.21
190.599	162.64
190.987	71.05
191.375	-53.91
191.763	81.13
192.151	-33.27
192.538	65.77
192.926	107.79
193.314	30.53
193.702	52.27
194.089	83.25
194.477	562.7
194.864	97.03
195.252	-11.56
195.639	90.67
196.027	571.39
196.414	95.35
196.801	108.82
197.189	343.14
197.576	143.77
197.963	-200.6
198.351	42.49
198.738	15.22
199.125	-25.63
199.512	13.76
199.899	8.41
200.286	-11.91
200.673	23.4
201.06	14.12
201.447	93.94
201.833	78.04
202.22	22.76
202.607	47.78
202.994	40.22
203.38	6.73
203.767	31.08
204.154	48.57
204.54	53.69
204.927	36.42
205.313	35.13
205.699	44.03
206.086	24.29
206.472	43.95
206.858	56.83
207.245	9.56
207.631	32.63
208.017	46.95
208.403	35.68
208.789	39.78
209.175	6.55
209.561	32.11
209.947	39.94
210.333	14.28
210.719	6.38
211.105	39.47
211.491	19.44
211.876	-24.63
212.262	68.49
212.648	-15.21
213.034	-15.92
213.419	15.92
213.805	-1.45
214.19	-7.07
214.576	5.6
214.961	12.07
215.346	30.19
215.732	12.29
216.117	-45.27
216.502	15.27
216.888	40.36
217.273	40.99
217.658	0.26
218.043	-4.16
218.428	33.63
218.813	33.48
219.198	6.11
219.583	-47.42
219.968	-15.74
220.353	16.72
220.738	6.89
221.122	1.17
221.507	5.52
221.892	11.07
222.276	5.65
222.661	20.62
223.046	1.85
223.43	8
223.815	6.84
224.199	17.98
224.583	-2.79
224.968	1.4
225.352	4.32
225.736	8.26
226.121	8.78
226.505	-4.14
226.889	3.19
227.273	8.87
227.657	12.6
228.041	6.03
228.425	4.04
228.809	3.88
229.193	4.57
229.577	6.91
229.961	2.03
230.344	1.28
230.728	1.2
231.112	3.44
231.495	2.12
231.879	1.98
232.263	3.09
232.646	1.51
233.03	1.17
233.413	1.93
233.797	2.43
234.18	3.57
234.563	3.74
234.946	4.02
235.33	1.17
235.713	3.97
236.096	4
236.479	2.78
236.862	4.04
237.245	2.69
237.628	1.27
238.011	1.64
238.394	2.88
238.777	2.91
239.16	2.17
239.543	4.34
239.925	5.57
240.308	2.82
240.691	2.57
241.073	4.11
241.456	2.58
241.838	1.99
242.221	3.34
242.603	2.91
242.986	2.96
243.368	3.09
243.75	2.63
244.133	2.5
244.515	2.17
244.897	2.72
245.279	2.49
245.661	2.32
246.043	2.68
246.425	2.52
246.807	2.3
247.189	2.97
247.571	1.65
247.953	2.64
248.335	2.8
248.717	2.13
249.098	2.34
249.48	2.17
249.862	2.41
250.243	2.77
250.625	2.63
251.006	2.8
251.388	2.15
251.769	3.54
252.151	2.79
252.532	3.18
252.913	2.52
253.295	2.24
253.676	2.59
254.057	2.25
254.438	2.08
254.819	2.47
255.2	2.52
255.581	2.97
255.962	2.38
256.343	2.57
256.724	1.27
257.105	2.82
257.486	2.42
257.867	2.01
258.247	2.76
258.628	2.27
259.009	2.11
259.389	2.25
259.77	2.11
260.15	2.54
260.531	2.27
260.911	2.43
261.292	2.41
261.672	2.34
262.052	2.5
262.432	2.53
262.813	2.2
263.193	2.41
263.573	2.36
263.953	2.24
264.333	2.84
264.713	2.47
265.093	3.05
265.473	3.18
265.853	2.61
266.233	2.44
266.612	3.07
266.992	2.8
267.372	2.74
267.752	2.15
268.131	2.87
268.511	3.04
268.89	2.53
269.27	2.14
269.649	1.83
270.029	2.31
270.408	2.83
270.787	2.49
271.167	2.5
271.546	3.52
271.925	3.23
272.304	2.66
272.683	2.78
273.062	2.6
273.441	2.45
273.82	2.74
274.199	2.44
274.578	2.26
274.957	2.35
275.336	2.69
275.715	2.72
276.093	2.33
276.472	2.33
276.851	2.58
277.229	2.44
277.608	2.3
277.986	2.48
278.365	3.35
278.743	2.44
279.122	2.57
279.5	2.78
279.878	2.11
280.257	2.53
280.635	2.53
281.013	3.2
281.391	3.05
281.769	2.26
282.147	2.36
282.525	2.66
282.903	2.36
283.281	2.43
283.659	2.19
284.037	2.17
284.415	1.98
284.792	2.32
285.17	2.49
285.548	2.25
285.925	2.22
286.303	2.59
286.68	2.34
287.058	2.98
287.435	2.73
287.813	2.08
288.19	2.41
288.567	2.62
288.945	2.7
289.322	2.64
289.699	2.04
290.076	2.76
290.453	2.39
290.83	2.52
291.207	2.89
291.584	2.4
291.961	2.81
292.338	2.7
292.715	2.65
293.092	2.71
293.469	2.92
293.845	2.73
294.222	2.64
294.599	2.76
294.975	3.57
295.352	2.96
295.728	2.71
296.105	2.55
296.481	2.6
296.858	2.96
297.234	2.89
297.61	2.2
297.986	2.41
298.363	2.7
298.739	3.04
299.115	3.12
299.491	2.87
299.867	3.09
300.243	2.88
300.619	2.85
300.995	2.88
301.371	2.95
301.746	3.25
302.122	3.08
302.498	3.01
302.874	3.21
303.249	3.07
303.625	3.58
304	3.42
304.376	2.68
304.751	2.75
305.127	3
305.502	3.84
305.878	3.4
306.253	3.38
306.628	3.83
307.003	3.61
307.378	3.71
307.754	3.35
308.129	3.99
308.504	3.73
308.879	3.84
309.254	4.59
309.629	3.01
310.003	3.42
310.378	3.99
310.753	3.65
311.128	4.06
311.502	4.05
311.877	3.92
312.252	3.62
312.626	4.36
313.001	4.06
313.375	3.98
313.75	4.05
314.124	3.64
314.498	4.31
314.873	4.12
315.247	4.32
315.621	3.93
315.995	4.16
316.369	4.25
316.743	4.69
317.117	4.57
317.491	4.11
317.865	5.21
318.239	5.05
318.613	4.79
318.987	4.61
319.361	4.08
319.734	4.3
320.108	4.55
320.482	4.96
320.855	4.58
321.229	5.02
321.602	4.34
321.976	4.5
322.349	5.42
322.723	5.37
323.096	4.38
323.469	4.94
323.843	5.16
324.216	5.31
324.589	5.27
324.962	4.93
325.335	5.58
325.708	4.8
326.081	4.85
326.454	5.43
326.827	5.28
327.2	5.2
327.573	5.49
327.945	5.09
328.318	4.95
328.691	5.13
329.063	5.59
329.436	4.44
329.809	5.17
330.181	5.09
330.553	5.74
330.926	5.52
331.298	5.53
331.671	5.04
332.043	5.46
332.415	5.2
332.787	6.19
333.159	5.17
333.532	5.24
333.904	6
334.276	5.39
334.648	6.07
335.02	5.86
335.391	5.49
335.763	5.85
336.135	5.91
336.507	5.99
336.879	5.55
337.25	5.82
337.622	5.55
337.993	6.17
338.365	5.98
338.736	6.01
339.108	6.35
339.479	5.66
339.851	6.17
340.222	5.8
340.593	5.38
340.964	6.08
341.336	6.14
341.707	6.17
342.078	5.87
342.449	6.16
342.82	6.02
343.191	6.07
343.562	6.11
343.933	5.81
344.303	5.5
344.674	6.2
345.045	6.35
345.416	6.68
345.786	6.2
346.157	6.24
346.527	6.23
346.898	6.09
347.268	6.53
347.639	6.38
348.009	6.18
348.38	6.42
348.75	6.16
349.12	6.64
349.49	6.29
349.861	6.3
350.231	6.02
350.601	6.74
350.971	6.89
351.341	6.65
351.711	7.15
352.081	6.51
352.45	6.35
352.82	6.33
353.19	6.84
353.56	7.05
353.929	6.36
354.299	6.64
354.669	6.83
355.038	6.77
355.408	6.97
355.777	6.73
356.147	6.7
356.516	6.6
356.885	6.88
357.254	7.01
357.624	6.75
357.993	6.7
358.362	6.86
358.731	6.6
359.1	6.5
359.469	6.64
359.838	6.96
360.207	6.95
360.576	7.03
360.945	6.39
361.314	7.01
361.682	6.94
362.051	6.89
362.42	7.08
362.788	7.08
363.157	6.93
363.525	6.9
363.894	6.87
364.262	7.02
364.631	7.36
364.999	7.31
365.367	7.34
365.735	7.26
366.104	7.19
366.472	7.32
366.84	7.65
367.208	7.48
367.576	7.14
367.944	7.5
368.312	7.37
368.68	7.5
369.048	7.64
369.416	7.51
369.783	7.55
370.151	7.47
370.519	7.48
370.886	7.7
371.254	7.53
371.621	7.69
371.989	8.01
372.356	7.76
372.724	7.96
373.091	7.39
373.458	7.43
373.826	7.58
374.193	7.45
374.56	7.5
374.927	7.77
375.294	7.92
375.661	7.9
376.028	7.92
376.395	8.01
376.762	7.87
377.129	8.04
377.496	7.88
377.863	7.99
378.229	7.97
378.596	8.06
378.963	8.05
379.329	8.03
379.696	7.97
380.062	8.04
380.429	7.94
380.795	7.85
381.161	8.27
381.528	8.54
381.894	8.07
382.26	8.34
382.626	8.62
382.993	8.3
383.359	8.4
383.725	8.44
384.091	8.57
384.457	8.31
384.823	8.51
385.188	8.7
385.554	8.59
385.92	8.67
386.286	8.64
386.651	8.25
387.017	8.69
387.383	8.76
387.748	8.11
388.114	8.35
388.479	8.49
388.845	8.71
389.21	8.54
389.575	8.42
389.94	8.47
390.306	8.81
390.671	8.86
391.036	8.66
391.401	9.11
391.766	8.97
392.131	8.88
392.496	8.93
392.861	8.94
393.226	9.01
393.591	8.93
393.956	8.97
394.32	9.07
394.685	8.92
395.05	9.19
395.414	9.15
395.779	9.07
396.143	9.23
396.508	9.19
396.872	9.18
397.236	9.3
397.601	9.01
397.965	9.19
398.329	9.2
398.694	9.4
399.058	9.14
399.422	9.49
399.786	9.43
400.15	9.41
400.514	9.27
400.878	9.53
401.242	9.52
401.605	9.49
401.969	9.27
402.333	9.55
402.697	9.54
403.06	9.63
403.424	9.58
403.787	9.75
404.151	9.67
404.514	9.68
404.878	9.6
405.241	9.77
405.604	9.68
405.968	9.8
406.331	9.52
406.694	9.67
407.057	9.66
407.42	10
407.783	10.11
408.146	9.86
408.509	9.93
408.872	10.09
409.235	9.72
409.598	10.16
409.961	10.23
410.323	10.16
410.686	9.86
411.049	9.93
411.411	9.96
411.774	10.07
412.136	10.22
412.499	10.19
412.861	10.43
413.223	10.2
413.586	10.36
413.948	10.28
414.31	10.4
414.672	10.22
415.035	10.38
415.397	10.34
415.759	10.52
416.121	10.31
416.483	10.6
416.845	10.34
417.206	10.25
417.568	10.56
417.93	10.63
418.292	10.26
418.653	10.41
419.015	10.39
419.377	10.46
419.738	10.41
420.1	10.29
420.461	10.47
420.822	10.45
421.184	10.55
421.545	10.5
421.906	10.59
422.267	10.47
422.629	10.47
422.99	10.41
423.351	10.47
423.712	10.43
424.073	10.57
424.434	10.53
424.795	10.6
425.155	10.68
425.516	10.8
425.877	10.58
426.238	10.44
426.598	10.66
426.959	10.64
427.32	10.75
427.68	10.88
428.041	10.89
428.401	11.04
428.761	10.98
429.122	11.09
429.482	11.07
429.842	11.1
430.202	11.16
430.563	11.08
430.923	11.14
431.283	11.34
431.643	11.35
432.003	11.61
432.363	11.22
432.722	11.53
433.082	11.53
433.442	11.39
433.802	11.51
434.161	11.49
434.521	11.42
434.881	11.5
435.24	11.53
435.6	11.48
435.959	11.56
436.319	11.53
436.678	11.54
437.037	11.65
437.396	11.71
437.756	11.76
438.115	11.65
438.474	11.96
438.833	11.97
439.192	11.54
439.551	11.92
439.91	11.86
440.269	12.07
440.628	11.95
440.987	11.83
441.345	11.79
441.704	11.97
442.063	11.86
442.421	11.95
442.78	11.95
443.138	11.88
443.497	12.01
443.855	12.16
444.214	12.14
444.572	12.17
444.93	12.32
445.288	12.32
445.647	12.35
446.005	12.1
446.363	12.38
446.721	12.26
447.079	12.44
447.437	12.17
447.795	12.21
448.153	12.31
448.51	12.17
448.868	12.2
449.226	12.26
449.584	12.32
449.941	12.44
450.299	12.44
450.656	12.4
451.014	12.45
451.371	12.78
451.729	12.55
452.086	12.82
452.443	12.8
452.801	12.79
453.158	12.76
453.515	12.71
453.872	12.8
454.229	12.98
454.586	12.92
454.943	12.79
455.3	12.96
455.657	13.06
456.014	13.05
456.371	13.11
456.727	13.18
457.084	13.26
457.441	13.29
457.797	13.26
458.154	13.24
458.51	13.37
458.867	13.28
459.223	13.32
459.58	13.24
459.936	13.38
460.292	13.37
460.648	13.21
461.005	13.25
461.361	13.19
461.717	13.04
462.073	13.19
462.429	13.27
462.785	13.35
463.141	13.52
463.496	13.51
463.852	13.58
464.208	13.72
464.564	13.83
464.919	13.83
465.275	13.83
465.631	13.86
465.986	14.01
466.342	13.94
466.697	13.91
467.052	13.82
467.408	13.85
467.763	14.11
468.118	14.28
468.473	14.16
468.829	14.24
469.184	14.1
469.539	14.19
469.894	14.23
470.249	14.28
470.603	14.36
470.958	14.21
471.313	14.29
471.668	14.47
472.023	14.52
472.377	14.41
472.732	14.44
473.086	14.64
473.441	14.55
473.795	14.67
474.15	14.54
474.504	14.53
474.859	14.68
475.213	14.68
475.567	14.88
475.921	14.46
476.275	14.69
476.63	14.96
476.984	14.69
477.338	14.69
477.692	14.82
478.045	14.89
478.399	14.83
478.753	14.76
479.107	14.94
479.461	14.92
479.814	15.09
480.168	15.02
480.521	14.95
480.875	14.99
481.228	15.08
481.582	15.13
481.935	15.1
482.289	15.1
482.642	15.12
482.995	15.06
483.348	15.19
483.701	15.02
484.055	15.07
484.408	14.95
484.761	14.95
485.114	14.74
485.466	14.56
485.819	14.39
486.172	14.37
486.525	14.48
486.878	14.62
487.23	14.8
487.583	14.83
487.936	15.01
488.288	15.07
488.641	15.17
488.993	14.91
489.345	14.88
489.698	14.9
490.05	14.83
490.402	14.9
490.754	15.07
491.107	15.19
491.459	15.33
491.811	15.52
492.163	15.57
492.515	15.56
492.866	15.7
493.218	15.51
493.57	15.31
493.922	15.24
494.274	15.41
494.625	15.52
494.977	15.62
495.328	15.9
495.68	16.1
496.031	16.1
496.383	16.35
496.734	16.43
497.086	16.41
497.437	16.26
497.788	16.3
498.139	16.57
498.49	16.45
498.842	16.3
499.193	16.38
499.544	16.41
499.894	16.5
500.245	16.36
500.596	16.45
500.947	16.55
501.298	16.7
501.648	16.76
501.999	16.75
502.35	16.94
502.7	17.06
503.051	16.9
503.401	16.93
503.752	17.13
504.102	17.09
504.452	17.05
504.803	17.04
505.153	17.2
505.503	17.07
505.853	17.27
506.203	17.1
506.553	17.14
506.903	17.36
507.253	17.3
507.603	17.37
507.953	17.52
508.303	17.5
508.652	17.64
509.002	17.56
509.352	17.62
509.701	17.59
510.051	17.37
510.4	17.56
510.75	17.47
511.099	17.42
511.449	17.62
511.798	17.72
512.147	17.66
512.496	17.59
512.846	17.71
513.195	17.74
513.544	17.7
513.893	17.57
514.242	17.92
514.591	17.99
514.939	17.82
515.288	17.8
515.637	17.99
515.986	17.97
516.334	18.04
516.683	18.11
517.032	18.04
517.38	18.14
517.729	18.26
518.077	18.21
518.426	18.2
518.774	18.32
519.122	18.27
519.47	18.36
519.819	18.31
520.167	18.17
520.515	18.1
520.863	18.24
521.211	18.16
521.559	18.27
521.907	18.33
522.255	18.48
522.602	18.54
522.95	18.65
523.298	18.72
523.645	18.82
523.993	19.07
524.341	18.85
524.688	19
525.036	19.09
525.383	18.91
525.73	19
526.078	18.93
526.425	18.92
526.772	18.97
527.119	18.85
527.466	18.8
527.814	18.77
528.161	18.74
528.508	18.75
528.854	18.84
529.201	18.8
529.548	18.96
529.895	18.88
530.242	18.58
530.588	18.41
530.935	18.45
531.282	18.54
531.628	18.66
531.975	18.75
532.321	18.92
532.667	18.97
533.014	19.29
533.36	19.3
533.706	19.44
534.052	19.46
534.399	19.27
534.745	19.34
535.091	19.23
535.437	19.11
535.783	19.2
536.129	19.34
536.474	19.4
536.82	19.73
537.166	19.72
537.512	19.9
537.857	19.94
538.203	20
538.549	19.85
538.894	19.73
539.239	19.86
539.585	19.85
539.93	20.17
540.276	20.22
540.621	20.3
540.966	20.48
541.311	20.39
541.656	20.59
542.001	20.67
542.346	20.49
542.691	20.27
543.036	20.19
543.381	19.86
543.726	19.91
544.071	20
544.415	20.08
544.76	20.26
545.105	20.41
545.449	20.57
545.794	20.47
546.138	20.68
546.483	20.67
546.827	20.95
547.171	21.05
547.516	20.95
547.86	21.06
548.204	21.01
548.548	21.06
548.892	21.06
549.236	21.2
549.58	21.19
549.924	21.27
550.268	21.48
550.612	21.59
550.956	21.7
551.3	21.67
551.643	21.69
551.987	21.93
552.33	22.01
552.674	22.08
553.017	21.99
553.361	22.14
553.704	22.21
554.048	22.14
554.391	22.09
554.734	21.93
555.077	22.07
555.42	21.99
555.764	22.15
556.107	22.34
556.45	22.33
556.793	22.39
557.135	22.33
557.478	22.49
557.821	22.7
558.164	22.49
558.507	22.73
558.849	22.69
559.192	22.85
559.534	22.62
559.877	22.66
560.219	22.78
560.562	23.04
560.904	22.92
561.246	22.95
561.589	22.91
561.931	23.3
562.273	23.13
562.615	23.22
562.957	23.26
563.299	23.03
563.641	23.12
563.983	23.06
564.325	22.94
564.667	23.27
565.008	23.19
565.35	23.38
565.692	23.69
566.033	23.45
566.375	23.4
566.716	23.41
567.058	23.45
567.399	23.68
567.741	23.5
568.082	23.67
568.423	23.7
568.764	23.39
569.105	23.54
569.447	23.65
569.788	23.73
570.129	23.93
570.47	23.87
570.811	23.99
571.151	23.98
571.492	24.14
571.833	24.03
572.174	24.02
572.514	23.92
572.855	24.15
573.195	24.27
573.536	24.02
573.876	24.26
574.217	24.2
574.557	24.16
574.898	24.04
575.238	24.07
575.578	24.29
575.918	24.27
576.258	24.47
576.598	24.37
576.938	24.6
577.278	24.59
577.618	24.16
577.958	24.44
578.298	24.67
578.638	24.73
578.977	24.55
579.317	24.75
579.657	24.71
579.996	24.96
580.336	25.04
580.675	24.86
581.014	24.95
581.354	25.29
581.693	25.31
582.032	25.56
582.372	25.56
582.711	25.47
583.05	25.6
583.389	25.48
583.728	25.54
584.067	25.59
584.406	25.55
584.745	25.5
585.083	25.61
585.422	25.68
585.761	25.8
586.1	25.92
586.438	25.54
586.777	26.05
587.115	26
587.454	26.05
587.792	26.03
588.13	26.11
588.469	25.85
588.807	25.99
589.145	25.91
589.483	25.96
589.821	26.23
590.159	26.39
590.497	26.42
590.835	26.34
591.173	26.25
591.511	26.4
591.849	26.27
592.187	26.34
592.524	26.48
592.862	26.49
593.2	26.58
593.537	26.33
593.875	26.69
594.212	27.03
594.55	26.8
594.887	27.05
595.224	26.42
595.561	26.79
595.899	26.89
596.236	26.85
596.573	26.99
596.91	26.78
597.247	26.85
597.584	26.8
597.921	27.12
598.258	27.16
598.594	27.03
598.931	26.77
599.268	26.58
599.604	26.87
599.941	26.94
600.277	26.91
600.614	27.03
600.95	27.36
601.287	27.26
601.623	27.23
601.959	27.59
602.296	27.54
602.632	27.51
602.968	27.49
603.304	27.67
603.64	27.72
603.976	27.88
604.312	27.63
604.648	27.8
604.984	27.72
605.319	27.93
605.655	27.64
605.991	27.75
606.326	27.94
606.662	27.79
606.998	27.61
607.333	27.66
607.668	27.68
608.004	27.78
608.339	27.86
608.674	27.91
609.01	28
609.345	28.21
609.68	28.59
610.015	27.96
610.35	28.38
610.685	28.38
611.02	28.4
611.355	28.12
611.689	28.28
612.024	28.25
612.359	28.45
612.694	28.57
613.028	28.73
613.363	28.43
613.697	28.68
614.032	28.62
614.366	28.81
614.7	29.06
615.035	28.9
615.369	28.95
615.703	28.85
616.037	29.18
616.371	29.14
616.705	28.98
617.039	29
617.373	29.02
617.707	29.23
618.041	29.34
618.375	29.17
618.709	29.45
619.042	29.3
619.376	29.55
619.71	29.16
620.043	29.82
620.377	29.5
620.71	29.91
621.043	29.86
621.377	29.77
621.71	29.38
622.043	29.59
622.376	29.75
622.709	30.05
623.043	30.06
623.376	29.58
623.709	29.59
624.041	29.9
624.374	30.43
624.707	29.94
625.04	30.3
625.373	29.77
625.705	29.94
626.038	30.45
626.37	29.83
626.703	30.08
627.035	30.12
627.368	30.32
627.7	30.47
628.032	30.15
628.365	30.47
628.697	30.4
629.029	30.31
629.361	30.49
629.693	30.48
630.025	30.39
630.357	30.56
630.689	30.67
631.021	31.04
631.353	30.61
631.684	30.71
632.016	30.68
632.348	30.51
632.679	30.81
633.011	31.09
633.342	31
633.674	30.73
634.005	30.77
634.336	31.22
634.668	31.1
634.999	30.51
635.33	30.95
635.661	31.17
635.992	31.18
636.323	31.31
636.654	31.4
636.985	31.19
637.316	31.52
637.647	31.01
637.977	31.31
638.308	31.48
638.639	31.86
638.969	31.71
639.3	31.57
639.63	31.58
639.961	31.64
640.291	31.44
640.622	31.75
640.952	31.88
641.282	31.5
641.612	31.82
641.943	32.17
642.273	32.29
642.603	31.87
642.933	31.85
643.263	32.23
643.592	32.03
643.922	32.21
644.252	31.36
644.582	32.16
644.911	32.32
645.241	32.78
645.571	32.33
645.9	31.93
646.23	32
646.559	32.15
646.888	32.72
647.218	32.6
647.547	32.35
647.876	32.14
648.205	32.74
648.534	32.7
648.863	32.28
649.192	32.68
649.521	32.4
649.85	32.43
650.179	32.91
650.508	33.23
650.837	33.12
651.165	32.99
651.494	32.94
651.822	33.02
652.151	32.81
652.479	33.06
652.808	33.14
653.136	32.96
653.465	32.79
653.793	33.08
654.121	32.86
654.449	33.26
654.777	33.29
655.105	33.38
655.433	33.79
655.761	33.21
656.089	33.5
656.417	32.78
656.745	33.26
657.073	33.18
657.4	34.39
657.728	33.87
658.056	33.54
658.383	33.51
658.711	33.57
659.038	33.78
659.365	33.39
659.693	33.51
660.02	33.64
660.347	33.73
660.674	33.74
661.001	33.26
661.329	33.57
661.656	33.72
661.982	33.47
662.309	34.26
662.636	33.62
662.963	33.38
663.29	33.57
663.616	33.98
663.943	33.55
664.27	34.23
664.596	34.4
664.923	34.06
665.249	34.56
665.576	34.5
665.902	34.23
666.228	34.26
666.554	35.44
666.881	34.61
667.207	34.3
667.533	34.52
667.859	34.48
668.185	35.04
668.511	35.58
668.837	35.08
669.162	34.37
669.488	34.96
669.814	34.78
670.139	35.01
670.465	34.45
670.791	35.31
671.116	34.8
671.442	35.32
671.767	34.93
672.092	34.76
672.418	35.51
672.743	34.57
673.068	35.23
673.393	35.14
673.718	35.06
674.043	35.58
674.368	35.23
674.693	35.56
675.018	35.52
675.343	35.14
