Data from 0344_crown_Reflection__3__332.txt Node

Date: Fri Oct 20 23:18:29 CDT 2023
User: ToomeyLab
Spectrometer: FLMS14357
Trigger mode: 0
Integration Time (sec): 1.000000E-2
Scans to average: 100
Electric dark correction enabled: true
Nonlinearity correction enabled: false
Boxcar width: 0
XAxis mode: Wavelengths
Number of Pixels in Spectrum: 2048
>>>>>Begin Spectral Data<<<<<
189.047	93.49
189.435	93.49
189.823	93.49
190.211	311.97
190.599	205.05
190.987	135.31
191.375	-16.84
191.763	67.82
192.151	0.19
192.538	-95.96
192.926	2.03
193.314	336.2
193.702	57.15
194.089	115.48
194.477	-13.9
194.864	79.37
195.252	18.48
195.639	-170.14
196.027	-230.52
196.414	145.31
196.801	242.07
197.189	-55.13
197.576	-39.46
197.963	-64.72
198.351	28.47
198.738	26.3
199.125	6.58
199.512	14.85
199.899	8.9
200.286	5.82
200.673	21.35
201.06	21.79
201.447	-6.98
201.833	97.97
202.22	56.79
202.607	25.11
202.994	17.59
203.38	37.18
203.767	28.59
204.154	36.53
204.54	60.49
204.927	25.75
205.313	-1.36
205.699	60.27
206.086	5.64
206.472	30.46
206.858	56.37
207.245	2.28
207.631	44.13
208.017	1.76
208.403	17.46
208.789	43.69
209.175	4.38
209.561	9.98
209.947	-2.71
210.333	5.67
210.719	16.94
211.105	10.33
211.491	28.16
211.876	9.66
212.262	30.88
212.648	11.88
213.034	-5.2
213.419	22.74
213.805	6.31
214.19	-6.51
214.576	-7.86
214.961	9.27
215.346	23.8
215.732	17.7
216.117	-26.82
216.502	31.51
216.888	11.5
217.273	26.31
217.658	-2.46
218.043	7.97
218.428	0.33
218.813	35.94
219.198	-6.45
219.583	-34.65
219.968	6.4
220.353	20.92
220.738	5.31
221.122	-7.76
221.507	2.71
221.892	2.05
222.276	-9.82
222.661	34.71
223.046	5.32
223.43	8.21
223.815	19.66
224.199	27.4
224.583	0.58
224.968	-4.13
225.352	-3.41
225.736	-1.87
226.121	2.58
226.505	8.84
226.889	1.07
227.273	6.39
227.657	6.2
228.041	9.61
228.425	8.76
228.809	9.08
229.193	7.95
229.577	9.7
229.961	7.88
230.344	7.46
230.728	6.99
231.112	8.11
231.495	7.47
231.879	7.15
232.263	8.04
232.646	6.61
233.03	7.1
233.413	6.79
233.797	7.12
234.18	7.34
234.563	8.95
234.946	6.64
235.33	8.47
235.713	7.36
236.096	8.56
236.479	7.71
236.862	7.85
237.245	7.03
237.628	5.61
238.011	8.07
238.394	8.19
238.777	9.68
239.16	7.84
239.543	8.25
239.925	9.19
240.308	7.39
240.691	7.97
241.073	8.66
241.456	7.88
241.838	6.59
242.221	8.8
242.603	7.48
242.986	8.07
243.368	6.99
243.75	7.5
244.133	7.41
244.515	7.03
244.897	7.16
245.279	7.3
245.661	7.25
246.043	6.22
246.425	6.21
246.807	6.81
247.189	6.9
247.571	6.43
247.953	7.48
248.335	6.92
248.717	6.61
249.098	6.51
249.48	6.56
249.862	6.89
250.243	7.24
250.625	6.86
251.006	6.86
251.388	6.68
251.769	7.28
252.151	6.27
252.532	6.7
252.913	6.85
253.295	6.41
253.676	6.69
254.057	7
254.438	6.46
254.819	6.85
255.2	7.01
255.581	6.2
255.962	6.7
256.343	6.66
256.724	4.92
257.105	6.98
257.486	7.54
257.867	6.98
258.247	6.37
258.628	6.28
259.009	5.86
259.389	6.21
259.77	5.9
260.15	6.98
260.531	6.2
260.911	6.65
261.292	6.33
261.672	6.43
262.052	6.42
262.432	6.37
262.813	6.2
263.193	6.04
263.573	6.02
263.953	6.38
264.333	6.64
264.713	6.79
265.093	6.71
265.473	7.01
265.853	5.82
266.233	6.23
266.612	6
266.992	5.95
267.372	6.52
267.752	6.06
268.131	6.07
268.511	6.85
268.89	6.59
269.27	5.99
269.649	6.32
270.029	6.27
270.408	6.21
270.787	6.17
271.167	6.11
271.546	6.53
271.925	6.54
272.304	6.75
272.683	6.3
273.062	6.62
273.441	6.28
273.82	6.37
274.199	6.58
274.578	6.31
274.957	6.43
275.336	6.43
275.715	6
276.093	6.4
276.472	5.89
276.851	6.79
277.229	6.44
277.608	5.6
277.986	5.73
278.365	6.22
278.743	5.93
279.122	5.88
279.5	5.37
279.878	5.56
280.257	5.75
280.635	6.12
281.013	5.56
281.391	5.88
281.769	6.03
282.147	5.88
282.525	5.69
282.903	5.67
283.281	6.11
283.659	6.02
284.037	5.77
284.415	5.73
284.792	5.66
285.17	5.89
285.548	5.79
285.925	5.41
286.303	5.75
286.68	5.45
287.058	6.14
287.435	5.82
287.813	5.33
288.19	5.82
288.567	5.69
288.945	5.79
289.322	5.79
289.699	5.27
290.076	6.26
290.453	5.5
290.83	5.33
291.207	6.04
291.584	5.32
291.961	5.59
292.338	5.59
292.715	5.81
293.092	5.77
293.469	6.11
293.845	5.65
294.222	5.42
294.599	5.44
294.975	6.01
295.352	5.79
295.728	5.44
296.105	5.93
296.481	5.52
296.858	5.67
297.234	5.65
297.61	5.22
297.986	5.31
298.363	5.88
298.739	5.29
299.115	5.39
299.491	5.68
299.867	5.47
300.243	5.34
300.619	5.42
300.995	5.57
301.371	5.79
301.746	5.81
302.122	5.45
302.498	5.4
302.874	5.6
303.249	5.78
303.625	5.66
304	6.16
304.376	5.3
304.751	5.21
305.127	4.81
305.502	5.65
305.878	5.67
306.253	5.44
306.628	5.3
307.003	5.51
307.378	5.51
307.754	5.39
308.129	5.72
308.504	5.52
308.879	5.44
309.254	5.61
309.629	5.37
310.003	4.98
310.378	5.89
310.753	5.33
311.128	5.86
311.502	5.82
311.877	5.74
312.252	5.56
312.626	5.58
313.001	5.08
313.375	4.99
313.75	5.61
314.124	5.06
314.498	5.32
314.873	5
315.247	5.86
315.621	5.66
315.995	5.56
316.369	5.11
316.743	5.43
317.117	5.75
317.491	4.89
317.865	5.46
318.239	5.74
318.613	5.64
318.987	5.23
319.361	5.14
319.734	4.69
320.108	4.81
320.482	5.88
320.855	5.61
321.229	5.7
321.602	5.49
321.976	5.31
322.349	5.48
322.723	5.54
323.096	5.74
323.469	5.3
323.843	5.3
324.216	5.25
324.589	5.46
324.962	5.56
325.335	5.61
325.708	5.41
326.081	5.51
326.454	5.38
326.827	5.62
327.2	5.76
327.573	5.98
327.945	5.24
328.318	4.93
328.691	5.68
329.063	5.54
329.436	5.24
329.809	5.44
330.181	5.78
330.553	5.85
330.926	5.28
331.298	5.14
331.671	5.28
332.043	5.23
332.415	5.22
332.787	5.55
333.159	4.89
333.532	5.61
333.904	5.43
334.276	4.76
334.648	5.47
335.02	5.46
335.391	5.53
335.763	5.64
336.135	5.17
336.507	5.36
336.879	4.99
337.25	5.64
337.622	5.79
337.993	6.05
338.365	6.02
338.736	5.29
339.108	5.72
339.479	5.05
339.851	5.43
340.222	5
340.593	5.04
340.964	4.84
341.336	5.73
341.707	5.57
342.078	5.15
342.449	5.32
342.82	4.82
343.191	5.39
343.562	5.66
343.933	4.94
344.303	5.33
344.674	5.36
345.045	5.53
345.416	5.73
345.786	5.38
346.157	5.47
346.527	5.41
346.898	5.69
347.268	5.4
347.639	5.47
348.009	5.23
348.38	5.53
348.75	5.6
349.12	5.59
349.49	5.21
349.861	5.88
350.231	5.53
350.601	5.09
350.971	5.49
351.341	5.55
351.711	6.08
352.081	5.27
352.45	5.17
352.82	5.8
353.19	5.92
353.56	5.71
353.929	5.41
354.299	5.67
354.669	5.84
355.038	5.73
355.408	5.84
355.777	5.59
356.147	5.35
356.516	5.37
356.885	5.48
357.254	5.6
357.624	5.65
357.993	5.29
358.362	5.58
358.731	4.94
359.1	5.17
359.469	5.58
359.838	5.78
360.207	5.66
360.576	5.93
360.945	5.59
361.314	5.56
361.682	5.73
362.051	5.61
362.42	5.57
362.788	5.66
363.157	5.48
363.525	5.51
363.894	5.52
364.262	5.54
364.631	5.7
364.999	5.56
365.367	5.63
365.735	5.37
366.104	5.52
366.472	5.64
366.84	5.7
367.208	5.91
367.576	5.46
367.944	5.63
368.312	5.4
368.68	5.72
369.048	5.61
369.416	5.96
369.783	5.63
370.151	5.51
370.519	5.77
370.886	5.9
371.254	5.67
371.621	5.93
371.989	5.55
372.356	5.79
372.724	5.58
373.091	5.46
373.458	5.51
373.826	5.5
374.193	5.64
374.56	5.44
374.927	5.46
375.294	5.55
375.661	5.84
376.028	6.05
376.395	5.91
376.762	5.56
377.129	5.6
377.496	5.64
377.863	5.99
378.229	5.87
378.596	5.87
378.963	5.69
379.329	5.76
379.696	5.6
380.062	5.58
380.429	5.41
380.795	5.36
381.161	5.66
381.528	5.81
381.894	5.7
382.26	5.86
382.626	6.04
382.993	6.02
383.359	5.59
383.725	5.96
384.091	5.71
384.457	5.84
384.823	5.77
385.188	5.93
385.554	5.81
385.92	5.75
386.286	6.03
386.651	5.76
387.017	5.93
387.383	5.86
387.748	5.52
388.114	5.59
388.479	5.77
388.845	5.86
389.21	5.81
389.575	5.36
389.94	5.73
390.306	5.82
390.671	5.63
391.036	5.87
391.401	5.87
391.766	5.98
392.131	5.73
392.496	5.68
392.861	5.87
393.226	5.96
393.591	5.67
393.956	6.05
394.32	6.07
394.685	5.7
395.05	6.27
395.414	6.11
395.779	5.74
396.143	5.98
396.508	5.89
396.872	5.91
397.236	5.93
397.601	5.64
397.965	5.78
398.329	5.6
398.694	6.06
399.058	5.7
399.422	6
399.786	5.72
400.15	5.84
400.514	5.85
400.878	6.04
401.242	5.93
401.605	5.85
401.969	5.79
402.333	5.71
402.697	5.92
403.06	5.83
403.424	5.62
403.787	5.82
404.151	5.67
404.514	5.97
404.878	6.17
405.241	6.01
405.604	5.94
405.968	5.99
406.331	5.95
406.694	5.95
407.057	5.78
407.42	6.3
407.783	6.07
408.146	5.71
408.509	5.95
408.872	6.2
409.235	5.81
409.598	5.95
409.961	5.74
410.323	5.96
410.686	5.82
411.049	5.85
411.411	5.9
411.774	6.08
412.136	6.05
412.499	6.18
412.861	6.05
413.223	5.96
413.586	5.86
413.948	6.03
414.31	6.22
414.672	5.82
415.035	5.85
415.397	6.07
415.759	5.77
416.121	5.96
416.483	5.88
416.845	6.05
417.206	6
417.568	6
417.93	6.07
418.292	5.84
418.653	5.98
419.015	6.02
419.377	5.9
419.738	5.87
420.1	5.82
420.461	5.81
420.822	5.93
421.184	5.99
421.545	5.83
421.906	5.95
422.267	5.82
422.629	5.97
422.99	5.81
423.351	5.9
423.712	5.81
424.073	5.85
424.434	5.86
424.795	5.85
425.155	5.97
425.516	5.85
425.877	5.9
426.238	5.84
426.598	5.97
426.959	5.83
427.32	5.88
427.68	5.96
428.041	5.94
428.401	6.02
428.761	5.93
429.122	5.91
429.482	6.04
429.842	6.03
430.202	6.11
430.563	6.15
430.923	6.06
431.283	6.03
431.643	6.24
432.003	6.24
432.363	6.2
432.722	6.2
433.082	6.04
433.442	6.02
433.802	6.25
434.161	5.86
434.521	6.15
434.881	6.22
435.24	6.23
435.6	6.02
435.959	6.07
436.319	6.06
436.678	6.13
437.037	6
437.396	6.24
437.756	5.99
438.115	6.01
438.474	6.12
438.833	6.06
439.192	5.93
439.551	6.01
439.91	5.98
440.269	6.23
440.628	6.14
440.987	6.09
441.345	6.05
441.704	5.96
442.063	6.08
442.421	6.06
442.78	6
443.138	6.16
443.497	6
443.855	6.1
444.214	6
444.572	6
444.93	6.23
445.288	6.11
445.647	6.3
446.005	5.98
446.363	6.26
446.721	6.13
447.079	6.2
447.437	6.05
447.795	6.06
448.153	5.98
448.51	5.97
448.868	5.92
449.226	6
449.584	6.14
449.941	6.09
450.299	6.1
450.656	6.06
451.014	6.03
451.371	6.1
451.729	6.05
452.086	6.2
452.443	6.16
452.801	5.89
453.158	6.18
453.515	6.11
453.872	6.2
454.229	6.25
454.586	6.17
454.943	6.22
455.3	6.17
455.657	6.26
456.014	6
456.371	6.31
456.727	6.25
457.084	6.18
457.441	6.14
457.797	6.26
458.154	6.16
458.51	6.12
458.867	6.11
459.223	6.26
459.58	6.15
459.936	6.2
460.292	6.11
460.648	6.13
461.005	6.12
461.361	6.22
461.717	6.01
462.073	6.18
462.429	6.09
462.785	6.07
463.141	6.24
463.496	6.14
463.852	6.17
464.208	6.29
464.564	6.19
464.919	6.17
465.275	6.37
465.631	6.29
465.986	6.44
466.342	6.1
466.697	6.21
467.052	6.28
467.408	6.35
467.763	6.43
468.118	6.49
468.473	6.3
468.829	6.11
469.184	6.29
469.539	6.21
469.894	6.18
470.249	6.2
470.603	6.4
470.958	6.32
471.313	6.36
471.668	6.32
472.023	6.29
472.377	6.33
472.732	6.12
473.086	6.33
473.441	6.41
473.795	6.49
474.15	6.16
474.504	6.25
474.859	6.26
475.213	6.28
475.567	6.27
475.921	6.46
476.275	6.11
476.63	6.38
476.984	6.24
477.338	6.13
477.692	6.37
478.045	6.2
478.399	6.26
478.753	6.29
479.107	6.25
479.461	6.28
479.814	6.39
480.168	6.33
480.521	6.35
480.875	6.21
481.228	6.25
481.582	6.29
481.935	6.25
482.289	6.25
482.642	6.19
482.995	6.32
483.348	6.42
483.701	6.18
484.055	6.28
484.408	6.14
484.761	6.08
485.114	5.97
485.466	6.03
485.819	5.92
486.172	5.83
486.525	5.89
486.878	5.95
487.23	5.93
487.583	6.02
487.936	6.06
488.288	6.09
488.641	6.15
488.993	6.04
489.345	5.98
489.698	6.01
490.05	5.98
490.402	5.98
490.754	5.98
491.107	5.98
491.459	6.12
491.811	6.18
492.163	6.11
492.515	6.2
492.866	6.27
493.218	6.03
493.57	6.01
493.922	6.08
494.274	6.08
494.625	6.11
494.977	6.12
495.328	6.23
495.68	6.39
496.031	6.14
496.383	6.25
496.734	6.31
497.086	6.31
497.437	6.3
497.788	6.24
498.139	6.29
498.49	6.26
498.842	6.26
499.193	6.24
499.544	6.29
499.894	6.28
500.245	6.36
500.596	6.3
500.947	6.3
501.298	6.28
501.648	6.32
501.999	6.34
502.35	6.43
502.7	6.44
503.051	6.37
503.401	6.37
503.752	6.37
504.102	6.49
504.452	6.37
504.803	6.26
505.153	6.4
505.503	6.35
505.853	6.47
506.203	6.32
506.553	6.2
506.903	6.33
507.253	6.31
507.603	6.22
507.953	6.35
508.303	6.28
508.652	6.33
509.002	6.32
509.352	6.53
509.701	6.39
510.051	6.37
510.4	6.24
510.75	6.37
511.099	6.38
511.449	6.35
511.798	6.46
512.147	6.3
512.496	6.38
512.846	6.27
513.195	6.38
513.544	6.39
513.893	6.29
514.242	6.4
514.591	6.43
514.939	6.28
515.288	6.21
515.637	6.38
515.986	6.43
516.334	6.32
516.683	6.28
517.032	6.14
517.38	6.34
517.729	6.36
518.077	6.38
518.426	6.43
518.774	6.27
519.122	6.29
519.47	6.4
519.819	6.3
520.167	6.19
520.515	6.25
520.863	6.31
521.211	6.3
521.559	6.32
521.907	6.32
522.255	6.3
522.602	6.43
522.95	6.24
523.298	6.44
523.645	6.51
523.993	6.38
524.341	6.32
524.688	6.37
525.036	6.41
525.383	6.32
525.73	6.51
526.078	6.38
526.425	6.45
526.772	6.38
527.119	6.3
527.466	6.25
527.814	6.22
528.161	6.32
528.508	6.25
528.854	6.29
529.201	6.2
529.548	6.24
529.895	6.18
530.242	6.17
530.588	6.04
530.935	6.1
531.282	6.14
531.628	6.12
531.975	6.08
532.321	6.14
532.667	6.12
533.014	6.26
533.36	6.33
533.706	6.32
534.052	6.26
534.399	6.29
534.745	6.24
535.091	6.17
535.437	6.21
535.783	6.2
536.129	6.25
536.474	6.27
536.82	6.27
537.166	6.3
537.512	6.45
537.857	6.46
538.203	6.27
538.549	6.37
538.894	6.32
539.239	6.23
539.585	6.31
539.93	6.35
540.276	6.47
540.621	6.38
540.966	6.4
541.311	6.52
541.656	6.43
542.001	6.51
542.346	6.52
542.691	6.36
543.036	6.32
543.381	6.21
543.726	6.19
544.071	6.2
544.415	6.21
544.76	6.2
545.105	6.27
545.449	6.25
545.794	6.31
546.138	6.27
546.483	6.33
546.827	6.35
547.171	6.4
547.516	6.37
547.86	6.41
548.204	6.28
548.548	6.26
548.892	6.33
549.236	6.45
549.58	6.32
549.924	6.4
550.268	6.41
550.612	6.37
550.956	6.56
551.3	6.49
551.643	6.34
551.987	6.52
552.33	6.51
552.674	6.46
553.017	6.53
553.361	6.71
553.704	6.45
554.048	6.44
554.391	6.46
554.734	6.56
555.077	6.45
555.42	6.3
555.764	6.44
556.107	6.62
556.45	6.48
556.793	6.34
557.135	6.54
557.478	6.59
557.821	6.65
558.164	6.71
558.507	6.67
558.849	6.57
559.192	6.4
559.534	6.71
559.877	6.42
560.219	6.67
560.562	6.61
560.904	6.3
561.246	6.43
561.589	6.47
561.931	6.51
562.273	6.66
562.615	6.64
562.957	6.64
563.299	6.47
563.641	6.68
563.983	6.37
564.325	6.56
564.667	6.58
565.008	6.57
565.35	6.62
565.692	6.64
566.033	6.74
566.375	6.45
566.716	6.69
567.058	6.47
567.399	6.66
567.741	6.43
568.082	6.68
568.423	6.51
568.764	6.44
569.105	6.65
569.447	6.45
569.788	6.4
570.129	6.45
570.47	6.51
570.811	6.63
571.151	6.41
571.492	6.64
571.833	6.62
572.174	6.66
572.514	6.58
572.855	6.52
573.195	6.55
573.536	6.51
573.876	6.63
574.217	6.32
574.557	6.37
574.898	6.4
575.238	6.35
575.578	6.65
575.918	6.42
576.258	6.43
576.598	6.63
576.938	6.64
577.278	6.58
577.618	6.34
577.958	6.41
578.298	6.61
578.638	6.54
578.977	6.59
579.317	6.59
579.657	6.63
579.996	6.58
580.336	6.71
580.675	6.63
581.014	6.53
581.354	6.71
581.693	6.67
582.032	6.53
582.372	6.49
582.711	6.7
583.05	6.75
583.389	6.45
583.728	6.57
584.067	6.73
584.406	6.4
584.745	6.6
585.083	6.71
585.422	6.33
585.761	6.48
586.1	6.65
586.438	6.46
586.777	6.65
587.115	6.68
587.454	6.69
587.792	6.71
588.13	6.68
588.469	6.8
588.807	6.43
589.145	6.5
589.483	6.53
589.821	6.42
590.159	6.54
590.497	6.61
590.835	6.46
591.173	6.51
591.511	6.69
591.849	6.68
592.187	6.8
592.524	6.41
592.862	6.5
593.2	6.53
593.537	6.36
593.875	6.57
594.212	6.73
594.55	6.66
594.887	6.7
595.224	6.59
595.561	6.48
595.899	6.46
596.236	6.5
596.573	6.82
596.91	6.83
597.247	6.67
597.584	6.45
597.921	6.66
598.258	6.54
598.594	6.6
598.931	6.53
599.268	6.34
599.604	6.46
599.941	6.66
600.277	6.64
600.614	6.62
600.95	6.49
601.287	6.38
601.623	6.47
601.959	6.73
602.296	6.54
602.632	6.5
602.968	6.44
603.304	6.6
603.64	6.58
603.976	6.58
604.312	6.72
604.648	6.68
604.984	6.87
605.319	6.51
605.655	6.5
605.991	6.65
606.326	6.66
606.662	6.35
606.998	6.38
607.333	6.49
607.668	6.31
608.004	6.4
608.339	6.64
608.674	6.55
609.01	6.66
609.345	6.78
609.68	6.67
610.015	6.58
610.35	6.68
610.685	6.74
611.02	6.73
611.355	6.46
611.689	6.65
612.024	6.62
612.359	6.53
612.694	6.56
613.028	6.7
613.363	6.54
613.697	6.3
614.032	6.93
614.366	6.85
614.7	6.52
615.035	6.72
615.369	6.72
615.703	6.44
616.037	6.72
616.371	6.57
616.705	6.35
617.039	6.78
617.373	6.62
617.707	6.87
618.041	6.89
618.375	6.65
618.709	6.37
619.042	6.74
619.376	6.72
619.71	6.88
620.043	6.69
620.377	6.2
620.71	6.91
621.043	6.96
621.377	6.7
621.71	6.66
622.043	6.5
622.376	6.92
622.709	7.16
623.043	6.84
623.376	6.65
623.709	6.45
624.041	6.6
624.374	6.88
624.707	6.65
625.04	6.85
625.373	6.88
625.705	6.56
626.038	6.82
626.37	6.38
626.703	6.18
627.035	6.52
627.368	6.68
627.7	7.04
628.032	6.96
628.365	6.99
628.697	6.69
629.029	6.9
629.361	6.9
629.693	6.52
630.025	6.42
630.357	6.62
630.689	6.58
631.021	7.05
631.353	6.95
631.684	6.62
632.016	6.6
632.348	6.51
632.679	6.41
633.011	6.96
633.342	6.79
633.674	6.65
634.005	6.74
634.336	7
634.668	6.46
634.999	6.57
635.33	6.36
635.661	7.19
635.992	7.02
636.323	7.14
636.654	6.96
636.985	6.69
637.316	6.99
637.647	6.55
637.977	6.51
638.308	6.47
638.639	6.59
638.969	6.97
639.3	6.53
639.63	6.82
639.961	6.53
640.291	6.92
640.622	6.78
640.952	6.77
641.282	6.77
641.612	6.73
641.943	6.73
642.273	6.5
642.603	7.35
642.933	7.13
643.263	7.14
643.592	6.97
643.922	7.33
644.252	6.25
644.582	6.64
644.911	7.03
645.241	7.02
645.571	7.03
645.9	6.76
646.23	6.55
646.559	6.5
646.888	7.07
647.218	7.15
647.547	7.03
647.876	6.57
648.205	6.96
648.534	6.55
648.863	6.84
649.192	6.76
649.521	6.87
649.85	6.98
650.179	6.66
650.508	6.66
650.837	6.77
651.165	7.14
651.494	7.44
651.822	7.37
652.151	7.4
652.479	6.66
652.808	7.02
653.136	6.58
653.465	6.71
653.793	6.92
654.121	7.02
654.449	6.78
654.777	6.86
655.105	7.18
655.433	6.95
655.761	7.29
656.089	6.97
656.417	6.49
656.745	6.85
657.073	6.97
657.4	7.81
657.728	7.49
658.056	6.98
658.383	6.99
658.711	6.98
659.038	6.65
659.365	6.63
659.693	7
660.02	6.79
660.347	6.52
660.674	7.01
661.001	6.63
661.329	6.69
661.656	7
661.982	6.74
662.309	7.07
662.636	6.96
662.963	6.82
663.29	7.28
663.616	6.89
663.943	6.82
664.27	7.21
664.596	6.83
664.923	6.72
665.249	6.62
665.576	7.22
665.902	6.76
666.228	7.25
666.554	7.46
666.881	6.5
667.207	7.33
667.533	7.22
667.859	7.35
668.185	7.16
668.511	7.4
668.837	7.32
669.162	7.28
669.488	7.55
669.814	6.6
670.139	7.58
670.465	6.93
670.791	7.5
671.116	7.03
671.442	7.08
671.767	6.94
672.092	7.48
672.418	6.94
672.743	6.68
673.068	7.33
673.393	7.18
673.718	6.89
674.043	6.9
674.368	6.86
674.693	7.68
675.018	7.38
675.343	7.09
675.667	7.76
675.992	7.7
676.317	7.7
676.641	7.15
676.966	7.59
677.29	7.33
677.615	7.27
677.939	6.75
678.264	7.11
678.588	6.66
678.912	7.56
679.236	7.02
679.56	7.18
679.885	7.13
680.209	7.62
680.532	7.19
680.856	7.15
681.18	7.25
681.504	7.26
681.828	7.61
682.152	7.26
682.475	7.17
682.799	6.99
683.122	7.18
683.446	7.56
683.769	7.39
684.093	7.77
684.416	7.01
684.739	6.73
685.062	6.59
685.386	7.09
685.709	7.43
686.032	6.76
686.355	8.19
686.678	7.47
687.001	7.43
687.324	7.18
687.646	7.53
687.969	7.98
688.292	7.52
688.614	7.24
688.937	7
689.26	7.41
689.582	6.93
689.904	6.83
690.227	7.93
690.549	7.37
690.871	7.1
691.194	7.72
691.516	7.88
691.838	8.01
692.16	7.29
692.482	6.81
692.804	7.45
693.126	7.02
693.448	8.04
693.769	7.56
