Data from 0344_crown_Reflection__4__333.txt Node

Date: Fri Oct 20 23:18:37 CDT 2023
User: ToomeyLab
Spectrometer: FLMS14357
Trigger mode: 0
Integration Time (sec): 1.000000E-2
Scans to average: 100
Electric dark correction enabled: true
Nonlinearity correction enabled: false
Boxcar width: 0
XAxis mode: Wavelengths
Number of Pixels in Spectrum: 2048
>>>>>Begin Spectral Data<<<<<
189.047	-93.46
189.435	-93.46
189.823	-93.46
190.211	-133.71
190.599	-25.65
190.987	251.91
191.375	-80.17
191.763	66.61
192.151	-353.46
192.538	52.55
192.926	27.25
193.314	150.81
193.702	74.62
194.089	147.5
194.477	140.85
194.864	134.16
195.252	94.76
195.639	137.9
196.027	-148.5
196.414	100.35
196.801	46.13
197.189	-93.87
197.576	168.45
197.963	-148.38
198.351	19.63
198.738	-9.97
199.125	-4.24
199.512	-15.04
199.899	3.35
200.286	-43.06
200.673	31.65
201.06	-30.79
201.447	25.6
201.833	31.45
202.22	34.61
202.607	25.19
202.994	-12.64
203.38	-12.46
203.767	-29.28
204.154	30.54
204.54	42.96
204.927	4.82
205.313	1.21
205.699	30.13
206.086	2.96
206.472	44.99
206.858	42.24
207.245	-7.13
207.631	11.23
208.017	-6.35
208.403	16.05
208.789	27.81
209.175	2.3
209.561	-0.93
209.947	10.3
210.333	-30.86
210.719	0.31
211.105	10.54
211.491	14.35
211.876	-34.63
212.262	-8.43
212.648	16.09
213.034	-26.06
213.419	7.76
213.805	5.23
214.19	9.45
214.576	-16.38
214.961	-7.79
215.346	3.19
215.732	17.23
216.117	-58.17
216.502	11.59
216.888	6.15
217.273	-44.6
217.658	-7.25
218.043	-23.13
218.428	7.3
218.813	2.7
219.198	-1.24
219.583	-49.88
219.968	-22.57
220.353	3.01
220.738	13.89
221.122	-18.49
221.507	3.57
221.892	-0.12
222.276	13.09
222.661	6.79
223.046	12.72
223.43	0.98
223.815	15.22
224.199	19.3
224.583	-4.78
224.968	-5.16
225.352	-8.56
225.736	-13.92
226.121	-3.13
226.505	-0.27
226.889	7.04
227.273	0.54
227.657	9.79
228.041	10.43
228.425	1.88
228.809	7.39
229.193	3.26
229.577	7.85
229.961	4.63
230.344	5.39
230.728	5.38
231.112	6.31
231.495	5.25
231.879	5.91
232.263	7.2
232.646	4.17
233.03	4.23
233.413	4.51
233.797	5.96
234.18	6.22
234.563	7.33
234.946	6
235.33	5.86
235.713	6.27
236.096	6.29
236.479	5.41
236.862	5.53
237.245	4.42
237.628	5.89
238.011	4.55
238.394	5.06
238.777	6.14
239.16	4.49
239.543	5.85
239.925	4.82
240.308	5.63
240.691	6.33
241.073	6.37
241.456	5.29
241.838	5.56
242.221	6.61
242.603	5.51
242.986	6.44
243.368	5.98
243.75	5.29
244.133	4.97
244.515	5.43
244.897	5.72
245.279	5.79
245.661	5.71
246.043	4.5
246.425	5.16
246.807	4.63
247.189	4.42
247.571	4.48
247.953	5.11
248.335	5.57
248.717	5.29
249.098	5.1
249.48	5.55
249.862	5.67
250.243	5.59
250.625	5.5
251.006	5.84
251.388	5.85
251.769	5.73
252.151	4.55
252.532	6.41
252.913	5.66
253.295	3.55
253.676	5.42
254.057	5.1
254.438	5.32
254.819	5.54
255.2	4.78
255.581	6.04
255.962	4.73
256.343	4.67
256.724	4.09
257.105	5.19
257.486	6.07
257.867	4.29
258.247	5.01
258.628	4.92
259.009	4.72
259.389	4.74
259.77	3.9
260.15	4.72
260.531	5.08
260.911	5.01
261.292	4.88
261.672	5.06
262.052	5.1
262.432	5.09
262.813	5.11
263.193	5.18
263.573	5.29
263.953	4.59
264.333	5.66
264.713	4.89
265.093	4.92
265.473	5.35
265.853	4.97
266.233	4.31
266.612	4.6
266.992	4.42
267.372	4.79
267.752	5.3
268.131	5.21
268.511	4.81
268.89	5.04
269.27	4.66
269.649	4.15
270.029	5.02
270.408	4.68
270.787	4.43
271.167	5.46
271.546	4.76
271.925	5.47
272.304	4.9
272.683	5.4
273.062	4.69
273.441	4.8
273.82	4.72
274.199	5.06
274.578	5.08
274.957	5.15
275.336	4.63
275.715	5.17
276.093	4.95
276.472	4.59
276.851	4.91
277.229	4.82
277.608	4.44
277.986	4.42
278.365	5.23
278.743	4.36
279.122	4.76
279.5	5.07
279.878	4.21
280.257	4.58
280.635	4.68
281.013	5.49
281.391	5.07
281.769	4.68
282.147	4.45
282.525	4.81
282.903	4.94
283.281	4.71
283.659	4.77
284.037	4.84
284.415	4.21
284.792	4.46
285.17	4.88
285.548	4.37
285.925	4.28
286.303	4.77
286.68	4.7
287.058	5.31
287.435	4.68
287.813	4.41
288.19	4.65
288.567	4.78
288.945	4.68
289.322	5.19
289.699	4.07
290.076	5.41
290.453	4.66
290.83	4.73
291.207	5.11
291.584	4.32
291.961	4.66
292.338	4.71
292.715	5.01
293.092	4.56
293.469	4.63
293.845	4.53
294.222	4.52
294.599	4.76
294.975	5.65
295.352	4.78
295.728	4.69
296.105	4.56
296.481	4.8
296.858	4.44
297.234	4.78
297.61	4.26
297.986	4.5
298.363	4.99
298.739	5.01
299.115	4.52
299.491	4.74
299.867	4.82
300.243	4.71
300.619	4.69
300.995	4.44
301.371	4.8
301.746	4.74
302.122	4.92
302.498	4.82
302.874	4.9
303.249	4.63
303.625	5.3
304	5.3
304.376	4.55
304.751	4.59
305.127	4.31
305.502	5.19
305.878	4.81
306.253	4.51
306.628	4.92
307.003	4.92
307.378	5.15
307.754	4.52
308.129	5.29
308.504	5.05
308.879	5.08
309.254	5.2
309.629	4.03
310.003	4.19
310.378	5.05
310.753	4.95
311.128	4.96
311.502	4.78
311.877	4.77
312.252	4.92
312.626	5.09
313.001	5.1
313.375	4.92
313.75	5.14
314.124	4.64
314.498	5.01
314.873	4.54
315.247	4.57
315.621	4.54
315.995	5.06
316.369	3.89
316.743	5.13
317.117	4.61
317.491	4.17
317.865	4.77
318.239	5.1
318.613	5.08
318.987	4.5
319.361	4.32
319.734	4.8
320.108	4.69
320.482	4.93
320.855	5.32
321.229	5.02
321.602	4.93
321.976	4.91
322.349	5.43
322.723	4.3
323.096	4.79
323.469	4.47
323.843	4.41
324.216	4.69
324.589	4.59
324.962	5.48
325.335	5.16
325.708	4.61
326.081	4.89
326.454	4.92
326.827	5.05
327.2	5.15
327.573	5.07
327.945	4.37
328.318	4.2
328.691	4.19
329.063	5.11
329.436	4.47
329.809	4.87
330.181	4.52
330.553	4.65
330.926	4.74
331.298	4.52
331.671	4.47
332.043	4.39
332.415	4.87
332.787	5.04
333.159	4.59
333.532	4.85
333.904	4.66
334.276	4.28
334.648	4.59
335.02	4.64
335.391	4.52
335.763	4.99
336.135	4.92
336.507	4.47
336.879	4.62
337.25	4.9
337.622	5.01
337.993	5.27
338.365	4.78
338.736	4.86
339.108	5.31
339.479	4.62
339.851	5.07
340.222	4.63
340.593	4.31
340.964	4.65
341.336	5.15
341.707	4.74
342.078	4.87
342.449	4.33
342.82	4.5
343.191	4.8
343.562	4.78
343.933	4.87
344.303	4.8
344.674	4.82
345.045	5.07
345.416	5.29
345.786	4.56
346.157	4.91
346.527	4.96
346.898	4.72
347.268	5.08
347.639	5.31
348.009	4.78
348.38	4.96
348.75	4.97
349.12	4.83
349.49	4.54
349.861	5.43
350.231	4.59
350.601	5.18
350.971	5.05
351.341	4.99
351.711	5.53
352.081	4.93
352.45	4.82
352.82	4.69
353.19	5.03
353.56	5.04
353.929	4.63
354.299	4.44
354.669	4.81
355.038	5.08
355.408	5.14
355.777	5.06
356.147	4.44
356.516	4.81
356.885	4.71
357.254	4.85
357.624	5.24
357.993	4.64
358.362	5.22
358.731	4.57
359.1	4.47
359.469	4.44
359.838	4.76
360.207	4.99
360.576	5.21
360.945	4.69
361.314	4.76
361.682	4.92
362.051	4.79
362.42	4.77
362.788	4.55
363.157	4.94
363.525	4.67
363.894	4.84
364.262	4.66
364.631	4.99
364.999	4.75
365.367	4.82
365.735	4.81
366.104	4.5
366.472	4.85
366.84	5.03
367.208	5.14
367.576	4.74
367.944	5.17
368.312	4.65
368.68	4.76
369.048	4.88
369.416	4.94
369.783	4.97
370.151	5.03
370.519	4.99
370.886	5.04
371.254	4.97
371.621	5.05
371.989	4.94
372.356	5.07
372.724	5.05
373.091	5.11
373.458	4.67
373.826	5.13
374.193	4.85
374.56	4.75
374.927	4.97
375.294	4.78
375.661	5.1
376.028	4.99
376.395	5.25
376.762	4.6
377.129	4.75
377.496	5.11
377.863	5.36
378.229	5.17
378.596	4.83
378.963	4.76
379.329	4.97
379.696	5.05
380.062	4.88
380.429	4.9
380.795	4.81
381.161	4.92
381.528	4.98
381.894	5.12
382.26	4.9
382.626	5.15
382.993	4.92
383.359	4.85
383.725	5.07
384.091	4.72
384.457	5.44
384.823	5.33
385.188	5.19
385.554	4.94
385.92	5.09
386.286	4.95
386.651	5.23
387.017	4.98
387.383	4.82
387.748	4.75
388.114	4.97
388.479	5.08
388.845	5.11
389.21	5.01
389.575	4.91
389.94	5.14
390.306	4.86
390.671	5.1
391.036	5.03
391.401	5.26
391.766	4.98
392.131	5.05
392.496	4.75
392.861	5.23
393.226	5.09
393.591	5.15
393.956	5.08
394.32	5.25
394.685	5.04
395.05	5.15
395.414	5.34
395.779	5.02
396.143	4.89
396.508	5.01
396.872	5.16
397.236	5.05
397.601	5.06
397.965	5.09
398.329	5.02
398.694	5.06
399.058	4.73
399.422	5.01
399.786	4.98
400.15	4.98
400.514	4.92
400.878	5.14
401.242	5.3
401.605	5.06
401.969	4.83
402.333	5.22
402.697	5.08
403.06	5.14
403.424	5.08
403.787	5.06
404.151	4.76
404.514	5.21
404.878	5.01
405.241	5.21
405.604	5.16
405.968	4.97
406.331	5.17
406.694	5.06
407.057	5.03
407.42	5.22
407.783	5.27
408.146	5.11
408.509	5.05
408.872	5.2
409.235	5.15
409.598	4.97
409.961	5.35
410.323	5.1
410.686	5
411.049	5.14
411.411	5.23
411.774	5.06
412.136	4.85
412.499	5.18
412.861	5.14
413.223	5.15
413.586	5.27
413.948	5.14
414.31	5.22
414.672	5.01
415.035	5.19
415.397	5.31
415.759	5.18
416.121	5.32
416.483	5.33
416.845	4.89
417.206	5.33
417.568	5.33
417.93	5.16
418.292	4.88
418.653	5.25
419.015	5.15
419.377	5.11
419.738	5.01
420.1	5.02
420.461	5.1
420.822	5.09
421.184	5.14
421.545	5.13
421.906	5.12
422.267	5.1
422.629	5.25
422.99	5.06
423.351	5.08
423.712	5.12
424.073	5.11
424.434	5.05
424.795	5.05
425.155	5.11
425.516	5.05
425.877	5.2
426.238	4.92
426.598	5.06
426.959	5.1
427.32	5.22
427.68	5.13
428.041	4.99
428.401	5.19
428.761	5.29
429.122	5.08
429.482	5.16
429.842	5.19
430.202	5.16
430.563	5.19
430.923	5.18
431.283	5
431.643	5.24
432.003	5.36
432.363	5.09
432.722	5.34
433.082	5.37
433.442	5.11
433.802	5.4
434.161	5.15
434.521	5.23
434.881	5.26
435.24	5.32
435.6	5.28
435.959	5.16
436.319	5.24
436.678	5.42
437.037	5.1
437.396	5.37
437.756	5.39
438.115	5.19
438.474	5.32
438.833	5.35
439.192	5.21
439.551	5.27
439.91	5.28
440.269	5.37
440.628	5.25
440.987	5.4
441.345	5.23
441.704	5.31
442.063	5.24
442.421	5.26
442.78	5.27
443.138	5.46
443.497	5.38
443.855	5.19
444.214	5.24
444.572	5.23
444.93	5.4
445.288	5.43
445.647	5.45
446.005	5.24
446.363	5.26
446.721	5.41
447.079	5.39
447.437	5.28
447.795	5.21
448.153	5.3
448.51	5.21
448.868	5.24
449.226	5.31
449.584	5.34
449.941	5.28
450.299	5.36
450.656	5.25
451.014	5.28
451.371	5.32
451.729	5.17
452.086	5.49
452.443	5.36
452.801	5.2
453.158	5.38
453.515	5.32
453.872	5.33
454.229	5.41
454.586	5.48
454.943	5.36
455.3	5.3
455.657	5.5
456.014	5.26
456.371	5.21
456.727	5.32
457.084	5.52
457.441	5.58
457.797	5.43
458.154	5.28
458.51	5.35
458.867	5.33
459.223	5.53
459.58	5.35
459.936	5.34
460.292	5.4
460.648	5.33
461.005	5.31
461.361	5.42
461.717	5.23
462.073	5.33
462.429	5.31
462.785	5.4
463.141	5.46
463.496	5.33
463.852	5.45
464.208	5.54
464.564	5.49
464.919	5.45
465.275	5.56
465.631	5.44
465.986	5.44
466.342	5.53
466.697	5.36
467.052	5.39
467.408	5.64
467.763	5.51
468.118	5.65
468.473	5.56
468.829	5.57
469.184	5.54
469.539	5.59
469.894	5.6
470.249	5.57
470.603	5.47
470.958	5.55
471.313	5.61
471.668	5.5
472.023	5.46
472.377	5.34
472.732	5.43
473.086	5.56
473.441	5.62
473.795	5.65
474.15	5.51
474.504	5.52
474.859	5.54
475.213	5.65
475.567	5.55
475.921	5.52
476.275	5.59
476.63	5.64
476.984	5.58
477.338	5.49
477.692	5.6
478.045	5.6
478.399	5.6
478.753	5.73
479.107	5.64
479.461	5.65
479.814	5.71
480.168	5.59
480.521	5.72
480.875	5.62
481.228	5.56
481.582	5.66
481.935	5.56
482.289	5.69
482.642	5.45
482.995	5.49
483.348	5.64
483.701	5.7
484.055	5.48
484.408	5.51
484.761	5.4
485.114	5.37
485.466	5.39
485.819	5.31
486.172	5.28
486.525	5.34
486.878	5.33
487.23	5.37
487.583	5.44
487.936	5.44
488.288	5.54
488.641	5.56
488.993	5.47
489.345	5.43
489.698	5.41
490.05	5.4
490.402	5.41
490.754	5.42
491.107	5.45
491.459	5.49
491.811	5.49
492.163	5.52
492.515	5.65
492.866	5.58
493.218	5.53
493.57	5.45
493.922	5.47
494.274	5.53
494.625	5.5
494.977	5.48
495.328	5.68
495.68	5.63
496.031	5.58
496.383	5.72
496.734	5.74
497.086	5.65
497.437	5.75
497.788	5.6
498.139	5.97
498.49	5.64
498.842	5.69
499.193	5.75
499.544	5.63
499.894	5.63
500.245	5.58
500.596	5.75
500.947	5.71
501.298	5.8
501.648	5.7
501.999	5.81
502.35	5.71
502.7	5.88
503.051	5.72
503.401	5.67
503.752	5.89
504.102	5.76
504.452	5.73
504.803	5.75
505.153	5.85
505.503	5.87
505.853	5.89
506.203	5.77
506.553	5.75
506.903	5.75
507.253	5.84
507.603	5.73
507.953	5.67
508.303	5.78
508.652	5.91
509.002	5.83
509.352	5.92
509.701	5.85
510.051	5.73
510.4	5.85
510.75	5.88
511.099	5.85
511.449	5.79
511.798	5.93
512.147	5.79
512.496	5.85
512.846	5.8
513.195	5.86
513.544	5.91
513.893	5.7
514.242	5.86
514.591	5.82
514.939	5.75
515.288	5.82
515.637	5.93
515.986	5.86
516.334	5.93
516.683	5.86
517.032	5.75
517.38	5.82
517.729	5.93
518.077	5.93
518.426	5.83
518.774	5.91
519.122	5.96
519.47	5.89
519.819	5.82
520.167	5.88
520.515	5.8
520.863	5.87
521.211	5.81
521.559	5.83
521.907	5.79
522.255	5.85
522.602	5.95
522.95	5.91
523.298	5.82
523.645	6.05
523.993	5.86
524.341	6.09
524.688	5.92
525.036	5.94
525.383	5.94
525.73	6.05
526.078	6
526.425	5.98
526.772	5.91
527.119	5.98
527.466	5.88
527.814	5.88
528.161	5.88
528.508	5.88
528.854	5.86
529.201	5.84
529.548	5.88
529.895	5.85
530.242	5.82
530.588	5.75
530.935	5.76
531.282	5.76
531.628	5.8
531.975	5.76
532.321	5.8
532.667	5.85
533.014	6.01
533.36	5.99
533.706	5.95
534.052	6
534.399	5.89
534.745	5.92
535.091	5.87
535.437	5.95
535.783	5.92
536.129	5.92
536.474	5.93
536.82	5.96
537.166	5.9
537.512	6.13
537.857	6.07
538.203	5.99
538.549	6.05
538.894	5.91
539.239	5.95
539.585	5.99
539.93	5.97
540.276	6.18
540.621	6.07
540.966	6.13
541.311	6.11
541.656	6.1
542.001	6.14
542.346	6.13
542.691	5.94
543.036	6.01
543.381	5.95
543.726	5.94
544.071	5.96
544.415	5.9
544.76	5.93
545.105	6.02
545.449	6.01
545.794	6.08
546.138	5.99
546.483	6.01
546.827	6.21
547.171	6.11
547.516	6.03
547.86	6.2
548.204	6.07
548.548	6.13
548.892	6.11
549.236	6.18
549.58	6.08
549.924	6.07
550.268	6.12
550.612	6.19
550.956	6.39
551.3	6.17
551.643	6.2
551.987	6.24
552.33	6.2
552.674	6.18
553.017	6.15
553.361	6.3
553.704	6.31
554.048	6.38
554.391	6.36
554.734	6.39
555.077	6.25
555.42	6.11
555.764	6.34
556.107	6.4
556.45	6.19
556.793	6.15
557.135	6.28
557.478	6.23
557.821	6.44
558.164	6.39
558.507	6.59
558.849	6.52
559.192	6.37
559.534	6.42
559.877	6.18
560.219	6.42
560.562	6.35
560.904	6.15
561.246	6.4
561.589	6.43
561.931	6.4
562.273	6.5
562.615	6.68
562.957	6.44
563.299	6.44
563.641	6.45
563.983	6.48
564.325	6.43
564.667	6.51
565.008	6.37
565.35	6.44
565.692	6.44
566.033	6.43
566.375	6.42
566.716	6.52
567.058	6.43
567.399	6.45
567.741	6.51
568.082	6.55
568.423	6.51
568.764	6.48
569.105	6.64
569.447	6.38
569.788	6.46
570.129	6.48
570.47	6.5
570.811	6.83
571.151	6.53
571.492	6.51
571.833	6.51
572.174	6.63
572.514	6.61
572.855	6.41
573.195	6.43
573.536	6.5
573.876	6.66
574.217	6.35
574.557	6.43
574.898	6.37
575.238	6.46
575.578	6.64
575.918	6.43
576.258	6.56
576.598	6.68
576.938	6.63
577.278	6.6
577.618	6.46
577.958	6.54
578.298	6.48
578.638	6.67
578.977	6.62
579.317	6.53
579.657	6.57
579.996	6.57
580.336	6.69
580.675	6.52
581.014	6.72
581.354	6.76
581.693	6.56
582.032	6.74
582.372	6.72
582.711	6.76
583.05	6.88
583.389	6.68
583.728	6.68
584.067	6.67
584.406	6.71
584.745	6.74
585.083	6.7
585.422	6.82
585.761	6.74
586.1	6.8
586.438	6.55
586.777	6.96
587.115	6.9
587.454	6.88
587.792	6.56
588.13	6.65
588.469	6.77
588.807	6.52
589.145	6.76
589.483	6.47
589.821	6.73
590.159	6.93
590.497	6.73
590.835	6.9
591.173	6.92
591.511	6.7
591.849	6.95
592.187	6.66
592.524	6.73
592.862	6.74
593.2	6.94
593.537	6.81
593.875	6.8
594.212	7
594.55	6.82
594.887	6.79
595.224	6.77
595.561	6.73
595.899	6.67
596.236	6.83
596.573	6.74
596.91	7.01
597.247	6.79
597.584	6.75
597.921	6.91
598.258	6.85
598.594	7.05
598.931	6.69
599.268	6.48
599.604	6.96
599.941	6.79
600.277	6.81
600.614	6.85
600.95	6.91
601.287	6.59
601.623	6.94
601.959	7.01
602.296	6.88
602.632	6.97
602.968	6.9
603.304	6.96
603.64	6.89
603.976	6.93
604.312	7.12
604.648	7.09
604.984	7.02
605.319	7.05
605.655	6.82
605.991	6.95
606.326	6.9
606.662	6.77
606.998	6.79
607.333	6.9
607.668	6.9
608.004	6.93
608.339	6.86
608.674	6.86
609.01	6.89
609.345	6.99
609.68	7.01
610.015	6.82
610.35	7.09
610.685	7.34
611.02	6.98
611.355	7
611.689	6.94
612.024	7.13
612.359	6.96
612.694	7.02
613.028	7.2
613.363	6.96
613.697	7.06
614.032	7.16
614.366	7.13
614.7	7.23
615.035	6.8
615.369	7.16
615.703	7
616.037	7.26
616.371	7.12
616.705	7.27
617.039	7.02
617.373	7.1
617.707	7.4
618.041	7.02
618.375	6.93
618.709	6.92
619.042	6.97
619.376	7.37
619.71	7.12
620.043	7.45
620.377	7.24
620.71	7.26
621.043	7.53
621.377	7.16
621.71	7.19
622.043	7.17
622.376	7.45
622.709	7.56
623.043	7.07
623.376	6.95
623.709	6.94
624.041	7.35
624.374	7.22
624.707	7.28
625.04	7.03
625.373	7.2
625.705	7.12
626.038	7.47
626.37	7.05
626.703	7.3
627.035	7.12
627.368	7.22
627.7	7.1
628.032	7.26
628.365	7.51
628.697	7.26
629.029	7.62
629.361	7.19
629.693	7.11
630.025	7.33
630.357	7.11
630.689	7.4
631.021	7.51
631.353	7.52
631.684	6.96
632.016	7.33
632.348	6.87
632.679	7.12
633.011	7.26
633.342	6.84
633.674	7.37
634.005	7.66
634.336	7.82
634.668	7.39
634.999	7.25
635.33	7.04
635.661	7.57
635.992	7.86
636.323	7.36
636.654	7.52
636.985	7.08
637.316	7.5
637.647	7.32
637.977	7.14
638.308	7.29
638.639	7.48
638.969	7.44
639.3	7.23
639.63	7.49
639.961	7.24
640.291	7.4
640.622	7.3
640.952	7.7
641.282	7.17
641.612	7.27
641.943	7.49
642.273	7.37
642.603	7.81
642.933	7.63
643.263	7.85
643.592	7.53
643.922	7.97
644.252	7.28
644.582	6.86
644.911	7.67
645.241	7.84
645.571	8.04
645.9	7.08
646.23	7.65
646.559	7.7
646.888	8.35
647.218	7.56
647.547	7.52
647.876	7.65
648.205	7.97
648.534	7.42
648.863	7.79
649.192	7.45
649.521	7.94
649.85	7.64
650.179	7.76
650.508	7.37
650.837	7.79
651.165	7.92
651.494	7.3
651.822	7.45
652.151	8.06
652.479	8.03
652.808	7.77
653.136	7.5
653.465	7.79
653.793	7.67
654.121	7.77
654.449	7.8
654.777	7.63
655.105	7.93
655.433	8
655.761	7.7
656.089	8.27
656.417	7.88
656.745	7.77
657.073	8.06
657.4	8.33
657.728	7.76
658.056	7.93
658.383	7.95
658.711	7.36
659.038	7.95
659.365	7.66
659.693	7.5
660.02	8.02
660.347	7.39
660.674	7.47
661.001	7.48
661.329	7.8
661.656	8
661.982	7.63
662.309	7.83
662.636	8.06
662.963	7.66
663.29	7.88
663.616	7.81
663.943	7.31
664.27	8.35
664.596	7.73
664.923	7.5
665.249	8.1
665.576	7.49
665.902	7.93
666.228	8.2
666.554	7.75
666.881	7.76
667.207	7.9
667.533	8.03
667.859	8.46
668.185	7.69
668.511	9.14
668.837	8.37
669.162	7.9
669.488	7.74
669.814	8.24
670.139	8.07
670.465	7.76
670.791	7.82
671.116	8.11
671.442	7.33
671.767	8.06
672.092	8.4
672.418	8.1
672.743	7.79
673.068	8.56
673.393	8.38
673.718	7.89
674.043	7.63
674.368	8.04
674.693	8.22
675.018	8.61
675.343	8.27
675.667	8.65
675.992	8.27
676.317	8.48
676.641	8.49
676.966	8.04
677.29	8.38
677.615	7.84
677.939	8.06
678.264	8.61
678.588	7.22
678.912	8.57
679.236	8.12
679.56	8.07
679.885	8.56
680.209	8.15
680.532	7.61
680.856	8.03
681.18	8.57
681.504	8.36
681.828	8.7
682.152	8.82
682.475	8.2
682.799	8.54
683.122	8.01
683.446	8.29
683.769	8.47
684.093	8.83
684.416	8.54
684.739	8.13
685.062	7.86
685.386	8.05
685.709	8.25
686.032	8.3
686.355	8.94
686.678	8.52
687.001	8.67
687.324	8.39
687.646	8.46
687.969	9.1
688.292	8.73
688.614	8.84
688.937	8.1
689.26	8.09
689.582	8
689.904	8.22
690.227	8.29
690.549	8.3
690.871	8.72
691.194	8.82
691.516	9.04
691.838	8.91
692.16	8.62
692.482	8.31
692.804	8.81
