Data from 0344_forehead_Reflection__3__337.txt Node

Date: Fri Oct 20 23:20:38 CDT 2023
User: ToomeyLab
Spectrometer: FLMS14357
Trigger mode: 0
Integration Time (sec): 1.000000E-2
Scans to average: 100
Electric dark correction enabled: true
Nonlinearity correction enabled: false
Boxcar width: 0
XAxis mode: Wavelengths
Number of Pixels in Spectrum: 2048
>>>>>Begin Spectral Data<<<<<
189.047	-25.23
189.435	-25.23
189.823	-25.23
190.211	101.07
190.599	-3.79
190.987	152.72
191.375	-71.42
191.763	2.58
192.151	-214.88
192.538	-32.4
192.926	97.19
193.314	306.64
193.702	127.39
194.089	107.81
194.477	-479.57
194.864	205.76
195.252	-43.11
195.639	346.52
196.027	-1755.59
196.414	33.92
196.801	130.89
197.189	-52.6
197.576	131.83
197.963	-97.58
198.351	33
198.738	4.88
199.125	13.81
199.512	5.43
199.899	-8.13
200.286	-28.26
200.673	-11.55
201.06	27.98
201.447	-50.83
201.833	49.22
202.22	5.55
202.607	21.16
202.994	24.14
203.38	33.27
203.767	22.65
204.154	28.39
204.54	63
204.927	70.96
205.313	29.97
205.699	62.87
206.086	20.96
206.472	30.4
206.858	26.56
207.245	49.19
207.631	20.17
208.017	16.67
208.403	3.59
208.789	43.1
209.175	-4.83
209.561	32.48
209.947	3.59
210.333	-30.17
210.719	-6.86
211.105	14.66
211.491	20.43
211.876	-20.85
212.262	26.32
212.648	12.14
213.034	10.65
213.419	13.26
213.805	6.33
214.19	12.7
214.576	-11.47
214.961	16.37
215.346	23.52
215.732	14.97
216.117	-27.62
216.502	23.41
216.888	18.23
217.273	-12.72
217.658	-8.83
218.043	-20.97
218.428	-11.29
218.813	-1.86
219.198	-12.19
219.583	-27.67
219.968	-12.6
220.353	13.13
220.738	30.34
221.122	-12.28
221.507	0.9
221.892	-5.15
222.276	-9
222.661	17.3
223.046	-1.74
223.43	-2.82
223.815	15.13
224.199	3.49
224.583	-5.94
224.968	-5.22
225.352	-3.33
225.736	-4.46
226.121	15.54
226.505	7.89
226.889	-0.94
227.273	0.17
227.657	7.82
228.041	8.06
228.425	2.29
228.809	2.49
229.193	4.39
229.577	6.12
229.961	1.59
230.344	2.15
230.728	1.53
231.112	3.13
231.495	2
231.879	3.12
232.263	3.49
232.646	2.13
233.03	3.55
233.413	0.34
233.797	1.2
234.18	2.05
234.563	5.21
234.946	0.53
235.33	3.38
235.713	1.12
236.096	3.83
236.479	2.68
236.862	2.43
237.245	-1.08
237.628	2.86
238.011	4.25
238.394	1.72
238.777	4.24
239.16	1.36
239.543	4.15
239.925	4.22
240.308	2.75
240.691	2.19
241.073	3.44
241.456	2.64
241.838	2.34
242.221	3.18
242.603	2.81
242.986	3
243.368	2.93
243.75	1.74
244.133	1.98
244.515	1.8
244.897	2.55
245.279	2.12
245.661	2.75
246.043	1.55
246.425	1.84
246.807	2.12
247.189	2.46
247.571	2.6
247.953	2.47
248.335	2.91
248.717	1.95
249.098	2.03
249.48	2.14
249.862	2.37
250.243	2.6
250.625	2.46
251.006	2.68
251.388	2.01
251.769	2.35
252.151	1.33
252.532	2.8
252.913	1.93
253.295	1.89
253.676	2.32
254.057	2.36
254.438	1.97
254.819	2.21
255.2	1.97
255.581	2.17
255.962	2.4
256.343	2.35
256.724	1.27
257.105	2.54
257.486	2.16
257.867	2.69
258.247	3.68
258.628	2.65
259.009	1.64
259.389	2.38
259.77	1.34
260.15	1.86
260.531	2.22
260.911	2.59
261.292	1.92
261.672	2.42
262.052	2.47
262.432	2.21
262.813	2.18
263.193	2.37
263.573	2.67
263.953	2.23
264.333	2.2
264.713	2.73
265.093	2.97
265.473	3.2
265.853	2.33
266.233	2.8
266.612	2.12
266.992	2.23
267.372	1.88
267.752	1.72
268.131	3.05
268.511	2.19
268.89	2.05
269.27	2.43
269.649	2.04
270.029	2.19
270.408	2.92
270.787	2.14
271.167	2.63
271.546	2.44
271.925	2.43
272.304	2.47
272.683	2.26
273.062	2.29
273.441	2.24
273.82	2.23
274.199	2.37
274.578	2.67
274.957	2.34
275.336	2.38
275.715	2.36
276.093	2.18
276.472	2.77
276.851	2.55
277.229	1.99
277.608	1.78
277.986	1.76
278.365	2.76
278.743	2.6
279.122	2.15
279.5	2.34
279.878	1.72
280.257	2.01
280.635	2.5
281.013	2.42
281.391	2.43
281.769	1.93
282.147	1.33
282.525	1.87
282.903	2.26
283.281	2.71
283.659	2.52
284.037	2.2
284.415	1.71
284.792	2.03
285.17	2.26
285.548	2.04
285.925	2.06
286.303	2.34
286.68	1.88
287.058	2.71
287.435	2.44
287.813	1.7
288.19	2.15
288.567	2.62
288.945	2.75
289.322	2.71
289.699	2.12
290.076	2.73
290.453	2.48
290.83	2.08
291.207	2.42
291.584	1.97
291.961	2.82
292.338	2.6
292.715	2.39
293.092	2.1
293.469	2.32
293.845	2.43
294.222	2.55
294.599	2.35
294.975	2.69
295.352	2.45
295.728	2.56
296.105	2.34
296.481	2.49
296.858	2.73
297.234	2.52
297.61	2.34
297.986	2.36
298.363	2.83
298.739	2.5
299.115	2.79
299.491	2.73
299.867	2.6
300.243	2.78
300.619	3.08
300.995	2.58
301.371	2.71
301.746	3.05
302.122	3.22
302.498	2.76
302.874	2.85
303.249	2.82
303.625	3.24
304	3.41
304.376	2.88
304.751	2.68
305.127	2.58
305.502	3.49
305.878	2.8
306.253	2.91
306.628	3.19
307.003	3.32
307.378	3.45
307.754	2.6
308.129	3.39
308.504	3.71
308.879	2.98
309.254	3.26
309.629	2.88
310.003	2.51
310.378	3.61
310.753	3.56
311.128	3.29
311.502	3.52
311.877	3.84
312.252	3.65
312.626	3.54
313.001	3.33
313.375	3.64
313.75	3.49
314.124	3.42
314.498	3.54
314.873	3.39
315.247	3.33
315.621	3.52
315.995	4.08
316.369	3.47
316.743	3.99
317.117	3.78
317.491	3.34
317.865	4.17
318.239	4.51
318.613	3.89
318.987	3.27
319.361	3.2
319.734	4.06
320.108	3.52
320.482	3.89
320.855	3.71
321.229	4.3
321.602	4.41
321.976	3.84
322.349	4.64
322.723	4.12
323.096	3.64
323.469	4.02
323.843	4.61
324.216	4.05
324.589	4.86
324.962	5.13
325.335	4.37
325.708	4.16
326.081	4.67
326.454	4.54
326.827	5.07
327.2	4.66
327.573	4.64
327.945	4.47
328.318	4.45
328.691	4.21
329.063	4.99
329.436	4.22
329.809	4.66
330.181	4.57
330.553	4.91
330.926	4.3
331.298	4.16
331.671	4.44
332.043	4.91
332.415	5.14
332.787	5.06
333.159	4.13
333.532	4.76
333.904	4.93
334.276	4.24
334.648	4.89
335.02	4.95
335.391	4.56
335.763	5.05
336.135	4.3
336.507	5.05
336.879	4.48
337.25	5.22
337.622	5.25
337.993	5.04
338.365	5.23
338.736	5.13
339.108	5.52
339.479	5.04
339.851	5.06
340.222	4.71
340.593	4.73
340.964	5.13
341.336	5.68
341.707	5.6
342.078	5.25
342.449	5.02
342.82	4.7
343.191	5.06
343.562	5.45
343.933	5.48
344.303	5.42
344.674	5.47
345.045	5.65
345.416	5.51
345.786	5.22
346.157	5.36
346.527	5.36
346.898	5.5
347.268	5.66
347.639	5.76
348.009	5.23
348.38	5.48
348.75	5.34
349.12	5.83
349.49	5.2
349.861	5.85
350.231	5.49
350.601	5.66
350.971	6.26
351.341	6.03
351.711	6.23
352.081	5.91
352.45	5.68
352.82	5.91
353.19	5.83
353.56	5.92
353.929	5.98
354.299	5.58
354.669	5.88
355.038	5.98
355.408	5.75
355.777	5.63
356.147	6.01
356.516	5.36
356.885	5.89
357.254	6.14
357.624	5.91
357.993	5.69
358.362	5.52
358.731	5.32
359.1	5.45
359.469	5.85
359.838	6.14
360.207	5.86
360.576	6
360.945	6.1
361.314	5.99
361.682	5.75
362.051	5.76
362.42	5.88
362.788	6.18
363.157	5.84
363.525	5.89
363.894	5.95
364.262	5.95
364.631	6.15
364.999	6.32
365.367	6.02
365.735	6.1
366.104	6.25
366.472	6.08
366.84	6.42
367.208	6.19
367.576	6.08
367.944	6.35
368.312	6.14
368.68	6.26
369.048	6.19
369.416	6.37
369.783	6.34
370.151	5.97
370.519	6.17
370.886	6.64
371.254	6.58
371.621	6.86
371.989	5.94
372.356	6.57
372.724	6.47
373.091	6.52
373.458	6.16
373.826	6.52
374.193	6.41
374.56	6.41
374.927	6.64
375.294	6.67
375.661	6.67
376.028	6.8
376.395	6.89
376.762	6.36
377.129	6.8
377.496	6.78
377.863	6.9
378.229	6.86
378.596	6.85
378.963	6.91
379.329	6.82
379.696	6.74
380.062	6.81
380.429	6.78
380.795	6.76
381.161	7.04
381.528	7.06
381.894	6.7
382.26	6.72
382.626	7.24
382.993	6.96
383.359	7.03
383.725	7.33
384.091	7.07
384.457	6.87
384.823	7.08
385.188	7.69
385.554	7.19
385.92	7.15
386.286	7.23
386.651	6.98
387.017	7.17
387.383	7.17
387.748	6.89
388.114	6.83
388.479	7.06
388.845	7.35
389.21	7.16
389.575	7.17
389.94	7.06
390.306	7.1
390.671	7.36
391.036	7.53
391.401	7.45
391.766	7.4
392.131	7.22
392.496	7.53
392.861	7.54
393.226	7.41
393.591	7.37
393.956	7.44
394.32	7.77
394.685	7.21
395.05	7.83
395.414	7.76
395.779	7.54
396.143	7.66
396.508	7.51
396.872	7.77
397.236	7.54
397.601	7.67
397.965	7.43
398.329	7.53
398.694	7.68
399.058	7.64
399.422	7.91
399.786	7.72
400.15	7.79
400.514	7.57
400.878	7.77
401.242	7.93
401.605	7.93
401.969	7.64
402.333	7.73
402.697	7.88
403.06	7.77
403.424	7.77
403.787	7.89
404.151	8.11
404.514	7.96
404.878	8.12
405.241	8.05
405.604	8
405.968	7.97
406.331	7.92
406.694	8.03
407.057	7.88
407.42	8.19
407.783	8.24
408.146	8.13
408.509	8.07
408.872	8.14
409.235	8.18
409.598	8.18
409.961	8.22
410.323	8.06
410.686	7.86
411.049	8.28
411.411	8.14
411.774	8.21
412.136	8.12
412.499	8.21
412.861	8.23
413.223	8.18
413.586	8.23
413.948	8.34
414.31	8.63
414.672	8.3
415.035	8.23
415.397	8.49
415.759	8.65
416.121	8.4
416.483	8.62
416.845	8.34
417.206	8.69
417.568	8.61
417.93	8.77
418.292	8.21
418.653	8.65
419.015	8.57
419.377	8.42
419.738	8.39
420.1	8.44
420.461	8.45
420.822	8.43
421.184	8.49
421.545	8.56
421.906	8.42
422.267	8.49
422.629	8.48
422.99	8.4
423.351	8.44
423.712	8.53
424.073	8.63
424.434	8.57
424.795	8.6
425.155	8.7
425.516	8.68
425.877	8.72
426.238	8.55
426.598	8.55
426.959	8.6
427.32	8.7
427.68	8.88
428.041	8.81
428.401	8.84
428.761	8.96
429.122	8.85
429.482	8.84
429.842	9.06
430.202	9.11
430.563	9.09
430.923	9.19
431.283	9.05
431.643	9.28
432.003	9.29
432.363	9.1
432.722	9.32
433.082	9.33
433.442	9.32
433.802	9.42
434.161	9.18
434.521	9.27
434.881	9.33
435.24	9.37
435.6	9.24
435.959	9.22
436.319	9.28
436.678	9.46
437.037	9.36
437.396	9.57
437.756	9.47
438.115	9.28
438.474	9.3
438.833	9.53
439.192	9.42
439.551	9.64
439.91	9.61
440.269	9.81
440.628	9.5
440.987	9.54
441.345	9.58
441.704	9.59
442.063	9.67
442.421	9.6
442.78	9.54
443.138	9.64
443.497	9.67
443.855	9.8
444.214	9.75
444.572	9.58
444.93	9.77
445.288	9.92
445.647	9.94
446.005	9.7
446.363	9.84
446.721	9.72
447.079	10.1
447.437	9.95
447.795	9.71
448.153	9.74
448.51	9.75
448.868	9.82
449.226	9.88
449.584	9.91
449.941	9.79
450.299	9.92
450.656	9.84
451.014	10.01
451.371	10.02
451.729	10.09
452.086	10.16
452.443	10.2
452.801	10.09
453.158	10.24
453.515	10.2
453.872	10.28
454.229	10.39
454.586	10.44
454.943	10.21
455.3	10.2
455.657	10.36
456.014	10.41
456.371	10.36
456.727	10.45
457.084	10.52
457.441	10.52
457.797	10.53
458.154	10.4
458.51	10.51
458.867	10.62
459.223	10.58
459.58	10.56
459.936	10.68
460.292	10.54
460.648	10.39
461.005	10.51
461.361	10.49
461.717	10.36
462.073	10.42
462.429	10.59
462.785	10.6
463.141	10.75
463.496	10.66
463.852	10.86
464.208	10.71
464.564	10.74
464.919	10.83
465.275	10.98
465.631	10.99
465.986	11.04
466.342	11.03
466.697	10.86
467.052	10.85
467.408	11.15
467.763	11.02
468.118	11.24
468.473	11.23
468.829	11.07
469.184	11.23
469.539	11.11
469.894	11.25
470.249	11.28
470.603	11.2
470.958	11.32
471.313	11.44
471.668	11.4
472.023	11.45
472.377	11.31
472.732	11.23
473.086	11.58
473.441	11.37
473.795	11.61
474.15	11.51
474.504	11.33
474.859	11.45
475.213	11.59
475.567	11.59
475.921	11.49
476.275	11.54
476.63	11.57
476.984	11.74
477.338	11.66
477.692	11.62
478.045	11.57
478.399	11.6
478.753	11.56
479.107	11.72
479.461	11.76
479.814	11.89
480.168	11.82
480.521	11.69
480.875	11.78
481.228	11.88
481.582	11.93
481.935	11.8
482.289	11.9
482.642	11.88
482.995	11.85
483.348	11.91
483.701	11.88
484.055	11.84
484.408	11.76
484.761	11.68
485.114	11.51
485.466	11.42
485.819	11.21
486.172	11.22
486.525	11.26
486.878	11.36
487.23	11.56
487.583	11.54
487.936	11.64
488.288	11.75
488.641	11.85
488.993	11.74
489.345	11.65
489.698	11.6
490.05	11.61
490.402	11.66
490.754	11.75
491.107	11.78
491.459	11.96
491.811	12.06
492.163	12.12
492.515	12.22
492.866	12.22
493.218	12.02
493.57	11.97
493.922	11.87
494.274	11.99
494.625	12.06
494.977	12.19
495.328	12.31
495.68	12.5
496.031	12.41
496.383	12.61
496.734	12.64
497.086	12.76
497.437	12.59
497.788	12.52
498.139	12.88
498.49	12.57
498.842	12.51
499.193	12.7
499.544	12.72
499.894	12.67
500.245	12.79
500.596	12.81
500.947	12.84
501.298	12.81
501.648	12.77
501.999	12.93
502.35	12.94
502.7	13.03
503.051	13.06
503.401	13.12
503.752	13.26
504.102	13.23
504.452	13.14
504.803	13.34
505.153	13.23
505.503	13.3
505.853	13.25
506.203	13.13
506.553	13.24
506.903	13.23
507.253	13.44
507.603	13.22
507.953	13.44
508.303	13.26
508.652	13.45
509.002	13.48
509.352	13.37
509.701	13.5
510.051	13.36
510.4	13.46
510.75	13.35
511.099	13.53
511.449	13.56
511.798	13.42
512.147	13.48
512.496	13.49
512.846	13.48
513.195	13.65
513.544	13.61
513.893	13.57
514.242	13.6
514.591	13.67
514.939	13.54
515.288	13.62
515.637	13.76
515.986	13.84
516.334	13.85
516.683	13.93
517.032	13.76
517.38	13.84
517.729	13.99
518.077	14
518.426	13.92
518.774	13.86
519.122	13.89
519.47	13.85
519.819	13.9
520.167	13.89
520.515	13.89
520.863	13.9
521.211	13.92
521.559	13.98
521.907	13.99
522.255	14.17
522.602	14.14
522.95	14.12
523.298	14.29
523.645	14.32
523.993	14.23
524.341	14.35
524.688	14.26
525.036	14.35
525.383	14.21
525.73	14.48
526.078	14.33
526.425	14.54
526.772	14.45
527.119	14.38
527.466	14.21
527.814	14.31
528.161	14.25
528.508	14.28
528.854	14.26
529.201	14.29
529.548	14.25
529.895	14.28
530.242	14.06
530.588	13.95
530.935	13.95
531.282	14.03
531.628	14.15
531.975	14.17
532.321	14.31
532.667	14.44
533.014	14.5
533.36	14.58
533.706	14.63
534.052	14.68
534.399	14.64
534.745	14.53
535.091	14.52
535.437	14.47
535.783	14.48
536.129	14.59
536.474	14.61
536.82	14.86
537.166	14.8
537.512	15.04
537.857	15.06
538.203	14.95
538.549	14.92
538.894	14.87
539.239	14.98
539.585	15.08
539.93	15.13
540.276	15.22
540.621	15.3
540.966	15.35
541.311	15.44
541.656	15.45
542.001	15.51
542.346	15.42
542.691	15.19
543.036	15
543.381	14.89
543.726	14.92
544.071	14.95
544.415	15.09
544.76	15.12
545.105	15.21
545.449	15.28
545.794	15.34
546.138	15.43
546.483	15.52
546.827	15.68
547.171	15.7
547.516	15.69
547.86	15.82
548.204	15.69
548.548	15.76
548.892	15.8
549.236	15.79
549.58	15.78
549.924	15.85
550.268	15.89
550.612	16.11
550.956	16.31
551.3	16.37
551.643	16.24
551.987	16.39
552.33	16.34
552.674	16.48
553.017	16.51
553.361	16.5
553.704	16.45
554.048	16.48
554.391	16.33
554.734	16.53
555.077	16.43
555.42	16.35
555.764	16.5
556.107	16.62
556.45	16.69
556.793	16.56
557.135	16.69
557.478	16.67
557.821	16.8
558.164	16.88
558.507	16.81
558.849	16.69
559.192	16.95
559.534	16.91
559.877	16.62
560.219	16.88
560.562	17.03
560.904	16.85
561.246	17.08
561.589	17.01
561.931	17.04
562.273	16.98
562.615	17.22
562.957	17.2
563.299	17.44
563.641	17.1
563.983	17.19
564.325	17.1
564.667	16.94
565.008	17.15
565.35	17.21
565.692	17.35
566.033	17.55
566.375	17.41
566.716	17.4
567.058	17.29
567.399	17.51
567.741	17.23
568.082	17.43
568.423	17.29
568.764	17.3
569.105	17.62
569.447	17.43
569.788	17.68
570.129	17.47
570.47	17.7
570.811	17.6
571.151	17.52
571.492	17.88
571.833	17.83
572.174	17.72
572.514	17.92
572.855	17.7
573.195	17.91
573.536	17.75
573.876	17.98
574.217	17.78
574.557	17.86
574.898	17.91
575.238	17.93
575.578	17.95
575.918	17.73
576.258	17.95
576.598	18.01
576.938	18.15
577.278	18.15
577.618	18
577.958	17.79
578.298	18.11
578.638	18.11
578.977	18.07
579.317	18.27
579.657	18.21
579.996	18.46
580.336	18.44
580.675	18.28
581.014	18.4
581.354	18.52
581.693	18.43
582.032	18.56
582.372	18.61
582.711	18.37
583.05	18.77
583.389	18.53
583.728	18.69
584.067	18.77
584.406	18.6
584.745	18.65
585.083	18.68
585.422	18.69
585.761	18.85
586.1	18.84
586.438	18.81
586.777	18.79
587.115	18.92
587.454	18.89
587.792	18.92
588.13	19.08
588.469	19.14
588.807	18.74
589.145	19.01
589.483	18.82
589.821	19.08
590.159	19.24
590.497	19.3
590.835	19.23
591.173	19.3
591.511	19.27
591.849	18.98
592.187	19.13
592.524	19.26
592.862	19.1
593.2	19.27
593.537	19.11
593.875	19.47
594.212	19.47
594.55	19.49
594.887	19.68
595.224	19.45
595.561	19.42
595.899	19.54
596.236	19.55
596.573	19.61
596.91	19.8
597.247	19.52
597.584	19.58
597.921	19.56
598.258	19.51
598.594	19.64
598.931	19.4
599.268	19.26
599.604	19.51
599.941	19.5
600.277	19.69
600.614	19.64
600.95	19.77
601.287	19.6
601.623	19.94
601.959	20.06
602.296	20.16
602.632	19.85
602.968	19.73
603.304	19.98
603.64	19.76
603.976	20.14
604.312	20.24
604.648	20.18
604.984	20.11
605.319	19.97
605.655	19.9
605.991	19.93
606.326	19.93
606.662	19.76
606.998	19.82
607.333	19.8
607.668	19.76
608.004	20.06
608.339	20.05
608.674	20.33
609.01	20.46
609.345	20.58
609.68	20.51
610.015	20.15
610.35	20.58
610.685	20.57
611.02	20.59
611.355	20.16
611.689	20.41
612.024	20.61
612.359	20.44
612.694	20.66
613.028	20.45
613.363	20.57
613.697	20.78
614.032	20.64
614.366	20.51
614.7	21.05
615.035	20.76
615.369	20.92
615.703	20.62
616.037	20.43
616.371	20.95
616.705	20.7
617.039	20.85
617.373	21.01
617.707	21.16
618.041	20.87
618.375	20.98
618.709	21.09
619.042	20.87
619.376	21.16
619.71	21.37
620.043	21.44
620.377	21.11
620.71	21.28
621.043	21.27
621.377	21.03
621.71	21.23
622.043	21.28
622.376	21.41
622.709	21.49
623.043	21.63
623.376	20.95
623.709	21.21
624.041	21.3
624.374	21.52
624.707	21.71
625.04	21.38
625.373	21.73
625.705	21.49
626.038	21.98
626.37	21.53
626.703	21.34
627.035	21.74
627.368	21.61
627.7	21.95
628.032	21.4
628.365	21.83
628.697	21.97
629.029	21.64
629.361	22.18
629.693	21.99
630.025	22.03
630.357	21.54
630.689	21.75
631.021	22.14
631.353	22.18
631.684	21.77
632.016	21.95
632.348	21.72
632.679	21.92
633.011	22.47
633.342	21.87
633.674	21.9
634.005	21.9
634.336	22.35
634.668	22.02
634.999	22.13
635.33	21.77
635.661	22.89
635.992	22.17
636.323	22.52
636.654	22.4
636.985	21.99
637.316	22.14
637.647	22.24
637.977	22.47
638.308	22.34
638.639	22.68
638.969	22.49
639.3	22.08
639.63	22.6
639.961	22.81
640.291	22.15
640.622	22.34
640.952	22.59
641.282	22.41
641.612	22.76
641.943	23
642.273	22.64
642.603	22.88
642.933	22.39
643.263	23.03
643.592	22.94
643.922	23.31
644.252	22.7
644.582	23.22
644.911	22.96
645.241	23
645.571	23.47
645.9	22.84
646.23	23.15
646.559	23.03
646.888	23.26
647.218	23.04
647.547	23.63
647.876	23.14
648.205	23.97
648.534	23.22
648.863	23.55
649.192	23.46
649.521	23.69
649.85	23.51
650.179	23.18
650.508	23.18
650.837	24.08
651.165	23.55
651.494	23.17
651.822	23.35
652.151	23.3
652.479	23.45
652.808	23.46
653.136	23.31
653.465	23.9
653.793	23.99
654.121	23.81
654.449	23.75
654.777	24.01
655.105	23.98
655.433	24.03
655.761	23.77
656.089	23.86
656.417	23.6
656.745	23.93
657.073	24.03
657.4	24.25
657.728	24.26
658.056	24.03
658.383	23.89
658.711	24.22
659.038	24.2
659.365	23.81
659.693	24.15
660.02	24.28
660.347	23.69
660.674	23.81
661.001	23.53
661.329	23.91
661.656	24.19
661.982	23.65
662.309	24
662.636	23.75
662.963	23.8
663.29	24.23
663.616	24.66
663.943	23.89
664.27	24.47
664.596	24.3
664.923	24.36
665.249	24.2
665.576	24.22
665.902	24.39
666.228	24.57
666.554	24.92
666.881	24.3
667.207	24.57
667.533	24.31
667.859	24.21
668.185	24.58
668.511	25.66
668.837	25.11
669.162	24.62
669.488	24.72
669.814	25.01
670.139	24.8
670.465	24.37
670.791	24.85
671.116	24.4
671.442	25.05
671.767	24.7
672.092	25.18
672.418	25.13
672.743	24.82
673.068	25.31
673.393	24.94
673.718	24.57
674.043	24.66
674.368	25.32
674.693	25.44
675.018	25.02
675.343	25.32
675.667	24.99
675.992	25.92
676.317	25.38
676.641	25.52
676.966	26
