Data from 0344_chest_Reflection__0__324.txt Node

Date: Fri Oct 20 23:14:52 CDT 2023
User: ToomeyLab
Spectrometer: FLMS14357
Trigger mode: 0
Integration Time (sec): 1.000000E-2
Scans to average: 100
Electric dark correction enabled: true
Nonlinearity correction enabled: false
Boxcar width: 0
XAxis mode: Wavelengths
Number of Pixels in Spectrum: 2048
>>>>>Begin Spectral Data<<<<<
189.047	-20.03
189.435	-20.03
189.823	-20.03
190.211	305.28
190.599	-3.17
190.987	152.88
191.375	-12.31
191.763	36.36
192.151	-24.93
192.538	106.65
192.926	148.35
193.314	286.52
193.702	-5.76
194.089	70.79
194.477	125.82
194.864	-60.66
195.252	48.39
195.639	-122.4
196.027	163.76
196.414	87.72
196.801	46.34
197.189	231.29
197.576	134.16
197.963	-54.25
198.351	31.62
198.738	11.7
199.125	33.54
199.512	9.29
199.899	23.36
200.286	-10.5
200.673	21.86
201.06	12.7
201.447	80.37
201.833	60.11
202.22	6.77
202.607	51.03
202.994	20.48
203.38	28.18
203.767	-4.5
204.154	18.96
204.54	51.06
204.927	-6.79
205.313	-9.38
205.699	28.72
206.086	16.15
206.472	43.02
206.858	29.69
207.245	7.22
207.631	24.83
208.017	-0.7
208.403	-3.94
208.789	39.22
209.175	3.15
209.561	16.29
209.947	-31.1
210.333	18.45
210.719	18.66
211.105	-16.38
211.491	15.13
211.876	7.1
212.262	20.73
212.648	22.04
213.034	15.49
213.419	8.88
213.805	8
214.19	-23.82
214.576	-30.62
214.961	-14.43
215.346	24.88
215.732	5.37
216.117	-49.82
216.502	1.21
216.888	-8.5
217.273	-12.82
217.658	4.22
218.043	24.85
218.428	-9.02
218.813	9.95
219.198	1.29
219.583	-53.8
219.968	-12.3
220.353	26.11
220.738	9.39
221.122	-6.49
221.507	-17.97
221.892	-11.94
222.276	5.04
222.661	8.71
223.046	1.64
223.43	5.19
223.815	14.35
224.199	13.37
224.583	-4.18
224.968	3.96
225.352	-9.94
225.736	-4.8
226.121	8.46
226.505	1.61
226.889	6.22
227.273	6.47
227.657	3.47
228.041	6.16
228.425	1.78
228.809	4.46
229.193	3.39
229.577	2.85
229.961	3.63
230.344	2.99
230.728	2.09
231.112	3.65
231.495	2.61
231.879	2.67
232.263	3.07
232.646	2.03
233.03	2.48
233.413	2.29
233.797	2.13
234.18	2.42
234.563	4.66
234.946	2.56
235.33	5.13
235.713	2.1
236.096	3.75
236.479	3.4
236.862	2.59
237.245	2.36
237.628	3.09
238.011	2.11
238.394	2.68
238.777	4.47
239.16	4.91
239.543	4.4
239.925	2.58
240.308	2.93
240.691	1.69
241.073	3.72
241.456	3.03
241.838	3.24
242.221	3.95
242.603	3.23
242.986	3.31
243.368	2.72
243.75	2.39
244.133	2.84
244.515	2.95
244.897	2.67
245.279	2.52
245.661	2.19
246.043	1.68
246.425	2.45
246.807	2.56
247.189	2.44
247.571	2.15
247.953	2.52
248.335	3.11
248.717	2.58
249.098	2.43
249.48	2.72
249.862	2.57
250.243	3.23
250.625	2.66
251.006	3.01
251.388	2.28
251.769	3.01
252.151	2.48
252.532	3.21
252.913	3.08
253.295	1.65
253.676	3.18
254.057	2.9
254.438	2.71
254.819	2.6
255.2	3.12
255.581	1.87
255.962	2.12
256.343	2.82
256.724	1.99
257.105	3.32
257.486	2.86
257.867	2.38
258.247	3.38
258.628	2.43
259.009	1.7
259.389	2.48
259.77	1.89
260.15	3.03
260.531	2.3
260.911	2.49
261.292	2.73
261.672	2.39
262.052	2.58
262.432	2.7
262.813	2.67
263.193	3.29
263.573	2.81
263.953	2.96
264.333	2.9
264.713	3.01
265.093	2.17
265.473	3.2
265.853	2.86
266.233	2.09
266.612	2.44
266.992	2.69
267.372	1.99
267.752	2.56
268.131	2.96
268.511	2.66
268.89	2.71
269.27	2.41
269.649	2.2
270.029	2.57
270.408	2.64
270.787	2.65
271.167	2.59
271.546	2.87
271.925	2.56
272.304	3.44
272.683	2.23
273.062	2.41
273.441	2.77
273.82	2.42
274.199	2.92
274.578	2.83
274.957	2.4
275.336	2.64
275.715	2.79
276.093	2.15
276.472	2.76
276.851	2.73
277.229	2.69
277.608	2.28
277.986	2.43
278.365	3.16
278.743	2.62
279.122	2.41
279.5	2.79
279.878	2.38
280.257	2.35
280.635	3.17
281.013	3.02
281.391	2.88
281.769	2.68
282.147	2.33
282.525	2.7
282.903	2.28
283.281	2.23
283.659	2.24
284.037	2.43
284.415	2.2
284.792	2.43
285.17	2.76
285.548	2.26
285.925	2.52
286.303	2.63
286.68	2.17
287.058	2.93
287.435	2.57
287.813	2.26
288.19	2.53
288.567	2.46
288.945	2.68
289.322	3.16
289.699	2.5
290.076	2.97
290.453	2.8
290.83	2.66
291.207	2.86
291.584	2.27
291.961	2.62
292.338	2.31
292.715	2.67
293.092	2.38
293.469	2.63
293.845	2.53
294.222	2
294.599	2.62
294.975	3.29
295.352	2.26
295.728	2.81
296.105	2.21
296.481	2.33
296.858	2.85
297.234	3.13
297.61	1.94
297.986	2.51
298.363	2.63
298.739	2.59
299.115	2.39
299.491	2.61
299.867	2.6
300.243	2.85
300.619	2.65
300.995	2.32
301.371	2.8
301.746	2.54
302.122	3.08
302.498	2.35
302.874	2.67
303.249	2.81
303.625	2.86
304	2.96
304.376	2.2
304.751	2.06
305.127	2.66
305.502	2.78
305.878	2.73
306.253	2.99
306.628	2.87
307.003	3.09
307.378	2.84
307.754	2.74
308.129	3.26
308.504	3.26
308.879	3.04
309.254	3.26
309.629	2.52
310.003	2.39
310.378	3.21
310.753	2.81
311.128	3.14
311.502	3.15
311.877	2.79
312.252	2.95
312.626	2.73
313.001	3.04
313.375	3.07
313.75	3.12
314.124	2.61
314.498	3.16
314.873	2.62
315.247	2.98
315.621	3.08
315.995	2.85
316.369	2.92
316.743	2.92
317.117	3.05
317.491	2.39
317.865	2.81
318.239	3.42
318.613	3.36
318.987	2.88
319.361	2.24
319.734	2.78
320.108	2.88
320.482	3.42
320.855	3.05
321.229	3.23
321.602	2.93
321.976	2.81
322.349	3.78
322.723	3
323.096	2.94
323.469	2.95
323.843	2.78
324.216	2.65
324.589	2.87
324.962	3.51
325.335	3.23
325.708	2.55
326.081	3.01
326.454	3.44
326.827	3.26
327.2	3.59
327.573	3.14
327.945	3.21
328.318	3.08
328.691	3.19
329.063	3.38
329.436	2.98
329.809	2.97
330.181	3.32
330.553	3.32
330.926	2.93
331.298	2.95
331.671	3.13
332.043	2.87
332.415	2.69
332.787	3.25
333.159	2.78
333.532	3.32
333.904	3.09
334.276	2.47
334.648	3.31
335.02	3.26
335.391	2.96
335.763	3.39
336.135	2.78
336.507	3.35
336.879	2.94
337.25	2.98
337.622	3.38
337.993	3.13
338.365	2.63
338.736	3.31
339.108	3.52
339.479	2.61
339.851	3.02
340.222	3.27
340.593	2.8
340.964	2.85
341.336	3.62
341.707	3.44
342.078	3.06
342.449	3.32
342.82	2.82
343.191	3.03
343.562	3.4
343.933	3.22
344.303	3.15
344.674	2.93
345.045	3.33
345.416	3.4
345.786	3.09
346.157	3.21
346.527	3.26
346.898	3.2
347.268	3.45
347.639	3.35
348.009	2.64
348.38	2.66
348.75	3.18
349.12	2.98
349.49	2.92
349.861	3.08
350.231	3.12
350.601	2.87
350.971	3.66
351.341	3.15
351.711	3.82
352.081	3.23
352.45	3.2
352.82	3.47
353.19	3.16
353.56	3.29
353.929	3.11
354.299	3.32
354.669	3.38
355.038	3.47
355.408	3.48
355.777	3.28
356.147	2.94
356.516	3.12
356.885	3.06
357.254	3.37
357.624	3.43
357.993	3.11
358.362	2.98
358.731	2.72
359.1	2.8
359.469	2.93
359.838	3.23
360.207	3.24
360.576	3.39
360.945	2.97
361.314	3.32
361.682	3.28
362.051	3.04
362.42	3.11
362.788	3.26
363.157	3.01
363.525	3.22
363.894	3.27
364.262	3.01
364.631	3.37
364.999	3.35
365.367	3.34
365.735	2.84
366.104	3.13
366.472	3.47
366.84	3.14
367.208	3.52
367.576	3.24
367.944	2.87
368.312	3.15
368.68	3.18
369.048	2.96
369.416	3.54
369.783	3.41
370.151	3.2
370.519	3.16
370.886	3.11
371.254	3.52
371.621	3.39
371.989	3.17
372.356	3.06
372.724	3.38
373.091	3.25
373.458	2.99
373.826	3.32
374.193	3.07
374.56	3.25
374.927	3.39
375.294	3.36
375.661	3.51
376.028	3.61
376.395	3.49
376.762	3.26
377.129	3.58
377.496	3.4
377.863	3.66
378.229	3.34
378.596	3.63
378.963	3.31
379.329	3.4
379.696	3.12
380.062	3.32
380.429	3.36
380.795	3.39
381.161	3.34
381.528	3.77
381.894	3.03
382.26	3.34
382.626	3.76
382.993	3.6
383.359	3.56
383.725	3.68
384.091	3.42
384.457	3.68
384.823	3.46
385.188	3.71
385.554	3.38
385.92	3.53
386.286	3.52
386.651	3.38
387.017	3.38
387.383	3.38
387.748	3.13
388.114	3.24
388.479	3.6
388.845	3.6
389.21	3.27
389.575	2.89
389.94	3.4
390.306	3.39
390.671	3.37
391.036	3.59
391.401	3.41
391.766	3.65
392.131	3.4
392.496	3.54
392.861	3.63
393.226	3.57
393.591	3.45
393.956	3.49
394.32	3.76
394.685	3.32
395.05	3.72
395.414	3.49
395.779	3.51
396.143	3.48
396.508	3.43
396.872	3.55
397.236	3.39
397.601	3.42
397.965	3.28
398.329	3.44
398.694	3.49
399.058	3.44
399.422	3.4
399.786	3.54
400.15	3.31
400.514	3.34
400.878	3.71
401.242	3.62
401.605	3.79
401.969	3.48
402.333	3.5
402.697	3.62
403.06	3.54
403.424	3.52
403.787	3.5
404.151	3.5
404.514	3.67
404.878	3.5
405.241	3.45
405.604	3.47
405.968	3.65
406.331	3.53
406.694	3.6
407.057	3.49
407.42	3.79
407.783	3.59
408.146	3.57
408.509	3.73
408.872	3.74
409.235	3.56
409.598	3.71
409.961	3.56
410.323	3.68
410.686	3.52
411.049	3.6
411.411	3.29
411.774	3.44
412.136	3.5
412.499	3.72
412.861	3.71
413.223	3.58
413.586	3.53
413.948	3.9
414.31	3.76
414.672	3.5
415.035	3.66
415.397	3.65
415.759	3.63
416.121	3.67
416.483	3.84
416.845	3.51
417.206	3.58
417.568	3.7
417.93	3.62
418.292	3.48
418.653	3.68
419.015	3.43
419.377	3.53
419.738	3.53
420.1	3.55
420.461	3.54
420.822	3.5
421.184	3.6
421.545	3.56
421.906	3.51
422.267	3.44
422.629	3.58
422.99	3.49
423.351	3.53
423.712	3.5
424.073	3.56
424.434	3.49
424.795	3.52
425.155	3.68
425.516	3.55
425.877	3.56
426.238	3.53
426.598	3.61
426.959	3.59
427.32	3.59
427.68	3.76
428.041	3.55
428.401	3.65
428.761	3.65
429.122	3.69
429.482	3.73
429.842	3.65
430.202	3.72
430.563	3.77
430.923	3.87
431.283	3.76
431.643	3.74
432.003	3.87
432.363	3.67
432.722	3.73
433.082	3.74
433.442	3.72
433.802	4.01
434.161	3.67
434.521	3.8
434.881	3.74
435.24	3.73
435.6	3.79
435.959	3.77
436.319	3.77
436.678	3.81
437.037	3.79
437.396	3.87
437.756	3.94
438.115	3.59
438.474	3.88
438.833	4.01
439.192	3.68
439.551	3.69
439.91	3.83
440.269	3.98
440.628	4.01
440.987	3.83
441.345	3.71
441.704	3.8
442.063	3.72
442.421	3.8
442.78	3.74
443.138	3.87
443.497	3.92
443.855	3.82
444.214	3.78
444.572	3.83
444.93	3.89
445.288	3.78
445.647	3.91
446.005	3.8
446.363	3.88
446.721	3.83
447.079	3.89
447.437	3.77
447.795	3.72
448.153	3.75
448.51	3.82
448.868	3.81
449.226	3.8
449.584	3.8
449.941	3.78
450.299	3.87
450.656	3.79
451.014	3.72
451.371	3.86
451.729	3.87
452.086	3.96
452.443	3.99
452.801	3.86
453.158	4.04
453.515	3.92
453.872	4.07
454.229	4.1
454.586	3.96
454.943	3.89
455.3	3.94
455.657	4.01
456.014	3.9
456.371	3.97
456.727	4.03
457.084	3.94
457.441	3.96
457.797	4.11
458.154	3.78
458.51	3.89
458.867	4.03
459.223	4.08
459.58	3.95
459.936	4.05
460.292	3.97
460.648	3.88
461.005	3.93
461.361	3.95
461.717	3.78
462.073	3.99
462.429	4.05
462.785	4
463.141	4.08
463.496	3.96
463.852	4.11
464.208	4.17
464.564	4.14
464.919	4.15
465.275	4.17
465.631	4.15
465.986	4.07
466.342	4.06
466.697	4.12
467.052	4.12
467.408	4.11
467.763	4.18
468.118	4.34
468.473	4.14
468.829	4.11
469.184	4.14
469.539	4.04
469.894	4.15
470.249	4.2
470.603	4.16
470.958	4.25
471.313	4.36
471.668	4.29
472.023	4.16
472.377	4.27
472.732	4.16
473.086	4.26
473.441	4.26
473.795	4.47
474.15	4.26
474.504	4.11
474.859	4.24
475.213	4.14
475.567	4.32
475.921	4.42
476.275	4.2
476.63	4.54
476.984	4.32
477.338	4.08
477.692	4.14
478.045	4.27
478.399	4.22
478.753	4.3
479.107	4.28
479.461	4.26
479.814	4.4
480.168	4.34
480.521	4.36
480.875	4.28
481.228	4.25
481.582	4.35
481.935	4.44
482.289	4.32
482.642	4.38
482.995	4.29
483.348	4.27
483.701	4.27
484.055	4.3
484.408	4.31
484.761	4.22
485.114	4.1
485.466	4.1
485.819	4.03
486.172	3.97
486.525	4.02
486.878	4.12
487.23	4.15
487.583	4.17
487.936	4.18
488.288	4.22
488.641	4.3
488.993	4.15
489.345	4.18
489.698	4.17
490.05	4.13
490.402	4.19
490.754	4.19
491.107	4.2
491.459	4.27
491.811	4.29
492.163	4.3
492.515	4.42
492.866	4.4
493.218	4.28
493.57	4.21
493.922	4.27
494.274	4.32
494.625	4.31
494.977	4.36
495.328	4.52
495.68	4.5
496.031	4.38
496.383	4.53
496.734	4.61
497.086	4.49
497.437	4.51
497.788	4.43
498.139	4.69
498.49	4.42
498.842	4.4
499.193	4.58
499.544	4.58
499.894	4.57
500.245	4.51
500.596	4.57
500.947	4.62
501.298	4.45
501.648	4.43
501.999	4.56
502.35	4.7
502.7	4.71
503.051	4.62
503.401	4.65
503.752	4.68
504.102	4.81
504.452	4.72
504.803	4.58
505.153	4.67
505.503	4.76
505.853	4.73
506.203	4.7
506.553	4.57
506.903	4.74
507.253	4.66
507.603	4.68
507.953	4.77
508.303	4.63
508.652	4.93
509.002	4.77
509.352	4.83
509.701	4.81
510.051	4.71
510.4	4.78
510.75	4.81
511.099	4.73
511.449	4.77
511.798	4.88
512.147	4.74
512.496	4.8
512.846	4.76
513.195	4.89
513.544	4.73
513.893	4.79
514.242	4.8
514.591	4.88
514.939	4.72
515.288	4.7
515.637	4.86
515.986	4.86
516.334	4.86
516.683	4.8
517.032	4.79
517.38	4.88
517.729	4.91
518.077	4.96
518.426	4.83
518.774	4.82
519.122	4.96
519.47	4.91
519.819	4.92
520.167	4.9
520.515	4.84
520.863	4.87
521.211	4.84
521.559	4.94
521.907	4.89
522.255	4.95
522.602	5.05
522.95	4.94
523.298	5.03
523.645	5.03
523.993	4.99
524.341	4.99
524.688	5.08
525.036	5.23
525.383	5.1
525.73	5.19
526.078	5
526.425	5.12
526.772	4.99
527.119	5.09
527.466	5.01
527.814	5.07
528.161	5.03
528.508	4.92
528.854	5.13
529.201	5.03
529.548	5.04
529.895	5.05
530.242	4.98
530.588	4.85
530.935	4.84
531.282	4.94
531.628	4.98
531.975	5.01
532.321	5.01
532.667	5.09
533.014	5.12
533.36	5.19
533.706	5.23
534.052	5.17
534.399	5.19
534.745	5.07
535.091	5.17
535.437	5.14
535.783	5.17
536.129	5.24
536.474	5.22
536.82	5.35
537.166	5.2
537.512	5.43
537.857	5.51
538.203	5.31
538.549	5.36
538.894	5.27
539.239	5.37
539.585	5.35
539.93	5.49
540.276	5.54
540.621	5.56
540.966	5.61
541.311	5.62
541.656	5.62
542.001	5.6
542.346	5.48
542.691	5.4
543.036	5.42
543.381	5.34
543.726	5.34
544.071	5.38
544.415	5.44
544.76	5.42
545.105	5.56
545.449	5.54
545.794	5.57
546.138	5.49
546.483	5.55
546.827	5.64
547.171	5.7
547.516	5.64
547.86	5.75
548.204	5.67
548.548	5.78
548.892	5.81
549.236	5.79
549.58	5.75
549.924	5.79
550.268	5.83
550.612	5.97
550.956	6.01
551.3	5.95
551.643	5.87
551.987	6.12
552.33	5.97
552.674	5.92
553.017	6.05
553.361	6.01
553.704	6.13
554.048	6.15
554.391	6.18
554.734	6.08
555.077	6.07
555.42	6
555.764	5.92
556.107	6.26
556.45	6.05
556.793	6.2
557.135	6.16
557.478	6.16
557.821	6.31
558.164	6.28
558.507	6.33
558.849	6.32
559.192	6.39
559.534	6.46
559.877	6.23
560.219	6.3
560.562	6.48
560.904	6.18
561.246	6.42
561.589	6.35
561.931	6.55
562.273	6.61
562.615	6.55
562.957	6.53
563.299	6.58
563.641	6.55
563.983	6.4
564.325	6.53
564.667	6.65
565.008	6.43
565.35	6.63
565.692	6.65
566.033	6.66
566.375	6.69
566.716	6.66
567.058	6.47
567.399	6.72
567.741	6.56
568.082	6.67
568.423	6.55
568.764	6.61
569.105	6.84
569.447	6.71
569.788	6.57
570.129	6.69
570.47	6.85
570.811	6.91
571.151	6.77
571.492	6.85
571.833	6.96
572.174	7.06
572.514	6.83
572.855	6.95
573.195	7.03
573.536	6.87
573.876	7.04
574.217	7.01
574.557	6.82
574.898	6.77
575.238	6.91
575.578	7.09
575.918	6.86
576.258	7.06
576.598	7.22
576.938	7.21
577.278	7.1
577.618	7.07
577.958	6.98
578.298	7.11
578.638	7.22
578.977	7.38
579.317	7.26
579.657	7.21
579.996	7.33
580.336	7.55
580.675	7.35
581.014	7.28
581.354	7.43
581.693	7.38
582.032	7.55
582.372	7.25
582.711	7.64
583.05	7.7
583.389	7.63
583.728	7.75
584.067	7.69
584.406	7.74
584.745	7.58
585.083	7.5
585.422	7.49
585.761	7.82
586.1	8
586.438	7.54
586.777	7.65
587.115	7.95
587.454	7.89
587.792	7.78
588.13	7.94
588.469	7.72
588.807	7.66
589.145	7.98
589.483	7.66
589.821	8.02
590.159	7.99
590.497	8.01
590.835	8.04
591.173	7.82
591.511	8.1
591.849	8.02
592.187	7.99
592.524	7.96
592.862	8.16
593.2	8.2
593.537	7.93
593.875	8.15
594.212	8.17
594.55	8.27
594.887	8.27
595.224	8.02
595.561	8.39
595.899	8.22
596.236	8.37
596.573	8.2
596.91	8.35
597.247	8.37
597.584	8.15
597.921	8.34
598.258	8.3
598.594	8.46
598.931	8.35
599.268	8.03
599.604	8.39
599.941	8.35
600.277	8.33
600.614	8.66
600.95	8.28
601.287	8.51
601.623	8.73
601.959	8.69
602.296	8.88
602.632	8.68
602.968	8.28
603.304	8.77
603.64	8.75
603.976	8.92
604.312	8.97
604.648	8.72
604.984	9.05
605.319	9.08
605.655	8.72
605.991	8.64
606.326	8.89
606.662	8.76
606.998	8.7
607.333	8.75
607.668	8.62
608.004	8.9
608.339	8.87
608.674	9.11
609.01	8.91
609.345	9.51
609.68	9.37
610.015	9.18
610.35	9.21
610.685	9.3
611.02	9.31
611.355	9.1
611.689	9.18
612.024	9.1
612.359	9.22
612.694	9.21
613.028	9.44
613.363	9.25
613.697	9.32
614.032	9.39
614.366	9.49
614.7	9.3
615.035	9.49
615.369	9.64
615.703	9.35
616.037	9.62
616.371	9.57
616.705	9.52
617.039	9.6
617.373	9.97
617.707	9.73
618.041	9.61
618.375	9.5
618.709	9.68
619.042	9.92
619.376	10.09
619.71	10.01
620.043	10.1
620.377	9.77
620.71	10.17
621.043	10.1
621.377	9.86
621.71	9.87
622.043	10.07
622.376	10.06
622.709	10.2
623.043	10.09
623.376	10.32
623.709	10.14
624.041	10.33
624.374	10.26
624.707	10.1
625.04	10.29
625.373	10.19
625.705	9.83
626.038	10.42
626.37	9.95
626.703	9.74
627.035	10.18
627.368	10.61
627.7	10.5
628.032	10.39
628.365	10.63
628.697	10.42
629.029	10.55
629.361	10.29
629.693	10.31
630.025	10.41
630.357	10.43
630.689	10.64
631.021	10.84
631.353	10.7
631.684	10.35
632.016	10.84
632.348	10.6
632.679	10.48
633.011	10.79
633.342	10.58
633.674	10.85
634.005	10.83
634.336	10.88
634.668	10.95
634.999	10.66
635.33	10.45
635.661	11.3
635.992	11.44
636.323	11.19
636.654	11.24
636.985	10.95
637.316	10.92
637.647	10.99
637.977	10.93
638.308	11.13
638.639	10.97
638.969	11.11
639.3	10.96
639.63	11.01
639.961	11.44
640.291	10.94
640.622	11.33
640.952	11.34
641.282	11.27
641.612	11.46
641.943	11.58
642.273	11.35
642.603	11.55
642.933	11.63
643.263	11.95
643.592	11.3
643.922	11.92
644.252	11
644.582	11.57
644.911	11.5
645.241	11.93
645.571	12.27
645.9	11.65
646.23	11.9
646.559	11.53
646.888	11.86
647.218	11.78
647.547	11.86
647.876	12.05
648.205	12.2
648.534	12.04
648.863	11.89
649.192	11.6
649.521	11.84
649.85	11.94
650.179	12.04
650.508	12.16
650.837	12.16
651.165	12.38
651.494	11.79
651.822	12.17
652.151	12.37
652.479	12.1
652.808	12.35
653.136	11.89
653.465	12.68
653.793	11.96
654.121	12.59
654.449	12.18
654.777	12.26
655.105	12.54
655.433	12.89
655.761	12.72
656.089	12.59
656.417	12.27
656.745	12.19
657.073	12.59
657.4	12.77
657.728	13.2
658.056	12.61
658.383	12.72
658.711	12.95
659.038	12.71
659.365	12.28
659.693	13.09
660.02	12.67
660.347	12.67
660.674	12.86
661.001	12.85
661.329	12.49
661.656	12.9
661.982	12.59
662.309	13.13
662.636	12.84
662.963	12.91
663.29	13.17
663.616	12.88
663.943	12.7
664.27	13.09
664.596	12.73
664.923	13.15
665.249	13.08
665.576	13.12
665.902	13.43
666.228	13.09
666.554	13.11
666.881	13.11
667.207	12.99
667.533	13.25
667.859	13.82
668.185	13.58
668.511	13.84
668.837	13.23
669.162	14.13
669.488	13.13
669.814	13.62
670.139	13.34
670.465	13.57
670.791	14.14
671.116	13.48
671.442	13.69
671.767	14.1
672.092	13.59
672.418	13.82
672.743	14.03
673.068	14.16
673.393	14.17
673.718	13.83
674.043	14.35
674.368	13.61
674.693	14.56
675.018	14.24
675.343	13.89
675.667	13.48
675.992	14.73
676.317	14.08
676.641	13.97
676.966	14.48
677.29	14.34
677.615	14.53
677.939	14.15
678.264	13.98
678.588	13.98
678.912	14.2
679.236	14.06
679.56	13.88
679.885	14.21
680.209	14.83
680.532	13.37
680.856	13.9
681.18	14.2
681.504	14.33
681.828	14.56
682.152	14.99
682.475	14.48
682.799	14.78
683.122	15.05
683.446	14.93
683.769	14.7
684.093	14.44
684.416	15.03
684.739	14.31
685.062	13.94
685.386	14.43
685.709	14.95
686.032	14.35
686.355	15.01
686.678	14.6
687.001	15.2
687.324	14.94
687.646	14.64
687.969	14.96
