Data from 0344_forehead_Reflection__1__335.txt Node

Date: Fri Oct 20 23:20:18 CDT 2023
User: ToomeyLab
Spectrometer: FLMS14357
Trigger mode: 0
Integration Time (sec): 1.000000E-2
Scans to average: 100
Electric dark correction enabled: true
Nonlinearity correction enabled: false
Boxcar width: 0
XAxis mode: Wavelengths
Number of Pixels in Spectrum: 2048
>>>>>Begin Spectral Data<<<<<
189.047	-164.65
189.435	-164.65
189.823	-164.65
190.211	232.73
190.599	-6.04
190.987	-40.91
191.375	-153.09
191.763	56.96
192.151	-209.67
192.538	97.03
192.926	6.41
193.314	237.42
193.702	41.33
194.089	57.83
194.477	495.32
194.864	4.73
195.252	30.5
195.639	161.09
196.027	-267.03
196.414	96.88
196.801	-4.86
197.189	272.17
197.576	95.17
197.963	-103.02
198.351	71.82
198.738	22.93
199.125	44.36
199.512	26.6
199.899	2.37
200.286	-37.79
200.673	71.31
201.06	57.63
201.447	156.66
201.833	45.3
202.22	72.43
202.607	37.28
202.994	41.87
203.38	-18.83
203.767	51.29
204.154	33.01
204.54	44.86
204.927	61.96
205.313	26.07
205.699	58.38
206.086	14.78
206.472	68.64
206.858	59.34
207.245	1.17
207.631	27.07
208.017	40.89
208.403	11.26
208.789	47.55
209.175	5.48
209.561	-1.42
209.947	17.03
210.333	4.08
210.719	34.15
211.105	20.04
211.491	32.72
211.876	4.06
212.262	16.54
212.648	2.85
213.034	20.23
213.419	-14.98
213.805	10.54
214.19	5.49
214.576	2.25
214.961	29.63
215.346	18.12
215.732	14
216.117	-24.14
216.502	27.32
216.888	-1.03
217.273	9.63
217.658	15.4
218.043	-3.17
218.428	17.24
218.813	15.94
219.198	8.21
219.583	18.4
219.968	2.16
220.353	10.95
220.738	22.73
221.122	3.28
221.507	-3.03
221.892	3.79
222.276	6.09
222.661	14.57
223.046	19.84
223.43	8.75
223.815	18.06
224.199	25.97
224.583	-2.64
224.968	-0.73
225.352	13.8
225.736	7.03
226.121	12.63
226.505	7.99
226.889	14.46
227.273	-0.85
227.657	6.67
228.041	9.47
228.425	6.19
228.809	5.42
229.193	3.15
229.577	4.81
229.961	3.67
230.344	3.53
230.728	2.59
231.112	3.98
231.495	3.45
231.879	3.55
232.263	3.67
232.646	2.44
233.03	1.66
233.413	1.8
233.797	2.68
234.18	5.31
234.563	6.28
234.946	3.04
235.33	3.98
235.713	3
236.096	5.2
236.479	2.58
236.862	4.15
237.245	3.22
237.628	3.37
238.011	4.14
238.394	3.55
238.777	6.45
239.16	4.96
239.543	4.66
239.925	7.23
240.308	4.63
240.691	4.7
241.073	5.82
241.456	2.47
241.838	3.99
242.221	4.54
242.603	5.03
242.986	3.69
243.368	3.55
243.75	3.42
244.133	3.01
244.515	3.1
244.897	3.14
245.279	3.63
245.661	3.48
246.043	3.11
246.425	3.21
246.807	3.28
247.189	2.86
247.571	3.33
247.953	3.83
248.335	3.64
248.717	3.23
249.098	3.12
249.48	3.34
249.862	3.24
250.243	3.16
250.625	3.68
251.006	3.6
251.388	3.65
251.769	3.35
252.151	3.51
252.532	3.74
252.913	3.54
253.295	2.98
253.676	3.8
254.057	3.76
254.438	3.34
254.819	3.96
255.2	3.05
255.581	3.1
255.962	3.26
256.343	3.14
256.724	3.54
257.105	3.78
257.486	3.32
257.867	3.85
258.247	3.69
258.628	3.91
259.009	2.96
259.389	2.47
259.77	2.6
260.15	3.18
260.531	3.51
260.911	3.61
261.292	3.31
261.672	3.46
262.052	3.52
262.432	3.31
262.813	3.52
263.193	3.63
263.573	3.46
263.953	3.93
264.333	3.37
264.713	3.77
265.093	3.63
265.473	3.32
265.853	3.65
266.233	3.82
266.612	3.47
266.992	3.75
267.372	3.33
267.752	3.87
268.131	3.8
268.511	3.33
268.89	3.65
269.27	3.29
269.649	3.24
270.029	3.54
270.408	3.51
270.787	3.42
271.167	3.37
271.546	3.62
271.925	3.71
272.304	3.47
272.683	3.39
273.062	3.55
273.441	3.57
273.82	3.66
274.199	3.67
274.578	3.32
274.957	3.2
275.336	3.67
275.715	3.42
276.093	3.38
276.472	3.78
276.851	3.5
277.229	3.49
277.608	2.84
277.986	3.06
278.365	3.83
278.743	3.08
279.122	3.32
279.5	3.21
279.878	2.44
280.257	3.41
280.635	3.44
281.013	3.46
281.391	3.79
281.769	2.96
282.147	3.21
282.525	3.4
282.903	2.88
283.281	3.64
283.659	3.76
284.037	3.69
284.415	2.91
284.792	3.3
285.17	3.42
285.548	3.32
285.925	2.77
286.303	3.38
286.68	3.44
287.058	3.95
287.435	3.36
287.813	2.89
288.19	3.31
288.567	3.54
288.945	3.87
289.322	4.1
289.699	3.04
290.076	4.01
290.453	3.35
290.83	3.47
291.207	3.84
291.584	3.35
291.961	3.6
292.338	3.41
292.715	3.59
293.092	3.55
293.469	4.01
293.845	3.57
294.222	3.71
294.599	3.48
294.975	4.67
295.352	3.95
295.728	3.88
296.105	3.95
296.481	3.96
296.858	4.12
297.234	4.23
297.61	3.3
297.986	3.93
298.363	4.64
298.739	4.23
299.115	4.02
299.491	4.16
299.867	4.3
300.243	4.11
300.619	4.33
300.995	4.24
301.371	4.5
301.746	4.73
302.122	4.6
302.498	4.51
302.874	4.64
303.249	4.76
303.625	4.68
304	5.14
304.376	4.57
304.751	4.13
305.127	4.43
305.502	5.52
305.878	4.99
306.253	4.85
306.628	4.58
307.003	5.05
307.378	4.73
307.754	4.8
308.129	5.38
308.504	5.33
308.879	5.25
309.254	6.24
309.629	5.28
310.003	4.75
310.378	5.76
310.753	5.89
311.128	5.59
311.502	5.42
311.877	5.56
312.252	5.26
312.626	6
313.001	5.79
313.375	5.78
313.75	5.55
314.124	5.56
314.498	6.39
314.873	5.69
315.247	5.95
315.621	6.31
315.995	6.47
316.369	5.78
316.743	6.14
317.117	6.46
317.491	5.79
317.865	6.8
318.239	6.92
318.613	6.3
318.987	6.11
319.361	6.03
319.734	5.87
320.108	6.42
320.482	6.5
320.855	6.78
321.229	7.37
321.602	6.83
321.976	7.11
322.349	7.32
322.723	6.34
323.096	7.08
323.469	7.2
323.843	7.2
324.216	6.76
324.589	7.23
324.962	7.66
325.335	7.21
325.708	7.26
326.081	7.09
326.454	7.44
326.827	7.61
327.2	7.62
327.573	7.61
327.945	7.54
328.318	7.8
328.691	7.48
329.063	8.2
329.436	7.16
329.809	7.82
330.181	8
330.553	8.07
330.926	8.13
331.298	7.78
331.671	7.97
332.043	7.97
332.415	7.73
332.787	7.69
333.159	7.71
333.532	8.22
333.904	8.13
334.276	8.13
334.648	8.59
335.02	8.54
335.391	8.01
335.763	8.45
336.135	8.52
336.507	8.42
336.879	8.02
337.25	8.31
337.622	8.1
337.993	8.83
338.365	8.41
338.736	8.77
339.108	8.68
339.479	8.17
339.851	9.21
340.222	8.3
340.593	8.22
340.964	9.02
341.336	9.27
341.707	9.09
342.078	8.81
342.449	8.33
342.82	8.86
343.191	8.61
343.562	9.26
343.933	9
344.303	9.23
344.674	9.39
345.045	9.07
345.416	9.35
345.786	9.2
346.157	9.15
346.527	9.38
346.898	9.45
347.268	9.39
347.639	9.49
348.009	8.98
348.38	9.18
348.75	8.99
349.12	9.22
349.49	9.39
349.861	9.66
350.231	9.31
350.601	9.48
350.971	9.62
351.341	9.93
351.711	9.98
352.081	9.97
352.45	9.41
352.82	9.83
353.19	10.16
353.56	10.22
353.929	9.67
354.299	9.89
354.669	9.4
355.038	10.24
355.408	10.56
355.777	10.2
356.147	9.84
356.516	9.97
356.885	9.91
357.254	10.13
357.624	10.08
357.993	10.04
358.362	10.2
358.731	9.85
359.1	10.06
359.469	9.98
359.838	10.35
360.207	10.37
360.576	10.57
360.945	10.19
361.314	10.35
361.682	10.52
362.051	10.16
362.42	9.97
362.788	10.4
363.157	10.48
363.525	10.36
363.894	10.32
364.262	10.58
364.631	10.65
364.999	10.38
365.367	10.48
365.735	10.34
366.104	10.64
366.472	10.83
366.84	10.75
367.208	10.58
367.576	10.78
367.944	11.07
368.312	10.73
368.68	10.85
369.048	11.01
369.416	11.08
369.783	11.15
370.151	10.98
370.519	11.1
370.886	11.56
371.254	10.77
371.621	11.61
371.989	11.27
372.356	11.27
372.724	11.34
373.091	11.33
373.458	10.94
373.826	11.18
374.193	11.03
374.56	11.32
374.927	11.74
375.294	11.86
375.661	11.38
376.028	11.82
376.395	11.7
376.762	11.73
377.129	11.69
377.496	11.7
377.863	11.99
378.229	11.61
378.596	11.64
378.963	11.6
379.329	11.93
379.696	12.01
380.062	11.99
380.429	11.76
380.795	11.89
381.161	11.85
381.528	11.98
381.894	11.89
382.26	12.15
382.626	12.62
382.993	12.22
383.359	12.44
383.725	12.27
384.091	11.99
384.457	12.11
384.823	12.14
385.188	12.44
385.554	12.37
385.92	12.33
386.286	12.57
386.651	12.05
387.017	12.71
387.383	12.41
387.748	12.27
388.114	11.98
388.479	12.23
388.845	12.65
389.21	12.38
389.575	12.42
389.94	12.61
390.306	12.66
390.671	12.63
391.036	12.59
391.401	13.08
391.766	12.96
392.131	12.89
392.496	12.91
392.861	12.95
393.226	13.05
393.591	12.96
393.956	12.91
394.32	13.05
394.685	12.86
395.05	13.38
395.414	13.07
395.779	13
396.143	12.82
396.508	13.09
396.872	13.33
397.236	13.31
397.601	13.28
397.965	13.04
398.329	13.15
398.694	13.29
399.058	13.23
399.422	13.44
399.786	13.4
400.15	13.23
400.514	13.15
400.878	13.46
401.242	13.56
401.605	13.55
401.969	13.63
402.333	13.53
402.697	13.53
403.06	13.78
403.424	13.69
403.787	13.68
404.151	13.58
404.514	13.8
404.878	14.05
405.241	13.94
405.604	13.53
405.968	14.07
406.331	13.71
406.694	13.72
407.057	13.88
407.42	14.16
407.783	14.01
408.146	13.99
408.509	14.13
408.872	14.15
409.235	13.94
409.598	14.26
409.961	14.25
410.323	14.19
410.686	13.84
411.049	14.06
411.411	14.61
411.774	14.55
412.136	14.4
412.499	14.51
412.861	14.48
413.223	14.45
413.586	14.54
413.948	14.58
414.31	14.86
414.672	14.62
415.035	14.45
415.397	14.63
415.759	14.77
416.121	14.63
416.483	14.99
416.845	14.62
417.206	14.84
417.568	14.94
417.93	14.64
418.292	14.6
418.653	14.88
419.015	14.58
419.377	14.73
419.738	14.84
420.1	14.64
420.461	14.76
420.822	14.79
421.184	14.75
421.545	14.79
421.906	14.73
422.267	14.81
422.629	14.86
422.99	14.66
423.351	14.8
423.712	14.76
424.073	14.86
424.434	14.88
424.795	15.03
425.155	15.05
425.516	15.06
425.877	15.18
426.238	15.02
426.598	15.13
426.959	15.02
427.32	15.24
427.68	15.34
428.041	15.29
428.401	15.29
428.761	15.32
429.122	15.46
429.482	15.47
429.842	15.53
430.202	15.6
430.563	15.47
430.923	15.54
431.283	15.87
431.643	15.6
432.003	15.81
432.363	15.82
432.722	15.96
433.082	15.92
433.442	15.8
433.802	16.05
434.161	15.86
434.521	15.96
434.881	16.04
435.24	16.01
435.6	15.8
435.959	16.04
436.319	16.18
436.678	16.1
437.037	16.13
437.396	16.14
437.756	16.35
438.115	16.31
438.474	16.25
438.833	16.49
439.192	16.25
439.551	16.22
439.91	16.46
440.269	16.38
440.628	16.32
440.987	16.39
441.345	16.49
441.704	16.49
442.063	16.39
442.421	16.59
442.78	16.42
443.138	16.63
443.497	16.53
443.855	16.57
444.214	16.55
444.572	16.73
444.93	16.8
445.288	16.83
445.647	17
446.005	16.69
446.363	16.98
446.721	16.86
447.079	17.02
447.437	16.92
447.795	16.77
448.153	16.72
448.51	16.75
448.868	16.82
449.226	16.82
449.584	16.87
449.941	16.93
450.299	17.03
450.656	17.1
451.014	17.16
451.371	17.19
451.729	17.34
452.086	17.23
452.443	17.48
452.801	17.54
453.158	17.58
453.515	17.28
453.872	17.6
454.229	17.7
454.586	17.54
454.943	17.52
455.3	17.56
455.657	17.71
456.014	17.77
456.371	17.73
456.727	17.83
457.084	17.69
457.441	18.08
457.797	17.9
458.154	17.73
458.51	17.83
458.867	17.89
459.223	18.03
459.58	17.96
459.936	17.88
460.292	17.99
460.648	18
461.005	17.95
461.361	17.83
461.717	17.73
462.073	17.8
462.429	17.87
462.785	18.02
463.141	18.1
463.496	18.12
463.852	18.38
464.208	18.49
464.564	18.54
464.919	18.55
465.275	18.56
465.631	18.76
465.986	18.6
466.342	18.66
466.697	18.46
467.052	18.58
467.408	18.8
467.763	18.74
468.118	19.03
468.473	18.77
468.829	18.9
469.184	18.75
469.539	18.61
469.894	18.93
470.249	18.88
470.603	18.9
470.958	18.83
471.313	18.98
471.668	19.07
472.023	19.21
472.377	19.14
472.732	19.04
473.086	19.32
473.441	19.27
473.795	19.42
474.15	19.24
474.504	19.19
474.859	19.32
475.213	19.35
475.567	19.34
475.921	19.26
476.275	19.46
476.63	19.61
476.984	19.52
477.338	19.6
477.692	19.58
478.045	19.55
478.399	19.53
478.753	19.58
479.107	19.54
479.461	19.62
479.814	19.87
480.168	19.8
480.521	19.75
480.875	19.67
481.228	19.83
481.582	20.02
481.935	19.69
482.289	19.76
482.642	19.79
482.995	19.88
483.348	19.84
483.701	19.79
484.055	19.77
484.408	19.61
484.761	19.59
485.114	19.4
485.466	19.24
485.819	19.21
486.172	19.17
486.525	19.16
486.878	19.26
487.23	19.37
487.583	19.47
487.936	19.61
488.288	19.67
488.641	19.85
488.993	19.66
489.345	19.62
489.698	19.56
490.05	19.51
490.402	19.62
490.754	19.66
491.107	19.77
491.459	20.01
491.811	20.12
492.163	20.24
492.515	20.3
492.866	20.34
493.218	20.15
493.57	19.98
493.922	20.03
494.274	20.1
494.625	20.17
494.977	20.26
495.328	20.48
495.68	20.64
496.031	20.63
496.383	20.86
496.734	20.91
497.086	21.01
497.437	21.03
497.788	21.02
498.139	21.37
498.49	21.04
498.842	20.9
499.193	21.23
499.544	21.11
499.894	21.02
500.245	21.07
500.596	21.16
500.947	21.27
501.298	21.31
501.648	21.45
501.999	21.46
502.35	21.36
502.7	21.6
503.051	21.64
503.401	21.76
503.752	21.69
504.102	21.77
504.452	21.75
504.803	21.77
505.153	21.84
505.503	21.78
505.853	21.96
506.203	21.73
506.553	21.83
506.903	21.87
507.253	21.95
507.603	21.94
507.953	22.11
508.303	22.28
508.652	22.16
509.002	22.26
509.352	22.28
509.701	22.2
510.051	22.01
510.4	22.18
510.75	22.18
511.099	22.23
511.449	22.07
511.798	22.1
512.147	22.14
512.496	22.22
512.846	22.31
513.195	22.37
513.544	22.35
513.893	22.39
514.242	22.42
514.591	22.41
514.939	22.39
515.288	22.62
515.637	22.62
515.986	22.65
516.334	22.62
516.683	22.67
517.032	22.71
517.38	22.78
517.729	22.91
518.077	22.92
518.426	22.94
518.774	22.87
519.122	23.02
519.47	23.01
519.819	22.76
520.167	22.79
520.515	22.73
520.863	22.77
521.211	22.75
521.559	22.79
521.907	23
522.255	23.02
522.602	23.09
522.95	23.31
523.298	23.21
523.645	23.33
523.993	23.32
524.341	23.34
524.688	23.43
525.036	23.51
525.383	23.63
525.73	23.58
526.078	23.62
526.425	23.54
526.772	23.6
527.119	23.4
527.466	23.33
527.814	23.37
528.161	23.32
528.508	23.36
528.854	23.47
529.201	23.25
529.548	23.35
529.895	23.28
530.242	23.18
530.588	23.01
530.935	23.19
531.282	23.22
531.628	23.21
531.975	23.16
532.321	23.34
532.667	23.48
533.014	23.69
533.36	23.78
533.706	23.96
534.052	23.93
534.399	23.88
534.745	23.87
535.091	23.71
535.437	23.72
535.783	23.72
536.129	23.9
536.474	23.88
536.82	24.12
537.166	24.08
537.512	24.47
537.857	24.4
538.203	24.48
538.549	24.46
538.894	24.27
539.239	24.45
539.585	24.28
539.93	24.45
540.276	24.67
540.621	24.85
540.966	24.89
541.311	24.9
541.656	24.92
542.001	25.03
542.346	24.91
542.691	24.6
543.036	24.68
543.381	24.38
543.726	24.36
544.071	24.41
544.415	24.44
544.76	24.55
545.105	24.81
545.449	24.79
545.794	24.9
546.138	25.02
546.483	24.94
546.827	25.27
547.171	25.3
547.516	25.3
547.86	25.47
548.204	25.4
548.548	25.47
548.892	25.27
549.236	25.56
549.58	25.42
549.924	25.59
550.268	25.63
550.612	25.81
550.956	25.92
551.3	26
551.643	25.97
551.987	26.02
552.33	26.28
552.674	26.2
553.017	26.36
553.361	26.29
553.704	26.24
554.048	26.29
554.391	26.46
554.734	26.24
555.077	26.33
555.42	26.19
555.764	26.46
556.107	26.39
556.45	26.43
556.793	26.59
557.135	26.76
557.478	26.67
557.821	26.82
558.164	26.88
558.507	26.77
558.849	26.86
559.192	27.13
559.534	27
559.877	26.95
560.219	27.11
560.562	27.15
560.904	26.73
561.246	26.96
561.589	26.99
561.931	27.07
562.273	27.04
562.615	27.43
562.957	27.33
563.299	27.27
563.641	27.31
563.983	27.07
564.325	27.15
564.667	27.29
565.008	27.46
565.35	27.09
565.692	27.63
566.033	27.62
566.375	27.55
566.716	27.59
567.058	27.62
567.399	27.61
567.741	27.68
568.082	27.78
568.423	27.66
568.764	27.36
569.105	27.73
569.447	27.72
569.788	27.87
570.129	27.66
570.47	27.82
570.811	28.1
571.151	27.88
571.492	27.92
571.833	28.17
572.174	28.01
572.514	28.12
572.855	28.16
573.195	28.18
573.536	28.02
573.876	28.24
574.217	27.99
574.557	28.11
574.898	28.03
575.238	28.25
575.578	28.23
575.918	28.23
576.258	28.37
576.598	28.44
576.938	28.54
577.278	28.42
577.618	28.24
577.958	28.39
578.298	28.56
578.638	28.63
578.977	28.98
579.317	28.55
579.657	28.72
579.996	28.87
580.336	28.97
580.675	28.9
581.014	28.94
581.354	29.09
581.693	29.15
582.032	29.25
582.372	28.97
582.711	29.15
583.05	29.38
583.389	29.28
583.728	29.17
584.067	29.19
584.406	29.24
584.745	29.54
585.083	29.53
585.422	29.51
585.761	29.3
586.1	29.67
586.438	29.25
586.777	29.32
587.115	29.5
587.454	29.71
587.792	29.53
588.13	29.75
588.469	29.68
588.807	29.68
589.145	29.85
589.483	29.81
589.821	29.76
590.159	29.91
590.497	29.84
590.835	30.16
591.173	29.7
591.511	30.06
591.849	29.64
592.187	29.82
592.524	29.94
592.862	29.82
593.2	30.36
593.537	29.75
593.875	30.28
594.212	30.21
594.55	30.13
594.887	30.41
595.224	30.21
595.561	30.12
595.899	30.31
596.236	30.48
596.573	30.32
596.91	30.65
597.247	30.42
597.584	30.41
597.921	30.57
598.258	30.49
598.594	30.76
598.931	30.16
599.268	30.13
599.604	30.33
599.941	30.32
600.277	30.39
600.614	30.78
600.95	30.67
601.287	30.83
601.623	30.88
601.959	30.85
602.296	30.96
602.632	30.69
602.968	31.01
603.304	30.99
603.64	30.81
603.976	31.11
604.312	31.07
604.648	30.96
604.984	31.29
605.319	31.03
605.655	30.96
605.991	31.06
606.326	31.05
606.662	31.12
606.998	30.81
607.333	31.16
607.668	30.9
608.004	30.99
608.339	31.13
608.674	31.42
609.01	31.38
609.345	31.49
609.68	31.27
610.015	31.5
610.35	31.73
610.685	31.5
611.02	31.64
611.355	31.46
611.689	31.35
612.024	31.49
612.359	31.56
612.694	31.78
613.028	31.64
613.363	31.76
613.697	31.69
614.032	32.12
614.366	31.97
614.7	32.02
615.035	31.89
615.369	32.01
615.703	31.85
616.037	32.14
616.371	31.9
616.705	32.01
617.039	32.29
617.373	32.02
617.707	32.36
618.041	32.09
618.375	32.49
618.709	32.23
619.042	32.02
619.376	32.55
619.71	32.61
620.043	32.72
620.377	32.83
620.71	33.05
621.043	32.83
621.377	32.6
621.71	32.73
622.043	32.52
622.376	33.07
622.709	32.84
623.043	32.6
623.376	32.42
623.709	32.93
624.041	32.7
624.374	33.04
624.707	32.74
625.04	32.72
625.373	33.23
625.705	32.89
626.038	33.14
626.37	33
626.703	32.95
627.035	32.69
627.368	33.16
627.7	33.11
628.032	32.85
628.365	33.59
628.697	33.3
629.029	33.08
629.361	33.49
629.693	33.11
630.025	33.08
630.357	33.21
630.689	33.24
631.021	33.5
631.353	33.66
631.684	33.29
632.016	33.44
632.348	33.29
632.679	33.66
633.011	33.38
633.342	33.74
633.674	33.49
634.005	33.66
634.336	33.85
634.668	33.88
634.999	33.66
635.33	33.54
635.661	33.6
635.992	34.09
636.323	34.01
636.654	34.35
636.985	33.88
637.316	33.94
637.647	34
637.977	33.82
638.308	33.76
638.639	34.06
638.969	34.43
639.3	33.99
639.63	34.36
639.961	33.81
640.291	34.24
640.622	34.16
640.952	34.34
641.282	34.26
641.612	34.22
641.943	34.75
642.273	34.51
642.603	34.7
642.933	34.3
643.263	34.71
643.592	34.35
643.922	34.77
644.252	34.75
644.582	34.42
644.911	34.61
645.241	34.98
645.571	35.18
645.9	34.29
646.23	34.37
646.559	35.05
646.888	34.85
647.218	34.83
647.547	34.26
647.876	34.54
648.205	34.93
648.534	34.66
648.863	35.14
649.192	35.18
649.521	35.12
649.85	35.41
650.179	35.47
650.508	35.26
650.837	35.55
651.165	35.42
651.494	34.68
651.822	35.03
652.151	35.16
652.479	35.17
652.808	35.31
653.136	35.06
653.465	35.27
653.793	35.34
654.121	35.52
654.449	35.95
654.777	35.09
655.105	35.44
655.433	35.6
655.761	35.58
656.089	36.21
656.417	36
656.745	35.57
657.073	35.94
657.4	36.58
657.728	35.77
658.056	35.82
658.383	35.54
658.711	35.59
659.038	36.09
659.365	35.49
659.693	35.61
660.02	35.78
660.347	35.84
660.674	35.65
661.001	35.53
661.329	35.71
661.656	36.22
661.982	35.6
662.309	35.73
662.636	35.47
662.963	35.84
663.29	35.63
663.616	36.3
663.943	35.67
664.27	36.1
664.596	35.86
664.923	36.25
665.249	36.14
665.576	36.1
665.902	36.64
666.228	36.44
666.554	37.07
666.881	36.48
667.207	36.52
667.533	35.88
667.859	36.31
668.185	36.4
668.511	37.67
668.837	36.45
669.162	36.93
669.488	36.26
669.814	36.43
670.139	36.24
670.465	36.76
670.791	36.78
671.116	36.14
671.442	36.95
