Data from 0344_forehead_Reflection__2__336.txt Node

Date: Fri Oct 20 23:20:28 CDT 2023
User: ToomeyLab
Spectrometer: FLMS14357
Trigger mode: 0
Integration Time (sec): 1.000000E-2
Scans to average: 100
Electric dark correction enabled: true
Nonlinearity correction enabled: false
Boxcar width: 0
XAxis mode: Wavelengths
Number of Pixels in Spectrum: 2048
>>>>>Begin Spectral Data<<<<<
189.047	-54.33
189.435	-54.33
189.823	-54.33
190.211	242.31
190.599	128.12
190.987	203.78
191.375	-75.42
191.763	41.49
192.151	15.17
192.538	52.02
192.926	104.68
193.314	231.36
193.702	119.06
194.089	46.62
194.477	265.53
194.864	105.53
195.252	116.76
195.639	-2.3
196.027	-932.97
196.414	194.28
196.801	11.66
197.189	426.1
197.576	172.36
197.963	-259.75
198.351	25.75
198.738	11.2
199.125	11.97
199.512	35.76
199.899	-19.45
200.286	-48.02
200.673	16.97
201.06	24.18
201.447	-26.22
201.833	66.76
202.22	23.47
202.607	46.03
202.994	27.9
203.38	18.18
203.767	14.84
204.154	41.69
204.54	37.8
204.927	37.72
205.313	2.6
205.699	47.98
206.086	45.81
206.472	26.01
206.858	37.35
207.245	8.51
207.631	16.76
208.017	41.69
208.403	6.16
208.789	33.71
209.175	-4.36
209.561	13.33
209.947	-13.03
210.333	47.82
210.719	5.54
211.105	37.76
211.491	22.66
211.876	11.81
212.262	22.27
212.648	17.05
213.034	15.83
213.419	8.34
213.805	29.85
214.19	19.56
214.576	-6.22
214.961	2.88
215.346	15.84
215.732	7.61
216.117	-43.97
216.502	20.1
216.888	12.87
217.273	4.77
217.658	5.88
218.043	0.37
218.428	17.74
218.813	8.84
219.198	9.38
219.583	12.5
219.968	-21.55
220.353	11.56
220.738	19.14
221.122	-5.84
221.507	-1.94
221.892	7.09
222.276	-4.65
222.661	21.78
223.046	3.75
223.43	-1.91
223.815	13.32
224.199	29.24
224.583	0.73
224.968	3.22
225.352	8.38
225.736	0.97
226.121	11.08
226.505	0.98
226.889	8.81
227.273	6.29
227.657	8.74
228.041	7.38
228.425	3.73
228.809	3.08
229.193	0.63
229.577	3.35
229.961	2.39
230.344	3.79
230.728	2.96
231.112	3.8
231.495	2.4
231.879	3.82
232.263	4.44
232.646	2.02
233.03	4.09
233.413	2.31
233.797	3.34
234.18	2.82
234.563	2.93
234.946	7.46
235.33	2.74
235.713	3.6
236.096	3.93
236.479	4.77
236.862	2.92
237.245	2.61
237.628	3.34
238.011	3.53
238.394	2.69
238.777	5.51
239.16	4.07
239.543	4.55
239.925	5.62
240.308	5.42
240.691	5.7
241.073	3.73
241.456	3.24
241.838	4.15
242.221	4.62
242.603	4.1
242.986	3.33
243.368	4.37
243.75	4.11
244.133	3.28
244.515	3.2
244.897	3.59
245.279	3.93
245.661	3.73
246.043	3.65
246.425	2.77
246.807	2.17
247.189	3.87
247.571	3.16
247.953	3.71
248.335	3.98
248.717	3.53
249.098	3.16
249.48	3.35
249.862	3.61
250.243	4.06
250.625	4.13
251.006	3.61
251.388	4.01
251.769	4.95
252.151	3.32
252.532	4.4
252.913	3.79
253.295	2.65
253.676	3.52
254.057	3.57
254.438	3.65
254.819	3.85
255.2	3.94
255.581	4.08
255.962	4.34
256.343	4.63
256.724	2.58
257.105	3.74
257.486	3.96
257.867	4.9
258.247	3.65
258.628	3.95
259.009	3.79
259.389	3.23
259.77	3.59
260.15	3.53
260.531	3.46
260.911	3.62
261.292	3.39
261.672	3.61
262.052	3.69
262.432	3.68
262.813	3.45
263.193	3.81
263.573	3.21
263.953	4.03
264.333	3.55
264.713	4.33
265.093	3.86
265.473	4
265.853	3.61
266.233	3.65
266.612	4
266.992	3.17
267.372	3.03
267.752	3.44
268.131	3.72
268.511	3.53
268.89	3.34
269.27	2.79
269.649	2.98
270.029	3.15
270.408	4.05
270.787	3.44
271.167	3.48
271.546	4.21
271.925	4.1
272.304	3.74
272.683	3.64
273.062	3.75
273.441	3.78
273.82	3.83
274.199	3.92
274.578	3.65
274.957	3.58
275.336	3.54
275.715	3.61
276.093	3.46
276.472	3.3
276.851	3.73
277.229	3.46
277.608	3.32
277.986	3.32
278.365	3.65
278.743	3.57
279.122	2.99
279.5	3.31
279.878	3.4
280.257	3.36
280.635	3.95
281.013	3.75
281.391	3.64
281.769	3.52
282.147	3.18
282.525	3.65
282.903	3.21
283.281	3.91
283.659	3.66
284.037	3.98
284.415	3.64
284.792	3.42
285.17	3.61
285.548	3.21
285.925	3.42
286.303	3.1
286.68	3.2
287.058	3.95
287.435	3.73
287.813	3.19
288.19	3.61
288.567	3.49
288.945	3.92
289.322	3.88
289.699	3.21
290.076	4.31
290.453	3.61
290.83	3.45
291.207	4
291.584	3.75
291.961	3.71
292.338	3.6
292.715	3.75
293.092	3.79
293.469	4.18
293.845	4.08
294.222	3.68
294.599	3.71
294.975	4.15
295.352	4.29
295.728	3.99
296.105	4.09
296.481	4.07
296.858	4.1
297.234	4.26
297.61	3.93
297.986	3.79
298.363	4.35
298.739	4.42
299.115	3.97
299.491	4.2
299.867	4.14
300.243	4.16
300.619	4.28
300.995	4.25
301.371	4.48
301.746	4.26
302.122	4.64
302.498	4.24
302.874	4.61
303.249	4.6
303.625	4.7
304	5.1
304.376	4.89
304.751	4.16
305.127	4.42
305.502	5.09
305.878	4.61
306.253	4.81
306.628	5.02
307.003	4.64
307.378	4.75
307.754	4.55
308.129	5.67
308.504	5.4
308.879	5.19
309.254	5.56
309.629	5.07
310.003	4.89
310.378	5.53
310.753	5.13
311.128	5.64
311.502	5.33
311.877	5.59
312.252	5.29
312.626	5.32
313.001	5.12
313.375	5.61
313.75	5.69
314.124	5.42
314.498	5.64
314.873	5.32
315.247	5.68
315.621	5.43
315.995	5.88
316.369	5.84
316.743	5.89
317.117	6.02
317.491	5.44
317.865	6.08
318.239	5.95
318.613	6.25
318.987	6.09
319.361	5.55
319.734	6.2
320.108	6.33
320.482	6.36
320.855	5.85
321.229	7.09
321.602	6.24
321.976	6.12
322.349	6.29
322.723	6.09
323.096	6.79
323.469	6.32
323.843	6.89
324.216	6.58
324.589	6.72
324.962	6.88
325.335	7.01
325.708	6.78
326.081	6.33
326.454	7.01
326.827	6.83
327.2	6.91
327.573	7.46
327.945	6.58
328.318	6.73
328.691	7.04
329.063	7.07
329.436	6.87
329.809	6.92
330.181	7.11
330.553	7.01
330.926	6.98
331.298	6.54
331.671	6.89
332.043	7.38
332.415	7.13
332.787	7.1
333.159	6.94
333.532	6.73
333.904	7.46
334.276	7.16
334.648	7.52
335.02	7.35
335.391	7.33
335.763	7.92
336.135	7.25
336.507	7.34
336.879	7.05
337.25	7.48
337.622	7.22
337.993	7.88
338.365	7.59
338.736	7.68
339.108	8.1
339.479	7.49
339.851	7.72
340.222	7.6
340.593	7.1
340.964	7.44
341.336	7.82
341.707	8.09
342.078	7.96
342.449	7.51
342.82	7.72
343.191	7.6
343.562	7.68
343.933	8
344.303	7.92
344.674	8.07
345.045	8.07
345.416	8.41
345.786	7.81
346.157	8.09
346.527	7.75
346.898	7.77
347.268	8.02
347.639	7.99
348.009	7.82
348.38	8
348.75	8.29
349.12	8.18
349.49	7.79
349.861	8.68
350.231	7.83
350.601	7.79
350.971	8.58
351.341	8.64
351.711	9.05
352.081	8.12
352.45	8.17
352.82	8.03
353.19	8.28
353.56	8.32
353.929	8.41
354.299	8.13
354.669	8.24
355.038	8.33
355.408	8.91
355.777	8.13
356.147	8.03
356.516	8.25
356.885	8.14
357.254	8.56
357.624	8.58
357.993	8.42
358.362	8.43
358.731	8.31
359.1	8.08
359.469	8.41
359.838	8.67
360.207	8.7
360.576	8.77
360.945	8.39
361.314	8.77
361.682	8.68
362.051	8.5
362.42	8.38
362.788	8.73
363.157	8.66
363.525	8.54
363.894	8.67
364.262	8.66
364.631	8.84
364.999	8.62
365.367	8.87
365.735	8.86
366.104	8.72
366.472	8.84
366.84	9.29
367.208	8.8
367.576	8.68
367.944	9.02
368.312	9.05
368.68	8.9
369.048	9.34
369.416	9.22
369.783	9.24
370.151	8.96
370.519	9.14
370.886	9.24
371.254	9.56
371.621	9.39
371.989	9.35
372.356	9.5
372.724	9.88
373.091	9.4
373.458	9.2
373.826	9.53
374.193	9.57
374.56	9.18
374.927	9.2
375.294	9.71
375.661	9.93
376.028	9.99
376.395	9.77
376.762	9.43
377.129	9.5
377.496	9.49
377.863	9.52
378.229	9.92
378.596	9.79
378.963	9.78
379.329	9.75
379.696	9.63
380.062	9.49
380.429	9.7
380.795	9.67
381.161	9.73
381.528	9.94
381.894	9.82
382.26	10.01
382.626	10.26
382.993	9.89
383.359	10.13
383.725	10
384.091	9.95
384.457	9.95
384.823	9.94
385.188	10.16
385.554	10.08
385.92	10.35
386.286	10.25
386.651	9.98
387.017	10.19
387.383	9.82
387.748	9.96
388.114	10.1
388.479	10.21
388.845	10.55
389.21	10.11
389.575	9.89
389.94	10.09
390.306	10.32
390.671	10.3
391.036	10.54
391.401	10.41
391.766	10.43
392.131	10.66
392.496	10.47
392.861	10.31
393.226	10.42
393.591	10.39
393.956	10.54
394.32	10.59
394.685	10.32
395.05	10.84
395.414	10.81
395.779	10.37
396.143	10.47
396.508	10.44
396.872	10.58
397.236	10.74
397.601	10.71
397.965	10.54
398.329	10.58
398.694	10.99
399.058	10.75
399.422	10.75
399.786	10.68
400.15	10.55
400.514	10.82
400.878	10.96
401.242	11
401.605	10.95
401.969	10.76
402.333	10.99
402.697	11.05
403.06	10.86
403.424	10.91
403.787	11.05
404.151	11.1
404.514	11.13
404.878	11.17
405.241	11.25
405.604	10.96
405.968	11.23
406.331	11.12
406.694	11.08
407.057	11.2
407.42	11.55
407.783	11.26
408.146	11.06
408.509	11.15
408.872	11.55
409.235	11.05
409.598	11.4
409.961	11.52
410.323	11.48
410.686	11.15
411.049	11.36
411.411	11.37
411.774	11.51
412.136	11.64
412.499	11.5
412.861	11.64
413.223	11.45
413.586	11.8
413.948	11.63
414.31	11.93
414.672	11.64
415.035	11.7
415.397	11.82
415.759	11.63
416.121	11.76
416.483	11.75
416.845	11.69
417.206	12
417.568	11.84
417.93	11.81
418.292	11.63
418.653	11.96
419.015	11.65
419.377	11.79
419.738	11.66
420.1	11.72
420.461	11.72
420.822	11.74
421.184	11.86
421.545	11.81
421.906	11.77
422.267	11.65
422.629	11.74
422.99	11.58
423.351	11.62
423.712	11.7
424.073	11.77
424.434	11.87
424.795	11.8
425.155	11.85
425.516	11.93
425.877	11.96
426.238	11.92
426.598	11.87
426.959	11.93
427.32	12.04
427.68	12.13
428.041	12.07
428.401	12.14
428.761	12.15
429.122	12.16
429.482	12.38
429.842	12.31
430.202	12.28
430.563	12.39
430.923	12.53
431.283	12.48
431.643	12.64
432.003	12.63
432.363	12.53
432.722	12.52
433.082	12.58
433.442	12.64
433.802	12.88
434.161	12.66
434.521	12.71
434.881	12.67
435.24	12.66
435.6	12.66
435.959	12.59
436.319	12.64
436.678	12.85
437.037	12.79
437.396	12.9
437.756	12.92
438.115	12.68
438.474	13.03
438.833	12.99
439.192	12.69
439.551	12.8
439.91	12.8
440.269	13.11
440.628	13
440.987	13.04
441.345	13
441.704	12.91
442.063	12.94
442.421	13.07
442.78	12.94
443.138	13.04
443.497	13.02
443.855	13.04
444.214	13.14
444.572	13.08
444.93	13.3
445.288	13.32
445.647	13.45
446.005	13.01
446.363	13.35
446.721	13.26
447.079	13.39
447.437	13.28
447.795	13.16
448.153	13.28
448.51	13.22
448.868	13.14
449.226	13.27
449.584	13.38
449.941	13.35
450.299	13.43
450.656	13.34
451.014	13.55
451.371	13.64
451.729	13.52
452.086	13.77
452.443	13.7
452.801	13.62
453.158	13.85
453.515	13.8
453.872	13.95
454.229	13.89
454.586	13.8
454.943	13.68
455.3	13.79
455.657	14.05
456.014	13.93
456.371	14.05
456.727	13.92
457.084	13.96
457.441	14.15
457.797	14.1
458.154	13.85
458.51	14.09
458.867	14.08
459.223	14.11
459.58	14
459.936	14.23
460.292	14.22
460.648	14.06
461.005	14.13
461.361	14.07
461.717	13.87
462.073	14.01
462.429	14.02
462.785	14.1
463.141	14.34
463.496	14.19
463.852	14.38
464.208	14.49
464.564	14.62
464.919	14.55
465.275	14.77
465.631	14.78
465.986	14.67
466.342	14.62
466.697	14.67
467.052	14.6
467.408	14.72
467.763	14.84
468.118	15.04
468.473	14.79
468.829	14.86
469.184	14.87
469.539	14.77
469.894	14.97
470.249	14.88
470.603	14.96
470.958	14.91
471.313	14.93
471.668	14.94
472.023	15.1
472.377	14.96
472.732	14.93
473.086	15.16
473.441	15.17
473.795	15.28
474.15	15.1
474.504	15.06
474.859	15.24
475.213	15.27
475.567	15.49
475.921	15.37
476.275	15.23
476.63	15.44
476.984	15.37
477.338	15.24
477.692	15.35
478.045	15.39
478.399	15.21
478.753	15.44
479.107	15.45
479.461	15.34
479.814	15.65
480.168	15.74
480.521	15.54
480.875	15.52
481.228	15.76
481.582	15.8
481.935	15.56
482.289	15.54
482.642	15.49
482.995	15.59
483.348	15.7
483.701	15.6
484.055	15.51
484.408	15.43
484.761	15.42
485.114	15.21
485.466	15
485.819	14.84
486.172	14.8
486.525	14.93
486.878	15.09
487.23	15.16
487.583	15.28
487.936	15.38
488.288	15.39
488.641	15.56
488.993	15.34
489.345	15.28
489.698	15.26
490.05	15.23
490.402	15.32
490.754	15.49
491.107	15.54
491.459	15.67
491.811	15.78
492.163	15.85
492.515	15.85
492.866	15.92
493.218	15.73
493.57	15.58
493.922	15.68
494.274	15.76
494.625	15.83
494.977	16.02
495.328	16.2
495.68	16.22
496.031	16.32
496.383	16.45
496.734	16.48
497.086	16.62
497.437	16.66
497.788	16.61
498.139	16.62
498.49	16.48
498.842	16.3
499.193	16.55
499.544	16.54
499.894	16.63
500.245	16.7
500.596	16.67
500.947	16.67
501.298	16.68
501.648	16.87
501.999	16.89
502.35	16.86
502.7	16.93
503.051	17.06
503.401	16.94
503.752	17.08
504.102	17.16
504.452	17.19
504.803	17.13
505.153	17.16
505.503	17.18
505.853	17.19
506.203	17.11
506.553	17.24
506.903	17.12
507.253	17.37
507.603	17.34
507.953	17.4
508.303	17.33
508.652	17.52
509.002	17.44
509.352	17.46
509.701	17.53
510.051	17.44
510.4	17.56
510.75	17.3
511.099	17.4
511.449	17.41
511.798	17.44
512.147	17.41
512.496	17.58
512.846	17.57
513.195	17.71
513.544	17.64
513.893	17.59
514.242	17.68
514.591	17.75
514.939	17.58
515.288	17.71
515.637	17.8
515.986	17.87
516.334	17.89
516.683	17.91
517.032	17.88
517.38	17.84
517.729	18.07
518.077	18.02
518.426	18.06
518.774	18.14
519.122	18.14
519.47	18.13
519.819	18.11
520.167	17.87
520.515	17.84
520.863	17.84
521.211	17.98
521.559	17.92
521.907	18.02
522.255	18.13
522.602	18.28
522.95	18.29
523.298	18.33
523.645	18.35
523.993	18.35
524.341	18.47
524.688	18.61
525.036	18.47
525.383	18.54
525.73	18.58
526.078	18.64
526.425	18.64
526.772	18.56
527.119	18.57
527.466	18.29
527.814	18.31
528.161	18.37
528.508	18.4
528.854	18.42
529.201	18.41
529.548	18.42
529.895	18.34
530.242	18.08
530.588	17.91
530.935	18
531.282	18.14
531.628	18.22
531.975	18.31
532.321	18.44
532.667	18.52
533.014	18.63
533.36	18.84
533.706	18.86
534.052	18.9
534.399	18.68
534.745	18.68
535.091	18.61
535.437	18.66
535.783	18.66
536.129	18.82
536.474	18.86
536.82	19.04
537.166	19.17
537.512	19.22
537.857	19.29
538.203	19.2
538.549	19.37
538.894	19.1
539.239	19.16
539.585	19.32
539.93	19.41
540.276	19.62
540.621	19.49
540.966	19.81
541.311	19.56
541.656	19.65
542.001	19.69
542.346	19.78
542.691	19.46
543.036	19.38
543.381	19.1
543.726	19.11
544.071	19.22
544.415	19.29
544.76	19.42
545.105	19.68
545.449	19.61
545.794	19.69
546.138	19.71
546.483	19.76
546.827	19.92
547.171	20.15
547.516	20.07
547.86	20.14
548.204	20.05
548.548	20.21
548.892	20.08
549.236	20.23
549.58	20.22
549.924	20.27
550.268	20.5
550.612	20.46
550.956	20.7
551.3	20.56
551.643	20.7
551.987	20.85
552.33	20.89
552.674	20.72
553.017	20.68
553.361	20.98
553.704	20.88
554.048	20.92
554.391	20.96
554.734	20.76
555.077	20.94
555.42	20.95
555.764	21.08
556.107	21.35
556.45	21.12
556.793	20.96
557.135	21.15
557.478	21.33
557.821	21.28
558.164	21.4
558.507	21.49
558.849	21.56
559.192	21.4
559.534	21.38
559.877	21.29
560.219	21.66
560.562	21.56
560.904	21.59
561.246	21.44
561.589	21.42
561.931	21.59
562.273	21.75
562.615	21.54
562.957	21.84
563.299	21.74
563.641	21.6
563.983	21.69
564.325	21.85
564.667	21.72
565.008	21.84
565.35	21.9
565.692	21.66
566.033	22.01
566.375	21.96
566.716	22.22
567.058	22.03
567.399	22.03
567.741	21.77
568.082	22.23
568.423	22.04
568.764	22.04
569.105	22.36
569.447	22.17
569.788	22.15
570.129	21.93
570.47	22.37
570.811	22.47
571.151	22.24
571.492	22.5
571.833	22.62
572.174	22.48
572.514	22.51
572.855	22.37
573.195	22.39
573.536	22.37
573.876	22.56
574.217	22.27
574.557	22.39
574.898	22.33
575.238	22.61
575.578	22.51
575.918	22.6
576.258	22.79
576.598	22.59
576.938	22.86
577.278	22.71
577.618	22.56
577.958	22.84
578.298	22.83
578.638	22.98
578.977	22.86
579.317	22.86
579.657	22.81
579.996	23.24
580.336	23.2
580.675	22.99
581.014	23.07
581.354	23.36
581.693	23.26
582.032	23.32
582.372	23.23
582.711	23.4
583.05	23.61
583.389	23.64
583.728	23.67
584.067	23.49
584.406	23.7
584.745	23.61
585.083	23.46
585.422	23.83
585.761	23.51
586.1	23.91
586.438	23.55
586.777	23.68
587.115	23.91
587.454	23.75
587.792	23.72
588.13	23.88
588.469	24.05
588.807	23.77
589.145	23.91
589.483	23.9
589.821	23.88
590.159	24.16
590.497	24.14
590.835	23.93
591.173	24.18
591.511	24.18
591.849	23.87
592.187	24.23
592.524	23.89
592.862	23.88
593.2	24.31
593.537	23.94
593.875	24.41
594.212	24.26
594.55	24.21
594.887	24.61
595.224	24.47
595.561	24.38
595.899	24.25
596.236	24.21
596.573	24.49
596.91	24.5
597.247	24.6
597.584	24.33
597.921	24.36
598.258	24.58
598.594	24.77
598.931	24.56
599.268	24.28
599.604	24.36
599.941	24.58
600.277	24.84
600.614	24.69
600.95	24.81
601.287	24.55
601.623	24.96
601.959	25.01
602.296	24.94
602.632	25.09
602.968	25.07
603.304	25.06
603.64	24.96
603.976	25.47
604.312	25.31
604.648	24.95
604.984	24.95
605.319	25.04
605.655	24.97
605.991	25
606.326	25.1
606.662	24.73
606.998	24.91
607.333	24.67
607.668	24.88
608.004	25.01
608.339	25.19
608.674	25.14
609.01	25.29
609.345	25.64
609.68	25.62
610.015	25.43
610.35	25.52
610.685	25.46
611.02	25.14
611.355	25.36
611.689	25.37
612.024	25.27
612.359	25.35
612.694	25.68
613.028	25.69
613.363	25.57
613.697	25.89
614.032	25.58
614.366	25.85
614.7	25.84
615.035	25.91
615.369	26.22
615.703	25.63
616.037	26.15
616.371	26.16
616.705	25.73
617.039	26.16
617.373	26.03
617.707	26.27
618.041	26.25
618.375	26.23
618.709	25.96
619.042	26.24
619.376	26.64
619.71	26.47
620.043	26.7
620.377	26.29
620.71	26.7
621.043	26.54
621.377	26.54
621.71	26.7
622.043	26.32
622.376	26.65
622.709	26.72
623.043	26.5
623.376	26.77
623.709	26.38
624.041	26.51
624.374	27.19
624.707	26.85
625.04	26.68
625.373	26.76
625.705	26.67
626.038	26.9
626.37	26.79
626.703	26.83
627.035	26.36
627.368	27.02
627.7	27.07
628.032	26.54
628.365	26.99
628.697	26.96
629.029	26.68
629.361	27.17
629.693	27.03
630.025	26.7
630.357	26.87
630.689	26.98
631.021	27.27
631.353	27.24
631.684	26.95
632.016	27.25
632.348	26.92
632.679	27.09
633.011	27.43
633.342	27.05
633.674	27.28
634.005	27.51
634.336	27.97
634.668	27.81
634.999	27.1
635.33	27.65
635.661	27.6
635.992	27.43
636.323	27.59
636.654	27.26
636.985	27.61
637.316	27.6
637.647	27.52
637.977	27.53
638.308	27.4
638.639	27.92
638.969	28.03
639.3	27.66
639.63	28.02
639.961	27.55
640.291	27.81
640.622	28.26
640.952	28.18
641.282	27.5
641.612	28.32
641.943	28.08
642.273	28.22
642.603	28.46
642.933	27.63
643.263	28.34
643.592	28.29
643.922	28.75
644.252	28.19
644.582	28.85
644.911	28.34
645.241	28.48
645.571	28.77
645.9	28.36
646.23	28.15
646.559	27.66
646.888	28.93
647.218	28.38
647.547	28.6
647.876	28.18
648.205	29
648.534	28.65
648.863	28.6
649.192	28.71
649.521	28.55
649.85	28.69
650.179	28.44
650.508	28.59
650.837	28.91
651.165	28.69
651.494	28.75
651.822	28.86
652.151	28.75
652.479	28.81
652.808	29.06
653.136	29.12
653.465	28.7
653.793	28.95
654.121	28.95
654.449	28.72
654.777	28.7
655.105	28.86
655.433	29.38
655.761	29.36
656.089	28.95
656.417	29.18
656.745	29.39
657.073	29.35
657.4	29.92
657.728	29.24
658.056	29.06
658.383	29.51
658.711	29.39
659.038	30
659.365	29.65
659.693	29.14
660.02	29.6
660.347	29.65
660.674	29.21
661.001	29.08
661.329	29.51
661.656	29.38
661.982	28.92
662.309	29.15
662.636	29.07
662.963	29.78
663.29	29.8
663.616	29.58
663.943	29.44
664.27	29.59
664.596	29.77
664.923	29.25
665.249	29.97
665.576	29.76
665.902	29.53
666.228	29.78
666.554	30.12
666.881	30.05
667.207	30.07
667.533	29.61
667.859	29.91
668.185	29.55
668.511	30.86
668.837	30.56
669.162	29.99
669.488	30.24
669.814	29.74
670.139	30.12
670.465	29.93
670.791	30.35
671.116	30.28
671.442	30.72
671.767	29.84
672.092	29.74
672.418	30.27
672.743	29.99
673.068	30.57
673.393	30.56
