Data from 0231_chest_Reflection__3__18.txt Node

Date: Fri Oct 20 20:45:09 CDT 2023
User: ToomeyLab
Spectrometer: FLMS14357
Trigger mode: 0
Integration Time (sec): 1.000000E-2
Scans to average: 100
Electric dark correction enabled: true
Nonlinearity correction enabled: false
Boxcar width: 0
XAxis mode: Wavelengths
Number of Pixels in Spectrum: 2048
>>>>>Begin Spectral Data<<<<<
189.047	-98.9
189.435	-98.9
189.823	-98.9
190.211	29.72
190.599	273.08
190.987	297.6
191.375	218.59
191.763	123.43
192.151	842.68
192.538	298.39
192.926	66.43
193.314	44.72
193.702	89.03
194.089	80.83
194.477	485.93
194.864	-45.29
195.252	106.94
195.639	56.62
196.027	72.3
196.414	48.73
196.801	37.71
197.189	122.92
197.576	350.66
197.963	-43.23
198.351	70.24
198.738	23.77
199.125	32.61
199.512	47.9
199.899	3.75
200.286	19.13
200.673	21.94
201.06	25.14
201.447	-7.62
201.833	47.15
202.22	57.85
202.607	17.32
202.994	26.55
203.38	24.43
203.767	7.13
204.154	25.3
204.54	48.07
204.927	21.08
205.313	-17.74
205.699	35.75
206.086	8.11
206.472	21.13
206.858	24.42
207.245	4.53
207.631	37.72
208.017	30.71
208.403	18.65
208.789	39.2
209.175	9.03
209.561	17.13
209.947	15.24
210.333	6.56
210.719	-1.25
211.105	16.39
211.491	51.3
211.876	18.55
212.262	33.78
212.648	36.19
213.034	3.09
213.419	40.31
213.805	22.22
214.19	30.73
214.576	-6.15
214.961	18.15
215.346	46.3
215.732	32.61
216.117	-14.82
216.502	23.29
216.888	6.48
217.273	5.54
217.658	16.04
218.043	23.17
218.428	20.12
218.813	18.41
219.198	18.44
219.583	-7.95
219.968	-3.69
220.353	16.73
220.738	28.32
221.122	-2.48
221.507	-0.64
221.892	4.58
222.276	4.43
222.661	27.82
223.046	23.51
223.43	25.78
223.815	25.6
224.199	23.39
224.583	-4.7
224.968	2.54
225.352	8.74
225.736	4.39
226.121	13.79
226.505	3.49
226.889	9.34
227.273	11.06
227.657	15.19
228.041	13.04
228.425	4.53
228.809	9.97
229.193	5.51
229.577	8.36
229.961	6.55
230.344	5.93
230.728	4.94
231.112	6.24
231.495	5.61
231.879	5.57
232.263	6.18
232.646	4.97
233.03	5.14
233.413	5.67
233.797	6.6
234.18	5.44
234.563	8.21
234.946	10.48
235.33	8.44
235.713	5.9
236.096	7.76
236.479	6.66
236.862	5.9
237.245	4.36
237.628	5.27
238.011	5.67
238.394	4.85
238.777	7.38
239.16	5.33
239.543	6.79
239.925	7.37
240.308	4.04
240.691	5.92
241.073	5.51
241.456	5.76
241.838	5.11
242.221	6.31
242.603	5.06
242.986	5.05
243.368	5.92
243.75	5.3
244.133	5.17
244.515	5.15
244.897	5.08
245.279	5.75
245.661	5.35
246.043	4.7
246.425	4.65
246.807	4.11
247.189	5.14
247.571	4.24
247.953	4.39
248.335	4.73
248.717	4.73
249.098	4.73
249.48	4.74
249.862	4.91
250.243	4.91
250.625	4.75
251.006	5.36
251.388	5.09
251.769	5.45
252.151	4.85
252.532	6.96
252.913	5.17
253.295	4.23
253.676	5.15
254.057	4.9
254.438	4.72
254.819	4.71
255.2	4.51
255.581	4.45
255.962	4.93
256.343	4.26
256.724	5.04
257.105	6.11
257.486	5.03
257.867	5.1
258.247	5.54
258.628	3.26
259.009	5.29
259.389	4.58
259.77	3.22
260.15	4.95
260.531	4.55
260.911	4.71
261.292	4.14
261.672	4.49
262.052	4.64
262.432	4.46
262.813	4.48
263.193	4.74
263.573	4.47
263.953	4.54
264.333	5.06
264.713	4.9
265.093	4.94
265.473	4.61
265.853	4.61
266.233	4.5
266.612	5.24
266.992	4.64
267.372	4.65
267.752	3.97
268.131	4.93
268.511	4.93
268.89	4.4
269.27	4.1
269.649	4.2
270.029	4.32
270.408	4.54
270.787	4.62
271.167	4.33
271.546	4.93
271.925	4.91
272.304	5.35
272.683	4.89
273.062	4.84
273.441	4.37
273.82	4.37
274.199	4.72
274.578	4.46
274.957	4.97
275.336	4.44
275.715	4.32
276.093	4.65
276.472	4.33
276.851	4.3
277.229	4.71
277.608	4.47
277.986	3.81
278.365	4.98
278.743	4.23
279.122	4.35
279.5	4.38
279.878	3.73
280.257	4.41
280.635	4.86
281.013	4.88
281.391	4.95
281.769	4.18
282.147	4.39
282.525	4.58
282.903	4.63
283.281	4.03
283.659	4.04
284.037	4.19
284.415	3.9
284.792	4.2
285.17	4.47
285.548	3.93
285.925	4.01
286.303	3.98
286.68	4.28
287.058	4.33
287.435	4.4
287.813	3.99
288.19	4.34
288.567	4.54
288.945	4.43
289.322	4.86
289.699	4.02
290.076	4.9
290.453	4.42
290.83	4.52
291.207	4.74
291.584	3.46
291.961	4.19
292.338	4.16
292.715	4.35
293.092	4.43
293.469	4.5
293.845	4.59
294.222	4.22
294.599	3.89
294.975	5
295.352	4.63
295.728	4.35
296.105	4.39
296.481	4.43
296.858	4.34
297.234	4.82
297.61	3.87
297.986	4.38
298.363	4.61
298.739	4.39
299.115	4.65
299.491	4.44
299.867	4.3
300.243	3.97
300.619	4.6
300.995	4.09
301.371	4.88
301.746	4.56
302.122	4.78
302.498	3.91
302.874	4.05
303.249	4.45
303.625	4.3
304	4.99
304.376	4.07
304.751	4.29
305.127	4.56
305.502	4.78
305.878	4.47
306.253	4.33
306.628	4.76
307.003	4.27
307.378	4.35
307.754	4.78
308.129	5.39
308.504	5.15
308.879	4.45
309.254	4.29
309.629	4.35
310.003	4.43
310.378	4.51
310.753	4.61
311.128	4.96
311.502	4.81
311.877	4.44
312.252	4.38
312.626	4.85
313.001	4.67
313.375	4.41
313.75	4.46
314.124	4.09
314.498	4.31
314.873	4.23
315.247	4.58
315.621	4.67
315.995	4.88
316.369	3.94
316.743	4.58
317.117	4.84
317.491	4.2
317.865	4.25
318.239	5.21
318.613	5.16
318.987	4.47
319.361	3.95
319.734	4.68
320.108	4.48
320.482	5.38
320.855	4.54
321.229	5.27
321.602	4.87
321.976	4.43
322.349	5.38
322.723	4.52
323.096	4.72
323.469	4.25
323.843	4.77
324.216	5.03
324.589	4.54
324.962	5.04
325.335	4.2
325.708	4.79
326.081	4.78
326.454	4.83
326.827	5.05
327.2	4.9
327.573	4.81
327.945	4.05
328.318	4.66
328.691	4.7
329.063	4.98
329.436	4.61
329.809	4.87
330.181	5.09
330.553	4.53
330.926	4.98
331.298	4.03
331.671	4.66
332.043	4.58
332.415	4.55
332.787	4.77
333.159	4.12
333.532	4.76
333.904	4.14
334.276	4.37
334.648	4.76
335.02	5.23
335.391	4.35
335.763	5.09
336.135	4.7
336.507	4.77
336.879	4.54
337.25	4.82
337.622	4.86
337.993	4.55
338.365	4.72
338.736	4.67
339.108	4.72
339.479	4.08
339.851	4.82
340.222	4.3
340.593	4.17
340.964	4.15
341.336	4.64
341.707	4.75
342.078	4.67
342.449	4.1
342.82	4.54
343.191	4.57
343.562	4.39
343.933	4.47
344.303	4.72
344.674	5.05
345.045	4.92
345.416	4.6
345.786	4.48
346.157	4.72
346.527	4.74
346.898	4.68
347.268	4.83
347.639	5.08
348.009	4.46
348.38	4.69
348.75	4.8
349.12	4.41
349.49	4.4
349.861	4.57
350.231	4.23
350.601	4.52
350.971	4.68
351.341	4.36
351.711	5.06
352.081	4.34
352.45	4.42
352.82	4.69
353.19	4.58
353.56	4.64
353.929	4.58
354.299	4.55
354.669	4.67
355.038	5.19
355.408	4.86
355.777	4.58
356.147	4.7
356.516	4.27
356.885	4.38
357.254	4.45
357.624	4.49
357.993	4.52
358.362	4.52
358.731	4.31
359.1	4.28
359.469	4.49
359.838	4.6
360.207	4.52
360.576	4.83
360.945	4.41
361.314	4.6
361.682	4.86
362.051	4.31
362.42	4.49
362.788	4.68
363.157	4.61
363.525	4.3
363.894	4.62
364.262	4.5
364.631	4.82
364.999	4.62
365.367	4.65
365.735	4.19
366.104	4.61
366.472	4.53
366.84	4.73
367.208	4.55
367.576	4.44
367.944	4.56
368.312	4.65
368.68	4.89
369.048	4.72
369.416	4.68
369.783	4.84
370.151	4.67
370.519	4.72
370.886	4.88
371.254	4.55
371.621	4.92
371.989	4.19
372.356	4.57
372.724	4.68
373.091	4.53
373.458	4.48
373.826	4.72
374.193	4.49
374.56	4.66
374.927	4.6
375.294	4.82
375.661	4.75
376.028	4.88
376.395	5.17
376.762	4.63
377.129	4.61
377.496	4.63
377.863	4.74
378.229	4.89
378.596	4.71
378.963	4.68
379.329	4.69
379.696	4.54
380.062	4.62
380.429	4.51
380.795	4.41
381.161	4.48
381.528	4.72
381.894	4.51
382.26	4.61
382.626	4.83
382.993	4.68
383.359	4.37
383.725	4.66
384.091	4.59
384.457	4.75
384.823	4.39
385.188	5.04
385.554	4.84
385.92	4.72
386.286	4.82
386.651	4.69
387.017	4.9
387.383	4.63
387.748	4.34
388.114	4.34
388.479	4.57
388.845	4.89
389.21	4.5
389.575	4.36
389.94	4.59
390.306	4.63
390.671	4.38
391.036	4.52
391.401	4.91
391.766	4.88
392.131	4.71
392.496	4.97
392.861	4.73
393.226	4.63
393.591	4.4
393.956	4.84
394.32	4.64
394.685	4.52
395.05	4.7
395.414	4.86
395.779	4.38
396.143	4.49
396.508	4.61
396.872	4.76
397.236	4.77
397.601	4.45
397.965	4.54
398.329	4.77
398.694	4.87
399.058	4.47
399.422	4.74
399.786	4.73
400.15	4.54
400.514	4.4
400.878	4.85
401.242	4.94
401.605	4.73
401.969	4.59
402.333	4.81
402.697	4.91
403.06	4.68
403.424	4.78
403.787	4.95
404.151	4.67
404.514	4.71
404.878	4.76
405.241	4.7
405.604	4.84
405.968	4.7
406.331	4.69
406.694	4.69
407.057	4.63
407.42	4.96
407.783	4.62
408.146	4.75
408.509	4.59
408.872	5.01
409.235	4.9
409.598	4.83
409.961	4.81
410.323	4.64
410.686	4.69
411.049	4.88
411.411	4.78
411.774	4.8
412.136	4.72
412.499	4.64
412.861	4.81
413.223	4.91
413.586	4.83
413.948	4.85
414.31	4.95
414.672	4.75
415.035	4.73
415.397	4.88
415.759	4.97
416.121	4.74
416.483	4.95
416.845	4.88
417.206	4.86
417.568	4.84
417.93	4.94
418.292	4.72
418.653	4.8
419.015	4.68
419.377	4.74
419.738	4.65
420.1	4.63
420.461	4.68
420.822	4.66
421.184	4.71
421.545	4.71
421.906	4.69
422.267	4.67
422.629	4.73
422.99	4.58
423.351	4.66
423.712	4.57
424.073	4.68
424.434	4.62
424.795	4.64
425.155	4.61
425.516	4.68
425.877	4.63
426.238	4.57
426.598	4.69
426.959	4.71
427.32	4.75
427.68	4.82
428.041	4.61
428.401	4.84
428.761	4.78
429.122	4.79
429.482	4.65
429.842	4.82
430.202	4.9
430.563	4.81
430.923	4.68
431.283	4.88
431.643	4.99
432.003	4.74
432.363	4.78
432.722	4.86
433.082	4.92
433.442	4.71
433.802	4.91
434.161	4.87
434.521	4.93
434.881	4.79
435.24	4.82
435.6	4.89
435.959	4.96
436.319	4.9
436.678	4.95
437.037	4.82
437.396	4.88
437.756	4.85
438.115	4.66
438.474	4.83
438.833	5
439.192	4.76
439.551	4.84
439.91	4.85
440.269	4.98
440.628	4.97
440.987	4.72
441.345	4.71
441.704	4.86
442.063	4.83
442.421	4.83
442.78	4.85
443.138	4.86
443.497	4.93
443.855	4.82
444.214	4.84
444.572	4.83
444.93	4.94
445.288	4.88
445.647	5.04
446.005	4.89
446.363	4.87
446.721	4.83
447.079	5
447.437	4.92
447.795	4.82
448.153	4.84
448.51	4.84
448.868	4.84
449.226	4.84
449.584	4.8
449.941	4.77
450.299	4.99
450.656	4.83
451.014	4.93
451.371	4.91
451.729	4.92
452.086	4.9
452.443	5
452.801	5
453.158	5.12
453.515	4.94
453.872	5.01
454.229	5.09
454.586	5.09
454.943	4.98
455.3	4.82
455.657	4.97
456.014	4.93
456.371	5.07
456.727	5.07
457.084	5.01
457.441	4.99
457.797	5.02
458.154	4.98
458.51	4.98
458.867	4.94
459.223	5
459.58	4.99
459.936	5.16
460.292	5
460.648	4.78
461.005	4.87
461.361	5.02
461.717	4.7
462.073	4.95
462.429	4.92
462.785	4.94
463.141	5.01
463.496	4.97
463.852	5.16
464.208	5.15
464.564	5.16
464.919	5.21
465.275	5.12
465.631	5.2
465.986	5.19
466.342	5.31
466.697	5.04
467.052	5.04
467.408	5.05
467.763	5.17
468.118	5.39
468.473	5.23
468.829	5.09
469.184	5.23
469.539	5.18
469.894	5.04
470.249	5.18
470.603	5.04
470.958	5.18
471.313	5.32
471.668	5.24
472.023	5.11
472.377	5.29
472.732	5.19
473.086	5.22
473.441	5.12
473.795	5.4
474.15	5.29
474.504	5.1
474.859	5.13
475.213	5.29
475.567	5.24
475.921	5.25
476.275	5.24
476.63	5.43
476.984	5.3
477.338	5.14
477.692	5.25
478.045	5.11
478.399	5.19
478.753	5.18
479.107	5.08
479.461	5.26
479.814	5.32
480.168	5.35
480.521	5.26
480.875	5.13
481.228	5.23
481.582	5.36
481.935	5.25
482.289	5.29
482.642	5.37
482.995	5.07
483.348	5.19
483.701	5.2
484.055	5.2
484.408	5.18
484.761	5.16
485.114	5.02
485.466	4.99
485.819	4.93
486.172	4.83
486.525	4.87
486.878	4.96
487.23	4.97
487.583	5.07
487.936	5.03
488.288	5.13
488.641	5.13
488.993	5.03
489.345	5.06
489.698	5.05
490.05	5.03
490.402	5.05
490.754	5.03
491.107	5.06
491.459	5.17
491.811	5.14
492.163	5.18
492.515	5.24
492.866	5.24
493.218	5.22
493.57	5.11
493.922	5.12
494.274	5.17
494.625	5.11
494.977	5.15
495.328	5.23
495.68	5.24
496.031	5.29
496.383	5.44
496.734	5.44
497.086	5.42
497.437	5.43
497.788	5.31
498.139	5.44
498.49	5.37
498.842	5.36
499.193	5.3
499.544	5.49
499.894	5.47
500.245	5.34
500.596	5.5
500.947	5.44
501.298	5.43
501.648	5.46
501.999	5.55
502.35	5.43
502.7	5.62
503.051	5.42
503.401	5.5
503.752	5.39
504.102	5.45
504.452	5.45
504.803	5.5
505.153	5.64
505.503	5.6
505.853	5.62
506.203	5.44
506.553	5.54
506.903	5.51
507.253	5.57
507.603	5.57
507.953	5.5
508.303	5.56
508.652	5.62
509.002	5.58
509.352	5.71
509.701	5.64
510.051	5.46
510.4	5.67
510.75	5.51
511.099	5.55
511.449	5.63
511.798	5.65
512.147	5.54
512.496	5.66
512.846	5.69
513.195	5.77
513.544	5.71
513.893	5.51
514.242	5.6
514.591	5.56
514.939	5.64
515.288	5.51
515.637	5.74
515.986	5.72
516.334	5.67
516.683	5.7
517.032	5.56
517.38	5.69
517.729	5.71
518.077	5.76
518.426	5.73
518.774	5.63
519.122	5.79
519.47	5.75
519.819	5.72
520.167	5.71
520.515	5.74
520.863	5.67
521.211	5.65
521.559	5.73
521.907	5.71
522.255	5.7
522.602	5.82
522.95	5.81
523.298	5.81
523.645	5.84
523.993	5.88
524.341	5.93
524.688	5.98
525.036	5.86
525.383	5.81
525.73	6.06
526.078	5.9
526.425	5.97
526.772	5.97
527.119	5.79
527.466	5.84
527.814	5.96
528.161	5.86
528.508	5.85
528.854	5.91
529.201	5.9
529.548	5.9
529.895	5.93
530.242	5.88
530.588	5.77
530.935	5.75
531.282	5.82
531.628	5.78
531.975	5.75
532.321	5.89
532.667	5.91
533.014	6.01
533.36	6.02
533.706	6.11
534.052	6.06
534.399	5.97
534.745	5.92
535.091	5.99
535.437	6.04
535.783	6.01
536.129	6.05
536.474	6.07
536.82	6.17
537.166	6.15
537.512	6.34
537.857	6.22
538.203	6.21
538.549	6.3
538.894	6.12
539.239	6.22
539.585	6.24
539.93	6.23
540.276	6.27
540.621	6.37
540.966	6.37
541.311	6.45
541.656	6.46
542.001	6.5
542.346	6.36
542.691	6.3
543.036	6.32
543.381	6.21
543.726	6.18
544.071	6.28
544.415	6.31
544.76	6.35
545.105	6.46
545.449	6.37
545.794	6.46
546.138	6.46
546.483	6.47
546.827	6.51
547.171	6.61
547.516	6.56
547.86	6.65
548.204	6.53
548.548	6.61
548.892	6.6
549.236	6.64
549.58	6.65
549.924	6.58
550.268	6.81
550.612	6.81
550.956	6.96
551.3	6.83
551.643	6.88
551.987	6.96
552.33	6.89
552.674	6.81
553.017	6.89
553.361	7.08
553.704	7
554.048	7.08
554.391	7.08
554.734	7.16
555.077	6.99
555.42	6.89
555.764	7.01
556.107	7.16
556.45	7.1
556.793	6.9
557.135	6.97
557.478	7.19
557.821	7.24
558.164	7.4
558.507	7.35
558.849	7.2
559.192	7.22
559.534	7.43
559.877	7.19
560.219	7.45
560.562	7.45
560.904	7.13
561.246	7.37
561.589	7.34
561.931	7.32
562.273	7.51
562.615	7.51
562.957	7.48
563.299	7.46
563.641	7.34
563.983	7.3
564.325	7.48
564.667	7.5
565.008	7.43
565.35	7.61
565.692	7.6
566.033	7.77
566.375	7.54
566.716	7.76
567.058	7.62
567.399	7.7
567.741	7.73
568.082	7.76
568.423	7.73
568.764	7.69
569.105	7.75
569.447	7.6
569.788	7.84
570.129	7.79
570.47	7.87
570.811	8.03
571.151	7.77
571.492	8.04
571.833	8.08
572.174	8.17
572.514	8.06
572.855	7.99
573.195	8.01
573.536	7.92
573.876	8.14
574.217	7.91
574.557	7.92
574.898	7.89
575.238	8.01
575.578	8.14
575.918	8.12
576.258	8.14
576.598	8.48
576.938	8.37
577.278	8.42
577.618	8.21
577.958	8.18
578.298	8.18
578.638	8.36
578.977	8.46
579.317	8.5
579.657	8.43
579.996	8.49
580.336	8.53
580.675	8.47
581.014	8.46
581.354	8.65
581.693	8.75
582.032	8.68
582.372	8.64
582.711	8.76
583.05	8.97
583.389	8.77
583.728	8.75
584.067	8.87
584.406	8.86
584.745	8.93
585.083	8.84
585.422	8.83
585.761	8.9
586.1	9.12
586.438	8.72
586.777	9.03
587.115	9.08
587.454	9.21
587.792	9.04
588.13	9.29
588.469	9.26
588.807	8.81
589.145	9.16
589.483	9.15
589.821	9.18
590.159	9.32
590.497	9.19
590.835	9.25
591.173	9.28
591.511	9.48
591.849	9.32
592.187	9.33
592.524	9.29
592.862	9.39
593.2	9.58
593.537	9.5
593.875	9.6
594.212	9.59
594.55	9.69
594.887	9.71
595.224	9.58
595.561	9.5
595.899	9.61
596.236	9.64
596.573	9.68
596.91	9.85
597.247	9.93
597.584	9.67
597.921	9.89
598.258	10.05
598.594	9.95
598.931	9.72
599.268	9.64
599.604	9.85
599.941	9.93
600.277	9.98
600.614	9.96
600.95	9.87
601.287	9.77
601.623	10.33
601.959	10.23
602.296	10.26
602.632	10.09
602.968	9.99
603.304	10.43
603.64	10.4
603.976	10.3
604.312	10.56
604.648	10.34
604.984	10.63
605.319	10.35
605.655	10.39
605.991	10.4
606.326	10.39
606.662	10.23
606.998	10.18
607.333	10.3
607.668	10.41
608.004	10.67
608.339	10.49
608.674	10.85
609.01	10.79
609.345	10.89
609.68	11.1
610.015	10.76
610.35	10.81
610.685	11.09
611.02	11.08
611.355	10.54
611.689	10.62
612.024	11.01
612.359	10.96
612.694	10.72
613.028	11
613.363	10.94
613.697	10.97
614.032	11.14
614.366	11.31
614.7	11.27
615.035	11.54
615.369	11.08
615.703	11.21
616.037	11.08
616.371	11.52
616.705	11.39
617.039	11.46
617.373	11.5
617.707	11.87
618.041	11.47
618.375	11.62
618.709	11.69
619.042	11.54
619.376	11.86
619.71	12.04
620.043	11.66
620.377	11.84
620.71	11.63
621.043	11.76
621.377	11.89
621.71	11.59
622.043	11.69
622.376	11.76
622.709	11.66
623.043	11.86
623.376	11.99
623.709	11.59
624.041	12.1
624.374	12.42
624.707	11.83
625.04	11.78
625.373	12.28
625.705	12.27
626.038	12.33
626.37	12.08
626.703	12.07
627.035	12.12
627.368	12.25
627.7	12.32
628.032	12.19
628.365	12.61
628.697	12.4
629.029	12.53
629.361	12.41
629.693	12.39
630.025	12.49
630.357	12.3
630.689	12.51
631.021	12.63
631.353	12.51
631.684	12.57
632.016	12.79
632.348	12.6
632.679	12.22
633.011	12.86
633.342	12.26
633.674	12.69
634.005	13.09
634.336	13.22
634.668	12.74
634.999	12.63
635.33	12.54
635.661	13.18
635.992	12.95
636.323	13.29
636.654	12.96
636.985	13.2
637.316	12.77
637.647	12.83
637.977	13.02
638.308	12.97
638.639	13.5
638.969	13.08
639.3	12.89
639.63	13.31
639.961	13.24
640.291	13.08
640.622	13.32
640.952	13.33
641.282	13.24
641.612	13.58
641.943	13.42
642.273	13.37
642.603	13.94
642.933	13.72
643.263	13.89
643.592	13.61
643.922	13.9
644.252	13.35
644.582	13.47
644.911	14.11
645.241	13.86
645.571	13.98
645.9	13.91
646.23	13.66
646.559	13.77
646.888	13.99
647.218	14.04
647.547	13.7
647.876	13.75
648.205	14.13
648.534	13.87
648.863	14
649.192	13.89
649.521	14.07
649.85	14.19
650.179	14.48
650.508	13.66
650.837	14.18
651.165	14.15
651.494	13.63
651.822	14.68
652.151	14.54
652.479	14.32
652.808	14.74
653.136	14.28
653.465	14.53
653.793	14.67
654.121	14.95
654.449	14.57
654.777	14.9
655.105	14.54
655.433	15.24
655.761	14.87
656.089	14.96
656.417	15.03
656.745	14.39
657.073	14.67
657.4	15.14
657.728	15.03
658.056	14.76
658.383	14.86
658.711	14.42
659.038	15.27
659.365	15.61
659.693	15.03
660.02	15.39
660.347	15.18
660.674	15.03
661.001	15.17
661.329	15
661.656	15.31
661.982	15.18
662.309	15.33
662.636	15.3
662.963	15.44
663.29	15.44
663.616	15.32
663.943	15.05
664.27	15.34
664.596	15.42
664.923	15.37
665.249	15.52
665.576	15.68
665.902	15.3
666.228	15.93
666.554	15.65
666.881	15.47
667.207	15.84
667.533	15.43
667.859	15.96
668.185	16.3
668.511	16.17
668.837	15.77
669.162	15.57
669.488	16.11
669.814	15.54
670.139	16.06
670.465	15.98
670.791	16.55
671.116	16.1
671.442	16.04
671.767	16.41
672.092	16.25
672.418	16.43
672.743	16.11
673.068	16.79
673.393	16.38
673.718	15.62
674.043	16.03
674.368	15.92
674.693	16.2
675.018	16.5
675.343	16.39
675.667	16.12
675.992	17.04
676.317	16.26
676.641	17
676.966	17.33
677.29	16.49
677.615	16.58
677.939	16.31
678.264	16.82
678.588	16.31
678.912	17.15
679.236	16.98
679.56	16.23
679.885	16.82
680.209	17.2
680.532	16.9
680.856	16.66
681.18	16.97
681.504	16.99
681.828	17.1
682.152	17.33
682.475	16.85
682.799	17.38
683.122	16.63
683.446	17.22
683.769	17.5
684.093	17.61
684.416	17.19
684.739	16.81
685.062	17.48
685.386	16.91
685.709	17.41
686.032	17.58
686.355	17.61
686.678	17.7
687.001	18.38
