Data from 0231_forehead_Reflection__4__31.txt Node

Date: Fri Oct 20 20:53:36 CDT 2023
User: ToomeyLab
Spectrometer: FLMS14357
Trigger mode: 0
Integration Time (sec): 1.000000E-2
Scans to average: 100
Electric dark correction enabled: true
Nonlinearity correction enabled: false
Boxcar width: 0
XAxis mode: Wavelengths
Number of Pixels in Spectrum: 2048
>>>>>Begin Spectral Data<<<<<
189.047	105.35
189.435	105.35
189.823	105.35
190.211	23.13
190.599	-1437.18
190.987	92.79
191.375	-77.8
191.763	106.32
192.151	2459.76
192.538	-240.32
192.926	120.34
193.314	144.91
193.702	164.59
194.089	103.04
194.477	51.73
194.864	-45.8
195.252	15.87
195.639	61.88
196.027	-132.27
196.414	107.48
196.801	-25.64
197.189	77.88
197.576	170.13
197.963	60.74
198.351	65.16
198.738	16.35
199.125	56.99
199.512	74.97
199.899	54.32
200.286	47.97
200.673	41.73
201.06	20.61
201.447	89.4
201.833	64.06
202.22	35.34
202.607	48.33
202.994	47.61
203.38	48.92
203.767	41.83
204.154	12.56
204.54	75.77
204.927	28.36
205.313	23.47
205.699	67.24
206.086	30.4
206.472	71.58
206.858	59.21
207.245	33.18
207.631	87.33
208.017	53.52
208.403	29.69
208.789	66.58
209.175	28.46
209.561	35.86
209.947	-0.09
210.333	11.58
210.719	33.55
211.105	41.69
211.491	52.21
211.876	30.41
212.262	44.45
212.648	52.53
213.034	26.82
213.419	23.3
213.805	47.52
214.19	30.8
214.576	18.56
214.961	32.71
215.346	44.52
215.732	24.36
216.117	23.17
216.502	26.97
216.888	38.61
217.273	8.37
217.658	19.76
218.043	35.85
218.428	20.8
218.813	42.6
219.198	37.09
219.583	-7.66
219.968	17.01
220.353	24.29
220.738	33.47
221.122	7.67
221.507	37.56
221.892	9.03
222.276	24.46
222.661	32.95
223.046	9.33
223.43	15.84
223.815	19.26
224.199	17.52
224.583	9.29
224.968	18.07
225.352	13.63
225.736	10.1
226.121	12.9
226.505	12.8
226.889	16.86
227.273	12.04
227.657	17.41
228.041	11.11
228.425	9.73
228.809	7.45
229.193	10.14
229.577	8.09
229.961	4.2
230.344	6.07
230.728	3.96
231.112	5.95
231.495	5.27
231.879	5.15
232.263	6.24
232.646	5.1
233.03	4.69
233.413	5.63
233.797	6.06
234.18	6.82
234.563	8.69
234.946	8.16
235.33	7
235.713	4.63
236.096	6.88
236.479	6.54
236.862	6.3
237.245	5.99
237.628	5.38
238.011	8.64
238.394	6.57
238.777	7.98
239.16	6.37
239.543	8.56
239.925	8.87
240.308	5.28
240.691	6.87
241.073	6.3
241.456	5.17
241.838	5.6
242.221	7.11
242.603	4.83
242.986	4.88
243.368	5.46
243.75	4.51
244.133	4.57
244.515	4.97
244.897	5.3
245.279	5.53
245.661	5.16
246.043	5.25
246.425	5.29
246.807	5.29
247.189	5.73
247.571	5.02
247.953	5.65
248.335	5.53
248.717	4.83
249.098	4.67
249.48	4.85
249.862	5.64
250.243	5.82
250.625	5.38
251.006	5.33
251.388	6.01
251.769	5.79
252.151	5.76
252.532	5.29
252.913	5.83
253.295	5.35
253.676	5.65
254.057	5.08
254.438	5.27
254.819	5.34
255.2	5.95
255.581	5.42
255.962	5.9
256.343	6.25
256.724	5.09
257.105	6.45
257.486	6.78
257.867	6.09
258.247	6.88
258.628	6.04
259.009	6.04
259.389	5.5
259.77	5.56
260.15	5.76
260.531	5.59
260.911	5.98
261.292	5.12
261.672	5.33
262.052	5.38
262.432	5.21
262.813	5.33
263.193	5.24
263.573	5.9
263.953	5.43
264.333	5.62
264.713	6.29
265.093	5.48
265.473	6.09
265.853	5.65
266.233	5.56
266.612	5.5
266.992	6.3
267.372	5.26
267.752	5.78
268.131	5.44
268.511	6.01
268.89	5.42
269.27	5.16
269.649	4.7
270.029	5.22
270.408	5.57
270.787	5.04
271.167	4.57
271.546	5.82
271.925	5.68
272.304	5.32
272.683	5.2
273.062	5.13
273.441	5.22
273.82	5.36
274.199	5.77
274.578	5.38
274.957	5.41
275.336	5.58
275.715	5.76
276.093	4.92
276.472	5.77
276.851	5.75
277.229	6.03
277.608	5.18
277.986	4.63
278.365	6.21
278.743	5.83
279.122	5.7
279.5	5.49
279.878	5.23
280.257	5.37
280.635	5.95
281.013	5.25
281.391	6.12
281.769	5.13
282.147	5.62
282.525	5.88
282.903	5.78
283.281	5.71
283.659	5.61
284.037	5.61
284.415	5.16
284.792	5.17
285.17	5.39
285.548	5.3
285.925	5.53
286.303	5.44
286.68	5.46
287.058	5.76
287.435	5.52
287.813	5.22
288.19	5.56
288.567	5.5
288.945	5.87
289.322	6.41
289.699	5.71
290.076	6.62
290.453	5.8
290.83	5.64
291.207	6.32
291.584	5.21
291.961	5.65
292.338	5.8
292.715	5.9
293.092	6.02
293.469	6.17
293.845	6.2
294.222	6.41
294.599	6.29
294.975	6.85
295.352	6.76
295.728	6.65
296.105	6.41
296.481	6.54
296.858	6.77
297.234	6.45
297.61	6.13
297.986	6.23
298.363	6.63
298.739	6.46
299.115	6.54
299.491	6.54
299.867	6.93
300.243	6.89
300.619	7.06
300.995	6.85
301.371	7.38
301.746	6.98
302.122	7.61
302.498	7.28
302.874	7.55
303.249	7.54
303.625	7.45
304	8.08
304.376	7.41
304.751	6.84
305.127	7.25
305.502	7.85
305.878	7.63
306.253	8.05
306.628	8.05
307.003	8.4
307.378	8.13
307.754	8.41
308.129	8.29
308.504	8.63
308.879	8.73
309.254	8.24
309.629	8.02
310.003	7.85
310.378	8.63
310.753	8.58
311.128	8.9
311.502	9.05
311.877	9.09
312.252	8.79
312.626	9.12
313.001	9.18
313.375	9.09
313.75	8.9
314.124	8.97
314.498	9.51
314.873	8.79
315.247	9.58
315.621	9.55
315.995	9.88
316.369	9.5
316.743	9.75
317.117	9.99
317.491	9.53
317.865	10.07
318.239	10.54
318.613	10.05
318.987	10.12
319.361	9.81
319.734	10.39
320.108	10.44
320.482	11.24
320.855	10.64
321.229	11.03
321.602	11.35
321.976	10.63
322.349	11.41
322.723	10.95
323.096	11.69
323.469	11.58
323.843	11.29
324.216	11.26
324.589	11.67
324.962	11.35
325.335	11.98
325.708	11.19
326.081	11.37
326.454	11.63
326.827	12.16
327.2	12.07
327.573	12.01
327.945	12.04
328.318	11.35
328.691	11.78
329.063	12.37
329.436	12.4
329.809	12.18
330.181	12.68
330.553	12.43
330.926	12.21
331.298	12.13
331.671	11.89
332.043	12.74
332.415	12.52
332.787	12.55
333.159	12.36
333.532	12.91
333.904	13.02
334.276	12.62
334.648	12.83
335.02	13.18
335.391	12.95
335.763	13.43
336.135	13.22
336.507	13.31
336.879	13.31
337.25	13.3
337.622	13.81
337.993	13.99
338.365	13.64
338.736	13.43
339.108	13.81
339.479	13.61
339.851	13.35
340.222	13.72
340.593	13.79
340.964	13.75
341.336	14.47
341.707	14.42
342.078	14.14
342.449	14.09
342.82	14.03
343.191	14.53
343.562	14.28
343.933	14.03
344.303	14.2
344.674	14.55
345.045	14.54
345.416	15.08
345.786	14.73
346.157	14.82
346.527	14.78
346.898	14.68
347.268	14.93
347.639	14.84
348.009	14.94
348.38	15.14
348.75	15.18
349.12	15.13
349.49	14.91
349.861	15.57
350.231	14.49
350.601	15.5
350.971	15.6
351.341	15.94
351.711	15.9
352.081	15.57
352.45	15.64
352.82	16.02
353.19	15.88
353.56	16.43
353.929	15.85
354.299	15.83
354.669	16.4
355.038	16.32
355.408	16.38
355.777	16.24
356.147	15.89
356.516	15.96
356.885	16.5
357.254	16.23
357.624	16.43
357.993	16.32
358.362	16.32
358.731	16.18
359.1	15.96
359.469	16.38
359.838	16.67
360.207	16.71
360.576	16.91
360.945	16.99
361.314	16.63
361.682	16.48
362.051	16.4
362.42	16.89
362.788	16.94
363.157	17.05
363.525	16.72
363.894	16.84
364.262	17.13
364.631	17.01
364.999	17.37
365.367	17.72
365.735	17.4
366.104	17.49
366.472	17.74
366.84	17.47
367.208	17.89
367.576	17.61
367.944	18.05
368.312	17.68
368.68	18.37
369.048	18.21
369.416	18.26
369.783	18.12
370.151	18.23
370.519	18.63
370.886	18.72
371.254	18.63
371.621	18.77
371.989	18.59
372.356	18.77
372.724	18.68
373.091	18.69
373.458	18.18
373.826	18.8
374.193	18.63
374.56	18.91
374.927	19.2
375.294	19.05
375.661	18.89
376.028	19.44
376.395	19.4
376.762	19.24
377.129	19.2
377.496	19.24
377.863	19.7
378.229	19.62
378.596	19.55
378.963	19.47
379.329	19.68
379.696	19.54
380.062	19.47
380.429	19.61
380.795	19.68
381.161	19.67
381.528	20.17
381.894	19.67
382.26	20.09
382.626	20.52
382.993	20.05
383.359	20.07
383.725	20.38
384.091	20.51
384.457	20.4
384.823	20.48
385.188	20.89
385.554	20.53
385.92	20.54
386.286	20.95
386.651	20.61
387.017	20.84
387.383	20.88
387.748	20.68
388.114	20.72
388.479	21.15
388.845	21.19
389.21	20.86
389.575	20.8
389.94	21.01
390.306	20.86
390.671	21.36
391.036	21.41
391.401	21.7
391.766	21.64
392.131	21.44
392.496	21.44
392.861	21.57
393.226	21.57
393.591	21.51
393.956	21.87
394.32	21.85
394.685	21.61
395.05	21.8
395.414	22.08
395.779	22.09
396.143	22.08
396.508	22.03
396.872	22.02
397.236	22.41
397.601	22.32
397.965	22.26
398.329	22.47
398.694	22.43
399.058	22.28
399.422	22.39
399.786	22.84
400.15	22.64
400.514	22.53
400.878	22.89
401.242	22.87
401.605	23.21
401.969	22.73
402.333	22.81
402.697	23.16
403.06	23.27
403.424	23.22
403.787	23.37
404.151	22.94
404.514	23.36
404.878	23.53
405.241	23.49
405.604	23.38
405.968	23.47
406.331	23.25
406.694	23.42
407.057	23.54
407.42	23.79
407.783	23.56
408.146	23.44
408.509	23.82
408.872	24.1
409.235	23.87
409.598	24.02
409.961	24.02
410.323	24.25
410.686	24.08
411.049	24.17
411.411	24.1
411.774	24.47
412.136	23.95
412.499	24.17
412.861	24.52
413.223	24.25
413.586	24.6
413.948	24.53
414.31	24.9
414.672	24.63
415.035	24.62
415.397	24.89
415.759	25.06
416.121	24.81
416.483	25.23
416.845	25.09
417.206	24.95
417.568	25.06
417.93	25.12
418.292	24.72
418.653	25.21
419.015	24.94
419.377	24.96
419.738	25.01
420.1	24.8
420.461	24.9
420.822	25.02
421.184	25.16
421.545	24.97
421.906	25.01
422.267	25.05
422.629	24.81
422.99	24.77
423.351	24.92
423.712	25.03
424.073	25.12
424.434	25.16
424.795	25.23
425.155	25.34
425.516	25.35
425.877	25.17
426.238	25.35
426.598	25.39
426.959	25.45
427.32	25.6
427.68	25.89
428.041	26.08
428.401	26.16
428.761	26.12
429.122	26.13
429.482	26.31
429.842	26.42
430.202	26.42
430.563	26.4
430.923	26.72
431.283	26.81
431.643	26.89
432.003	27.08
432.363	26.91
432.722	26.96
433.082	26.93
433.442	26.79
433.802	27.13
434.161	27.04
434.521	27.19
434.881	27.14
435.24	27
435.6	27.09
435.959	27.22
436.319	27.13
436.678	27.35
437.037	27.46
437.396	27.55
437.756	27.61
438.115	27.54
438.474	27.47
438.833	27.62
439.192	27.78
439.551	27.63
439.91	27.92
440.269	27.84
440.628	27.89
440.987	28.11
441.345	27.66
441.704	27.89
442.063	27.74
442.421	27.85
442.78	27.69
443.138	27.91
443.497	28.03
443.855	28.15
444.214	28.26
444.572	28.42
444.93	28.6
445.288	28.58
445.647	28.81
446.005	28.28
446.363	28.53
446.721	28.38
447.079	28.52
447.437	28.48
447.795	28.33
448.153	28.3
448.51	28.3
448.868	28.34
449.226	28.46
449.584	28.61
449.941	28.76
450.299	28.9
450.656	29.22
451.014	29.16
451.371	29.19
451.729	29.26
452.086	29.44
452.443	29.46
452.801	29.49
453.158	29.75
453.515	29.64
453.872	29.71
454.229	29.73
454.586	29.71
454.943	29.7
455.3	29.96
455.657	30.04
456.014	29.82
456.371	30.13
456.727	30.07
457.084	30.09
457.441	30.32
457.797	30.4
458.154	30.29
458.51	30.53
458.867	30.5
459.223	30.55
459.58	30.45
459.936	30.49
460.292	30.52
460.648	30.43
461.005	30.32
461.361	30.33
461.717	29.92
462.073	30.16
462.429	30.44
462.785	30.62
463.141	30.67
463.496	31
463.852	31.13
464.208	31.06
464.564	31.53
464.919	31.35
465.275	31.33
465.631	31.57
465.986	31.48
466.342	31.73
466.697	31.57
467.052	31.61
467.408	31.78
467.763	31.8
468.118	32.06
468.473	31.87
468.829	31.72
469.184	31.91
469.539	32.03
469.894	32.12
470.249	32.27
470.603	32.19
470.958	32.32
471.313	32.55
471.668	32.28
472.023	32.52
472.377	32.47
472.732	32.51
473.086	32.58
473.441	32.8
473.795	32.73
474.15	32.78
474.504	32.8
474.859	32.8
475.213	32.74
475.567	32.89
475.921	33.08
476.275	32.9
476.63	33.26
476.984	33.42
477.338	32.9
477.692	33.29
478.045	33.25
478.399	33.09
478.753	33.27
479.107	33.22
479.461	33.32
479.814	33.42
480.168	33.48
480.521	33.48
480.875	33.55
481.228	33.57
481.582	33.68
481.935	33.74
482.289	33.74
482.642	33.62
482.995	33.72
483.348	33.52
483.701	33.58
484.055	33.47
484.408	33.4
484.761	33.13
485.114	32.81
485.466	32.35
485.819	32.33
486.172	32.67
486.525	33
486.878	33.22
487.23	33.34
487.583	33.55
487.936	33.72
488.288	33.77
488.641	33.62
488.993	33.17
489.345	33.29
489.698	33.34
490.05	33.36
490.402	33.53
490.754	33.73
491.107	33.99
491.459	34.29
491.811	34.6
492.163	34.59
492.515	34.55
492.866	34.42
493.218	34.05
493.57	33.76
493.922	33.96
494.274	34.34
494.625	34.5
494.977	34.78
495.328	35.13
495.68	35.49
496.031	35.6
496.383	35.63
496.734	35.69
497.086	35.97
497.437	35.93
497.788	35.86
498.139	35.85
498.49	35.67
498.842	35.66
499.193	35.62
499.544	35.92
499.894	35.83
500.245	36.07
500.596	36.34
500.947	36.26
501.298	36.19
501.648	36.36
501.999	36.75
502.35	36.71
502.7	36.76
503.051	36.91
503.401	36.82
503.752	36.66
504.102	36.81
504.452	36.88
504.803	37.1
505.153	37.11
505.503	37.07
505.853	37.21
506.203	37.19
506.553	37.06
506.903	37.13
507.253	37.53
507.603	37.31
507.953	37.44
508.303	37.53
508.652	37.52
509.002	37.56
509.352	37.72
509.701	37.57
510.051	37.41
510.4	37.58
510.75	37.5
511.099	37.69
511.449	37.48
511.798	37.58
512.147	37.51
512.496	37.82
512.846	38
513.195	37.94
513.544	38.03
513.893	38.03
514.242	38.07
514.591	38.23
514.939	38.07
515.288	38.15
515.637	38.55
515.986	38.55
516.334	38.7
516.683	38.62
517.032	38.53
517.38	38.66
517.729	38.87
518.077	39.03
518.426	38.9
518.774	38.6
519.122	38.72
519.47	38.59
519.819	38.7
520.167	38.38
520.515	38.36
520.863	38.45
521.211	38.68
521.559	38.84
521.907	38.82
522.255	39.06
522.602	39.28
522.95	39.25
523.298	39.29
523.645	39.49
523.993	39.68
524.341	39.51
524.688	39.74
525.036	39.98
525.383	39.78
525.73	39.9
526.078	39.72
526.425	39.82
526.772	39.74
527.119	39.54
527.466	39.26
527.814	39.42
528.161	39.62
528.508	39.6
528.854	39.56
529.201	39.62
529.548	39.65
529.895	39.16
530.242	38.96
530.588	38.68
530.935	39.32
531.282	39.6
531.628	39.64
531.975	39.75
532.321	39.87
532.667	40.15
533.014	40.28
533.36	40.45
533.706	40.54
534.052	40.56
534.399	40.26
534.745	40.07
535.091	39.8
535.437	39.91
535.783	40.32
536.129	40.36
536.474	40.66
536.82	40.97
537.166	41.02
537.512	41.41
537.857	41.11
538.203	41.12
538.549	40.87
538.894	41.07
539.239	41.19
539.585	41.39
539.93	41.56
540.276	41.84
540.621	41.92
540.966	41.83
541.311	41.99
541.656	42.07
542.001	41.87
542.346	41.67
542.691	41.25
543.036	41
543.381	40.83
543.726	41.02
544.071	41.45
544.415	41.61
544.76	41.67
545.105	41.98
545.449	41.91
545.794	42.14
546.138	42.23
546.483	42.38
546.827	42.67
547.171	42.52
547.516	42.66
547.86	42.7
548.204	42.75
548.548	42.5
548.892	42.49
549.236	42.73
549.58	42.99
549.924	43.16
550.268	43.16
550.612	43.63
550.956	43.78
551.3	43.96
551.643	43.87
551.987	44
552.33	44.01
552.674	43.75
553.017	44.39
553.361	43.82
553.704	44.04
554.048	44.25
554.391	43.79
554.734	44.12
555.077	43.95
555.42	44.08
555.764	44.27
556.107	44.65
556.45	44.5
556.793	44.55
557.135	44.62
557.478	44.88
557.821	44.8
558.164	44.67
558.507	45.04
558.849	45.07
559.192	44.97
559.534	45.21
559.877	45.26
560.219	45.41
560.562	45.41
560.904	45.21
561.246	45.6
561.589	45.45
561.931	45.48
562.273	45.62
562.615	45.33
562.957	45.35
563.299	45.3
563.641	45.64
563.983	45.55
564.325	45.57
564.667	45.84
565.008	46.1
565.35	45.87
565.692	45.68
566.033	46.11
566.375	45.96
566.716	45.78
567.058	46.01
567.399	46.22
567.741	45.9
568.082	46.03
568.423	45.88
568.764	46.04
569.105	46.19
569.447	46.36
569.788	46.2
570.129	46.56
570.47	46.6
570.811	46.56
571.151	46.61
571.492	46.67
571.833	46.74
572.174	46.76
572.514	46.87
572.855	46.61
573.195	46.82
573.536	46.4
573.876	46.92
574.217	46.46
574.557	46.68
574.898	46.6
575.238	46.74
575.578	47.16
575.918	47
576.258	47.1
576.598	47.32
576.938	47.14
577.278	47.19
577.618	47.44
577.958	47.45
578.298	47.69
578.638	47.47
578.977	47.76
579.317	47.81
579.657	47.89
579.996	48.05
580.336	47.96
580.675	48.32
581.014	48.25
581.354	48.06
581.693	48.56
582.032	48.41
582.372	48.43
582.711	48.59
583.05	48.64
583.389	48.51
583.728	48.64
584.067	48.76
584.406	48.59
584.745	48.93
585.083	48.71
585.422	48.79
585.761	48.74
586.1	48.94
586.438	49.15
586.777	49.01
587.115	49.28
587.454	49.35
587.792	48.91
588.13	49.48
588.469	49.45
588.807	49.17
589.145	49.32
589.483	49.46
589.821	49.3
590.159	49.6
590.497	49.44
590.835	49.64
591.173	49.37
591.511	49.35
591.849	49.3
592.187	49.64
592.524	49.38
592.862	49.61
593.2	49.9
593.537	49.98
593.875	49.94
594.212	50.22
594.55	50.23
594.887	50.39
595.224	50.1
595.561	50.14
595.899	50.19
596.236	50.29
596.573	50.1
596.91	50.53
597.247	50.37
597.584	50.31
597.921	50.31
598.258	49.92
598.594	50.06
598.931	49.74
599.268	50.09
599.604	50.35
599.941	50.58
600.277	50.58
600.614	50.56
600.95	50.99
601.287	50.96
601.623	51.26
601.959	51.15
602.296	51.04
602.632	50.84
602.968	50.77
603.304	51.59
603.64	51.28
603.976	50.99
604.312	51.75
604.648	51.6
604.984	51.28
605.319	51.1
605.655	51.26
605.991	51.04
606.326	51.17
606.662	51.16
606.998	51.05
607.333	51.26
607.668	51.32
608.004	51.72
608.339	51.6
608.674	51.96
609.01	52.1
609.345	52.21
609.68	52.72
610.015	52.06
610.35	52.18
610.685	51.96
611.02	51.98
611.355	51.48
611.689	51.78
612.024	51.97
612.359	52.12
612.694	52.1
613.028	52.51
613.363	52.45
613.697	52.55
614.032	52.83
614.366	52.68
614.7	52.78
615.035	53.35
615.369	52.79
615.703	53.12
616.037	53.05
616.371	52.62
616.705	53.08
617.039	53.2
617.373	53.04
617.707	53.09
618.041	53.55
618.375	53.02
618.709	53.11
619.042	53.17
619.376	53.48
619.71	53.55
620.043	53.91
620.377	53.74
620.71	53.86
621.043	53.66
621.377	53.54
621.71	53.95
622.043	54.26
622.376	54.16
622.709	53.75
623.043	53.96
623.376	54.06
623.709	53.79
624.041	54.21
624.374	53.68
624.707	54.12
625.04	54.59
625.373	54.6
625.705	54.54
626.038	54.44
626.37	54.45
626.703	54.62
627.035	54.5
627.368	54.56
627.7	54.66
628.032	54.06
628.365	54.11
628.697	54
629.029	54.22
629.361	54.13
629.693	54.58
630.025	54.73
630.357	54.83
630.689	55.07
631.021	54.56
631.353	55.2
631.684	55.22
632.016	55.4
632.348	55.3
632.679	54.96
633.011	55.55
633.342	55.05
633.674	55.29
634.005	55.43
634.336	55.43
634.668	55.11
634.999	55.36
635.33	55.94
635.661	55.51
635.992	55.01
636.323	55.34
636.654	55.72
636.985	55.28
637.316	55.72
637.647	55.78
637.977	55.67
638.308	56.19
638.639	56.29
638.969	55.66
639.3	55.47
639.63	55.86
639.961	55.85
640.291	56.85
640.622	55.64
640.952	56.04
641.282	56.19
641.612	56.36
641.943	56.06
642.273	56.28
642.603	56.66
642.933	55.64
643.263	56.75
643.592	56.07
643.922	57.05
644.252	57.11
644.582	57.1
644.911	57.44
645.241	57.54
645.571	57.01
645.9	56.65
646.23	56.99
646.559	57.09
646.888	57.56
647.218	57.06
647.547	57.09
647.876	57.08
648.205	57.53
648.534	57.28
648.863	57.51
649.192	56.96
649.521	56.81
649.85	57.19
650.179	57.51
650.508	58.08
650.837	57.52
651.165	57.5
651.494	57.9
651.822	57.3
652.151	57.74
652.479	57.58
652.808	57.5
653.136	57.67
653.465	57.87
653.793	58.25
654.121	58.22
654.449	57.79
654.777	58.02
655.105	58.4
655.433	58.15
655.761	58.23
656.089	58.42
656.417	58.56
656.745	58.49
657.073	58.57
657.4	58.42
657.728	58.93
658.056	58.09
658.383	59.03
658.711	58.4
659.038	58.97
659.365	59.06
659.693	58.35
660.02	58.1
660.347	58.64
660.674	58.3
661.001	57.96
661.329	58.27
661.656	58.82
661.982	58.54
662.309	59.09
662.636	58.59
662.963	58.49
663.29	59.01
663.616	58.51
663.943	58.96
664.27	58.81
664.596	59.06
664.923	59.18
665.249	59.15
665.576	59.21
665.902	59.13
666.228	59.37
666.554	59.17
666.881	59.65
667.207	59.82
667.533	59.64
667.859	59.67
668.185	59.98
668.511	59.3
668.837	59.87
669.162	59.47
