Data from 0231_chest_Reflection__2__17.txt Node

Date: Fri Oct 20 20:44:54 CDT 2023
User: ToomeyLab
Spectrometer: FLMS14357
Trigger mode: 0
Integration Time (sec): 1.000000E-2
Scans to average: 100
Electric dark correction enabled: true
Nonlinearity correction enabled: false
Boxcar width: 0
XAxis mode: Wavelengths
Number of Pixels in Spectrum: 2048
>>>>>Begin Spectral Data<<<<<
189.047	65.87
189.435	65.87
189.823	65.87
190.211	69.55
190.599	-369.23
190.987	258.52
191.375	44.77
191.763	36.98
192.151	1902.44
192.538	984.95
192.926	236.82
193.314	68.01
193.702	138.76
194.089	84.21
194.477	135.06
194.864	78.61
195.252	52.31
195.639	-211.21
196.027	118.17
196.414	36.75
196.801	32.87
197.189	155.67
197.576	-130.69
197.963	-148.42
198.351	60.85
198.738	-8.58
199.125	24.47
199.512	15.82
199.899	28.25
200.286	-88.82
200.673	44.79
201.06	30.68
201.447	-97.14
201.833	29.08
202.22	20.62
202.607	63.31
202.994	24.99
203.38	50.29
203.767	23.54
204.154	58.31
204.54	34.94
204.927	-1.96
205.313	-28.91
205.699	28.54
206.086	20.23
206.472	47.26
206.858	36.49
207.245	-7.4
207.631	38.18
208.017	2.92
208.403	22.55
208.789	52.08
209.175	3.37
209.561	13.47
209.947	16.79
210.333	13.98
210.719	14.47
211.105	22.36
211.491	38.51
211.876	-2.17
212.262	15.57
212.648	57.46
213.034	-29.65
213.419	11.54
213.805	9.12
214.19	1.97
214.576	-0.29
214.961	35.53
215.346	23.69
215.732	13.36
216.117	-40.95
216.502	23.57
216.888	-0.77
217.273	-6.93
217.658	15.02
218.043	7.71
218.428	9.22
218.813	36.91
219.198	32.58
219.583	-5.48
219.968	-5.92
220.353	33.17
220.738	16.03
221.122	-6.41
221.507	-3.94
221.892	14.11
222.276	8.01
222.661	15.75
223.046	17.83
223.43	13.87
223.815	12.31
224.199	18.12
224.583	2.67
224.968	-5.35
225.352	-7.96
225.736	2.75
226.121	5.95
226.505	-3.86
226.889	16.28
227.273	13.5
227.657	9.9
228.041	5.3
228.425	4.48
228.809	5.07
229.193	3.4
229.577	5.83
229.961	5.98
230.344	2.65
230.728	2.9
231.112	4.38
231.495	3.57
231.879	4.19
232.263	4.98
232.646	3.27
233.03	2.08
233.413	3.28
233.797	4.55
234.18	4.83
234.563	5.84
234.946	4.07
235.33	6.1
235.713	4.48
236.096	4.82
236.479	5.13
236.862	4.8
237.245	4.41
237.628	4.65
238.011	4.85
238.394	4.17
238.777	5.79
239.16	4.35
239.543	5.59
239.925	6.35
240.308	5.67
240.691	4.35
241.073	6.64
241.456	5.66
241.838	4.62
242.221	6.57
242.603	4.71
242.986	4.68
243.368	4.44
243.75	3.45
244.133	3.71
244.515	3.48
244.897	3.67
245.279	3.94
245.661	4.1
246.043	3.07
246.425	3.9
246.807	4.24
247.189	4.28
247.571	4.12
247.953	4.59
248.335	4.13
248.717	3.51
249.098	3.77
249.48	3.46
249.862	3.61
250.243	3.74
250.625	3.67
251.006	4
251.388	3.83
251.769	4.8
252.151	3.36
252.532	4.38
252.913	5.21
253.295	3.75
253.676	3.97
254.057	3.68
254.438	3.95
254.819	3.96
255.2	3.36
255.581	4
255.962	4.13
256.343	3.19
256.724	3.24
257.105	4.65
257.486	4.63
257.867	4.49
258.247	5.17
258.628	4.2
259.009	3.73
259.389	3.86
259.77	2.94
260.15	3.91
260.531	4.14
260.911	3.86
261.292	3.38
261.672	3.62
262.052	3.47
262.432	3.47
262.813	3.38
263.193	3.73
263.573	3.49
263.953	3.36
264.333	4.21
264.713	4.46
265.093	4.5
265.473	3.88
265.853	3.49
266.233	4.73
266.612	4.05
266.992	4.29
267.372	3.6
267.752	3.98
268.131	4.19
268.511	3.59
268.89	3.59
269.27	3.57
269.649	3.15
270.029	3.91
270.408	3.98
270.787	3.75
271.167	3.85
271.546	4.08
271.925	4.62
272.304	4
272.683	3.75
273.062	3.77
273.441	4.2
273.82	3.77
274.199	3.92
274.578	3.58
274.957	3.99
275.336	3.76
275.715	4.1
276.093	3.27
276.472	4.31
276.851	3.49
277.229	3.99
277.608	3.78
277.986	3.44
278.365	4.19
278.743	3.45
279.122	3.32
279.5	3.24
279.878	3.36
280.257	3.96
280.635	3.89
281.013	3.62
281.391	4.03
281.769	3.48
282.147	3.46
282.525	3.89
282.903	3.6
283.281	3.52
283.659	3.39
284.037	3.55
284.415	2.84
284.792	3.33
285.17	3.54
285.548	3.59
285.925	3.03
286.303	3.23
286.68	3.31
287.058	4.2
287.435	3.68
287.813	3.01
288.19	3.59
288.567	3.38
288.945	4.01
289.322	3.7
289.699	3.11
290.076	3.85
290.453	3.88
290.83	3.22
291.207	3.96
291.584	3.21
291.961	3.43
292.338	3.64
292.715	3.89
293.092	3.6
293.469	3.67
293.845	3.12
294.222	3.33
294.599	3.81
294.975	4.2
295.352	3.67
295.728	3.76
296.105	3.7
296.481	4.03
296.858	3.42
297.234	3.74
297.61	3.07
297.986	3.27
298.363	3.85
298.739	3.68
299.115	3.48
299.491	3.75
299.867	3.79
300.243	3.96
300.619	3.62
300.995	3.56
301.371	3.97
301.746	3.83
302.122	3.79
302.498	3.6
302.874	3.93
303.249	3.8
303.625	4.17
304	4.46
304.376	4.26
304.751	3.8
305.127	3.4
305.502	4.25
305.878	4.08
306.253	3.75
306.628	3.73
307.003	3.88
307.378	3.98
307.754	3.83
308.129	4.63
308.504	4.32
308.879	4.03
309.254	4.62
309.629	3.62
310.003	3.54
310.378	4.34
310.753	3.66
311.128	3.85
311.502	3.87
311.877	4.36
312.252	3.66
312.626	3.9
313.001	3.85
313.375	3.77
313.75	3.87
314.124	3.46
314.498	3.99
314.873	4.01
315.247	4.31
315.621	4.21
315.995	4.13
316.369	3.56
316.743	3.94
317.117	4.17
317.491	4.04
317.865	4.21
318.239	4.43
318.613	4.22
318.987	3.99
319.361	2.99
319.734	3.75
320.108	3.71
320.482	4.41
320.855	4.42
321.229	4.61
321.602	3.88
321.976	4.26
322.349	4.78
322.723	4.05
323.096	4.42
323.469	3.59
323.843	3.86
324.216	3.97
324.589	4.12
324.962	4.64
325.335	3.57
325.708	4.02
326.081	3.75
326.454	4.48
326.827	4.36
327.2	3.84
327.573	4.36
327.945	4.01
328.318	3.64
328.691	3.96
329.063	4.32
329.436	4.39
329.809	4.16
330.181	4.67
330.553	4.14
330.926	4.26
331.298	3.5
331.671	3.81
332.043	3.6
332.415	4.31
332.787	4.6
333.159	3.6
333.532	4.19
333.904	4.35
334.276	4.09
334.648	3.79
335.02	4.26
335.391	3.77
335.763	4.25
336.135	3.82
336.507	4.1
336.879	4.17
337.25	4.3
337.622	4.6
337.993	4.22
338.365	4.21
338.736	4.18
339.108	4.35
339.479	4.04
339.851	4.58
340.222	3.81
340.593	3.33
340.964	4.09
341.336	4.12
341.707	4
342.078	4.08
342.449	4.22
342.82	3.95
343.191	3.82
343.562	3.94
343.933	3.79
344.303	4.3
344.674	3.85
345.045	4.25
345.416	4.59
345.786	4.32
346.157	3.85
346.527	4.39
346.898	3.96
347.268	4.14
347.639	4.23
348.009	3.77
348.38	4.51
348.75	4.04
349.12	3.93
349.49	3.93
349.861	4.53
350.231	3.58
350.601	4.29
350.971	4.36
351.341	4.48
351.711	4.44
352.081	4.04
352.45	3.93
352.82	4.53
353.19	4.25
353.56	4.27
353.929	4.23
354.299	3.78
354.669	3.79
355.038	4.16
355.408	4.18
355.777	3.76
356.147	3.91
356.516	4.01
356.885	4.28
357.254	4.27
357.624	4.03
357.993	3.88
358.362	4.28
358.731	3.77
359.1	3.82
359.469	3.81
359.838	4.26
360.207	4.01
360.576	4.31
360.945	3.93
361.314	4.04
361.682	4.32
362.051	3.92
362.42	4.04
362.788	4.22
363.157	4.19
363.525	3.87
363.894	3.96
364.262	4.03
364.631	4.07
364.999	4.15
365.367	3.88
365.735	4.14
366.104	4
366.472	4.12
366.84	4.41
367.208	4.45
367.576	4.22
367.944	3.97
368.312	3.98
368.68	4.31
369.048	4.17
369.416	4.3
369.783	4.36
370.151	4.15
370.519	4.09
370.886	4.11
371.254	4.22
371.621	4.28
371.989	3.91
372.356	4.59
372.724	4.09
373.091	4.24
373.458	3.98
373.826	4.11
374.193	4.22
374.56	4.22
374.927	4.03
375.294	4.16
375.661	3.93
376.028	4.31
376.395	4.72
376.762	3.75
377.129	4.53
377.496	4.38
377.863	4.25
378.229	4.52
378.596	4.3
378.963	4.09
379.329	4.28
379.696	4.26
380.062	4.29
380.429	4.02
380.795	4.19
381.161	4.22
381.528	4.59
381.894	4.18
382.26	4.2
382.626	4.44
382.993	4.28
383.359	4.16
383.725	4.05
384.091	4.18
384.457	4.55
384.823	4
385.188	4.44
385.554	4.2
385.92	3.96
386.286	4.55
386.651	4.39
387.017	4.33
387.383	4.12
387.748	4.01
388.114	4.02
388.479	4.38
388.845	4.59
389.21	4.23
389.575	4.05
389.94	4.08
390.306	4.21
390.671	4.12
391.036	4.32
391.401	4.36
391.766	4.2
392.131	4.41
392.496	4.18
392.861	4.09
393.226	4.28
393.591	4.18
393.956	4.47
394.32	4.4
394.685	4.04
395.05	4.58
395.414	4.65
395.779	4.19
396.143	4.25
396.508	4.27
396.872	4.06
397.236	4.31
397.601	4.42
397.965	4.23
398.329	3.99
398.694	4.47
399.058	4.23
399.422	4.36
399.786	4.16
400.15	4.22
400.514	4.21
400.878	4.43
401.242	4.59
401.605	4.54
401.969	4.12
402.333	4.25
402.697	4.39
403.06	4.3
403.424	4.11
403.787	4.3
404.151	4.31
404.514	4.5
404.878	4.58
405.241	4.33
405.604	4.12
405.968	4.08
406.331	4.31
406.694	4.43
407.057	4.27
407.42	4.63
407.783	4.27
408.146	4.16
408.509	4.24
408.872	4.65
409.235	4.4
409.598	4.45
409.961	4.41
410.323	4.24
410.686	4.25
411.049	4.34
411.411	4.24
411.774	4.24
412.136	4.34
412.499	4.27
412.861	4.43
413.223	4.43
413.586	4.16
413.948	4.52
414.31	4.51
414.672	4.47
415.035	4.28
415.397	4.51
415.759	4.7
416.121	4.28
416.483	4.52
416.845	4.31
417.206	4.46
417.568	4.64
417.93	4.43
418.292	4.17
418.653	4.49
419.015	4.34
419.377	4.34
419.738	4.22
420.1	4.26
420.461	4.36
420.822	4.3
421.184	4.35
421.545	4.18
421.906	4.33
422.267	4.2
422.629	4.37
422.99	4.21
423.351	4.29
423.712	4.23
424.073	4.31
424.434	4.23
424.795	4.33
425.155	4.43
425.516	4.31
425.877	4.29
426.238	4.27
426.598	4.29
426.959	4.25
427.32	4.24
427.68	4.31
428.041	4.27
428.401	4.4
428.761	4.34
429.122	4.34
429.482	4.37
429.842	4.41
430.202	4.49
430.563	4.4
430.923	4.46
431.283	4.46
431.643	4.58
432.003	4.63
432.363	4.44
432.722	4.57
433.082	4.47
433.442	4.31
433.802	4.61
434.161	4.49
434.521	4.55
434.881	4.55
435.24	4.56
435.6	4.36
435.959	4.41
436.319	4.62
436.678	4.48
437.037	4.54
437.396	4.54
437.756	4.61
438.115	4.41
438.474	4.52
438.833	4.71
439.192	4.37
439.551	4.52
439.91	4.54
440.269	4.59
440.628	4.57
440.987	4.49
441.345	4.47
441.704	4.49
442.063	4.4
442.421	4.42
442.78	4.5
443.138	4.7
443.497	4.59
443.855	4.54
444.214	4.49
444.572	4.53
444.93	4.63
445.288	4.59
445.647	4.72
446.005	4.24
446.363	4.51
446.721	4.54
447.079	4.64
447.437	4.5
447.795	4.4
448.153	4.5
448.51	4.44
448.868	4.44
449.226	4.4
449.584	4.54
449.941	4.49
450.299	4.5
450.656	4.53
451.014	4.6
451.371	4.65
451.729	4.66
452.086	4.67
452.443	4.72
452.801	4.48
453.158	4.78
453.515	4.58
453.872	4.59
454.229	4.75
454.586	4.66
454.943	4.58
455.3	4.6
455.657	4.6
456.014	4.57
456.371	4.58
456.727	4.64
457.084	4.76
457.441	4.59
457.797	4.78
458.154	4.62
458.51	4.68
458.867	4.75
459.223	4.74
459.58	4.71
459.936	4.69
460.292	4.7
460.648	4.61
461.005	4.57
461.361	4.67
461.717	4.46
462.073	4.52
462.429	4.57
462.785	4.55
463.141	4.69
463.496	4.7
463.852	4.84
464.208	4.83
464.564	4.71
464.919	4.74
465.275	4.84
465.631	4.78
465.986	4.77
466.342	4.8
466.697	4.74
467.052	4.7
467.408	4.81
467.763	4.8
468.118	4.88
468.473	4.72
468.829	4.73
469.184	4.72
469.539	4.76
469.894	4.86
470.249	4.76
470.603	4.71
470.958	4.82
471.313	4.97
471.668	4.95
472.023	5.02
472.377	4.95
472.732	4.75
473.086	4.9
473.441	5.07
473.795	4.97
474.15	4.85
474.504	4.73
474.859	4.84
475.213	4.89
475.567	4.88
475.921	4.81
476.275	4.76
476.63	5.1
476.984	5.03
477.338	4.96
477.692	4.74
478.045	4.84
478.399	4.9
478.753	4.85
479.107	4.9
479.461	4.97
479.814	4.97
480.168	4.97
480.521	4.87
480.875	4.92
481.228	4.97
481.582	4.95
481.935	5.01
482.289	4.9
482.642	4.93
482.995	4.87
483.348	4.92
483.701	4.96
484.055	4.86
484.408	4.76
484.761	4.76
485.114	4.67
485.466	4.7
485.819	4.57
486.172	4.54
486.525	4.6
486.878	4.66
487.23	4.75
487.583	4.77
487.936	4.78
488.288	4.86
488.641	4.83
488.993	4.83
489.345	4.75
489.698	4.73
490.05	4.74
490.402	4.74
490.754	4.77
491.107	4.8
491.459	4.87
491.811	4.89
492.163	5.02
492.515	5.01
492.866	4.93
493.218	4.78
493.57	4.81
493.922	4.75
494.274	4.82
494.625	4.87
494.977	4.89
495.328	5.01
495.68	5.07
496.031	5.02
496.383	5.11
496.734	5.05
497.086	5.08
497.437	5.09
497.788	5.1
498.139	5.2
498.49	5.14
498.842	5.02
499.193	5.17
499.544	5.11
499.894	5.12
500.245	5.14
500.596	5.12
500.947	5.12
501.298	5.18
501.648	5.13
501.999	5.15
502.35	5.13
502.7	5.32
503.051	5.29
503.401	5.24
503.752	5.29
504.102	5.29
504.452	5.2
504.803	5.14
505.153	5.3
505.503	5.24
505.853	5.35
506.203	5.22
506.553	5.27
506.903	5.24
507.253	5.37
507.603	5.34
507.953	5.3
508.303	5.26
508.652	5.32
509.002	5.27
509.352	5.47
509.701	5.29
510.051	5.3
510.4	5.32
510.75	5.4
511.099	5.4
511.449	5.33
511.798	5.45
512.147	5.39
512.496	5.35
512.846	5.28
513.195	5.41
513.544	5.41
513.893	5.33
514.242	5.42
514.591	5.41
514.939	5.36
515.288	5.3
515.637	5.5
515.986	5.38
516.334	5.44
516.683	5.37
517.032	5.38
517.38	5.33
517.729	5.47
518.077	5.53
518.426	5.54
518.774	5.38
519.122	5.48
519.47	5.49
519.819	5.43
520.167	5.44
520.515	5.43
520.863	5.46
521.211	5.53
521.559	5.49
521.907	5.53
522.255	5.51
522.602	5.75
522.95	5.46
523.298	5.62
523.645	5.64
523.993	5.65
524.341	5.64
524.688	5.63
525.036	5.76
525.383	5.62
525.73	5.76
526.078	5.7
526.425	5.65
526.772	5.55
527.119	5.67
527.466	5.58
527.814	5.66
528.161	5.57
528.508	5.61
528.854	5.67
529.201	5.61
529.548	5.71
529.895	5.62
530.242	5.53
530.588	5.42
530.935	5.42
531.282	5.5
531.628	5.55
531.975	5.49
532.321	5.61
532.667	5.67
533.014	5.71
533.36	5.82
533.706	5.85
534.052	5.86
534.399	5.67
534.745	5.65
535.091	5.69
535.437	5.77
535.783	5.74
536.129	5.87
536.474	5.82
536.82	5.93
537.166	5.89
537.512	5.99
537.857	6
538.203	6.08
538.549	5.99
538.894	5.85
539.239	5.93
539.585	5.95
539.93	6.01
540.276	6.25
540.621	6.16
540.966	6.21
541.311	6.26
541.656	6.19
542.001	6.25
542.346	6.21
542.691	6.02
543.036	6.01
543.381	5.91
543.726	5.96
544.071	6
544.415	6.07
544.76	6.08
545.105	6.17
545.449	6.13
545.794	6.25
546.138	6.17
546.483	6.22
546.827	6.3
547.171	6.33
547.516	6.37
547.86	6.42
548.204	6.26
548.548	6.38
548.892	6.41
549.236	6.35
549.58	6.33
549.924	6.43
550.268	6.45
550.612	6.53
550.956	6.59
551.3	6.61
551.643	6.56
551.987	6.81
552.33	6.58
552.674	6.54
553.017	6.76
553.361	6.78
553.704	6.79
554.048	6.67
554.391	6.82
554.734	6.78
555.077	6.79
555.42	6.61
555.764	6.63
556.107	6.89
556.45	6.88
556.793	6.69
557.135	6.69
557.478	6.86
557.821	6.97
558.164	7.13
558.507	7.04
558.849	7.14
559.192	7.1
559.534	7.14
559.877	6.98
560.219	7.05
560.562	7.12
560.904	6.99
561.246	7.12
561.589	6.93
561.931	7.27
562.273	7.4
562.615	7.2
562.957	7.12
563.299	7.13
563.641	7.3
563.983	7.09
564.325	7.21
564.667	7.35
565.008	7.26
565.35	7.3
565.692	7.27
566.033	7.5
566.375	7.34
566.716	7.39
567.058	7.33
567.399	7.4
567.741	7.32
568.082	7.43
568.423	7.37
568.764	7.3
569.105	7.55
569.447	7.45
569.788	7.57
570.129	7.55
570.47	7.62
570.811	7.77
571.151	7.5
571.492	7.71
571.833	7.8
572.174	7.79
572.514	7.76
572.855	7.63
573.195	7.87
573.536	7.7
573.876	7.89
574.217	7.57
574.557	7.72
574.898	7.67
575.238	7.55
575.578	7.89
575.918	7.7
576.258	7.88
576.598	8
576.938	7.94
577.278	8.02
577.618	7.82
577.958	7.92
578.298	8.02
578.638	8.03
578.977	8.07
579.317	8.16
579.657	8.03
579.996	8.22
580.336	8.1
580.675	8.36
581.014	8.19
581.354	8.3
581.693	8.47
582.032	8.26
582.372	8.27
582.711	8.52
583.05	8.78
583.389	8.57
583.728	8.28
584.067	8.61
584.406	8.39
584.745	8.47
585.083	8.42
585.422	8.55
585.761	8.57
586.1	8.82
586.438	8.43
586.777	8.72
587.115	8.81
587.454	8.57
587.792	8.74
588.13	8.8
588.469	8.84
588.807	8.26
589.145	8.97
589.483	8.65
589.821	8.64
590.159	8.86
590.497	8.94
590.835	8.97
591.173	8.86
591.511	8.89
591.849	9.12
592.187	8.84
592.524	9.05
592.862	9.08
593.2	9.26
593.537	9.01
593.875	9.21
594.212	9.18
594.55	9.24
594.887	9.37
595.224	9.15
595.561	9.3
595.899	9.19
596.236	9.29
596.573	9.22
596.91	9.43
597.247	9.47
597.584	9.39
597.921	9.48
598.258	9.55
598.594	9.31
598.931	9.25
599.268	9.36
599.604	9.55
599.941	9.54
600.277	9.46
600.614	9.55
600.95	9.44
601.287	9.59
601.623	9.84
601.959	9.86
602.296	10.13
602.632	9.83
602.968	9.7
603.304	9.98
603.64	9.58
603.976	9.87
604.312	10.17
604.648	9.82
604.984	9.96
605.319	10
605.655	9.99
605.991	9.97
606.326	9.98
606.662	9.89
606.998	9.95
607.333	10.14
607.668	9.83
608.004	10.11
608.339	10.04
608.674	10.19
609.01	10.39
609.345	10.55
609.68	10.45
610.015	10.04
610.35	10.42
610.685	10.3
611.02	10.43
611.355	10.36
611.689	10.44
612.024	10.63
612.359	10.58
612.694	10.57
613.028	10.63
613.363	10.64
613.697	10.73
614.032	10.61
614.366	10.57
614.7	10.71
615.035	10.75
615.369	10.81
615.703	10.49
616.037	10.99
616.371	10.55
616.705	11.12
617.039	11.07
617.373	11.03
617.707	11.35
618.041	11.23
618.375	10.71
618.709	10.91
619.042	11.14
619.376	11.7
619.71	11.39
620.043	11.35
620.377	11
620.71	11.32
621.043	11.57
621.377	11.25
621.71	11.55
622.043	11.15
622.376	11.47
622.709	11.52
623.043	11.24
623.376	11.39
623.709	11.27
624.041	11.65
624.374	11.6
624.707	11.36
625.04	11.66
625.373	12.02
625.705	11.75
626.038	11.76
626.37	11.56
626.703	11.74
627.035	11.58
627.368	11.6
627.7	12.14
628.032	11.61
628.365	11.9
628.697	12.03
629.029	12.1
629.361	11.75
629.693	11.56
630.025	12.07
630.357	12.15
630.689	11.79
631.021	12.42
631.353	12.02
631.684	12.11
632.016	12.45
632.348	12.44
632.679	12.17
633.011	12.31
633.342	11.92
633.674	12.42
634.005	12.63
634.336	12.67
634.668	12.61
634.999	12.45
635.33	12.12
635.661	12.72
635.992	12.73
636.323	12.76
636.654	12.71
636.985	12.43
637.316	12.77
637.647	12.77
637.977	12.43
638.308	12.68
638.639	12.48
638.969	12.95
639.3	12.37
639.63	12.79
639.961	13.04
640.291	12.87
640.622	12.47
640.952	13.28
641.282	12.89
641.612	13
641.943	13.33
642.273	13.02
642.603	13.45
642.933	13.22
643.263	13.34
643.592	13.21
643.922	13.71
644.252	12.94
644.582	13.31
644.911	13.32
645.241	13.47
645.571	13.65
645.9	13.15
646.23	13.55
646.559	13.92
646.888	13.63
647.218	13.49
647.547	13.47
647.876	13.66
648.205	12.96
648.534	13.39
648.863	13.71
649.192	13.5
649.521	13.76
649.85	13.77
650.179	13.99
650.508	13.85
650.837	13.98
651.165	13.88
651.494	14.03
651.822	13.77
652.151	14.46
652.479	13.86
652.808	14.5
653.136	13.98
653.465	14.21
653.793	14.03
654.121	14.33
654.449	14.46
654.777	14.44
655.105	14.26
655.433	14.64
655.761	14.11
656.089	14.5
656.417	14.49
656.745	14.27
657.073	14.35
657.4	15.34
657.728	14.78
658.056	14.46
658.383	14.57
658.711	13.91
659.038	14.82
659.365	14.81
659.693	14.42
660.02	14.53
660.347	14.97
660.674	14.34
661.001	14.57
661.329	15
661.656	14.92
661.982	15.03
662.309	14.86
662.636	14.75
662.963	15.11
663.29	15.03
663.616	15.34
663.943	14.75
664.27	15.04
664.596	15.41
664.923	14.88
665.249	14.54
665.576	15.26
665.902	15.17
666.228	15.39
666.554	15.47
666.881	14.84
667.207	15.55
667.533	15.34
667.859	15.48
668.185	15.36
668.511	16.16
668.837	15.82
669.162	15.6
669.488	15.54
669.814	15.18
670.139	15.68
670.465	15.73
670.791	15.32
671.116	15.94
671.442	16.16
671.767	15.53
672.092	15.69
672.418	16.2
672.743	15.57
673.068	16.03
673.393	15.76
673.718	15.69
674.043	15.86
674.368	15.75
674.693	15.92
675.018	16.42
675.343	16.46
675.667	16.56
675.992	15.87
676.317	15.75
676.641	16.19
676.966	16.06
677.29	16.07
677.615	16.66
677.939	16.8
678.264	16.43
678.588	15.97
678.912	16.83
679.236	16.77
679.56	16.51
679.885	16.39
680.209	16.85
680.532	16.1
680.856	16.31
681.18	16.63
681.504	16.73
681.828	17.4
682.152	16.94
682.475	16.86
682.799	16.7
683.122	16.6
683.446	16.88
683.769	16.97
684.093	17.16
684.416	16.59
684.739	16.76
685.062	16.16
685.386	16.59
685.709	17.38
686.032	16.78
686.355	17.75
686.678	16.6
687.001	17.12
