Data from 0231_forehead_Reflection__2__29.txt Node

Date: Fri Oct 20 20:53:14 CDT 2023
User: ToomeyLab
Spectrometer: FLMS14357
Trigger mode: 0
Integration Time (sec): 1.000000E-2
Scans to average: 100
Electric dark correction enabled: true
Nonlinearity correction enabled: false
Boxcar width: 0
XAxis mode: Wavelengths
Number of Pixels in Spectrum: 2048
>>>>>Begin Spectral Data<<<<<
189.047	158.15
189.435	158.15
189.823	158.15
190.211	56.47
190.599	-132.05
190.987	551.75
191.375	378.16
191.763	101.97
192.151	1793.9
192.538	-250
192.926	104.58
193.314	7.64
193.702	142.38
194.089	126.9
194.477	329.22
194.864	-44.68
195.252	63.24
195.639	-19.1
196.027	113.37
196.414	31.33
196.801	63.45
197.189	69.36
197.576	107.1
197.963	51.75
198.351	76
198.738	10.21
199.125	37.42
199.512	27.58
199.899	74.44
200.286	-10.51
200.673	92.4
201.06	54.91
201.447	81.04
201.833	35.79
202.22	28.06
202.607	38.09
202.994	87.65
203.38	65.08
203.767	46.94
204.154	46.09
204.54	70.59
204.927	45.67
205.313	9.14
205.699	79.93
206.086	52.91
206.472	48.86
206.858	75.08
207.245	30.44
207.631	68.71
208.017	29.66
208.403	5.62
208.789	41.86
209.175	17.89
209.561	34.07
209.947	29.33
210.333	68.74
210.719	53.24
211.105	39.84
211.491	57.46
211.876	47.4
212.262	58.73
212.648	50.15
213.034	46.77
213.419	54.89
213.805	63.03
214.19	64.93
214.576	37.85
214.961	35.84
215.346	60.67
215.732	38.88
216.117	-3.63
216.502	29.41
216.888	36.78
217.273	29.23
217.658	39.95
218.043	28.55
218.428	39.86
218.813	47.21
219.198	37.32
219.583	8.6
219.968	17.91
220.353	43.18
220.738	33.92
221.122	15.32
221.507	12.49
221.892	15.8
222.276	19.85
222.661	37.48
223.046	24.98
223.43	21.76
223.815	24.55
224.199	30.93
224.583	10.62
224.968	13.29
225.352	17.45
225.736	10.78
226.121	17.99
226.505	10.15
226.889	15.05
227.273	14.57
227.657	14.9
228.041	18.6
228.425	7.74
228.809	10.82
229.193	8.81
229.577	10.16
229.961	3.75
230.344	5.57
230.728	4.82
231.112	5.44
231.495	4.13
231.879	6.08
232.263	6.96
232.646	5
233.03	5.25
233.413	4.82
233.797	5.54
234.18	5.78
234.563	5.54
234.946	6.97
235.33	6.74
235.713	6.92
236.096	6.33
236.479	7.15
236.862	6.49
237.245	5.66
237.628	6.08
238.011	8.01
238.394	7.71
238.777	8.23
239.16	5.06
239.543	8.36
239.925	6.24
240.308	7.25
240.691	5.9
241.073	9.54
241.456	6.78
241.838	5.68
242.221	7.02
242.603	5.88
242.986	5.36
243.368	5.81
243.75	4.43
244.133	4.57
244.515	4.61
244.897	4.94
245.279	4.92
245.661	5.15
246.043	5.64
246.425	4.83
246.807	5.78
247.189	4.61
247.571	4.52
247.953	5.19
248.335	5.19
248.717	4.41
249.098	4.6
249.48	4.91
249.862	4.93
250.243	5.51
250.625	4.9
251.006	4.99
251.388	5.73
251.769	6.04
252.151	5.43
252.532	6.4
252.913	5.47
253.295	4.91
253.676	5.65
254.057	5.51
254.438	5.2
254.819	5.16
255.2	5.44
255.581	5.32
255.962	6.24
256.343	6.99
256.724	5.2
257.105	5.82
257.486	6.79
257.867	6.51
258.247	6.83
258.628	7
259.009	5.75
259.389	5.44
259.77	5.54
260.15	6.06
260.531	5.21
260.911	5.52
261.292	4.64
261.672	5.02
262.052	4.98
262.432	4.75
262.813	5.23
263.193	5.34
263.573	5
263.953	5.09
264.333	5.68
264.713	6.32
265.093	5.58
265.473	5.72
265.853	5.55
266.233	6.03
266.612	5.74
266.992	5.7
267.372	5.09
267.752	4.55
268.131	4.93
268.511	5.35
268.89	5.4
269.27	5.03
269.649	4.84
270.029	5.07
270.408	5.78
270.787	5.59
271.167	5.51
271.546	5.89
271.925	5.84
272.304	5.74
272.683	5.15
273.062	5.34
273.441	5.04
273.82	5.51
274.199	5.34
274.578	5.08
274.957	5.25
275.336	5.11
275.715	5.47
276.093	4.47
276.472	5.42
276.851	5.64
277.229	5.8
277.608	4.97
277.986	5.15
278.365	5.37
278.743	5.48
279.122	5.61
279.5	4.72
279.878	4.29
280.257	5.06
280.635	5.44
281.013	5.62
281.391	5.93
281.769	5.38
282.147	4.71
282.525	5.07
282.903	5.42
283.281	5.43
283.659	4.86
284.037	5.19
284.415	4.74
284.792	5.34
285.17	5.13
285.548	5.3
285.925	5.34
286.303	5.03
286.68	4.96
287.058	5.66
287.435	5.26
287.813	4.94
288.19	4.91
288.567	5.1
288.945	5.26
289.322	5.67
289.699	5.03
290.076	5.75
290.453	5.47
290.83	5.25
291.207	5.8
291.584	5.24
291.961	5.6
292.338	5.6
292.715	5.53
293.092	5.6
293.469	5.99
293.845	5.61
294.222	5.64
294.599	5.78
294.975	6.94
295.352	6.08
295.728	6.19
296.105	5.69
296.481	6.14
296.858	5.91
297.234	6.18
297.61	5.9
297.986	5.66
298.363	6.11
298.739	6.02
299.115	6.03
299.491	6.3
299.867	6
300.243	6.23
300.619	6.25
300.995	6.33
301.371	6.74
301.746	6.83
302.122	7.42
302.498	6.59
302.874	6.65
303.249	6.95
303.625	7.03
304	7.38
304.376	6.58
304.751	6.44
305.127	7
305.502	7.43
305.878	7.06
306.253	6.97
306.628	7.17
307.003	7.55
307.378	7.39
307.754	7.71
308.129	8.18
308.504	7.39
308.879	7.43
309.254	7.81
309.629	7.73
310.003	7.54
310.378	7.75
310.753	7.67
311.128	8.24
311.502	8.02
311.877	7.77
312.252	7.94
312.626	8.36
313.001	8.13
313.375	8.61
313.75	8.2
314.124	7.96
314.498	8.58
314.873	8.32
315.247	8.67
315.621	8.96
315.995	8.75
316.369	8.53
316.743	8.84
317.117	9.02
317.491	8.42
317.865	9.88
318.239	9.17
318.613	9.17
318.987	8.58
319.361	8.44
319.734	8.94
320.108	9.5
320.482	10.25
320.855	9.68
321.229	10.29
321.602	9.9
321.976	10.03
322.349	10.27
322.723	10.11
323.096	9.77
323.469	10.05
323.843	10.05
324.216	10.04
324.589	10.32
324.962	10.37
325.335	10.18
325.708	9.78
326.081	10.34
326.454	10.31
326.827	10.27
327.2	10.57
327.573	10.98
327.945	10.08
328.318	9.99
328.691	10.71
329.063	10.87
329.436	10.7
329.809	10.88
330.181	11.03
330.553	11.2
330.926	10.77
331.298	10.52
331.671	10.6
332.043	10.67
332.415	11.1
332.787	11.33
333.159	11.26
333.532	12.14
333.904	11.27
334.276	10.76
334.648	11.32
335.02	11.56
335.391	11.29
335.763	11.68
336.135	11.44
336.507	11.59
336.879	11.08
337.25	11.75
337.622	12
337.993	12.5
338.365	12.05
338.736	11.49
339.108	11.79
339.479	11.72
339.851	12.14
340.222	11.92
340.593	12.07
340.964	12.01
341.336	12.55
341.707	11.9
342.078	12.51
342.449	12.27
342.82	11.87
343.191	11.94
343.562	12.38
343.933	12.12
344.303	12.58
344.674	12.38
345.045	12.86
345.416	12.87
345.786	12.23
346.157	12.77
346.527	12.76
346.898	12.35
347.268	12.85
347.639	12.86
348.009	12.34
348.38	12.8
348.75	13.28
349.12	12.65
349.49	13.01
349.861	13.19
350.231	12.77
350.601	12.64
350.971	13.16
351.341	13.45
351.711	13.58
352.081	12.97
352.45	13.46
352.82	13.38
353.19	13.88
353.56	13.51
353.929	13.84
354.299	13.57
354.669	13.55
355.038	13.89
355.408	13.49
355.777	13.64
356.147	13.9
356.516	13.87
356.885	13.89
357.254	13.81
357.624	13.98
357.993	13.77
358.362	13.96
358.731	13.62
359.1	13.5
359.469	13.89
359.838	14.29
360.207	14.24
360.576	14.18
360.945	14.18
361.314	14.17
361.682	14.55
362.051	14.41
362.42	14.43
362.788	14.4
363.157	14.32
363.525	14.06
363.894	14.15
364.262	14.25
364.631	14.38
364.999	14.59
365.367	14.89
365.735	14.6
366.104	14.62
366.472	14.5
366.84	15.16
367.208	14.89
367.576	14.9
367.944	15.18
368.312	14.92
368.68	15.04
369.048	15.43
369.416	15.38
369.783	15.16
370.151	15.24
370.519	15.36
370.886	15.45
371.254	15.3
371.621	15.75
371.989	15.74
372.356	15.32
372.724	15.8
373.091	15.46
373.458	15.54
373.826	15.81
374.193	15.42
374.56	15.7
374.927	15.82
375.294	15.49
375.661	15.75
376.028	16.08
376.395	16.15
376.762	15.81
377.129	15.84
377.496	16.26
377.863	16.45
378.229	16.26
378.596	16.53
378.963	16.16
379.329	16.11
379.696	16.4
380.062	16.31
380.429	16.33
380.795	16.59
381.161	16.64
381.528	16.77
381.894	16.51
382.26	16.71
382.626	16.71
382.993	16.76
383.359	16.77
383.725	17.1
384.091	17.01
384.457	16.9
384.823	17.02
385.188	17.38
385.554	17.36
385.92	17.22
386.286	17.35
386.651	16.86
387.017	17.08
387.383	17.3
387.748	17.06
388.114	17.07
388.479	17.41
388.845	17.36
389.21	17.2
389.575	17.4
389.94	17.39
390.306	17.53
390.671	17.66
391.036	17.69
391.401	17.7
391.766	17.63
392.131	17.9
392.496	17.94
392.861	17.88
393.226	18.12
393.591	17.83
393.956	17.85
394.32	18.11
394.685	17.84
395.05	18.2
395.414	18.18
395.779	18.1
396.143	18.12
396.508	18.01
396.872	18.21
397.236	18.39
397.601	18.28
397.965	18.22
398.329	18.54
398.694	18.75
399.058	18.33
399.422	18.44
399.786	18.3
400.15	18.71
400.514	18.62
400.878	18.75
401.242	18.88
401.605	18.71
401.969	18.71
402.333	18.89
402.697	18.99
403.06	18.92
403.424	18.8
403.787	18.79
404.151	19.47
404.514	19.16
404.878	18.97
405.241	19.3
405.604	19.18
405.968	19.02
406.331	19.19
406.694	19.36
407.057	19.24
407.42	19.35
407.783	19.67
408.146	19.39
408.509	19.76
408.872	19.76
409.235	19.31
409.598	19.62
409.961	19.83
410.323	19.64
410.686	19.7
411.049	19.98
411.411	19.8
411.774	19.77
412.136	19.71
412.499	20.15
412.861	20.1
413.223	20.04
413.586	20.2
413.948	20.04
414.31	20.33
414.672	20.18
415.035	20.26
415.397	20.5
415.759	20.23
416.121	20.31
416.483	20.52
416.845	20.4
417.206	20.42
417.568	20.68
417.93	20.61
418.292	20.17
418.653	20.7
419.015	20.51
419.377	20.67
419.738	20.61
420.1	20.52
420.461	20.5
420.822	20.45
421.184	20.52
421.545	20.48
421.906	20.35
422.267	20.42
422.629	20.48
422.99	20.28
423.351	20.46
423.712	20.39
424.073	20.57
424.434	20.6
424.795	20.78
425.155	20.96
425.516	20.84
425.877	20.74
426.238	20.75
426.598	20.74
426.959	20.85
427.32	21.07
427.68	21.17
428.041	21.14
428.401	21.34
428.761	21.33
429.122	21.71
429.482	21.65
429.842	21.69
430.202	21.69
430.563	21.93
430.923	21.72
431.283	21.81
431.643	21.97
432.003	21.93
432.363	22.05
432.722	22.2
433.082	22.31
433.442	22.05
433.802	22.23
434.161	22.29
434.521	22.26
434.881	22.16
435.24	21.96
435.6	21.92
435.959	22.04
436.319	22.25
436.678	22.26
437.037	22.25
437.396	22.6
437.756	22.55
438.115	22.47
438.474	22.62
438.833	22.7
439.192	22.59
439.551	22.68
439.91	22.75
440.269	22.72
440.628	22.7
440.987	22.8
441.345	22.7
441.704	22.8
442.063	22.72
442.421	22.76
442.78	22.78
443.138	22.86
443.497	22.98
443.855	23.01
444.214	23.14
444.572	23.2
444.93	23.22
445.288	23.41
445.647	23.54
446.005	23.12
446.363	23.34
446.721	23.09
447.079	23.4
447.437	23.2
447.795	23.06
448.153	23.23
448.51	23.1
448.868	23.11
449.226	23.32
449.584	23.36
449.941	23.49
450.299	23.7
450.656	23.68
451.014	23.84
451.371	23.86
451.729	24.14
452.086	23.87
452.443	24.04
452.801	24.1
453.158	24.25
453.515	24.13
453.872	24.4
454.229	24.21
454.586	24.32
454.943	24.4
455.3	24.5
455.657	24.47
456.014	24.41
456.371	24.48
456.727	24.7
457.084	24.54
457.441	24.9
457.797	24.82
458.154	24.8
458.51	24.93
458.867	24.9
459.223	24.82
459.58	24.94
459.936	24.82
460.292	24.98
460.648	24.68
461.005	24.56
461.361	24.69
461.717	24.4
462.073	24.58
462.429	24.81
462.785	24.93
463.141	25.02
463.496	25.23
463.852	25.42
464.208	25.31
464.564	25.48
464.919	25.45
465.275	25.7
465.631	25.72
465.986	25.68
466.342	25.78
466.697	25.67
467.052	25.69
467.408	25.82
467.763	25.8
468.118	26.11
468.473	25.9
468.829	25.85
469.184	25.8
469.539	25.99
469.894	26
470.249	26.06
470.603	26.17
470.958	26.23
471.313	26.32
471.668	26.23
472.023	26.6
472.377	26.39
472.732	26.35
473.086	26.71
473.441	26.55
473.795	26.66
474.15	26.65
474.504	26.45
474.859	26.53
475.213	26.6
475.567	26.73
475.921	26.61
476.275	26.78
476.63	26.91
476.984	26.94
477.338	26.84
477.692	26.96
478.045	26.86
478.399	26.81
478.753	26.96
479.107	27.03
479.461	27.03
479.814	27.14
480.168	27.14
480.521	27.16
480.875	26.99
481.228	27.28
481.582	27.26
481.935	27.44
482.289	27.34
482.642	27.38
482.995	27.21
483.348	27.26
483.701	27.29
484.055	27.1
484.408	27.02
484.761	26.77
485.114	26.63
485.466	26.29
485.819	26.19
486.172	26.35
486.525	26.63
486.878	26.73
487.23	26.88
487.583	27.06
487.936	27.24
488.288	27.24
488.641	27.26
488.993	27.05
489.345	27.04
489.698	26.93
490.05	27.11
490.402	27.22
490.754	27.4
491.107	27.52
491.459	27.77
491.811	27.93
492.163	28.03
492.515	28.06
492.866	27.95
493.218	27.6
493.57	27.42
493.922	27.58
494.274	27.87
494.625	27.98
494.977	28.23
495.328	28.52
495.68	28.68
496.031	28.76
496.383	28.96
496.734	28.92
497.086	29.13
497.437	29.17
497.788	28.86
498.139	29.12
498.49	28.97
498.842	28.97
499.193	29.08
499.544	28.96
499.894	29.13
500.245	29.17
500.596	29.41
500.947	29.16
501.298	29.46
501.648	29.54
501.999	29.69
502.35	29.83
502.7	29.81
503.051	29.89
503.401	29.86
503.752	29.85
504.102	29.94
504.452	30
504.803	29.98
505.153	30.23
505.503	30.02
505.853	30.23
506.203	30.15
506.553	30.15
506.903	30.09
507.253	30.33
507.603	30.35
507.953	30.32
508.303	30.43
508.652	30.62
509.002	30.51
509.352	30.57
509.701	30.57
510.051	30.42
510.4	30.53
510.75	30.36
511.099	30.72
511.449	30.74
511.798	30.62
512.147	30.63
512.496	30.77
512.846	30.74
513.195	30.9
513.544	30.82
513.893	30.82
514.242	30.88
514.591	30.98
514.939	31
515.288	31.03
515.637	31.16
515.986	31.35
516.334	31.44
516.683	31.37
517.032	31.24
517.38	31.56
517.729	31.57
518.077	31.56
518.426	31.63
518.774	31.42
519.122	31.64
519.47	31.51
519.819	31.52
520.167	31.32
520.515	31.32
520.863	31.38
521.211	31.42
521.559	31.53
521.907	31.57
522.255	31.77
522.602	32.06
522.95	32.01
523.298	31.98
523.645	32.19
523.993	32.34
524.341	32.23
524.688	32.33
525.036	32.31
525.383	32.25
525.73	32.48
526.078	32.54
526.425	32.51
526.772	32.3
527.119	32.13
527.466	31.99
527.814	32.05
528.161	32.25
528.508	32.17
528.854	32.36
529.201	32.19
529.548	32.24
529.895	32.1
530.242	31.66
530.588	31.4
530.935	31.79
531.282	32.13
531.628	32.17
531.975	32.18
532.321	32.33
532.667	32.67
533.014	32.7
533.36	32.76
533.706	33.02
534.052	32.93
534.399	32.71
534.745	32.69
535.091	32.5
535.437	32.57
535.783	32.84
536.129	32.98
536.474	33.09
536.82	33.25
537.166	33.33
537.512	33.7
537.857	33.71
538.203	33.52
538.549	33.39
538.894	33.49
539.239	33.63
539.585	33.63
539.93	33.9
540.276	34.08
540.621	34.27
540.966	34.19
541.311	34.14
541.656	34.15
542.001	34.1
542.346	33.93
542.691	33.83
543.036	33.58
543.381	33.22
543.726	33.45
544.071	33.82
544.415	33.88
544.76	33.96
545.105	34.19
545.449	34.24
545.794	34.43
546.138	34.45
546.483	34.6
546.827	34.71
547.171	34.65
547.516	34.76
547.86	34.89
548.204	34.79
548.548	34.75
548.892	34.64
549.236	34.92
549.58	34.98
549.924	35.2
550.268	35.23
550.612	35.46
550.956	35.74
551.3	35.7
551.643	35.85
551.987	35.83
552.33	35.89
552.674	35.75
553.017	36.01
553.361	36.07
553.704	36.08
554.048	36.12
554.391	35.87
554.734	35.95
555.077	36.03
555.42	36.01
555.764	36.05
556.107	36.41
556.45	36.39
556.793	36.43
557.135	36.52
557.478	36.46
557.821	36.84
558.164	36.78
558.507	36.99
558.849	36.76
559.192	36.83
559.534	36.97
559.877	36.93
560.219	36.88
560.562	37.06
560.904	37.07
561.246	37.11
561.589	37.22
561.931	37.31
562.273	37.2
562.615	37.2
562.957	37.32
563.299	37.08
563.641	37.28
563.983	37.3
564.325	37.2
564.667	37.27
565.008	37.26
565.35	37.48
565.692	37.51
566.033	37.52
566.375	37.49
566.716	37.48
567.058	37.48
567.399	38.01
567.741	37.66
568.082	37.56
568.423	37.5
568.764	37.6
569.105	37.9
569.447	38.04
569.788	37.81
570.129	38.33
570.47	38.04
570.811	37.99
571.151	38.02
571.492	38.36
571.833	38.31
572.174	38.42
572.514	38.61
572.855	38.26
573.195	38.16
573.536	37.95
573.876	38.35
574.217	38.19
574.557	38.42
574.898	38.22
575.238	38.4
575.578	38.6
575.918	38.64
576.258	38.67
576.598	38.82
576.938	38.83
577.278	38.67
577.618	39.01
577.958	38.75
578.298	38.99
578.638	39.03
578.977	39.3
579.317	39.16
579.657	39.4
579.996	39.4
580.336	39.45
580.675	39.57
581.014	39.35
581.354	39.53
581.693	39.79
582.032	39.88
582.372	39.74
582.711	39.97
583.05	39.98
583.389	39.88
583.728	39.79
584.067	39.79
584.406	39.91
584.745	40.25
585.083	40.24
585.422	40.23
585.761	40.32
586.1	40.44
586.438	40.09
586.777	40.39
587.115	40.32
587.454	40.39
587.792	40.26
588.13	40.77
588.469	40.64
588.807	40.4
589.145	40.51
589.483	40.63
589.821	40.33
590.159	40.78
590.497	40.8
590.835	40.8
591.173	41.02
591.511	40.88
591.849	40.81
592.187	40.61
592.524	40.8
592.862	41.11
593.2	41.2
593.537	41.13
593.875	41.37
594.212	41.19
594.55	41.25
594.887	41.15
595.224	41.47
595.561	41.36
595.899	41.32
596.236	41.51
596.573	41.32
596.91	41.42
597.247	41.75
597.584	41.3
597.921	41.3
598.258	41.44
598.594	41.28
598.931	41.36
599.268	41.18
599.604	41.52
599.941	41.74
600.277	41.67
600.614	41.59
600.95	41.89
601.287	42.02
601.623	42.28
601.959	42.14
602.296	41.96
602.632	42.4
602.968	41.87
603.304	42.73
603.64	42.14
603.976	42.62
604.312	42.73
604.648	42.21
604.984	42.28
605.319	42.28
605.655	42.11
605.991	42.27
606.326	42.17
606.662	42.28
606.998	42.16
607.333	42.3
607.668	42.07
608.004	42.7
608.339	42.53
608.674	42.78
609.01	43.27
609.345	43.09
609.68	43.24
610.015	43.04
610.35	42.97
610.685	42.98
611.02	42.93
611.355	42.44
611.689	42.82
612.024	43.07
612.359	42.84
612.694	43.09
613.028	43.4
613.363	43.54
613.697	43.26
614.032	43.3
614.366	43.89
614.7	43.62
615.035	44.09
615.369	43.59
615.703	43.9
616.037	43.74
616.371	44.24
616.705	43.97
617.039	43.8
617.373	44.1
617.707	44.27
618.041	44.35
618.375	44.01
618.709	44.35
619.042	44.72
619.376	44.4
619.71	44.65
620.043	44.44
620.377	44.61
620.71	44.58
621.043	44.29
621.377	44.61
621.71	44.63
622.043	44.89
622.376	44.71
622.709	45.02
623.043	44.69
623.376	44.54
623.709	44.54
624.041	44.73
624.374	44.37
624.707	44.64
625.04	45.25
625.373	45.25
625.705	45.12
626.038	45.26
626.37	44.92
626.703	45.07
627.035	44.93
627.368	44.88
627.7	44.89
628.032	45.11
628.365	45.35
628.697	44.9
629.029	45.18
629.361	45.3
629.693	45.31
630.025	45.67
630.357	45.45
630.689	45.35
631.021	45.58
631.353	45.62
631.684	45.8
632.016	45.85
632.348	45.8
632.679	45.62
633.011	45.97
633.342	46
633.674	45.88
634.005	46.04
634.336	46.37
634.668	45.78
634.999	45.9
635.33	45.67
635.661	46.11
635.992	45.78
636.323	46.38
636.654	46.4
636.985	45.95
637.316	46.13
637.647	46.31
637.977	46.13
638.308	46.3
638.639	46.3
638.969	46.05
639.3	45.96
639.63	46.75
639.961	46.57
640.291	46.84
640.622	46.63
640.952	46.72
641.282	46.91
641.612	46.97
641.943	46.7
642.273	47.06
642.603	47.4
642.933	46.79
643.263	47.15
643.592	47.17
643.922	47.5
644.252	47.17
644.582	47.38
644.911	47.53
645.241	48.16
645.571	47.48
645.9	47.45
646.23	47.73
646.559	47.76
646.888	47.68
647.218	47.69
647.547	47.89
647.876	47.49
648.205	47.91
648.534	47.58
648.863	47.5
649.192	47.66
649.521	47.64
649.85	47.91
650.179	47.6
650.508	47.62
650.837	47.89
651.165	47.74
651.494	47.63
651.822	47.97
652.151	48.26
652.479	48.5
652.808	47.98
653.136	47.62
653.465	48.33
653.793	48.37
654.121	48.45
654.449	48.26
654.777	48.68
655.105	48.62
655.433	48.92
655.761	48.71
656.089	48.1
656.417	48.95
656.745	48.33
657.073	48.81
657.4	48.96
657.728	48.58
658.056	48.85
658.383	49.57
658.711	48.47
659.038	49.17
659.365	48.49
659.693	48.73
660.02	48.92
660.347	48.76
660.674	48.95
661.001	48.47
661.329	48.8
661.656	49.01
661.982	48.94
662.309	48.87
662.636	49.28
662.963	48.95
663.29	49.31
663.616	49.45
663.943	48.66
664.27	49.13
664.596	48.66
664.923	49.03
665.249	49.37
665.576	49.91
665.902	49.31
666.228	49.7
666.554	49.32
666.881	49.7
667.207	50.04
667.533	50.11
667.859	49.35
668.185	50.05
668.511	49.51
668.837	50.58
669.162	49.99
669.488	49.51
669.814	49.66
670.139	49.75
