Data from 0231_forehead_Reflection__1__28.txt Node

Date: Fri Oct 20 20:53:02 CDT 2023
User: ToomeyLab
Spectrometer: FLMS14357
Trigger mode: 0
Integration Time (sec): 1.000000E-2
Scans to average: 100
Electric dark correction enabled: true
Nonlinearity correction enabled: false
Boxcar width: 0
XAxis mode: Wavelengths
Number of Pixels in Spectrum: 2048
>>>>>Begin Spectral Data<<<<<
189.047	-114.94
189.435	-114.94
189.823	-114.94
190.211	88.07
190.599	-233.33
190.987	385.59
191.375	116.61
191.763	103.61
192.151	2729.27
192.538	-633.33
192.926	67.59
193.314	94.81
193.702	155.98
194.089	59.13
194.477	206.49
194.864	-100
195.252	187.72
195.639	7.98
196.027	-2.51
196.414	-8.5
196.801	64.95
197.189	131.09
197.576	-3.63
197.963	-168.14
198.351	39.85
198.738	19.42
199.125	34.23
199.512	19.26
199.899	16.56
200.286	-30.44
200.673	40.49
201.06	57.58
201.447	104.35
201.833	54.04
202.22	46.28
202.607	28.24
202.994	78.46
203.38	41.61
203.767	46.24
204.154	67.6
204.54	30.4
204.927	17.31
205.313	20.05
205.699	54.57
206.086	35.6
206.472	41.06
206.858	72.46
207.245	4.94
207.631	52.62
208.017	37.23
208.403	30.71
208.789	66.46
209.175	13.82
209.561	55.19
209.947	1.13
210.333	6.39
210.719	32.23
211.105	23.56
211.491	29.9
211.876	15.74
212.262	21.02
212.648	32.94
213.034	-1.5
213.419	22.72
213.805	34.53
214.19	19.91
214.576	33.4
214.961	28.42
215.346	46.17
215.732	25.37
216.117	-13.61
216.502	40.11
216.888	19.15
217.273	41.09
217.658	18.06
218.043	29.51
218.428	29.22
218.813	18.79
219.198	26.06
219.583	-25.76
219.968	2.26
220.353	29.34
220.738	29.53
221.122	12.58
221.507	20.07
221.892	24.62
222.276	6.99
222.661	39.42
223.046	22.09
223.43	18.22
223.815	23.4
224.199	21.39
224.583	5.8
224.968	5.16
225.352	11.45
225.736	13.97
226.121	12.2
226.505	4.29
226.889	18.6
227.273	10.44
227.657	14.02
228.041	10.36
228.425	10.34
228.809	6.42
229.193	6.25
229.577	9.27
229.961	2.31
230.344	4.31
230.728	3.57
231.112	4.65
231.495	3.99
231.879	4.23
232.263	5.18
232.646	4.7
233.03	3.25
233.413	4.29
233.797	4.7
234.18	6.36
234.563	4.69
234.946	6.66
235.33	7.01
235.713	5.48
236.096	5.83
236.479	4.99
236.862	5.62
237.245	4.23
237.628	5.71
238.011	4.68
238.394	4.91
238.777	6.56
239.16	5.06
239.543	7.43
239.925	7.12
240.308	6.12
240.691	4.59
241.073	6.44
241.456	4.27
241.838	5.13
242.221	5.28
242.603	5.14
242.986	4.53
243.368	4.82
243.75	4.81
244.133	4.61
244.515	4.38
244.897	4.33
245.279	4.24
245.661	4.57
246.043	4.69
246.425	3.94
246.807	5.42
247.189	4.45
247.571	3.61
247.953	4.44
248.335	4.69
248.717	3.99
249.098	3.99
249.48	4.06
249.862	4.33
250.243	4.64
250.625	4.41
251.006	4.7
251.388	4.22
251.769	5.57
252.151	4.3
252.532	4.88
252.913	5.55
253.295	4.26
253.676	4.62
254.057	4.21
254.438	4.08
254.819	4.62
255.2	4.83
255.581	5.1
255.962	4.56
256.343	4.87
256.724	4.29
257.105	4.24
257.486	5.72
257.867	5.37
258.247	5.27
258.628	4.73
259.009	4.76
259.389	4.43
259.77	4.25
260.15	5.17
260.531	5.2
260.911	5.05
261.292	4.28
261.672	4.32
262.052	4.57
262.432	4.49
262.813	4.44
263.193	4.7
263.573	4.54
263.953	4.75
264.333	5.24
264.713	5.13
265.093	5.11
265.473	5.79
265.853	5.47
266.233	4.62
266.612	4.8
266.992	4.66
267.372	4.09
267.752	4.99
268.131	5.44
268.511	5.34
268.89	4.84
269.27	4.19
269.649	4.12
270.029	4.43
270.408	5.21
270.787	5.68
271.167	4.75
271.546	4.91
271.925	5.13
272.304	4.25
272.683	4.69
273.062	4.65
273.441	4.68
273.82	4.27
274.199	4.8
274.578	4.36
274.957	4.4
275.336	4.71
275.715	4.53
276.093	4.49
276.472	4.51
276.851	5.07
277.229	4.83
277.608	4.15
277.986	4.68
278.365	5.26
278.743	4.55
279.122	4.93
279.5	4.56
279.878	4.05
280.257	4.47
280.635	5.12
281.013	5.13
281.391	4.78
281.769	4.75
282.147	4.11
282.525	4.83
282.903	4.16
283.281	4.44
283.659	4.39
284.037	4.74
284.415	4.33
284.792	4.57
285.17	4.79
285.548	4.47
285.925	4.66
286.303	4.22
286.68	4.7
287.058	4.92
287.435	4.92
287.813	4.32
288.19	4.53
288.567	4.67
288.945	5.27
289.322	5.34
289.699	4.67
290.076	5.03
290.453	5.23
290.83	4.82
291.207	5.58
291.584	4.19
291.961	4.88
292.338	4.65
292.715	4.82
293.092	4.93
293.469	5.49
293.845	5.1
294.222	5.19
294.599	5.39
294.975	6.53
295.352	5.71
295.728	5.46
296.105	5.24
296.481	5.56
296.858	5.68
297.234	5.54
297.61	5.31
297.986	5.28
298.363	5.78
298.739	5.72
299.115	5.66
299.491	5.83
299.867	5.58
300.243	5.62
300.619	5.69
300.995	5.97
301.371	5.89
301.746	6.26
302.122	6.57
302.498	6.14
302.874	6.41
303.249	6.01
303.625	6.2
304	6.4
304.376	6.31
304.751	5.88
305.127	5.92
305.502	6.87
305.878	6.57
306.253	6.94
306.628	6.59
307.003	6.48
307.378	6.81
307.754	7.27
308.129	6.86
308.504	7.08
308.879	7.3
309.254	7.55
309.629	7.06
310.003	6.74
310.378	7.4
310.753	7.69
311.128	7.91
311.502	7.57
311.877	7.51
312.252	7.91
312.626	8.27
313.001	7.72
313.375	7.75
313.75	7.96
314.124	7.93
314.498	8.14
314.873	8.16
315.247	8.41
315.621	8.59
315.995	9.1
316.369	7.97
316.743	8.41
317.117	9.38
317.491	8.27
317.865	8.91
318.239	9.05
318.613	9.37
318.987	8.73
319.361	8.32
319.734	8.47
320.108	9.16
320.482	9.37
320.855	9.68
321.229	9.98
321.602	9.31
321.976	9.69
322.349	9.91
322.723	8.82
323.096	9.36
323.469	9.8
323.843	9.66
324.216	10.11
324.589	10.17
324.962	10.56
325.335	10.43
325.708	9.89
326.081	9.91
326.454	10.13
326.827	10.45
327.2	10.56
327.573	10.33
327.945	10.32
328.318	10.55
328.691	10.36
329.063	10.72
329.436	9.78
329.809	11.42
330.181	10.76
330.553	11.18
330.926	10.66
331.298	11.07
331.671	10.42
332.043	10.99
332.415	10.87
332.787	11.19
333.159	11.06
333.532	11.27
333.904	11.25
334.276	10.99
334.648	11.55
335.02	11.74
335.391	11.61
335.763	11.44
336.135	12.07
336.507	11.98
336.879	11.35
337.25	11.49
337.622	12.06
337.993	12.66
338.365	11.91
338.736	11.84
339.108	12.52
339.479	11.82
339.851	12.1
340.222	12.39
340.593	11.72
340.964	12.39
341.336	12.21
341.707	12.11
342.078	12.12
342.449	12.07
342.82	12.18
343.191	12.29
343.562	12.47
343.933	12.42
344.303	12.42
344.674	12.82
345.045	12.94
345.416	12.67
345.786	12.68
346.157	12.89
346.527	13.18
346.898	13.07
347.268	13.15
347.639	13.29
348.009	12.99
348.38	13.43
348.75	13.47
349.12	13.46
349.49	13.34
349.861	13.74
350.231	13.36
350.601	13.47
350.971	13.99
351.341	13.53
351.711	14.32
352.081	13.65
352.45	13.54
352.82	13.95
353.19	13.87
353.56	14.33
353.929	13.46
354.299	13.89
354.669	13.86
355.038	14.55
355.408	14.02
355.777	14.48
356.147	14.21
356.516	14.23
356.885	13.88
357.254	14.6
357.624	14.48
357.993	14.1
358.362	14.44
358.731	14.4
359.1	14.26
359.469	14.13
359.838	14.31
360.207	14.55
360.576	14.85
360.945	14.71
361.314	14.8
361.682	14.84
362.051	14.79
362.42	14.96
362.788	15.11
363.157	15.02
363.525	14.86
363.894	14.97
364.262	15.15
364.631	15.28
364.999	15.46
365.367	15.27
365.735	15.25
366.104	15.23
366.472	15.62
366.84	15.57
367.208	15.72
367.576	15.28
367.944	15.67
368.312	15.53
368.68	15.92
369.048	15.9
369.416	15.9
369.783	16.27
370.151	15.95
370.519	15.98
370.886	16.43
371.254	16.32
371.621	16.53
371.989	16.19
372.356	16.49
372.724	16.32
373.091	16.68
373.458	16.18
373.826	16.62
374.193	16.58
374.56	16.62
374.927	16.87
375.294	16.82
375.661	17.01
376.028	17.08
376.395	17.21
376.762	16.77
377.129	17.35
377.496	17.53
377.863	17.23
378.229	17.11
378.596	16.93
378.963	17.26
379.329	17.06
379.696	17.22
380.062	17.32
380.429	17.26
380.795	17.37
381.161	17.86
381.528	17.72
381.894	17.04
382.26	17.86
382.626	18.11
382.993	17.86
383.359	17.7
383.725	17.97
384.091	17.93
384.457	18.11
384.823	17.83
385.188	18.09
385.554	18.1
385.92	18.24
386.286	18.38
386.651	18.11
387.017	18.32
387.383	18.1
387.748	18.32
388.114	18.22
388.479	18.57
388.845	18.63
389.21	18.38
389.575	18.48
389.94	18.54
390.306	18.43
390.671	18.78
391.036	18.81
391.401	19.11
391.766	19
392.131	18.97
392.496	19.22
392.861	19.3
393.226	19.23
393.591	18.79
393.956	19.08
394.32	19.32
394.685	19.06
395.05	19.64
395.414	19.51
395.779	19.33
396.143	19.33
396.508	19.36
396.872	19.68
397.236	19.74
397.601	19.83
397.965	19.43
398.329	19.69
398.694	20
399.058	19.85
399.422	19.98
399.786	20.01
400.15	19.99
400.514	19.95
400.878	20.22
401.242	20.59
401.605	20.24
401.969	20.09
402.333	20.32
402.697	20.56
403.06	20.41
403.424	20.5
403.787	20.4
404.151	20.55
404.514	20.52
404.878	20.8
405.241	20.78
405.604	20.36
405.968	20.66
406.331	20.73
406.694	20.79
407.057	20.93
407.42	21.01
407.783	20.94
408.146	20.94
408.509	21.2
408.872	20.97
409.235	21.18
409.598	21.52
409.961	21.42
410.323	21.52
410.686	21.68
411.049	21.8
411.411	21.66
411.774	21.46
412.136	21.48
412.499	21.54
412.861	21.75
413.223	21.99
413.586	21.91
413.948	22.07
414.31	21.9
414.672	21.88
415.035	22.09
415.397	22.24
415.759	21.99
416.121	22.02
416.483	22.14
416.845	22.03
417.206	22.34
417.568	22.28
417.93	22.31
418.292	22.15
418.653	22.41
419.015	22.32
419.377	22.17
419.738	22.32
420.1	22.05
420.461	22.28
420.822	22.21
421.184	22.36
421.545	22.31
421.906	22.29
422.267	22.25
422.629	22.17
422.99	22.18
423.351	22.31
423.712	22.4
424.073	22.43
424.434	22.59
424.795	22.67
425.155	22.72
425.516	22.64
425.877	22.63
426.238	22.54
426.598	22.67
426.959	22.87
427.32	23.02
427.68	23.21
428.041	23.19
428.401	23.55
428.761	23.48
429.122	23.41
429.482	23.68
429.842	23.67
430.202	23.65
430.563	23.94
430.923	23.94
431.283	23.94
431.643	24
432.003	24.17
432.363	23.91
432.722	24.29
433.082	24.18
433.442	24.09
433.802	24.25
434.161	24.24
434.521	24.27
434.881	24.34
435.24	24.17
435.6	24.23
435.959	24.49
436.319	24.54
436.678	24.49
437.037	24.4
437.396	24.88
437.756	24.9
438.115	24.85
438.474	24.74
438.833	24.86
439.192	24.88
439.551	24.8
439.91	25.06
440.269	24.78
440.628	25.07
440.987	25.02
441.345	24.68
441.704	24.92
442.063	24.95
442.421	24.93
442.78	25.03
443.138	25.11
443.497	25.11
443.855	25.38
444.214	25.37
444.572	25.38
444.93	25.54
445.288	25.64
445.647	25.6
446.005	25.59
446.363	25.52
446.721	25.67
447.079	25.6
447.437	25.48
447.795	25.46
448.153	25.49
448.51	25.42
448.868	25.54
449.226	25.68
449.584	25.71
449.941	25.83
450.299	26.06
450.656	26.09
451.014	26.17
451.371	26.45
451.729	26.34
452.086	26.37
452.443	26.67
452.801	26.51
453.158	26.65
453.515	26.78
453.872	26.65
454.229	26.77
454.586	26.77
454.943	26.78
455.3	26.85
455.657	26.86
456.014	27.01
456.371	27.02
456.727	27.21
457.084	27.24
457.441	27.3
457.797	27.33
458.154	27.31
458.51	27.55
458.867	27.35
459.223	27.36
459.58	27.37
459.936	27.44
460.292	27.4
460.648	27.15
461.005	27.25
461.361	27.1
461.717	26.77
462.073	27.1
462.429	27.3
462.785	27.55
463.141	27.76
463.496	27.86
463.852	28.11
464.208	28.08
464.564	28.29
464.919	28.19
465.275	28.38
465.631	28.38
465.986	28.66
466.342	28.44
466.697	28.41
467.052	28.25
467.408	28.55
467.763	28.64
468.118	28.92
468.473	28.74
468.829	28.61
469.184	28.64
469.539	28.56
469.894	28.93
470.249	28.9
470.603	28.79
470.958	29.06
471.313	29.04
471.668	29.06
472.023	29.21
472.377	29.28
472.732	29.16
473.086	29.3
473.441	29.38
473.795	29.25
474.15	29.53
474.504	29.53
474.859	29.59
475.213	29.44
475.567	29.73
475.921	29.65
476.275	29.62
476.63	29.89
476.984	30.06
477.338	29.74
477.692	30.07
478.045	29.86
478.399	29.8
478.753	29.9
479.107	29.73
479.461	30
479.814	30.07
480.168	30.03
480.521	30.04
480.875	30.21
481.228	30.39
481.582	30.38
481.935	30.28
482.289	30.41
482.642	30.28
482.995	30.18
483.348	30.26
483.701	30.3
484.055	30.3
484.408	30.08
484.761	29.89
485.114	29.54
485.466	29.09
485.819	29.05
486.172	29.3
486.525	29.6
486.878	29.88
487.23	30.19
487.583	30.4
487.936	30.47
488.288	30.42
488.641	30.31
488.993	30.02
489.345	29.97
489.698	29.99
490.05	30.1
490.402	30.28
490.754	30.54
491.107	30.77
491.459	30.95
491.811	31.22
492.163	31.32
492.515	31.23
492.866	31.07
493.218	30.71
493.57	30.53
493.922	30.62
494.274	30.87
494.625	31.27
494.977	31.6
495.328	31.83
495.68	31.91
496.031	32.17
496.383	32.16
496.734	32.39
497.086	32.35
497.437	32.41
497.788	32.47
498.139	32.38
498.49	32.26
498.842	32.01
499.193	32.12
499.544	32.29
499.894	32.51
500.245	32.64
500.596	32.69
500.947	32.8
501.298	32.79
501.648	32.77
501.999	33.11
502.35	33.17
502.7	33.37
503.051	33.29
503.401	33.36
503.752	33.42
504.102	33.54
504.452	33.52
504.803	33.46
505.153	33.62
505.503	33.57
505.853	33.59
506.203	33.48
506.553	33.62
506.903	33.59
507.253	33.83
507.603	33.83
507.953	33.97
508.303	33.74
508.652	34.04
509.002	33.93
509.352	34.28
509.701	34.12
510.051	33.96
510.4	33.96
510.75	33.98
511.099	34.18
511.449	34.07
511.798	34.07
512.147	34.22
512.496	34.39
512.846	34.34
513.195	34.46
513.544	34.4
513.893	34.27
514.242	34.42
514.591	34.64
514.939	34.55
515.288	34.54
515.637	34.8
515.986	34.94
516.334	34.91
516.683	34.96
517.032	34.74
517.38	35.14
517.729	35.35
518.077	35.32
518.426	35.22
518.774	35.09
519.122	35.15
519.47	35.11
519.819	34.98
520.167	34.75
520.515	34.55
520.863	34.83
521.211	34.98
521.559	35.05
521.907	35.21
522.255	35.43
522.602	35.57
522.95	35.62
523.298	35.9
523.645	35.87
523.993	36.2
524.341	35.99
524.688	35.89
525.036	36.16
525.383	36.01
525.73	36.3
526.078	36.2
526.425	36.01
526.772	36.04
527.119	35.96
527.466	35.65
527.814	35.73
528.161	35.79
528.508	35.92
528.854	36.05
529.201	36.09
529.548	36.04
529.895	35.79
530.242	35.25
530.588	35.01
530.935	35.63
531.282	35.74
531.628	35.96
531.975	35.95
532.321	36.3
532.667	36.39
533.014	36.67
533.36	36.86
533.706	36.87
534.052	36.78
534.399	36.59
534.745	36.45
535.091	36.31
535.437	36.2
535.783	36.56
536.129	36.76
536.474	36.97
536.82	37.38
537.166	37.38
537.512	37.49
537.857	37.46
538.203	37.26
538.549	37.1
538.894	37.22
539.239	37.19
539.585	37.52
539.93	37.83
540.276	38.01
540.621	38.13
540.966	38.23
541.311	38.23
541.656	38.27
542.001	38.12
542.346	38.08
542.691	37.69
543.036	37.2
543.381	37.04
543.726	37.34
544.071	37.63
544.415	37.8
544.76	37.87
545.105	38.23
545.449	38.14
545.794	38.38
546.138	38.52
546.483	38.6
546.827	38.91
547.171	38.68
547.516	38.8
547.86	38.86
548.204	38.77
548.548	38.7
548.892	38.64
549.236	38.95
549.58	39.07
549.924	39.15
550.268	39.39
550.612	39.61
550.956	39.91
551.3	39.79
551.643	40
551.987	40.25
552.33	40.09
552.674	39.99
553.017	40.3
553.361	40.04
553.704	40.22
554.048	40.27
554.391	39.97
554.734	40.14
555.077	40.02
555.42	40.08
555.764	40.46
556.107	40.7
556.45	40.54
556.793	40.74
557.135	40.61
557.478	40.69
557.821	40.93
558.164	40.9
558.507	41.1
558.849	41.08
559.192	40.84
559.534	41.33
559.877	41.13
560.219	41.25
560.562	41.23
560.904	41.43
561.246	41.38
561.589	41.44
561.931	41.49
562.273	41.79
562.615	41.62
562.957	41.62
563.299	41.34
563.641	41.83
563.983	41.63
564.325	41.5
564.667	41.68
565.008	41.98
565.35	41.81
565.692	41.97
566.033	42.01
566.375	41.98
566.716	42.12
567.058	42.02
567.399	42.27
567.741	41.99
568.082	41.91
568.423	41.98
568.764	42.06
569.105	42.3
569.447	42.37
569.788	42.33
570.129	42.25
570.47	42.59
570.811	42.48
571.151	42.34
571.492	42.75
571.833	42.86
572.174	42.7
572.514	42.97
572.855	42.53
573.195	42.48
573.536	42.62
573.876	42.74
574.217	42.53
574.557	42.74
574.898	42.76
575.238	42.85
575.578	42.81
575.918	43.08
576.258	42.9
576.598	43.15
576.938	43.15
577.278	43.24
577.618	43.17
577.958	43.38
578.298	43.36
578.638	43.5
578.977	43.52
579.317	43.64
579.657	43.7
579.996	43.82
580.336	43.77
580.675	43.72
581.014	44.03
581.354	43.99
581.693	44.37
582.032	44.15
582.372	44.2
582.711	44.25
583.05	44.65
583.389	44.41
583.728	44.62
584.067	44.6
584.406	44.55
584.745	44.74
585.083	44.59
585.422	45.09
585.761	45.13
586.1	45.02
586.438	44.92
586.777	45.05
587.115	45.1
587.454	45.14
587.792	44.85
588.13	45.29
588.469	45.33
588.807	44.81
589.145	45.36
589.483	45.46
589.821	45.28
590.159	45.78
590.497	45.46
590.835	45.69
591.173	45.45
591.511	45.26
591.849	45.37
592.187	45.48
592.524	45.3
592.862	45.5
593.2	45.89
593.537	45.6
593.875	45.52
594.212	46.29
594.55	45.74
594.887	45.69
595.224	45.54
595.561	45.69
595.899	45.82
596.236	46.25
596.573	45.8
596.91	46.28
597.247	46.02
597.584	46.3
597.921	46.2
598.258	46.37
598.594	45.92
598.931	45.58
599.268	45.87
599.604	46.39
599.941	46.55
600.277	46.23
600.614	46.48
600.95	46.42
601.287	46.64
601.623	47.09
601.959	46.83
602.296	46.93
602.632	46.85
602.968	46.52
603.304	47.07
603.64	46.84
603.976	47.02
604.312	47.51
604.648	47.01
604.984	47.02
605.319	46.92
605.655	46.94
605.991	46.71
606.326	46.72
606.662	46.94
606.998	46.94
607.333	47.04
607.668	47.12
608.004	47.56
608.339	47.58
608.674	47.56
609.01	47.91
609.345	48.21
609.68	48.17
610.015	47.67
610.35	47.65
610.685	47.83
611.02	47.79
611.355	47.55
611.689	47.49
612.024	47.47
612.359	47.89
612.694	47.98
613.028	48.4
613.363	48.08
613.697	48.18
614.032	48.3
614.366	48.65
614.7	48.9
615.035	48.51
615.369	48.8
615.703	48.75
616.037	48.64
616.371	48.48
616.705	48.81
617.039	48.55
617.373	48.81
617.707	49.2
618.041	48.69
618.375	48.76
618.709	48.53
619.042	49.2
619.376	49.2
619.71	49.37
620.043	49.3
620.377	49.15
620.71	49.82
621.043	49.43
621.377	49.41
621.71	49.37
622.043	49.76
622.376	49.43
622.709	49.67
623.043	49.29
623.376	49.42
623.709	48.99
624.041	50.01
624.374	49.81
624.707	49.84
625.04	50.24
625.373	50.17
625.705	49.79
626.038	50.23
626.37	50.27
626.703	50.09
627.035	50.21
627.368	50.15
627.7	49.87
628.032	49.87
628.365	50.01
628.697	50.08
629.029	50.07
629.361	49.95
629.693	50.23
630.025	50.46
630.357	50.42
630.689	50.46
631.021	50.28
631.353	50.59
631.684	50.92
632.016	51.12
632.348	50.88
632.679	50.54
633.011	51.03
633.342	50.91
633.674	50.9
634.005	50.95
634.336	50.98
634.668	51.04
634.999	51
635.33	51.16
635.661	51.14
635.992	50.81
636.323	50.85
636.654	51.38
636.985	50.6
637.316	51.18
637.647	51.38
637.977	51.42
638.308	51.42
638.639	51.67
638.969	51.09
639.3	51.44
639.63	51.69
639.961	51.58
640.291	51.64
640.622	51.68
640.952	51.85
641.282	52.01
641.612	51.91
641.943	52.31
642.273	51.89
642.603	51.88
642.933	51.78
643.263	52.48
643.592	52.13
643.922	52.72
644.252	52.56
644.582	52.48
644.911	52.53
645.241	52.39
645.571	52.61
645.9	52.35
646.23	52.68
646.559	52.32
646.888	52.71
647.218	52.8
647.547	52.38
647.876	52.73
648.205	52.62
648.534	53.16
648.863	52.67
649.192	52.52
649.521	52.28
649.85	52.72
650.179	52.61
650.508	52.71
650.837	53.21
651.165	52.47
651.494	52.85
651.822	52.92
652.151	53.23
652.479	53.1
652.808	52.91
653.136	53.26
653.465	53.09
653.793	53.09
654.121	53.33
654.449	53.81
654.777	53.37
655.105	53.24
655.433	53.48
655.761	54.39
656.089	53.73
656.417	53.94
656.745	53.63
657.073	53.45
657.4	53.82
657.728	53.82
658.056	53.8
658.383	53.94
658.711	53.7
659.038	53.94
659.365	54.49
659.693	53.6
660.02	53.82
660.347	54.03
660.674	53.65
661.001	53.41
661.329	54
661.656	53.9
661.982	54.3
662.309	54.32
662.636	54.23
662.963	54.52
663.29	55.02
663.616	54.24
663.943	54.06
664.27	54.22
664.596	54.03
664.923	54.45
665.249	54.32
665.576	54.31
665.902	53.87
666.228	54.72
666.554	54.39
666.881	54.84
667.207	54.75
667.533	54.88
667.859	54.49
668.185	54.65
668.511	54.67
668.837	55.13
669.162	55.04
