Data from 0231_chest_Reflection__4__19.txt Node

Date: Fri Oct 20 20:45:20 CDT 2023
User: ToomeyLab
Spectrometer: FLMS14357
Trigger mode: 0
Integration Time (sec): 1.000000E-2
Scans to average: 100
Electric dark correction enabled: true
Nonlinearity correction enabled: false
Boxcar width: 0
XAxis mode: Wavelengths
Number of Pixels in Spectrum: 2048
>>>>>Begin Spectral Data<<<<<
189.047	145.63
189.435	145.63
189.823	145.63
190.211	3.37
190.599	-3850.64
190.987	781.55
191.375	374.64
191.763	131.11
192.151	-1322.56
192.538	475
192.926	-51.79
193.314	54.35
193.702	18.1
194.089	99.4
194.477	-38.85
194.864	30.07
195.252	312.32
195.639	-119.23
196.027	-55.87
196.414	56.52
196.801	32.45
197.189	122.14
197.576	-185.4
197.963	35.21
198.351	68
198.738	21.95
199.125	30.73
199.512	22
199.899	12.54
200.286	-28.58
200.673	32.9
201.06	27.94
201.447	4.78
201.833	39.7
202.22	23.98
202.607	16.47
202.994	41.25
203.38	8.09
203.767	-9.89
204.154	46.74
204.54	41.89
204.927	3.75
205.313	13.3
205.699	29.67
206.086	23.31
206.472	35.66
206.858	49.23
207.245	14.38
207.631	29.99
208.017	26.43
208.403	-6.97
208.789	46.01
209.175	6.52
209.561	12.48
209.947	4.37
210.333	41.36
210.719	17.62
211.105	21.01
211.491	54.19
211.876	13.76
212.262	34.88
212.648	25.01
213.034	1.94
213.419	15.85
213.805	23.35
214.19	-5.88
214.576	-25.56
214.961	33.28
215.346	14.76
215.732	0.77
216.117	-29.18
216.502	30
216.888	10.18
217.273	35.36
217.658	1.79
218.043	50.95
218.428	27.16
218.813	15.26
219.198	14.45
219.583	-6.15
219.968	-3.53
220.353	17.51
220.738	31.04
221.122	10.2
221.507	11.98
221.892	16.85
222.276	7.79
222.661	23.6
223.046	5.5
223.43	5.31
223.815	12.86
224.199	22.89
224.583	7.05
224.968	8.33
225.352	12.11
225.736	8.21
226.121	11.89
226.505	7.08
226.889	6.46
227.273	7.45
227.657	15.19
228.041	13.68
228.425	7.88
228.809	6.57
229.193	5.73
229.577	9.49
229.961	5.19
230.344	5.5
230.728	4.59
231.112	5.52
231.495	4.97
231.879	5.43
232.263	5.57
232.646	3.94
233.03	5.28
233.413	4.59
233.797	4.19
234.18	5.74
234.563	8.13
234.946	5.65
235.33	6.08
235.713	5.33
236.096	6
236.479	4.47
236.862	6.15
237.245	4.87
237.628	5.99
238.011	7.15
238.394	3.88
238.777	7.23
239.16	6.57
239.543	6.9
239.925	8.33
240.308	5.68
240.691	6.24
241.073	5.93
241.456	6.29
241.838	5.63
242.221	6.71
242.603	5.28
242.986	5.99
243.368	4.72
243.75	4.61
244.133	4.28
244.515	4.13
244.897	4.7
245.279	5.04
245.661	4.53
246.043	3.79
246.425	5.14
246.807	5.34
247.189	4.32
247.571	4.64
247.953	4.36
248.335	5.15
248.717	3.92
249.098	3.91
249.48	4.03
249.862	4.45
250.243	4.68
250.625	4.49
251.006	4.92
251.388	4.2
251.769	5.02
252.151	4.06
252.532	4.58
252.913	4.44
253.295	3.81
253.676	4.49
254.057	3.63
254.438	4.3
254.819	4.65
255.2	4.3
255.581	4.49
255.962	5.47
256.343	3.39
256.724	4.02
257.105	5.28
257.486	4.49
257.867	4.38
258.247	4.85
258.628	4.47
259.009	4.4
259.389	3.56
259.77	4.23
260.15	4.44
260.531	4.53
260.911	4.36
261.292	3.88
261.672	3.91
262.052	3.96
262.432	4.06
262.813	4.08
263.193	4.08
263.573	4.11
263.953	3.91
264.333	4.12
264.713	4.44
265.093	4.37
265.473	4.6
265.853	4.23
266.233	3.8
266.612	3.92
266.992	4.48
267.372	3.42
267.752	3.61
268.131	3.69
268.511	4.22
268.89	3.88
269.27	4.14
269.649	3.39
270.029	3.74
270.408	3.77
270.787	4.12
271.167	4.36
271.546	3.99
271.925	4.43
272.304	3.6
272.683	4.44
273.062	3.99
273.441	4.21
273.82	3.97
274.199	4.16
274.578	3.85
274.957	4.27
275.336	4.47
275.715	4.19
276.093	3.9
276.472	4.1
276.851	4.28
277.229	3.6
277.608	3.1
277.986	3.42
278.365	4.7
278.743	3.6
279.122	4.23
279.5	3.95
279.878	3.57
280.257	3.81
280.635	3.83
281.013	4.09
281.391	4.46
281.769	3.82
282.147	3.58
282.525	3.98
282.903	3.83
283.281	3.97
283.659	3.48
284.037	4.04
284.415	3.47
284.792	3.78
285.17	3.76
285.548	3.43
285.925	3.42
286.303	3.26
286.68	3.52
287.058	4.43
287.435	3.99
287.813	3.14
288.19	3.51
288.567	3.89
288.945	3.93
289.322	3.96
289.699	2.82
290.076	4.74
290.453	3.72
290.83	3.89
291.207	4.04
291.584	3.51
291.961	4.04
292.338	3.57
292.715	3.8
293.092	3.66
293.469	3.85
293.845	3.63
294.222	3.59
294.599	3.64
294.975	4.74
295.352	3.39
295.728	3.78
296.105	3.61
296.481	3.8
296.858	3.91
297.234	4.02
297.61	3.64
297.986	3.52
298.363	3.61
298.739	3.78
299.115	3.43
299.491	3.84
299.867	3.74
300.243	3.8
300.619	3.56
300.995	3.54
301.371	3.98
301.746	3.64
302.122	4.1
302.498	3.78
302.874	3.92
303.249	3.43
303.625	4.01
304	4.09
304.376	3.49
304.751	3.84
305.127	4.1
305.502	4.25
305.878	3.6
306.253	3.82
306.628	3.65
307.003	3.84
307.378	3.71
307.754	3.92
308.129	4.03
308.504	3.79
308.879	3.76
309.254	3.92
309.629	3.36
310.003	3.27
310.378	3.79
310.753	3.96
311.128	3.44
311.502	3.62
311.877	3.79
312.252	3.57
312.626	4.23
313.001	3.52
313.375	3.6
313.75	3.85
314.124	3.52
314.498	3.74
314.873	3.53
315.247	3.55
315.621	3.44
315.995	4.12
316.369	3.68
316.743	4.02
317.117	3.69
317.491	3.05
317.865	4
318.239	3.94
318.613	3.47
318.987	3.97
319.361	3.44
319.734	3.15
320.108	3.42
320.482	4.23
320.855	3.47
321.229	3.88
321.602	4.07
321.976	3.78
322.349	4.22
322.723	3.29
323.096	4.11
323.469	3.77
323.843	3.85
324.216	3.7
324.589	3.54
324.962	4.49
325.335	3.55
325.708	3.57
326.081	4.33
326.454	3.78
326.827	3.6
327.2	3.9
327.573	3.54
327.945	3.74
328.318	3.67
328.691	3.57
329.063	4.22
329.436	3.36
329.809	3.8
330.181	3.94
330.553	4
330.926	3.5
331.298	3.41
331.671	3.23
332.043	3.38
332.415	3.53
332.787	3.5
333.159	3.59
333.532	3.77
333.904	4.09
334.276	3.17
334.648	3.51
335.02	3.97
335.391	3.7
335.763	4.05
336.135	3.65
336.507	3.82
336.879	3.16
337.25	3.99
337.622	4.04
337.993	3.54
338.365	3.73
338.736	3.74
339.108	3.62
339.479	3.64
339.851	3.99
340.222	3.54
340.593	3.44
340.964	3.76
341.336	3.86
341.707	4.12
342.078	3.87
342.449	3.56
342.82	3.12
343.191	3.87
343.562	3.74
343.933	3.59
344.303	3.39
344.674	3.64
345.045	3.94
345.416	3.88
345.786	3.86
346.157	3.88
346.527	3.46
346.898	3.29
347.268	3.81
347.639	3.81
348.009	3.54
348.38	3.59
348.75	3.46
349.12	4.01
349.49	3.59
349.861	3.84
350.231	3.84
350.601	3.81
350.971	4
351.341	3.78
351.711	3.94
352.081	3.62
352.45	3.83
352.82	4.04
353.19	4.12
353.56	4.07
353.929	3.57
354.299	3.56
354.669	3.81
355.038	3.86
355.408	3.9
355.777	3.55
356.147	3.6
356.516	3.6
356.885	3.7
357.254	3.56
357.624	3.81
357.993	3.66
358.362	3.89
358.731	3.37
359.1	3.51
359.469	3.52
359.838	3.76
360.207	3.71
360.576	3.81
360.945	3.71
361.314	3.56
361.682	3.99
362.051	3.48
362.42	3.53
362.788	3.65
363.157	3.52
363.525	3.49
363.894	3.65
364.262	3.41
364.631	3.81
364.999	3.82
365.367	4
365.735	3.54
366.104	3.43
366.472	3.86
366.84	3.68
367.208	3.61
367.576	3.67
367.944	3.72
368.312	3.77
368.68	3.45
369.048	3.55
369.416	3.72
369.783	3.77
370.151	3.44
370.519	3.82
370.886	3.93
371.254	3.81
371.621	4.16
371.989	3.41
372.356	3.78
372.724	3.75
373.091	3.48
373.458	3.4
373.826	3.59
374.193	3.66
374.56	3.83
374.927	3.63
375.294	3.66
375.661	3.48
376.028	3.78
376.395	3.98
376.762	3.52
377.129	3.74
377.496	3.98
377.863	3.9
378.229	3.87
378.596	3.76
378.963	3.68
379.329	3.81
379.696	3.91
380.062	3.87
380.429	3.61
380.795	3.57
381.161	3.69
381.528	4.13
381.894	3.73
382.26	4.03
382.626	3.65
382.993	3.62
383.359	3.8
383.725	3.98
384.091	3.87
384.457	4.17
384.823	3.79
385.188	4.13
385.554	3.62
385.92	3.47
386.286	3.84
386.651	3.59
387.017	3.66
387.383	3.83
387.748	3.49
388.114	3.48
388.479	3.75
388.845	3.9
389.21	3.75
389.575	3.65
389.94	3.77
390.306	3.79
390.671	3.59
391.036	3.53
391.401	3.95
391.766	4.01
392.131	3.79
392.496	3.83
392.861	3.59
393.226	3.73
393.591	3.9
393.956	3.76
394.32	4.06
394.685	3.67
395.05	3.84
395.414	4.01
395.779	3.61
396.143	3.76
396.508	3.8
396.872	3.91
397.236	3.69
397.601	3.69
397.965	3.6
398.329	3.52
398.694	3.96
399.058	3.74
399.422	3.92
399.786	3.87
400.15	3.84
400.514	3.82
400.878	4.14
401.242	3.92
401.605	3.89
401.969	3.58
402.333	3.68
402.697	3.84
403.06	3.58
403.424	3.75
403.787	3.83
404.151	3.61
404.514	3.86
404.878	3.86
405.241	3.75
405.604	3.88
405.968	3.82
406.331	3.66
406.694	3.86
407.057	3.78
407.42	3.78
407.783	3.73
408.146	3.86
408.509	3.78
408.872	3.92
409.235	3.76
409.598	3.88
409.961	3.82
410.323	4.06
410.686	3.77
411.049	3.78
411.411	3.64
411.774	3.69
412.136	3.68
412.499	3.87
412.861	3.78
413.223	3.85
413.586	3.69
413.948	3.64
414.31	4.08
414.672	3.72
415.035	3.79
415.397	3.87
415.759	3.82
416.121	3.82
416.483	3.84
416.845	3.82
417.206	3.9
417.568	3.78
417.93	3.77
418.292	3.71
418.653	3.89
419.015	3.7
419.377	3.68
419.738	3.73
420.1	3.7
420.461	3.74
420.822	3.78
421.184	3.72
421.545	3.69
421.906	3.72
422.267	3.7
422.629	3.74
422.99	3.65
423.351	3.7
423.712	3.57
424.073	3.73
424.434	3.63
424.795	3.7
425.155	3.75
425.516	3.64
425.877	3.63
426.238	3.57
426.598	3.74
426.959	3.64
427.32	3.67
427.68	3.77
428.041	3.71
428.401	3.75
428.761	3.76
429.122	3.75
429.482	3.85
429.842	3.71
430.202	3.89
430.563	4.01
430.923	3.85
431.283	3.8
431.643	3.8
432.003	3.96
432.363	3.67
432.722	3.81
433.082	3.86
433.442	3.82
433.802	3.97
434.161	3.87
434.521	3.93
434.881	3.8
435.24	3.81
435.6	3.81
435.959	3.8
436.319	4.03
436.678	3.89
437.037	3.73
437.396	4.11
437.756	3.91
438.115	3.61
438.474	3.85
438.833	3.84
439.192	3.76
439.551	3.78
439.91	3.92
440.269	3.97
440.628	3.9
440.987	3.91
441.345	3.84
441.704	3.93
442.063	3.83
442.421	3.79
442.78	3.74
443.138	3.9
443.497	3.9
443.855	4.05
444.214	3.88
444.572	3.76
444.93	3.91
445.288	3.78
445.647	4.06
446.005	3.77
446.363	3.85
446.721	3.9
447.079	4.01
447.437	3.87
447.795	3.73
448.153	3.79
448.51	3.85
448.868	3.77
449.226	3.76
449.584	3.78
449.941	3.86
450.299	3.82
450.656	3.82
451.014	3.79
451.371	3.8
451.729	3.89
452.086	3.83
452.443	4.01
452.801	3.91
453.158	3.87
453.515	3.8
453.872	3.89
454.229	4
454.586	3.95
454.943	3.95
455.3	3.85
455.657	4.08
456.014	3.77
456.371	3.96
456.727	4.02
457.084	4
457.441	3.97
457.797	3.96
458.154	3.94
458.51	4.02
458.867	3.99
459.223	3.89
459.58	4.01
459.936	4.06
460.292	3.99
460.648	3.88
461.005	3.9
461.361	3.9
461.717	3.75
462.073	3.87
462.429	3.93
462.785	3.89
463.141	3.91
463.496	3.96
463.852	4
464.208	4.07
464.564	3.92
464.919	3.92
465.275	4.06
465.631	4.07
465.986	4.01
466.342	4.06
466.697	3.97
467.052	4.02
467.408	4.1
467.763	4.12
468.118	4.15
468.473	3.91
468.829	3.95
469.184	4.05
469.539	3.92
469.894	3.95
470.249	4.03
470.603	3.96
470.958	4
471.313	4.11
471.668	4.1
472.023	4.19
472.377	4.28
472.732	3.98
473.086	3.99
473.441	4.08
473.795	4.14
474.15	4.08
474.504	4.03
474.859	4.16
475.213	4.11
475.567	4.09
475.921	4
476.275	4.16
476.63	4.2
476.984	4.2
477.338	3.98
477.692	4.08
478.045	4.22
478.399	4.03
478.753	3.98
479.107	3.98
479.461	3.98
479.814	4.21
480.168	4.1
480.521	3.92
480.875	4.01
481.228	4.18
481.582	4.13
481.935	3.99
482.289	4
482.642	4.07
482.995	4.08
483.348	4.06
483.701	4.11
484.055	4
484.408	3.95
484.761	4.01
485.114	3.83
485.466	3.82
485.819	3.79
486.172	3.74
486.525	3.75
486.878	3.85
487.23	3.88
487.583	3.87
487.936	3.93
488.288	3.87
488.641	3.94
488.993	3.92
489.345	3.9
489.698	3.86
490.05	3.83
490.402	3.85
490.754	3.87
491.107	3.89
491.459	3.96
491.811	4.02
492.163	4.01
492.515	4.12
492.866	3.97
493.218	3.89
493.57	3.93
493.922	3.93
494.274	3.93
494.625	3.95
494.977	3.97
495.328	4.12
495.68	4.21
496.031	3.98
496.383	4.18
496.734	4.17
497.086	4.26
497.437	4.04
497.788	4.12
498.139	4.25
498.49	4.1
498.842	3.97
499.193	4.23
499.544	4.15
499.894	4.21
500.245	4.15
500.596	4.23
500.947	4.17
501.298	4.13
501.648	4.1
501.999	4.29
502.35	4.19
502.7	4.36
503.051	4.3
503.401	4.13
503.752	4.28
504.102	4.27
504.452	4.15
504.803	4.29
505.153	4.28
505.503	4.27
505.853	4.33
506.203	4.2
506.553	4.14
506.903	4.34
507.253	4.35
507.603	4.31
507.953	4.26
508.303	4.26
508.652	4.34
509.002	4.27
509.352	4.3
509.701	4.25
510.051	4.18
510.4	4.28
510.75	4.31
511.099	4.3
511.449	4.26
511.798	4.33
512.147	4.29
512.496	4.29
512.846	4.27
513.195	4.31
513.544	4.29
513.893	4.24
514.242	4.25
514.591	4.29
514.939	4.27
515.288	4.29
515.637	4.36
515.986	4.43
516.334	4.42
516.683	4.41
517.032	4.15
517.38	4.32
517.729	4.43
518.077	4.3
518.426	4.33
518.774	4.22
519.122	4.44
519.47	4.3
519.819	4.37
520.167	4.28
520.515	4.27
520.863	4.39
521.211	4.29
521.559	4.27
521.907	4.24
522.255	4.38
522.602	4.44
522.95	4.33
523.298	4.39
523.645	4.48
523.993	4.49
524.341	4.49
524.688	4.51
525.036	4.44
525.383	4.39
525.73	4.61
526.078	4.52
526.425	4.55
526.772	4.39
527.119	4.37
527.466	4.32
527.814	4.42
528.161	4.39
528.508	4.41
528.854	4.4
529.201	4.3
529.548	4.39
529.895	4.39
530.242	4.34
530.588	4.19
530.935	4.25
531.282	4.32
531.628	4.35
531.975	4.31
532.321	4.39
532.667	4.42
533.014	4.46
533.36	4.53
533.706	4.56
534.052	4.6
534.399	4.42
534.745	4.4
535.091	4.44
535.437	4.45
535.783	4.46
536.129	4.47
536.474	4.5
536.82	4.55
537.166	4.55
537.512	4.66
537.857	4.71
538.203	4.51
538.549	4.64
538.894	4.63
539.239	4.61
539.585	4.59
539.93	4.65
540.276	4.74
540.621	4.74
540.966	4.79
541.311	4.85
541.656	4.7
542.001	4.81
542.346	4.68
542.691	4.61
543.036	4.73
543.381	4.6
543.726	4.57
544.071	4.61
544.415	4.62
544.76	4.65
545.105	4.81
545.449	4.73
545.794	4.75
546.138	4.74
546.483	4.79
546.827	4.8
547.171	4.9
547.516	4.9
547.86	4.92
548.204	4.7
548.548	4.86
548.892	4.83
549.236	4.87
549.58	4.79
549.924	4.9
550.268	5.09
550.612	5.01
550.956	5.26
551.3	4.93
551.643	5.2
551.987	5.06
552.33	5.02
552.674	5.09
553.017	5.13
553.361	5.22
553.704	5.3
554.048	5.15
554.391	5.1
554.734	5.17
555.077	5.09
555.42	5.04
555.764	5.13
556.107	5.38
556.45	5.18
556.793	5.17
557.135	5.11
557.478	5.2
557.821	5.35
558.164	5.39
558.507	5.36
558.849	5.4
559.192	5.24
559.534	5.42
559.877	5.36
560.219	5.27
560.562	5.53
560.904	5.18
561.246	5.4
561.589	5.32
561.931	5.48
562.273	5.54
562.615	5.63
562.957	5.54
563.299	5.49
563.641	5.49
563.983	5.41
564.325	5.41
564.667	5.46
565.008	5.42
565.35	5.63
565.692	5.56
566.033	5.59
566.375	5.59
566.716	5.63
567.058	5.5
567.399	5.8
567.741	5.58
568.082	5.69
568.423	5.72
568.764	5.55
569.105	5.83
569.447	5.6
569.788	5.73
570.129	5.76
570.47	5.83
570.811	5.73
571.151	5.97
571.492	5.77
571.833	5.97
572.174	5.89
572.514	6
572.855	5.77
573.195	5.99
573.536	5.77
573.876	6.03
574.217	5.76
574.557	5.81
574.898	5.77
575.238	5.87
575.578	5.99
575.918	5.92
576.258	6.08
576.598	6.16
576.938	6
577.278	6.12
577.618	5.98
577.958	6.02
578.298	5.96
578.638	6.14
578.977	6.01
579.317	6.28
579.657	6.06
579.996	6.42
580.336	6.39
580.675	6.13
581.014	6.3
581.354	6.22
581.693	6.42
582.032	6.41
582.372	6.43
582.711	6.49
583.05	6.52
583.389	6.39
583.728	6.54
584.067	6.57
584.406	6.53
584.745	6.63
585.083	6.48
585.422	6.68
585.761	6.43
586.1	6.67
586.438	6.28
586.777	6.55
587.115	6.94
587.454	6.77
587.792	6.54
588.13	6.88
588.469	6.61
588.807	6.59
589.145	6.7
589.483	6.63
589.821	6.76
590.159	6.71
590.497	6.77
590.835	6.88
591.173	6.7
591.511	7.08
591.849	6.75
592.187	6.91
592.524	6.63
592.862	7.01
593.2	6.99
593.537	6.75
593.875	6.87
594.212	7.08
594.55	6.85
594.887	7.24
595.224	6.99
595.561	6.88
595.899	7.03
596.236	7.11
596.573	7.34
596.91	7.15
597.247	7.03
597.584	7.03
597.921	7.37
598.258	7.32
598.594	7.33
598.931	7.08
599.268	7.18
599.604	7.52
599.941	7.4
600.277	7.2
600.614	7.26
600.95	7.42
601.287	7.21
601.623	7.68
601.959	7.34
602.296	7.55
602.632	7.5
602.968	7.26
603.304	7.7
603.64	7.43
603.976	7.68
604.312	7.79
604.648	7.83
604.984	7.82
605.319	7.66
605.655	7.5
605.991	7.56
606.326	7.75
606.662	7.62
606.998	7.79
607.333	7.66
607.668	7.62
608.004	7.83
608.339	7.55
608.674	7.92
609.01	7.96
609.345	8.18
609.68	8.13
610.015	7.95
610.35	8.16
610.685	8.28
611.02	7.85
611.355	7.92
611.689	7.84
612.024	8.36
612.359	8.18
612.694	8.21
613.028	8.33
613.363	7.91
613.697	7.98
614.032	8.53
614.366	8.42
614.7	8.28
615.035	8.45
615.369	8.45
615.703	7.99
616.037	8.26
616.371	8.19
616.705	8.58
617.039	8.3
617.373	8.47
617.707	8.89
618.041	8.56
618.375	8.59
618.709	8.64
619.042	8.95
619.376	8.87
619.71	8.82
620.043	9.04
620.377	8.67
620.71	8.91
621.043	8.86
621.377	8.72
621.71	9.04
622.043	8.65
622.376	9.1
622.709	8.97
623.043	9
623.376	8.76
623.709	8.76
624.041	8.95
624.374	8.94
624.707	8.78
625.04	9.25
625.373	9.52
625.705	9.07
626.038	9.47
626.37	9.16
626.703	9.35
627.035	9.09
627.368	9.3
627.7	9.56
628.032	9.16
628.365	9.33
628.697	9.65
629.029	9.41
629.361	9.34
629.693	9.37
630.025	9.52
630.357	9.47
630.689	9.48
631.021	9.72
631.353	9.72
631.684	9.29
632.016	9.96
632.348	9.56
632.679	9.56
633.011	9.88
633.342	9.37
633.674	9.86
634.005	9.93
634.336	10.25
634.668	9.56
634.999	9.81
635.33	9.69
635.661	9.94
635.992	10.05
636.323	10.14
636.654	9.95
636.985	9.77
637.316	9.99
637.647	10.38
637.977	9.97
638.308	10.1
638.639	10.25
638.969	10.3
639.3	9.91
639.63	10.29
639.961	10.29
640.291	10.72
640.622	10.3
640.952	10.64
641.282	10.03
641.612	10.34
641.943	10.87
642.273	10.27
642.603	10.63
642.933	10.69
643.263	10.63
643.592	10.28
643.922	10.98
644.252	10.47
644.582	10.64
644.911	10.82
645.241	11
645.571	11.06
645.9	10.52
646.23	10.94
646.559	10.6
646.888	11.07
647.218	11.18
647.547	10.51
647.876	10.77
648.205	10.85
648.534	10.8
648.863	10.99
649.192	10.89
649.521	11.13
649.85	11.07
650.179	11.17
650.508	11.63
650.837	11.45
651.165	11.56
651.494	10.69
651.822	10.96
652.151	11.57
652.479	11.64
652.808	11.69
653.136	10.73
653.465	11.69
653.793	11.47
654.121	11.77
654.449	11.47
654.777	11.41
655.105	11.68
655.433	12.03
655.761	11.99
656.089	11.84
656.417	11.34
656.745	11.86
657.073	11.78
657.4	12.36
657.728	11.69
658.056	11.78
658.383	11.84
658.711	11.79
659.038	12.09
659.365	12.29
659.693	12.27
660.02	12.17
660.347	12.25
660.674	11.96
661.001	11.44
661.329	11.95
661.656	11.96
661.982	11.9
662.309	12.26
662.636	12.23
662.963	12.28
663.29	12.15
663.616	12.16
663.943	11.66
664.27	12.04
664.596	12.4
664.923	12.51
665.249	12.28
665.576	11.41
665.902	12.64
666.228	12.57
666.554	12.35
666.881	11.92
667.207	12.58
667.533	12.76
667.859	12.67
668.185	12.66
668.511	12.52
668.837	12.42
669.162	12.33
669.488	12.32
669.814	12.64
670.139	12.36
670.465	13.17
670.791	13.02
671.116	13.28
671.442	12.95
671.767	12.91
672.092	13.39
672.418	13.52
672.743	13.18
673.068	12.73
673.393	13.35
673.718	12.79
674.043	12.89
674.368	13.39
674.693	13.56
675.018	14.05
675.343	13.62
675.667	12.77
675.992	13.33
676.317	12.89
676.641	13.76
676.966	13.79
677.29	13.62
677.615	13.35
677.939	13.49
678.264	13.63
678.588	13.63
678.912	13.81
679.236	13.48
679.56	14.02
679.885	13.93
680.209	13.95
680.532	13.34
680.856	13.5
681.18	13.6
681.504	13.52
681.828	13.79
682.152	13.91
682.475	13.61
682.799	13.92
683.122	13.92
683.446	13.75
683.769	14.17
684.093	14.27
684.416	14.53
684.739	13.21
685.062	13.92
685.386	14.19
685.709	13.95
686.032	14.08
686.355	15.04
686.678	14.4
687.001	14.3
687.324	13.87
687.646	13.5
687.969	14.7
688.292	14.84
688.614	14.74
688.937	14.63
689.26	14.45
689.582	13.89
