Data from 0231_forehead_Reflection__0__27.txt Node

Date: Fri Oct 20 20:52:49 CDT 2023
User: ToomeyLab
Spectrometer: FLMS14357
Trigger mode: 0
Integration Time (sec): 1.000000E-2
Scans to average: 100
Electric dark correction enabled: true
Nonlinearity correction enabled: false
Boxcar width: 0
XAxis mode: Wavelengths
Number of Pixels in Spectrum: 2048
>>>>>Begin Spectral Data<<<<<
189.047	40.92
189.435	40.92
189.823	40.92
190.211	19.4
190.599	1043.59
190.987	636.24
191.375	-113.72
191.763	131.03
192.151	-2807.32
192.538	-110.75
192.926	56.34
193.314	39.29
193.702	64.26
194.089	41.49
194.477	281.82
194.864	161.82
195.252	33.01
195.639	47.03
196.027	-59.53
196.414	51.12
196.801	70.91
197.189	118.46
197.576	331.02
197.963	-21.82
198.351	48.42
198.738	9.97
199.125	50.19
199.512	39.09
199.899	24.99
200.286	17.17
200.673	60.91
201.06	22.23
201.447	44.1
201.833	57.71
202.22	29.66
202.607	63.81
202.994	53.41
203.38	64.67
203.767	24.02
204.154	36.91
204.54	39.57
204.927	37.2
205.313	44.65
205.699	43.85
206.086	36.29
206.472	39.42
206.858	65.1
207.245	9.58
207.631	49.66
208.017	48.96
208.403	22.68
208.789	16.16
209.175	13.95
209.561	57.11
209.947	15.02
210.333	41.87
210.719	27.78
211.105	44.4
211.491	43.29
211.876	-6.03
212.262	57.42
212.648	43.48
213.034	32.93
213.419	42.64
213.805	56.21
214.19	37.92
214.576	21.37
214.961	42.41
215.346	66.14
215.732	35.2
216.117	27.49
216.502	30.37
216.888	26.24
217.273	9.42
217.658	8.18
218.043	37.7
218.428	21.52
218.813	28.57
219.198	12.68
219.583	-4.52
219.968	7.99
220.353	39.03
220.738	33.54
221.122	24.33
221.507	25.13
221.892	17.23
222.276	13.06
222.661	29.99
223.046	31.24
223.43	11.99
223.815	25.28
224.199	28.7
224.583	19.75
224.968	10.34
225.352	8.7
225.736	14.39
226.121	10.71
226.505	4.62
226.889	9.76
227.273	11.48
227.657	12.44
228.041	12.39
228.425	8.09
228.809	12.32
229.193	4.59
229.577	7.28
229.961	5.76
230.344	5.67
230.728	4.42
231.112	5.5
231.495	4.82
231.879	5.56
232.263	6.06
232.646	4.49
233.03	5.58
233.413	5.34
233.797	5.69
234.18	5.5
234.563	7.81
234.946	8.67
235.33	7.88
235.713	6.74
236.096	7.27
236.479	6.76
236.862	5.62
237.245	6.43
237.628	7.6
238.011	7.05
238.394	5.61
238.777	9.03
239.16	7.01
239.543	8.45
239.925	8.91
240.308	6.97
240.691	5.38
241.073	7.65
241.456	6.37
241.838	7.76
242.221	7.01
242.603	7.09
242.986	5.77
243.368	6.4
243.75	4.98
244.133	5.37
244.515	5.49
244.897	5.63
245.279	6.07
245.661	5.44
246.043	6.21
246.425	5.55
246.807	5.52
247.189	5.8
247.571	5.08
247.953	5.34
248.335	5.83
248.717	5.37
249.098	5.17
249.48	5.24
249.862	5.31
250.243	5.45
250.625	5.31
251.006	6.03
251.388	5.62
251.769	6.18
252.151	5.82
252.532	6.36
252.913	6.8
253.295	4.81
253.676	5.24
254.057	5.56
254.438	5.81
254.819	5.96
255.2	5.55
255.581	4.89
255.962	6.31
256.343	6.43
256.724	4.61
257.105	6.41
257.486	5.99
257.867	6.81
258.247	6.21
258.628	5.11
259.009	5.91
259.389	5.71
259.77	4.98
260.15	5.96
260.531	5.44
260.911	6.12
261.292	5.17
261.672	5.38
262.052	5.47
262.432	5.44
262.813	5.63
263.193	5.71
263.573	5.74
263.953	5.95
264.333	6.73
264.713	5.93
265.093	6.29
265.473	6.44
265.853	6.32
266.233	6.77
266.612	5.01
266.992	5.86
267.372	6.09
267.752	5.31
268.131	5.98
268.511	5.75
268.89	5.87
269.27	5.98
269.649	4.93
270.029	5.92
270.408	5.85
270.787	6.28
271.167	5.16
271.546	6.11
271.925	6.19
272.304	5.63
272.683	5.88
273.062	6.09
273.441	5.56
273.82	5.63
274.199	5.66
274.578	5.77
274.957	5.98
275.336	5.45
275.715	5.76
276.093	5.51
276.472	5.78
276.851	5.79
277.229	6.22
277.608	5.28
277.986	5.31
278.365	6.12
278.743	5.81
279.122	6.38
279.5	5.25
279.878	5.96
280.257	5.95
280.635	5.96
281.013	5.71
281.391	6.19
281.769	5.6
282.147	5.79
282.525	5.97
282.903	5.11
283.281	5.78
283.659	5.95
284.037	5.76
284.415	4.89
284.792	5.66
285.17	5.37
285.548	5.62
285.925	5.33
286.303	5.27
286.68	5.6
287.058	6.06
287.435	5.85
287.813	5
288.19	5.64
288.567	5.81
288.945	5.98
289.322	5.89
289.699	5.39
290.076	6.54
290.453	5.67
290.83	5.6
291.207	6.31
291.584	5.67
291.961	5.92
292.338	5.73
292.715	5.93
293.092	6.43
293.469	6.03
293.845	5.91
294.222	6.39
294.599	6.33
294.975	7.27
295.352	6.31
295.728	6.69
296.105	6.4
296.481	6.52
296.858	6.51
297.234	7.06
297.61	6.24
297.986	6.43
298.363	6.13
298.739	6.34
299.115	6.31
299.491	6.21
299.867	6.71
300.243	6.88
300.619	6.69
300.995	6.38
301.371	7.35
301.746	6.8
302.122	7.53
302.498	6.54
302.874	7.07
303.249	7.31
303.625	7.53
304	7.27
304.376	6.85
304.751	7.15
305.127	7.22
305.502	7.37
305.878	7.48
306.253	7.41
306.628	7.9
307.003	7.47
307.378	7.45
307.754	8.13
308.129	8.14
308.504	8.26
308.879	8.02
309.254	8.78
309.629	7.63
310.003	7.22
310.378	8.75
310.753	8.09
311.128	8.62
311.502	8.04
311.877	8.11
312.252	8.26
312.626	8.47
313.001	8.14
313.375	8.1
313.75	8.37
314.124	8.31
314.498	8.83
314.873	8.55
315.247	8.64
315.621	8.72
315.995	9.45
316.369	8.78
316.743	9.28
317.117	9
317.491	8.25
317.865	9.33
318.239	9.56
318.613	9.01
318.987	9.14
319.361	8.7
319.734	9.1
320.108	9.31
320.482	9.55
320.855	9.59
321.229	10.07
321.602	9.83
321.976	9.27
322.349	10.67
322.723	9.61
323.096	9.6
323.469	9.67
323.843	10.13
324.216	10.16
324.589	10.1
324.962	9.74
325.335	9.77
325.708	9.6
326.081	9.91
326.454	10.49
326.827	10.59
327.2	10.27
327.573	10.72
327.945	10.3
328.318	10.07
328.691	10.28
329.063	10.49
329.436	10.32
329.809	10.34
330.181	10.3
330.553	10.42
330.926	10.81
331.298	10.68
331.671	10.77
332.043	10.58
332.415	11.36
332.787	11.03
333.159	10.67
333.532	11.18
333.904	11.43
334.276	10.97
334.648	11.48
335.02	11.19
335.391	10.59
335.763	10.91
336.135	11.08
336.507	11.64
336.879	11.53
337.25	10.86
337.622	11.53
337.993	12.01
338.365	11.32
338.736	11.39
339.108	11.76
339.479	11.53
339.851	11.96
340.222	10.93
340.593	10.98
340.964	11.7
341.336	11.94
341.707	11.65
342.078	12.11
342.449	11.65
342.82	11.4
343.191	11.61
343.562	12.26
343.933	11.86
344.303	11.77
344.674	12.33
345.045	12.89
345.416	12.1
345.786	12.12
346.157	12.31
346.527	12.04
346.898	11.9
347.268	12.41
347.639	12.02
348.009	12.11
348.38	12.57
348.75	12.15
349.12	12.55
349.49	12.48
349.861	12.79
350.231	12.74
350.601	12.81
350.971	12.83
351.341	12.89
351.711	13
352.081	12.86
352.45	12.54
352.82	12.43
353.19	13.23
353.56	13.34
353.929	13.2
354.299	13.07
354.669	13.39
355.038	12.99
355.408	13.14
355.777	12.97
356.147	13.06
356.516	13.16
356.885	13.04
357.254	13.13
357.624	13.02
357.993	12.87
358.362	13.5
358.731	12.99
359.1	13.08
359.469	13.21
359.838	13.67
360.207	13.44
360.576	13.62
360.945	13.7
361.314	13.61
361.682	13.75
362.051	13.47
362.42	13.42
362.788	13.57
363.157	13.51
363.525	13.44
363.894	13.68
364.262	13.65
364.631	13.98
364.999	14.12
365.367	14.07
365.735	13.84
366.104	14.27
366.472	14.3
366.84	14.22
367.208	14
367.576	14.16
367.944	14.18
368.312	14.39
368.68	14.69
369.048	14.35
369.416	14.9
369.783	14.57
370.151	14.56
370.519	14.73
370.886	15.08
371.254	14.9
371.621	14.94
371.989	14.59
372.356	14.81
372.724	14.9
373.091	14.98
373.458	14.7
373.826	14.93
374.193	14.91
374.56	15.19
374.927	14.78
375.294	15.14
375.661	15.16
376.028	15.34
376.395	15.5
376.762	15.25
377.129	15.28
377.496	15.22
377.863	15.63
378.229	15.63
378.596	15.67
378.963	15.7
379.329	15.98
379.696	15.64
380.062	15.58
380.429	15.5
380.795	15.38
381.161	15.59
381.528	16.25
381.894	15.89
382.26	16.07
382.626	15.99
382.993	15.95
383.359	15.87
383.725	16.19
384.091	16.2
384.457	16.31
384.823	16.13
385.188	16.5
385.554	16.32
385.92	16.3
386.286	16.43
386.651	16.24
387.017	16.62
387.383	16.43
387.748	16.21
388.114	16
388.479	16.44
388.845	16.7
389.21	16.32
389.575	16.22
389.94	16.61
390.306	16.58
390.671	16.79
391.036	16.78
391.401	17.08
391.766	16.81
392.131	16.73
392.496	16.91
392.861	16.98
393.226	17.03
393.591	16.74
393.956	17.02
394.32	17.14
394.685	17.1
395.05	17.21
395.414	17.29
395.779	17.17
396.143	17.2
396.508	17.17
396.872	17.43
397.236	17.29
397.601	17.51
397.965	17.4
398.329	17.4
398.694	17.78
399.058	17.36
399.422	17.66
399.786	17.66
400.15	17.51
400.514	17.53
400.878	17.78
401.242	17.79
401.605	17.89
401.969	17.63
402.333	17.7
402.697	18.17
403.06	17.83
403.424	18.13
403.787	18
404.151	17.97
404.514	18.18
404.878	18.2
405.241	18.25
405.604	18.04
405.968	18.32
406.331	18.12
406.694	18.18
407.057	18.3
407.42	18.59
407.783	18.55
408.146	18.39
408.509	18.54
408.872	18.54
409.235	18.64
409.598	18.71
409.961	18.94
410.323	18.71
410.686	18.72
411.049	18.82
411.411	18.56
411.774	18.69
412.136	18.79
412.499	18.92
412.861	18.93
413.223	19.08
413.586	19.09
413.948	19.19
414.31	19.29
414.672	18.96
415.035	19.15
415.397	19.36
415.759	19.49
416.121	19.4
416.483	19.25
416.845	19.37
417.206	19.37
417.568	19.24
417.93	19.61
418.292	19.09
418.653	19.34
419.015	19.39
419.377	19.49
419.738	19.36
420.1	19.24
420.461	19.24
420.822	19.32
421.184	19.46
421.545	19.37
421.906	19.48
422.267	19.16
422.629	19.34
422.99	19.19
423.351	19.37
423.712	19.4
424.073	19.48
424.434	19.56
424.795	19.7
425.155	19.77
425.516	19.51
425.877	19.53
426.238	19.62
426.598	19.69
426.959	19.71
427.32	19.73
427.68	20.11
428.041	20.17
428.401	20.16
428.761	20.29
429.122	20.21
429.482	20.6
429.842	20.72
430.202	20.54
430.563	20.74
430.923	20.66
431.283	20.71
431.643	20.77
432.003	20.93
432.363	20.81
432.722	20.86
433.082	20.93
433.442	20.92
433.802	21.05
434.161	20.91
434.521	21.01
434.881	21.07
435.24	20.87
435.6	20.99
435.959	21.07
436.319	21.13
436.678	21.09
437.037	21.02
437.396	21.36
437.756	21.48
438.115	21.23
438.474	21.46
438.833	21.24
439.192	21.29
439.551	21.27
439.91	21.56
440.269	21.58
440.628	21.7
440.987	21.51
441.345	21.33
441.704	21.67
442.063	21.6
442.421	21.61
442.78	21.45
443.138	21.68
443.497	21.64
443.855	21.84
444.214	21.91
444.572	21.87
444.93	22
445.288	22.17
445.647	22.2
446.005	22.06
446.363	22.08
446.721	21.93
447.079	22.1
447.437	22
447.795	21.88
448.153	21.95
448.51	21.96
448.868	21.96
449.226	21.95
449.584	22.14
449.941	22.12
450.299	22.37
450.656	22.43
451.014	22.6
451.371	22.58
451.729	22.59
452.086	22.74
452.443	23.02
452.801	22.9
453.158	23.09
453.515	23.17
453.872	23.08
454.229	23.01
454.586	23.08
454.943	23.07
455.3	23.03
455.657	23.41
456.014	23.08
456.371	23.12
456.727	23.28
457.084	23.52
457.441	23.56
457.797	23.6
458.154	23.58
458.51	23.85
458.867	23.63
459.223	23.76
459.58	23.66
459.936	23.65
460.292	23.78
460.648	23.41
461.005	23.48
461.361	23.44
461.717	23.09
462.073	23.41
462.429	23.51
462.785	23.71
463.141	23.92
463.496	24
463.852	24.28
464.208	24.16
464.564	24.45
464.919	24.27
465.275	24.35
465.631	24.67
465.986	24.71
466.342	24.67
466.697	24.49
467.052	24.49
467.408	24.6
467.763	24.87
468.118	24.97
468.473	24.74
468.829	24.79
469.184	24.82
469.539	24.85
469.894	25.13
470.249	24.92
470.603	25.1
470.958	25.08
471.313	25.22
471.668	25.32
472.023	25.08
472.377	25.31
472.732	25.24
473.086	25.37
473.441	25.56
473.795	25.51
474.15	25.58
474.504	25.56
474.859	25.69
475.213	25.53
475.567	25.75
475.921	25.87
476.275	25.73
476.63	26
476.984	25.98
477.338	26.13
477.692	25.95
478.045	25.88
478.399	25.92
478.753	25.85
479.107	25.88
479.461	25.91
479.814	26.19
480.168	26.24
480.521	26.08
480.875	26.21
481.228	26.26
481.582	26.24
481.935	26.39
482.289	26.32
482.642	26.44
482.995	26.28
483.348	26.26
483.701	26.21
484.055	26.12
484.408	26.1
484.761	25.89
485.114	25.61
485.466	25.17
485.819	25.14
486.172	25.23
486.525	25.53
486.878	25.86
487.23	26.04
487.583	26.19
487.936	26.2
488.288	26.32
488.641	26.16
488.993	26.02
489.345	25.98
489.698	25.9
490.05	26.09
490.402	26.1
490.754	26.38
491.107	26.6
491.459	26.91
491.811	27.08
492.163	27.06
492.515	27.24
492.866	27.1
493.218	26.57
493.57	26.32
493.922	26.59
494.274	26.82
494.625	27.12
494.977	27.33
495.328	27.54
495.68	27.76
496.031	27.96
496.383	28.07
496.734	28.12
497.086	28.26
497.437	28.2
497.788	28.26
498.139	28.27
498.49	28.06
498.842	27.99
499.193	28.02
499.544	28.3
499.894	28.31
500.245	28.41
500.596	28.47
500.947	28.76
501.298	28.75
501.648	28.69
501.999	28.93
502.35	28.92
502.7	29.02
503.051	28.98
503.401	29.09
503.752	29.26
504.102	29.2
504.452	29.21
504.803	29.1
505.153	29.23
505.503	29.35
505.853	29.58
506.203	29.34
506.553	29.52
506.903	29.49
507.253	29.73
507.603	29.51
507.953	29.71
508.303	29.67
508.652	29.8
509.002	29.82
509.352	29.87
509.701	29.85
510.051	29.73
510.4	29.71
510.75	29.8
511.099	29.76
511.449	29.95
511.798	29.9
512.147	29.89
512.496	30.07
512.846	30.18
513.195	30.25
513.544	30.18
513.893	30.21
514.242	30.24
514.591	30.32
514.939	30.25
515.288	30.44
515.637	30.7
515.986	30.83
516.334	30.75
516.683	30.71
517.032	30.72
517.38	31
517.729	31.03
518.077	31.03
518.426	31.14
518.774	31.01
519.122	31.15
519.47	30.77
519.819	30.82
520.167	30.69
520.515	30.6
520.863	30.72
521.211	30.74
521.559	30.89
521.907	31.06
522.255	31.26
522.602	31.51
522.95	31.4
523.298	31.63
523.645	31.78
523.993	31.8
524.341	31.68
524.688	31.95
525.036	32.1
525.383	31.86
525.73	32.02
526.078	32.02
526.425	32.12
526.772	31.95
527.119	31.61
527.466	31.42
527.814	31.56
528.161	31.63
528.508	31.64
528.854	31.83
529.201	31.91
529.548	31.82
529.895	31.48
530.242	31.28
530.588	30.91
530.935	31.31
531.282	31.66
531.628	31.8
531.975	31.93
532.321	32.13
532.667	32.28
533.014	32.57
533.36	32.5
533.706	32.75
534.052	32.6
534.399	32.45
534.745	32.33
535.091	32.29
535.437	32.22
535.783	32.44
536.129	32.74
536.474	32.72
536.82	33.11
537.166	33.11
537.512	33.55
537.857	33.39
538.203	33.18
538.549	33.01
538.894	33.21
539.239	33.42
539.585	33.3
539.93	33.72
540.276	33.97
540.621	33.98
540.966	34.12
541.311	34.21
541.656	34.23
542.001	34.17
542.346	33.95
542.691	33.7
543.036	33.34
543.381	33.18
543.726	33.29
544.071	33.66
544.415	33.78
544.76	34
545.105	34.24
545.449	34.25
545.794	34.39
546.138	34.26
546.483	34.64
546.827	34.9
547.171	34.82
547.516	34.7
547.86	34.88
548.204	35.14
548.548	34.97
548.892	34.7
549.236	35.01
549.58	35.24
549.924	35.4
550.268	35.59
550.612	35.73
550.956	35.91
551.3	35.91
551.643	35.98
551.987	36.14
552.33	36.3
552.674	35.87
553.017	36.34
553.361	36.31
553.704	36.4
554.048	36.61
554.391	36.39
554.734	36.41
555.077	36.41
555.42	36.35
555.764	36.5
556.107	36.64
556.45	36.52
556.793	36.9
557.135	37.18
557.478	36.95
557.821	37.04
558.164	37.21
558.507	37.34
558.849	37.2
559.192	37.31
559.534	37.36
559.877	37.45
560.219	37.38
560.562	37.68
560.904	37.62
561.246	37.5
561.589	37.78
561.931	37.99
562.273	37.87
562.615	37.81
562.957	37.71
563.299	37.76
563.641	37.63
563.983	37.85
564.325	38.13
564.667	38.06
565.008	38.27
565.35	38.31
565.692	38.24
566.033	38.41
566.375	38.58
566.716	38.27
567.058	38.37
567.399	38.68
567.741	38.44
568.082	38.22
568.423	38.37
568.764	38.29
569.105	38.69
569.447	38.6
569.788	38.77
570.129	38.84
570.47	38.86
570.811	39.1
571.151	38.86
571.492	39.12
571.833	39.13
572.174	39.18
572.514	39.39
572.855	39.08
573.195	39.25
573.536	38.96
573.876	39.09
574.217	39.28
574.557	39.25
574.898	39.2
575.238	39.35
575.578	39.74
575.918	39.42
576.258	39.57
576.598	39.77
576.938	39.64
577.278	39.89
577.618	39.7
577.958	39.81
578.298	40.05
578.638	40.21
578.977	40.22
579.317	40.4
579.657	40.29
579.996	40.59
580.336	40.75
580.675	40.84
581.014	40.67
581.354	41.03
581.693	40.86
582.032	41.35
582.372	41.11
582.711	41.37
583.05	41.11
583.389	41
583.728	41.43
584.067	41.19
584.406	41.47
584.745	41.54
585.083	41.41
585.422	41.73
585.761	41.49
586.1	41.8
586.438	41.52
586.777	41.84
587.115	42.01
587.454	41.95
587.792	41.8
588.13	42.23
588.469	41.99
588.807	41.96
589.145	42.22
589.483	42.16
589.821	42.15
590.159	41.92
590.497	42.47
590.835	42.83
591.173	42.56
591.511	42.55
591.849	42.4
592.187	42.16
592.524	42.49
592.862	42.28
593.2	42.84
593.537	42.39
593.875	42.76
594.212	43.08
594.55	42.68
594.887	43.37
595.224	42.57
595.561	43.04
595.899	42.9
596.236	43.31
596.573	43.01
596.91	43.28
597.247	43.09
597.584	42.93
597.921	43.21
598.258	43.37
598.594	43.07
598.931	42.87
599.268	42.96
599.604	43.25
599.941	43.42
600.277	43.35
600.614	43.56
600.95	43.96
601.287	44.1
601.623	44.21
601.959	44.13
602.296	44.1
602.632	44.42
602.968	44.09
603.304	44.45
603.64	44.29
603.976	44.38
604.312	44.53
604.648	44.37
604.984	44.27
605.319	44.19
605.655	44.17
605.991	44.07
606.326	43.99
606.662	44.41
606.998	44.18
607.333	44.43
607.668	44.62
608.004	44.61
608.339	44.8
608.674	45.08
609.01	45.17
609.345	45.07
609.68	45.31
610.015	45.23
610.35	45.44
610.685	45.17
611.02	45.05
611.355	44.73
611.689	45.4
612.024	45.32
612.359	45.65
612.694	45.3
613.028	45.6
613.363	45.62
613.697	45.81
614.032	46.13
614.366	45.87
614.7	46.11
615.035	46.41
615.369	46.36
615.703	46.31
616.037	46.71
616.371	46.13
616.705	46.86
617.039	46.45
617.373	46.84
617.707	46.75
618.041	46.86
618.375	46.41
618.709	46.55
619.042	47.29
619.376	46.99
619.71	46.7
620.043	46.65
620.377	46.65
620.71	47.1
621.043	47
621.377	46.94
621.71	47.35
622.043	47.23
622.376	47.14
622.709	47.34
623.043	47.15
623.376	47.28
623.709	47.06
624.041	47.65
624.374	47.43
624.707	47.75
625.04	47.93
625.373	48.1
625.705	47.61
626.038	47.71
626.37	47.62
626.703	47.76
627.035	48.37
627.368	47.81
627.7	48.01
628.032	47.81
628.365	47.8
628.697	47.68
629.029	47.53
629.361	47.93
629.693	48.11
630.025	48.36
630.357	48.12
630.689	48.61
631.021	48.52
631.353	48.53
631.684	48.52
632.016	48.59
632.348	48.86
632.679	49.04
633.011	48.97
633.342	48.72
633.674	48.98
634.005	48.76
634.336	49.4
634.668	49.16
634.999	49.12
635.33	48.89
635.661	49.24
635.992	49.12
636.323	49.37
636.654	49.65
636.985	49.29
637.316	49.72
637.647	49.75
637.977	49.33
638.308	49.52
638.639	50.16
638.969	49.41
639.3	49.69
639.63	50.4
639.961	50.09
640.291	50.32
640.622	50.13
640.952	49.98
641.282	50.35
641.612	50.21
641.943	50.32
642.273	50.37
642.603	50.17
642.933	50.19
643.263	51.03
643.592	50.67
643.922	51.28
644.252	50.98
644.582	51.05
644.911	51.06
645.241	51.18
645.571	51.15
645.9	50.55
646.23	50.71
646.559	50.9
646.888	51.58
647.218	50.92
647.547	51.28
647.876	51.02
648.205	51.39
648.534	51.5
648.863	51.6
649.192	50.96
649.521	51.36
649.85	51.44
650.179	51.7
650.508	51.05
650.837	51.76
651.165	51.52
651.494	51.43
651.822	51.65
652.151	52.08
652.479	52.03
652.808	52.06
653.136	51.51
653.465	52.21
653.793	51.94
654.121	52.54
654.449	52.48
654.777	52.18
655.105	52.74
655.433	52.28
655.761	52.89
656.089	52.4
656.417	52.67
656.745	52.32
657.073	52.28
657.4	52.41
657.728	53
658.056	52.55
658.383	52.59
658.711	52.27
659.038	53.03
659.365	52.91
659.693	53.1
660.02	52.96
660.347	52.72
660.674	52.71
661.001	52.65
661.329	52.8
661.656	52.65
661.982	53.09
662.309	53.37
662.636	53.54
662.963	53.24
663.29	54.06
663.616	53.36
663.943	53.49
664.27	53.41
664.596	53.23
664.923	53.81
665.249	53.29
665.576	53.9
665.902	52.94
666.228	53.91
666.554	54.63
666.881	53.57
667.207	54.45
667.533	54.43
667.859	53.5
668.185	54.51
668.511	54.56
668.837	54.86
669.162	54.1
669.488	54.34
669.814	53.96
670.139	54.52
