Data from 0231_crown_Reflection__2__24.txt Node

Date: Fri Oct 20 20:50:18 CDT 2023
User: ToomeyLab
Spectrometer: FLMS14357
Trigger mode: 0
Integration Time (sec): 1.000000E-2
Scans to average: 100
Electric dark correction enabled: true
Nonlinearity correction enabled: false
Boxcar width: 0
XAxis mode: Wavelengths
Number of Pixels in Spectrum: 2048
>>>>>Begin Spectral Data<<<<<
189.047	13.2
189.435	13.2
189.823	13.2
190.211	19.7
190.599	-3317.31
190.987	615.61
191.375	80.05
191.763	46.52
192.151	-1693.29
192.538	586.83
192.926	30.24
193.314	93.92
193.702	99.05
194.089	100.5
194.477	-217.21
194.864	87.38
195.252	64.79
195.639	-210.23
196.027	-35.78
196.414	170.7
196.801	-26.89
197.189	80.82
197.576	-132.59
197.963	-135.15
198.351	42.54
198.738	6.07
199.125	25.52
199.512	24.27
199.899	42.3
200.286	-50.63
200.673	15.93
201.06	15.92
201.447	-129.47
201.833	79.24
202.22	10.3
202.607	58.86
202.994	66.87
203.38	34.62
203.767	20.27
204.154	46.31
204.54	50.94
204.927	9.42
205.313	54.2
205.699	46.59
206.086	5.29
206.472	62.7
206.858	26.1
207.245	9.13
207.631	49.38
208.017	5.7
208.403	32.7
208.789	20.28
209.175	6.7
209.561	27.08
209.947	16.41
210.333	5.41
210.719	33.05
211.105	28.93
211.491	38.63
211.876	19.02
212.262	17.37
212.648	28.43
213.034	39.36
213.419	1.76
213.805	42.6
214.19	0.34
214.576	12.89
214.961	6.57
215.346	23.57
215.732	7.6
216.117	-29.18
216.502	4.73
216.888	37.95
217.273	21.69
217.658	1.1
218.043	6.43
218.428	-4.03
218.813	16.1
219.198	12.53
219.583	-10.92
219.968	3.53
220.353	17.62
220.738	10.43
221.122	5.78
221.507	10.89
221.892	17.53
222.276	14.22
222.661	25.5
223.046	13.19
223.43	-0.94
223.815	19.99
224.199	21.32
224.583	2.44
224.968	7.1
225.352	0.55
225.736	2.77
226.121	10.21
226.505	1.23
226.889	9.04
227.273	3.65
227.657	11.69
228.041	11.58
228.425	5.74
228.809	9.46
229.193	10.29
229.577	8.28
229.961	7.98
230.344	6.27
230.728	5.23
231.112	6.04
231.495	6.04
231.879	6.4
232.263	7.11
232.646	4.25
233.03	4.91
233.413	4.72
233.797	6.07
234.18	6.84
234.563	9.34
234.946	8.54
235.33	5.88
235.713	6.04
236.096	7.24
236.479	7.26
236.862	7.73
237.245	5.67
237.628	4.68
238.011	7.28
238.394	4.46
238.777	7.99
239.16	6.24
239.543	6.62
239.925	8.45
240.308	8.21
240.691	6.54
241.073	6.66
241.456	6.59
241.838	5.61
242.221	6.14
242.603	5.95
242.986	5.9
243.368	6.1
243.75	5.61
244.133	5.03
244.515	5.2
244.897	5.45
245.279	5.75
245.661	5.34
246.043	5.95
246.425	5.92
246.807	5.91
247.189	5.37
247.571	5.24
247.953	5.25
248.335	5.66
248.717	4.82
249.098	4.85
249.48	4.97
249.862	5.04
250.243	5.59
250.625	4.98
251.006	5.4
251.388	5.56
251.769	5.17
252.151	4.96
252.532	4.76
252.913	4.93
253.295	4.61
253.676	4.84
254.057	4.93
254.438	4.79
254.819	5.1
255.2	4.76
255.581	5.29
255.962	5.13
256.343	6.18
256.724	4.8
257.105	5.94
257.486	4.33
257.867	5.71
258.247	5.59
258.628	4.45
259.009	4.14
259.389	4.09
259.77	4.94
260.15	5.19
260.531	5.53
260.911	4.89
261.292	4.65
261.672	4.55
262.052	4.81
262.432	4.61
262.813	4.55
263.193	4.94
263.573	4.31
263.953	5.21
264.333	4.83
264.713	4.57
265.093	5.12
265.473	4.79
265.853	4.53
266.233	4.95
266.612	5.08
266.992	5.12
267.372	4
267.752	4.64
268.131	4.58
268.511	4.21
268.89	4.45
269.27	4.4
269.649	4.14
270.029	4.31
270.408	5.26
270.787	4.74
271.167	4.53
271.546	4.39
271.925	5.09
272.304	4.88
272.683	5.1
273.062	4.72
273.441	4.67
273.82	4.23
274.199	4.75
274.578	4.68
274.957	4.5
275.336	4.76
275.715	5.01
276.093	4.71
276.472	4.81
276.851	5.22
277.229	4.59
277.608	4.66
277.986	4.3
278.365	4.92
278.743	4.41
279.122	4.28
279.5	4.28
279.878	3.85
280.257	5.39
280.635	4.62
281.013	4.7
281.391	4.73
281.769	4.45
282.147	3.58
282.525	4.5
282.903	4.18
283.281	4.77
283.659	4.26
284.037	4.41
284.415	4
284.792	4.18
285.17	4.5
285.548	4.45
285.925	3.95
286.303	3.65
286.68	3.98
287.058	4.14
287.435	4.67
287.813	3.49
288.19	4.17
288.567	4.15
288.945	4.43
289.322	4.48
289.699	3.58
290.076	4.58
290.453	4.48
290.83	4.06
291.207	4.44
291.584	4.16
291.961	4.36
292.338	3.91
292.715	4.21
293.092	4.03
293.469	4.12
293.845	3.88
294.222	4.15
294.599	3.93
294.975	4.84
295.352	3.94
295.728	4.13
296.105	3.88
296.481	3.91
296.858	3.74
297.234	4.13
297.61	3.37
297.986	3.71
298.363	4.14
298.739	4.17
299.115	3.9
299.491	3.66
299.867	4.28
300.243	3.87
300.619	4.09
300.995	3.63
301.371	4.23
301.746	4.3
302.122	4.44
302.498	3.63
302.874	4.03
303.249	4.24
303.625	3.88
304	4.07
304.376	3.76
304.751	3.5
305.127	3.54
305.502	4.05
305.878	4.16
306.253	3.97
306.628	4.1
307.003	4.12
307.378	3.72
307.754	4.29
308.129	4.16
308.504	4.11
308.879	3.45
309.254	4.51
309.629	3.72
310.003	3.59
310.378	3.61
310.753	4
311.128	4.54
311.502	3.89
311.877	3.74
312.252	3.71
312.626	4.12
313.001	3.8
313.375	4.21
313.75	3.67
314.124	3.64
314.498	3.77
314.873	3.29
315.247	3.86
315.621	4.37
315.995	4.06
316.369	3.71
316.743	4.13
317.117	4.02
317.491	3.47
317.865	4.19
318.239	4.46
318.613	3.93
318.987	3.16
319.361	3.57
319.734	3.91
320.108	3.07
320.482	3.39
320.855	3.89
321.229	4.27
321.602	4.08
321.976	3.83
322.349	3.95
322.723	3.9
323.096	4.83
323.469	3.89
323.843	3.75
324.216	3.64
324.589	3.76
324.962	4.32
325.335	3.94
325.708	3.72
326.081	3.87
326.454	3.91
326.827	3.96
327.2	3.78
327.573	3.98
327.945	3.35
328.318	3.01
328.691	3.56
329.063	3.85
329.436	3.77
329.809	3.88
330.181	3.44
330.553	4.03
330.926	3.6
331.298	3.8
331.671	3.79
332.043	3.02
332.415	3.48
332.787	4.21
333.159	3.29
333.532	3.95
333.904	3.45
334.276	3.36
334.648	3.57
335.02	3.98
335.391	3.98
335.763	4.05
336.135	4.13
336.507	3.75
336.879	3.56
337.25	3.84
337.622	3.75
337.993	4.19
338.365	3.98
338.736	3.55
339.108	3.53
339.479	3.35
339.851	4.21
340.222	3.69
340.593	3.35
340.964	3.64
341.336	4
341.707	3.43
342.078	3.88
342.449	3.74
342.82	3.73
343.191	3.41
343.562	3.68
343.933	3.47
344.303	3.72
344.674	4.15
345.045	3.91
345.416	4.2
345.786	3.33
346.157	3.88
346.527	3.46
346.898	4.07
347.268	3.7
347.639	4.08
348.009	3.65
348.38	3.82
348.75	3.87
349.12	3.69
349.49	3.72
349.861	4.11
350.231	3.37
350.601	3.48
350.971	3.75
351.341	3.85
351.711	4.02
352.081	3.87
352.45	3.89
352.82	4.21
353.19	4.24
353.56	3.88
353.929	3.68
354.299	4.05
354.669	3.75
355.038	4.11
355.408	4.1
355.777	3.91
356.147	3.6
356.516	3.47
356.885	3.93
357.254	3.69
357.624	3.78
357.993	3.55
358.362	3.97
358.731	3.63
359.1	3.55
359.469	3.71
359.838	4.12
360.207	3.75
360.576	4.16
360.945	3.61
361.314	3.68
361.682	3.84
362.051	3.55
362.42	3.6
362.788	3.78
363.157	3.92
363.525	3.51
363.894	3.56
364.262	3.67
364.631	3.9
364.999	3.49
365.367	3.96
365.735	3.76
366.104	3.61
366.472	3.86
366.84	3.9
367.208	3.71
367.576	3.78
367.944	3.82
368.312	3.65
368.68	4.08
369.048	4.1
369.416	4.26
369.783	4.05
370.151	3.83
370.519	3.8
370.886	4.2
371.254	3.9
371.621	3.84
371.989	3.68
372.356	3.79
372.724	4.01
373.091	3.91
373.458	3.79
373.826	3.78
374.193	3.62
374.56	3.91
374.927	3.99
375.294	4.03
375.661	4.22
376.028	3.91
376.395	4.03
376.762	3.65
377.129	3.98
377.496	4.08
377.863	4.11
378.229	3.9
378.596	4
378.963	4
379.329	4.08
379.696	3.95
380.062	4.01
380.429	3.75
380.795	3.56
381.161	3.9
381.528	4.13
381.894	3.93
382.26	3.92
382.626	4.19
382.993	4.13
383.359	3.95
383.725	4.04
384.091	3.92
384.457	3.69
384.823	3.77
385.188	4.03
385.554	4.11
385.92	4.12
386.286	4.15
386.651	3.67
387.017	3.95
387.383	4.03
387.748	3.67
388.114	3.83
388.479	4.13
388.845	4.36
389.21	3.89
389.575	3.79
389.94	3.95
390.306	3.84
390.671	3.93
391.036	3.71
391.401	4.12
391.766	4.26
392.131	4.01
392.496	4.23
392.861	4.1
393.226	4.01
393.591	3.99
393.956	3.99
394.32	4.18
394.685	3.8
395.05	4.24
395.414	4.05
395.779	3.93
396.143	3.89
396.508	4.04
396.872	3.95
397.236	4.19
397.601	3.79
397.965	4.03
398.329	3.77
398.694	4.03
399.058	3.92
399.422	4.18
399.786	4.18
400.15	3.98
400.514	4.14
400.878	4.3
401.242	4.07
401.605	4.26
401.969	3.71
402.333	4.03
402.697	3.96
403.06	4.04
403.424	4.12
403.787	4.01
404.151	3.8
404.514	4.1
404.878	4.23
405.241	3.99
405.604	4.13
405.968	4
406.331	4.04
406.694	4.11
407.057	3.93
407.42	4.43
407.783	4.28
408.146	4.06
408.509	4.05
408.872	4.24
409.235	4.11
409.598	4.3
409.961	4.06
410.323	4.2
410.686	3.84
411.049	4.23
411.411	4.15
411.774	4.22
412.136	4.04
412.499	4.33
412.861	4.34
413.223	4.26
413.586	4.04
413.948	4.06
414.31	4.43
414.672	3.9
415.035	4.03
415.397	4.14
415.759	4.16
416.121	4.23
416.483	4.35
416.845	3.99
417.206	4.24
417.568	4.22
417.93	4.33
418.292	4.08
418.653	4.18
419.015	3.97
419.377	4.11
419.738	4.02
420.1	3.92
420.461	4.06
420.822	3.98
421.184	3.97
421.545	4.11
421.906	4.01
422.267	3.91
422.629	4.09
422.99	4.01
423.351	3.99
423.712	4.02
424.073	4.08
424.434	3.97
424.795	3.96
425.155	4.1
425.516	4.06
425.877	4.1
426.238	4
426.598	3.93
426.959	4
427.32	4.07
427.68	4.13
428.041	4.04
428.401	4.13
428.761	4.19
429.122	4.17
429.482	4.17
429.842	4.08
430.202	4.22
430.563	4.22
430.923	4.35
431.283	4.13
431.643	4.33
432.003	4.45
432.363	4.12
432.722	4.25
433.082	4.16
433.442	4.24
433.802	4.38
434.161	4.03
434.521	4.19
434.881	4.13
435.24	4.23
435.6	4.15
435.959	4.16
436.319	4.25
436.678	4.26
437.037	4.22
437.396	4.25
437.756	4.22
438.115	3.94
438.474	4.38
438.833	4.18
439.192	4.13
439.551	4.16
439.91	4.22
440.269	4.23
440.628	4.2
440.987	4.21
441.345	4.13
441.704	4.22
442.063	4.31
442.421	4.17
442.78	4.1
443.138	4.17
443.497	4.35
443.855	4.22
444.214	4.38
444.572	4.13
444.93	4.35
445.288	4.22
445.647	4.41
446.005	4.1
446.363	4.18
446.721	4.18
447.079	4.33
447.437	4.15
447.795	4.04
448.153	4.08
448.51	4.16
448.868	4.19
449.226	4.12
449.584	4.19
449.941	4.16
450.299	4.26
450.656	4.09
451.014	4.19
451.371	4.29
451.729	4.15
452.086	4.28
452.443	4.38
452.801	4.19
453.158	4.38
453.515	4.22
453.872	4.34
454.229	4.35
454.586	4.24
454.943	4.36
455.3	4.14
455.657	4.35
456.014	4.12
456.371	4.45
456.727	4.44
457.084	4.28
457.441	4.34
457.797	4.22
458.154	4.27
458.51	4.33
458.867	4.41
459.223	4.36
459.58	4.3
459.936	4.3
460.292	4.2
460.648	4.11
461.005	4.18
461.361	4.23
461.717	4.13
462.073	4.24
462.429	4.22
462.785	4.22
463.141	4.34
463.496	4.29
463.852	4.47
464.208	4.38
464.564	4.49
464.919	4.31
465.275	4.36
465.631	4.52
465.986	4.49
466.342	4.53
466.697	4.35
467.052	4.31
467.408	4.31
467.763	4.51
468.118	4.61
468.473	4.51
468.829	4.39
469.184	4.35
469.539	4.41
469.894	4.46
470.249	4.46
470.603	4.35
470.958	4.4
471.313	4.54
471.668	4.67
472.023	4.49
472.377	4.59
472.732	4.25
473.086	4.57
473.441	4.54
473.795	4.49
474.15	4.38
474.504	4.3
474.859	4.34
475.213	4.35
475.567	4.53
475.921	4.48
476.275	4.43
476.63	4.59
476.984	4.55
477.338	4.49
477.692	4.32
478.045	4.5
478.399	4.36
478.753	4.44
479.107	4.47
479.461	4.44
479.814	4.64
480.168	4.4
480.521	4.59
480.875	4.49
481.228	4.61
481.582	4.52
481.935	4.5
482.289	4.43
482.642	4.51
482.995	4.45
483.348	4.37
483.701	4.41
484.055	4.31
484.408	4.31
484.761	4.29
485.114	4.17
485.466	4.17
485.819	4.05
486.172	4.02
486.525	4.07
486.878	4.15
487.23	4.24
487.583	4.27
487.936	4.31
488.288	4.24
488.641	4.32
488.993	4.23
489.345	4.23
489.698	4.19
490.05	4.14
490.402	4.19
490.754	4.22
491.107	4.29
491.459	4.36
491.811	4.38
492.163	4.41
492.515	4.41
492.866	4.42
493.218	4.25
493.57	4.2
493.922	4.18
494.274	4.27
494.625	4.29
494.977	4.35
495.328	4.46
495.68	4.54
496.031	4.42
496.383	4.4
496.734	4.51
497.086	4.55
497.437	4.45
497.788	4.44
498.139	4.52
498.49	4.38
498.842	4.44
499.193	4.47
499.544	4.4
499.894	4.41
500.245	4.4
500.596	4.48
500.947	4.55
501.298	4.46
501.648	4.42
501.999	4.55
502.35	4.57
502.7	4.66
503.051	4.54
503.401	4.63
503.752	4.58
504.102	4.58
504.452	4.47
504.803	4.5
505.153	4.67
505.503	4.69
505.853	4.61
506.203	4.51
506.553	4.48
506.903	4.55
507.253	4.55
507.603	4.62
507.953	4.5
508.303	4.5
508.652	4.49
509.002	4.58
509.352	4.67
509.701	4.53
510.051	4.41
510.4	4.49
510.75	4.45
511.099	4.41
511.449	4.62
511.798	4.5
512.147	4.53
512.496	4.47
512.846	4.45
513.195	4.52
513.544	4.61
513.893	4.43
514.242	4.5
514.591	4.54
514.939	4.47
515.288	4.49
515.637	4.56
515.986	4.73
516.334	4.52
516.683	4.51
517.032	4.4
517.38	4.46
517.729	4.66
518.077	4.65
518.426	4.53
518.774	4.57
519.122	4.41
519.47	4.57
519.819	4.45
520.167	4.34
520.515	4.49
520.863	4.46
521.211	4.53
521.559	4.58
521.907	4.43
522.255	4.5
522.602	4.73
522.95	4.4
523.298	4.54
523.645	4.55
523.993	4.51
524.341	4.62
524.688	4.57
525.036	4.72
525.383	4.44
525.73	4.67
526.078	4.51
526.425	4.65
526.772	4.53
527.119	4.51
527.466	4.47
527.814	4.52
528.161	4.46
528.508	4.44
528.854	4.49
529.201	4.48
529.548	4.49
529.895	4.4
530.242	4.33
530.588	4.29
530.935	4.26
531.282	4.36
531.628	4.39
531.975	4.35
532.321	4.41
532.667	4.41
533.014	4.51
533.36	4.49
533.706	4.57
534.052	4.55
534.399	4.45
534.745	4.38
535.091	4.43
535.437	4.48
535.783	4.44
536.129	4.48
536.474	4.5
536.82	4.55
537.166	4.56
537.512	4.56
537.857	4.62
538.203	4.64
538.549	4.61
538.894	4.39
539.239	4.55
539.585	4.6
539.93	4.54
540.276	4.69
540.621	4.67
540.966	4.62
541.311	4.71
541.656	4.62
542.001	4.73
542.346	4.59
542.691	4.51
543.036	4.47
543.381	4.34
543.726	4.35
544.071	4.43
544.415	4.45
544.76	4.49
545.105	4.57
545.449	4.5
545.794	4.56
546.138	4.51
546.483	4.6
546.827	4.53
547.171	4.65
547.516	4.52
547.86	4.56
548.204	4.51
548.548	4.43
548.892	4.47
549.236	4.56
549.58	4.5
549.924	4.6
550.268	4.67
550.612	4.66
550.956	4.78
551.3	4.72
551.643	4.79
551.987	4.83
552.33	4.65
552.674	4.64
553.017	4.59
553.361	4.72
553.704	4.71
554.048	4.64
554.391	4.87
554.734	4.68
555.077	4.57
555.42	4.47
555.764	4.61
556.107	4.78
556.45	4.66
556.793	4.6
557.135	4.61
557.478	4.7
557.821	4.8
558.164	4.86
558.507	4.77
558.849	4.85
559.192	4.73
559.534	4.99
559.877	4.54
560.219	4.65
560.562	4.71
560.904	4.72
561.246	4.79
561.589	4.59
561.931	4.8
562.273	4.9
562.615	4.86
562.957	4.63
563.299	4.84
563.641	4.8
563.983	4.58
564.325	4.68
564.667	4.93
565.008	4.62
565.35	4.69
565.692	4.71
566.033	4.84
566.375	4.76
566.716	4.68
567.058	4.81
567.399	4.65
567.741	4.59
568.082	4.74
568.423	4.77
568.764	4.67
569.105	4.83
569.447	4.7
569.788	4.74
570.129	4.65
570.47	4.78
570.811	4.76
571.151	4.8
571.492	4.79
571.833	4.94
572.174	5.06
572.514	4.84
572.855	4.66
573.195	4.88
573.536	4.57
573.876	4.95
574.217	4.64
574.557	4.7
574.898	4.58
575.238	4.62
575.578	4.69
575.918	4.61
576.258	4.83
576.598	4.84
576.938	4.78
577.278	4.61
577.618	4.61
577.958	4.71
578.298	4.64
578.638	4.7
578.977	4.88
579.317	4.78
579.657	4.87
579.996	4.88
580.336	4.8
580.675	4.67
581.014	4.87
581.354	4.68
581.693	4.88
582.032	4.8
582.372	4.63
582.711	4.95
583.05	5.09
583.389	4.72
583.728	4.9
584.067	4.94
584.406	4.91
584.745	4.76
585.083	4.72
585.422	4.87
585.761	4.7
586.1	5.07
586.438	4.51
586.777	4.96
587.115	4.97
587.454	4.69
587.792	4.6
588.13	4.99
588.469	4.91
588.807	4.47
589.145	4.83
589.483	4.73
589.821	4.7
590.159	4.86
590.497	4.74
590.835	4.83
591.173	4.76
591.511	4.72
591.849	4.88
592.187	4.63
592.524	4.81
592.862	4.77
593.2	4.76
593.537	4.74
593.875	4.89
594.212	4.94
594.55	4.9
594.887	4.92
595.224	4.73
595.561	4.83
595.899	4.89
596.236	4.93
596.573	4.73
596.91	4.85
597.247	4.75
597.584	4.53
597.921	4.87
598.258	4.86
598.594	4.89
598.931	4.57
599.268	4.62
599.604	4.63
599.941	4.83
600.277	4.74
600.614	4.73
600.95	4.88
601.287	4.85
601.623	4.87
601.959	4.98
602.296	4.92
602.632	4.78
602.968	4.63
603.304	4.93
603.64	4.51
603.976	5.03
604.312	5.06
604.648	4.83
604.984	5
605.319	4.77
605.655	4.66
605.991	4.73
606.326	4.65
606.662	4.75
606.998	4.48
607.333	4.69
607.668	4.64
608.004	4.75
608.339	4.64
608.674	4.94
609.01	4.74
609.345	4.89
609.68	4.84
610.015	4.73
610.35	4.85
610.685	4.94
611.02	4.73
611.355	4.74
611.689	4.68
612.024	4.85
612.359	4.84
612.694	4.73
613.028	4.93
613.363	5
613.697	4.8
614.032	5.09
614.366	5.08
614.7	5.02
615.035	5.18
615.369	5.13
615.703	4.41
616.037	4.92
616.371	4.94
616.705	4.88
617.039	4.92
617.373	4.94
617.707	5.26
618.041	4.87
618.375	4.77
618.709	4.91
619.042	4.89
619.376	5.14
619.71	5.28
620.043	5.19
620.377	4.88
620.71	5.14
621.043	5.12
621.377	5
621.71	4.82
622.043	5.24
622.376	5.12
622.709	5.01
623.043	4.92
623.376	4.54
623.709	4.79
624.041	5.08
624.374	5.14
624.707	4.87
625.04	4.86
625.373	5
625.705	4.9
626.038	5.1
626.37	4.5
626.703	4.96
627.035	4.83
627.368	4.8
627.7	4.83
628.032	5.06
628.365	4.9
628.697	5.11
629.029	4.74
629.361	4.84
629.693	4.89
630.025	5.04
630.357	4.78
630.689	4.8
631.021	5.25
631.353	5.04
631.684	5.01
632.016	5.15
632.348	4.95
632.679	4.86
633.011	5.06
633.342	4.9
633.674	4.84
634.005	5.19
634.336	5.23
634.668	4.71
634.999	4.46
635.33	4.51
635.661	5.37
635.992	5.02
636.323	5.48
636.654	5.01
636.985	5.1
637.316	5.15
637.647	4.8
637.977	4.42
638.308	5.16
638.639	4.58
638.969	4.92
639.3	4.38
639.63	5.02
639.961	4.76
640.291	4.78
640.622	4.82
640.952	5.17
641.282	5.18
641.612	4.72
641.943	5.24
642.273	4.76
642.603	5.26
642.933	5.08
643.263	5.5
643.592	4.85
643.922	5.31
644.252	4.81
644.582	5.11
644.911	4.84
645.241	5.46
645.571	5.18
645.9	4.9
646.23	5.24
646.559	5.15
646.888	5.03
647.218	5.09
647.547	4.78
647.876	4.78
648.205	4.92
648.534	5.07
648.863	5.02
649.192	4.75
649.521	5.05
649.85	5.15
650.179	5.29
650.508	4.68
650.837	5.1
651.165	5.15
651.494	4.83
651.822	5.3
652.151	5.51
652.479	4.85
652.808	5.18
653.136	4.66
653.465	5.25
653.793	5.36
654.121	5.4
654.449	4.93
654.777	4.86
655.105	5.16
655.433	5.45
655.761	5.21
656.089	5.25
656.417	5.16
656.745	5.1
657.073	5.15
657.4	5.9
657.728	5.35
658.056	5.51
658.383	4.97
658.711	5.57
659.038	5.53
659.365	5.67
659.693	5.63
660.02	4.78
660.347	5.12
660.674	4.99
661.001	5.18
661.329	5.12
661.656	5
661.982	4.94
662.309	5.16
662.636	5.42
662.963	5.03
663.29	5.37
663.616	5.09
663.943	4.7
664.27	5.37
664.596	5.69
664.923	5.02
665.249	5.38
665.576	4.65
665.902	4.92
666.228	5.62
666.554	5.82
666.881	5.71
667.207	5.3
667.533	5.12
667.859	5.06
668.185	5.8
668.511	6.06
668.837	5.68
669.162	5.72
669.488	5.85
669.814	4.83
670.139	5.64
670.465	5.48
670.791	5.81
671.116	5.29
671.442	5.64
671.767	5.22
672.092	5.11
672.418	5.51
672.743	5.12
673.068	5.8
673.393	5.34
673.718	4.74
674.043	5.01
674.368	5.51
674.693	5.49
675.018	5.99
675.343	4.94
675.667	5.23
675.992	5.5
676.317	5.45
676.641	5.43
676.966	5.42
677.29	5.32
677.615	5.5
677.939	5.08
678.264	5.66
678.588	5.14
678.912	5.67
679.236	5
679.56	5.91
679.885	5.73
680.209	5.78
680.532	5.16
680.856	5.11
681.18	5.25
681.504	5.55
681.828	5.53
682.152	5.34
682.475	5.28
682.799	5.5
683.122	5.76
683.446	5.87
683.769	5.46
684.093	5.85
684.416	5.6
684.739	4.95
685.062	5.09
685.386	5.23
685.709	5.31
686.032	5.4
686.355	5.99
686.678	5.43
687.001	5.8
687.324	4.96
687.646	5.43
687.969	5.87
688.292	5.83
688.614	5.69
688.937	5.48
689.26	5.46
689.582	5.03
689.904	5.5
690.227	5.86
690.549	5.09
690.871	5.98
691.194	5.55
691.516	5.17
691.838	6.45
692.16	5.23
692.482	4.77
692.804	5.42
693.126	5.7
693.448	6.89
