Data from 0231_chest_Reflection__1__16.txt Node

Date: Fri Oct 20 20:44:34 CDT 2023
User: ToomeyLab
Spectrometer: FLMS14357
Trigger mode: 0
Integration Time (sec): 1.000000E-2
Scans to average: 100
Electric dark correction enabled: true
Nonlinearity correction enabled: false
Boxcar width: 0
XAxis mode: Wavelengths
Number of Pixels in Spectrum: 2048
>>>>>Begin Spectral Data<<<<<
189.047	108.79
189.435	108.79
189.823	108.79
190.211	92.45
190.599	-1345.51
190.987	-160.37
191.375	-4.06
191.763	174.79
192.151	-3246.95
192.538	800.81
192.926	32.99
193.314	138.02
193.702	72.63
194.089	65.29
194.477	422.19
194.864	237.13
195.252	115.99
195.639	62.61
196.027	-150.55
196.414	74.22
196.801	45.04
197.189	25.75
197.576	28.8
197.963	-144.14
198.351	52.91
198.738	-6.83
199.125	20.07
199.512	38.68
199.899	3.87
200.286	-29.71
200.673	44.92
201.06	-24.22
201.447	-148.83
201.833	20.57
202.22	31.2
202.607	35.44
202.994	-1.99
203.38	-11.69
203.767	3.45
204.154	11.03
204.54	35.19
204.927	24.77
205.313	-3.14
205.699	31.68
206.086	-10.35
206.472	15.5
206.858	29.28
207.245	-14.22
207.631	1.93
208.017	-15.23
208.403	-12.96
208.789	28.89
209.175	-17.28
209.561	26.02
209.947	3.5
210.333	4.86
210.719	14.59
211.105	-5.99
211.491	17.36
211.876	4.59
212.262	18.36
212.648	39.12
213.034	-25.42
213.419	0.02
213.805	13.31
214.19	37.13
214.576	1.85
214.961	16.4
215.346	28.11
215.732	20.95
216.117	-21.38
216.502	12.18
216.888	11.97
217.273	-8.62
217.658	4.29
218.043	30.33
218.428	-5.38
218.813	-6.79
219.198	18.18
219.583	-9.14
219.968	-12.36
220.353	14.39
220.738	27.31
221.122	9.52
221.507	18.15
221.892	4.62
222.276	8.78
222.661	27.95
223.046	8.95
223.43	0.21
223.815	19.05
224.199	25.46
224.583	11.83
224.968	-2.38
225.352	2.07
225.736	1.54
226.121	4.25
226.505	3.46
226.889	7.93
227.273	5.13
227.657	14.03
228.041	12.77
228.425	5.41
228.809	10.03
229.193	5.59
229.577	7.86
229.961	5.12
230.344	5.55
230.728	6.27
231.112	6.22
231.495	5.76
231.879	6.87
232.263	6.89
232.646	3.94
233.03	6.31
233.413	5.76
233.797	5.88
234.18	4.32
234.563	6.86
234.946	6.63
235.33	8.42
235.713	8.56
236.096	7.81
236.479	6.42
236.862	6.92
237.245	3.37
237.628	5.59
238.011	6.51
238.394	5.07
238.777	7.88
239.16	2.5
239.543	8.49
239.925	8.34
240.308	5.31
240.691	5.13
241.073	6.71
241.456	5.99
241.838	6.43
242.221	7.46
242.603	6.33
242.986	6
243.368	6.32
243.75	5.53
244.133	6.01
244.515	5.72
244.897	5.82
245.279	6.1
245.661	5.85
246.043	5.65
246.425	6.58
246.807	6.16
247.189	4.89
247.571	5
247.953	5.55
248.335	5.84
248.717	5.51
249.098	5.21
249.48	5.29
249.862	5.22
250.243	5.56
250.625	5.65
251.006	5.85
251.388	5.55
251.769	5.75
252.151	5.21
252.532	5.58
252.913	5.21
253.295	5.16
253.676	5.04
254.057	5.01
254.438	5.16
254.819	5.22
255.2	5.59
255.581	5.09
255.962	4.85
256.343	6.03
256.724	3.87
257.105	5.17
257.486	6.17
257.867	5.14
258.247	6.26
258.628	4.89
259.009	5.03
259.389	4.82
259.77	5.53
260.15	4.92
260.531	5.28
260.911	5.12
261.292	5.29
261.672	5.02
262.052	5.29
262.432	5.21
262.813	5.39
263.193	5.07
263.573	4.8
263.953	5.24
264.333	5.31
264.713	5.62
265.093	5.04
265.473	5.11
265.853	4.99
266.233	3.88
266.612	5.02
266.992	4.94
267.372	4.91
267.752	5.09
268.131	5.31
268.511	5.15
268.89	4.63
269.27	4.46
269.649	4.31
270.029	4.59
270.408	5.64
270.787	4.94
271.167	4.8
271.546	5.06
271.925	5.3
272.304	5.17
272.683	4.77
273.062	5.14
273.441	5.28
273.82	4.83
274.199	5.26
274.578	4.95
274.957	5.33
275.336	4.78
275.715	5.2
276.093	5.16
276.472	5.21
276.851	5.33
277.229	5.28
277.608	4.26
277.986	4.57
278.365	5.46
278.743	4.63
279.122	4.47
279.5	4.85
279.878	4.34
280.257	4.6
280.635	5.43
281.013	5.15
281.391	5.2
281.769	4.8
282.147	4.59
282.525	4.96
282.903	4.79
283.281	4.77
283.659	5
284.037	4.63
284.415	3.99
284.792	4.45
285.17	4.5
285.548	4.99
285.925	4.28
286.303	4.55
286.68	4.72
287.058	5.25
287.435	4.86
287.813	4.14
288.19	4.83
288.567	4.62
288.945	4.74
289.322	4.97
289.699	4.49
290.076	5.11
290.453	5.04
290.83	4.52
291.207	5.13
291.584	4.04
291.961	4.73
292.338	4.22
292.715	4.75
293.092	4.53
293.469	4.81
293.845	4.57
294.222	4.53
294.599	4.32
294.975	5.39
295.352	4.92
295.728	5.07
296.105	4.28
296.481	4.66
296.858	4.41
297.234	4.74
297.61	4.32
297.986	4.6
298.363	4.74
298.739	4.49
299.115	4.54
299.491	4.54
299.867	4.4
300.243	4.63
300.619	4.63
300.995	4.28
301.371	5.06
301.746	4.48
302.122	5
302.498	4.53
302.874	4.6
303.249	4.54
303.625	4.64
304	4.59
304.376	4.32
304.751	4.1
305.127	4.68
305.502	4.9
305.878	4.59
306.253	4.85
306.628	4.7
307.003	4.56
307.378	4.69
307.754	4.49
308.129	5.07
308.504	4.95
308.879	4.6
309.254	5.14
309.629	4.37
310.003	4.11
310.378	5.19
310.753	4.79
311.128	4.84
311.502	4.82
311.877	4.68
312.252	4.65
312.626	4.86
313.001	4.49
313.375	4.95
313.75	4.51
314.124	4.32
314.498	4.45
314.873	4.31
315.247	5.22
315.621	4.7
315.995	4.53
316.369	4.83
316.743	4.87
317.117	4.71
317.491	3.96
317.865	5.04
318.239	4.74
318.613	4.88
318.987	4.05
319.361	3.76
319.734	4.31
320.108	4.28
320.482	5.09
320.855	4.83
321.229	5.16
321.602	4.69
321.976	4.38
322.349	5.04
322.723	4.53
323.096	4.55
323.469	3.73
323.843	4.21
324.216	4.09
324.589	5
324.962	4.88
325.335	4.93
325.708	4.34
326.081	4.36
326.454	4.76
326.827	4.86
327.2	4.71
327.573	4.24
327.945	4.73
328.318	4.53
328.691	4.55
329.063	4.84
329.436	4.1
329.809	4.77
330.181	4.97
330.553	5.04
330.926	4.69
331.298	4.5
331.671	3.91
332.043	4.24
332.415	4.26
332.787	4.84
333.159	4.42
333.532	4.57
333.904	4.73
334.276	3.82
334.648	4.92
335.02	4.83
335.391	4.47
335.763	4.97
336.135	4.79
336.507	4.41
336.879	4.17
337.25	4.46
337.622	4.71
337.993	5.14
338.365	4.19
338.736	4.45
339.108	4.64
339.479	4.24
339.851	4.84
340.222	4.5
340.593	4.39
340.964	4.81
341.336	4.6
341.707	4.49
342.078	4.49
342.449	4.28
342.82	4.27
343.191	4.22
343.562	4.55
343.933	4.11
344.303	4.8
344.674	4.58
345.045	4.83
345.416	4.45
345.786	4.31
346.157	4.45
346.527	4.13
346.898	4.43
347.268	4.48
347.639	4.56
348.009	4.33
348.38	4.86
348.75	4.52
349.12	4.36
349.49	4.24
349.861	4.76
350.231	4.14
350.601	4.51
350.971	4.59
351.341	4.53
351.711	5.11
352.081	4.54
352.45	4.55
352.82	5
353.19	4.85
353.56	4.75
353.929	4.51
354.299	4.14
354.669	4.39
355.038	4.64
355.408	4.81
355.777	4.58
356.147	4.4
356.516	4.41
356.885	4.52
357.254	4.57
357.624	4.37
357.993	4.13
358.362	4.49
358.731	4.25
359.1	4.18
359.469	4.23
359.838	4.38
360.207	4.41
360.576	4.7
360.945	4.4
361.314	4.27
361.682	4.48
362.051	4.11
362.42	4.32
362.788	4.49
363.157	4.46
363.525	4.21
363.894	4.37
364.262	4.58
364.631	4.67
364.999	4.81
365.367	4.47
365.735	4.28
366.104	4.26
366.472	4.59
366.84	4.58
367.208	4.55
367.576	4.41
367.944	4.16
368.312	4.35
368.68	4.56
369.048	4.68
369.416	4.62
369.783	4.69
370.151	4.4
370.519	4.38
370.886	4.74
371.254	4.69
371.621	4.81
371.989	4.49
372.356	4.47
372.724	4.52
373.091	4.45
373.458	4.25
373.826	4.45
374.193	4.44
374.56	4.6
374.927	4.49
375.294	4.56
375.661	4.53
376.028	4.77
376.395	4.71
376.762	4.18
377.129	4.31
377.496	4.86
377.863	4.74
378.229	4.55
378.596	4.69
378.963	4.54
379.329	4.43
379.696	4.5
380.062	4.5
380.429	4.46
380.795	4.55
381.161	4.63
381.528	4.93
381.894	4.34
382.26	4.56
382.626	4.89
382.993	4.61
383.359	4.69
383.725	4.65
384.091	4.68
384.457	4.65
384.823	4.54
385.188	4.91
385.554	4.54
385.92	4.73
386.286	4.86
386.651	4.36
387.017	4.55
387.383	4.69
387.748	4.36
388.114	4.38
388.479	4.41
388.845	4.73
389.21	4.25
389.575	4.11
389.94	4.3
390.306	4.6
390.671	4.55
391.036	4.63
391.401	4.77
391.766	4.75
392.131	4.56
392.496	4.55
392.861	4.7
393.226	4.42
393.591	4.28
393.956	4.62
394.32	4.73
394.685	4.48
395.05	4.75
395.414	4.68
395.779	4.3
396.143	4.44
396.508	4.4
396.872	4.61
397.236	4.6
397.601	4.38
397.965	4.43
398.329	4.23
398.694	4.8
399.058	4.45
399.422	4.69
399.786	4.36
400.15	4.32
400.514	4.5
400.878	4.64
401.242	5.04
401.605	4.44
401.969	4.17
402.333	4.59
402.697	4.53
403.06	4.33
403.424	4.51
403.787	4.68
404.151	4.57
404.514	4.56
404.878	4.55
405.241	4.74
405.604	4.56
405.968	4.43
406.331	4.39
406.694	4.66
407.057	4.57
407.42	4.75
407.783	4.46
408.146	4.74
408.509	4.64
408.872	4.56
409.235	4.65
409.598	4.52
409.961	4.48
410.323	4.68
410.686	4.3
411.049	4.34
411.411	4.41
411.774	4.71
412.136	4.5
412.499	4.41
412.861	4.59
413.223	4.54
413.586	4.75
413.948	4.54
414.31	4.69
414.672	4.62
415.035	4.49
415.397	4.8
415.759	4.57
416.121	4.72
416.483	4.81
416.845	4.66
417.206	4.58
417.568	4.67
417.93	4.58
418.292	4.47
418.653	4.54
419.015	4.48
419.377	4.43
419.738	4.45
420.1	4.43
420.461	4.45
420.822	4.44
421.184	4.41
421.545	4.53
421.906	4.5
422.267	4.59
422.629	4.49
422.99	4.4
423.351	4.46
423.712	4.35
424.073	4.47
424.434	4.47
424.795	4.38
425.155	4.58
425.516	4.5
425.877	4.55
426.238	4.43
426.598	4.5
426.959	4.48
427.32	4.5
427.68	4.57
428.041	4.48
428.401	4.56
428.761	4.54
429.122	4.56
429.482	4.6
429.842	4.7
430.202	4.64
430.563	4.69
430.923	4.8
431.283	4.54
431.643	4.78
432.003	4.8
432.363	4.69
432.722	4.69
433.082	4.53
433.442	4.67
433.802	4.94
434.161	4.61
434.521	4.76
434.881	4.66
435.24	4.68
435.6	4.64
435.959	4.53
436.319	4.56
436.678	4.67
437.037	4.78
437.396	4.7
437.756	4.8
438.115	4.49
438.474	4.69
438.833	4.79
439.192	4.6
439.551	4.58
439.91	4.51
440.269	4.86
440.628	4.77
440.987	4.8
441.345	4.5
441.704	4.67
442.063	4.67
442.421	4.67
442.78	4.66
443.138	4.74
443.497	4.75
443.855	4.75
444.214	4.67
444.572	4.64
444.93	4.83
445.288	4.74
445.647	4.84
446.005	4.61
446.363	4.74
446.721	4.71
447.079	4.78
447.437	4.77
447.795	4.69
448.153	4.62
448.51	4.6
448.868	4.63
449.226	4.7
449.584	4.69
449.941	4.61
450.299	4.75
450.656	4.71
451.014	4.7
451.371	4.77
451.729	4.69
452.086	4.69
452.443	4.77
452.801	4.68
453.158	4.91
453.515	4.93
453.872	4.81
454.229	4.9
454.586	4.87
454.943	4.71
455.3	4.68
455.657	4.78
456.014	4.52
456.371	4.68
456.727	4.87
457.084	4.8
457.441	4.95
457.797	4.93
458.154	4.77
458.51	4.82
458.867	4.75
459.223	4.73
459.58	4.89
459.936	4.84
460.292	4.77
460.648	4.63
461.005	4.68
461.361	4.77
461.717	4.61
462.073	4.71
462.429	4.79
462.785	4.66
463.141	4.89
463.496	4.82
463.852	4.91
464.208	4.9
464.564	4.98
464.919	4.81
465.275	5.02
465.631	4.94
465.986	4.94
466.342	4.98
466.697	4.79
467.052	4.91
467.408	4.98
467.763	4.94
468.118	5.16
468.473	4.86
468.829	4.84
469.184	4.92
469.539	4.94
469.894	4.97
470.249	5.07
470.603	4.89
470.958	4.88
471.313	5.24
471.668	4.96
472.023	4.99
472.377	4.93
472.732	4.92
473.086	5.05
473.441	5.12
473.795	5.19
474.15	4.91
474.504	4.91
474.859	5.05
475.213	5.12
475.567	4.89
475.921	5.03
476.275	4.98
476.63	5.13
476.984	5.15
477.338	5.01
477.692	5
478.045	5.01
478.399	4.99
478.753	4.93
479.107	4.86
479.461	5.07
479.814	5.12
480.168	5.07
480.521	4.91
480.875	4.98
481.228	5.03
481.582	5.15
481.935	5.09
482.289	5.07
482.642	5.07
482.995	5.01
483.348	4.98
483.701	4.96
484.055	4.98
484.408	4.95
484.761	4.92
485.114	4.83
485.466	4.71
485.819	4.75
486.172	4.68
486.525	4.66
486.878	4.72
487.23	4.75
487.583	4.78
487.936	4.82
488.288	4.89
488.641	4.99
488.993	4.86
489.345	4.86
489.698	4.82
490.05	4.76
490.402	4.8
490.754	4.81
491.107	4.81
491.459	4.96
491.811	4.96
492.163	4.93
492.515	4.92
492.866	5.01
493.218	4.94
493.57	4.9
493.922	4.91
494.274	4.89
494.625	4.93
494.977	4.97
495.328	5.1
495.68	5.01
496.031	5.01
496.383	5.1
496.734	5.1
497.086	5.13
497.437	5.17
497.788	5.03
498.139	5.28
498.49	5.02
498.842	5.04
499.193	5.09
499.544	5.21
499.894	5.17
500.245	5.12
500.596	5.29
500.947	5.21
501.298	5.17
501.648	5.16
501.999	5.17
502.35	5.2
502.7	5.33
503.051	5.25
503.401	5.26
503.752	5.42
504.102	5.31
504.452	5.24
504.803	5.18
505.153	5.35
505.503	5.27
505.853	5.37
506.203	5.22
506.553	5.27
506.903	5.22
507.253	5.27
507.603	5.16
507.953	5.35
508.303	5.25
508.652	5.34
509.002	5.24
509.352	5.36
509.701	5.32
510.051	5.22
510.4	5.42
510.75	5.25
511.099	5.31
511.449	5.34
511.798	5.36
512.147	5.33
512.496	5.39
512.846	5.25
513.195	5.39
513.544	5.29
513.893	5.3
514.242	5.43
514.591	5.35
514.939	5.35
515.288	5.23
515.637	5.46
515.986	5.54
516.334	5.45
516.683	5.41
517.032	5.28
517.38	5.38
517.729	5.43
518.077	5.6
518.426	5.51
518.774	5.34
519.122	5.39
519.47	5.33
519.819	5.31
520.167	5.37
520.515	5.35
520.863	5.41
521.211	5.4
521.559	5.43
521.907	5.39
522.255	5.4
522.602	5.66
522.95	5.33
523.298	5.37
523.645	5.52
523.993	5.46
524.341	5.59
524.688	5.53
525.036	5.65
525.383	5.5
525.73	5.7
526.078	5.49
526.425	5.58
526.772	5.47
527.119	5.41
527.466	5.48
527.814	5.5
528.161	5.53
528.508	5.48
528.854	5.46
529.201	5.5
529.548	5.53
529.895	5.53
530.242	5.42
530.588	5.36
530.935	5.35
531.282	5.42
531.628	5.44
531.975	5.37
532.321	5.48
532.667	5.54
533.014	5.56
533.36	5.65
533.706	5.69
534.052	5.62
534.399	5.55
534.745	5.54
535.091	5.55
535.437	5.63
535.783	5.57
536.129	5.64
536.474	5.62
536.82	5.66
537.166	5.64
537.512	5.77
537.857	5.85
538.203	5.73
538.549	5.8
538.894	5.67
539.239	5.79
539.585	5.76
539.93	5.84
540.276	5.85
540.621	5.88
540.966	5.91
541.311	6.02
541.656	6.01
542.001	5.93
542.346	6.05
542.691	5.85
543.036	5.88
543.381	5.79
543.726	5.75
544.071	5.78
544.415	5.79
544.76	5.84
545.105	5.92
545.449	5.9
545.794	5.91
546.138	5.98
546.483	6.08
546.827	6.01
547.171	5.99
547.516	5.94
547.86	6.14
548.204	6.02
548.548	6.09
548.892	6.16
549.236	6.13
549.58	6.11
549.924	6.05
550.268	6.15
550.612	6.3
550.956	6.36
551.3	6.29
551.643	6.33
551.987	6.3
552.33	6.39
552.674	6.39
553.017	6.31
553.361	6.35
553.704	6.44
554.048	6.49
554.391	6.41
554.734	6.44
555.077	6.35
555.42	6.25
555.764	6.32
556.107	6.6
556.45	6.42
556.793	6.36
557.135	6.61
557.478	6.61
557.821	6.76
558.164	6.73
558.507	6.58
558.849	6.84
559.192	6.72
559.534	6.86
559.877	6.44
560.219	6.75
560.562	6.64
560.904	6.77
561.246	6.71
561.589	6.62
561.931	6.9
562.273	6.88
562.615	7.03
562.957	7.03
563.299	6.82
563.641	6.95
563.983	6.76
564.325	6.82
564.667	6.82
565.008	7.04
565.35	7.06
565.692	6.98
566.033	7.09
566.375	6.94
566.716	7
567.058	6.92
567.399	7.16
567.741	7.02
568.082	7.07
568.423	7.11
568.764	6.94
569.105	7.15
569.447	7.03
569.788	7.19
570.129	7.08
570.47	7.29
570.811	7.28
571.151	7.28
571.492	7.37
571.833	7.58
572.174	7.53
572.514	7.36
572.855	7.3
573.195	7.43
573.536	7.25
573.876	7.56
574.217	7.32
574.557	7.37
574.898	7.14
575.238	7.26
575.578	7.52
575.918	7.37
576.258	7.67
576.598	7.58
576.938	7.59
577.278	7.6
577.618	7.28
577.958	7.48
578.298	7.47
578.638	7.71
578.977	7.7
579.317	7.59
579.657	7.6
579.996	7.91
580.336	7.82
580.675	7.91
581.014	7.7
581.354	7.74
581.693	7.82
582.032	8.02
582.372	7.88
582.711	8.22
583.05	8.17
583.389	8.1
583.728	8.19
584.067	8.14
584.406	8.09
584.745	8.2
585.083	7.94
585.422	8.24
585.761	8.14
586.1	8.46
586.438	7.87
586.777	8.39
587.115	8.41
587.454	8.41
587.792	8.18
588.13	8.52
588.469	8.5
588.807	7.92
589.145	8.44
589.483	8.24
589.821	8.28
590.159	8.42
590.497	8.55
590.835	8.61
591.173	8.6
591.511	8.62
591.849	8.53
592.187	8.54
592.524	8.37
592.862	8.57
593.2	8.85
593.537	8.63
593.875	8.49
594.212	8.73
594.55	8.96
594.887	8.95
595.224	8.66
595.561	8.79
595.899	8.84
596.236	8.73
596.573	9
596.91	8.87
597.247	9.07
597.584	9.08
597.921	8.87
598.258	9.09
598.594	9.22
598.931	9.02
599.268	9.06
599.604	9.2
599.941	9.04
600.277	8.94
600.614	9.2
600.95	9.16
601.287	9.11
601.623	9.48
601.959	9.37
602.296	9.42
602.632	9.38
602.968	9.19
603.304	9.66
603.64	9.31
603.976	9.65
604.312	9.93
604.648	9.56
604.984	9.69
605.319	9.55
605.655	9.4
605.991	9.43
606.326	9.53
606.662	9.63
606.998	9.55
607.333	9.5
607.668	9.52
608.004	9.72
608.339	9.73
608.674	10.07
609.01	10.11
609.345	9.75
609.68	10.08
610.015	10.08
610.35	10.03
610.685	10.16
611.02	9.95
611.355	9.98
611.689	10.03
612.024	10.36
612.359	10.03
612.694	10
613.028	10.12
613.363	10.14
613.697	10.22
614.032	10.42
614.366	10.59
614.7	10.28
615.035	10.52
615.369	10.44
615.703	10.26
616.037	10.82
616.371	10.59
616.705	10.37
617.039	10.43
617.373	10.78
617.707	10.94
618.041	10.51
618.375	10.56
618.709	10.87
619.042	10.61
619.376	11.04
619.71	10.87
620.043	10.89
620.377	10.59
620.71	11.24
621.043	11.09
621.377	10.75
621.71	10.9
622.043	11.08
622.376	11.22
622.709	11.5
623.043	11.12
623.376	11.3
623.709	11.12
624.041	11.3
624.374	11.28
624.707	11.22
625.04	11.12
625.373	11.68
625.705	11.27
626.038	11.67
626.37	11.04
626.703	11.15
627.035	11.19
627.368	11.66
627.7	11.79
628.032	11.58
628.365	11.83
628.697	11.59
629.029	11.66
629.361	11.77
629.693	11.72
630.025	11.69
630.357	11.86
630.689	11.78
631.021	12.07
631.353	11.98
631.684	11.72
632.016	12.1
632.348	12.21
632.679	12
633.011	12.2
633.342	12.06
633.674	12.05
634.005	12.3
634.336	12.53
634.668	12.2
634.999	12.15
635.33	11.69
635.661	12.69
635.992	12.56
636.323	12.33
636.654	12.67
636.985	12.08
637.316	12.45
637.647	12.56
637.977	12.29
638.308	12.67
638.639	12.75
638.969	12.43
639.3	12.46
639.63	12.6
639.961	12.79
640.291	12.74
640.622	13.1
640.952	13.22
641.282	12.91
641.612	12.81
641.943	13.08
642.273	12.79
642.603	13.44
642.933	13.39
643.263	13.49
643.592	13.04
643.922	13.27
644.252	13.19
644.582	12.81
644.911	12.98
645.241	13.58
645.571	13.63
645.9	13.38
646.23	13.34
646.559	13.41
646.888	13.92
647.218	13.31
647.547	13.32
647.876	13.16
648.205	13.33
648.534	13.78
648.863	13.98
649.192	13.18
649.521	13.9
649.85	13.6
650.179	13.36
650.508	14.14
650.837	14.13
651.165	13.84
651.494	13.69
651.822	13.74
652.151	14.65
652.479	14.04
652.808	13.77
653.136	14.25
653.465	14.38
653.793	14.38
654.121	14.28
654.449	14.18
654.777	13.99
655.105	14.07
655.433	14.67
655.761	14.58
656.089	14.59
656.417	14.54
656.745	14.02
657.073	14.38
657.4	14.91
657.728	14.53
658.056	14.53
658.383	14.74
658.711	14.57
659.038	14.92
659.365	15.41
659.693	14.58
660.02	14.81
660.347	14.8
660.674	14.87
661.001	15.02
661.329	14.93
661.656	15.17
661.982	14.85
662.309	15.25
662.636	15.03
662.963	14.77
663.29	15.01
663.616	15.25
663.943	14.92
664.27	15.41
664.596	14.89
664.923	15.12
665.249	15.16
665.576	15.54
665.902	15.44
666.228	15.8
666.554	15.97
666.881	15.13
667.207	16.07
667.533	15.51
667.859	15.74
668.185	15.72
668.511	15.98
668.837	15.83
669.162	16.29
669.488	15.71
669.814	15.64
670.139	16.13
670.465	16.15
670.791	16.14
671.116	16.31
671.442	15.97
671.767	16
672.092	16.37
672.418	16.14
672.743	15.36
673.068	16.14
673.393	16.04
673.718	15.63
674.043	15.81
674.368	16.42
674.693	16.45
675.018	17.16
675.343	16.3
675.667	15.97
675.992	16.57
676.317	16.64
676.641	16.42
676.966	16.94
677.29	16.64
677.615	17.33
677.939	16
678.264	16.89
678.588	16.82
678.912	16.81
679.236	16.37
679.56	16.62
679.885	17.03
680.209	16.53
680.532	17.05
680.856	17.03
681.18	17.03
681.504	17.05
681.828	17.3
682.152	17.21
682.475	16.47
682.799	17.52
683.122	17.28
683.446	17.14
683.769	17.31
684.093	17.43
684.416	17.28
684.739	17.18
685.062	16.74
685.386	16.95
685.709	17.47
686.032	17.5
686.355	18.34
686.678	17.22
687.001	17.64
