Data from 0231_crown_Reflection__0__22.txt Node

Date: Fri Oct 20 20:49:53 CDT 2023
User: ToomeyLab
Spectrometer: FLMS14357
Trigger mode: 0
Integration Time (sec): 1.000000E-2
Scans to average: 100
Electric dark correction enabled: true
Nonlinearity correction enabled: false
Boxcar width: 0
XAxis mode: Wavelengths
Number of Pixels in Spectrum: 2048
>>>>>Begin Spectral Data<<<<<
189.047	171.31
189.435	171.31
189.823	171.31
190.211	-61.21
190.599	-1848.72
190.987	101.75
191.375	351.26
191.763	48.99
192.151	31.71
192.538	-59.14
192.926	159.1
193.314	93.47
193.702	35.35
194.089	37.12
194.477	238.53
194.864	14.02
195.252	-82.46
195.639	-18.17
196.027	-61.3
196.414	82.8
196.801	-28
197.189	36.61
197.576	183.17
197.963	104.67
198.351	56.66
198.738	13.81
199.125	8.85
199.512	17.63
199.899	1.13
200.286	9.04
200.673	29.59
201.06	-13.49
201.447	50.06
201.833	86.42
202.22	22.82
202.607	24.09
202.994	34.44
203.38	8.06
203.767	34.53
204.154	10.61
204.54	38.06
204.927	-4.55
205.313	12.38
205.699	29.34
206.086	-4.58
206.472	42.31
206.858	37.1
207.245	-7.75
207.631	25.24
208.017	10.98
208.403	26.4
208.789	42.16
209.175	-15.98
209.561	50.06
209.947	12.91
210.333	27.36
210.719	11.49
211.105	33.43
211.491	22.81
211.876	-24.99
212.262	18.62
212.648	-18.93
213.034	-4.39
213.419	30.04
213.805	31.44
214.19	19.17
214.576	-15.14
214.961	26.02
215.346	45.65
215.732	35.05
216.117	-20.99
216.502	12.5
216.888	13.43
217.273	-10.33
217.658	22.75
218.043	4.93
218.428	13
218.813	18.4
219.198	-0.23
219.583	-29.47
219.968	-9.01
220.353	5.09
220.738	-7.01
221.122	5.62
221.507	9.72
221.892	7.04
222.276	1.11
222.661	13.4
223.046	11.21
223.43	4.74
223.815	4.63
224.199	14.54
224.583	3.32
224.968	9.22
225.352	-1.36
225.736	3.73
226.121	5
226.505	3.22
226.889	13.86
227.273	3.81
227.657	5.13
228.041	7.33
228.425	9.14
228.809	3.15
229.193	5.02
229.577	4.75
229.961	2.08
230.344	3.49
230.728	3.16
231.112	4.37
231.495	3.63
231.879	3.5
232.263	4.78
232.646	4.13
233.03	3.72
233.413	3.42
233.797	3.64
234.18	2.86
234.563	5.55
234.946	7.06
235.33	3.16
235.713	5.43
236.096	5.13
236.479	5.08
236.862	4.71
237.245	2.58
237.628	5.11
238.011	5.59
238.394	2.48
238.777	5.59
239.16	4.1
239.543	4.73
239.925	3.71
240.308	3.91
240.691	3.77
241.073	5.79
241.456	3.47
241.838	4.68
242.221	5.3
242.603	4.6
242.986	3.83
243.368	4.3
243.75	3.69
244.133	3.29
244.515	3.79
244.897	3.41
245.279	4.34
245.661	3.49
246.043	3.24
246.425	4.19
246.807	3.69
247.189	3.23
247.571	3.04
247.953	3.87
248.335	3.85
248.717	3.2
249.098	3.32
249.48	3.39
249.862	3.56
250.243	3.77
250.625	3.53
251.006	3.61
251.388	3.48
251.769	3.85
252.151	2.9
252.532	4.12
252.913	3.02
253.295	2.34
253.676	2.82
254.057	3.23
254.438	3.6
254.819	3.41
255.2	3.41
255.581	3.82
255.962	3.57
256.343	3.94
256.724	2.43
257.105	3.83
257.486	3.71
257.867	2.61
258.247	2.47
258.628	3.26
259.009	2.41
259.389	2.81
259.77	2.89
260.15	3.09
260.531	3.77
260.911	3.48
261.292	3.34
261.672	3.22
262.052	3.31
262.432	3.25
262.813	3.19
263.193	3.68
263.573	3.6
263.953	2.89
264.333	3.12
264.713	3.7
265.093	4.06
265.473	4.01
265.853	3.03
266.233	3.47
266.612	3.5
266.992	2.91
267.372	2.57
267.752	2.78
268.131	2.82
268.511	3.22
268.89	3.33
269.27	2.94
269.649	2.65
270.029	3.4
270.408	3.56
270.787	3.16
271.167	3.45
271.546	3.4
271.925	3.76
272.304	3.11
272.683	3.18
273.062	3.48
273.441	3.22
273.82	3.38
274.199	3.59
274.578	3.08
274.957	3.14
275.336	3.13
275.715	3.39
276.093	3.42
276.472	2.91
276.851	2.9
277.229	2.89
277.608	3.24
277.986	3.23
278.365	3.35
278.743	2.85
279.122	3.1
279.5	2.95
279.878	2.7
280.257	3.15
280.635	3.32
281.013	3.21
281.391	3.69
281.769	2.9
282.147	2.88
282.525	3.09
282.903	2.97
283.281	3.68
283.659	3.06
284.037	3.23
284.415	2.55
284.792	2.93
285.17	2.84
285.548	3.02
285.925	2.94
286.303	2.5
286.68	2.91
287.058	3.35
287.435	3.03
287.813	3.02
288.19	3.22
288.567	2.94
288.945	3.06
289.322	3.29
289.699	2.91
290.076	3.72
290.453	2.69
290.83	2.49
291.207	3.36
291.584	2.81
291.961	3.04
292.338	2.96
292.715	3.31
293.092	3.02
293.469	3.04
293.845	2.69
294.222	3.03
294.599	3.01
294.975	3.81
295.352	3.16
295.728	2.92
296.105	2.91
296.481	2.95
296.858	2.8
297.234	2.63
297.61	2.67
297.986	2.61
298.363	3.2
298.739	2.8
299.115	2.83
299.491	3.13
299.867	2.81
300.243	2.77
300.619	3.06
300.995	2.95
301.371	3.18
301.746	3.26
302.122	2.94
302.498	2.89
302.874	3.39
303.249	3.1
303.625	3.4
304	3.65
304.376	2.67
304.751	2.53
305.127	2.36
305.502	3.28
305.878	2.81
306.253	3.04
306.628	3.38
307.003	2.84
307.378	3.23
307.754	2.98
308.129	3.45
308.504	3.26
308.879	3.02
309.254	2.98
309.629	2.45
310.003	2.38
310.378	2.92
310.753	3.21
311.128	3.36
311.502	2.79
311.877	3.16
312.252	2.98
312.626	3.13
313.001	3.15
313.375	2.97
313.75	2.87
314.124	2.63
314.498	3.01
314.873	2.67
315.247	3.02
315.621	2.88
315.995	3.34
316.369	2.8
316.743	3.02
317.117	3.09
317.491	2.07
317.865	3.25
318.239	2.89
318.613	2.65
318.987	3.05
319.361	2.63
319.734	2.48
320.108	2.61
320.482	2.95
320.855	3.17
321.229	3.51
321.602	2.76
321.976	2.91
322.349	3.33
322.723	2.8
323.096	2.97
323.469	3.1
323.843	2.44
324.216	3.12
324.589	2.66
324.962	3.59
325.335	3.04
325.708	2.58
326.081	3.3
326.454	2.75
326.827	2.95
327.2	2.64
327.573	3.29
327.945	2.81
328.318	2.67
328.691	3.16
329.063	3.47
329.436	2.51
329.809	3.13
330.181	3.08
330.553	2.81
330.926	3.28
331.298	2.36
331.671	2.53
332.043	2.48
332.415	3.01
332.787	2.88
333.159	2.3
333.532	2.78
333.904	2.72
334.276	2.24
334.648	3.12
335.02	3.47
335.391	2.55
335.763	2.83
336.135	3.19
336.507	2.96
336.879	3.24
337.25	3.09
337.622	3.47
337.993	3.2
338.365	2.98
338.736	2.95
339.108	3.04
339.479	2.96
339.851	2.91
340.222	2.78
340.593	2.64
340.964	3.24
341.336	3.34
341.707	3.19
342.078	2.72
342.449	2.94
342.82	2.85
343.191	2.83
343.562	3.23
343.933	3.05
344.303	3.22
344.674	3.24
345.045	3.33
345.416	3.28
345.786	2.97
346.157	2.94
346.527	3.01
346.898	2.73
347.268	2.8
347.639	3.3
348.009	2.69
348.38	3.14
348.75	2.97
349.12	3.09
349.49	2.71
349.861	3.07
350.231	2.75
350.601	3.19
350.971	3.18
351.341	3.02
351.711	3.53
352.081	3.06
352.45	2.87
352.82	3.09
353.19	3.27
353.56	3.18
353.929	2.95
354.299	3.22
354.669	2.98
355.038	3.38
355.408	3.37
355.777	3.15
356.147	3.02
356.516	2.95
356.885	3.33
357.254	3.13
357.624	2.92
357.993	2.87
358.362	3.31
358.731	2.73
359.1	2.73
359.469	2.96
359.838	3.09
360.207	3.23
360.576	3.45
360.945	2.92
361.314	3.04
361.682	2.9
362.051	2.91
362.42	2.95
362.788	3.13
363.157	3.02
363.525	2.85
363.894	3
364.262	2.96
364.631	3.17
364.999	3.16
365.367	2.87
365.735	2.67
366.104	2.87
366.472	2.89
366.84	3.22
367.208	3.16
367.576	2.79
367.944	3.24
368.312	3.07
368.68	3.17
369.048	3.3
369.416	3.37
369.783	3.43
370.151	3.05
370.519	2.92
370.886	3.21
371.254	3.46
371.621	3.32
371.989	2.78
372.356	3.06
372.724	3.32
373.091	2.9
373.458	2.8
373.826	2.91
374.193	2.98
374.56	3.03
374.927	3.18
375.294	3.06
375.661	2.81
376.028	3.36
376.395	3.22
376.762	3.08
377.129	3.09
377.496	3.05
377.863	3.34
378.229	3.29
378.596	3.32
378.963	3.17
379.329	3.09
379.696	3.1
380.062	3.34
380.429	3.2
380.795	3.1
381.161	3.17
381.528	3.25
381.894	3.2
382.26	2.99
382.626	3.41
382.993	2.93
383.359	3.16
383.725	3.11
384.091	3.13
384.457	3.19
384.823	3.05
385.188	3.13
385.554	2.93
385.92	3.12
386.286	3.32
386.651	2.88
387.017	3.44
387.383	3.32
387.748	2.96
388.114	2.87
388.479	2.95
388.845	3.33
389.21	3.15
389.575	2.83
389.94	3.03
390.306	3.19
390.671	3.06
391.036	3.32
391.401	3.25
391.766	3.09
392.131	2.97
392.496	3.21
392.861	3.01
393.226	3.23
393.591	3.05
393.956	3.22
394.32	3.35
394.685	2.94
395.05	3.45
395.414	3.39
395.779	3.11
396.143	3.21
396.508	3.07
396.872	3.27
397.236	3.15
397.601	3.15
397.965	3.06
398.329	3.03
398.694	3.25
399.058	2.96
399.422	3.32
399.786	3
400.15	3.09
400.514	3.08
400.878	3.36
401.242	3.31
401.605	3.25
401.969	3.04
402.333	3.05
402.697	3.05
403.06	3.26
403.424	3.09
403.787	3.21
404.151	3.11
404.514	3.18
404.878	3.33
405.241	3.19
405.604	3.02
405.968	3.19
406.331	3.07
406.694	3.24
407.057	3.11
407.42	3.3
407.783	3.39
408.146	3.11
408.509	3.26
408.872	3.45
409.235	3.19
409.598	3.38
409.961	3.46
410.323	3.25
410.686	3.14
411.049	3.24
411.411	3.07
411.774	3.43
412.136	3.18
412.499	3.24
412.861	3.42
413.223	3.42
413.586	2.95
413.948	3.34
414.31	3.44
414.672	3.05
415.035	3.2
415.397	3.48
415.759	3.36
416.121	3.19
416.483	3.39
416.845	3.29
417.206	3.4
417.568	3.31
417.93	3.26
418.292	3.09
418.653	3.34
419.015	2.9
419.377	3.13
419.738	3.1
420.1	3.08
420.461	3.13
420.822	3.11
421.184	3.07
421.545	3.1
421.906	3.05
422.267	3.07
422.629	3.13
422.99	3.02
423.351	3.1
423.712	3.09
424.073	3.16
424.434	3.05
424.795	3.07
425.155	3.14
425.516	3.08
425.877	3.07
426.238	3
426.598	3.13
426.959	3.03
427.32	3.11
427.68	3.13
428.041	3.11
428.401	3.2
428.761	3.19
429.122	3.28
429.482	3.23
429.842	3.25
430.202	3.13
430.563	3.27
430.923	3.31
431.283	3.1
431.643	3.24
432.003	3.16
432.363	3.16
432.722	3.14
433.082	3.13
433.442	3.33
433.802	3.41
434.161	3.1
434.521	3.23
434.881	3.31
435.24	3.15
435.6	3.23
435.959	3.15
436.319	3.18
436.678	3.34
437.037	3.21
437.396	3.33
437.756	3.35
438.115	3.08
438.474	3.21
438.833	3.35
439.192	3
439.551	3.1
439.91	3.2
440.269	3.24
440.628	3.2
440.987	3.21
441.345	3.09
441.704	3.21
442.063	3.12
442.421	3.11
442.78	3.21
443.138	3.19
443.497	3.23
443.855	3.19
444.214	3.23
444.572	3.24
444.93	3.39
445.288	3.22
445.647	3.48
446.005	3.16
446.363	3.13
446.721	3.23
447.079	3.26
447.437	3.1
447.795	3.06
448.153	3.13
448.51	3.18
448.868	3.14
449.226	3.18
449.584	3.18
449.941	3.15
450.299	3.16
450.656	3.08
451.014	3.21
451.371	3.26
451.729	3.21
452.086	3.24
452.443	3.4
452.801	3.25
453.158	3.3
453.515	3.19
453.872	3.29
454.229	3.36
454.586	3.15
454.943	3.21
455.3	3.04
455.657	3.26
456.014	3.13
456.371	3.26
456.727	3.34
457.084	3.23
457.441	3.23
457.797	3.35
458.154	3.21
458.51	3.18
458.867	3.13
459.223	3.31
459.58	3.27
459.936	3.31
460.292	3.17
460.648	3.11
461.005	3.06
461.361	3.24
461.717	3.01
462.073	3.11
462.429	3.14
462.785	3.12
463.141	3.3
463.496	3.3
463.852	3.21
464.208	3.29
464.564	3.36
464.919	3.3
465.275	3.35
465.631	3.37
465.986	3.25
466.342	3.58
466.697	3.18
467.052	3.24
467.408	3.31
467.763	3.28
468.118	3.4
468.473	3.33
468.829	3.21
469.184	3.32
469.539	3.4
469.894	3.33
470.249	3.3
470.603	3.16
470.958	3.24
471.313	3.29
471.668	3.34
472.023	3.41
472.377	3.32
472.732	3.17
473.086	3.31
473.441	3.35
473.795	3.51
474.15	3.36
474.504	3.29
474.859	3.3
475.213	3.35
475.567	3.28
475.921	3.41
476.275	3.15
476.63	3.53
476.984	3.44
477.338	3.13
477.692	3.3
478.045	3.39
478.399	3.44
478.753	3.37
479.107	3.2
479.461	3.28
479.814	3.35
480.168	3.38
480.521	3.41
480.875	3.32
481.228	3.36
481.582	3.24
481.935	3.42
482.289	3.26
482.642	3.23
482.995	3.28
483.348	3.23
483.701	3.28
484.055	3.22
484.408	3.23
484.761	3.24
485.114	3.06
485.466	3
485.819	2.99
486.172	2.91
486.525	3
486.878	3.1
487.23	3.15
487.583	3.15
487.936	3.16
488.288	3.16
488.641	3.16
488.993	3.07
489.345	3.1
489.698	3.07
490.05	3.05
490.402	3.1
490.754	3.15
491.107	3.13
491.459	3.17
491.811	3.19
492.163	3.22
492.515	3.12
492.866	3.18
493.218	3.07
493.57	3.07
493.922	3.09
494.274	3.13
494.625	3.16
494.977	3.19
495.328	3.31
495.68	3.2
496.031	3.17
496.383	3.27
496.734	3.29
497.086	3.35
497.437	3.35
497.788	3.31
498.139	3.38
498.49	3.23
498.842	3.17
499.193	3.22
499.544	3.28
499.894	3.34
500.245	3.24
500.596	3.3
500.947	3.32
501.298	3.23
501.648	3.25
501.999	3.33
502.35	3.34
502.7	3.43
503.051	3.24
503.401	3.37
503.752	3.39
504.102	3.43
504.452	3.26
504.803	3.25
505.153	3.26
505.503	3.3
505.853	3.38
506.203	3.25
506.553	3.23
506.903	3.33
507.253	3.47
507.603	3.4
507.953	3.33
508.303	3.25
508.652	3.42
509.002	3.24
509.352	3.4
509.701	3.27
510.051	3.33
510.4	3.37
510.75	3.34
511.099	3.3
511.449	3.32
511.798	3.25
512.147	3.31
512.496	3.19
512.846	3.27
513.195	3.3
513.544	3.38
513.893	3.13
514.242	3.26
514.591	3.34
514.939	3.17
515.288	3.17
515.637	3.31
515.986	3.38
516.334	3.34
516.683	3.32
517.032	3.22
517.38	3.24
517.729	3.32
518.077	3.43
518.426	3.29
518.774	3.16
519.122	3.32
519.47	3.26
519.819	3.16
520.167	3.18
520.515	3.15
520.863	3.25
521.211	3.27
521.559	3.27
521.907	3.33
522.255	3.25
522.602	3.44
522.95	3.23
523.298	3.39
523.645	3.36
523.993	3.38
524.341	3.41
524.688	3.33
525.036	3.38
525.383	3.24
525.73	3.39
526.078	3.31
526.425	3.28
526.772	3.2
527.119	3.28
527.466	3.24
527.814	3.22
528.161	3.24
528.508	3.17
528.854	3.26
529.201	3.15
529.548	3.28
529.895	3.2
530.242	3.12
530.588	3.05
530.935	3.04
531.282	3.12
531.628	3.18
531.975	3.16
532.321	3.25
532.667	3.26
533.014	3.3
533.36	3.26
533.706	3.3
534.052	3.24
534.399	3.13
534.745	3.1
535.091	3.17
535.437	3.16
535.783	3.11
536.129	3.28
536.474	3.24
536.82	3.3
537.166	3.23
537.512	3.4
537.857	3.26
538.203	3.21
538.549	3.29
538.894	3.22
539.239	3.19
539.585	3.28
539.93	3.32
540.276	3.39
540.621	3.41
540.966	3.34
541.311	3.37
541.656	3.31
542.001	3.41
542.346	3.36
542.691	3.14
543.036	3.21
543.381	3.1
543.726	3.13
544.071	3.19
544.415	3.23
544.76	3.22
545.105	3.31
545.449	3.22
545.794	3.27
546.138	3.23
546.483	3.25
546.827	3.27
547.171	3.39
547.516	3.22
547.86	3.29
548.204	3.16
548.548	3.27
548.892	3.19
549.236	3.33
549.58	3.2
549.924	3.27
550.268	3.25
550.612	3.37
550.956	3.42
551.3	3.4
551.643	3.39
551.987	3.46
552.33	3.4
552.674	3.24
553.017	3.4
553.361	3.39
553.704	3.55
554.048	3.34
554.391	3.26
554.734	3.43
555.077	3.27
555.42	3.26
555.764	3.19
556.107	3.42
556.45	3.23
556.793	3.26
557.135	3.21
557.478	3.29
557.821	3.37
558.164	3.44
558.507	3.61
558.849	3.53
559.192	3.31
559.534	3.51
559.877	3.29
560.219	3.6
560.562	3.36
560.904	3.25
561.246	3.44
561.589	3.24
561.931	3.44
562.273	3.47
562.615	3.66
562.957	3.42
563.299	3.32
563.641	3.56
563.983	3.33
564.325	3.38
564.667	3.42
565.008	3.53
565.35	3.38
565.692	3.37
566.033	3.34
566.375	3.4
566.716	3.35
567.058	3.43
567.399	3.36
567.741	3.4
568.082	3.47
568.423	3.33
568.764	3.16
569.105	3.43
569.447	3.38
569.788	3.4
570.129	3.51
570.47	3.38
570.811	3.64
571.151	3.36
571.492	3.49
571.833	3.63
572.174	3.36
572.514	3.39
572.855	3.33
573.195	3.54
573.536	3.42
573.876	3.5
574.217	3.22
574.557	3.38
574.898	3.31
575.238	3.34
575.578	3.36
575.918	3.3
576.258	3.42
576.598	3.49
576.938	3.42
577.278	3.52
577.618	3.29
577.958	3.53
578.298	3.36
578.638	3.51
578.977	3.39
579.317	3.3
579.657	3.35
579.996	3.57
580.336	3.57
580.675	3.62
581.014	3.44
581.354	3.4
581.693	3.44
582.032	3.58
582.372	3.46
582.711	3.4
583.05	3.53
583.389	3.72
583.728	3.54
584.067	3.63
584.406	3.57
584.745	3.78
585.083	3.4
585.422	3.49
585.761	3.36
586.1	3.39
586.438	3.33
586.777	3.72
587.115	3.43
587.454	3.49
587.792	3.48
588.13	3.66
588.469	3.57
588.807	3.13
589.145	3.6
589.483	3.23
589.821	3.4
590.159	3.45
590.497	3.43
590.835	3.57
591.173	3.64
591.511	3.45
591.849	3.31
592.187	3.58
592.524	3.26
592.862	3.48
593.2	3.56
593.537	3.33
593.875	3.4
594.212	3.77
594.55	3.67
594.887	3.69
595.224	3.41
595.561	3.43
595.899	3.56
596.236	3.5
596.573	3.55
596.91	3.56
597.247	3.54
597.584	3.41
597.921	3.48
598.258	3.56
598.594	3.56
598.931	3.37
599.268	3.37
599.604	3.36
599.941	3.45
600.277	3.36
600.614	3.53
600.95	3.49
601.287	3.53
601.623	3.64
601.959	3.61
602.296	3.55
602.632	3.53
602.968	3.32
603.304	3.7
603.64	3.42
603.976	3.6
604.312	3.62
604.648	3.58
604.984	3.52
605.319	3.45
605.655	3.36
605.991	3.34
606.326	3.36
606.662	3.2
606.998	3.29
607.333	3.42
607.668	3.14
608.004	3.56
608.339	3.36
608.674	3.62
609.01	3.48
609.345	3.59
609.68	3.64
610.015	3.14
610.35	3.84
610.685	3.38
611.02	3.5
611.355	3.33
611.689	3.3
612.024	3.57
612.359	3.48
612.694	3.43
613.028	3.64
613.363	3.59
613.697	3.47
614.032	3.73
614.366	3.68
614.7	3.55
615.035	3.73
615.369	3.48
615.703	3.14
616.037	3.84
616.371	3.74
616.705	3.55
617.039	3.3
617.373	3.58
617.707	3.65
618.041	3.48
618.375	3.46
618.709	3.68
619.042	4.03
619.376	3.96
619.71	3.59
620.043	3.9
620.377	3.6
620.71	3.67
621.043	3.86
621.377	3.57
621.71	3.66
622.043	3.74
622.376	3.76
622.709	3.73
623.043	3.35
623.376	3.47
623.709	3.19
624.041	3.57
624.374	3.87
624.707	3.64
625.04	3.84
625.373	4.02
625.705	3.36
626.038	3.85
626.37	3.32
626.703	3.49
627.035	3.12
627.368	3.56
627.7	3.89
628.032	3.52
628.365	3.74
628.697	3.6
629.029	3.59
629.361	3.74
629.693	3.44
630.025	3.59
630.357	3.63
630.689	3.51
631.021	3.86
631.353	3.85
631.684	3.46
632.016	3.69
632.348	3.5
632.679	3.52
633.011	3.63
633.342	3.58
633.674	3.71
634.005	3.87
634.336	4.2
634.668	3.35
634.999	3.49
635.33	3.17
635.661	3.68
635.992	3.85
636.323	3.71
636.654	3.5
636.985	3.54
637.316	3.73
637.647	3.57
637.977	3.52
638.308	3.5
638.639	3.54
638.969	3.92
639.3	3.53
639.63	3.58
639.961	3.41
640.291	3.47
640.622	3.68
640.952	3.9
641.282	3.51
641.612	3.81
641.943	3.83
642.273	3.53
642.603	3.85
642.933	3.49
643.263	4.14
643.592	3.62
643.922	4.12
644.252	3.56
644.582	3.61
644.911	4.2
645.241	4.36
645.571	3.98
645.9	3.58
646.23	3.74
646.559	3.51
646.888	4.06
647.218	3.74
647.547	3.41
647.876	3.47
648.205	3.76
648.534	3.98
648.863	3.56
649.192	3.42
649.521	3.77
649.85	3.67
650.179	3.52
650.508	3.72
650.837	4.16
651.165	4.07
651.494	3.1
651.822	3.76
652.151	4.28
652.479	3.54
652.808	3.95
653.136	3.81
653.465	4.02
653.793	3.88
654.121	4.26
654.449	3.64
654.777	3.48
655.105	3.8
655.433	4.24
655.761	4.06
656.089	4.1
656.417	3.74
656.745	3.76
657.073	3.93
657.4	4.59
657.728	4.16
658.056	4.43
658.383	4.05
658.711	3.89
659.038	4.31
659.365	4.26
659.693	4.49
660.02	3.88
660.347	3.62
660.674	3.83
661.001	3.59
661.329	3.68
661.656	3.78
661.982	3.66
662.309	3.89
662.636	3.72
662.963	3.78
663.29	3.87
663.616	4.11
663.943	3.31
664.27	3.51
664.596	4.12
664.923	3.56
665.249	3.92
665.576	4.07
665.902	3.54
666.228	3.95
666.554	4.13
666.881	3.95
667.207	4.26
667.533	4.01
667.859	4.3
668.185	4.11
668.511	4.22
668.837	4.24
669.162	4.15
669.488	3.99
669.814	3.86
670.139	3.95
670.465	3.35
670.791	4.26
671.116	3.53
671.442	3.95
671.767	3.79
672.092	4.22
672.418	4.17
672.743	3.98
673.068	4.01
673.393	3.88
673.718	3.46
674.043	3.87
674.368	3.87
674.693	3.86
675.018	4.57
675.343	3.84
675.667	3.77
675.992	4.32
676.317	4.22
676.641	3.97
676.966	4.47
677.29	3.85
677.615	4.29
677.939	3.57
678.264	4.33
678.588	3.62
678.912	4.18
679.236	3.58
679.56	4.06
679.885	4.51
680.209	3.95
680.532	4.07
680.856	3.57
681.18	4
681.504	4.12
681.828	3.92
682.152	4.29
682.475	3.58
682.799	4.34
683.122	3.9
683.446	4.51
683.769	4
684.093	4.67
684.416	4.03
684.739	4.04
685.062	3.47
685.386	3.89
685.709	4.38
686.032	3.59
686.355	4.6
686.678	4.17
687.001	4.19
687.324	3.77
687.646	4.14
687.969	4.58
688.292	4.65
688.614	4.14
688.937	4.66
689.26	3.95
689.582	3.84
689.904	3.81
690.227	4.44
690.549	4.62
690.871	4.66
691.194	5.1
691.516	4.31
691.838	4.83
692.16	4.54
692.482	4.07
692.804	3.94
