Data from 0231_forehead_Reflection__3__30.txt Node

Date: Fri Oct 20 20:53:24 CDT 2023
User: ToomeyLab
Spectrometer: FLMS14357
Trigger mode: 0
Integration Time (sec): 1.000000E-2
Scans to average: 100
Electric dark correction enabled: true
Nonlinearity correction enabled: false
Boxcar width: 0
XAxis mode: Wavelengths
Number of Pixels in Spectrum: 2048
>>>>>Begin Spectral Data<<<<<
189.047	127.42
189.435	127.42
189.823	127.42
190.211	18.74
190.599	-242.31
190.987	-170.09
191.375	252.17
191.763	176.67
192.151	-852.44
192.538	-672.58
192.926	-8.65
193.314	79.01
193.702	138.04
194.089	60.25
194.477	203.25
194.864	66.99
195.252	66.59
195.639	-87.86
196.027	78.95
196.414	135.83
196.801	33.56
197.189	133.05
197.576	166.83
197.963	22.7
198.351	39.47
198.738	26.99
199.125	44.71
199.512	53.07
199.899	59.87
200.286	22.82
200.673	50.22
201.06	31.07
201.447	20.45
201.833	51.38
202.22	48.03
202.607	29.09
202.994	46.42
203.38	20.3
203.767	43.49
204.154	41.55
204.54	54.21
204.927	48.8
205.313	77.68
205.699	40.13
206.086	0.38
206.472	56.22
206.858	43.44
207.245	-16.99
207.631	27.29
208.017	22.79
208.403	-0.89
208.789	59.99
209.175	25.14
209.561	14.67
209.947	23.08
210.333	24.35
210.719	6.92
211.105	48.09
211.491	45.45
211.876	13.55
212.262	44.82
212.648	56.71
213.034	15.73
213.419	46.96
213.805	28.89
214.19	26.31
214.576	14.36
214.961	50
215.346	43.92
215.732	26.54
216.117	25.76
216.502	25.7
216.888	19.4
217.273	14.87
217.658	9.89
218.043	33.53
218.428	22.33
218.813	22.15
219.198	-6.7
219.583	-5.11
219.968	2.25
220.353	28.2
220.738	28.13
221.122	17.95
221.507	12.72
221.892	14.14
222.276	22.14
222.661	21.67
223.046	23.53
223.43	19.18
223.815	26.43
224.199	31.34
224.583	4.56
224.968	3.89
225.352	-0.05
225.736	9.43
226.121	19.88
226.505	12.03
226.889	18.85
227.273	10.65
227.657	14.67
228.041	11.59
228.425	7.29
228.809	9.21
229.193	5.31
229.577	7.22
229.961	4.04
230.344	5.17
230.728	4.87
231.112	5.15
231.495	4.14
231.879	5.81
232.263	6.48
232.646	3.33
233.03	5.57
233.413	4.49
233.797	4.05
234.18	5.84
234.563	10.84
234.946	5.27
235.33	8.1
235.713	5.42
236.096	7.14
236.479	6.03
236.862	5.08
237.245	4.54
237.628	4.95
238.011	6.63
238.394	4.82
238.777	7.42
239.16	6.49
239.543	8.61
239.925	8.54
240.308	6.53
240.691	4.78
241.073	8.19
241.456	6.06
241.838	6.56
242.221	6.43
242.603	6.87
242.986	5.28
243.368	5.48
243.75	4.6
244.133	4.2
244.515	4.51
244.897	4.76
245.279	5.36
245.661	4.4
246.043	4.69
246.425	4.82
246.807	3.86
247.189	5.76
247.571	4.24
247.953	4.87
248.335	5.13
248.717	4.69
249.098	4.39
249.48	4.55
249.862	5.06
250.243	5
250.625	4.89
251.006	5.27
251.388	5.01
251.769	6.07
252.151	4.9
252.532	6.47
252.913	5.62
253.295	4.14
253.676	5.02
254.057	5.04
254.438	4.92
254.819	5.38
255.2	4.86
255.581	5.33
255.962	6.11
256.343	6.21
256.724	3.62
257.105	5.17
257.486	6.48
257.867	5.28
258.247	4.78
258.628	5.67
259.009	4.95
259.389	4.31
259.77	5.34
260.15	5.65
260.531	5.46
260.911	5.54
261.292	4.73
261.672	5.1
262.052	4.91
262.432	4.67
262.813	5.21
263.193	5.45
263.573	4.96
263.953	5.11
264.333	5.68
264.713	5.61
265.093	5.93
265.473	4.97
265.853	5.06
266.233	5.58
266.612	4.9
266.992	6.51
267.372	5.04
267.752	5.3
268.131	5.23
268.511	5.21
268.89	5.18
269.27	4.73
269.649	4.64
270.029	4.72
270.408	5.47
270.787	5.5
271.167	5.09
271.546	5.23
271.925	5.7
272.304	5.78
272.683	5.17
273.062	5.17
273.441	5.21
273.82	5.25
274.199	4.73
274.578	4.76
274.957	5.09
275.336	5.27
275.715	5.07
276.093	5.43
276.472	5.16
276.851	5.7
277.229	5.72
277.608	4.57
277.986	5.1
278.365	5.46
278.743	4.8
279.122	4.81
279.5	5.14
279.878	4.61
280.257	4.54
280.635	5.46
281.013	5.19
281.391	5.34
281.769	4.97
282.147	4.86
282.525	5.3
282.903	5.01
283.281	5.29
283.659	4.93
284.037	5.03
284.415	4.84
284.792	4.63
285.17	5.18
285.548	5.38
285.925	4.59
286.303	5.1
286.68	4.96
287.058	5.41
287.435	5.14
287.813	4.76
288.19	5.07
288.567	5.13
288.945	5.19
289.322	5.64
289.699	4.55
290.076	5.66
290.453	4.95
290.83	5.42
291.207	5.84
291.584	4.99
291.961	5.1
292.338	5.23
292.715	5.33
293.092	5.54
293.469	5.82
293.845	5.61
294.222	5.83
294.599	5.52
294.975	6.54
295.352	5.65
295.728	6.25
296.105	5.83
296.481	5.66
296.858	6.04
297.234	5.85
297.61	5.21
297.986	5.11
298.363	5.64
298.739	5.69
299.115	5.54
299.491	5.52
299.867	5.92
300.243	5.9
300.619	6.1
300.995	5.95
301.371	6.54
301.746	6.31
302.122	6.23
302.498	5.8
302.874	6.07
303.249	5.92
303.625	6.54
304	6.52
304.376	6.29
304.751	6.1
305.127	5.93
305.502	6.75
305.878	6.48
306.253	6.86
306.628	6.65
307.003	6.78
307.378	7.05
307.754	6.51
308.129	7.29
308.504	6.7
308.879	7.19
309.254	7.16
309.629	6.33
310.003	6.41
310.378	7.08
310.753	7.24
311.128	7.47
311.502	7.09
311.877	7.26
312.252	7.09
312.626	7.05
313.001	7.14
313.375	7.03
313.75	7.4
314.124	7.07
314.498	7.3
314.873	7.23
315.247	7.83
315.621	8.23
315.995	7.83
316.369	7.37
316.743	8.09
317.117	7.62
317.491	6.85
317.865	8.22
318.239	8.53
318.613	8.14
318.987	7.69
319.361	7.6
319.734	7.53
320.108	7.59
320.482	8.09
320.855	8.37
321.229	8.49
321.602	8.26
321.976	8.28
322.349	9.06
322.723	8.15
323.096	8.13
323.469	8.27
323.843	8.42
324.216	8.89
324.589	8.51
324.962	8.92
325.335	8.51
325.708	8.61
326.081	8.81
326.454	8.55
326.827	8.79
327.2	9.33
327.573	9.42
327.945	8.7
328.318	8.54
328.691	8.69
329.063	8.99
329.436	8.75
329.809	9.21
330.181	9.28
330.553	9.51
330.926	8.91
331.298	9.18
331.671	8.4
332.043	8.54
332.415	9.21
332.787	9.22
333.159	8.92
333.532	9.69
333.904	9.74
334.276	8.9
334.648	9.23
335.02	9.7
335.391	9.15
335.763	9.45
336.135	8.96
336.507	10.01
336.879	9.74
337.25	9.75
337.622	9.46
337.993	9.99
338.365	9.63
338.736	9.93
339.108	10.44
339.479	9.71
339.851	9.8
340.222	9.56
340.593	9.3
340.964	10.09
341.336	10.17
341.707	9.78
342.078	10.02
342.449	9.84
342.82	10.03
343.191	9.89
343.562	10.09
343.933	9.96
344.303	10.06
344.674	10.32
345.045	10.6
345.416	10.44
345.786	10.26
346.157	10.65
346.527	10.29
346.898	10.15
347.268	10.53
347.639	10.44
348.009	10.45
348.38	10.43
348.75	10.49
349.12	10.58
349.49	10.65
349.861	10.42
350.231	10.58
350.601	10.64
350.971	10.98
351.341	10.9
351.711	11.16
352.081	10.83
352.45	10.89
352.82	11.11
353.19	11.12
353.56	10.85
353.929	11.09
354.299	10.81
354.669	11.15
355.038	10.93
355.408	11.12
355.777	10.89
356.147	11.04
356.516	11.58
356.885	11.31
357.254	11.15
357.624	11.06
357.993	10.98
358.362	11.42
358.731	10.87
359.1	10.9
359.469	11.27
359.838	11.06
360.207	11.01
360.576	11.34
360.945	11.1
361.314	11.4
361.682	11.31
362.051	11.34
362.42	11.12
362.788	11.54
363.157	11.45
363.525	11.16
363.894	11.5
364.262	11.41
364.631	11.68
364.999	11.38
365.367	11.67
365.735	11.6
366.104	12.01
366.472	11.82
366.84	11.93
367.208	12.13
367.576	11.9
367.944	12.28
368.312	11.9
368.68	12.05
369.048	12.04
369.416	12.63
369.783	12.36
370.151	12.2
370.519	11.92
370.886	12.45
371.254	12.76
371.621	12.81
371.989	11.8
372.356	12.17
372.724	12.48
373.091	12.27
373.458	12.42
373.826	12.57
374.193	12.35
374.56	12.58
374.927	12.57
375.294	12.84
375.661	12.76
376.028	12.65
376.395	12.73
376.762	12.44
377.129	12.64
377.496	12.95
377.863	12.96
378.229	13.18
378.596	13.21
378.963	12.92
379.329	13.08
379.696	13.13
380.062	12.85
380.429	12.78
380.795	12.89
381.161	12.86
381.528	13.22
381.894	13.29
382.26	13.25
382.626	13.43
382.993	13.4
383.359	13.08
383.725	13.58
384.091	13.34
384.457	13.56
384.823	13.54
385.188	13.98
385.554	13.34
385.92	13.37
386.286	13.73
386.651	13.57
387.017	13.45
387.383	13.4
387.748	13.29
388.114	13.38
388.479	13.68
388.845	13.79
389.21	13.58
389.575	13.49
389.94	13.44
390.306	13.9
390.671	13.67
391.036	13.91
391.401	13.99
391.766	14.21
392.131	13.82
392.496	14.19
392.861	13.99
393.226	14
393.591	13.73
393.956	13.89
394.32	14.15
394.685	13.96
395.05	14.44
395.414	14.27
395.779	14.01
396.143	14.17
396.508	14.4
396.872	14.35
397.236	14.38
397.601	14.48
397.965	14.15
398.329	14.49
398.694	14.68
399.058	14.37
399.422	14.54
399.786	14.72
400.15	14.7
400.514	14.32
400.878	14.74
401.242	14.85
401.605	14.59
401.969	14.59
402.333	14.78
402.697	14.88
403.06	14.81
403.424	14.64
403.787	14.95
404.151	15.07
404.514	15.12
404.878	15.06
405.241	14.97
405.604	14.91
405.968	14.87
406.331	14.86
406.694	14.85
407.057	15.16
407.42	15.42
407.783	15.16
408.146	15.01
408.509	15.13
408.872	15.35
409.235	15.1
409.598	15.3
409.961	15.52
410.323	15.54
410.686	15.2
411.049	15.35
411.411	15.39
411.774	15.33
412.136	15.15
412.499	15.55
412.861	15.57
413.223	15.53
413.586	15.62
413.948	15.93
414.31	16
414.672	15.52
415.035	15.67
415.397	16.02
415.759	15.96
416.121	15.94
416.483	15.94
416.845	15.77
417.206	15.89
417.568	15.81
417.93	15.78
418.292	15.75
418.653	16.03
419.015	15.75
419.377	15.86
419.738	15.81
420.1	15.69
420.461	15.88
420.822	15.77
421.184	15.87
421.545	15.89
421.906	15.84
422.267	15.86
422.629	15.85
422.99	15.83
423.351	16.04
423.712	15.94
424.073	16.02
424.434	16.02
424.795	16.08
425.155	16.1
425.516	16.03
425.877	16.11
426.238	15.98
426.598	16.08
426.959	16.15
427.32	16.22
427.68	16.46
428.041	16.47
428.401	16.67
428.761	16.6
429.122	16.69
429.482	16.72
429.842	16.9
430.202	16.83
430.563	16.93
430.923	17.08
431.283	16.96
431.643	17.07
432.003	17.01
432.363	17.05
432.722	17.25
433.082	17.01
433.442	17.05
433.802	17.06
434.161	17.08
434.521	17.21
434.881	17.16
435.24	17.13
435.6	17
435.959	17.18
436.319	17.28
436.678	17.33
437.037	17.24
437.396	17.53
437.756	17.6
438.115	17.46
438.474	17.43
438.833	17.68
439.192	17.53
439.551	17.5
439.91	17.49
440.269	17.5
440.628	17.58
440.987	17.55
441.345	17.61
441.704	17.69
442.063	17.57
442.421	17.54
442.78	17.59
443.138	17.65
443.497	17.89
443.855	17.84
444.214	17.83
444.572	17.92
444.93	18.09
445.288	18.01
445.647	18.25
446.005	18.02
446.363	18.19
446.721	17.97
447.079	18.18
447.437	18.1
447.795	17.9
448.153	17.93
448.51	17.87
448.868	17.88
449.226	17.91
449.584	18.15
449.941	18.11
450.299	18.4
450.656	18.34
451.014	18.65
451.371	18.54
451.729	18.75
452.086	18.81
452.443	18.72
452.801	18.8
453.158	18.89
453.515	18.84
453.872	18.85
454.229	18.84
454.586	18.92
454.943	18.89
455.3	18.81
455.657	18.94
456.014	19.08
456.371	19.05
456.727	19.09
457.084	18.99
457.441	19.35
457.797	19.28
458.154	19.17
458.51	19.25
458.867	19.03
459.223	19.33
459.58	19.43
459.936	19.21
460.292	19.43
460.648	19.26
461.005	19.18
461.361	19.21
461.717	18.86
462.073	18.98
462.429	19.16
462.785	19.29
463.141	19.47
463.496	19.55
463.852	19.58
464.208	19.65
464.564	19.86
464.919	19.91
465.275	20.08
465.631	20.18
465.986	20.14
466.342	20.25
466.697	20.14
467.052	19.94
467.408	20.26
467.763	20.17
468.118	20.46
468.473	20.21
468.829	20.21
469.184	20.24
469.539	20.25
469.894	20.33
470.249	20.16
470.603	20.25
470.958	20.53
471.313	20.5
471.668	20.57
472.023	20.6
472.377	20.61
472.732	20.6
473.086	20.8
473.441	20.74
473.795	20.84
474.15	20.73
474.504	20.64
474.859	20.67
475.213	20.89
475.567	21.02
475.921	20.91
476.275	20.88
476.63	21.29
476.984	21.13
477.338	21.06
477.692	21.21
478.045	21.15
478.399	21.07
478.753	21.05
479.107	21.14
479.461	21.07
479.814	21.2
480.168	21.27
480.521	21.28
480.875	21.36
481.228	21.28
481.582	21.48
481.935	21.45
482.289	21.29
482.642	21.27
482.995	21.32
483.348	21.38
483.701	21.35
484.055	21.25
484.408	21.17
484.761	20.97
485.114	20.76
485.466	20.35
485.819	20.24
486.172	20.32
486.525	20.62
486.878	20.91
487.23	21.08
487.583	21.21
487.936	21.31
488.288	21.41
488.641	21.23
488.993	21.07
489.345	21.03
489.698	20.92
490.05	21.14
490.402	21.19
490.754	21.33
491.107	21.54
491.459	21.72
491.811	21.98
492.163	22.03
492.515	21.94
492.866	21.93
493.218	21.71
493.57	21.37
493.922	21.42
494.274	21.71
494.625	21.98
494.977	22.2
495.328	22.42
495.68	22.59
496.031	22.6
496.383	22.64
496.734	22.82
497.086	22.84
497.437	22.91
497.788	22.77
498.139	22.88
498.49	22.82
498.842	22.8
499.193	22.76
499.544	22.86
499.894	22.93
500.245	22.96
500.596	23.14
500.947	23.08
501.298	23.17
501.648	23.14
501.999	23.41
502.35	23.53
502.7	23.53
503.051	23.42
503.401	23.54
503.752	23.6
504.102	23.74
504.452	23.53
504.803	23.7
505.153	23.82
505.503	23.85
505.853	23.88
506.203	23.78
506.553	23.59
506.903	23.9
507.253	23.93
507.603	23.98
507.953	24.08
508.303	24.01
508.652	24.1
509.002	24.17
509.352	24.13
509.701	24.11
510.051	24.03
510.4	24.24
510.75	24.02
511.099	24.23
511.449	24.19
511.798	24.35
512.147	24.31
512.496	24.35
512.846	24.36
513.195	24.38
513.544	24.5
513.893	24.34
514.242	24.47
514.591	24.62
514.939	24.64
515.288	24.74
515.637	24.82
515.986	24.99
516.334	25.02
516.683	25
517.032	24.74
517.38	24.94
517.729	25.23
518.077	25.22
518.426	25.04
518.774	25.1
519.122	25.11
519.47	24.95
519.819	24.9
520.167	24.84
520.515	24.87
520.863	24.88
521.211	24.91
521.559	25.1
521.907	25.23
522.255	25.34
522.602	25.49
522.95	25.48
523.298	25.68
523.645	25.61
523.993	25.65
524.341	25.88
524.688	25.95
525.036	25.89
525.383	25.93
525.73	26.17
526.078	25.96
526.425	25.92
526.772	25.77
527.119	25.69
527.466	25.46
527.814	25.51
528.161	25.8
528.508	25.75
528.854	25.7
529.201	25.73
529.548	25.67
529.895	25.5
530.242	25.18
530.588	25.01
530.935	25.27
531.282	25.62
531.628	25.66
531.975	25.8
532.321	26.02
532.667	26.1
533.014	26.34
533.36	26.45
533.706	26.55
534.052	26.48
534.399	26.39
534.745	26.25
535.091	25.9
535.437	25.98
535.783	26.25
536.129	26.33
536.474	26.5
536.82	26.87
537.166	26.94
537.512	27.25
537.857	27.16
538.203	26.87
538.549	26.77
538.894	26.84
539.239	27.01
539.585	27.11
539.93	27.27
540.276	27.5
540.621	27.66
540.966	27.77
541.311	27.7
541.656	27.83
542.001	27.69
542.346	27.38
542.691	27.18
543.036	26.9
543.381	26.73
543.726	26.95
544.071	27.23
544.415	27.38
544.76	27.43
545.105	27.69
545.449	27.59
545.794	27.9
546.138	27.93
546.483	28.1
546.827	28.23
547.171	28.3
547.516	28.36
547.86	28.39
548.204	28.24
548.548	28.21
548.892	28.07
549.236	28.27
549.58	28.55
549.924	28.78
550.268	28.97
550.612	28.96
550.956	29.08
551.3	29.28
551.643	29.33
551.987	29.19
552.33	29.24
552.674	29.42
553.017	29.63
553.361	29.39
553.704	29.57
554.048	29.63
554.391	29.4
554.734	29.55
555.077	29.41
555.42	29.36
555.764	29.55
556.107	29.86
556.45	29.76
556.793	29.93
557.135	30.07
557.478	29.94
557.821	30.11
558.164	30.17
558.507	30.46
558.849	30.17
559.192	30.25
559.534	30.46
559.877	30.3
560.219	30.49
560.562	30.57
560.904	30.54
561.246	30.46
561.589	30.8
561.931	30.84
562.273	30.77
562.615	30.89
562.957	30.59
563.299	30.71
563.641	30.88
563.983	30.56
564.325	30.76
564.667	30.8
565.008	30.88
565.35	31.09
565.692	30.83
566.033	31.2
566.375	31.26
566.716	31.28
567.058	31.07
567.399	31.4
567.741	30.98
568.082	31.15
568.423	31.28
568.764	31.07
569.105	31.39
569.447	31.45
569.788	31.49
570.129	31.33
570.47	31.68
570.811	31.68
571.151	31.69
571.492	31.89
571.833	31.86
572.174	31.85
572.514	32.16
572.855	31.75
573.195	31.69
573.536	31.51
573.876	31.88
574.217	31.76
574.557	31.71
574.898	31.88
575.238	32.14
575.578	32.3
575.918	32.07
576.258	32.18
576.598	32.5
576.938	32.48
577.278	32.39
577.618	32.11
577.958	32.26
578.298	32.61
578.638	32.5
578.977	32.83
579.317	32.87
579.657	32.83
579.996	33.08
580.336	32.87
580.675	32.94
581.014	32.91
581.354	33.13
581.693	33.44
582.032	33.2
582.372	33.68
582.711	33.53
583.05	33.7
583.389	33.46
583.728	33.61
584.067	33.46
584.406	33.9
584.745	33.76
585.083	33.45
585.422	33.79
585.761	33.9
586.1	34.22
586.438	33.72
586.777	33.82
587.115	34.08
587.454	34.07
587.792	33.82
588.13	34.35
588.469	34.21
588.807	34.05
589.145	34.12
589.483	34.22
589.821	34.19
590.159	34.49
590.497	34.38
590.835	34.4
591.173	34.65
591.511	34.27
591.849	34.5
592.187	34.49
592.524	34.55
592.862	34.44
593.2	34.74
593.537	34.58
593.875	34.92
594.212	35.18
594.55	34.87
594.887	35.05
595.224	34.82
595.561	34.99
595.899	35.12
596.236	35.14
596.573	34.96
596.91	35.17
597.247	35.29
597.584	35.22
597.921	35.11
598.258	35.34
598.594	35.32
598.931	34.88
599.268	34.91
599.604	35.45
599.941	35.26
600.277	35.45
600.614	35.71
600.95	35.68
601.287	35.72
601.623	36.03
601.959	36.13
602.296	35.94
602.632	35.8
602.968	35.69
603.304	36.43
603.64	35.78
603.976	36.56
604.312	36.52
604.648	36.03
604.984	36.17
605.319	35.82
605.655	35.92
605.991	35.85
606.326	35.96
606.662	35.8
606.998	35.72
607.333	35.92
607.668	36.35
608.004	36.47
608.339	36.48
608.674	36.57
609.01	36.7
609.345	37.09
609.68	37.14
610.015	36.63
610.35	36.9
610.685	37.09
611.02	36.65
611.355	36.76
611.689	36.79
612.024	36.89
612.359	36.99
612.694	37.07
613.028	37.2
613.363	37.17
613.697	37.32
614.032	37.39
614.366	37.48
614.7	37.39
615.035	37.39
615.369	37.83
615.703	37.62
616.037	37.93
616.371	37.86
616.705	37.95
617.039	37.85
617.373	38.07
617.707	38.21
618.041	38.07
618.375	37.99
618.709	37.98
619.042	38.22
619.376	38.17
619.71	38.18
620.043	38.4
620.377	38.36
620.71	38.41
621.043	38.47
621.377	38.5
621.71	38.5
622.043	38.39
622.376	38.58
622.709	38.86
623.043	38.55
623.376	38.85
623.709	38.57
624.041	38.91
624.374	39
624.707	38.75
625.04	39.06
625.373	39.43
625.705	38.75
626.038	39.06
626.37	39.17
626.703	39.08
627.035	39.19
627.368	39.14
627.7	39.15
628.032	39.25
628.365	39.02
628.697	38.66
629.029	39.09
629.361	39.35
629.693	39.34
630.025	39.71
630.357	39.61
630.689	39.36
631.021	39.56
631.353	39.89
631.684	39.75
632.016	39.81
632.348	40.1
632.679	40.2
633.011	39.82
633.342	39.77
633.674	40.03
634.005	40.1
634.336	40.37
634.668	39.87
634.999	40.09
635.33	39.98
635.661	40.42
635.992	39.9
636.323	40.4
636.654	40.42
636.985	40.28
637.316	40.49
637.647	40.7
637.977	40.34
638.308	40.64
638.639	40.63
638.969	40.53
639.3	40.77
639.63	40.66
639.961	41.06
640.291	41.3
640.622	40.98
640.952	40.86
641.282	40.95
641.612	41.26
641.943	40.68
642.273	41.15
642.603	41.39
642.933	41.12
643.263	41.25
643.592	41.28
643.922	41.19
644.252	41.92
644.582	41.53
644.911	41.39
645.241	41.32
645.571	41.72
645.9	40.92
646.23	41.84
646.559	41.28
646.888	41.93
647.218	41.37
647.547	41.31
647.876	42.28
648.205	42.26
648.534	42.38
648.863	41.72
649.192	41.69
649.521	41.49
649.85	42.03
650.179	42.16
650.508	41.94
650.837	42.16
651.165	41.71
651.494	42.25
651.822	42.08
652.151	42.51
652.479	42.48
652.808	42.29
653.136	42.29
653.465	42.85
653.793	42.39
654.121	42.42
654.449	42.65
654.777	43
655.105	42.57
655.433	42.91
655.761	42.95
656.089	43.25
656.417	42.99
656.745	43.3
657.073	43.31
657.4	43.42
657.728	42.77
658.056	42.45
658.383	43.54
658.711	43.42
659.038	43.29
659.365	43.14
659.693	43.27
660.02	43.25
660.347	43.11
660.674	43.37
661.001	43.07
661.329	43.37
661.656	42.88
661.982	43.3
662.309	43.88
662.636	43.95
662.963	43.84
663.29	44.22
663.616	44.19
663.943	43.53
664.27	43.99
664.596	44.17
664.923	44.2
665.249	43.84
665.576	44.09
665.902	43.43
666.228	44.09
666.554	44.17
666.881	44.71
667.207	44.66
667.533	44.31
667.859	44.25
668.185	44.56
668.511	44.83
668.837	45.31
669.162	44.59
669.488	44.6
669.814	44.05
670.139	44.6
670.465	44.41
