Data from 0087_forehead_Reflection__3__018.txt Node

Date: Mon Aug 28 18:47:30 CDT 2023
User: ToomeyLab
Spectrometer: FLMS14357
Trigger mode: 0
Integration Time (sec): 1.000000E-2
Scans to average: 100
Electric dark correction enabled: true
Nonlinearity correction enabled: false
Boxcar width: 0
XAxis mode: Wavelengths
Number of Pixels in Spectrum: 2048
>>>>>Begin Spectral Data<<<<<
189.047	108.81
189.435	108.81
189.823	108.81
190.211	-9595.35
190.599	-0.12
190.987	88.75
191.375	-4.73
191.763	74.28
192.151	-158.01
192.538	47.82
192.926	-102.38
193.314	1203.16
193.702	-1.29
194.089	72.54
194.477	637.65
194.864	-295.93
195.252	135.09
195.639	-1218.8
196.027	80.55
196.414	301.27
196.801	-55.47
197.189	214.4
197.576	74.2
197.963	-77.28
198.351	31.78
198.738	45.53
199.125	24.39
199.512	66.59
199.899	-26.42
200.286	106.43
200.673	28.9
201.06	23.33
201.447	-67.4
201.833	-23.54
202.22	25.64
202.607	37.84
202.994	46.62
203.38	31.08
203.767	47.22
204.154	19.67
204.54	-17.81
204.927	2.26
205.313	42
205.699	10.3
206.086	60.87
206.472	-20.32
206.858	-9.4
207.245	35.3
207.631	22.79
208.017	7.74
208.403	12.71
208.789	11.7
209.175	-15.11
209.561	26.01
209.947	-1.76
210.333	-2.55
210.719	-1.13
211.105	56.92
211.491	32.62
211.876	12.22
212.262	30.8
212.648	40.7
213.034	41.55
213.419	21.05
213.805	30.72
214.19	10.05
214.576	40.07
214.961	-15.92
215.346	-18.57
215.732	21.33
216.117	-9.78
216.502	-27.63
216.888	-14.1
217.273	-0.3
217.658	41.63
218.043	-12.11
218.428	43.33
218.813	10.21
219.198	16.98
219.583	21.66
219.968	20.76
220.353	-4.9
220.738	4.68
221.122	25.02
221.507	17.83
221.892	-1.4
222.276	-0.52
222.661	7.99
223.046	6.14
223.43	15.7
223.815	13.59
224.199	13.32
224.583	-8.75
224.968	12.06
225.352	8.59
225.736	11.13
226.121	16.74
226.505	8.45
226.889	15.53
227.273	11.93
227.657	5.77
228.041	12.85
228.425	4.36
228.809	10.61
229.193	7.06
229.577	6.14
229.961	5.56
230.344	5.52
230.728	4.98
231.112	4.02
231.495	5.22
231.879	3.89
232.263	5.11
232.646	6.04
233.03	5.76
233.413	6.03
233.797	5.21
234.18	5.76
234.563	0.93
234.946	7.6
235.33	4.53
235.713	3.39
236.096	6.04
236.479	4.58
236.862	7.22
237.245	5.04
237.628	5.88
238.011	6.02
238.394	6.15
238.777	5.77
239.16	2.54
239.543	3.93
239.925	6.07
240.308	3.89
240.691	5
241.073	2.98
241.456	5.98
241.838	4.84
242.221	7.52
242.603	4.8
242.986	5.84
243.368	4.48
243.75	3.96
244.133	4.46
244.515	4.11
244.897	4.83
245.279	4.65
245.661	4.78
246.043	5.87
246.425	4.51
246.807	5.1
247.189	4.06
247.571	5.03
247.953	5.11
248.335	4.84
248.717	4.64
249.098	4.32
249.48	4.35
249.862	4.59
250.243	4.68
250.625	5.38
251.006	4.78
251.388	4.82
251.769	5.23
252.151	4.77
252.532	5.33
252.913	5.99
253.295	2.91
253.676	4.54
254.057	4.74
254.438	3.68
254.819	5.11
255.2	5.26
255.581	5.79
255.962	6.16
256.343	7.49
256.724	5.05
257.105	5.12
257.486	4.92
257.867	5.14
258.247	5.53
258.628	6.62
259.009	4.15
259.389	4.16
259.77	5.19
260.15	4.88
260.531	5.05
260.911	3.83
261.292	4.93
261.672	4.31
262.052	4.26
262.432	4.26
262.813	4.55
263.193	4.33
263.573	4.5
263.953	4.74
264.333	4.54
264.713	3.7
265.093	4.55
265.473	4.66
265.853	4.31
266.233	4.17
266.612	5.69
266.992	4.67
267.372	5.05
267.752	5.39
268.131	4.47
268.511	4.14
268.89	5.08
269.27	4.63
269.649	4.79
270.029	5.35
270.408	4.84
270.787	4.73
271.167	4.52
271.546	4.45
271.925	4.2
272.304	4.62
272.683	4.99
273.062	4.38
273.441	4.06
273.82	3.74
274.199	4.22
274.578	4.1
274.957	4.45
275.336	5.04
275.715	4.54
276.093	4.37
276.472	3.99
276.851	4.62
277.229	4.68
277.608	3.73
277.986	4.35
278.365	4.7
278.743	4.84
279.122	4.05
279.5	3.99
279.878	3.75
280.257	4.65
280.635	4.49
281.013	4
281.391	4.34
281.769	4.28
282.147	4.31
282.525	4.54
282.903	4.22
283.281	4.26
283.659	4.75
284.037	4.83
284.415	4.02
284.792	4.29
285.17	4.42
285.548	4.3
285.925	4.49
286.303	4.01
286.68	4.94
287.058	4.31
287.435	4.01
287.813	4.06
288.19	4.51
288.567	4.42
288.945	4.43
289.322	4.71
289.699	4.65
290.076	4.66
290.453	4.79
290.83	4.09
291.207	4.66
291.584	4.4
291.961	5.17
292.338	4.5
292.715	4.23
293.092	4.71
293.469	5.3
293.845	4.85
294.222	4.72
294.599	4.81
294.975	5.13
295.352	4.79
295.728	5
296.105	4.84
296.481	4.93
296.858	5
297.234	4.89
297.61	5.12
297.986	5.17
298.363	5.23
298.739	5.11
299.115	4.79
299.491	5.27
299.867	5.27
300.243	5.37
300.619	5.31
300.995	5.85
301.371	5.03
301.746	5.26
302.122	5.14
302.498	5.45
302.874	5.52
303.249	6.1
303.625	5.63
304	5.75
304.376	5.54
304.751	5.86
305.127	5.71
305.502	5.88
305.878	5.88
306.253	5.65
306.628	6.38
307.003	6.07
307.378	6.23
307.754	6.23
308.129	5.95
308.504	6.77
308.879	6.49
309.254	6.32
309.629	5.84
310.003	6.1
310.378	6.41
310.753	7.03
311.128	7.04
311.502	6.95
311.877	6.62
312.252	7.08
312.626	7.01
313.001	6.25
313.375	7.07
313.75	6.77
314.124	6.54
314.498	7.17
314.873	7.51
315.247	7.57
315.621	6.98
315.995	7.69
316.369	7.45
316.743	6.95
317.117	7.74
317.491	7.02
317.865	7.24
318.239	7.17
318.613	7.96
318.987	7.19
319.361	7.85
319.734	7.61
320.108	8.24
320.482	8.49
320.855	8.03
321.229	8.11
321.602	7.87
321.976	7.43
322.349	7.77
322.723	8.13
323.096	8.06
323.469	8.21
323.843	8.33
324.216	8.86
324.589	8.79
324.962	8.88
325.335	8.91
325.708	8.44
326.081	8.76
326.454	8.64
326.827	9.22
327.2	8.65
327.573	8.69
327.945	8.89
328.318	8.99
328.691	8.46
329.063	8.35
329.436	8.48
329.809	9.03
330.181	9.07
330.553	8.5
330.926	9.34
331.298	8.99
331.671	9.35
332.043	9.11
332.415	10.16
332.787	8.85
333.159	9.37
333.532	9.21
333.904	9.28
334.276	9
334.648	9.57
335.02	9.93
335.391	9.72
335.763	9.49
336.135	9.92
336.507	9.33
336.879	9.12
337.25	10.21
337.622	9.89
337.993	9.95
338.365	9.61
338.736	10.49
339.108	9.58
339.479	9.72
339.851	10.37
340.222	10.25
340.593	9.86
340.964	10.37
341.336	9.98
341.707	10.13
342.078	9.5
342.449	10.16
342.82	10.83
343.191	10.23
343.562	10.19
343.933	10.15
344.303	10.7
344.674	10.6
345.045	10.49
345.416	10.84
345.786	10.31
346.157	10.61
346.527	10.62
346.898	10.79
347.268	10.35
347.639	10.29
348.009	10.59
348.38	11.04
348.75	10.98
349.12	10.95
349.49	10.56
349.861	10.9
350.231	11.13
350.601	10.88
350.971	11.45
351.341	11.49
351.711	11.47
352.081	10.83
352.45	11.19
352.82	11.41
353.19	11.87
353.56	11.64
353.929	11.69
354.299	11.18
354.669	11.43
355.038	11.86
355.408	11.55
355.777	11.79
356.147	11.26
356.516	11.52
356.885	11.79
357.254	11.77
357.624	11.82
357.993	11.9
358.362	11.71
358.731	11.81
359.1	12.03
359.469	12.11
359.838	11.73
360.207	12.09
360.576	12.27
360.945	12.34
361.314	12.06
361.682	12.17
362.051	12.61
362.42	12.34
362.788	12.2
363.157	12.16
363.525	12.39
363.894	12.19
364.262	12.4
364.631	12.22
364.999	12.53
365.367	12.62
365.735	12.47
366.104	12.66
366.472	12.46
366.84	12.73
367.208	12.93
367.576	12.51
367.944	12.9
368.312	12.82
368.68	13.06
369.048	12.8
369.416	13.2
369.783	13.03
370.151	13.32
370.519	13.43
370.886	13.35
371.254	13.2
371.621	13.42
371.989	13.44
372.356	13.26
372.724	13.99
373.091	13.5
373.458	13.31
373.826	13.81
374.193	13.69
374.56	13.58
374.927	13.62
375.294	13.79
375.661	14.06
376.028	13.59
376.395	13.82
376.762	14.24
377.129	13.78
377.496	13.83
377.863	13.99
378.229	13.93
378.596	14.49
378.963	14.02
379.329	14.15
379.696	14.32
380.062	14.08
380.429	14.16
380.795	14.53
381.161	14.46
381.528	14.63
381.894	14.37
382.26	14.59
382.626	14.74
382.993	14.63
383.359	14.87
383.725	15.03
384.091	14.75
384.457	14.86
384.823	14.94
385.188	14.8
385.554	14.68
385.92	14.69
386.286	15.3
386.651	14.88
387.017	15.09
387.383	15.37
387.748	14.99
388.114	15.08
388.479	15.24
388.845	15.03
389.21	15.03
389.575	15.59
389.94	15.28
390.306	15.66
390.671	15.49
391.036	15.33
391.401	15.66
391.766	16.01
392.131	15.69
392.496	15.28
392.861	15.63
393.226	15.8
393.591	15.5
393.956	15.7
394.32	15.67
394.685	15.96
395.05	15.78
395.414	15.88
395.779	15.93
396.143	16
396.508	15.98
396.872	16.08
397.236	16.04
397.601	16.23
397.965	16.18
398.329	16.51
398.694	16.22
399.058	16.5
399.422	16.42
399.786	16.29
400.15	16.71
400.514	16.59
400.878	16.49
401.242	16.8
401.605	16.62
401.969	16.36
402.333	16.63
402.697	16.68
403.06	16.66
403.424	17.06
403.787	16.72
404.151	16.8
404.514	17.07
404.878	16.75
405.241	17.06
405.604	17.01
405.968	16.66
406.331	17.12
406.694	16.9
407.057	16.93
407.42	17.15
407.783	17.15
408.146	17.2
408.509	17.35
408.872	17.1
409.235	17.2
409.598	17.57
409.961	17.56
410.323	17.71
410.686	17.66
411.049	17.84
411.411	17.68
411.774	17.77
412.136	17.59
412.499	17.77
412.861	17.81
413.223	17.8
413.586	17.82
413.948	17.9
414.31	18.03
414.672	17.91
415.035	17.99
415.397	18.05
415.759	18.38
416.121	18.06
416.483	18.28
416.845	18.42
417.206	18.33
417.568	18.16
417.93	18.13
418.292	18.25
418.653	18.1
419.015	18.05
419.377	18.01
419.738	18.39
420.1	18.17
420.461	18.12
420.822	18.31
421.184	18.23
421.545	18.31
421.906	18.44
422.267	18.3
422.629	18.18
422.99	18.24
423.351	18.22
423.712	18.16
424.073	18.33
424.434	18.49
424.795	18.68
425.155	18.55
425.516	18.57
425.877	18.55
426.238	18.41
426.598	18.51
426.959	18.61
427.32	18.73
427.68	18.75
428.041	18.84
428.401	19.18
428.761	19.16
429.122	19.15
429.482	19.3
429.842	19.42
430.202	19.45
430.563	19.59
430.923	19.63
431.283	19.37
431.643	19.45
432.003	19.64
432.363	19.77
432.722	19.69
433.082	19.8
433.442	19.79
433.802	19.6
434.161	19.57
434.521	19.73
434.881	19.64
435.24	19.66
435.6	19.63
435.959	19.71
436.319	19.71
436.678	19.91
437.037	20.17
437.396	20.16
437.756	20.02
438.115	20.37
438.474	20.35
438.833	20.17
439.192	20.4
439.551	20.32
439.91	20.37
440.269	20.2
440.628	20.31
440.987	20.3
441.345	20.19
441.704	20.27
442.063	20.1
442.421	20.28
442.78	20.27
443.138	20.19
443.497	20.38
443.855	20.6
444.214	20.78
444.572	20.89
444.93	21.01
445.288	20.75
445.647	20.84
446.005	20.75
446.363	20.81
446.721	20.79
447.079	20.76
447.437	20.71
447.795	20.59
448.153	20.61
448.51	20.3
448.868	20.51
449.226	20.54
449.584	20.7
449.941	21.02
450.299	21.19
450.656	21.24
451.014	21.27
451.371	21.3
451.729	21.19
452.086	21.41
452.443	21.73
452.801	21.67
453.158	21.72
453.515	21.72
453.872	21.71
454.229	21.88
454.586	21.74
454.943	21.52
455.3	21.71
455.657	21.73
456.014	22
456.371	22.05
456.727	21.87
457.084	22.02
457.441	22
457.797	21.91
458.154	22.1
458.51	22.41
458.867	22.18
459.223	22.18
459.58	22.29
459.936	22.42
460.292	22.16
460.648	22.14
461.005	22.03
461.361	22.07
461.717	21.84
462.073	21.71
462.429	21.64
462.785	22.06
463.141	22.42
463.496	22.42
463.852	22.53
464.208	22.77
464.564	22.63
464.919	22.82
465.275	23.14
465.631	22.92
465.986	23
466.342	23.16
466.697	22.99
467.052	23.02
467.408	22.92
467.763	23.19
468.118	23.05
468.473	23.15
468.829	23.04
469.184	22.95
469.539	22.95
469.894	23.14
470.249	23.24
470.603	23.27
470.958	23.31
471.313	23.45
471.668	23.49
472.023	23.55
472.377	23.65
472.732	23.75
473.086	23.6
473.441	23.83
473.795	23.78
474.15	23.84
474.504	23.91
474.859	23.76
475.213	23.84
475.567	23.9
475.921	24.13
476.275	24.14
476.63	24.2
476.984	24.01
477.338	24.22
477.692	24.14
478.045	24.31
478.399	23.97
478.753	24.06
479.107	24.11
479.461	24.2
479.814	24.44
480.168	24.4
480.521	24.25
480.875	24.33
481.228	24.35
481.582	24.41
481.935	24.48
482.289	24.49
482.642	24.7
482.995	24.54
483.348	24.39
483.701	24.39
484.055	24.29
484.408	24.14
484.761	24.14
485.114	24.11
485.466	23.69
485.819	23.36
486.172	23.17
486.525	23.44
486.878	23.76
487.23	24.05
487.583	24.37
487.936	24.56
488.288	24.55
488.641	24.5
488.993	24.34
489.345	24.01
489.698	24
490.05	23.98
490.402	24
490.754	24.43
491.107	24.58
491.459	24.79
491.811	25
492.163	25.37
492.515	25.3
492.866	25.26
493.218	25.01
493.57	24.58
493.922	24.31
494.274	24.62
494.625	24.93
494.977	25.32
495.328	25.58
495.68	25.83
496.031	25.86
496.383	25.97
496.734	26.12
497.086	26.21
497.437	26.31
497.788	26.2
498.139	26.17
498.49	25.95
498.842	26.01
499.193	25.8
499.544	25.87
499.894	26
500.245	26.14
500.596	26.22
500.947	26.24
501.298	26.32
501.648	26.41
501.999	26.57
502.35	26.63
502.7	26.75
503.051	26.75
503.401	26.83
503.752	26.89
504.102	26.95
504.452	26.89
504.803	27.02
505.153	27.12
505.503	26.87
505.853	26.91
506.203	27.04
506.553	26.92
506.903	27.02
507.253	27.23
507.603	27.15
507.953	27.39
508.303	27.25
508.652	27.47
509.002	27.36
509.352	27.22
509.701	27.33
510.051	27.24
510.4	27.34
510.75	27.4
511.099	27.49
511.449	27.32
511.798	27.37
512.147	27.43
512.496	27.64
512.846	27.66
513.195	27.74
513.544	27.72
513.893	27.91
514.242	27.9
514.591	27.9
514.939	27.77
515.288	28.03
515.637	28.13
515.986	28.23
516.334	28.26
516.683	28.39
517.032	28.4
517.38	28.44
517.729	28.43
518.077	28.41
518.426	28.44
518.774	28.55
519.122	28.48
519.47	28.52
519.819	28.32
520.167	28.2
520.515	28.15
520.863	27.91
521.211	28.1
521.559	28.24
521.907	28.34
522.255	28.61
522.602	28.73
522.95	28.97
523.298	29.02
523.645	29.04
523.993	29.09
524.341	29.3
524.688	29.42
525.036	29.31
525.383	29.3
525.73	29.41
526.078	29.45
526.425	29.46
526.772	29.42
527.119	29.22
527.466	28.93
527.814	28.72
528.161	28.8
528.508	28.91
528.854	29.14
529.201	29.27
529.548	29.2
529.895	29.24
530.242	28.79
530.588	28.29
530.935	28.16
531.282	28.44
531.628	28.8
531.975	29.16
532.321	29.26
532.667	29.33
533.014	29.64
533.36	29.69
533.706	29.77
534.052	29.72
534.399	29.8
534.745	29.75
535.091	29.59
535.437	29.26
535.783	29.24
536.129	29.46
536.474	29.82
536.82	30.07
537.166	30.28
537.512	30.38
537.857	30.62
538.203	30.28
538.549	30.1
538.894	29.89
539.239	30.02
539.585	30.21
539.93	30.37
540.276	30.76
540.621	31.04
540.966	31.09
541.311	31.32
541.656	31.26
542.001	31.26
542.346	31.12
542.691	30.93
543.036	30.51
543.381	30.03
543.726	29.88
544.071	30.18
544.415	30.5
544.76	30.65
545.105	30.81
545.449	30.87
545.794	31.16
546.138	31.33
546.483	31.38
546.827	31.55
547.171	31.65
547.516	31.81
547.86	31.56
548.204	31.75
548.548	31.76
548.892	31.59
549.236	31.39
549.58	31.69
549.924	31.94
550.268	32.15
550.612	32.27
550.956	32.52
551.3	32.21
551.643	32.87
551.987	32.56
552.33	32.88
552.674	32.67
553.017	32.57
553.361	32.91
553.704	32.77
554.048	32.86
554.391	32.68
554.734	32.63
555.077	32.4
555.42	32.55
555.764	32.92
556.107	32.96
556.45	32.91
556.793	33.2
557.135	33.34
557.478	33.4
557.821	33.31
558.164	33.48
558.507	33.53
558.849	33.62
559.192	33.58
559.534	33.44
559.877	33.65
560.219	33.89
560.562	33.94
560.904	33.8
561.246	33.87
561.589	33.96
561.931	33.96
562.273	33.86
562.615	33.83
562.957	33.89
563.299	34.04
563.641	33.88
563.983	34.11
564.325	34.01
564.667	34.29
565.008	34.19
565.35	34.45
565.692	34.46
566.033	34.15
566.375	34.56
566.716	34.49
567.058	34.47
567.399	34.36
567.741	34.55
568.082	34.1
568.423	34.16
568.764	34.06
569.105	34.26
569.447	34.74
569.788	34.68
570.129	34.71
570.47	34.87
570.811	35.02
571.151	34.85
571.492	34.89
571.833	34.62
572.174	34.91
572.514	34.96
572.855	35.01
573.195	35.02
573.536	34.92
573.876	34.81
574.217	34.86
574.557	34.75
574.898	34.87
575.238	35.28
575.578	35.34
575.918	35.3
576.258	35.25
576.598	35.48
576.938	35.1
577.278	35.4
577.618	35.48
577.958	35.61
578.298	35.51
578.638	35.7
578.977	35.76
579.317	35.8
579.657	35.77
579.996	35.82
580.336	35.9
580.675	36.1
581.014	36.56
581.354	36.35
581.693	36.28
582.032	36.7
582.372	36.48
582.711	36.66
583.05	36.55
583.389	36.57
583.728	36.58
584.067	36.65
584.406	36.82
584.745	36.55
585.083	36.88
585.422	36.82
585.761	36.69
586.1	36.98
586.438	36.89
586.777	37.03
587.115	36.97
587.454	37.42
587.792	37.53
588.13	37.07
588.469	36.92
588.807	36.98
589.145	37.37
589.483	37.38
589.821	37.22
590.159	37.26
590.497	37.62
590.835	37.41
591.173	37.36
591.511	37.34
591.849	37.31
592.187	37.52
592.524	37.51
592.862	37.47
593.2	37.29
593.537	37.67
593.875	37.94
594.212	37.92
594.55	37.95
594.887	38.19
595.224	38.34
595.561	37.94
595.899	37.81
596.236	37.8
596.573	38
596.91	38.21
597.247	38.51
597.584	38.13
597.921	37.84
598.258	38.06
598.594	38.08
598.931	37.94
599.268	37.64
599.604	37.88
599.941	38.08
600.277	37.84
600.614	38.18
600.95	38.85
601.287	38.63
601.623	38.89
601.959	38.8
602.296	38.64
602.632	38.74
602.968	39.1
603.304	38.92
603.64	38.92
603.976	39.07
604.312	39.17
604.648	38.8
604.984	38.79
605.319	38.81
605.655	38.77
605.991	38.95
606.326	38.86
606.662	38.57
606.998	38.47
607.333	38.35
607.668	38.79
608.004	38.64
608.339	39.28
608.674	39.37
609.01	39.43
609.345	39.89
609.68	39.42
610.015	39.78
610.35	39.64
610.685	39.61
611.02	39.57
611.355	39.57
611.689	39.03
612.024	39.47
612.359	39.49
612.694	39.6
613.028	39.69
613.363	39.4
613.697	40.04
614.032	39.95
614.366	40.07
614.7	40.09
615.035	40.09
615.369	40.38
615.703	40.47
616.037	40.1
616.371	40.21
616.705	40.48
617.039	40.46
617.373	41
617.707	40.57
618.041	40.53
618.375	40.15
618.709	40.97
619.042	40.94
619.376	40.7
619.71	40.39
620.043	40.94
620.377	41.12
620.71	40.87
621.043	40.98
621.377	40.57
621.71	40.77
622.043	40.72
622.376	40.98
622.709	40.87
623.043	41.17
623.376	41.38
623.709	40.98
624.041	41.43
624.374	40.96
624.707	40.81
625.04	41.54
625.373	41.42
625.705	41.57
626.038	41.94
626.37	41.55
626.703	41.71
627.035	41.13
627.368	41.85
627.7	41.62
628.032	41.83
628.365	42.03
628.697	41.39
629.029	41.43
629.361	41.55
629.693	41.29
630.025	41.74
630.357	41.71
630.689	41.99
631.021	42.05
631.353	42.39
631.684	41.83
632.016	42.15
632.348	42.1
632.679	42.04
633.011	41.81
633.342	42.27
633.674	42.37
634.005	42.44
634.336	42.34
634.668	42.67
634.999	42.82
635.33	42.07
635.661	42.71
635.992	42.25
636.323	42.72
636.654	42.31
636.985	42.34
637.316	42.28
637.647	42.86
637.977	42.27
638.308	42.76
638.639	42.53
638.969	43.24
639.3	42.69
639.63	42.89
639.961	42.64
640.291	42.65
640.622	43.02
640.952	43.26
641.282	43.41
641.612	43.25
641.943	43.01
642.273	43.73
642.603	42.87
642.933	43.05
643.263	43.12
643.592	42.94
643.922	43.7
644.252	43.53
644.582	43.47
644.911	43.6
645.241	43.62
645.571	43.33
645.9	43.36
646.23	43.02
646.559	43.54
646.888	44.19
647.218	43.81
647.547	43.73
647.876	43.89
648.205	43.6
648.534	44.09
648.863	44.28
649.192	43.89
649.521	43.81
649.85	43.74
650.179	43.99
650.508	44.02
650.837	43.92
651.165	43.86
651.494	43.76
651.822	44.33
652.151	43.79
652.479	43.89
652.808	44.6
653.136	44.16
653.465	43.99
653.793	44.56
654.121	44.42
654.449	44.52
654.777	44.04
655.105	44.43
655.433	44.37
655.761	44.38
656.089	44.81
656.417	44.67
656.745	44.7
657.073	44.38
657.4	44.91
657.728	44.97
658.056	45.08
658.383	45.19
658.711	45.24
659.038	44.97
659.365	45.08
659.693	44.76
660.02	44.55
660.347	45.93
660.674	44.69
661.001	45.07
661.329	44.63
661.656	45.03
661.982	45.06
662.309	45.13
662.636	45.22
662.963	45.65
663.29	45.59
663.616	45.53
663.943	45.86
664.27	46.03
664.596	46.02
664.923	45.62
665.249	45.65
665.576	45.65
665.902	45.36
666.228	45.74
666.554	45.61
666.881	46.17
667.207	45.38
667.533	46.29
667.859	45.68
668.185	45.66
668.511	45.75
668.837	45.5
669.162	46.15
669.488	46.03
669.814	45.82
670.139	46.59
670.465	47.03
