Data from 0087_crown_Reflection__3__023.txt Node

Date: Mon Aug 28 18:49:05 CDT 2023
User: ToomeyLab
Spectrometer: FLMS14357
Trigger mode: 0
Integration Time (sec): 1.000000E-2
Scans to average: 100
Electric dark correction enabled: true
Nonlinearity correction enabled: false
Boxcar width: 0
XAxis mode: Wavelengths
Number of Pixels in Spectrum: 2048
>>>>>Begin Spectral Data<<<<<
189.047	-107.31
189.435	-107.31
189.823	-107.31
190.211	-11762.79
190.599	146.42
190.987	-45.28
191.375	-94.1
191.763	99.76
192.151	-142.75
192.538	128.48
192.926	266.2
193.314	194.58
193.702	240.23
194.089	102.48
194.477	-487.06
194.864	61.23
195.252	113.52
195.639	-859.83
196.027	87.47
196.414	130.1
196.801	55.98
197.189	-1.56
197.576	-37.23
197.963	-65.63
198.351	-0.89
198.738	18.28
199.125	-13.6
199.512	39.24
199.899	4.14
200.286	-39.87
200.673	15.52
201.06	-3.2
201.447	-74.4
201.833	-28.19
202.22	23.49
202.607	6.44
202.994	-10.39
203.38	27.13
203.767	-1.07
204.154	-25.62
204.54	-20.38
204.927	7.77
205.313	47.68
205.699	-40.18
206.086	32.6
206.472	-27.76
206.858	-7.66
207.245	-1.74
207.631	29.89
208.017	-35.36
208.403	-17.14
208.789	-9.03
209.175	-25.04
209.561	-9.56
209.947	28.86
210.333	-16.3
210.719	13.49
211.105	16.03
211.491	10.62
211.876	38.83
212.262	17.92
212.648	15.06
213.034	-13.9
213.419	28.55
213.805	24.02
214.19	-35.91
214.576	4.99
214.961	6.79
215.346	-14.7
215.732	19.51
216.117	-19.28
216.502	-3.05
216.888	-39.2
217.273	-26.06
217.658	-7.21
218.043	3.06
218.428	-2.2
218.813	2.37
219.198	38.53
219.583	17.68
219.968	7.51
220.353	4.81
220.738	-2.11
221.122	11.51
221.507	8.51
221.892	19.35
222.276	4.84
222.661	12.76
223.046	-3.58
223.43	2.62
223.815	9.37
224.199	8.4
224.583	5.92
224.968	4.53
225.352	16.4
225.736	9.95
226.121	8.95
226.505	10.92
226.889	12.44
227.273	10.17
227.657	8.12
228.041	11.09
228.425	9.04
228.809	9.95
229.193	9.24
229.577	10.45
229.961	8.65
230.344	9.42
230.728	8.71
231.112	8.81
231.495	9.83
231.879	8.64
232.263	8.74
232.646	6.25
233.03	9.78
233.413	11.06
233.797	8.56
234.18	9.48
234.563	7.76
234.946	11.28
235.33	7.16
235.713	5
236.096	9.45
236.479	9.94
236.862	10.51
237.245	8.71
237.628	10.33
238.011	10.5
238.394	10.72
238.777	9.74
239.16	9.28
239.543	7.41
239.925	10.19
240.308	7.48
240.691	7.74
241.073	7.9
241.456	8.23
241.838	9.17
242.221	9.7
242.603	7.97
242.986	8.85
243.368	7.85
243.75	7.97
244.133	8.12
244.515	8.3
244.897	8.81
245.279	8.41
245.661	8.08
246.043	8.49
246.425	8.19
246.807	9.15
247.189	7.6
247.571	8.16
247.953	8.57
248.335	7.98
248.717	8.04
249.098	8.06
249.48	8.13
249.862	8.06
250.243	8.17
250.625	8.61
251.006	8.34
251.388	8.36
251.769	8.41
252.151	7.78
252.532	7.41
252.913	7.9
253.295	6.39
253.676	8.26
254.057	8.16
254.438	7.55
254.819	7.51
255.2	7.75
255.581	8.72
255.962	7.67
256.343	9.13
256.724	7.64
257.105	7.17
257.486	8.1
257.867	8.58
258.247	7.02
258.628	7.95
259.009	7.94
259.389	7.43
259.77	7.39
260.15	7.06
260.531	7.09
260.911	7.64
261.292	7.87
261.672	7.49
262.052	7.45
262.432	7.51
262.813	7.56
263.193	7.47
263.573	7.13
263.953	7.76
264.333	6.69
264.713	7.55
265.093	8.11
265.473	7.42
265.853	6.85
266.233	7.35
266.612	8.86
266.992	7.73
267.372	7.12
267.752	8.32
268.131	7.43
268.511	7.17
268.89	7.49
269.27	6.55
269.649	6.81
270.029	8.13
270.408	7.22
270.787	7.27
271.167	7.29
271.546	6.93
271.925	7.42
272.304	6.82
272.683	7.37
273.062	7.44
273.441	7.43
273.82	6.8
274.199	6.9
274.578	7.31
274.957	7.78
275.336	7.48
275.715	7.71
276.093	6.62
276.472	6.63
276.851	6.79
277.229	7.56
277.608	7.25
277.986	6.92
278.365	6.78
278.743	6.66
279.122	6.86
279.5	6.89
279.878	6.66
280.257	6.89
280.635	6.82
281.013	6.98
281.391	6.55
281.769	6.8
282.147	7.1
282.525	7.24
282.903	6.96
283.281	6.94
283.659	7.37
284.037	7.23
284.415	7.01
284.792	6.85
285.17	6.56
285.548	6.63
285.925	7.39
286.303	6.49
286.68	7.21
287.058	7.3
287.435	6.69
287.813	6.52
288.19	6.96
288.567	6.75
288.945	6.84
289.322	6.39
289.699	7.35
290.076	7.24
290.453	6.92
290.83	5.76
291.207	6.34
291.584	6.65
291.961	6.8
292.338	6.93
292.715	6.01
293.092	6.93
293.469	6.37
293.845	6.37
294.222	5.98
294.599	6.85
294.975	6.61
295.352	6.41
295.728	6.4
296.105	6.7
296.481	6.34
296.858	6.54
297.234	6.69
297.61	6.35
297.986	6.14
298.363	6.45
298.739	6.6
299.115	6.01
299.491	6.47
299.867	6.37
300.243	6.08
300.619	6.23
300.995	6.89
301.371	6.14
301.746	6.51
302.122	5.94
302.498	6.53
302.874	6.53
303.249	6.23
303.625	6.42
304	6.36
304.376	6.18
304.751	6.03
305.127	5.9
305.502	6.08
305.878	5.83
306.253	6.2
306.628	6.09
307.003	5.97
307.378	5.66
307.754	6.21
308.129	5.81
308.504	6.1
308.879	6.24
309.254	6.35
309.629	5.96
310.003	5.68
310.378	5.61
310.753	5.54
311.128	5.77
311.502	6.29
311.877	5.72
312.252	5.87
312.626	6.03
313.001	5.87
313.375	6.19
313.75	6.03
314.124	6.11
314.498	6.37
314.873	5.95
315.247	5.65
315.621	5.82
315.995	6.14
316.369	6.23
316.743	4.85
317.117	6.28
317.491	5.76
317.865	5.71
318.239	5.48
318.613	5.91
318.987	5.9
319.361	5.93
319.734	5.68
320.108	5.65
320.482	5.48
320.855	5.42
321.229	5.51
321.602	6
321.976	5.33
322.349	6.08
322.723	5.35
323.096	6.43
323.469	5.47
323.843	5.08
324.216	5.76
324.589	5.64
324.962	5.55
325.335	5.74
325.708	5.61
326.081	5.25
326.454	5.74
326.827	5.73
327.2	5.1
327.573	5.29
327.945	5.5
328.318	6.01
328.691	5.27
329.063	5.1
329.436	5.35
329.809	6.3
330.181	5.46
330.553	5.2
330.926	5.43
331.298	5.61
331.671	5.14
332.043	5.08
332.415	6.06
332.787	4.69
333.159	5.07
333.532	6.13
333.904	5.31
334.276	4.91
334.648	5.43
335.02	5.55
335.391	5.58
335.763	5.29
336.135	5.87
336.507	5.06
336.879	4.93
337.25	5.96
337.622	5.26
337.993	5.84
338.365	5.33
338.736	5.47
339.108	5.09
339.479	4.66
339.851	5.53
340.222	5.48
340.593	4.94
340.964	5.28
341.336	4.84
341.707	4.65
342.078	5.26
342.449	5.3
342.82	5.48
343.191	5.28
343.562	5.56
343.933	5.05
344.303	5.4
344.674	4.98
345.045	5.38
345.416	5.44
345.786	5.66
346.157	5.22
346.527	4.74
346.898	5.11
347.268	4.91
347.639	4.66
348.009	5.33
348.38	5.48
348.75	5.53
349.12	5.45
349.49	5.43
349.861	5
350.231	5.11
350.601	5.44
350.971	5.35
351.341	5.5
351.711	4.98
352.081	5.24
352.45	5.29
352.82	5.2
353.19	5.75
353.56	5.45
353.929	5.54
354.299	4.64
354.669	5.38
355.038	5.22
355.408	5.34
355.777	5.27
356.147	4.89
356.516	5.56
356.885	5.77
357.254	5.27
357.624	5.11
357.993	5.43
358.362	5.18
358.731	5.46
359.1	5.52
359.469	5.46
359.838	4.82
360.207	5.18
360.576	5.31
360.945	5.06
361.314	5.04
361.682	5.04
362.051	5.47
362.42	5.15
362.788	5.23
363.157	5.29
363.525	5.17
363.894	5.21
364.262	5.32
364.631	5.05
364.999	5.12
365.367	5.55
365.735	5.26
366.104	4.98
366.472	5
366.84	5.34
367.208	5.26
367.576	5.19
367.944	5.72
368.312	5.5
368.68	5.4
369.048	5.36
369.416	5.45
369.783	5.31
370.151	4.98
370.519	5.43
370.886	5.17
371.254	5.1
371.621	5.31
371.989	5.39
372.356	5.23
372.724	5.91
373.091	5.65
373.458	5.19
373.826	5.5
374.193	5.39
374.56	5.13
374.927	5.15
375.294	5.33
375.661	5.75
376.028	5.17
376.395	5.26
376.762	5.5
377.129	5.17
377.496	5.21
377.863	5.56
378.229	5.35
378.596	5.68
378.963	5.58
379.329	5.67
379.696	5.3
380.062	5.36
380.429	5.25
380.795	5.23
381.161	5.56
381.528	5.66
381.894	5.43
382.26	5.67
382.626	5.61
382.993	5.77
383.359	5.52
383.725	5.77
384.091	5.54
384.457	5.42
384.823	5.28
385.188	5.35
385.554	5.35
385.92	5.37
386.286	5.77
386.651	5.67
387.017	5.76
387.383	5.66
387.748	5.64
388.114	5.46
388.479	5.26
388.845	5.44
389.21	5.56
389.575	5.6
389.94	5.51
390.306	5.92
390.671	5.63
391.036	5.57
391.401	5.86
391.766	5.85
392.131	5.77
392.496	5.37
392.861	5.54
393.226	5.59
393.591	5.44
393.956	5.61
394.32	5.6
394.685	5.71
395.05	5.62
395.414	5.61
395.779	5.63
396.143	5.67
396.508	5.44
396.872	5.79
397.236	5.75
397.601	5.59
397.965	5.73
398.329	5.84
398.694	5.89
399.058	5.65
399.422	5.66
399.786	5.92
400.15	5.89
400.514	5.81
400.878	5.65
401.242	5.56
401.605	5.79
401.969	5.73
402.333	5.84
402.697	5.66
403.06	5.74
403.424	5.86
403.787	5.71
404.151	5.48
404.514	5.81
404.878	5.69
405.241	5.95
405.604	5.79
405.968	5.55
406.331	6.05
406.694	5.76
407.057	5.95
407.42	5.59
407.783	5.72
408.146	5.64
408.509	6.06
408.872	5.77
409.235	5.75
409.598	5.88
409.961	5.83
410.323	5.96
410.686	5.84
411.049	6.09
411.411	6.09
411.774	6.08
412.136	5.9
412.499	5.81
412.861	6.06
413.223	6.01
413.586	5.75
413.948	6.04
414.31	5.75
414.672	5.84
415.035	6.03
415.397	5.98
415.759	5.87
416.121	5.89
416.483	6
416.845	5.91
417.206	6.1
417.568	5.96
417.93	5.88
418.292	5.94
418.653	5.97
419.015	6.01
419.377	5.91
419.738	6.07
420.1	6.05
420.461	6.07
420.822	5.96
421.184	5.98
421.545	5.95
421.906	6.02
422.267	5.82
422.629	5.82
422.99	5.88
423.351	5.89
423.712	5.91
424.073	5.91
424.434	5.9
424.795	5.81
425.155	5.88
425.516	5.98
425.877	5.9
426.238	5.85
426.598	5.87
426.959	5.98
427.32	5.86
427.68	5.87
428.041	5.86
428.401	6.05
428.761	6.06
429.122	5.9
429.482	6.09
429.842	6.24
430.202	6.14
430.563	6.13
430.923	6.16
431.283	5.92
431.643	5.81
432.003	6.1
432.363	6.25
432.722	6.1
433.082	6.16
433.442	6.13
433.802	6.21
434.161	6.16
434.521	6.11
434.881	6.07
435.24	6.05
435.6	6.19
435.959	6.17
436.319	6.19
436.678	6.13
437.037	6.11
437.396	6.17
437.756	6.12
438.115	6.3
438.474	6.28
438.833	6.24
439.192	6.36
439.551	6.13
439.91	6.26
440.269	5.99
440.628	6.11
440.987	6.13
441.345	6.09
441.704	6.27
442.063	5.98
442.421	6.18
442.78	6.17
443.138	6.22
443.497	6.05
443.855	6.1
444.214	6.28
444.572	6.25
444.93	6.21
445.288	6.04
445.647	6.26
446.005	6.32
446.363	6.35
446.721	6.35
447.079	6.22
447.437	6.17
447.795	6.17
448.153	6.24
448.51	6.11
448.868	6.15
449.226	6.17
449.584	6.04
449.941	6.2
450.299	6.21
450.656	6.2
451.014	6.26
451.371	6.3
451.729	6.11
452.086	6.25
452.443	6.32
452.801	6.36
453.158	6.38
453.515	6.44
453.872	6.27
454.229	6.47
454.586	6.47
454.943	6.22
455.3	6.25
455.657	6.52
456.014	6.27
456.371	6.33
456.727	6.34
457.084	6.26
457.441	6.38
457.797	6.38
458.154	6.42
458.51	6.55
458.867	6.39
459.223	6.23
459.58	6.39
459.936	6.34
460.292	6.55
460.648	6.31
461.005	6.3
461.361	6.37
461.717	6.38
462.073	6.34
462.429	6.28
462.785	6.28
463.141	6.2
463.496	6.34
463.852	6.48
464.208	6.34
464.564	6.47
464.919	6.49
465.275	6.61
465.631	6.47
465.986	6.55
466.342	6.51
466.697	6.48
467.052	6.61
467.408	6.55
467.763	6.51
468.118	6.45
468.473	6.44
468.829	6.57
469.184	6.34
469.539	6.6
469.894	6.47
470.249	6.56
470.603	6.65
470.958	6.42
471.313	6.49
471.668	6.4
472.023	6.72
472.377	6.6
472.732	6.53
473.086	6.43
473.441	6.66
473.795	6.81
474.15	6.61
474.504	6.46
474.859	6.43
475.213	6.63
475.567	6.48
475.921	6.74
476.275	6.53
476.63	6.68
476.984	6.59
477.338	6.76
477.692	6.52
478.045	6.65
478.399	6.59
478.753	6.57
479.107	6.58
479.461	6.51
479.814	6.68
480.168	6.54
480.521	6.63
480.875	6.68
481.228	6.57
481.582	6.61
481.935	6.47
482.289	6.55
482.642	6.52
482.995	6.69
483.348	6.52
483.701	6.58
484.055	6.48
484.408	6.47
484.761	6.53
485.114	6.45
485.466	6.38
485.819	6.31
486.172	6.25
486.525	6.23
486.878	6.2
487.23	6.19
487.583	6.22
487.936	6.33
488.288	6.38
488.641	6.45
488.993	6.48
489.345	6.42
489.698	6.44
490.05	6.34
490.402	6.31
490.754	6.28
491.107	6.33
491.459	6.37
491.811	6.35
492.163	6.57
492.515	6.58
492.866	6.62
493.218	6.45
493.57	6.51
493.922	6.39
494.274	6.42
494.625	6.35
494.977	6.49
495.328	6.42
495.68	6.51
496.031	6.52
496.383	6.53
496.734	6.62
497.086	6.84
497.437	6.9
497.788	6.75
498.139	6.67
498.49	6.65
498.842	6.69
499.193	6.64
499.544	6.66
499.894	6.64
500.245	6.67
500.596	6.62
500.947	6.65
501.298	6.68
501.648	6.79
501.999	6.72
502.35	6.62
502.7	6.79
503.051	6.77
503.401	6.88
503.752	6.76
504.102	6.77
504.452	6.66
504.803	6.76
505.153	6.74
505.503	6.74
505.853	6.75
506.203	6.88
506.553	6.83
506.903	6.93
507.253	6.84
507.603	6.81
507.953	6.85
508.303	6.95
508.652	6.83
509.002	6.91
509.352	6.73
509.701	6.73
510.051	6.63
510.4	6.65
510.75	6.8
511.099	6.81
511.449	6.79
511.798	6.76
512.147	6.82
512.496	6.73
512.846	6.8
513.195	6.74
513.544	6.9
513.893	6.83
514.242	6.73
514.591	6.8
514.939	6.76
515.288	6.83
515.637	6.86
515.986	6.79
516.334	7.08
516.683	6.94
517.032	6.93
517.38	6.9
517.729	7.03
518.077	6.84
518.426	6.87
518.774	6.9
519.122	7.08
519.47	6.95
519.819	6.91
520.167	6.91
520.515	6.93
520.863	6.75
521.211	6.76
521.559	6.84
521.907	6.86
522.255	6.73
522.602	6.83
522.95	6.94
523.298	7.01
523.645	7
523.993	6.89
524.341	6.98
524.688	7.05
525.036	6.97
525.383	6.99
525.73	6.99
526.078	7.08
526.425	6.92
526.772	6.98
527.119	7
527.466	6.91
527.814	6.9
528.161	6.76
528.508	6.87
528.854	6.87
529.201	6.96
529.548	6.83
529.895	6.94
530.242	6.85
530.588	6.7
530.935	6.73
531.282	6.69
531.628	6.59
531.975	6.61
532.321	6.63
532.667	6.68
533.014	6.77
533.36	6.76
533.706	6.92
534.052	6.84
534.399	6.94
534.745	6.98
535.091	6.88
535.437	6.84
535.783	6.82
536.129	6.81
536.474	6.73
536.82	6.81
537.166	6.82
537.512	6.91
537.857	7.12
538.203	6.94
538.549	6.95
538.894	7.01
539.239	6.88
539.585	6.99
539.93	6.97
540.276	7
540.621	6.94
540.966	7.02
541.311	7.1
541.656	7.17
542.001	7.11
542.346	7.23
542.691	7.11
543.036	7.02
543.381	6.99
543.726	6.89
544.071	6.94
544.415	6.8
544.76	6.82
545.105	6.91
545.449	6.86
545.794	6.95
546.138	6.95
546.483	6.99
546.827	7.03
547.171	7.05
547.516	7.05
547.86	7.07
548.204	7.17
548.548	7.1
548.892	7.07
549.236	7.03
549.58	7.02
549.924	7.05
550.268	7.2
550.612	7.06
550.956	7.05
551.3	7.19
551.643	7.33
551.987	7.1
552.33	7.3
552.674	7.16
553.017	7.18
553.361	7.33
553.704	7.29
554.048	7.4
554.391	7.28
554.734	7.34
555.077	7.24
555.42	7.24
555.764	7.28
556.107	7.14
556.45	7.43
556.793	7.14
557.135	7.35
557.478	7.25
557.821	7.45
558.164	7.38
558.507	7.3
558.849	7.37
559.192	7.42
559.534	7.29
559.877	7.54
560.219	7.34
560.562	7.45
560.904	7.47
561.246	7.28
561.589	7.35
561.931	7.42
562.273	7.38
562.615	7.3
562.957	7.41
563.299	7.5
563.641	7.37
563.983	7.4
564.325	7.39
564.667	7.31
565.008	7.21
565.35	7.61
565.692	7.49
566.033	7.24
566.375	7.37
566.716	7.31
567.058	7.34
567.399	7.18
567.741	7.52
568.082	7.28
568.423	7.3
568.764	7.2
569.105	7.4
569.447	7.28
569.788	7.3
570.129	7.34
570.47	7.39
570.811	7.35
571.151	7.26
571.492	7.19
571.833	7.3
572.174	7.5
572.514	7.34
572.855	7.4
573.195	7.42
573.536	7.36
573.876	7.42
574.217	7.47
574.557	7.38
574.898	7.37
575.238	7.24
575.578	7.27
575.918	7.29
576.258	7.39
576.598	7.37
576.938	7.55
577.278	7.34
577.618	7.51
577.958	7.46
578.298	7.61
578.638	7.23
578.977	7.47
579.317	7.19
579.657	7.35
579.996	7.38
580.336	7.22
580.675	7.59
581.014	7.77
581.354	7.75
581.693	7.63
582.032	7.69
582.372	7.46
582.711	7.76
583.05	7.49
583.389	7.7
583.728	7.34
584.067	7.65
584.406	7.48
584.745	7.54
585.083	7.66
585.422	7.48
585.761	7.74
586.1	7.71
586.438	7.53
586.777	7.38
587.115	7.53
587.454	7.45
587.792	7.69
588.13	7.61
588.469	7.65
588.807	7.7
589.145	7.65
589.483	7.49
589.821	7.62
590.159	7.35
590.497	7.57
590.835	7.69
591.173	7.54
591.511	7.47
591.849	7.42
592.187	7.59
592.524	7.72
592.862	7.56
593.2	7.4
593.537	7.46
593.875	7.75
594.212	7.53
594.55	7.6
594.887	7.32
595.224	7.57
595.561	7.38
595.899	7.24
596.236	7.7
596.573	7.84
596.91	7.44
597.247	7.53
597.584	7.69
597.921	7.69
598.258	7.42
598.594	7.34
598.931	7.46
599.268	7.52
599.604	7.33
599.941	7.52
600.277	7.28
600.614	7.76
600.95	7.6
601.287	7.55
601.623	7.66
601.959	7.79
602.296	7.61
602.632	7.42
602.968	7.87
603.304	7.56
603.64	7.69
603.976	7.74
604.312	7.62
604.648	7.47
604.984	7.54
605.319	7.77
605.655	7.68
605.991	7.74
606.326	7.57
606.662	7.51
606.998	7.56
607.333	7.42
607.668	7.49
608.004	7.54
608.339	7.57
608.674	7.51
609.01	7.49
609.345	7.56
609.68	7.69
610.015	7.8
610.35	7.65
610.685	7.56
611.02	7.43
611.355	7.75
611.689	7.58
612.024	7.7
612.359	7.67
612.694	7.66
613.028	7.29
613.363	7.43
613.697	7.49
614.032	7.62
614.366	7.41
614.7	7.78
615.035	7.8
615.369	7.57
615.703	7.56
616.037	7.8
616.371	7.33
616.705	7.7
617.039	7.58
617.373	7.72
617.707	7.63
618.041	7.78
618.375	7.38
618.709	7.77
619.042	7.88
619.376	7.91
619.71	7.49
620.043	7.69
620.377	8.21
620.71	7.49
621.043	7.44
621.377	8.01
621.71	7.56
622.043	7.64
622.376	7.71
622.709	7.67
623.043	7.73
623.376	7.81
623.709	7.8
624.041	7.99
624.374	7.57
624.707	7.11
625.04	7.58
625.373	7.79
625.705	8
626.038	7.67
626.37	7.82
626.703	7.77
627.035	7.76
627.368	7.96
627.7	7.77
628.032	7.75
628.365	7.73
628.697	7.93
629.029	7.97
629.361	7.67
629.693	7.55
630.025	7.65
630.357	7.48
630.689	7.68
631.021	7.92
631.353	7.57
631.684	8
632.016	7.69
632.348	7.6
632.679	7.9
633.011	7.7
633.342	7.86
633.674	8.15
634.005	7.58
634.336	7.39
634.668	8.05
634.999	8.01
635.33	8.26
635.661	7.92
635.992	7.79
636.323	8.11
636.654	7.85
636.985	7.71
637.316	7.74
637.647	7.76
637.977	7.88
638.308	8.06
638.639	7.67
638.969	7.66
639.3	7.51
639.63	7.58
639.961	8.02
640.291	7.7
640.622	8.18
640.952	7.58
641.282	7.81
641.612	7.74
641.943	7.76
642.273	7.94
642.603	7.6
642.933	7.58
643.263	8.05
643.592	7.95
643.922	7.95
644.252	7.91
644.582	7.95
644.911	8.22
645.241	8
645.571	7.36
645.9	7.87
646.23	7.63
646.559	7.75
646.888	8.2
647.218	7.74
647.547	7.68
647.876	8.12
648.205	8.09
648.534	8.3
648.863	7.92
649.192	8.18
649.521	7.96
649.85	8.21
650.179	7.88
650.508	8.15
650.837	7.4
651.165	7.76
651.494	8.03
651.822	7.84
652.151	8.23
652.479	8.57
652.808	7.72
653.136	7.79
653.465	7.98
653.793	8.11
654.121	7.94
654.449	7.83
654.777	7.79
655.105	7.69
655.433	7.69
655.761	7.42
656.089	7.82
656.417	7.67
656.745	8.19
657.073	7.54
657.4	7.92
657.728	8.51
658.056	8.22
658.383	8
658.711	8.39
659.038	7.73
659.365	8.03
659.693	8.06
660.02	7.9
660.347	8.2
660.674	8.33
661.001	8.24
661.329	8.14
661.656	7.93
661.982	7.79
662.309	7.73
662.636	7.64
662.963	8.12
663.29	8.31
663.616	8.15
663.943	8.25
664.27	8.64
664.596	7.89
664.923	8.19
665.249	8.17
665.576	8.23
665.902	8.08
666.228	7.93
666.554	8.2
666.881	8.37
667.207	7.87
667.533	7.96
667.859	7.45
668.185	7.63
668.511	8.49
668.837	7.87
669.162	8.23
669.488	8.02
669.814	8.29
670.139	8.27
670.465	8.34
670.791	8.42
671.116	8.39
671.442	8.39
671.767	7.89
672.092	8.74
672.418	8.11
672.743	8.24
673.068	7.7
673.393	8.39
673.718	7.28
674.043	8.28
674.368	7.56
674.693	8.48
675.018	8.44
675.343	8.3
675.667	8.42
675.992	8.53
676.317	7.45
676.641	8.18
676.966	8.07
677.29	7.66
677.615	8.82
677.939	8.19
678.264	7.24
678.588	8.11
678.912	8.68
679.236	7.93
679.56	8.4
679.885	8.65
680.209	8.13
680.532	8.81
680.856	8.18
681.18	7.87
681.504	7.71
681.828	8.15
682.152	8.49
682.475	8.13
682.799	8.37
683.122	8.42
683.446	7.9
683.769	8.28
684.093	8.22
684.416	9.1
684.739	7.67
685.062	8.38
685.386	7.59
685.709	8.62
686.032	8.45
686.355	8.19
686.678	8.47
687.001	8.44
687.324	8.01
687.646	8.27
687.969	8.41
688.292	8.51
688.614	8.98
688.937	8.46
689.26	8.09
689.582	7.6
689.904	8.35
690.227	8.77
690.549	8.25
690.871	8.6
691.194	8.1
691.516	8.28
691.838	8.5
692.16	8.96
