Data from 0087_chest_Reflection__3__029.txt Node

Date: Mon Aug 28 18:51:26 CDT 2023
User: ToomeyLab
Spectrometer: FLMS14357
Trigger mode: 0
Integration Time (sec): 1.000000E-2
Scans to average: 100
Electric dark correction enabled: true
Nonlinearity correction enabled: false
Boxcar width: 0
XAxis mode: Wavelengths
Number of Pixels in Spectrum: 2048
>>>>>Begin Spectral Data<<<<<
189.047	-69.8
189.435	-69.8
189.823	-69.8
190.211	3353.49
190.599	113.57
190.987	-83.05
191.375	-45.22
191.763	73.08
192.151	-43.88
192.538	125.65
192.926	13.56
193.314	773.36
193.702	191.68
194.089	138.22
194.477	-3240
194.864	-122.7
195.252	53.92
195.639	1776.07
196.027	117.12
196.414	225.99
196.801	153.68
197.189	133.27
197.576	-480.36
197.963	61.19
198.351	17.97
198.738	-8.66
199.125	-8.11
199.512	-34.76
199.899	56
200.286	-65.6
200.673	20.82
201.06	-26.31
201.447	-2.55
201.833	-31.77
202.22	32.21
202.607	-6.83
202.994	3.45
203.38	21.18
203.767	-31.82
204.154	6.86
204.54	-20.27
204.927	-7.77
205.313	25.7
205.699	-44.76
206.086	22.53
206.472	24.09
206.858	-18.02
207.245	7.26
207.631	19.35
208.017	2.27
208.403	2.94
208.789	11.56
209.175	-43.99
209.561	29.68
209.947	-11.58
210.333	2.76
210.719	6.73
211.105	33.59
211.491	-2.32
211.876	30.75
212.262	35.11
212.648	43.79
213.034	10.08
213.419	11.56
213.805	8.98
214.19	13.82
214.576	-3.26
214.961	-26.07
215.346	-4.24
215.732	5.72
216.117	16.26
216.502	-5.36
216.888	-31.02
217.273	-10.31
217.658	-28.27
218.043	3.34
218.428	-4.35
218.813	1.39
219.198	41.53
219.583	-17.91
219.968	12.03
220.353	8.01
220.738	19.97
221.122	4.87
221.507	-18.14
221.892	3.18
222.276	-4.52
222.661	9.82
223.046	1.59
223.43	7.78
223.815	7.01
224.199	16.45
224.583	1.82
224.968	10.48
225.352	27.48
225.736	7.74
226.121	2.24
226.505	5.11
226.889	7.51
227.273	7.45
227.657	2.37
228.041	4.17
228.425	7.71
228.809	7.34
229.193	5.32
229.577	7.02
229.961	3.97
230.344	4.63
230.728	4.96
231.112	5.49
231.495	5.55
231.879	4.08
232.263	4.86
232.646	4.73
233.03	5.79
233.413	6.63
233.797	4.06
234.18	6.06
234.563	3.93
234.946	8.26
235.33	2.5
235.713	3.1
236.096	6.51
236.479	4.69
236.862	4.26
237.245	4.06
237.628	5.13
238.011	5.06
238.394	6.69
238.777	8.09
239.16	3.72
239.543	3.61
239.925	6.38
240.308	5.94
240.691	4.81
241.073	3.43
241.456	4.88
241.838	4.65
242.221	7.07
242.603	6.23
242.986	6.01
243.368	6.05
243.75	5.63
244.133	5.12
244.515	5.03
244.897	5.97
245.279	5.8
245.661	5.34
246.043	5.92
246.425	5.45
246.807	6.47
247.189	6.28
247.571	6.09
247.953	5.13
248.335	5.66
248.717	5.27
249.098	5.5
249.48	5.76
249.862	5.57
250.243	5.41
250.625	6.07
251.006	5.57
251.388	5.98
251.769	6.26
252.151	5.67
252.532	5.49
252.913	6.71
253.295	5.57
253.676	5.94
254.057	5.23
254.438	5.44
254.819	5.19
255.2	5.8
255.581	6.19
255.962	6.05
256.343	5.43
256.724	5.44
257.105	4.6
257.486	6.07
257.867	5.68
258.247	5.44
258.628	6.95
259.009	5.24
259.389	4.93
259.77	5.26
260.15	5.26
260.531	5.7
260.911	5.27
261.292	5.56
261.672	5.44
262.052	5.06
262.432	5.3
262.813	5.35
263.193	5.41
263.573	5.35
263.953	5.4
264.333	4.93
264.713	5.99
265.093	5.28
265.473	5.03
265.853	4.46
266.233	4.55
266.612	5.62
266.992	5.15
267.372	4.95
267.752	5.64
268.131	5.29
268.511	4.61
268.89	5.67
269.27	4.74
269.649	5.05
270.029	5.66
270.408	5.65
270.787	5.65
271.167	5.28
271.546	5.15
271.925	4.79
272.304	5.2
272.683	5.25
273.062	5.04
273.441	4.95
273.82	4.94
274.199	4.45
274.578	4.89
274.957	5.11
275.336	5.72
275.715	5.66
276.093	4.68
276.472	4.91
276.851	5.26
277.229	5.37
277.608	5.45
277.986	4.65
278.365	5.24
278.743	4.58
279.122	4.74
279.5	4.82
279.878	4.88
280.257	4.64
280.635	4.67
281.013	5.6
281.391	4.79
281.769	4.89
282.147	5
282.525	5.52
282.903	5.25
283.281	5.06
283.659	5.28
284.037	5.62
284.415	4.83
284.792	5.07
285.17	5.26
285.548	4.38
285.925	5.4
286.303	4.91
286.68	5.25
287.058	5.42
287.435	5.04
287.813	4.63
288.19	5.15
288.567	5.06
288.945	5.09
289.322	4.96
289.699	5.35
290.076	5.49
290.453	5.5
290.83	5.06
291.207	4.76
291.584	5.07
291.961	5.5
292.338	5.19
292.715	4.86
293.092	5.05
293.469	5.07
293.845	5.07
294.222	5.26
294.599	5.16
294.975	6
295.352	5.2
295.728	5.11
296.105	5.15
296.481	5.65
296.858	5.66
297.234	5.39
297.61	5.66
297.986	4.89
298.363	5.76
298.739	5.65
299.115	5.4
299.491	5.47
299.867	5.63
300.243	5.44
300.619	5.76
300.995	6.11
301.371	5.64
301.746	5.63
302.122	5.65
302.498	5.57
302.874	5.79
303.249	5.83
303.625	5.68
304	5.65
304.376	5.45
304.751	5.27
305.127	5.93
305.502	5.65
305.878	5.84
306.253	6
306.628	5.63
307.003	5.44
307.378	6.3
307.754	6.16
308.129	5.62
308.504	6.12
308.879	5.99
309.254	5.93
309.629	5.24
310.003	5.86
310.378	5.47
310.753	5.86
311.128	6.1
311.502	6.38
311.877	6.01
312.252	6.24
312.626	6.24
313.001	6.28
313.375	5.97
313.75	5.94
314.124	6.43
314.498	6.4
314.873	6.27
315.247	6.5
315.621	5.77
315.995	6.6
316.369	5.4
316.743	5.97
317.117	6.52
317.491	5.88
317.865	5.57
318.239	6.08
318.613	6.46
318.987	6.04
319.361	6.64
319.734	6.08
320.108	6.42
320.482	6.22
320.855	6.39
321.229	6.12
321.602	5.77
321.976	5.92
322.349	6.59
322.723	6.23
323.096	6.5
323.469	5.96
323.843	6.11
324.216	6.27
324.589	6.18
324.962	6.18
325.335	6.24
325.708	6.45
326.081	6.2
326.454	6.38
326.827	6.4
327.2	6.11
327.573	6.07
327.945	6.82
328.318	6.44
328.691	6.24
329.063	5.98
329.436	6.04
329.809	6.19
330.181	6.06
330.553	5.88
330.926	6.38
331.298	6.16
331.671	6.65
332.043	6.65
332.415	6.71
332.787	5.98
333.159	6.14
333.532	6.59
333.904	6.16
334.276	5.75
334.648	6.6
335.02	6.73
335.391	6.47
335.763	6.18
336.135	6.54
336.507	5.54
336.879	5.9
337.25	6.46
337.622	6.45
337.993	6.49
338.365	6.04
338.736	6.84
339.108	6.04
339.479	5.68
339.851	6.37
340.222	6.76
340.593	6.22
340.964	6.64
341.336	5.99
341.707	6.21
342.078	6.02
342.449	6.32
342.82	6.46
343.191	6.15
343.562	6.37
343.933	6.42
344.303	5.81
344.674	6.61
345.045	6.47
345.416	6.55
345.786	6.98
346.157	6.18
346.527	5.79
346.898	6.29
347.268	6.19
347.639	6.23
348.009	6.2
348.38	6.67
348.75	6.49
349.12	6.7
349.49	6.66
349.861	5.72
350.231	5.98
350.601	6.85
350.971	6.89
351.341	6.39
351.711	6.61
352.081	6.31
352.45	6.58
352.82	6.38
353.19	6.81
353.56	6.89
353.929	6.69
354.299	6.37
354.669	6.35
355.038	6.54
355.408	6.47
355.777	6.74
356.147	6.33
356.516	6.9
356.885	6.67
357.254	6.3
357.624	6.44
357.993	6.8
358.362	6.24
358.731	6.65
359.1	6.36
359.469	6.2
359.838	6.4
360.207	6.6
360.576	6.6
360.945	6.43
361.314	6.15
361.682	6.15
362.051	6.76
362.42	6.42
362.788	6.37
363.157	6.4
363.525	6.4
363.894	6.52
364.262	6.55
364.631	6.29
364.999	6.63
365.367	6.89
365.735	6.18
366.104	6.3
366.472	6.28
366.84	6.23
367.208	6.74
367.576	6.26
367.944	7.04
368.312	6.64
368.68	6.66
369.048	6.49
369.416	6.67
369.783	6.25
370.151	6.68
370.519	6.54
370.886	6.69
371.254	6.16
371.621	6.49
371.989	6.77
372.356	6.64
372.724	6.98
373.091	6.68
373.458	6.12
373.826	6.67
374.193	6.55
374.56	6.31
374.927	6.49
375.294	6.54
375.661	6.81
376.028	6.35
376.395	6.29
376.762	6.98
377.129	6.71
377.496	6.73
377.863	7.01
378.229	6.87
378.596	6.62
378.963	7
379.329	6.69
379.696	6.6
380.062	6.81
380.429	6.55
380.795	6.77
381.161	6.48
381.528	6.84
381.894	6.64
382.26	6.49
382.626	7.01
382.993	6.86
383.359	6.81
383.725	6.79
384.091	6.52
384.457	6.65
384.823	6.59
385.188	6.7
385.554	6.6
385.92	6.59
386.286	7.26
386.651	6.66
387.017	7.14
387.383	7.01
387.748	6.84
388.114	6.73
388.479	6.53
388.845	6.74
389.21	6.66
389.575	6.88
389.94	6.63
390.306	6.94
390.671	6.76
391.036	6.98
391.401	6.98
391.766	7.08
392.131	6.75
392.496	6.72
392.861	6.62
393.226	6.92
393.591	6.71
393.956	6.7
394.32	6.8
394.685	6.96
395.05	7.02
395.414	6.83
395.779	6.67
396.143	6.75
396.508	6.62
396.872	7.11
397.236	6.61
397.601	6.55
397.965	6.76
398.329	6.82
398.694	7.05
399.058	6.69
399.422	7.04
399.786	6.87
400.15	6.88
400.514	6.73
400.878	6.7
401.242	6.75
401.605	6.98
401.969	6.83
402.333	6.9
402.697	7.01
403.06	7.05
403.424	7.26
403.787	6.64
404.151	6.67
404.514	6.83
404.878	7.13
405.241	6.98
405.604	7.05
405.968	6.58
406.331	7.18
406.694	7.02
407.057	7.19
407.42	6.72
407.783	6.85
408.146	6.96
408.509	7.2
408.872	6.98
409.235	6.99
409.598	6.86
409.961	6.81
410.323	7.27
410.686	7.21
411.049	7.11
411.411	7.13
411.774	7.22
412.136	6.88
412.499	6.99
412.861	6.92
413.223	6.85
413.586	6.85
413.948	6.92
414.31	7.07
414.672	6.87
415.035	7.17
415.397	6.87
415.759	7.12
416.121	7.07
416.483	6.86
416.845	7.08
417.206	7.22
417.568	6.91
417.93	6.93
418.292	7.01
418.653	6.98
419.015	6.94
419.377	6.83
419.738	7.06
420.1	7.06
420.461	7.16
420.822	6.91
421.184	6.95
421.545	7.04
421.906	7
422.267	6.95
422.629	6.97
422.99	7.02
423.351	6.94
423.712	6.85
424.073	6.91
424.434	6.98
424.795	7
425.155	6.9
425.516	6.97
425.877	6.93
426.238	6.9
426.598	6.88
426.959	6.96
427.32	6.94
427.68	7
428.041	6.99
428.401	7.08
428.761	7.07
429.122	7.11
429.482	7.14
429.842	7.25
430.202	7.24
430.563	7.14
430.923	7.26
431.283	7.08
431.643	6.88
432.003	7.23
432.363	7.15
432.722	7.15
433.082	7.14
433.442	7.35
433.802	7.26
434.161	7.25
434.521	7.1
434.881	7.06
435.24	7.14
435.6	7.12
435.959	7.17
436.319	7.26
436.678	7.27
437.037	7.12
437.396	7.19
437.756	7.1
438.115	7.27
438.474	7.47
438.833	7.17
439.192	7.32
439.551	7.24
439.91	7.49
440.269	7.07
440.628	7.19
440.987	7.33
441.345	7.06
441.704	7.3
442.063	7.15
442.421	7.14
442.78	7.35
443.138	7.2
443.497	7.14
443.855	7.22
444.214	7.35
444.572	7.39
444.93	7.46
445.288	7.21
445.647	7.37
446.005	7.4
446.363	7.32
446.721	7.33
447.079	7.3
447.437	7.18
447.795	7.18
448.153	7.24
448.51	7.19
448.868	7.26
449.226	7.13
449.584	7.16
449.941	7.23
450.299	7.36
450.656	7.36
451.014	7.39
451.371	7.39
451.729	7.25
452.086	7.31
452.443	7.54
452.801	7.62
453.158	7.62
453.515	7.44
453.872	7.51
454.229	7.5
454.586	7.61
454.943	7.4
455.3	7.47
455.657	7.37
456.014	7.55
456.371	7.48
456.727	7.68
457.084	7.48
457.441	7.73
457.797	7.55
458.154	7.56
458.51	7.71
458.867	7.53
459.223	7.48
459.58	7.56
459.936	7.57
460.292	7.53
460.648	7.57
461.005	7.46
461.361	7.43
461.717	7.48
462.073	7.49
462.429	7.43
462.785	7.47
463.141	7.48
463.496	7.62
463.852	7.53
464.208	7.57
464.564	7.54
464.919	7.74
465.275	7.86
465.631	7.64
465.986	7.74
466.342	7.79
466.697	7.69
467.052	7.72
467.408	7.77
467.763	7.72
468.118	7.59
468.473	7.62
468.829	7.64
469.184	7.63
469.539	7.61
469.894	7.73
470.249	7.69
470.603	7.58
470.958	7.72
471.313	7.78
471.668	7.77
472.023	7.83
472.377	7.81
472.732	7.82
473.086	7.71
473.441	7.82
473.795	7.84
474.15	7.75
474.504	7.8
474.859	7.82
475.213	7.87
475.567	7.89
475.921	8.02
476.275	8
476.63	8.02
476.984	7.84
477.338	8.08
477.692	7.86
478.045	7.9
478.399	7.83
478.753	7.78
479.107	7.88
479.461	7.76
479.814	8.09
480.168	7.87
480.521	7.95
480.875	7.93
481.228	7.9
481.582	7.93
481.935	7.96
482.289	7.93
482.642	7.95
482.995	8.09
483.348	7.87
483.701	8
484.055	7.84
484.408	7.81
484.761	7.85
485.114	7.78
485.466	7.66
485.819	7.59
486.172	7.51
486.525	7.51
486.878	7.55
487.23	7.56
487.583	7.61
487.936	7.8
488.288	7.79
488.641	7.81
488.993	7.82
489.345	7.82
489.698	7.78
490.05	7.67
490.402	7.61
490.754	7.71
491.107	7.76
491.459	7.82
491.811	7.92
492.163	8.13
492.515	8.13
492.866	8.07
493.218	8
493.57	7.95
493.922	7.78
494.274	7.86
494.625	7.83
494.977	7.92
495.328	8.06
495.68	8.12
496.031	8.18
496.383	8.06
496.734	8.18
497.086	8.36
497.437	8.41
497.788	8.34
498.139	8.32
498.49	8.23
498.842	8.26
499.193	8.22
499.544	8.25
499.894	8.26
500.245	8.28
500.596	8.33
500.947	8.35
501.298	8.4
501.648	8.45
501.999	8.37
502.35	8.34
502.7	8.51
503.051	8.44
503.401	8.46
503.752	8.44
504.102	8.59
504.452	8.37
504.803	8.41
505.153	8.45
505.503	8.45
505.853	8.56
506.203	8.51
506.553	8.46
506.903	8.67
507.253	8.57
507.603	8.53
507.953	8.55
508.303	8.75
508.652	8.8
509.002	8.79
509.352	8.57
509.701	8.57
510.051	8.6
510.4	8.69
510.75	8.59
511.099	8.57
511.449	8.59
511.798	8.57
512.147	8.64
512.496	8.72
512.846	8.62
513.195	8.8
513.544	8.78
513.893	8.69
514.242	8.72
514.591	8.85
514.939	8.65
515.288	8.76
515.637	8.82
515.986	8.84
516.334	8.96
516.683	8.94
517.032	8.89
517.38	8.94
517.729	8.98
518.077	8.95
518.426	8.8
518.774	9.05
519.122	8.97
519.47	8.9
519.819	8.94
520.167	8.74
520.515	8.83
520.863	8.79
521.211	8.78
521.559	8.79
521.907	8.9
522.255	8.82
522.602	8.96
522.95	9.11
523.298	9.08
523.645	9.19
523.993	9.15
524.341	9.12
524.688	9.28
525.036	9.23
525.383	9.24
525.73	9.27
526.078	9.35
526.425	9.31
526.772	9.32
527.119	9.3
527.466	9.05
527.814	9.12
528.161	9.02
528.508	9.15
528.854	9.07
529.201	9.3
529.548	9.18
529.895	9.22
530.242	9.05
530.588	8.94
530.935	8.85
531.282	8.9
531.628	8.9
531.975	8.9
532.321	8.98
532.667	9.1
533.014	9.25
533.36	9.28
533.706	9.37
534.052	9.27
534.399	9.39
534.745	9.45
535.091	9.33
535.437	9.26
535.783	9.2
536.129	9.25
536.474	9.35
536.82	9.4
537.166	9.41
537.512	9.57
537.857	9.72
538.203	9.65
538.549	9.56
538.894	9.49
539.239	9.49
539.585	9.5
539.93	9.59
540.276	9.59
540.621	9.76
540.966	9.83
541.311	9.97
541.656	10.04
542.001	9.97
542.346	9.95
542.691	9.86
543.036	9.78
543.381	9.62
543.726	9.55
544.071	9.72
544.415	9.62
544.76	9.73
545.105	9.85
545.449	9.85
545.794	9.93
546.138	9.94
546.483	10.02
546.827	10.13
547.171	10.16
547.516	10.16
547.86	10.11
548.204	10.14
548.548	10.25
548.892	10.15
549.236	10.1
549.58	10.15
549.924	10.29
550.268	10.3
550.612	10.38
550.956	10.4
551.3	10.44
551.643	10.45
551.987	10.63
552.33	10.55
552.674	10.52
553.017	10.57
553.361	10.81
553.704	10.49
554.048	10.87
554.391	10.76
554.734	10.73
555.077	10.62
555.42	10.64
555.764	10.73
556.107	10.7
556.45	10.83
556.793	10.75
557.135	10.92
557.478	10.72
557.821	10.91
558.164	11.1
558.507	10.92
558.849	11.2
559.192	11.07
559.534	10.91
559.877	11.12
560.219	11.19
560.562	11.28
560.904	11.27
561.246	11.24
561.589	11.21
561.931	11.23
562.273	11.22
562.615	11.19
562.957	11.26
563.299	11.44
563.641	11.28
563.983	11.33
564.325	11.46
564.667	11.31
565.008	11.24
565.35	11.55
565.692	11.65
566.033	11.39
566.375	11.48
566.716	11.47
567.058	11.59
567.399	11.36
567.741	11.61
568.082	11.52
568.423	11.69
568.764	11.56
569.105	11.68
569.447	11.52
569.788	11.68
570.129	11.67
570.47	11.74
570.811	11.93
571.151	11.72
571.492	11.93
571.833	11.8
572.174	12.06
572.514	11.83
572.855	11.98
573.195	12.1
573.536	12.05
573.876	11.95
574.217	11.91
574.557	11.91
574.898	12.13
575.238	11.98
575.578	12.01
575.918	12.11
576.258	12.11
576.598	12.2
576.938	12.22
577.278	12.28
577.618	12.3
577.958	12.39
578.298	12.41
578.638	12.37
578.977	12.45
579.317	12.66
579.657	12.35
579.996	12.55
580.336	12.54
580.675	12.79
581.014	12.76
581.354	12.79
581.693	12.51
582.032	12.55
582.372	12.69
582.711	13
583.05	12.81
583.389	13.03
583.728	13
584.067	13.02
584.406	13.01
584.745	12.77
585.083	13
585.422	13
585.761	13.33
586.1	13.33
586.438	13.12
586.777	13
587.115	13.29
587.454	13.1
587.792	13.42
588.13	13.55
588.469	13.24
588.807	13.3
589.145	13.55
589.483	13.58
589.821	13.51
590.159	13.54
590.497	13.54
590.835	13.57
591.173	13.43
591.511	13.49
591.849	13.78
592.187	13.68
592.524	13.9
592.862	13.63
593.2	13.35
593.537	13.81
593.875	13.71
594.212	14
594.55	13.98
594.887	13.78
595.224	14.14
595.561	13.91
595.899	13.73
596.236	14.06
596.573	14.27
596.91	14.06
597.247	14.05
597.584	14.07
597.921	14.08
598.258	14.12
598.594	14.13
598.931	14.01
599.268	14.25
599.604	14.01
599.941	14.14
600.277	14.02
600.614	14.42
600.95	14.36
601.287	14.21
601.623	14.63
601.959	14.67
602.296	14.64
602.632	14.87
602.968	14.81
603.304	14.57
603.64	14.79
603.976	14.72
604.312	14.93
604.648	14.71
604.984	14.79
605.319	14.68
605.655	14.89
605.991	14.86
606.326	14.76
606.662	14.79
606.998	14.71
607.333	14.65
607.668	14.77
608.004	14.79
608.339	14.95
608.674	14.84
609.01	15.33
609.345	15.22
609.68	15.13
610.015	15.27
610.35	15.51
610.685	15.4
611.02	15.73
611.355	15.69
611.689	15.16
612.024	15.3
612.359	15.24
612.694	15.42
613.028	15.31
613.363	15.41
613.697	15.41
614.032	15.67
614.366	15.48
614.7	15.84
615.035	15.58
615.369	15.65
615.703	15.71
616.037	15.5
616.371	15.78
616.705	15.85
617.039	15.78
617.373	15.89
617.707	15.82
618.041	16.1
618.375	16.02
618.709	16
619.042	16.06
619.376	16.33
619.71	15.88
620.043	16.27
620.377	16.65
620.71	16.24
621.043	16.37
621.377	16.28
621.71	16.24
622.043	15.99
622.376	16.62
622.709	16.5
623.043	16.17
623.376	16.53
623.709	16.34
624.041	16.76
624.374	16.1
624.707	16.42
625.04	16.41
625.373	16.54
625.705	16.97
626.038	16.74
626.37	16.89
626.703	16.88
627.035	16.94
627.368	17.19
627.7	16.9
628.032	17.08
628.365	16.72
628.697	17.03
629.029	17.03
629.361	16.92
629.693	17.18
630.025	16.93
630.357	16.92
630.689	17.17
631.021	17.09
631.353	17.44
631.684	17.3
632.016	17.31
632.348	17.34
632.679	17.25
633.011	17.37
633.342	17.34
633.674	17.51
634.005	17.66
634.336	17.46
634.668	17.61
634.999	17.75
635.33	17.83
635.661	18.1
635.992	17.6
636.323	17.91
636.654	17.78
636.985	17.78
637.316	17.64
637.647	17.62
637.977	17.69
638.308	17.77
638.639	17.92
638.969	18.25
639.3	18.27
639.63	18.14
639.961	18.43
640.291	18.4
640.622	18.26
640.952	18.08
641.282	18.49
641.612	18.27
641.943	18.1
642.273	18.62
642.603	18.13
642.933	18.19
643.263	18.9
643.592	18.37
643.922	18.51
644.252	18.59
644.582	18.61
644.911	18.6
645.241	18.91
645.571	18.56
645.9	18.74
646.23	18.49
646.559	18.99
646.888	19.04
647.218	18.61
647.547	18.39
647.876	19.34
648.205	18.93
648.534	19.46
648.863	19.13
649.192	19.13
649.521	18.96
649.85	19.66
650.179	19.32
650.508	19.35
650.837	19.31
651.165	19.22
651.494	18.86
651.822	19.22
652.151	19.07
652.479	19.53
652.808	19
653.136	19.2
653.465	19.43
653.793	19.63
654.121	19.92
654.449	19.43
654.777	19.47
655.105	19.19
655.433	19.81
655.761	19.51
656.089	19.86
656.417	19.41
656.745	19.86
657.073	19.89
657.4	19.55
657.728	20.21
658.056	19.8
658.383	20.16
658.711	19.87
659.038	20.49
659.365	20.47
659.693	20.13
660.02	20.07
660.347	20.38
660.674	20.07
661.001	20.41
661.329	20.27
661.656	20.27
661.982	20.28
662.309	20.28
662.636	20.28
662.963	20.71
663.29	20.76
663.616	20.26
663.943	20.73
664.27	20.38
664.596	20.76
664.923	20.97
665.249	20.65
665.576	21.09
665.902	20.82
666.228	20.85
666.554	20.67
666.881	20.71
667.207	20.8
667.533	21.27
667.859	20.59
668.185	21.05
668.511	21.25
668.837	21.2
669.162	21.49
669.488	21.29
669.814	21.01
670.139	20.53
670.465	21.89
670.791	21.36
671.116	21.56
671.442	21.28
671.767	20.99
672.092	21.67
672.418	21.07
672.743	21.66
673.068	20.97
673.393	21.72
673.718	21.3
674.043	21.42
674.368	21.82
674.693	21.5
675.018	22.15
675.343	21.4
675.667	22.28
675.992	22.47
676.317	22.04
676.641	21.57
676.966	22.1
677.29	21.39
677.615	22.19
677.939	21.85
678.264	21.59
678.588	22
678.912	22.4
679.236	21.61
679.56	21.89
679.885	22.34
680.209	22.19
680.532	22.91
680.856	22.09
681.18	22.32
681.504	21.87
681.828	21.67
682.152	22.49
682.475	22.63
682.799	22.44
683.122	22.86
683.446	22.44
