Data from 0087_crown_Reflection__1__021.txt Node

Date: Mon Aug 28 18:48:46 CDT 2023
User: ToomeyLab
Spectrometer: FLMS14357
Trigger mode: 0
Integration Time (sec): 1.000000E-2
Scans to average: 100
Electric dark correction enabled: true
Nonlinearity correction enabled: false
Boxcar width: 0
XAxis mode: Wavelengths
Number of Pixels in Spectrum: 2048
>>>>>Begin Spectral Data<<<<<
189.047	-64.47
189.435	-64.47
189.823	-64.47
190.211	-2065.12
190.599	347.12
190.987	61.06
191.375	67.7
191.763	63.57
192.151	149.66
192.538	68.19
192.926	366.9
193.314	16.25
193.702	60.79
194.089	55.07
194.477	4018.82
194.864	406.98
195.252	44.41
195.639	-964.1
196.027	99.31
196.414	-173.86
196.801	85.37
197.189	-33.8
197.576	292.68
197.963	52.15
198.351	-3.54
198.738	11.09
199.125	0.92
199.512	58.23
199.899	28.88
200.286	-167.68
200.673	9.97
201.06	6.24
201.447	-8.71
201.833	-14.99
202.22	-13.56
202.607	22.73
202.994	29
203.38	-17.09
203.767	31.71
204.154	-10.41
204.54	4.27
204.927	-57.5
205.313	1.82
205.699	5.55
206.086	17.7
206.472	-15.44
206.858	-34.6
207.245	-5.83
207.631	24.23
208.017	-17.24
208.403	-1.68
208.789	-14.97
209.175	-16.78
209.561	28.98
209.947	18.09
210.333	-13.96
210.719	18.02
211.105	28.56
211.491	-17.81
211.876	17.37
212.262	-53.81
212.648	33.03
213.034	-24.32
213.419	-16.58
213.805	12.27
214.19	-38.24
214.576	10.09
214.961	-44.97
215.346	29.76
215.732	5.87
216.117	2.71
216.502	1.48
216.888	-92.28
217.273	-2.16
217.658	33.94
218.043	-38.59
218.428	-11.48
218.813	-3.71
219.198	6.46
219.583	-12.33
219.968	4.63
220.353	1.61
220.738	15.7
221.122	-2.54
221.507	-0.42
221.892	4.29
222.276	16.7
222.661	1.37
223.046	-18.18
223.43	9.63
223.815	-2.07
224.199	3.38
224.583	-2.64
224.968	6.13
225.352	6.61
225.736	10.68
226.121	-0.2
226.505	-3.68
226.889	5.87
227.273	9.84
227.657	4.77
228.041	1.83
228.425	3.2
228.809	2.03
229.193	-0.02
229.577	4.07
229.961	3.24
230.344	3.32
230.728	2.89
231.112	2.94
231.495	3.39
231.879	2.32
232.263	2.73
232.646	2.73
233.03	4.76
233.413	5.79
233.797	1.26
234.18	1.32
234.563	1.04
234.946	5.83
235.33	1.72
235.713	1.42
236.096	3.59
236.479	2.36
236.862	4.15
237.245	2.51
237.628	3.7
238.011	2.48
238.394	4.67
238.777	4.75
239.16	2.31
239.543	2.74
239.925	4.98
240.308	1.95
240.691	1.9
241.073	0.5
241.456	3.1
241.838	3.14
242.221	4.7
242.603	3.51
242.986	3.79
243.368	3.47
243.75	2.55
244.133	2.69
244.515	2.47
244.897	2.98
245.279	2.75
245.661	2.49
246.043	2.58
246.425	2.63
246.807	3.54
247.189	2.66
247.571	2.53
247.953	2.53
248.335	2.87
248.717	2.54
249.098	2.61
249.48	2.66
249.862	2.76
250.243	2.64
250.625	3.25
251.006	2.76
251.388	2.96
251.769	3.06
252.151	3.09
252.532	1.62
252.913	3
253.295	1.08
253.676	2.39
254.057	2.5
254.438	2.12
254.819	2.91
255.2	3.13
255.581	2.58
255.962	3.68
256.343	2.67
256.724	1.5
257.105	3.02
257.486	2.7
257.867	2.81
258.247	1.83
258.628	3.13
259.009	1.28
259.389	2.52
259.77	2.57
260.15	2.16
260.531	2.37
260.911	2.45
261.292	3.06
261.672	2.23
262.052	2.32
262.432	2.45
262.813	2.8
263.193	2.33
263.573	1.83
263.953	2.47
264.333	2.26
264.713	2.14
265.093	2.89
265.473	3.31
265.853	1.69
266.233	1.87
266.612	2.67
266.992	1.97
267.372	1.61
267.752	2.5
268.131	2.79
268.511	1.96
268.89	2.38
269.27	1.72
269.649	2.19
270.029	2.92
270.408	2.64
270.787	3.17
271.167	2.99
271.546	2.31
271.925	2.77
272.304	2.21
272.683	2.2
273.062	1.5
273.441	2.18
273.82	2.11
274.199	1.34
274.578	2
274.957	2.53
275.336	2.63
275.715	2.24
276.093	1.92
276.472	1.91
276.851	2.41
277.229	2.39
277.608	2.42
277.986	2.54
278.365	2.26
278.743	2.38
279.122	2.07
279.5	1.94
279.878	2.22
280.257	2.33
280.635	2.33
281.013	1.48
281.391	2.28
281.769	2.38
282.147	2.2
282.525	2.41
282.903	2.31
283.281	1.85
283.659	3.01
284.037	2.75
284.415	2.34
284.792	2.26
285.17	1.65
285.548	1.82
285.925	2.5
286.303	2.48
286.68	2.12
287.058	2.6
287.435	2.11
287.813	2.13
288.19	2.62
288.567	2.31
288.945	2.18
289.322	2.56
289.699	2.15
290.076	2
290.453	2.32
290.83	1.62
291.207	2.26
291.584	2.21
291.961	2.25
292.338	1.65
292.715	1.67
293.092	2.26
293.469	2.07
293.845	1.54
294.222	1.98
294.599	1.97
294.975	1.96
295.352	1.5
295.728	2.02
296.105	2.25
296.481	2.1
296.858	2.54
297.234	2.15
297.61	2.2
297.986	2.19
298.363	2.37
298.739	1.92
299.115	2.03
299.491	2.21
299.867	2.19
300.243	2.53
300.619	2.18
300.995	1.92
301.371	1.81
301.746	2.01
302.122	2.08
302.498	1.96
302.874	2.14
303.249	1.99
303.625	1.98
304	1.94
304.376	2.03
304.751	1.78
305.127	2.49
305.502	2.06
305.878	1.94
306.253	1.92
306.628	2.11
307.003	1.99
307.378	2.21
307.754	2.06
308.129	2.07
308.504	2.55
308.879	2.03
309.254	2.29
309.629	1.81
310.003	2.15
310.378	1.77
310.753	2.2
311.128	1.63
311.502	2.52
311.877	2.15
312.252	2.1
312.626	2.17
313.001	2.31
313.375	2.14
313.75	2.02
314.124	1.82
314.498	2.43
314.873	2.02
315.247	2.37
315.621	2.04
315.995	2.44
316.369	2.04
316.743	1.92
317.117	2.32
317.491	1.32
317.865	1.6
318.239	1.87
318.613	2.27
318.987	2.29
319.361	1.89
319.734	2.05
320.108	1.67
320.482	1.89
320.855	1.71
321.229	2.18
321.602	2.22
321.976	1.51
322.349	2.16
322.723	1.8
323.096	2.23
323.469	1.85
323.843	1.79
324.216	1.75
324.589	2.62
324.962	2.72
325.335	2.75
325.708	1.62
326.081	1.96
326.454	2.35
326.827	2.02
327.2	1.63
327.573	1.82
327.945	2.55
328.318	2.38
328.691	1.75
329.063	1.2
329.436	1.45
329.809	2.71
330.181	1.8
330.553	1.99
330.926	1.81
331.298	2.55
331.671	2.29
332.043	1.94
332.415	2.35
332.787	1.4
333.159	1.96
333.532	2.45
333.904	1.81
334.276	1.77
334.648	2.06
335.02	1.87
335.391	1.95
335.763	1.94
336.135	2.28
336.507	1.85
336.879	1.94
337.25	2.52
337.622	1.73
337.993	2.01
338.365	1.92
338.736	2.36
339.108	1.39
339.479	1.63
339.851	2.08
340.222	2.22
340.593	1.93
340.964	2.07
341.336	2.09
341.707	1.95
342.078	1.62
342.449	1.58
342.82	1.94
343.191	2.03
343.562	1.88
343.933	1.54
344.303	1.73
344.674	1.8
345.045	1.62
345.416	1.83
345.786	2.28
346.157	1.93
346.527	1.51
346.898	1.67
347.268	1.81
347.639	1.75
348.009	1.72
348.38	2.08
348.75	1.89
349.12	1.9
349.49	1.65
349.861	1.67
350.231	1.36
350.601	1.98
350.971	2.21
351.341	2.01
351.711	1.65
352.081	1.98
352.45	1.55
352.82	2.11
353.19	2.21
353.56	2.04
353.929	1.89
354.299	1.48
354.669	2.28
355.038	2.2
355.408	1.87
355.777	1.98
356.147	2.22
356.516	2.64
356.885	2.19
357.254	1.94
357.624	1.88
357.993	2.12
358.362	2.12
358.731	1.63
359.1	1.96
359.469	2.08
359.838	1.84
360.207	1.91
360.576	2.12
360.945	1.86
361.314	1.65
361.682	1.68
362.051	2.32
362.42	1.93
362.788	1.91
363.157	1.97
363.525	1.93
363.894	2.18
364.262	2.23
364.631	1.92
364.999	2.1
365.367	2.11
365.735	1.87
366.104	1.7
366.472	1.8
366.84	1.94
367.208	1.93
367.576	1.88
367.944	2.15
368.312	2.37
368.68	2.1
369.048	1.84
369.416	1.77
369.783	1.83
370.151	2.06
370.519	1.91
370.886	1.66
371.254	1.99
371.621	1.84
371.989	1.71
372.356	1.68
372.724	2.34
373.091	2.43
373.458	1.73
373.826	2.25
374.193	2.31
374.56	1.96
374.927	1.74
375.294	1.9
375.661	2.33
376.028	1.87
376.395	1.92
376.762	2.45
377.129	1.9
377.496	2
377.863	2.15
378.229	1.82
378.596	2.17
378.963	2.28
379.329	1.89
379.696	1.96
380.062	2.09
380.429	1.7
380.795	2.34
381.161	2.21
381.528	2.39
381.894	1.99
382.26	2.11
382.626	2.14
382.993	2.09
383.359	2.19
383.725	2.21
384.091	1.93
384.457	1.9
384.823	1.93
385.188	2.01
385.554	1.93
385.92	2.03
386.286	2.25
386.651	1.99
387.017	2.17
387.383	2.36
387.748	2.09
388.114	2.12
388.479	1.96
388.845	2.4
389.21	2.06
389.575	2.42
389.94	1.95
390.306	2.16
390.671	2.13
391.036	2.09
391.401	2.52
391.766	2.4
392.131	2.11
392.496	1.86
392.861	2
393.226	2.06
393.591	1.93
393.956	2.06
394.32	1.9
394.685	2.11
395.05	2.14
395.414	2.06
395.779	2.01
396.143	1.99
396.508	1.97
396.872	2.26
397.236	2.08
397.601	2.16
397.965	2.23
398.329	2.18
398.694	2.16
399.058	2.15
399.422	2.5
399.786	2.22
400.15	2.33
400.514	2.23
400.878	2.18
401.242	1.92
401.605	2.01
401.969	2.19
402.333	2
402.697	2.42
403.06	2.13
403.424	2.24
403.787	2.03
404.151	1.85
404.514	2.08
404.878	2.1
405.241	2.24
405.604	2.33
405.968	1.82
406.331	2.17
406.694	2.1
407.057	2.21
407.42	2.13
407.783	2.02
408.146	2.12
408.509	2.45
408.872	2.14
409.235	2.35
409.598	2.25
409.961	2.08
410.323	2.45
410.686	2.39
411.049	2.42
411.411	2.15
411.774	2.26
412.136	2.21
412.499	2.17
412.861	2.28
413.223	2.1
413.586	2.06
413.948	2.42
414.31	2.2
414.672	2.17
415.035	2.22
415.397	2.08
415.759	2.38
416.121	2.18
416.483	2.29
416.845	2.12
417.206	2.41
417.568	2.34
417.93	2.14
418.292	2.28
418.653	2.26
419.015	2.16
419.377	1.86
419.738	2.46
420.1	2.14
420.461	2.25
420.822	2.29
421.184	2.32
421.545	2.22
421.906	2.21
422.267	2.13
422.629	2.15
422.99	2.04
423.351	2.13
423.712	2.11
424.073	2.13
424.434	2.25
424.795	2.09
425.155	2.15
425.516	2.19
425.877	2.1
426.238	2.03
426.598	2.11
426.959	2.17
427.32	2.25
427.68	2.19
428.041	2.15
428.401	2.18
428.761	2.17
429.122	2.05
429.482	2.28
429.842	2.4
430.202	2.24
430.563	2.25
430.923	2.34
431.283	2.17
431.643	2.02
432.003	2.28
432.363	2.31
432.722	2.34
433.082	2.27
433.442	2.23
433.802	2.32
434.161	2.18
434.521	2.14
434.881	2.19
435.24	2.13
435.6	2.22
435.959	2.21
436.319	2.3
436.678	2.25
437.037	2.39
437.396	2.34
437.756	2.2
438.115	2.41
438.474	2.39
438.833	2.29
439.192	2.43
439.551	2.27
439.91	2.39
440.269	2.24
440.628	2.21
440.987	2.29
441.345	2.18
441.704	2.23
442.063	2.24
442.421	2.22
442.78	2.27
443.138	2.24
443.497	2.26
443.855	2.25
444.214	2.31
444.572	2.37
444.93	2.47
445.288	2.24
445.647	2.47
446.005	2.41
446.363	2.31
446.721	2.31
447.079	2.27
447.437	2.19
447.795	2.14
448.153	2.24
448.51	2.18
448.868	2.32
449.226	2.18
449.584	2.26
449.941	2.34
450.299	2.25
450.656	2.22
451.014	2.25
451.371	2.3
451.729	2.2
452.086	2.2
452.443	2.49
452.801	2.4
453.158	2.4
453.515	2.36
453.872	2.23
454.229	2.38
454.586	2.35
454.943	2.25
455.3	2.26
455.657	2.33
456.014	2.34
456.371	2.19
456.727	2.49
457.084	2.2
457.441	2.38
457.797	2.34
458.154	2.41
458.51	2.61
458.867	2.24
459.223	2.32
459.58	2.31
459.936	2.49
460.292	2.41
460.648	2.33
461.005	2.3
461.361	2.25
461.717	2.32
462.073	2.25
462.429	2.15
462.785	2.33
463.141	2.34
463.496	2.44
463.852	2.39
464.208	2.46
464.564	2.48
464.919	2.54
465.275	2.5
465.631	2.37
465.986	2.5
466.342	2.42
466.697	2.32
467.052	2.23
467.408	2.29
467.763	2.24
468.118	2.28
468.473	2.31
468.829	2.29
469.184	2.3
469.539	2.35
469.894	2.31
470.249	2.27
470.603	2.42
470.958	2.31
471.313	2.46
471.668	2.26
472.023	2.43
472.377	2.23
472.732	2.4
473.086	2.36
473.441	2.47
473.795	2.48
474.15	2.54
474.504	2.39
474.859	2.43
475.213	2.37
475.567	2.52
475.921	2.52
476.275	2.26
476.63	2.46
476.984	2.44
477.338	2.34
477.692	2.39
478.045	2.6
478.399	2.35
478.753	2.25
479.107	2.39
479.461	2.39
479.814	2.54
480.168	2.57
480.521	2.35
480.875	2.3
481.228	2.34
481.582	2.51
481.935	2.38
482.289	2.42
482.642	2.43
482.995	2.55
483.348	2.46
483.701	2.41
484.055	2.27
484.408	2.25
484.761	2.36
485.114	2.29
485.466	2.24
485.819	2.18
486.172	2.15
486.525	2.18
486.878	2.27
487.23	2.35
487.583	2.43
487.936	2.47
488.288	2.44
488.641	2.37
488.993	2.37
489.345	2.27
489.698	2.29
490.05	2.26
490.402	2.26
490.754	2.33
491.107	2.33
491.459	2.39
491.811	2.42
492.163	2.4
492.515	2.53
492.866	2.34
493.218	2.33
493.57	2.31
493.922	2.19
494.274	2.32
494.625	2.35
494.977	2.46
495.328	2.47
495.68	2.51
496.031	2.5
496.383	2.37
496.734	2.4
497.086	2.52
497.437	2.63
497.788	2.5
498.139	2.43
498.49	2.41
498.842	2.36
499.193	2.3
499.544	2.35
499.894	2.41
500.245	2.42
500.596	2.5
500.947	2.43
501.298	2.52
501.648	2.38
501.999	2.42
502.35	2.41
502.7	2.49
503.051	2.5
503.401	2.55
503.752	2.39
504.102	2.46
504.452	2.48
504.803	2.56
505.153	2.47
505.503	2.45
505.853	2.51
506.203	2.59
506.553	2.38
506.903	2.5
507.253	2.47
507.603	2.53
507.953	2.61
508.303	2.63
508.652	2.57
509.002	2.58
509.352	2.47
509.701	2.5
510.051	2.47
510.4	2.44
510.75	2.44
511.099	2.48
511.449	2.52
511.798	2.47
512.147	2.48
512.496	2.52
512.846	2.54
513.195	2.55
513.544	2.51
513.893	2.52
514.242	2.43
514.591	2.53
514.939	2.36
515.288	2.54
515.637	2.55
515.986	2.61
516.334	2.62
516.683	2.62
517.032	2.61
517.38	2.66
517.729	2.62
518.077	2.52
518.426	2.47
518.774	2.55
519.122	2.54
519.47	2.47
519.819	2.45
520.167	2.46
520.515	2.54
520.863	2.37
521.211	2.45
521.559	2.53
521.907	2.51
522.255	2.36
522.602	2.5
522.95	2.66
523.298	2.61
523.645	2.51
523.993	2.44
524.341	2.68
524.688	2.7
525.036	2.52
525.383	2.66
525.73	2.68
526.078	2.64
526.425	2.59
526.772	2.58
527.119	2.53
527.466	2.4
527.814	2.41
528.161	2.45
528.508	2.43
528.854	2.55
529.201	2.59
529.548	2.45
529.895	2.46
530.242	2.39
530.588	2.33
530.935	2.29
531.282	2.35
531.628	2.41
531.975	2.51
532.321	2.57
532.667	2.55
533.014	2.69
533.36	2.59
533.706	2.66
534.052	2.59
534.399	2.52
534.745	2.53
535.091	2.48
535.437	2.39
535.783	2.43
536.129	2.48
536.474	2.52
536.82	2.61
537.166	2.57
537.512	2.63
537.857	2.66
538.203	2.52
538.549	2.54
538.894	2.44
539.239	2.44
539.585	2.52
539.93	2.61
540.276	2.61
540.621	2.62
540.966	2.54
541.311	2.71
541.656	2.67
542.001	2.73
542.346	2.55
542.691	2.5
543.036	2.5
543.381	2.4
543.726	2.4
544.071	2.48
544.415	2.53
544.76	2.58
545.105	2.58
545.449	2.48
545.794	2.59
546.138	2.62
546.483	2.62
546.827	2.61
547.171	2.72
547.516	2.59
547.86	2.65
548.204	2.69
548.548	2.59
548.892	2.47
549.236	2.5
549.58	2.67
549.924	2.5
550.268	2.76
550.612	2.68
550.956	2.8
551.3	2.71
551.643	2.86
551.987	2.61
552.33	2.65
552.674	2.57
553.017	2.71
553.361	2.72
553.704	2.73
554.048	2.68
554.391	2.67
554.734	2.71
555.077	2.6
555.42	2.71
555.764	2.73
556.107	2.7
556.45	2.77
556.793	2.75
557.135	2.83
557.478	2.82
557.821	2.75
558.164	2.72
558.507	2.77
558.849	2.84
559.192	2.68
559.534	2.56
559.877	2.9
560.219	2.79
560.562	2.7
560.904	2.83
561.246	2.71
561.589	2.78
561.931	2.75
562.273	2.65
562.615	2.75
562.957	2.77
563.299	2.79
563.641	2.7
563.983	2.73
564.325	2.7
564.667	2.71
565.008	2.64
565.35	2.91
565.692	2.85
566.033	2.75
566.375	2.78
566.716	2.77
567.058	2.59
567.399	2.58
567.741	2.67
568.082	2.5
568.423	2.6
568.764	2.66
569.105	2.84
569.447	2.82
569.788	2.74
570.129	2.85
570.47	2.85
570.811	2.71
571.151	2.53
571.492	2.62
571.833	2.68
572.174	2.83
572.514	2.78
572.855	2.62
573.195	3.02
573.536	2.85
573.876	2.56
574.217	2.72
574.557	2.73
574.898	2.89
575.238	2.74
575.578	2.67
575.918	2.74
576.258	2.87
576.598	2.78
576.938	2.71
577.278	2.7
577.618	2.75
577.958	2.7
578.298	2.88
578.638	2.72
578.977	2.74
579.317	2.68
579.657	2.73
579.996	2.85
580.336	2.7
580.675	2.77
581.014	2.91
581.354	2.84
581.693	2.76
582.032	2.82
582.372	2.78
582.711	2.89
583.05	2.84
583.389	2.67
583.728	2.91
584.067	2.9
584.406	2.87
584.745	2.67
585.083	2.92
585.422	2.68
585.761	2.76
586.1	2.91
586.438	2.52
586.777	2.75
587.115	2.9
587.454	2.99
587.792	2.78
588.13	2.96
588.469	2.98
588.807	2.87
589.145	2.72
589.483	2.9
589.821	2.88
590.159	3.08
590.497	3.06
590.835	3.08
591.173	2.61
591.511	2.65
591.849	2.64
592.187	2.8
592.524	2.95
592.862	2.69
593.2	2.77
593.537	2.76
593.875	2.85
594.212	2.9
594.55	3.04
594.887	3.03
595.224	2.98
595.561	2.9
595.899	2.83
596.236	2.98
596.573	2.99
596.91	2.68
597.247	2.85
597.584	2.81
597.921	2.75
598.258	2.66
598.594	2.66
598.931	2.64
599.268	2.83
599.604	2.77
599.941	2.94
600.277	2.71
600.614	3.04
600.95	2.99
601.287	3.09
601.623	3.04
601.959	3.09
602.296	2.8
602.632	3.01
602.968	2.82
603.304	2.94
603.64	2.57
603.976	2.65
604.312	2.91
604.648	2.85
604.984	2.68
605.319	2.94
605.655	3.1
605.991	3.13
606.326	2.95
606.662	2.9
606.998	2.9
607.333	2.92
607.668	2.87
608.004	2.85
608.339	3.01
608.674	2.79
609.01	2.95
609.345	2.92
609.68	2.69
610.015	3.11
610.35	3.08
610.685	3.1
611.02	2.98
611.355	3.18
611.689	2.84
612.024	3.02
612.359	3.03
612.694	2.91
613.028	2.75
613.363	2.8
613.697	2.83
614.032	2.84
614.366	2.85
614.7	3.16
615.035	2.99
615.369	2.93
615.703	3.02
616.037	2.91
616.371	2.74
616.705	2.84
617.039	2.93
617.373	3.09
617.707	2.9
618.041	2.99
618.375	2.73
618.709	3.16
619.042	2.92
619.376	3
619.71	2.83
620.043	3.23
620.377	3.01
620.71	3.06
621.043	2.94
621.377	3.28
621.71	2.86
622.043	2.71
622.376	2.94
622.709	2.76
623.043	3.19
623.376	3.49
623.709	3.01
624.041	3.02
624.374	2.87
624.707	2.85
625.04	2.96
625.373	3.04
625.705	3.43
626.038	3.14
626.37	3.22
626.703	3.17
627.035	2.97
627.368	3.08
627.7	3.34
628.032	2.82
628.365	2.88
628.697	3.09
629.029	2.98
629.361	3.04
629.693	3.14
630.025	2.85
630.357	2.97
630.689	3.03
631.021	3.2
631.353	3.08
631.684	3.42
632.016	2.81
632.348	2.92
632.679	3.21
633.011	3.03
633.342	3.16
633.674	3.19
634.005	2.87
634.336	2.91
634.668	3.09
634.999	3.55
635.33	3.27
635.661	3.26
635.992	3.11
636.323	3.37
636.654	3
636.985	2.78
637.316	3.15
637.647	3.14
637.977	2.91
638.308	3.3
638.639	3.03
638.969	3.22
639.3	3.02
639.63	3.15
639.961	3.26
640.291	2.84
640.622	3.12
640.952	2.92
641.282	3.28
641.612	3.33
641.943	3.06
642.273	3.35
642.603	3.34
642.933	2.58
643.263	3.49
643.592	2.93
643.922	3.11
644.252	3.03
644.582	3.01
644.911	3.13
645.241	3.03
645.571	2.49
645.9	2.74
646.23	3.14
646.559	3
646.888	3.16
647.218	2.83
647.547	2.9
647.876	3.33
648.205	3.21
648.534	3.37
648.863	3.17
649.192	3.47
649.521	3.33
649.85	3.59
650.179	3.22
650.508	3.22
650.837	2.95
651.165	3.19
651.494	3.49
651.822	2.78
652.151	3.02
652.479	3.52
652.808	3.3
653.136	2.89
653.465	3.03
653.793	3.13
654.121	3.54
654.449	2.92
654.777	2.89
655.105	3.14
655.433	2.96
655.761	2.67
656.089	3.4
656.417	2.69
656.745	3.76
657.073	3
657.4	3.17
657.728	3.6
658.056	3.41
658.383	3.21
658.711	2.99
659.038	3.21
659.365	3.56
659.693	3.14
660.02	3.29
660.347	3.62
660.674	3.3
661.001	3.6
661.329	3.02
661.656	3.07
661.982	3
662.309	3.48
662.636	3.29
662.963	3.3
663.29	3.65
663.616	3.17
663.943	3.3
664.27	3.26
664.596	3.14
664.923	3.55
665.249	3.44
665.576	3.12
665.902	3.42
666.228	2.98
666.554	3.09
666.881	3.49
667.207	3.04
667.533	3.76
667.859	2.79
668.185	3.2
668.511	3.12
668.837	3.18
669.162	3.26
669.488	3.17
669.814	3.53
670.139	3.45
670.465	3.54
670.791	3.28
671.116	3.5
671.442	2.92
671.767	2.73
672.092	3.57
672.418	3.09
672.743	3.39
673.068	3.28
673.393	3.32
673.718	2.72
674.043	3.5
674.368	3.65
674.693	3.54
675.018	3.53
675.343	3.48
675.667	3.75
675.992	3
676.317	2.94
676.641	3.43
676.966	3
677.29	3.63
677.615	3.93
677.939	2.86
678.264	3.11
678.588	3.46
678.912	3.44
679.236	2.8
679.56	2.95
679.885	3.44
680.209	3.08
680.532	4.29
680.856	3.39
681.18	3.62
681.504	3.33
681.828	3.6
682.152	3.5
682.475	3.29
682.799	3.64
683.122	3.16
683.446	3.07
683.769	4.1
684.093	3.84
684.416	4
684.739	3.29
685.062	3.95
685.386	3.4
685.709	4.33
686.032	3.78
686.355	3.51
686.678	3.52
687.001	2.91
687.324	3.27
687.646	3.71
687.969	3.31
688.292	3.68
688.614	3.78
688.937	3.36
689.26	3.66
689.582	3.17
689.904	3.79
690.227	3.85
690.549	2.95
690.871	4.07
691.194	3.27
691.516	3.59
691.838	3.62
692.16	3.31
692.482	4
692.804	3.29
693.126	2.78
