Data from 0087_forehead_Reflection__4__019.txt Node

Date: Mon Aug 28 18:47:52 CDT 2023
User: ToomeyLab
Spectrometer: FLMS14357
Trigger mode: 0
Integration Time (sec): 1.000000E-2
Scans to average: 100
Electric dark correction enabled: true
Nonlinearity correction enabled: false
Boxcar width: 0
XAxis mode: Wavelengths
Number of Pixels in Spectrum: 2048
>>>>>Begin Spectral Data<<<<<
189.047	127.75
189.435	127.75
189.823	127.75
190.211	-3893.02
190.599	-28.31
190.987	498.06
191.375	-32.49
191.763	91.19
192.151	-204.13
192.538	57.63
192.926	107.25
193.314	622.57
193.702	175.8
194.089	57.42
194.477	1235.29
194.864	17.46
195.252	30.44
195.639	-155.56
196.027	100.42
196.414	57.8
196.801	139.28
197.189	65.29
197.576	-112.2
197.963	-141.3
198.351	-32.41
198.738	33.7
199.125	-15.25
199.512	-22.77
199.899	0.35
200.286	1.34
200.673	9.1
201.06	-10.52
201.447	-85.89
201.833	-51.41
202.22	-0.29
202.607	-27.82
202.994	30.8
203.38	-30.25
203.767	-22.06
204.154	13.39
204.54	-41.71
204.927	-10.69
205.313	19.64
205.699	6.67
206.086	11.1
206.472	4.74
206.858	-42.07
207.245	-3.1
207.631	28.08
208.017	3.34
208.403	4.07
208.789	0.62
209.175	-46.51
209.561	-1.66
209.947	11.52
210.333	-6.94
210.719	4.83
211.105	28.85
211.491	0.65
211.876	22.76
212.262	64.95
212.648	11.4
213.034	-18.38
213.419	17.46
213.805	0.67
214.19	-13.33
214.576	0.44
214.961	-13.45
215.346	5.2
215.732	14.75
216.117	-1.01
216.502	-11.5
216.888	-40.7
217.273	-5.91
217.658	-12.89
218.043	11.76
218.428	20
218.813	-1.08
219.198	44.41
219.583	18.34
219.968	12.72
220.353	-40.43
220.738	13.67
221.122	6.04
221.507	-34.98
221.892	1.3
222.276	-6.7
222.661	-9
223.046	6.35
223.43	7.58
223.815	8.09
224.199	3.02
224.583	1.46
224.968	0.27
225.352	8.72
225.736	6.72
226.121	3.59
226.505	-0.24
226.889	2.26
227.273	6.42
227.657	1.73
228.041	2.58
228.425	4.05
228.809	-0.75
229.193	0.39
229.577	6.84
229.961	2.35
230.344	0.97
230.728	2.09
231.112	2.05
231.495	2.54
231.879	1.42
232.263	1.54
232.646	-0.6
233.03	3.11
233.413	3.03
233.797	1.65
234.18	3.73
234.563	1.29
234.946	5.27
235.33	3.34
235.713	-1.07
236.096	2.5
236.479	2.61
236.862	2.26
237.245	0.29
237.628	2.01
238.011	3.69
238.394	2.59
238.777	2.68
239.16	0.98
239.543	-0.58
239.925	3.79
240.308	1.84
240.691	1.64
241.073	1.82
241.456	2.1
241.838	1.01
242.221	3.72
242.603	2.82
242.986	3.08
243.368	2.47
243.75	2.24
244.133	2.08
244.515	1.66
244.897	2.32
245.279	2.45
245.661	2.23
246.043	2.65
246.425	2.75
246.807	3.65
247.189	1.94
247.571	2.24
247.953	3.01
248.335	2.88
248.717	2.72
249.098	2.04
249.48	2.51
249.862	2.52
250.243	2.43
250.625	3.02
251.006	2.38
251.388	2.88
251.769	3.55
252.151	2.75
252.532	1.92
252.913	2.98
253.295	2.29
253.676	2.92
254.057	2.68
254.438	2.53
254.819	2.87
255.2	2.53
255.581	3.08
255.962	1.52
256.343	2.96
256.724	1.07
257.105	2.17
257.486	3.2
257.867	2.09
258.247	1.52
258.628	3.11
259.009	2.13
259.389	2.13
259.77	2.19
260.15	1.92
260.531	2.74
260.911	2.95
261.292	2.36
261.672	2.09
262.052	2.36
262.432	2.4
262.813	2.57
263.193	2.65
263.573	2.26
263.953	2.9
264.333	2.38
264.713	2.21
265.093	2.78
265.473	2.24
265.853	2.27
266.233	1.42
266.612	3.2
266.992	2.14
267.372	2.96
267.752	3.04
268.131	2.71
268.511	2.23
268.89	2.41
269.27	2.56
269.649	2.29
270.029	2.59
270.408	2.85
270.787	2.8
271.167	2.63
271.546	2.12
271.925	2.08
272.304	2.64
272.683	2.29
273.062	2.18
273.441	2.17
273.82	2.07
274.199	2.09
274.578	2.4
274.957	2.69
275.336	2.7
275.715	2.47
276.093	1.8
276.472	1.75
276.851	2.47
277.229	2.58
277.608	2.74
277.986	2.05
278.365	2.17
278.743	2.02
279.122	2.04
279.5	2.1
279.878	1.43
280.257	2.23
280.635	2.16
281.013	2.17
281.391	1.87
281.769	2.11
282.147	2.39
282.525	2.61
282.903	2.26
283.281	2.45
283.659	2.94
284.037	2.59
284.415	2.01
284.792	2.8
285.17	2.41
285.548	2.31
285.925	2.82
286.303	2.06
286.68	2.38
287.058	2.34
287.435	2.35
287.813	2.32
288.19	2.86
288.567	2.78
288.945	2.48
289.322	2.58
289.699	2.76
290.076	3.13
290.453	2.67
290.83	2.32
291.207	2.61
291.584	2.57
291.961	3.08
292.338	2.43
292.715	2.46
293.092	2.61
293.469	2.54
293.845	2.57
294.222	2.74
294.599	3.26
294.975	3.06
295.352	2.86
295.728	2.73
296.105	3.27
296.481	3.43
296.858	3.46
297.234	3.26
297.61	3.66
297.986	3.24
298.363	3.53
298.739	3.38
299.115	3.18
299.491	3.59
299.867	3.15
300.243	3.53
300.619	3.67
300.995	3.85
301.371	3.39
301.746	3.9
302.122	3.7
302.498	3.61
302.874	4.35
303.249	3.19
303.625	3.93
304	3.96
304.376	3.79
304.751	4.18
305.127	4.05
305.502	4.11
305.878	3.83
306.253	3.78
306.628	3.73
307.003	3.67
307.378	4.13
307.754	4.18
308.129	3.6
308.504	4.26
308.879	4.15
309.254	4.27
309.629	3.97
310.003	3.65
310.378	3.64
310.753	4.13
311.128	3.99
311.502	4.36
311.877	3.95
312.252	4.41
312.626	4.07
313.001	3.7
313.375	4.07
313.75	4.21
314.124	4.22
314.498	4.23
314.873	4.02
315.247	4.46
315.621	4.33
315.995	4.64
316.369	4.95
316.743	4.23
317.117	4.77
317.491	3.98
317.865	4.47
318.239	4.56
318.613	4.35
318.987	4.19
319.361	4.55
319.734	4.75
320.108	4.98
320.482	4.9
320.855	4.31
321.229	4.74
321.602	5.23
321.976	4.1
322.349	4.83
322.723	4.45
323.096	4.52
323.469	5.07
323.843	4.37
324.216	5.41
324.589	4.54
324.962	5.33
325.335	5.1
325.708	4.5
326.081	4.69
326.454	4.67
326.827	5.44
327.2	4.59
327.573	4.94
327.945	5.28
328.318	5.14
328.691	4.91
329.063	4.4
329.436	4.5
329.809	5.16
330.181	4.95
330.553	4.79
330.926	4.85
331.298	5.02
331.671	5.15
332.043	5.41
332.415	6.08
332.787	5.01
333.159	5.09
333.532	5.49
333.904	4.39
334.276	4.57
334.648	5.33
335.02	5.34
335.391	5.32
335.763	4.53
336.135	5.49
336.507	5.18
336.879	4.3
337.25	5.31
337.622	4.95
337.993	4.87
338.365	5.39
338.736	5.4
339.108	4.56
339.479	4.48
339.851	5.16
340.222	5.21
340.593	5.3
340.964	5.24
341.336	4.67
341.707	5.14
342.078	4.82
342.449	5.31
342.82	5.36
343.191	5.41
343.562	5.04
343.933	5.22
344.303	4.76
344.674	5.32
345.045	5.31
345.416	5.53
345.786	5.5
346.157	5.06
346.527	4.67
346.898	5.14
347.268	4.56
347.639	4.94
348.009	4.96
348.38	5.52
348.75	5.21
349.12	5.51
349.49	5.45
349.861	4.75
350.231	5.1
350.601	6.02
350.971	5.89
351.341	5.45
351.711	5.3
352.081	5.19
352.45	5.05
352.82	5.09
353.19	5.66
353.56	5.8
353.929	5.83
354.299	4.85
354.669	5.71
355.038	5.6
355.408	5.26
355.777	5.15
356.147	5.4
356.516	5.76
356.885	5.43
357.254	5.35
357.624	5.4
357.993	5.75
358.362	5.43
358.731	5.66
359.1	5.49
359.469	5.78
359.838	5.39
360.207	5.37
360.576	5.42
360.945	5.42
361.314	5.44
361.682	4.94
362.051	5.62
362.42	5.38
362.788	5.3
363.157	5.31
363.525	5.35
363.894	5.72
364.262	5.56
364.631	5.23
364.999	5.51
365.367	5.78
365.735	5.65
366.104	5.46
366.472	5.41
366.84	5.48
367.208	5.64
367.576	5.16
367.944	5.87
368.312	5.34
368.68	5.67
369.048	5.95
369.416	5.58
369.783	5.46
370.151	5.61
370.519	5.56
370.886	5.52
371.254	5.23
371.621	6.16
371.989	5.62
372.356	5.3
372.724	6.17
373.091	5.89
373.458	5.57
373.826	5.85
374.193	5.25
374.56	5.74
374.927	5.46
375.294	5.79
375.661	6.02
376.028	5.53
376.395	5.64
376.762	5.76
377.129	5.93
377.496	5.66
377.863	6.05
378.229	5.76
378.596	5.85
378.963	5.82
379.329	5.91
379.696	5.6
380.062	5.64
380.429	5.68
380.795	6.01
381.161	6.08
381.528	6.13
381.894	5.88
382.26	5.97
382.626	5.8
382.993	5.84
383.359	6.15
383.725	6.14
384.091	5.66
384.457	6.09
384.823	5.92
385.188	5.75
385.554	5.89
385.92	5.92
386.286	6.11
386.651	5.97
387.017	6.06
387.383	6.07
387.748	5.88
388.114	5.88
388.479	6.07
388.845	5.96
389.21	5.99
389.575	6.47
389.94	5.74
390.306	6.06
390.671	5.9
391.036	5.94
391.401	6.47
391.766	6.14
392.131	6.26
392.496	5.79
392.861	6.09
393.226	6.27
393.591	5.92
393.956	5.96
394.32	5.99
394.685	6.08
395.05	6.22
395.414	6.24
395.779	6.02
396.143	6.11
396.508	5.87
396.872	6.21
397.236	6.02
397.601	6.15
397.965	6.33
398.329	6.29
398.694	6.41
399.058	6.1
399.422	6.51
399.786	6.3
400.15	6.47
400.514	6.38
400.878	6.11
401.242	6.32
401.605	6.47
401.969	6.25
402.333	6.26
402.697	6.3
403.06	6.31
403.424	6.46
403.787	6.34
404.151	6.28
404.514	6.42
404.878	6.24
405.241	6.39
405.604	6.35
405.968	6.15
406.331	6.41
406.694	6.43
407.057	6.5
407.42	6.18
407.783	6.22
408.146	6.3
408.509	6.57
408.872	6.56
409.235	6.45
409.598	6.2
409.961	6.49
410.323	6.45
410.686	6.78
411.049	6.73
411.411	6.62
411.774	6.62
412.136	6.22
412.499	6.46
412.861	6.57
413.223	6.58
413.586	6.22
413.948	6.67
414.31	6.73
414.672	6.47
415.035	6.61
415.397	6.54
415.759	6.71
416.121	6.72
416.483	6.55
416.845	6.86
417.206	6.84
417.568	6.73
417.93	6.38
418.292	6.61
418.653	6.53
419.015	6.5
419.377	6.26
419.738	6.54
420.1	6.53
420.461	6.5
420.822	6.54
421.184	6.51
421.545	6.53
421.906	6.45
422.267	6.43
422.629	6.46
422.99	6.39
423.351	6.34
423.712	6.34
424.073	6.55
424.434	6.72
424.795	6.52
425.155	6.73
425.516	6.55
425.877	6.41
426.238	6.4
426.598	6.47
426.959	6.52
427.32	6.5
427.68	6.62
428.041	6.66
428.401	6.74
428.761	6.65
429.122	6.77
429.482	6.83
429.842	6.92
430.202	6.81
430.563	6.96
430.923	6.89
431.283	6.74
431.643	6.85
432.003	6.84
432.363	6.83
432.722	7.02
433.082	6.94
433.442	7.04
433.802	6.74
434.161	6.98
434.521	6.91
434.881	6.76
435.24	6.84
435.6	6.83
435.959	6.72
436.319	6.84
436.678	7.03
437.037	6.97
437.396	7.08
437.756	6.91
438.115	7.02
438.474	7.15
438.833	6.95
439.192	6.94
439.551	6.86
439.91	7.02
440.269	6.97
440.628	6.9
440.987	7.06
441.345	6.88
441.704	6.91
442.063	6.83
442.421	6.91
442.78	6.94
443.138	6.84
443.497	6.9
443.855	7.1
444.214	7.02
444.572	7.23
444.93	7.11
445.288	6.94
445.647	7.16
446.005	7.15
446.363	7.12
446.721	7.12
447.079	6.92
447.437	6.86
447.795	6.9
448.153	6.96
448.51	6.86
448.868	6.98
449.226	7.04
449.584	7.03
449.941	7.04
450.299	7.17
450.656	7.2
451.014	7.25
451.371	7.14
451.729	7.15
452.086	7.17
452.443	7.39
452.801	7.52
453.158	7.32
453.515	7.28
453.872	7.3
454.229	7.41
454.586	7.38
454.943	7.37
455.3	7.35
455.657	7.41
456.014	7.41
456.371	7.4
456.727	7.42
457.084	7.36
457.441	7.41
457.797	7.46
458.154	7.59
458.51	7.79
458.867	7.42
459.223	7.44
459.58	7.35
459.936	7.38
460.292	7.44
460.648	7.38
461.005	7.28
461.361	7.33
461.717	7.22
462.073	7.18
462.429	7.12
462.785	7.29
463.141	7.45
463.496	7.67
463.852	7.69
464.208	7.58
464.564	7.64
464.919	7.67
465.275	7.72
465.631	7.62
465.986	7.78
466.342	7.74
466.697	7.66
467.052	7.61
467.408	7.54
467.763	7.61
468.118	7.63
468.473	7.76
468.829	7.7
469.184	7.64
469.539	7.78
469.894	7.63
470.249	7.67
470.603	7.79
470.958	7.73
471.313	7.95
471.668	7.76
472.023	7.82
472.377	7.66
472.732	7.74
473.086	7.82
473.441	7.78
473.795	7.75
474.15	8.02
474.504	7.99
474.859	7.84
475.213	7.7
475.567	7.66
475.921	8.06
476.275	7.89
476.63	7.98
476.984	7.98
477.338	8.03
477.692	7.93
478.045	8.05
478.399	7.92
478.753	7.84
479.107	7.9
479.461	7.92
479.814	8.08
480.168	8.05
480.521	7.82
480.875	8.07
481.228	7.98
481.582	8.04
481.935	8.02
482.289	8.09
482.642	8.09
482.995	8.1
483.348	7.91
483.701	7.92
484.055	7.93
484.408	7.95
484.761	7.8
485.114	7.73
485.466	7.6
485.819	7.31
486.172	7.25
486.525	7.35
486.878	7.62
487.23	7.86
487.583	8.03
487.936	8.1
488.288	8.12
488.641	7.99
488.993	7.8
489.345	7.64
489.698	7.68
490.05	7.62
490.402	7.67
490.754	7.84
491.107	7.95
491.459	8.1
491.811	8.27
492.163	8.31
492.515	8.3
492.866	8.21
493.218	7.94
493.57	7.77
493.922	7.63
494.274	7.79
494.625	7.98
494.977	8.2
495.328	8.37
495.68	8.48
496.031	8.49
496.383	8.38
496.734	8.32
497.086	8.54
497.437	8.52
497.788	8.41
498.139	8.44
498.49	8.4
498.842	8.29
499.193	8.19
499.544	8.31
499.894	8.3
500.245	8.48
500.596	8.47
500.947	8.5
501.298	8.59
501.648	8.53
501.999	8.58
502.35	8.6
502.7	8.69
503.051	8.83
503.401	8.75
503.752	8.63
504.102	8.75
504.452	8.56
504.803	8.76
505.153	8.53
505.503	8.57
505.853	8.61
506.203	8.75
506.553	8.74
506.903	8.81
507.253	8.78
507.603	8.56
507.953	8.84
508.303	8.92
508.652	8.89
509.002	8.99
509.352	8.69
509.701	8.78
510.051	8.7
510.4	8.61
510.75	8.59
511.099	8.77
511.449	8.65
511.798	8.85
512.147	8.71
512.496	8.77
512.846	8.79
513.195	8.86
513.544	8.95
513.893	8.82
514.242	8.87
514.591	8.88
514.939	8.66
515.288	8.88
515.637	9
515.986	8.86
516.334	9
516.683	9.03
517.032	9.02
517.38	9.17
517.729	9.16
518.077	9.04
518.426	8.92
518.774	9.09
519.122	9.04
519.47	8.91
519.819	8.96
520.167	8.9
520.515	8.84
520.863	8.69
521.211	8.79
521.559	8.87
521.907	9.07
522.255	8.97
522.602	9.12
522.95	9.21
523.298	9.29
523.645	9.32
523.993	9.29
524.341	9.3
524.688	9.26
525.036	9.27
525.383	9.4
525.73	9.29
526.078	9.42
526.425	9.32
526.772	9.26
527.119	9.12
527.466	8.95
527.814	8.88
528.161	8.82
528.508	8.97
528.854	9.18
529.201	9.22
529.548	9.07
529.895	9.1
530.242	8.78
530.588	8.52
530.935	8.44
531.282	8.57
531.628	8.86
531.975	9.07
532.321	9.21
532.667	9.28
533.014	9.36
533.36	9.36
533.706	9.3
534.052	9.15
534.399	9.29
534.745	9.27
535.091	9.01
535.437	8.88
535.783	8.9
536.129	9.04
536.474	9.28
536.82	9.5
537.166	9.57
537.512	9.61
537.857	9.61
538.203	9.45
538.549	9.29
538.894	9.14
539.239	9.13
539.585	9.41
539.93	9.5
540.276	9.7
540.621	9.75
540.966	9.6
541.311	9.71
541.656	9.8
542.001	9.62
542.346	9.6
542.691	9.4
543.036	9.2
543.381	8.98
543.726	8.93
544.071	9.16
544.415	9.34
544.76	9.5
545.105	9.65
545.449	9.54
545.794	9.61
546.138	9.75
546.483	9.77
546.827	9.85
547.171	9.84
547.516	9.75
547.86	9.7
548.204	9.77
548.548	9.58
548.892	9.61
549.236	9.47
549.58	9.81
549.924	9.77
550.268	10.03
550.612	10.06
550.956	10.22
551.3	10.13
551.643	10.37
551.987	10.1
552.33	10.15
552.674	10.05
553.017	10.06
553.361	10.19
553.704	10.13
554.048	10.19
554.391	10.24
554.734	10.09
555.077	10.03
555.42	9.85
555.764	10.19
556.107	10.33
556.45	10.2
556.793	10.23
557.135	10.3
557.478	10.28
557.821	10.21
558.164	10.5
558.507	10.39
558.849	10.37
559.192	10.26
559.534	10.26
559.877	10.4
560.219	10.59
560.562	10.45
560.904	10.5
561.246	10.35
561.589	10.36
561.931	10.28
562.273	10.29
562.615	10.33
562.957	10.52
563.299	10.58
563.641	10.31
563.983	10.49
564.325	10.53
564.667	10.39
565.008	10.51
565.35	10.87
565.692	10.83
566.033	10.53
566.375	10.58
566.716	10.41
567.058	10.49
567.399	10.41
567.741	10.61
568.082	10.42
568.423	10.29
568.764	10.25
569.105	10.6
569.447	10.59
569.788	10.7
570.129	10.71
570.47	10.62
570.811	10.79
571.151	10.6
571.492	10.56
571.833	10.64
572.174	10.92
572.514	10.82
572.855	10.6
573.195	10.64
573.536	10.65
573.876	10.62
574.217	10.48
574.557	10.59
574.898	10.74
575.238	10.7
575.578	10.86
575.918	10.86
576.258	10.88
576.598	10.91
576.938	10.69
577.278	10.82
577.618	10.77
577.958	10.86
578.298	11.01
578.638	10.91
578.977	11.05
579.317	10.95
579.657	11.09
579.996	11.02
580.336	11.21
580.675	11.16
581.014	11.19
581.354	11.07
581.693	11.41
582.032	11.32
582.372	11.28
582.711	11.38
583.05	11.17
583.389	11.25
583.728	11.47
584.067	11.33
584.406	11.24
584.745	11.19
585.083	11.19
585.422	11.16
585.761	11.32
586.1	11.44
586.438	11.16
586.777	11.42
587.115	11.43
587.454	11.47
587.792	11.42
588.13	11.2
588.469	11.37
588.807	11.24
589.145	11.45
589.483	11.53
589.821	11.23
590.159	11.52
590.497	11.43
590.835	11.28
591.173	11.16
591.511	11.39
591.849	11.51
592.187	11.6
592.524	11.25
592.862	11.64
593.2	11.68
593.537	11.64
593.875	11.6
594.212	11.63
594.55	11.73
594.887	11.52
595.224	11.63
595.561	11.5
595.899	11.45
596.236	11.53
596.573	11.71
596.91	11.41
597.247	11.67
597.584	11.83
597.921	11.58
598.258	11.4
598.594	11.49
598.931	11.41
599.268	11.34
599.604	11.47
599.941	11.73
600.277	11.56
600.614	12
600.95	12.05
601.287	11.95
601.623	11.91
601.959	11.99
602.296	11.83
602.632	11.99
602.968	12.22
603.304	11.91
603.64	11.98
603.976	12.07
604.312	11.87
604.648	11.85
604.984	11.75
605.319	11.85
605.655	11.76
605.991	11.9
606.326	11.76
606.662	11.76
606.998	11.57
607.333	11.73
607.668	11.64
608.004	11.94
608.339	12.2
608.674	12.03
609.01	12.35
609.345	12.13
609.68	12.07
610.015	12.11
610.35	12.23
610.685	12.15
611.02	11.94
611.355	12.06
611.689	11.87
612.024	12.06
612.359	12.06
612.694	12.26
613.028	11.94
613.363	12.05
613.697	12.51
614.032	12.4
614.366	12.19
614.7	12.31
615.035	12.28
615.369	12.19
615.703	12.33
616.037	12.29
616.371	12.11
616.705	12.49
617.039	12.4
617.373	12.28
617.707	12.57
618.041	12.26
618.375	12.12
618.709	12.6
619.042	12.71
619.376	12.51
619.71	12.31
620.043	12.22
620.377	12.59
620.71	12.46
621.043	12.79
621.377	12.75
621.71	12.21
622.043	12.16
622.376	12.87
622.709	12.85
623.043	12.86
623.376	12.68
623.709	12.55
624.041	12.83
624.374	12.49
624.707	12.43
625.04	12.33
625.373	12.8
625.705	12.99
626.038	12.61
626.37	12.72
626.703	12.7
627.035	13.2
627.368	13.21
627.7	13.04
628.032	12.94
628.365	12.75
628.697	12.79
629.029	12.83
629.361	12.98
629.693	12.82
630.025	12.65
630.357	12.48
630.689	13.23
631.021	13.07
631.353	12.89
631.684	12.96
632.016	12.71
632.348	13.05
632.679	12.99
633.011	13
633.342	12.88
633.674	13.49
634.005	13.27
634.336	13.28
634.668	13.2
634.999	13.01
635.33	13.18
635.661	13.13
635.992	13.23
636.323	13.22
636.654	12.91
636.985	13.23
637.316	12.98
637.647	13.43
637.977	13.16
638.308	13.55
638.639	13.11
638.969	13.65
639.3	12.91
639.63	13.2
639.961	13.62
640.291	13.38
640.622	13.55
640.952	13.19
641.282	13.38
641.612	13.41
641.943	13.13
642.273	14.16
642.603	13.42
642.933	12.92
643.263	13.53
643.592	13.64
643.922	13.68
644.252	13.19
644.582	13.25
644.911	13.86
645.241	13.55
645.571	13.42
645.9	13.48
646.23	13.26
646.559	14
646.888	13.56
647.218	13
647.547	13.23
647.876	13.82
648.205	13.46
648.534	14.16
648.863	13.35
649.192	13.87
649.521	13.25
649.85	13.79
650.179	13.76
650.508	14.09
650.837	13.45
651.165	13.62
651.494	13.83
651.822	13.61
652.151	13.87
652.479	13.54
652.808	14.09
653.136	13.5
653.465	13.8
653.793	13.98
654.121	14.37
654.449	14.21
654.777	13.92
655.105	13.66
655.433	13.76
655.761	13.28
656.089	14.22
656.417	13.52
656.745	14.32
657.073	13.87
657.4	13.97
657.728	14.5
658.056	14.05
658.383	14.06
658.711	14.46
659.038	14.32
659.365	13.84
659.693	14.05
660.02	14.27
660.347	14.52
660.674	13.96
661.001	14.34
661.329	13.77
661.656	13.97
661.982	13.72
662.309	14.13
662.636	14.17
662.963	14.46
663.29	14.73
663.616	14.33
663.943	14.08
664.27	14.4
664.596	14.29
664.923	14.38
665.249	14.5
665.576	14.72
665.902	14.27
666.228	14.09
666.554	14.15
666.881	14.54
667.207	14.53
667.533	14.6
667.859	13.86
668.185	13.91
668.511	14.57
668.837	14.44
669.162	14.64
669.488	13.77
669.814	14.76
670.139	15.19
670.465	15
670.791	14.69
671.116	14.82
671.442	14.03
671.767	14.28
672.092	14.84
672.418	14.67
672.743	15.14
673.068	14.53
673.393	14.49
673.718	14.25
674.043	14.45
674.368	14.63
674.693	14.87
675.018	15.39
675.343	15.23
675.667	14.55
675.992	14.67
676.317	13.92
676.641	15.04
676.966	15.26
677.29	14.75
677.615	15.91
677.939	14.5
678.264	14.7
678.588	14.92
678.912	15.32
679.236	14.64
679.56	13.96
679.885	15.38
680.209	15.04
680.532	16.02
680.856	14.86
681.18	15.05
681.504	14.58
681.828	14.93
682.152	15.17
682.475	14.81
682.799	14.52
683.122	14.58
