Data from 0087_forehead_Reflection__1__016.txt Node

Date: Mon Aug 28 18:47:05 CDT 2023
User: ToomeyLab
Spectrometer: FLMS14357
Trigger mode: 0
Integration Time (sec): 1.000000E-2
Scans to average: 100
Electric dark correction enabled: true
Nonlinearity correction enabled: false
Boxcar width: 0
XAxis mode: Wavelengths
Number of Pixels in Spectrum: 2048
>>>>>Begin Spectral Data<<<<<
189.047	-71.37
189.435	-71.37
189.823	-71.37
190.211	6967.44
190.599	93.88
190.987	314.1
191.375	48
191.763	112.49
192.151	97.44
192.538	185.45
192.926	35.34
193.314	-186.91
193.702	90.59
194.089	71.39
194.477	-531.76
194.864	257.51
195.252	0.32
195.639	-2437.61
196.027	94.47
196.414	291.86
196.801	-4.54
197.189	112.8
197.576	366.11
197.963	-57.36
198.351	-26.76
198.738	12.71
199.125	-8.86
199.512	57.35
199.899	-32.28
200.286	-62.08
200.673	0.46
201.06	-9.29
201.447	-49.27
201.833	-28.66
202.22	21.74
202.607	-27.41
202.994	20.06
203.38	-8.07
203.767	7.4
204.154	-2.08
204.54	-6.4
204.927	-43.94
205.313	-3.42
205.699	-17.4
206.086	-2.97
206.472	18.86
206.858	6.7
207.245	1.12
207.631	31.73
208.017	5.54
208.403	1.29
208.789	-18.53
209.175	-16.89
209.561	49.14
209.947	-17.44
210.333	-22.75
210.719	37.42
211.105	-3.17
211.491	-3.72
211.876	38.98
212.262	-2.54
212.648	23.47
213.034	32.38
213.419	14.25
213.805	28.18
214.19	-28.41
214.576	10.21
214.961	-44.64
215.346	26.21
215.732	1.36
216.117	-41.39
216.502	-2.32
216.888	-32.78
217.273	13.25
217.658	42.15
218.043	8.11
218.428	8.75
218.813	22.09
219.198	26.97
219.583	12.58
219.968	14.22
220.353	-12.47
220.738	5.43
221.122	22.71
221.507	-16.75
221.892	-10.79
222.276	-3.9
222.661	-8.87
223.046	3.68
223.43	10.15
223.815	17.24
224.199	11.74
224.583	-5.1
224.968	1.26
225.352	4.7
225.736	8.42
226.121	-1.04
226.505	-0.3
226.889	12.48
227.273	0.24
227.657	3.65
228.041	4.38
228.425	4.49
228.809	3.56
229.193	1.59
229.577	3.21
229.961	0.2
230.344	3.44
230.728	1.98
231.112	1.64
231.495	2.28
231.879	1.35
232.263	3.06
232.646	1.24
233.03	2.75
233.413	5.58
233.797	2.64
234.18	0.23
234.563	3.39
234.946	5.01
235.33	-0.6
235.713	-3.46
236.096	2.11
236.479	0.68
236.862	2.52
237.245	1.63
237.628	3.49
238.011	2.65
238.394	3.12
238.777	3.33
239.16	-0.59
239.543	1.24
239.925	3.38
240.308	1.41
240.691	1.92
241.073	2.18
241.456	2.06
241.838	1.28
242.221	3.27
242.603	2.19
242.986	2.67
243.368	2.29
243.75	2.27
244.133	1.83
244.515	1.64
244.897	2.69
245.279	2.75
245.661	2.25
246.043	2.02
246.425	1.49
246.807	3.47
247.189	1.79
247.571	2.76
247.953	2.29
248.335	2.04
248.717	2.29
249.098	2.16
249.48	2.25
249.862	2.12
250.243	2.36
250.625	2.98
251.006	2.23
251.388	3.09
251.769	2.57
252.151	3.13
252.532	1.87
252.913	2.64
253.295	1.02
253.676	1.94
254.057	2.33
254.438	1.93
254.819	2.21
255.2	2.55
255.581	3.06
255.962	2.36
256.343	3.46
256.724	1.44
257.105	2.27
257.486	2.46
257.867	2.38
258.247	1.26
258.628	2.83
259.009	1.72
259.389	2.13
259.77	2.41
260.15	1.84
260.531	2.32
260.911	2.14
261.292	2.21
261.672	2.09
262.052	2.05
262.432	2.23
262.813	2.28
263.193	2.19
263.573	2.26
263.953	2.6
264.333	1.92
264.713	1.83
265.093	2.39
265.473	2.2
265.853	1.6
266.233	1.55
266.612	3.37
266.992	1.79
267.372	2.24
267.752	2.51
268.131	2.54
268.511	1.7
268.89	2.78
269.27	2.08
269.649	2.03
270.029	2.82
270.408	2.16
270.787	2.4
271.167	2.05
271.546	2.2
271.925	2.6
272.304	2.38
272.683	2.61
273.062	1.75
273.441	2.59
273.82	1.97
274.199	1.37
274.578	1.8
274.957	2.23
275.336	2.3
275.715	2.33
276.093	1.99
276.472	2.05
276.851	1.65
277.229	2.16
277.608	2.14
277.986	1.94
278.365	2.37
278.743	2.58
279.122	1.76
279.5	1.69
279.878	1.71
280.257	2.21
280.635	2.16
281.013	2.68
281.391	1.57
281.769	1.74
282.147	1.76
282.525	2.18
282.903	2.17
283.281	2.28
283.659	3.24
284.037	2.42
284.415	1.86
284.792	2.32
285.17	2.14
285.548	1.65
285.925	2.59
286.303	2
286.68	2.53
287.058	2.03
287.435	1.68
287.813	2.03
288.19	2.44
288.567	2.39
288.945	2.36
289.322	2.35
289.699	2.08
290.076	2.52
290.453	2.39
290.83	2.06
291.207	2.49
291.584	2.63
291.961	2.54
292.338	2.48
292.715	2.34
293.092	2.55
293.469	2.66
293.845	2.27
294.222	2.38
294.599	2.42
294.975	2.7
295.352	2.97
295.728	2.59
296.105	2.79
296.481	2.61
296.858	2.66
297.234	2.77
297.61	2.85
297.986	2.68
298.363	2.65
298.739	2.89
299.115	2.71
299.491	2.95
299.867	3.05
300.243	3.11
300.619	3
300.995	3.25
301.371	3.07
301.746	3.21
302.122	3.07
302.498	2.69
302.874	3.01
303.249	2.61
303.625	3.17
304	2.98
304.376	2.85
304.751	3.17
305.127	3.56
305.502	3.48
305.878	3.53
306.253	2.93
306.628	3.13
307.003	3.23
307.378	3.91
307.754	3.55
308.129	3.08
308.504	4.18
308.879	3.53
309.254	3.96
309.629	3.44
310.003	3.35
310.378	3.07
310.753	3.13
311.128	4.09
311.502	4.23
311.877	3.52
312.252	4.07
312.626	4.15
313.001	3.88
313.375	4.03
313.75	3.9
314.124	3.95
314.498	3.97
314.873	4.48
315.247	4.35
315.621	3.67
315.995	4.93
316.369	4.04
316.743	3.65
317.117	4.52
317.491	3.73
317.865	4.15
318.239	4.43
318.613	4.53
318.987	4.45
319.361	4.79
319.734	4.65
320.108	4.54
320.482	5
320.855	4.15
321.229	3.71
321.602	5
321.976	3.85
322.349	4.49
322.723	4.39
323.096	4.7
323.469	4.09
323.843	4.5
324.216	4.76
324.589	5.14
324.962	5.45
325.335	5.14
325.708	4.67
326.081	4.65
326.454	5.42
326.827	4.95
327.2	4.75
327.573	4.87
327.945	5
328.318	5.15
328.691	4.87
329.063	4.69
329.436	4.66
329.809	5.03
330.181	4.94
330.553	5.43
330.926	5.15
331.298	5.31
331.671	5.08
332.043	5.76
332.415	6
332.787	5.68
333.159	4.9
333.532	5.82
333.904	5.97
334.276	5.24
334.648	5.86
335.02	5.6
335.391	5.18
335.763	5.5
336.135	5.68
336.507	5.56
336.879	4.95
337.25	5.72
337.622	4.9
337.993	5.88
338.365	5.65
338.736	5.77
339.108	5.6
339.479	5.65
339.851	5.85
340.222	6.04
340.593	5.51
340.964	6.26
341.336	6.27
341.707	5.81
342.078	5.79
342.449	5.67
342.82	6.06
343.191	6.23
343.562	6.15
343.933	5.88
344.303	5.88
344.674	6.16
345.045	5.96
345.416	6.45
345.786	6.22
346.157	6.22
346.527	5.73
346.898	6.14
347.268	6.02
347.639	6.65
348.009	5.93
348.38	6.64
348.75	6.36
349.12	6.43
349.49	6.56
349.861	5.89
350.231	6.03
350.601	6.42
350.971	6.79
351.341	6.58
351.711	6.67
352.081	6.19
352.45	6.89
352.82	6.91
353.19	6.9
353.56	6.58
353.929	6.96
354.299	6.44
354.669	7.09
355.038	6.6
355.408	6.74
355.777	6.99
356.147	6.81
356.516	7.03
356.885	7.25
357.254	7.06
357.624	7.06
357.993	7.19
358.362	6.73
358.731	7.62
359.1	7.14
359.469	7.38
359.838	6.7
360.207	7.19
360.576	7.49
360.945	7.14
361.314	7
361.682	7.1
362.051	7.58
362.42	7.25
362.788	7.22
363.157	7.37
363.525	7.4
363.894	7.43
364.262	7.43
364.631	7.22
364.999	7.44
365.367	7.72
365.735	7.7
366.104	7.33
366.472	7.44
366.84	7.51
367.208	7.8
367.576	7.44
367.944	7.69
368.312	7.78
368.68	7.83
369.048	8.06
369.416	7.9
369.783	7.92
370.151	8.07
370.519	8.3
370.886	7.98
371.254	8.04
371.621	7.91
371.989	7.86
372.356	7.99
372.724	8.61
373.091	8.11
373.458	8.22
373.826	8.44
374.193	8.24
374.56	7.95
374.927	8.27
375.294	8.37
375.661	8.64
376.028	8.34
376.395	8.17
376.762	8.5
377.129	8.62
377.496	8.43
377.863	8.64
378.229	8.26
378.596	8.64
378.963	9.02
379.329	8.68
379.696	8.61
380.062	8.33
380.429	8.7
380.795	8.91
381.161	8.55
381.528	8.97
381.894	8.83
382.26	9.04
382.626	9.03
382.993	8.85
383.359	9.22
383.725	9.2
384.091	9.27
384.457	8.78
384.823	9.15
385.188	9.22
385.554	9.07
385.92	9.45
386.286	9.52
386.651	8.96
387.017	9.68
387.383	9.27
387.748	9.54
388.114	9.2
388.479	9.27
388.845	9.28
389.21	9.34
389.575	9.71
389.94	9.15
390.306	9.55
390.671	9.28
391.036	9.52
391.401	9.8
391.766	9.85
392.131	9.69
392.496	9.44
392.861	9.74
393.226	9.68
393.591	9.64
393.956	9.51
394.32	9.67
394.685	9.87
395.05	9.94
395.414	9.82
395.779	9.92
396.143	9.67
396.508	9.64
396.872	9.95
397.236	9.96
397.601	10.07
397.965	10.07
398.329	10.11
398.694	10.21
399.058	9.89
399.422	10.28
399.786	10.29
400.15	10.25
400.514	10.44
400.878	10.44
401.242	10.3
401.605	10.42
401.969	10.28
402.333	10.46
402.697	10.53
403.06	10.46
403.424	10.77
403.787	10.17
404.151	10.45
404.514	10.39
404.878	10.5
405.241	10.64
405.604	10.46
405.968	10.28
406.331	10.76
406.694	10.43
407.057	10.66
407.42	10.61
407.783	10.58
408.146	10.63
408.509	10.88
408.872	10.84
409.235	10.89
409.598	10.73
409.961	11.17
410.323	11.11
410.686	10.99
411.049	11.06
411.411	11.17
411.774	11.29
412.136	11.02
412.499	10.96
412.861	11.2
413.223	11
413.586	11.15
413.948	11.25
414.31	11.23
414.672	11.23
415.035	11.16
415.397	11.38
415.759	11.35
416.121	11.7
416.483	11.34
416.845	11.53
417.206	11.71
417.568	11.43
417.93	11.26
418.292	11.54
418.653	11.25
419.015	11.27
419.377	11.12
419.738	11.41
420.1	11.46
420.461	11.43
420.822	11.29
421.184	11.46
421.545	11.43
421.906	11.36
422.267	11.43
422.629	11.4
422.99	11.32
423.351	11.36
423.712	11.26
424.073	11.48
424.434	11.53
424.795	11.62
425.155	11.52
425.516	11.69
425.877	11.54
426.238	11.51
426.598	11.51
426.959	11.55
427.32	11.65
427.68	11.81
428.041	11.81
428.401	11.83
428.761	11.85
429.122	11.9
429.482	12.2
429.842	12.2
430.202	12.17
430.563	12.29
430.923	12.36
431.283	12.15
431.643	12.27
432.003	12.24
432.363	12.34
432.722	12.32
433.082	12.36
433.442	12.56
433.802	12.44
434.161	12.37
434.521	12.42
434.881	12.37
435.24	12.25
435.6	12.36
435.959	12.33
436.319	12.61
436.678	12.54
437.037	12.55
437.396	12.76
437.756	12.64
438.115	12.84
438.474	12.83
438.833	12.75
439.192	12.81
439.551	12.67
439.91	12.9
440.269	12.81
440.628	12.68
440.987	12.75
441.345	12.47
441.704	12.8
442.063	12.77
442.421	12.65
442.78	12.82
443.138	12.73
443.497	12.76
443.855	12.92
444.214	12.94
444.572	13.02
444.93	13.01
445.288	12.92
445.647	13.24
446.005	13.19
446.363	13.07
446.721	13.18
447.079	13.06
447.437	12.97
447.795	12.91
448.153	13.02
448.51	12.91
448.868	12.96
449.226	12.97
449.584	13.01
449.941	13.18
450.299	13.32
450.656	13.21
451.014	13.25
451.371	13.35
451.729	13.53
452.086	13.4
452.443	13.77
452.801	13.79
453.158	13.67
453.515	13.56
453.872	13.64
454.229	13.82
454.586	13.62
454.943	13.67
455.3	13.64
455.657	13.87
456.014	13.78
456.371	13.81
456.727	13.85
457.084	13.82
457.441	13.92
457.797	13.84
458.154	13.95
458.51	14.15
458.867	14.19
459.223	14.13
459.58	14.01
459.936	14.12
460.292	14.08
460.648	14.08
461.005	13.81
461.361	13.94
461.717	13.67
462.073	13.71
462.429	13.74
462.785	13.84
463.141	13.95
463.496	14.22
463.852	14.19
464.208	14.31
464.564	14.35
464.919	14.27
465.275	14.47
465.631	14.37
465.986	14.51
466.342	14.62
466.697	14.49
467.052	14.35
467.408	14.58
467.763	14.63
468.118	14.55
468.473	14.59
468.829	14.67
469.184	14.65
469.539	14.68
469.894	14.41
470.249	14.79
470.603	14.65
470.958	14.75
471.313	14.85
471.668	14.76
472.023	14.98
472.377	14.92
472.732	15.04
473.086	14.87
473.441	15.07
473.795	15.13
474.15	14.99
474.504	15.06
474.859	15.08
475.213	15.2
475.567	15.24
475.921	15.35
476.275	15.07
476.63	15.29
476.984	15.24
477.338	15.39
477.692	15.36
478.045	15.37
478.399	15.09
478.753	14.98
479.107	15.23
479.461	15.39
479.814	15.44
480.168	15.36
480.521	15.1
480.875	15.35
481.228	15.27
481.582	15.46
481.935	15.38
482.289	15.53
482.642	15.58
482.995	15.6
483.348	15.37
483.701	15.36
484.055	15.31
484.408	15.26
484.761	15.14
485.114	15.08
485.466	14.74
485.819	14.52
486.172	14.37
486.525	14.5
486.878	14.5
487.23	14.69
487.583	14.91
487.936	15.11
488.288	15.19
488.641	15.27
488.993	15.06
489.345	14.97
489.698	14.93
490.05	14.84
490.402	14.9
490.754	15.05
491.107	15.19
491.459	15.26
491.811	15.59
492.163	15.74
492.515	15.85
492.866	15.79
493.218	15.49
493.57	15.3
493.922	15.16
494.274	15.28
494.625	15.29
494.977	15.59
495.328	15.81
495.68	15.99
496.031	16.25
496.383	16.26
496.734	16.25
497.086	16.55
497.437	16.5
497.788	16.5
498.139	16.47
498.49	16.46
498.842	16.32
499.193	16.09
499.544	16.27
499.894	16.3
500.245	16.28
500.596	16.41
500.947	16.41
501.298	16.53
501.648	16.58
501.999	16.69
502.35	16.75
502.7	16.8
503.051	16.89
503.401	16.93
503.752	16.64
504.102	16.88
504.452	16.93
504.803	17
505.153	16.93
505.503	16.87
505.853	17.04
506.203	16.97
506.553	16.89
506.903	17.02
507.253	16.92
507.603	16.83
507.953	17.24
508.303	17.05
508.652	17.16
509.002	17.24
509.352	17.17
509.701	17.04
510.051	17.05
510.4	17.13
510.75	16.96
511.099	17.03
511.449	16.97
511.798	17.02
512.147	17.19
512.496	17.08
512.846	17.19
513.195	17.27
513.544	17.41
513.893	17.34
514.242	17.25
514.591	17.37
514.939	17.07
515.288	17.46
515.637	17.52
515.986	17.47
516.334	17.52
516.683	17.65
517.032	17.63
517.38	17.81
517.729	17.61
518.077	17.68
518.426	17.67
518.774	17.72
519.122	17.78
519.47	17.52
519.819	17.56
520.167	17.38
520.515	17.45
520.863	17.21
521.211	17.27
521.559	17.26
521.907	17.35
522.255	17.49
522.602	17.58
522.95	17.87
523.298	17.86
523.645	17.94
523.993	18.04
524.341	18.09
524.688	18.05
525.036	18.06
525.383	18.06
525.73	18.17
526.078	18.09
526.425	18.01
526.772	18.04
527.119	17.93
527.466	17.75
527.814	17.58
528.161	17.54
528.508	17.67
528.854	17.64
529.201	17.77
529.548	17.87
529.895	17.7
530.242	17.44
530.588	17.14
530.935	17.08
531.282	17.13
531.628	17.16
531.975	17.28
532.321	17.5
532.667	17.54
533.014	17.8
533.36	17.97
533.706	18.15
534.052	18
534.399	18.14
534.745	18.08
535.091	17.81
535.437	17.72
535.783	17.64
536.129	17.73
536.474	17.85
536.82	17.99
537.166	18.22
537.512	18.3
537.857	18.53
538.203	18.42
538.549	18.33
538.894	18.15
539.239	18.21
539.585	18.24
539.93	18.35
540.276	18.49
540.621	18.74
540.966	18.71
541.311	18.91
541.656	19.05
542.001	18.91
542.346	18.88
542.691	18.6
543.036	18.36
543.381	18.13
543.726	17.9
544.071	18.07
544.415	18.21
544.76	18.3
545.105	18.41
545.449	18.39
545.794	18.59
546.138	18.81
546.483	18.73
546.827	18.84
547.171	19.05
547.516	18.88
547.86	18.98
548.204	19.04
548.548	18.9
548.892	18.84
549.236	18.84
549.58	19.09
549.924	19.17
550.268	19.38
550.612	19.37
550.956	19.51
551.3	19.59
551.643	19.75
551.987	19.75
552.33	19.75
552.674	19.82
553.017	19.9
553.361	19.87
553.704	19.89
554.048	19.85
554.391	19.67
554.734	19.57
555.077	19.59
555.42	19.6
555.764	19.75
556.107	19.72
556.45	19.85
556.793	19.85
557.135	20.08
557.478	19.99
557.821	20.2
558.164	20.27
558.507	20.4
558.849	20.21
559.192	20.01
559.534	19.96
559.877	20.26
560.219	20.26
560.562	20.38
560.904	20.29
561.246	20.19
561.589	20.28
561.931	20.39
562.273	20.15
562.615	19.96
562.957	20.36
563.299	20.35
563.641	20.28
563.983	20.18
564.325	20.3
564.667	20.31
565.008	20.38
565.35	20.69
565.692	20.71
566.033	20.3
566.375	20.34
566.716	20.51
567.058	20.41
567.399	20.45
567.741	20.61
568.082	20.27
568.423	20.34
568.764	20.31
569.105	20.43
569.447	20.35
569.788	20.33
570.129	20.61
570.47	20.77
570.811	20.91
571.151	20.53
571.492	20.35
571.833	20.81
572.174	20.82
572.514	20.8
572.855	20.66
573.195	20.56
573.536	20.6
573.876	20.52
574.217	20.38
574.557	20.64
574.898	20.63
575.238	20.7
575.578	20.62
575.918	20.8
576.258	20.8
576.598	20.97
576.938	20.66
577.278	20.8
577.618	20.81
577.958	20.85
578.298	21.23
578.638	20.99
578.977	21.01
579.317	20.93
579.657	20.94
579.996	21.03
580.336	21.16
580.675	21.23
581.014	21.62
581.354	21.32
581.693	21.47
582.032	21.67
582.372	21.5
582.711	21.4
583.05	21.56
583.389	21.71
583.728	21.41
584.067	21.64
584.406	21.42
584.745	21.7
585.083	21.54
585.422	21.37
585.761	21.53
586.1	21.8
586.438	21.67
586.777	21.61
587.115	21.73
587.454	21.52
587.792	21.85
588.13	21.7
588.469	21.61
588.807	21.78
589.145	21.88
589.483	21.83
589.821	21.67
590.159	21.76
590.497	22.09
590.835	21.9
591.173	21.58
591.511	21.51
591.849	21.79
592.187	21.68
592.524	21.87
592.862	21.76
593.2	21.74
593.537	21.96
593.875	22.13
594.212	22.13
594.55	22.07
594.887	21.73
595.224	22.26
595.561	21.94
595.899	21.92
596.236	22.19
596.573	22.25
596.91	22.05
597.247	22.15
597.584	21.98
597.921	22.24
598.258	22.01
598.594	21.94
598.931	21.9
599.268	21.8
599.604	21.61
599.941	21.89
600.277	21.83
600.614	22.15
600.95	22.05
601.287	21.92
601.623	22.38
601.959	22.53
602.296	22.41
602.632	22.5
602.968	22.33
603.304	22.41
603.64	22.29
603.976	22.39
604.312	22.2
604.648	22.25
604.984	22.27
605.319	22.24
605.655	22.23
605.991	22.23
606.326	22.17
606.662	21.96
606.998	21.97
607.333	21.95
607.668	22.27
608.004	22.35
608.339	22.16
608.674	22.4
609.01	22.64
609.345	22.67
609.68	22.68
610.015	22.74
610.35	22.79
610.685	22.73
611.02	22.66
611.355	22.66
611.689	22.22
612.024	22.56
612.359	22.58
612.694	22.53
613.028	22.68
613.363	22.53
613.697	22.81
614.032	22.75
614.366	22.6
614.7	22.73
615.035	22.78
615.369	22.95
615.703	22.97
616.037	23.34
616.371	22.96
616.705	23.4
617.039	23.2
617.373	23.29
617.707	22.86
618.041	23.32
618.375	23.08
618.709	23.24
619.042	22.93
619.376	23.18
619.71	22.93
620.043	23.39
620.377	23.5
620.71	23.4
621.043	23.39
621.377	23.47
621.71	23.52
622.043	22.85
622.376	23.75
622.709	23.29
623.043	23.18
623.376	23.27
623.709	23.48
624.041	23.46
624.374	23.37
624.707	23.15
625.04	23.27
625.373	23.58
625.705	23.34
626.038	23.51
626.37	23.51
626.703	23.54
627.035	23.57
627.368	23.95
627.7	23.63
628.032	23.67
628.365	23.53
628.697	23.49
629.029	23.71
629.361	23.52
629.693	23.18
630.025	23.54
630.357	23.54
630.689	23.5
631.021	23.59
631.353	23.66
631.684	23.8
632.016	23.62
632.348	23.83
632.679	23.95
633.011	23.71
633.342	23.42
633.674	23.85
634.005	24.12
634.336	24.09
634.668	24.16
634.999	23.85
635.33	24.07
635.661	24.33
635.992	24.03
636.323	23.96
636.654	23.79
636.985	23.74
637.316	24.16
637.647	24.2
637.977	23.95
638.308	24.26
638.639	24.05
638.969	24.34
639.3	24.01
639.63	24.33
639.961	23.74
640.291	23.9
640.622	24.56
640.952	23.94
641.282	24.32
641.612	24.36
641.943	24.12
642.273	24.4
642.603	23.87
642.933	24
643.263	24.77
643.592	24.5
643.922	24.61
644.252	24.54
644.582	24.4
644.911	24.24
645.241	24.31
645.571	24.77
645.9	24.47
646.23	24.23
646.559	24.47
646.888	24.5
647.218	24.21
647.547	24.56
647.876	24.83
648.205	24.78
648.534	25.44
648.863	24.54
649.192	24.34
649.521	24.94
649.85	24.65
650.179	25.08
650.508	24.51
650.837	24.53
651.165	24.55
651.494	24.68
651.822	25.04
652.151	24.55
652.479	25.04
652.808	24.88
653.136	24.61
653.465	24.51
653.793	25.1
654.121	24.88
654.449	24.89
654.777	24.76
655.105	24.71
655.433	24.66
655.761	24.73
656.089	24.45
656.417	24.78
656.745	25.16
657.073	24.59
657.4	24.77
657.728	25.5
658.056	25.19
658.383	24.81
658.711	25.59
659.038	25.26
659.365	25.19
659.693	24.88
660.02	24.91
660.347	25.64
660.674	25.16
661.001	25.01
661.329	24.69
661.656	24.81
661.982	24.68
662.309	24.84
662.636	25.14
662.963	25.12
663.29	25.33
663.616	24.77
663.943	25.05
664.27	25.27
664.596	25.18
664.923	25.84
665.249	25.17
665.576	25.55
665.902	25.14
666.228	25.01
666.554	25.7
666.881	25.01
667.207	24.82
667.533	25.35
667.859	24.5
668.185	25.4
668.511	24.49
668.837	25.24
669.162	25.39
669.488	24.95
669.814	25.37
670.139	25.28
670.465	25.62
670.791	26.18
671.116	25.51
671.442	25.53
671.767	25.08
672.092	25.62
672.418	25.94
672.743	25.86
673.068	25.72
673.393	25.45
