Data from 0087_crown_Reflection__5__025.txt Node

Date: Mon Aug 28 18:49:42 CDT 2023
User: ToomeyLab
Spectrometer: FLMS14357
Trigger mode: 0
Integration Time (sec): 1.000000E-2
Scans to average: 100
Electric dark correction enabled: true
Nonlinearity correction enabled: false
Boxcar width: 0
XAxis mode: Wavelengths
Number of Pixels in Spectrum: 2048
>>>>>Begin Spectral Data<<<<<
189.047	63.28
189.435	63.28
189.823	63.28
190.211	-4730.23
190.599	-111.71
190.987	89.26
191.375	-13.55
191.763	79.62
192.151	-17.14
192.538	125.82
192.926	286.4
193.314	339.05
193.702	216.64
194.089	153.34
194.477	1263.53
194.864	-208.85
195.252	90.57
195.639	-326.5
196.027	110.65
196.414	573.41
196.801	-14.08
197.189	96.09
197.576	-217.97
197.963	-94.04
198.351	-45.41
198.738	18.09
199.125	15.35
199.512	-5.17
199.899	16.68
200.286	-84.93
200.673	-19.69
201.06	-15.41
201.447	-97.62
201.833	-49.16
202.22	5.12
202.607	20.58
202.994	45.93
203.38	-41.69
203.767	-2.7
204.154	5.14
204.54	-54.66
204.927	-23.37
205.313	39.15
205.699	-13.12
206.086	50.61
206.472	-14.93
206.858	-20.41
207.245	-4.81
207.631	24.19
208.017	6.27
208.403	13.96
208.789	2.41
209.175	-35.01
209.561	19.66
209.947	21.65
210.333	-9.41
210.719	20.98
211.105	51.94
211.491	21
211.876	33.92
212.262	-24.32
212.648	27.53
213.034	-39.27
213.419	-34.1
213.805	-4.79
214.19	-9.63
214.576	-2.86
214.961	6.35
215.346	-15.85
215.732	6.94
216.117	5.68
216.502	-3.72
216.888	-28.45
217.273	-28.18
217.658	-13.05
218.043	-33.55
218.428	-5.04
218.813	-19.21
219.198	-36.29
219.583	-10.9
219.968	4.86
220.353	-13.91
220.738	12.04
221.122	-3.62
221.507	-3.63
221.892	-7.3
222.276	2.11
222.661	3.67
223.046	-18.26
223.43	-1.35
223.815	-2
224.199	19.42
224.583	-3.04
224.968	2.73
225.352	13.91
225.736	5.93
226.121	-2.1
226.505	8.58
226.889	-2.38
227.273	9.93
227.657	1.43
228.041	4.88
228.425	3.73
228.809	7.51
229.193	0
229.577	6.72
229.961	3.12
230.344	4.6
230.728	3.52
231.112	3.33
231.495	3.76
231.879	2.38
232.263	3.97
232.646	2.79
233.03	5.17
233.413	5.68
233.797	2.79
234.18	1.62
234.563	0.74
234.946	4.61
235.33	4.18
235.713	1.49
236.096	5.2
236.479	3.24
236.862	5.22
237.245	3.94
237.628	3.86
238.011	5.13
238.394	3.6
238.777	4.39
239.16	0.58
239.543	2.71
239.925	5.09
240.308	4.33
240.691	2.35
241.073	1.19
241.456	2.63
241.838	2.22
242.221	2.18
242.603	3.24
242.986	3.24
243.368	3.04
243.75	2.76
244.133	3.18
244.515	2.76
244.897	3.3
245.279	3.36
245.661	3.36
246.043	4.01
246.425	2.47
246.807	3.93
247.189	2.85
247.571	3.1
247.953	2.68
248.335	3.03
248.717	2.93
249.098	2.94
249.48	3.32
249.862	3.16
250.243	3.1
250.625	3.31
251.006	3.51
251.388	2.64
251.769	3.26
252.151	3.19
252.532	2.57
252.913	2.86
253.295	1.7
253.676	2.35
254.057	2.92
254.438	2.54
254.819	3.1
255.2	2.74
255.581	3.52
255.962	2.79
256.343	2.87
256.724	1.87
257.105	3.14
257.486	3.31
257.867	1.94
258.247	2.69
258.628	4.05
259.009	2.57
259.389	2.11
259.77	3
260.15	3
260.531	2.11
260.911	2.77
261.292	2.67
261.672	2.97
262.052	2.7
262.432	2.8
262.813	3.09
263.193	2.93
263.573	2.46
263.953	2.56
264.333	2.51
264.713	2.6
265.093	2.92
265.473	2.93
265.853	2.54
266.233	2.44
266.612	3.08
266.992	2.42
267.372	2.6
267.752	3.3
268.131	3.4
268.511	2.26
268.89	2.93
269.27	2.52
269.649	2.57
270.029	2.88
270.408	2.79
270.787	3.26
271.167	2.8
271.546	2.89
271.925	3.11
272.304	2.72
272.683	2.98
273.062	2.56
273.441	2.51
273.82	2.61
274.199	2.19
274.578	2.21
274.957	2.63
275.336	2.85
275.715	2.81
276.093	2.61
276.472	2.71
276.851	2.72
277.229	2.56
277.608	2.55
277.986	2.61
278.365	2.51
278.743	2.2
279.122	2.02
279.5	2.27
279.878	2.56
280.257	2.69
280.635	2.9
281.013	2.07
281.391	2.15
281.769	2.56
282.147	2.42
282.525	3.07
282.903	2.76
283.281	2.04
283.659	3.07
284.037	2.94
284.415	2.36
284.792	2.49
285.17	1.99
285.548	2.21
285.925	2.86
286.303	2.16
286.68	2.46
287.058	2.74
287.435	2.09
287.813	2.61
288.19	2.82
288.567	2.97
288.945	2.66
289.322	2.3
289.699	2.63
290.076	2.86
290.453	2.75
290.83	2.33
291.207	1.96
291.584	2.64
291.961	2.83
292.338	2.39
292.715	2.37
293.092	2.73
293.469	2.45
293.845	2.31
294.222	2.28
294.599	2.53
294.975	2.55
295.352	2.22
295.728	2.8
296.105	2.7
296.481	2.88
296.858	2.9
297.234	2.63
297.61	2.78
297.986	2.18
298.363	2.62
298.739	2.61
299.115	2.28
299.491	2.57
299.867	2.37
300.243	2.55
300.619	2.24
300.995	2.42
301.371	2.28
301.746	2.65
302.122	2.49
302.498	2.55
302.874	2.85
303.249	2.32
303.625	2.32
304	2.42
304.376	2.22
304.751	2.26
305.127	2.38
305.502	2.08
305.878	2.15
306.253	2.14
306.628	2.28
307.003	2.22
307.378	1.98
307.754	2.32
308.129	2.16
308.504	2.96
308.879	2.83
309.254	2.27
309.629	2.9
310.003	2.23
310.378	1.59
310.753	2.44
311.128	2.51
311.502	2.67
311.877	2.32
312.252	2.69
312.626	2.43
313.001	2.28
313.375	2.53
313.75	2.12
314.124	1.99
314.498	2.62
314.873	2.5
315.247	2.43
315.621	2.01
315.995	2.88
316.369	2.67
316.743	1.61
317.117	2.33
317.491	1.52
317.865	2.25
318.239	2.2
318.613	2.04
318.987	2.25
319.361	2.41
319.734	1.89
320.108	2.07
320.482	2.55
320.855	2.38
321.229	1.38
321.602	2.92
321.976	1.9
322.349	2.57
322.723	2.4
323.096	2.19
323.469	2.21
323.843	1.8
324.216	2.16
324.589	2.24
324.962	2.75
325.335	2.77
325.708	2.51
326.081	2.08
326.454	2.46
326.827	2.51
327.2	2.01
327.573	2.06
327.945	2.74
328.318	2.39
328.691	1.8
329.063	1.89
329.436	1.82
329.809	2.04
330.181	2.03
330.553	2.29
330.926	2.28
331.298	2.3
331.671	2.14
332.043	2.6
332.415	2.9
332.787	1.71
333.159	2.04
333.532	2.6
333.904	2.81
334.276	2.03
334.648	2.24
335.02	2.86
335.391	2.38
335.763	2.28
336.135	2.5
336.507	2.24
336.879	1.83
337.25	2.07
337.622	2.17
337.993	2.28
338.365	2.32
338.736	2.53
339.108	2.05
339.479	1.89
339.851	2.57
340.222	2.49
340.593	2.32
340.964	2.46
341.336	2.11
341.707	2.12
342.078	1.71
342.449	2.42
342.82	1.84
343.191	2.13
343.562	1.92
343.933	2.03
344.303	2.09
344.674	2.31
345.045	2.8
345.416	2.19
345.786	2.62
346.157	2.1
346.527	2.28
346.898	2.08
347.268	1.87
347.639	1.73
348.009	2.04
348.38	2.08
348.75	2.08
349.12	2.72
349.49	1.71
349.861	2.17
350.231	1.9
350.601	2.68
350.971	2.31
351.341	2.14
351.711	2.11
352.081	2.47
352.45	2.13
352.82	2.13
353.19	2.39
353.56	2.51
353.929	2.62
354.299	1.93
354.669	2.4
355.038	2.59
355.408	2.32
355.777	1.93
356.147	1.91
356.516	2.38
356.885	2.21
357.254	2.21
357.624	2.06
357.993	2.56
358.362	2.13
358.731	2.2
359.1	2.48
359.469	2.49
359.838	2.08
360.207	2.3
360.576	2.55
360.945	2.43
361.314	2.05
361.682	1.76
362.051	2.19
362.42	2.01
362.788	2.15
363.157	2.16
363.525	2.08
363.894	2.3
364.262	2.2
364.631	2.03
364.999	2.27
365.367	2.43
365.735	2.13
366.104	2.16
366.472	2.05
366.84	2.14
367.208	2.29
367.576	2.11
367.944	2.61
368.312	2.33
368.68	2.05
369.048	2.17
369.416	2
369.783	1.99
370.151	2.22
370.519	2.1
370.886	2.24
371.254	1.86
371.621	2.09
371.989	2.31
372.356	2.32
372.724	2.52
373.091	2.25
373.458	2.26
373.826	2.34
374.193	2.43
374.56	2.24
374.927	1.97
375.294	2.57
375.661	2.43
376.028	2.04
376.395	1.99
376.762	2.82
377.129	2.06
377.496	2.18
377.863	2.37
378.229	2.31
378.596	2.27
378.963	2.48
379.329	2.42
379.696	2.25
380.062	2.11
380.429	2.13
380.795	2.41
381.161	2.43
381.528	2.84
381.894	2.38
382.26	2.2
382.626	2.33
382.993	2.36
383.359	2.47
383.725	2.63
384.091	2.23
384.457	2.11
384.823	2.08
385.188	2.36
385.554	2.15
385.92	1.86
386.286	2.56
386.651	2.53
387.017	2.29
387.383	2.3
387.748	2.3
388.114	2.15
388.479	2.2
388.845	2.3
389.21	2.34
389.575	2.45
389.94	2.39
390.306	2.35
390.671	2.45
391.036	2.26
391.401	2.53
391.766	2.52
392.131	2.43
392.496	2.1
392.861	2.29
393.226	2.46
393.591	2.24
393.956	2.36
394.32	2.23
394.685	2.21
395.05	2.29
395.414	2.37
395.779	2.35
396.143	2.28
396.508	2.06
396.872	2.62
397.236	2.47
397.601	2.26
397.965	2.42
398.329	2.31
398.694	2.22
399.058	2.56
399.422	2.47
399.786	2.68
400.15	2.54
400.514	2.32
400.878	2.25
401.242	2.3
401.605	2.28
401.969	2.25
402.333	2.29
402.697	2.44
403.06	2.61
403.424	2.56
403.787	2.4
404.151	2.22
404.514	2.29
404.878	2.27
405.241	2.45
405.604	2.57
405.968	2.21
406.331	2.49
406.694	2.45
407.057	2.44
407.42	2.41
407.783	2.35
408.146	2.48
408.509	2.58
408.872	2.47
409.235	2.69
409.598	2.35
409.961	2.23
410.323	2.58
410.686	2.43
411.049	2.42
411.411	2.57
411.774	2.66
412.136	2.14
412.499	2.4
412.861	2.56
413.223	2.5
413.586	2.2
413.948	2.34
414.31	2.53
414.672	2.45
415.035	2.22
415.397	2.48
415.759	2.51
416.121	2.61
416.483	2.45
416.845	2.63
417.206	2.67
417.568	2.54
417.93	2.42
418.292	2.47
418.653	2.43
419.015	2.53
419.377	2.24
419.738	2.65
420.1	2.48
420.461	2.46
420.822	2.44
421.184	2.52
421.545	2.51
421.906	2.38
422.267	2.44
422.629	2.44
422.99	2.43
423.351	2.47
423.712	2.42
424.073	2.47
424.434	2.57
424.795	2.39
425.155	2.29
425.516	2.38
425.877	2.45
426.238	2.34
426.598	2.3
426.959	2.46
427.32	2.43
427.68	2.54
428.041	2.45
428.401	2.56
428.761	2.41
429.122	2.48
429.482	2.62
429.842	2.59
430.202	2.56
430.563	2.57
430.923	2.7
431.283	2.5
431.643	2.45
432.003	2.49
432.363	2.6
432.722	2.43
433.082	2.28
433.442	2.46
433.802	2.57
434.161	2.62
434.521	2.45
434.881	2.45
435.24	2.49
435.6	2.42
435.959	2.56
436.319	2.56
436.678	2.54
437.037	2.53
437.396	2.52
437.756	2.44
438.115	2.5
438.474	2.74
438.833	2.49
439.192	2.57
439.551	2.46
439.91	2.62
440.269	2.56
440.628	2.37
440.987	2.55
441.345	2.44
441.704	2.51
442.063	2.5
442.421	2.5
442.78	2.57
443.138	2.42
443.497	2.5
443.855	2.5
444.214	2.48
444.572	2.62
444.93	2.72
445.288	2.49
445.647	2.56
446.005	2.72
446.363	2.74
446.721	2.52
447.079	2.52
447.437	2.52
447.795	2.48
448.153	2.65
448.51	2.53
448.868	2.54
449.226	2.54
449.584	2.49
449.941	2.47
450.299	2.65
450.656	2.63
451.014	2.65
451.371	2.57
451.729	2.41
452.086	2.54
452.443	2.76
452.801	2.62
453.158	2.75
453.515	2.48
453.872	2.61
454.229	2.69
454.586	2.7
454.943	2.52
455.3	2.53
455.657	2.63
456.014	2.73
456.371	2.61
456.727	2.59
457.084	2.62
457.441	2.75
457.797	2.71
458.154	2.79
458.51	2.72
458.867	2.58
459.223	2.72
459.58	2.7
459.936	2.71
460.292	2.71
460.648	2.56
461.005	2.59
461.361	2.5
461.717	2.5
462.073	2.49
462.429	2.51
462.785	2.63
463.141	2.53
463.496	2.76
463.852	2.78
464.208	2.57
464.564	2.63
464.919	2.67
465.275	2.85
465.631	2.76
465.986	2.78
466.342	2.84
466.697	2.39
467.052	2.58
467.408	2.58
467.763	2.54
468.118	2.69
468.473	2.74
468.829	2.62
469.184	2.52
469.539	2.71
469.894	2.67
470.249	2.7
470.603	2.69
470.958	2.72
471.313	2.73
471.668	2.63
472.023	2.74
472.377	2.66
472.732	2.93
473.086	2.69
473.441	2.71
473.795	2.75
474.15	2.66
474.504	2.67
474.859	2.69
475.213	2.65
475.567	2.79
475.921	2.86
476.275	2.63
476.63	2.79
476.984	2.78
477.338	2.77
477.692	2.52
478.045	2.68
478.399	2.56
478.753	2.67
479.107	2.55
479.461	2.62
479.814	2.99
480.168	2.68
480.521	2.69
480.875	2.64
481.228	2.67
481.582	2.66
481.935	2.59
482.289	2.75
482.642	2.77
482.995	2.8
483.348	2.69
483.701	2.76
484.055	2.62
484.408	2.62
484.761	2.65
485.114	2.56
485.466	2.54
485.819	2.43
486.172	2.41
486.525	2.48
486.878	2.57
487.23	2.69
487.583	2.73
487.936	2.75
488.288	2.74
488.641	2.73
488.993	2.68
489.345	2.54
489.698	2.56
490.05	2.51
490.402	2.52
490.754	2.63
491.107	2.67
491.459	2.71
491.811	2.72
492.163	2.82
492.515	2.77
492.866	2.69
493.218	2.68
493.57	2.56
493.922	2.47
494.274	2.62
494.625	2.57
494.977	2.78
495.328	2.86
495.68	2.83
496.031	2.87
496.383	2.74
496.734	2.75
497.086	2.87
497.437	2.84
497.788	2.69
498.139	2.86
498.49	2.65
498.842	2.69
499.193	2.61
499.544	2.72
499.894	2.73
500.245	2.75
500.596	2.77
500.947	2.84
501.298	2.86
501.648	2.78
501.999	2.88
502.35	2.89
502.7	2.84
503.051	2.88
503.401	2.82
503.752	2.79
504.102	2.71
504.452	2.66
504.803	2.86
505.153	2.72
505.503	2.66
505.853	2.69
506.203	2.82
506.553	2.66
506.903	2.93
507.253	2.92
507.603	2.65
507.953	2.84
508.303	2.85
508.652	2.85
509.002	2.81
509.352	2.77
509.701	2.75
510.051	2.81
510.4	2.79
510.75	2.78
511.099	2.81
511.449	2.79
511.798	2.74
512.147	2.72
512.496	2.81
512.846	2.87
513.195	2.84
513.544	2.88
513.893	2.8
514.242	2.91
514.591	2.9
514.939	2.72
515.288	2.84
515.637	2.8
515.986	2.74
516.334	2.98
516.683	2.83
517.032	2.83
517.38	2.9
517.729	2.89
518.077	2.82
518.426	2.74
518.774	2.93
519.122	2.83
519.47	2.76
519.819	2.79
520.167	2.74
520.515	2.84
520.863	2.62
521.211	2.66
521.559	2.7
521.907	2.85
522.255	2.76
522.602	2.84
522.95	2.93
523.298	2.92
523.645	2.89
523.993	2.81
524.341	2.92
524.688	2.94
525.036	2.81
525.383	3.08
525.73	2.92
526.078	2.94
526.425	2.89
526.772	2.88
527.119	2.82
527.466	2.69
527.814	2.73
528.161	2.71
528.508	2.78
528.854	2.82
529.201	2.9
529.548	2.83
529.895	2.8
530.242	2.73
530.588	2.59
530.935	2.57
531.282	2.61
531.628	2.65
531.975	2.81
532.321	2.87
532.667	2.89
533.014	2.94
533.36	2.89
533.706	2.86
534.052	2.77
534.399	2.84
534.745	2.88
535.091	2.74
535.437	2.72
535.783	2.75
536.129	2.79
536.474	2.8
536.82	2.88
537.166	2.98
537.512	2.85
537.857	2.89
538.203	2.8
538.549	2.76
538.894	2.69
539.239	2.7
539.585	2.88
539.93	2.91
540.276	3.03
540.621	2.99
540.966	3.01
541.311	3
541.656	2.98
542.001	2.89
542.346	2.87
542.691	2.85
543.036	2.78
543.381	2.66
543.726	2.7
544.071	2.76
544.415	2.83
544.76	2.87
545.105	2.9
545.449	2.86
545.794	2.94
546.138	2.86
546.483	2.91
546.827	2.96
547.171	2.86
547.516	2.82
547.86	2.93
548.204	3.01
548.548	2.92
548.892	2.79
549.236	2.76
549.58	2.82
549.924	2.85
550.268	2.98
550.612	3.02
550.956	3.01
551.3	3.14
551.643	3.03
551.987	2.91
552.33	3.01
552.674	3.11
553.017	2.94
553.361	3.14
553.704	2.82
554.048	3
554.391	2.84
554.734	3
555.077	2.95
555.42	2.99
555.764	2.99
556.107	2.94
556.45	3.04
556.793	2.96
557.135	3.05
557.478	3.01
557.821	3.01
558.164	3.07
558.507	3.18
558.849	3
559.192	2.93
559.534	2.93
559.877	3.11
560.219	3.01
560.562	2.96
560.904	3.09
561.246	2.85
561.589	3.04
561.931	3.05
562.273	2.91
562.615	2.95
562.957	3.12
563.299	3.06
563.641	2.84
563.983	3.02
564.325	3.03
564.667	3.02
565.008	2.95
565.35	3.2
565.692	3.2
566.033	3
566.375	2.99
566.716	3.07
567.058	3.06
567.399	2.96
567.741	3.1
568.082	3.05
568.423	2.99
568.764	2.89
569.105	3.11
569.447	3
569.788	3.04
570.129	2.99
570.47	3.07
570.811	3.22
571.151	2.87
571.492	3.05
571.833	2.99
572.174	3.04
572.514	3.03
572.855	2.95
573.195	3.06
573.536	3.1
573.876	2.95
574.217	3
574.557	3.01
574.898	3.18
575.238	3.13
575.578	2.92
575.918	3.06
576.258	3.15
576.598	3.03
576.938	2.97
577.278	2.95
577.618	3.07
577.958	2.93
578.298	3.13
578.638	2.93
578.977	3.09
579.317	3.04
579.657	3
579.996	3.13
580.336	3.12
580.675	2.98
581.014	3.22
581.354	3.14
581.693	3.24
582.032	3.12
582.372	3.11
582.711	3.27
583.05	3.04
583.389	2.97
583.728	3.1
584.067	3.2
584.406	2.91
584.745	3.24
585.083	3.03
585.422	3.02
585.761	3.13
586.1	3.12
586.438	3.02
586.777	3.21
587.115	3.22
587.454	3.27
587.792	3.31
588.13	3.08
588.469	3.1
588.807	2.98
589.145	3.28
589.483	3.08
589.821	3.25
590.159	3.22
590.497	3.11
590.835	3.15
591.173	2.96
591.511	3.03
591.849	3.09
592.187	3.19
592.524	3.13
592.862	3.22
593.2	3.11
593.537	2.96
593.875	3.27
594.212	3.15
594.55	3.3
594.887	3.21
595.224	3.17
595.561	3.13
595.899	2.92
596.236	3.4
596.573	3.25
596.91	3.13
597.247	3.32
597.584	3.23
597.921	3.08
598.258	3.05
598.594	2.9
598.931	2.91
599.268	3.12
599.604	2.91
599.941	3.1
600.277	3.09
600.614	3.38
600.95	3.25
601.287	3.19
601.623	3.44
601.959	3.15
602.296	3.22
602.632	3.38
602.968	3.18
603.304	3.15
603.64	3.17
603.976	3.2
604.312	3.05
604.648	2.93
604.984	2.98
605.319	3.26
605.655	3.14
605.991	3.3
606.326	3.3
606.662	3.14
606.998	3.02
607.333	3.12
607.668	3.02
608.004	3.24
608.339	3.19
608.674	3.19
609.01	3.42
609.345	3.38
609.68	3.04
610.015	3.1
610.35	3.35
610.685	3.27
611.02	3.11
611.355	3.33
611.689	3.09
612.024	3.19
612.359	3.26
612.694	3.24
613.028	3.17
613.363	3.05
613.697	3.08
614.032	3.23
614.366	3.11
614.7	3.2
615.035	3.36
615.369	3.16
615.703	3.23
616.037	3.23
616.371	2.93
616.705	3.22
617.039	3.08
617.373	3.31
617.707	3.14
618.041	3.22
618.375	3.05
618.709	3.35
619.042	3.42
619.376	3.55
619.71	2.89
620.043	3.44
620.377	3.46
620.71	3.29
621.043	3.2
621.377	3.35
621.71	3.38
622.043	2.62
622.376	3.28
622.709	3.03
623.043	3.58
623.376	3.47
623.709	3.43
624.041	3.19
624.374	3.2
624.707	3.03
625.04	2.92
625.373	3.41
625.705	3.66
626.038	3.44
626.37	3.11
626.703	3.48
627.035	3.49
627.368	3.77
627.7	3.55
628.032	3.04
628.365	2.93
628.697	3.42
629.029	3.14
629.361	3.33
629.693	3.25
630.025	3.3
630.357	3.22
630.689	3.22
631.021	3.52
631.353	3.22
631.684	3.48
632.016	3.27
632.348	3.53
632.679	3.25
633.011	3.18
633.342	3.38
633.674	3.26
634.005	3.2
634.336	3.19
634.668	3.41
634.999	3.51
635.33	3.22
635.661	3.37
635.992	3.16
636.323	3.48
636.654	3.09
636.985	3.12
637.316	3.04
637.647	3.63
637.977	3.38
638.308	3.31
638.639	2.79
638.969	3.6
639.3	3.32
639.63	2.94
639.961	3.52
640.291	3.54
640.622	3.23
640.952	3.03
641.282	3.11
641.612	3.12
641.943	3.52
642.273	3.74
642.603	2.82
642.933	3.2
643.263	3.94
643.592	3.48
643.922	3.58
644.252	3.21
644.582	3.44
644.911	3.34
645.241	3.61
645.571	3.43
645.9	3.27
646.23	3.03
646.559	3.2
646.888	3.56
647.218	3.04
647.547	3.21
647.876	3.64
648.205	3.25
648.534	3.61
648.863	3.32
649.192	3.55
649.521	3.56
649.85	3.59
650.179	3.51
650.508	3.36
650.837	3.24
651.165	3.41
651.494	3.4
651.822	2.99
652.151	3.15
652.479	3.8
652.808	3.23
653.136	3.15
653.465	3.36
653.793	3.98
654.121	3.55
654.449	3.22
654.777	3.49
655.105	3.23
655.433	3.6
655.761	3.45
656.089	3.42
656.417	3.1
656.745	4.13
657.073	3.35
657.4	3.79
657.728	3.87
658.056	3.72
658.383	3.33
658.711	3.89
659.038	3.78
659.365	3.41
659.693	3.14
660.02	3.33
660.347	3.74
660.674	3.57
661.001	4.2
661.329	3.11
661.656	3.26
661.982	3.36
662.309	3.88
662.636	3.72
662.963	3.82
663.29	3.63
663.616	3.29
663.943	3.96
664.27	3.65
664.596	3.48
664.923	3.74
665.249	3.55
665.576	3.56
665.902	3.27
666.228	2.85
666.554	3.39
666.881	3.15
667.207	3.69
667.533	3.51
667.859	3.14
668.185	3.54
668.511	3.27
668.837	3.07
669.162	3.86
669.488	3.37
669.814	3.46
670.139	3.65
670.465	3.4
670.791	4.11
671.116	3.56
671.442	3.72
671.767	3.06
672.092	3.68
672.418	3.42
672.743	3.9
673.068	3.14
673.393	3.83
673.718	3.04
674.043	3.85
674.368	3.59
674.693	3.83
675.018	3.93
675.343	3.97
675.667	4.22
675.992	3.81
676.317	3.41
676.641	3.89
676.966	3.87
677.29	2.72
677.615	3.6
677.939	4.03
678.264	3.07
678.588	3.65
678.912	4.44
679.236	3.81
679.56	3.43
679.885	3.86
680.209	2.77
680.532	4.03
680.856	3.71
681.18	3.64
681.504	3.06
681.828	3.45
682.152	4.08
682.475	3.8
682.799	3.85
683.122	3.6
683.446	3.32
683.769	3.75
684.093	3.74
684.416	4.26
684.739	3.53
685.062	4.18
685.386	3.06
685.709	4.36
686.032	3.47
686.355	3.58
686.678	3.67
687.001	3.1
687.324	3.55
687.646	3.63
687.969	3.15
688.292	3.95
688.614	4.14
688.937	3.5
689.26	3.36
689.582	3.45
689.904	3.8
690.227	4.19
690.549	3.76
690.871	3.72
691.194	3.38
691.516	3.77
691.838	4.07
692.16	3.98
