Data from 0087_chest_Reflection__4__030.txt Node

Date: Mon Aug 28 18:52:12 CDT 2023
User: ToomeyLab
Spectrometer: FLMS14357
Trigger mode: 0
Integration Time (sec): 1.000000E-2
Scans to average: 100
Electric dark correction enabled: true
Nonlinearity correction enabled: false
Boxcar width: 0
XAxis mode: Wavelengths
Number of Pixels in Spectrum: 2048
>>>>>Begin Spectral Data<<<<<
189.047	-97.96
189.435	-97.96
189.823	-97.96
190.211	3841.86
190.599	128.36
190.987	-159.9
191.375	4.03
191.763	47.57
192.151	-52.58
192.538	55.72
192.926	107.15
193.314	307.9
193.702	55.5
194.089	106.63
194.477	3214.12
194.864	28.41
195.252	200.48
195.639	2499.15
196.027	80.53
196.414	549.96
196.801	81.61
197.189	-9.89
197.576	-7.7
197.963	-36.5
198.351	13.22
198.738	60.62
199.125	-20.76
199.512	-23.92
199.899	-56.94
200.286	-83.58
200.673	2.64
201.06	-6.74
201.447	-120.67
201.833	-61.78
202.22	-31.04
202.607	-23.61
202.994	11.57
203.38	-47.19
203.767	-12.95
204.154	4.79
204.54	-32
204.927	34.14
205.313	11.13
205.699	-20.06
206.086	0.83
206.472	-26.54
206.858	15.33
207.245	-5.28
207.631	7.64
208.017	-1.12
208.403	1.05
208.789	-0.96
209.175	3.63
209.561	24.23
209.947	8.67
210.333	-15.62
210.719	14.02
211.105	18.77
211.491	11.85
211.876	22.03
212.262	-33.99
212.648	25.02
213.034	-40.1
213.419	-10.2
213.805	8.62
214.19	24.57
214.576	20.93
214.961	-6.51
215.346	-17.82
215.732	5.15
216.117	-34.4
216.502	5.14
216.888	-24.08
217.273	-16.57
217.658	13.47
218.043	18.08
218.428	-13.14
218.813	-18.81
219.198	-7.36
219.583	-11.24
219.968	3.54
220.353	-12.1
220.738	-6.53
221.122	-3.57
221.507	-33.38
221.892	15.27
222.276	2.46
222.661	-8.26
223.046	7.55
223.43	-4.95
223.815	1.56
224.199	6.71
224.583	0.35
224.968	5.02
225.352	-1.47
225.736	-0.35
226.121	-7.99
226.505	-4.7
226.889	2.91
227.273	-1.94
227.657	-1.6
228.041	0.27
228.425	4.58
228.809	0.79
229.193	-1.21
229.577	5.12
229.961	-1.08
230.344	1.36
230.728	0.08
231.112	0.34
231.495	0.61
231.879	0.08
232.263	0.17
232.646	-0.39
233.03	1.57
233.413	3.47
233.797	0.99
234.18	0.62
234.563	0.31
234.946	3.24
235.33	-2.18
235.713	-3.35
236.096	2.89
236.479	1.28
236.862	2.22
237.245	0.28
237.628	0.52
238.011	3.5
238.394	2.21
238.777	2.67
239.16	-1.13
239.543	-1.37
239.925	2.89
240.308	-1.1
240.691	-0.07
241.073	-0.52
241.456	1.69
241.838	-0.57
242.221	1.74
242.603	1.89
242.986	1.76
243.368	0.4
243.75	-0.19
244.133	0.14
244.515	0.27
244.897	1.29
245.279	1.03
245.661	-0.36
246.043	0.98
246.425	0.67
246.807	0.95
247.189	0.21
247.571	1.48
247.953	0.36
248.335	1.02
248.717	0.74
249.098	0.93
249.48	0.99
249.862	1.03
250.243	0.91
250.625	1.33
251.006	0.83
251.388	1.08
251.769	1.17
252.151	0.7
252.532	-0.23
252.913	1.89
253.295	-0.66
253.676	0.91
254.057	0.64
254.438	0.85
254.819	0.84
255.2	0.64
255.581	0.11
255.962	1.55
256.343	1.71
256.724	-0.33
257.105	0.12
257.486	1.56
257.867	0.65
258.247	0.11
258.628	2.1
259.009	0.69
259.389	0.17
259.77	1.68
260.15	0.14
260.531	0.49
260.911	0.85
261.292	1.02
261.672	0.84
262.052	0.79
262.432	0.85
262.813	1.07
263.193	0.99
263.573	0.24
263.953	0.75
264.333	0.65
264.713	0.22
265.093	1.49
265.473	1.21
265.853	0.87
266.233	0.99
266.612	0.63
266.992	0.52
267.372	0.86
267.752	1.21
268.131	0.86
268.511	0.73
268.89	1.26
269.27	0.7
269.649	0.72
270.029	1.46
270.408	1.03
270.787	1.04
271.167	0.8
271.546	1.34
271.925	0.38
272.304	0.87
272.683	0.82
273.062	1.06
273.441	1.02
273.82	0.41
274.199	0.34
274.578	0.56
274.957	1.34
275.336	1.1
275.715	1.23
276.093	0.36
276.472	0.46
276.851	0.36
277.229	1.13
277.608	0.32
277.986	1.04
278.365	1.01
278.743	1.09
279.122	0.93
279.5	0.65
279.878	-0.18
280.257	0.73
280.635	0.58
281.013	0.6
281.391	0.22
281.769	1.12
282.147	0.6
282.525	1.17
282.903	1.21
283.281	0.37
283.659	1.51
284.037	1.12
284.415	0.88
284.792	1.06
285.17	0.55
285.548	0.33
285.925	1.08
286.303	0.28
286.68	1.05
287.058	0.73
287.435	0.63
287.813	0.39
288.19	1.17
288.567	0.76
288.945	0.84
289.322	1
289.699	0.58
290.076	1.56
290.453	0.91
290.83	0.46
291.207	0.89
291.584	0.73
291.961	1.46
292.338	0.94
292.715	1.07
293.092	1.14
293.469	0.61
293.845	0.63
294.222	0.88
294.599	1.61
294.975	1.62
295.352	0.98
295.728	0.79
296.105	1.08
296.481	1.2
296.858	1.56
297.234	1.32
297.61	1.24
297.986	1.02
298.363	1.28
298.739	1.05
299.115	1.13
299.491	1.47
299.867	1.19
300.243	1.25
300.619	1.55
300.995	1.62
301.371	0.93
301.746	1.32
302.122	1.09
302.498	0.77
302.874	1.87
303.249	1.06
303.625	1.88
304	0.96
304.376	1.23
304.751	0.54
305.127	1.26
305.502	1.36
305.878	1.05
306.253	1.4
306.628	1.42
307.003	1.34
307.378	0.99
307.754	1.73
308.129	0.86
308.504	2.08
308.879	1.82
309.254	1.71
309.629	1.42
310.003	1.33
310.378	1.04
310.753	1.71
311.128	1.53
311.502	1.58
311.877	1.39
312.252	1.58
312.626	1.27
313.001	1.47
313.375	1.66
313.75	1.58
314.124	1.4
314.498	1.47
314.873	1.94
315.247	1.89
315.621	1.32
315.995	1.97
316.369	1.27
316.743	1.15
317.117	1.62
317.491	0.55
317.865	1.18
318.239	1.31
318.613	1.65
318.987	1.7
319.361	1.75
319.734	1.28
320.108	1.81
320.482	2.3
320.855	1.48
321.229	1.35
321.602	1.45
321.976	1.1
322.349	1.52
322.723	1.32
323.096	1.7
323.469	1.58
323.843	1.4
324.216	1.8
324.589	1.75
324.962	2.18
325.335	1.72
325.708	1.19
326.081	1.42
326.454	1.52
326.827	1.84
327.2	1.72
327.573	1.42
327.945	2.06
328.318	1.84
328.691	1.3
329.063	1.19
329.436	1.06
329.809	1.66
330.181	1.5
330.553	1.55
330.926	1.68
331.298	1.87
331.671	1.77
332.043	1.64
332.415	2.2
332.787	1.39
333.159	1.5
333.532	1.96
333.904	1.78
334.276	1.4
334.648	1.8
335.02	2.1
335.391	1.64
335.763	1.72
336.135	2.02
336.507	1.59
336.879	1.17
337.25	1.98
337.622	1.41
337.993	1.85
338.365	2.05
338.736	2.2
339.108	1.28
339.479	1.35
339.851	1.82
340.222	2.24
340.593	1.72
340.964	1.57
341.336	1.55
341.707	1.86
342.078	1.28
342.449	1.69
342.82	1.64
343.191	1.85
343.562	1.6
343.933	1.46
344.303	1.85
344.674	2.21
345.045	1.7
345.416	1.66
345.786	2.17
346.157	1.96
346.527	1.52
346.898	1.85
347.268	1.71
347.639	1.48
348.009	1.79
348.38	2.11
348.75	1.8
349.12	1.88
349.49	1.91
349.861	1.59
350.231	1.52
350.601	2.41
350.971	2.14
351.341	1.79
351.711	2.1
352.081	1.62
352.45	1.88
352.82	1.75
353.19	2.47
353.56	2
353.929	1.97
354.299	1.4
354.669	2.1
355.038	1.98
355.408	1.79
355.777	1.91
356.147	1.94
356.516	2.38
356.885	2.04
357.254	1.87
357.624	1.65
357.993	2.04
358.362	1.5
358.731	1.62
359.1	1.9
359.469	1.79
359.838	1.63
360.207	2.01
360.576	2.25
360.945	1.83
361.314	1.45
361.682	1.59
362.051	2.25
362.42	2
362.788	1.9
363.157	1.73
363.525	1.85
363.894	1.86
364.262	1.99
364.631	1.8
364.999	1.91
365.367	1.94
365.735	1.66
366.104	1.72
366.472	2.07
366.84	1.67
367.208	1.99
367.576	1.75
367.944	2.09
368.312	1.85
368.68	1.91
369.048	1.84
369.416	2.01
369.783	1.78
370.151	1.65
370.519	2.06
370.886	1.46
371.254	1.79
371.621	1.88
371.989	2.16
372.356	2.01
372.724	2.29
373.091	1.99
373.458	1.89
373.826	2.05
374.193	1.86
374.56	2.08
374.927	1.8
375.294	2.09
375.661	2.11
376.028	1.87
376.395	1.73
376.762	2.07
377.129	1.91
377.496	1.8
377.863	1.85
378.229	1.94
378.596	2.35
378.963	2.1
379.329	2.02
379.696	1.96
380.062	1.94
380.429	1.68
380.795	2.02
381.161	2.2
381.528	2.26
381.894	2.03
382.26	2.2
382.626	2.38
382.993	1.86
383.359	2.33
383.725	2.23
384.091	2.19
384.457	1.91
384.823	1.94
385.188	2.06
385.554	1.95
385.92	1.73
386.286	2.15
386.651	2.09
387.017	2.18
387.383	2.03
387.748	1.87
388.114	1.83
388.479	1.7
388.845	2.08
389.21	1.9
389.575	2.21
389.94	2.02
390.306	1.92
390.671	1.9
391.036	2.11
391.401	2.23
391.766	2.18
392.131	2.07
392.496	1.82
392.861	2.03
393.226	2.19
393.591	1.85
393.956	2.01
394.32	1.96
394.685	1.93
395.05	2.16
395.414	2.06
395.779	2.42
396.143	2.05
396.508	1.84
396.872	2.17
397.236	1.84
397.601	1.92
397.965	2.11
398.329	2.08
398.694	2.17
399.058	1.84
399.422	1.99
399.786	2.2
400.15	2.17
400.514	1.98
400.878	1.93
401.242	2.03
401.605	2.32
401.969	1.96
402.333	1.99
402.697	2.26
403.06	2.09
403.424	2.1
403.787	1.94
404.151	2.05
404.514	2.21
404.878	2.21
405.241	2.34
405.604	2.28
405.968	2.02
406.331	2.21
406.694	2.17
407.057	2.27
407.42	2.2
407.783	2.1
408.146	2.03
408.509	2.22
408.872	2.22
409.235	2.3
409.598	2.07
409.961	2.11
410.323	2.18
410.686	2.37
411.049	2.29
411.411	2.31
411.774	2.15
412.136	1.98
412.499	2.14
412.861	2.35
413.223	2.28
413.586	2.09
413.948	2.18
414.31	2.24
414.672	2.15
415.035	2.15
415.397	2.01
415.759	2.44
416.121	2.46
416.483	2.18
416.845	2.3
417.206	2.43
417.568	2.08
417.93	2.07
418.292	2.24
418.653	2.12
419.015	2.3
419.377	1.9
419.738	2.33
420.1	2.22
420.461	2.21
420.822	2.21
421.184	2.28
421.545	2.26
421.906	2.21
422.267	2.28
422.629	2.19
422.99	2.11
423.351	2.24
423.712	2.21
424.073	2.16
424.434	2.23
424.795	2.21
425.155	2.29
425.516	2.15
425.877	2.15
426.238	2.15
426.598	2.17
426.959	2.28
427.32	2.22
427.68	2.27
428.041	2.2
428.401	2.38
428.761	2.22
429.122	2.29
429.482	2.34
429.842	2.32
430.202	2.09
430.563	2.41
430.923	2.24
431.283	2.29
431.643	2.13
432.003	2.1
432.363	2.35
432.722	2.41
433.082	2.27
433.442	2.34
433.802	2.25
434.161	2.29
434.521	2.32
434.881	2.3
435.24	2.39
435.6	2.27
435.959	2.22
436.319	2.53
436.678	2.27
437.037	2.46
437.396	2.45
437.756	2.15
438.115	2.49
438.474	2.45
438.833	2.35
439.192	2.53
439.551	2.29
439.91	2.5
440.269	2.25
440.628	2.29
440.987	2.34
441.345	2.24
441.704	2.37
442.063	2.29
442.421	2.33
442.78	2.44
443.138	2.31
443.497	2.27
443.855	2.41
444.214	2.35
444.572	2.38
444.93	2.37
445.288	2.25
445.647	2.47
446.005	2.54
446.363	2.34
446.721	2.44
447.079	2.44
447.437	2.34
447.795	2.33
448.153	2.41
448.51	2.29
448.868	2.51
449.226	2.36
449.584	2.4
449.941	2.44
450.299	2.49
450.656	2.34
451.014	2.4
451.371	2.46
451.729	2.25
452.086	2.47
452.443	2.72
452.801	2.7
453.158	2.57
453.515	2.4
453.872	2.33
454.229	2.46
454.586	2.58
454.943	2.48
455.3	2.5
455.657	2.58
456.014	2.5
456.371	2.46
456.727	2.43
457.084	2.45
457.441	2.52
457.797	2.46
458.154	2.58
458.51	2.57
458.867	2.53
459.223	2.46
459.58	2.57
459.936	2.56
460.292	2.45
460.648	2.49
461.005	2.51
461.361	2.52
461.717	2.43
462.073	2.49
462.429	2.44
462.785	2.51
463.141	2.55
463.496	2.7
463.852	2.67
464.208	2.59
464.564	2.45
464.919	2.64
465.275	2.76
465.631	2.62
465.986	2.66
466.342	2.61
466.697	2.5
467.052	2.53
467.408	2.67
467.763	2.56
468.118	2.52
468.473	2.38
468.829	2.8
469.184	2.44
469.539	2.5
469.894	2.64
470.249	2.61
470.603	2.74
470.958	2.55
471.313	2.55
471.668	2.53
472.023	2.7
472.377	2.55
472.732	2.67
473.086	2.71
473.441	2.77
473.795	2.7
474.15	2.74
474.504	2.78
474.859	2.65
475.213	2.59
475.567	2.65
475.921	2.77
476.275	2.73
476.63	2.76
476.984	2.76
477.338	2.72
477.692	2.62
478.045	2.77
478.399	2.73
478.753	2.72
479.107	2.55
479.461	2.76
479.814	2.86
480.168	2.84
480.521	2.76
480.875	2.73
481.228	2.86
481.582	2.8
481.935	2.71
482.289	2.61
482.642	2.91
482.995	2.95
483.348	2.76
483.701	2.68
484.055	2.78
484.408	2.67
484.761	2.73
485.114	2.68
485.466	2.64
485.819	2.57
486.172	2.55
486.525	2.54
486.878	2.59
487.23	2.63
487.583	2.69
487.936	2.79
488.288	2.78
488.641	2.74
488.993	2.79
489.345	2.65
489.698	2.67
490.05	2.65
490.402	2.62
490.754	2.7
491.107	2.73
491.459	2.68
491.811	2.74
492.163	2.84
492.515	2.85
492.866	2.88
493.218	2.76
493.57	2.72
493.922	2.66
494.274	2.76
494.625	2.72
494.977	2.78
495.328	2.9
495.68	2.94
496.031	2.8
496.383	2.86
496.734	2.84
497.086	2.91
497.437	3.01
497.788	2.87
498.139	2.93
498.49	2.86
498.842	2.87
499.193	2.88
499.544	3.03
499.894	2.92
500.245	2.82
500.596	3.06
500.947	3.04
501.298	3.01
501.648	3.04
501.999	3
502.35	2.98
502.7	2.94
503.051	3.04
503.401	2.99
503.752	3.06
504.102	3.1
504.452	2.95
504.803	3.08
505.153	3.05
505.503	3.04
505.853	3.05
506.203	3.1
506.553	3.08
506.903	3.13
507.253	3.03
507.603	2.97
507.953	3.12
508.303	3.21
508.652	3.11
509.002	3.13
509.352	3.02
509.701	3.03
510.051	3.11
510.4	3.04
510.75	3.09
511.099	3.18
511.449	3.09
511.798	3.08
512.147	3.16
512.496	3.05
512.846	3.12
513.195	3.17
513.544	3.16
513.893	3.08
514.242	3.12
514.591	3.21
514.939	3.1
515.288	3.18
515.637	3.15
515.986	3.09
516.334	3.3
516.683	3.23
517.032	3.25
517.38	3.25
517.729	3.3
518.077	3.2
518.426	3.14
518.774	3.32
519.122	3.31
519.47	3.19
519.819	3.2
520.167	3.24
520.515	3.15
520.863	3.17
521.211	3.17
521.559	3.2
521.907	3.23
522.255	3.12
522.602	3.27
522.95	3.35
523.298	3.37
523.645	3.27
523.993	3.24
524.341	3.29
524.688	3.38
525.036	3.35
525.383	3.32
525.73	3.37
526.078	3.46
526.425	3.36
526.772	3.34
527.119	3.37
527.466	3.3
527.814	3.21
528.161	3.25
528.508	3.27
528.854	3.27
529.201	3.35
529.548	3.31
529.895	3.32
530.242	3.24
530.588	3.15
530.935	3.1
531.282	3.2
531.628	3.2
531.975	3.24
532.321	3.3
532.667	3.29
533.014	3.39
533.36	3.46
533.706	3.4
534.052	3.37
534.399	3.45
534.745	3.54
535.091	3.37
535.437	3.35
535.783	3.37
536.129	3.35
536.474	3.38
536.82	3.44
537.166	3.45
537.512	3.52
537.857	3.52
538.203	3.32
538.549	3.45
538.894	3.46
539.239	3.42
539.585	3.51
539.93	3.58
540.276	3.46
540.621	3.62
540.966	3.59
541.311	3.7
541.656	3.76
542.001	3.54
542.346	3.68
542.691	3.59
543.036	3.5
543.381	3.5
543.726	3.46
544.071	3.5
544.415	3.5
544.76	3.54
545.105	3.67
545.449	3.59
545.794	3.64
546.138	3.63
546.483	3.6
546.827	3.68
547.171	3.69
547.516	3.72
547.86	3.74
548.204	3.78
548.548	3.73
548.892	3.57
549.236	3.66
549.58	3.72
549.924	3.77
550.268	3.78
550.612	3.92
550.956	3.7
551.3	3.95
551.643	4.01
551.987	3.73
552.33	4.03
552.674	3.98
553.017	3.89
553.361	4.06
553.704	3.82
554.048	3.96
554.391	3.93
554.734	4.04
555.077	3.85
555.42	3.95
555.764	3.95
556.107	3.93
556.45	3.95
556.793	3.89
557.135	4.11
557.478	3.99
557.821	4.13
558.164	4.21
558.507	4.09
558.849	4.18
559.192	4.1
559.534	3.92
559.877	4.11
560.219	4.04
560.562	4.19
560.904	4.3
561.246	4.04
561.589	4.2
561.931	4.26
562.273	4.06
562.615	4
562.957	4.24
563.299	4.19
563.641	4.06
563.983	4.18
564.325	4.18
564.667	4.21
565.008	4.06
565.35	4.37
565.692	4.35
566.033	4.09
566.375	4.11
566.716	4.22
567.058	4.21
567.399	4.1
567.741	4.28
568.082	4.18
568.423	4.14
568.764	4.19
569.105	4.41
569.447	4.37
569.788	4.32
570.129	4.29
570.47	4.36
570.811	4.41
571.151	4.19
571.492	4.32
571.833	4.35
572.174	4.23
572.514	4.38
572.855	4.36
573.195	4.45
573.536	4.54
573.876	4.39
574.217	4.32
574.557	4.44
574.898	4.45
575.238	4.4
575.578	4.34
575.918	4.41
576.258	4.48
576.598	4.32
576.938	4.37
577.278	4.49
577.618	4.41
577.958	4.52
578.298	4.68
578.638	4.61
578.977	4.63
579.317	4.38
579.657	4.52
579.996	4.7
580.336	4.45
580.675	4.6
581.014	4.76
581.354	4.68
581.693	4.57
582.032	4.82
582.372	4.66
582.711	4.95
583.05	4.67
583.389	4.72
583.728	4.53
584.067	4.99
584.406	4.71
584.745	4.73
585.083	4.75
585.422	4.87
585.761	4.96
586.1	4.88
586.438	4.8
586.777	4.7
587.115	4.72
587.454	4.89
587.792	5
588.13	5.05
588.469	4.96
588.807	4.93
589.145	4.8
589.483	4.61
589.821	5.07
590.159	5.17
590.497	4.79
590.835	4.88
591.173	4.94
591.511	4.88
591.849	4.85
592.187	4.81
592.524	5
592.862	5
593.2	4.89
593.537	4.94
593.875	5.14
594.212	5.11
594.55	5.19
594.887	5.15
595.224	5.22
595.561	4.78
595.899	4.88
596.236	5.06
596.573	5.29
596.91	5.02
597.247	5.25
597.584	5.25
597.921	5.03
598.258	4.99
598.594	5.12
598.931	4.82
599.268	5.1
599.604	5.03
599.941	5.1
600.277	5.16
600.614	5.23
600.95	5.17
601.287	5.18
601.623	5.48
601.959	5.41
602.296	5.23
602.632	5.39
602.968	5.35
603.304	5.24
603.64	5.25
603.976	5.39
604.312	5.12
604.648	5.27
604.984	5.31
605.319	5.36
605.655	5.28
605.991	5.46
606.326	5.28
606.662	5.35
606.998	5.26
607.333	5.21
607.668	5.39
608.004	5.4
608.339	5.32
608.674	5.38
609.01	5.54
609.345	5.65
609.68	5.57
610.015	5.65
610.35	5.78
610.685	5.71
611.02	5.4
611.355	5.74
611.689	5.3
612.024	5.65
612.359	5.54
612.694	5.55
613.028	5.69
613.363	5.55
613.697	5.63
614.032	5.64
614.366	5.6
614.7	5.89
615.035	5.51
615.369	5.67
615.703	5.67
616.037	5.83
616.371	5.49
616.705	5.61
617.039	5.77
617.373	5.47
617.707	6.03
618.041	5.71
618.375	5.83
618.709	6.08
619.042	5.74
619.376	5.91
619.71	5.63
620.043	5.89
620.377	6.1
620.71	5.89
621.043	5.83
621.377	6.15
621.71	5.83
622.043	5.61
622.376	6.09
622.709	5.8
623.043	5.84
623.376	5.96
623.709	6.07
624.041	6.26
624.374	5.81
624.707	5.89
625.04	6.09
625.373	6.15
625.705	6.18
626.038	6.16
626.37	6.11
626.703	6.08
627.035	6.42
627.368	6.16
627.7	6.14
628.032	6.13
628.365	5.77
628.697	6.28
629.029	6.3
629.361	6.35
629.693	6.18
630.025	6.11
630.357	6.07
630.689	6.19
631.021	6.18
631.353	6.4
631.684	6.35
632.016	6.26
632.348	6.4
632.679	6.57
633.011	6.22
633.342	6.02
633.674	6.54
634.005	6.29
634.336	5.93
634.668	6.4
634.999	6.57
635.33	6.38
635.661	6.57
635.992	6.14
636.323	6.73
636.654	6.1
636.985	6.24
637.316	6.58
637.647	6.51
637.977	6.45
638.308	6.6
638.639	6.58
638.969	6.64
639.3	6.37
639.63	6.43
639.961	6.72
640.291	6.49
640.622	6.52
640.952	6.22
641.282	6.74
641.612	6.66
641.943	6.75
642.273	6.73
642.603	6.93
642.933	6.18
643.263	7.31
643.592	6.81
643.922	6.95
644.252	6.52
644.582	6.65
644.911	7.25
645.241	7.04
645.571	6.52
645.9	6.65
646.23	6.61
646.559	6.63
646.888	7.21
647.218	6.97
647.547	6.46
647.876	7.16
648.205	6.81
648.534	7.2
648.863	6.82
649.192	6.74
649.521	6.73
649.85	7.22
650.179	7.15
650.508	6.72
650.837	6.85
651.165	7.04
651.494	6.86
651.822	6.5
652.151	6.85
652.479	7.31
652.808	7.1
653.136	7.14
653.465	7.16
653.793	7.05
654.121	7.35
654.449	7.03
654.777	7.02
655.105	7.33
655.433	7.03
655.761	6.91
656.089	7.29
656.417	6.47
656.745	7.14
657.073	6.78
657.4	7.42
657.728	7.59
658.056	7.56
658.383	7.14
658.711	7.54
659.038	7.34
659.365	7.46
659.693	7.19
660.02	7.06
660.347	7.71
660.674	7.57
661.001	7.43
661.329	7.05
661.656	7.16
661.982	7.32
662.309	7.44
662.636	7.07
662.963	7.82
663.29	7.89
663.616	7.11
663.943	7.9
664.27	7.68
664.596	7.63
664.923	7.53
665.249	7.43
665.576	7.72
665.902	7.5
666.228	7.2
666.554	7.58
666.881	7.35
667.207	7.67
667.533	7.49
667.859	7.14
668.185	7.57
668.511	7.67
668.837	7.34
669.162	7.84
669.488	7.15
669.814	7.79
670.139	7.94
670.465	7.87
670.791	7.85
671.116	7.82
671.442	7.43
671.767	6.83
672.092	8.09
672.418	7.31
672.743	8.05
673.068	7.44
673.393	8.18
673.718	7.52
674.043	8.28
674.368	7.77
674.693	8
675.018	8.27
675.343	7.77
675.667	8.07
675.992	8.37
676.317	7.89
676.641	8.46
676.966	7.93
677.29	7.62
677.615	8.29
677.939	7.97
678.264	8.07
678.588	7.47
678.912	8.42
679.236	7.57
679.56	7.56
679.885	8.37
680.209	7.68
680.532	8.79
680.856	8.04
681.18	8.07
681.504	8.01
681.828	8.09
682.152	8.35
682.475	8.17
682.799	8.34
683.122	8.13
683.446	8.19
683.769	8.36
684.093	8.46
684.416	8.61
684.739	7.91
685.062	8.55
685.386	7.95
685.709	8.83
686.032	8.02
686.355	8.68
686.678	8.18
687.001	8.33
687.324	8.24
687.646	8.4
687.969	8.57
688.292	8.87
688.614	9.55
688.937	8.81
689.26	8.64
689.582	8.2
689.904	8.31
690.227	8.89
690.549	7.83
690.871	8.87
691.194	8.4
691.516	8.15
691.838	8.59
692.16	8.75
