Data from 0087_forehead_Reflection__0__015.txt Node

Date: Mon Aug 28 18:46:43 CDT 2023
User: ToomeyLab
Spectrometer: FLMS14357
Trigger mode: 0
Integration Time (sec): 1.000000E-2
Scans to average: 100
Electric dark correction enabled: true
Nonlinearity correction enabled: false
Boxcar width: 0
XAxis mode: Wavelengths
Number of Pixels in Spectrum: 2048
>>>>>Begin Spectral Data<<<<<
189.047	-92.63
189.435	-92.63
189.823	-92.63
190.211	-3362.79
190.599	331.16
190.987	356.79
191.375	105.63
191.763	21.83
192.151	-157.65
192.538	129.31
192.926	179.99
193.314	-449.21
193.702	27.45
194.089	14.67
194.477	1945.88
194.864	-168.34
195.252	10.36
195.639	-1717.95
196.027	51.85
196.414	366.39
196.801	-105.55
197.189	-27.73
197.576	-403.34
197.963	-49.99
198.351	80.57
198.738	44.45
199.125	28.01
199.512	91.04
199.899	44.64
200.286	49.86
200.673	15.94
201.06	55.6
201.447	-45.07
201.833	3.01
202.22	28.5
202.607	27.69
202.994	38.55
203.38	70.79
203.767	70.57
204.154	21.57
204.54	-16
204.927	-18.78
205.313	72.54
205.699	-4.95
206.086	64.24
206.472	29.8
206.858	22.38
207.245	11.69
207.631	50.17
208.017	39.49
208.403	37.05
208.789	28.53
209.175	22.48
209.561	62.49
209.947	27.03
210.333	13.95
210.719	42.63
211.105	40.3
211.491	26.1
211.876	28.48
212.262	58.7
212.648	56.21
213.034	77.51
213.419	14.39
213.805	27.71
214.19	32.21
214.576	33.23
214.961	38.62
215.346	19.25
215.732	19.25
216.117	16.44
216.502	13.89
216.888	7.81
217.273	33.42
217.658	51.35
218.043	48.95
218.428	12.97
218.813	22.84
219.198	49.27
219.583	18.7
219.968	21.51
220.353	5.84
220.738	23.19
221.122	5.46
221.507	0.97
221.892	29.14
222.276	12.55
222.661	11.31
223.046	16.24
223.43	9.81
223.815	18.36
224.199	12.49
224.583	16.18
224.968	15.46
225.352	10.85
225.736	22.75
226.121	2.61
226.505	12.09
226.889	14.34
227.273	23.5
227.657	5.24
228.041	8.31
228.425	6.2
228.809	8.45
229.193	11.68
229.577	6.9
229.961	4.54
230.344	5.91
230.728	5.64
231.112	4.58
231.495	5.84
231.879	6.14
232.263	6.82
232.646	5.14
233.03	6.62
233.413	8.28
233.797	6.67
234.18	6.34
234.563	5.28
234.946	9.27
235.33	5.28
235.713	4.23
236.096	6.15
236.479	5.51
236.862	7.55
237.245	7.43
237.628	6.9
238.011	8.57
238.394	7.86
238.777	8.02
239.16	4.43
239.543	4.31
239.925	9.26
240.308	6.63
240.691	4.48
241.073	3.72
241.456	6.36
241.838	4.88
242.221	6.36
242.603	5.06
242.986	6.23
243.368	6.47
243.75	5.48
244.133	4.82
244.515	4.93
244.897	5.46
245.279	5.55
245.661	4.93
246.043	5.58
246.425	5.78
246.807	7.42
247.189	5.18
247.571	5.38
247.953	5.77
248.335	5.42
248.717	5.48
249.098	5
249.48	5.04
249.862	5.35
250.243	5.57
250.625	5.77
251.006	4.86
251.388	5.64
251.769	5.89
252.151	6.07
252.532	5.49
252.913	6.76
253.295	4.55
253.676	5.46
254.057	5.48
254.438	5.17
254.819	5.02
255.2	5.9
255.581	6.08
255.962	6.79
256.343	6.79
256.724	5.93
257.105	7.02
257.486	6.03
257.867	4.98
258.247	6.2
258.628	7.17
259.009	5.74
259.389	5.41
259.77	6.37
260.15	4.96
260.531	4.47
260.911	5.09
261.292	5.4
261.672	5.23
262.052	4.8
262.432	4.98
262.813	5.23
263.193	5.18
263.573	5.61
263.953	5.69
264.333	5.59
264.713	5.1
265.093	5.43
265.473	5.67
265.853	5.38
266.233	4.68
266.612	5.48
266.992	5.22
267.372	4.44
267.752	5.84
268.131	5.15
268.511	4.96
268.89	5.47
269.27	4.63
269.649	4.92
270.029	5.64
270.408	5.43
270.787	5.46
271.167	4.94
271.546	4.7
271.925	5.42
272.304	5.13
272.683	5.06
273.062	4.74
273.441	5.03
273.82	4.79
274.199	4.6
274.578	4.62
274.957	5.33
275.336	5.27
275.715	5.63
276.093	4.74
276.472	4.26
276.851	4.86
277.229	5.16
277.608	5.53
277.986	4.56
278.365	5.27
278.743	4.69
279.122	5
279.5	4.6
279.878	4.58
280.257	4.67
280.635	4.67
281.013	4.97
281.391	4.83
281.769	5.11
282.147	5.08
282.525	5.48
282.903	5.24
283.281	4.97
283.659	5.49
284.037	5.48
284.415	4.71
284.792	5.32
285.17	5
285.548	4.75
285.925	5.31
286.303	4.93
286.68	5.34
287.058	4.91
287.435	4.75
287.813	4.89
288.19	5.15
288.567	5.08
288.945	4.9
289.322	4.84
289.699	5.11
290.076	5.52
290.453	5.69
290.83	4.88
291.207	4.91
291.584	5.09
291.961	5.57
292.338	5.21
292.715	4.92
293.092	5.38
293.469	4.65
293.845	4.73
294.222	5.41
294.599	5.45
294.975	5.91
295.352	5.41
295.728	5.51
296.105	5.47
296.481	5.51
296.858	5.8
297.234	5.9
297.61	5.94
297.986	5.64
298.363	6.16
298.739	5.58
299.115	5.49
299.491	6.02
299.867	5.85
300.243	6.07
300.619	5.85
300.995	6.02
301.371	5.73
301.746	5.86
302.122	6.44
302.498	6.54
302.874	6.21
303.249	6.58
303.625	6.41
304	6.1
304.376	6.59
304.751	6.3
305.127	6.52
305.502	6.38
305.878	6.49
306.253	6.63
306.628	6.71
307.003	6.97
307.378	7.35
307.754	7.14
308.129	6.95
308.504	7.45
308.879	7.37
309.254	7.26
309.629	7.23
310.003	7.44
310.378	6.76
310.753	7.74
311.128	7.47
311.502	7.67
311.877	7.57
312.252	7.96
312.626	7.71
313.001	8.17
313.375	7.79
313.75	7.88
314.124	7.7
314.498	8.07
314.873	8.45
315.247	8.61
315.621	8.01
315.995	8.53
316.369	8.68
316.743	7.93
317.117	8.63
317.491	8.32
317.865	8.39
318.239	7.99
318.613	9.04
318.987	9.03
319.361	8.8
319.734	9.36
320.108	9.08
320.482	9
320.855	8.71
321.229	9.32
321.602	9.31
321.976	9.26
322.349	9.77
322.723	9.37
323.096	9.84
323.469	9.5
323.843	9.61
324.216	9.77
324.589	9.83
324.962	9.78
325.335	10.46
325.708	9.47
326.081	9.38
326.454	10.53
326.827	10.19
327.2	10.03
327.573	10.45
327.945	10.6
328.318	10.54
328.691	10.08
329.063	9.76
329.436	10.31
329.809	10.43
330.181	9.99
330.553	10.33
330.926	10.48
331.298	10.67
331.671	10.87
332.043	10.9
332.415	11.72
332.787	10.68
333.159	10.89
333.532	11.11
333.904	11.15
334.276	10.77
334.648	11.31
335.02	11.13
335.391	11.03
335.763	11.09
336.135	11.8
336.507	11.5
336.879	11.27
337.25	12.15
337.622	11.71
337.993	11.88
338.365	11.51
338.736	11.75
339.108	10.86
339.479	10.76
339.851	11.64
340.222	11.8
340.593	11.95
340.964	12.06
341.336	11.68
341.707	11.73
342.078	12.03
342.449	12.15
342.82	12.64
343.191	12.14
343.562	12.13
343.933	12.04
344.303	12.48
344.674	12.39
345.045	12.43
345.416	12.42
345.786	12.74
346.157	12.7
346.527	12.65
346.898	12.87
347.268	12.38
347.639	12.18
348.009	12.39
348.38	13.36
348.75	13.25
349.12	13.32
349.49	12.8
349.861	12.59
350.231	12.93
350.601	13.38
350.971	13.6
351.341	13.4
351.711	13.42
352.081	13.37
352.45	13.27
352.82	13.5
353.19	14.18
353.56	13.67
353.929	13.94
354.299	13.34
354.669	13.74
355.038	13.48
355.408	13.51
355.777	13.8
356.147	13.63
356.516	14.2
356.885	14.21
357.254	13.62
357.624	14.13
357.993	14.13
358.362	14.3
358.731	14.38
359.1	14.68
359.469	14.58
359.838	14.22
360.207	14.53
360.576	14.44
360.945	14.27
361.314	14.43
361.682	14.5
362.051	15.01
362.42	14.65
362.788	14.86
363.157	14.51
363.525	14.91
363.894	14.86
364.262	14.92
364.631	14.58
364.999	15.19
365.367	15.12
365.735	15.12
366.104	15.12
366.472	14.97
366.84	15.3
367.208	15.39
367.576	15.42
367.944	15.76
368.312	15.69
368.68	15.85
369.048	15.57
369.416	15.75
369.783	15.78
370.151	15.78
370.519	16.09
370.886	16.19
371.254	15.97
371.621	15.64
371.989	16.44
372.356	16.37
372.724	16.95
373.091	16.69
373.458	16.34
373.826	16.66
374.193	16.77
374.56	16.5
374.927	16.38
375.294	16.38
375.661	16.4
376.028	16.45
376.395	16.39
376.762	17.17
377.129	16.77
377.496	16.68
377.863	16.94
378.229	17.06
378.596	17.43
378.963	17.33
379.329	17.09
379.696	17.09
380.062	17.36
380.429	17.22
380.795	17.53
381.161	17.68
381.528	17.82
381.894	17.69
382.26	17.81
382.626	17.81
382.993	17.5
383.359	17.97
383.725	17.63
384.091	17.89
384.457	17.88
384.823	18.07
385.188	18.47
385.554	17.84
385.92	18.12
386.286	18.4
386.651	18.38
387.017	18.33
387.383	18.31
387.748	18.34
388.114	18.33
388.479	18.3
388.845	18.64
389.21	18.57
389.575	18.89
389.94	18.76
390.306	19.04
390.671	18.88
391.036	18.68
391.401	19.07
391.766	19.27
392.131	19.06
392.496	19.27
392.861	18.91
393.226	19.27
393.591	19.12
393.956	19.52
394.32	19.18
394.685	19.37
395.05	19.41
395.414	19.49
395.779	19.71
396.143	19.64
396.508	19.63
396.872	19.86
397.236	19.75
397.601	19.63
397.965	19.82
398.329	20.01
398.694	20.13
399.058	19.94
399.422	20.07
399.786	20.21
400.15	20.32
400.514	20.33
400.878	20.43
401.242	20.43
401.605	20.51
401.969	20.37
402.333	20.5
402.697	20.67
403.06	20.66
403.424	20.97
403.787	20.65
404.151	20.86
404.514	20.86
404.878	21.04
405.241	21.13
405.604	21.02
405.968	20.71
406.331	21.04
406.694	20.94
407.057	21.08
407.42	21.07
407.783	21.03
408.146	21.17
408.509	21.43
408.872	21.39
409.235	21.3
409.598	21.23
409.961	21.62
410.323	21.58
410.686	21.64
411.049	22.02
411.411	21.87
411.774	21.81
412.136	21.66
412.499	22.09
412.861	22.06
413.223	21.73
413.586	21.88
413.948	22
414.31	22.26
414.672	21.92
415.035	22.43
415.397	22.24
415.759	22.49
416.121	22.55
416.483	22.47
416.845	22.61
417.206	22.73
417.568	22.4
417.93	22.53
418.292	22.65
418.653	22.61
419.015	22.61
419.377	22.32
419.738	22.68
420.1	22.56
420.461	22.73
420.822	22.49
421.184	22.62
421.545	22.68
421.906	22.86
422.267	22.64
422.629	22.67
422.99	22.7
423.351	22.57
423.712	22.5
424.073	22.59
424.434	22.84
424.795	22.89
425.155	22.87
425.516	22.98
425.877	22.95
426.238	22.94
426.598	22.87
426.959	22.97
427.32	23.13
427.68	23.3
428.041	23.46
428.401	23.67
428.761	23.71
429.122	23.7
429.482	23.96
429.842	24.18
430.202	24.09
430.563	24.37
430.923	24.28
431.283	24.32
431.643	24.25
432.003	24.28
432.363	24.44
432.722	24.72
433.082	24.47
433.442	24.72
433.802	24.44
434.161	24.63
434.521	24.46
434.881	24.42
435.24	24.3
435.6	24.57
435.959	24.48
436.319	24.56
436.678	24.55
437.037	24.84
437.396	25.07
437.756	25.22
438.115	25.12
438.474	25.32
438.833	25.42
439.192	25.45
439.551	25.17
439.91	25.37
440.269	25.32
440.628	25.29
440.987	25.36
441.345	25.22
441.704	25.36
442.063	25.2
442.421	25.2
442.78	25.39
443.138	25.56
443.497	25.43
443.855	25.37
444.214	25.72
444.572	25.83
444.93	26.03
445.288	25.73
445.647	25.99
446.005	26.1
446.363	25.92
446.721	26.09
447.079	25.83
447.437	25.91
447.795	25.76
448.153	25.7
448.51	25.7
448.868	25.66
449.226	25.8
449.584	25.85
449.941	26.03
450.299	26.19
450.656	26.27
451.014	26.47
451.371	26.39
451.729	26.45
452.086	26.65
452.443	27.21
452.801	27
453.158	27.25
453.515	27.02
453.872	27.1
454.229	27.3
454.586	27.25
454.943	27.11
455.3	27.28
455.657	27.24
456.014	27.19
456.371	27.29
456.727	27.31
457.084	27.39
457.441	27.5
457.797	27.59
458.154	27.58
458.51	27.97
458.867	27.76
459.223	27.69
459.58	28.02
459.936	28.01
460.292	27.94
460.648	27.92
461.005	27.61
461.361	27.8
461.717	27.72
462.073	27.44
462.429	27.42
462.785	27.43
463.141	27.69
463.496	28.05
463.852	28.05
464.208	28.25
464.564	28.45
464.919	28.39
465.275	28.66
465.631	28.75
465.986	28.91
466.342	28.87
466.697	28.86
467.052	28.94
467.408	28.78
467.763	29.19
468.118	28.95
468.473	29.14
468.829	28.87
469.184	28.91
469.539	29.11
469.894	29.2
470.249	29.16
470.603	29.26
470.958	29.23
471.313	29.53
471.668	29.34
472.023	29.68
472.377	29.79
472.732	29.53
473.086	29.49
473.441	29.86
473.795	29.8
474.15	29.84
474.504	29.91
474.859	29.91
475.213	30.02
475.567	30.13
475.921	30.18
476.275	30.26
476.63	30.59
476.984	30.31
477.338	30.47
477.692	30.42
478.045	30.44
478.399	30.6
478.753	30.38
479.107	30.35
479.461	30.5
479.814	30.8
480.168	30.59
480.521	30.61
480.875	30.69
481.228	30.51
481.582	30.66
481.935	30.72
482.289	30.84
482.642	31.05
482.995	31.08
483.348	31.01
483.701	30.9
484.055	30.81
484.408	30.74
484.761	30.64
485.114	30.65
485.466	30.23
485.819	30.18
486.172	30.09
486.525	29.96
486.878	29.69
487.23	29.75
487.583	30.08
487.936	30.48
488.288	30.71
488.641	31.01
488.993	30.86
489.345	30.75
489.698	30.68
490.05	30.57
490.402	30.6
490.754	30.68
491.107	30.78
491.459	31.03
491.811	31.2
492.163	31.76
492.515	31.84
492.866	31.88
493.218	31.85
493.57	31.49
493.922	31.24
494.274	31.18
494.625	31.23
494.977	31.42
495.328	31.75
495.68	32.24
496.031	32.46
496.383	32.7
496.734	32.77
497.086	32.88
497.437	33.07
497.788	33.14
498.139	33.2
498.49	33.07
498.842	32.98
499.193	32.87
499.544	32.78
499.894	32.85
500.245	33.18
500.596	33.03
500.947	33.24
501.298	33.3
501.648	33.2
501.999	33.6
502.35	33.57
502.7	33.76
503.051	33.83
503.401	33.84
503.752	33.98
504.102	34.22
504.452	34.16
504.803	34.18
505.153	34.23
505.503	34.15
505.853	34.35
506.203	34.39
506.553	34.31
506.903	34.3
507.253	34.41
507.603	34.32
507.953	34.45
508.303	34.52
508.652	34.72
509.002	34.9
509.352	34.76
509.701	34.67
510.051	34.59
510.4	34.72
510.75	34.61
511.099	34.65
511.449	34.65
511.798	34.72
512.147	34.94
512.496	35.05
512.846	35.02
513.195	35.14
513.544	35.1
513.893	35.16
514.242	35.42
514.591	35.33
514.939	35.09
515.288	35.4
515.637	35.5
515.986	35.58
516.334	35.66
516.683	35.74
517.032	35.87
517.38	36.07
517.729	36.22
518.077	36.21
518.426	36.11
518.774	36.16
519.122	36.26
519.47	36.23
519.819	36.04
520.167	35.97
520.515	35.86
520.863	35.52
521.211	35.7
521.559	35.69
521.907	35.69
522.255	35.81
522.602	36.16
522.95	36.5
523.298	36.84
523.645	36.68
523.993	36.9
524.341	36.85
524.688	36.91
525.036	37.14
525.383	37
525.73	37.49
526.078	37.46
526.425	37.28
526.772	37.18
527.119	37.22
527.466	36.92
527.814	36.76
528.161	36.67
528.508	36.68
528.854	36.82
529.201	37.12
529.548	37.18
529.895	37.31
530.242	37.05
530.588	36.67
530.935	36.63
531.282	36.5
531.628	36.27
531.975	36.18
532.321	36.48
532.667	36.73
533.014	37.2
533.36	37.28
533.706	37.62
534.052	37.74
534.399	37.95
534.745	38.02
535.091	37.78
535.437	37.64
535.783	37.44
536.129	37.41
536.474	37.49
536.82	37.8
537.166	37.9
537.512	38.09
537.857	38.58
538.203	38.65
538.549	38.54
538.894	38.22
539.239	38.25
539.585	38.35
539.93	38.33
540.276	38.53
540.621	38.93
540.966	39.15
541.311	39.31
541.656	39.53
542.001	39.69
542.346	39.81
542.691	39.45
543.036	39.3
543.381	38.83
543.726	38.62
544.071	38.5
544.415	38.44
544.76	38.63
545.105	38.78
545.449	39.01
545.794	39.36
546.138	39.54
546.483	39.6
546.827	39.76
547.171	39.96
547.516	39.83
547.86	40.15
548.204	40.3
548.548	40.14
548.892	39.93
549.236	40
549.58	40.14
549.924	40.19
550.268	40.4
550.612	40.42
550.956	40.76
551.3	40.87
551.643	41.32
551.987	41.06
552.33	41.41
552.674	41.41
553.017	41.63
553.361	41.85
553.704	41.78
554.048	41.66
554.391	41.51
554.734	41.79
555.077	41.38
555.42	41.61
555.764	41.78
556.107	41.84
556.45	41.66
556.793	42.07
557.135	42.06
557.478	41.99
557.821	42.42
558.164	42.5
558.507	42.45
558.849	42.6
559.192	42.54
559.534	42.53
559.877	42.75
560.219	42.77
560.562	43.03
560.904	42.83
561.246	43.05
561.589	43.21
561.931	42.91
562.273	42.97
562.615	43.41
562.957	42.92
563.299	43.12
563.641	43.06
563.983	43.2
564.325	43.3
564.667	43.4
565.008	43.35
565.35	43.62
565.692	43.72
566.033	43.69
566.375	43.34
566.716	43.9
567.058	43.92
567.399	43.9
567.741	43.88
568.082	43.91
568.423	43.66
568.764	43.44
569.105	43.54
569.447	43.73
569.788	43.53
570.129	43.75
570.47	44.39
570.811	44.42
571.151	44.22
571.492	44.31
571.833	44.3
572.174	44.36
572.514	44.51
572.855	44.59
573.195	44.66
573.536	44.45
573.876	44.54
574.217	44.46
574.557	44.19
574.898	44.38
575.238	44.49
575.578	44.66
575.918	44.53
576.258	45.06
576.598	45.02
576.938	44.92
577.278	44.79
577.618	45.02
577.958	45.1
578.298	45.18
578.638	45.34
578.977	45.26
579.317	45.6
579.657	45.54
579.996	45.61
580.336	45.49
580.675	45.64
581.014	46.01
581.354	45.81
581.693	46.52
582.032	46.04
582.372	46.21
582.711	46.17
583.05	46.41
583.389	46.48
583.728	46.34
584.067	46.68
584.406	46.81
584.745	46.2
585.083	46.62
585.422	46.43
585.761	46.59
586.1	46.98
586.438	46.85
586.777	46.89
587.115	47.07
587.454	47.32
587.792	47.04
588.13	47.22
588.469	47.42
588.807	47.27
589.145	47.46
589.483	47.53
589.821	47.47
590.159	47.15
590.497	47.39
590.835	47.43
591.173	47.4
591.511	47.78
591.849	47.58
592.187	47.73
592.524	47.52
592.862	47.62
593.2	47.53
593.537	47.84
593.875	48.32
594.212	48.24
594.55	48.05
594.887	48.05
595.224	48.68
595.561	48.15
595.899	48.11
596.236	48.45
596.573	48.53
596.91	48.68
597.247	48.45
597.584	48.52
597.921	48.52
598.258	48.78
598.594	48.64
598.931	48.54
599.268	48.17
599.604	48.24
599.941	48.35
600.277	47.83
600.614	48.45
600.95	48.68
601.287	48.56
601.623	49.16
601.959	49.35
602.296	49.16
602.632	49.15
602.968	49.82
603.304	49.33
603.64	49.74
603.976	49.5
604.312	49.71
604.648	49.22
604.984	49.78
605.319	49.58
605.655	49.46
605.991	49.49
606.326	49.49
606.662	49.35
606.998	48.76
607.333	49.15
607.668	49.33
608.004	49.1
608.339	49.35
608.674	49.85
609.01	50.08
609.345	50.41
609.68	50.27
610.015	50.7
610.35	50.35
610.685	50.6
611.02	50.11
611.355	50.92
611.689	50.16
612.024	50.2
612.359	50.21
612.694	50.26
613.028	50.11
613.363	50.34
613.697	50.64
614.032	50.78
614.366	50.86
614.7	51.28
615.035	50.83
615.369	51.66
615.703	51.51
616.037	51.63
616.371	51.49
616.705	51.66
617.039	51.63
617.373	51.85
617.707	51.48
618.041	51.49
618.375	51.59
618.709	51.59
619.042	52.17
619.376	52.02
619.71	51.72
620.043	52.18
620.377	52.3
620.71	51.92
621.043	52.13
621.377	52.47
621.71	52.26
622.043	52.03
622.376	52.34
622.709	52.31
623.043	52.64
623.376	52.81
623.709	52.14
624.041	53.29
624.374	52.25
624.707	52.77
625.04	53.14
625.373	53.1
625.705	52.95
626.038	52.92
626.37	52.96
626.703	53.16
627.035	52.88
627.368	53.19
627.7	53.31
628.032	53.63
628.365	53.4
628.697	53.45
629.029	53.2
629.361	53.44
629.693	52.9
630.025	53.1
630.357	53.49
630.689	53.51
631.021	53.44
631.353	53.79
631.684	53.95
632.016	53.83
632.348	54.12
632.679	54.12
633.011	53.83
633.342	54.1
633.674	53.92
634.005	54.34
634.336	53.89
634.668	54.38
634.999	54.56
635.33	54.03
635.661	54.62
635.992	54.37
636.323	54.45
636.654	54.21
636.985	54.36
637.316	54.4
637.647	54.56
637.977	54.56
638.308	54.08
638.639	54.53
638.969	54.45
639.3	54.86
639.63	55.41
639.961	55
640.291	55.15
640.622	55.51
640.952	55.11
641.282	55.42
641.612	55.39
641.943	55.39
642.273	56.3
642.603	55.22
642.933	55.46
643.263	55.49
643.592	55.07
643.922	55.4
644.252	55.6
644.582	55.78
644.911	55.89
645.241	55.87
645.571	55.52
645.9	56.2
646.23	55.68
646.559	56.41
646.888	56.79
647.218	56.13
647.547	56.22
647.876	56.34
648.205	56.19
648.534	57.08
648.863	56.47
649.192	56.47
649.521	56.51
649.85	56.59
650.179	56.57
650.508	56.97
650.837	57.02
651.165	56.79
651.494	56.71
651.822	57.1
652.151	56.53
652.479	57.17
652.808	56.92
653.136	56.85
653.465	57.21
653.793	57.18
654.121	57.78
654.449	57.5
654.777	56.56
655.105	57.18
655.433	57.05
655.761	57.58
656.089	57.57
656.417	57.59
656.745	57.36
657.073	56.79
657.4	57.16
657.728	57.4
658.056	57.54
658.383	58.06
658.711	58.11
659.038	58
659.365	58.54
659.693	57.84
660.02	57.93
660.347	58.25
660.674	58.55
661.001	58.02
661.329	58.17
661.656	58.08
661.982	57.77
662.309	57.74
662.636	58.37
662.963	58.45
663.29	59.24
663.616	58.68
663.943	58.74
664.27	59.12
664.596	58.73
664.923	58.95
665.249	58.66
665.576	59.36
665.902	59.03
666.228	59.2
666.554	58.58
666.881	59
667.207	58.67
667.533	59.53
667.859	58.84
668.185	59.52
668.511	59.62
668.837	58.81
669.162	58.85
669.488	59.68
