Data from 0087_crown_Reflection__2__022.txt Node

Date: Mon Aug 28 18:48:56 CDT 2023
User: ToomeyLab
Spectrometer: FLMS14357
Trigger mode: 0
Integration Time (sec): 1.000000E-2
Scans to average: 100
Electric dark correction enabled: true
Nonlinearity correction enabled: false
Boxcar width: 0
XAxis mode: Wavelengths
Number of Pixels in Spectrum: 2048
>>>>>Begin Spectral Data<<<<<
189.047	-67.42
189.435	-67.42
189.823	-67.42
190.211	6748.84
190.599	-15.26
190.987	-352.65
191.375	5.82
191.763	99.3
192.151	191.39
192.538	35.68
192.926	65.36
193.314	30.25
193.702	158.26
194.089	93.07
194.477	3908.24
194.864	-137.14
195.252	-4.83
195.639	-3246.15
196.027	104.22
196.414	135.47
196.801	121.63
197.189	-62.41
197.576	-62.9
197.963	-49.88
198.351	-7.34
198.738	77.09
199.125	24.85
199.512	18.34
199.899	-35.55
200.286	52.03
200.673	7.16
201.06	-3.14
201.447	-54.85
201.833	-30.84
202.22	5.55
202.607	0.87
202.994	31.76
203.38	25.84
203.767	-6.43
204.154	7.65
204.54	-13.07
204.927	8.45
205.313	40.21
205.699	-35.88
206.086	2.65
206.472	7.56
206.858	-50.13
207.245	-4.41
207.631	45.08
208.017	18.84
208.403	-0.11
208.789	-33.46
209.175	-22.77
209.561	19.9
209.947	19.72
210.333	3.1
210.719	-29.9
211.105	36.44
211.491	5.84
211.876	40.36
212.262	42.44
212.648	25.83
213.034	2.6
213.419	0.58
213.805	-5.27
214.19	-20.88
214.576	13.17
214.961	12.75
215.346	-35.12
215.732	4.22
216.117	-28.62
216.502	4.26
216.888	-21.09
217.273	-58.54
217.658	-13.96
218.043	-3.9
218.428	4.58
218.813	0.58
219.198	18.11
219.583	-10.1
219.968	1.46
220.353	9.1
220.738	8.45
221.122	12.8
221.507	-33.48
221.892	-21.1
222.276	14.16
222.661	0.89
223.046	-7.82
223.43	8.05
223.815	13.18
224.199	7.07
224.583	2.42
224.968	12.8
225.352	17.85
225.736	4.15
226.121	5.97
226.505	4.16
226.889	6.3
227.273	8.94
227.657	5.95
228.041	12.29
228.425	4.37
228.809	4.54
229.193	5.78
229.577	6.41
229.961	6.57
230.344	7.39
230.728	6.86
231.112	7.33
231.495	7.54
231.879	6.48
232.263	7.73
232.646	7.43
233.03	7.08
233.413	9.99
233.797	8.81
234.18	5.64
234.563	6.83
234.946	6.27
235.33	4.16
235.713	4.58
236.096	7.24
236.479	5.33
236.862	8.23
237.245	6.28
237.628	5.93
238.011	7.01
238.394	6.99
238.777	8.12
239.16	6.94
239.543	5.17
239.925	9.43
240.308	7.63
240.691	5.15
241.073	4.33
241.456	5.73
241.838	6.09
242.221	8.41
242.603	6.42
242.986	7.48
243.368	5.97
243.75	6.62
244.133	6.42
244.515	6.42
244.897	7.13
245.279	6.91
245.661	6.23
246.043	7.11
246.425	6.25
246.807	7.57
247.189	5.62
247.571	6.39
247.953	6.59
248.335	6.36
248.717	6.62
249.098	6.28
249.48	6.55
249.862	6.47
250.243	6.11
250.625	7.04
251.006	6.37
251.388	7
251.769	7.19
252.151	5.24
252.532	6.5
252.913	6.68
253.295	6.38
253.676	5.66
254.057	6.51
254.438	6.1
254.819	6.07
255.2	6.7
255.581	6.45
255.962	6.35
256.343	7.42
256.724	5.23
257.105	5.61
257.486	6.89
257.867	4.93
258.247	6.77
258.628	6.46
259.009	4.81
259.389	5.84
259.77	6.77
260.15	5.33
260.531	5.94
260.911	6.07
261.292	6.02
261.672	5.98
262.052	6.06
262.432	5.91
262.813	6.18
263.193	5.68
263.573	5.85
263.953	6.36
264.333	5.6
264.713	5.78
265.093	6.94
265.473	5.88
265.853	5.57
266.233	5.32
266.612	6.09
266.992	5.67
267.372	5.94
267.752	6.72
268.131	6.19
268.511	6.27
268.89	6.25
269.27	5.61
269.649	6.07
270.029	5.91
270.408	5.91
270.787	6.07
271.167	5.15
271.546	5.74
271.925	6.32
272.304	6
272.683	5.61
273.062	5.73
273.441	5.84
273.82	5.69
274.199	5.49
274.578	5.82
274.957	6.15
275.336	6.23
275.715	6.41
276.093	5.29
276.472	5.46
276.851	5.42
277.229	5.59
277.608	6.36
277.986	6.16
278.365	5.78
278.743	5.47
279.122	5.53
279.5	5.81
279.878	5.63
280.257	5.17
280.635	5.57
281.013	5.81
281.391	5.89
281.769	5.75
282.147	5.36
282.525	5.71
282.903	5.42
283.281	5.84
283.659	6.1
284.037	6.2
284.415	5.74
284.792	5.6
285.17	5.3
285.548	5.61
285.925	5.7
286.303	5.9
286.68	5.91
287.058	5.63
287.435	5.28
287.813	5.25
288.19	6.07
288.567	5.73
288.945	5.57
289.322	5.76
289.699	5.76
290.076	5.9
290.453	5.45
290.83	4.98
291.207	5.38
291.584	5.47
291.961	5.91
292.338	5.6
292.715	5.24
293.092	5.73
293.469	5.32
293.845	5.22
294.222	5.39
294.599	5.44
294.975	5.48
295.352	5.52
295.728	5.95
296.105	5.91
296.481	5.18
296.858	5.48
297.234	5.34
297.61	5.45
297.986	5.4
298.363	5.72
298.739	5.41
299.115	5.23
299.491	5.5
299.867	5.37
300.243	5.25
300.619	4.84
300.995	5.63
301.371	5.07
301.746	5.97
302.122	5.48
302.498	5.38
302.874	5.52
303.249	5.6
303.625	5.35
304	5.1
304.376	5.29
304.751	4.83
305.127	5.49
305.502	5.29
305.878	5.37
306.253	5.35
306.628	5.25
307.003	5.29
307.378	4.8
307.754	5.19
308.129	5.16
308.504	5.63
308.879	5.5
309.254	5.78
309.629	5.52
310.003	4.99
310.378	5.18
310.753	5.02
311.128	5.19
311.502	5.18
311.877	5.02
312.252	5.05
312.626	5.33
313.001	4.99
313.375	5.18
313.75	4.98
314.124	5.16
314.498	5.4
314.873	5.73
315.247	5.17
315.621	4.96
315.995	5.18
316.369	5.66
316.743	4.54
317.117	4.98
317.491	4.72
317.865	4.89
318.239	4.74
318.613	4.96
318.987	4.74
319.361	5.35
319.734	4.55
320.108	5.21
320.482	4.84
320.855	4.99
321.229	4.83
321.602	4.63
321.976	4.57
322.349	4.92
322.723	4.51
323.096	4.89
323.469	4.18
323.843	4.4
324.216	4.87
324.589	5.11
324.962	4.69
325.335	4.95
325.708	4.77
326.081	4.72
326.454	5.08
326.827	5.04
327.2	4.59
327.573	5.03
327.945	5.24
328.318	5.16
328.691	4.4
329.063	4.43
329.436	4.26
329.809	5.04
330.181	4.67
330.553	4.49
330.926	4.83
331.298	4.97
331.671	4.09
332.043	4.71
332.415	5.43
332.787	4.24
333.159	4.25
333.532	4.9
333.904	4.71
334.276	4.59
334.648	4.76
335.02	4.88
335.391	4.46
335.763	4.35
336.135	4.9
336.507	4.35
336.879	4.73
337.25	4.62
337.622	4.31
337.993	4.98
338.365	4.42
338.736	4.97
339.108	4.21
339.479	4.23
339.851	4.9
340.222	5
340.593	4.84
340.964	4.51
341.336	4.22
341.707	4.31
342.078	3.97
342.449	4.74
342.82	4.59
343.191	4.52
343.562	4.34
343.933	4.22
344.303	4.41
344.674	4.88
345.045	4.44
345.416	4.47
345.786	4.89
346.157	4.38
346.527	4.3
346.898	4.57
347.268	4.41
347.639	4.06
348.009	4.27
348.38	4.66
348.75	4.45
349.12	4.3
349.49	4.76
349.861	4.01
350.231	4.18
350.601	5.09
350.971	4.88
351.341	4.66
351.711	4.59
352.081	4.8
352.45	4.54
352.82	4.84
353.19	4.77
353.56	4.5
353.929	4.42
354.299	4.2
354.669	4.54
355.038	5.02
355.408	4.53
355.777	4.35
356.147	4.52
356.516	4.84
356.885	4.96
357.254	4.5
357.624	4.65
357.993	4.7
358.362	4.67
358.731	4.3
359.1	4.77
359.469	4.73
359.838	4.34
360.207	4.43
360.576	4.65
360.945	4.43
361.314	4.3
361.682	4.31
362.051	4.75
362.42	4.45
362.788	4.5
363.157	4.51
363.525	4.26
363.894	4.57
364.262	4.79
364.631	4.22
364.999	4.41
365.367	4.5
365.735	4.42
366.104	4.26
366.472	4.36
366.84	4.52
367.208	4.45
367.576	4.03
367.944	4.68
368.312	4.71
368.68	4.57
369.048	4.53
369.416	4.2
369.783	4.42
370.151	4.53
370.519	4.82
370.886	4.33
371.254	4.27
371.621	3.93
371.989	4.25
372.356	4.67
372.724	5.04
373.091	4.81
373.458	4.41
373.826	4.36
374.193	4.53
374.56	4.98
374.927	4.48
375.294	4.78
375.661	4.6
376.028	4.24
376.395	4.22
376.762	4.58
377.129	4.19
377.496	4.32
377.863	4.67
378.229	4.27
378.596	4.76
378.963	4.66
379.329	4.64
379.696	4.57
380.062	4.44
380.429	4.33
380.795	4.56
381.161	4.61
381.528	5
381.894	4.68
382.26	4.61
382.626	4.63
382.993	4.43
383.359	4.44
383.725	4.88
384.091	4.45
384.457	4.39
384.823	4.38
385.188	4.52
385.554	4.48
385.92	4.45
386.286	4.85
386.651	4.57
387.017	4.79
387.383	4.82
387.748	4.45
388.114	4.41
388.479	4.44
388.845	4.63
389.21	4.55
389.575	4.95
389.94	4.46
390.306	4.74
390.671	4.67
391.036	4.38
391.401	4.65
391.766	4.78
392.131	4.66
392.496	4.26
392.861	4.7
393.226	4.98
393.591	4.49
393.956	4.71
394.32	4.42
394.685	4.69
395.05	4.84
395.414	4.65
395.779	4.51
396.143	4.63
396.508	4.65
396.872	4.76
397.236	4.6
397.601	4.56
397.965	4.58
398.329	4.75
398.694	4.67
399.058	4.85
399.422	4.77
399.786	4.63
400.15	4.84
400.514	4.88
400.878	4.71
401.242	4.67
401.605	4.62
401.969	4.4
402.333	4.57
402.697	4.73
403.06	4.77
403.424	4.9
403.787	4.52
404.151	4.46
404.514	4.64
404.878	4.79
405.241	4.99
405.604	4.94
405.968	4.65
406.331	5
406.694	4.71
407.057	4.94
407.42	4.63
407.783	4.44
408.146	4.66
408.509	4.82
408.872	4.73
409.235	4.95
409.598	4.81
409.961	4.85
410.323	4.75
410.686	4.92
411.049	4.85
411.411	4.76
411.774	4.79
412.136	4.75
412.499	4.72
412.861	4.73
413.223	4.7
413.586	4.78
413.948	4.88
414.31	4.89
414.672	4.85
415.035	4.89
415.397	4.79
415.759	4.89
416.121	5.28
416.483	4.8
416.845	5
417.206	4.97
417.568	4.86
417.93	4.81
418.292	5.05
418.653	4.78
419.015	4.95
419.377	4.72
419.738	5.14
420.1	4.93
420.461	4.96
420.822	4.91
421.184	4.78
421.545	5.01
421.906	4.88
422.267	4.9
422.629	4.87
422.99	4.8
423.351	4.89
423.712	4.82
424.073	4.94
424.434	4.95
424.795	4.85
425.155	4.91
425.516	4.85
425.877	4.88
426.238	4.86
426.598	4.82
426.959	4.92
427.32	4.8
427.68	4.85
428.041	4.89
428.401	4.97
428.761	4.89
429.122	4.91
429.482	5.19
429.842	5.09
430.202	4.8
430.563	5.01
430.923	4.97
431.283	4.89
431.643	4.89
432.003	4.91
432.363	5.14
432.722	5.07
433.082	4.93
433.442	5.07
433.802	5.15
434.161	5.15
434.521	4.88
434.881	4.93
435.24	5.06
435.6	5.07
435.959	5.1
436.319	5.17
436.678	4.99
437.037	5.14
437.396	5.13
437.756	5.09
438.115	5.09
438.474	5.21
438.833	5.23
439.192	5.09
439.551	5.13
439.91	5.21
440.269	5.09
440.628	5.08
440.987	5.1
441.345	5
441.704	5.06
442.063	4.97
442.421	5.05
442.78	5.14
443.138	5.08
443.497	5.12
443.855	4.96
444.214	5.06
444.572	5.26
444.93	5.2
445.288	5.08
445.647	5.16
446.005	5.13
446.363	5.26
446.721	5.24
447.079	5.23
447.437	5.13
447.795	5.07
448.153	5.18
448.51	5.07
448.868	5.17
449.226	5.07
449.584	5.04
449.941	5.13
450.299	5.16
450.656	5.17
451.014	5.12
451.371	5.21
451.729	4.89
452.086	5.11
452.443	5.36
452.801	5.41
453.158	5.19
453.515	5.26
453.872	5.13
454.229	5.33
454.586	5.49
454.943	5.16
455.3	5.27
455.657	5.22
456.014	5.31
456.371	5.24
456.727	5.44
457.084	5.27
457.441	5.38
457.797	5.21
458.154	5.36
458.51	5.41
458.867	5.28
459.223	5.27
459.58	5.3
459.936	5.44
460.292	5.41
460.648	5.25
461.005	5.23
461.361	5.31
461.717	5.22
462.073	5.23
462.429	5.14
462.785	5.29
463.141	5.26
463.496	5.37
463.852	5.36
464.208	5.22
464.564	5.37
464.919	5.46
465.275	5.54
465.631	5.46
465.986	5.51
466.342	5.44
466.697	5.33
467.052	5.38
467.408	5.42
467.763	5.4
468.118	5.3
468.473	5.4
468.829	5.37
469.184	5.28
469.539	5.6
469.894	5.41
470.249	5.45
470.603	5.52
470.958	5.45
471.313	5.54
471.668	5.2
472.023	5.54
472.377	5.56
472.732	5.6
473.086	5.51
473.441	5.55
473.795	5.55
474.15	5.64
474.504	5.52
474.859	5.47
475.213	5.5
475.567	5.51
475.921	5.66
476.275	5.51
476.63	5.63
476.984	5.61
477.338	5.69
477.692	5.61
478.045	5.68
478.399	5.45
478.753	5.38
479.107	5.53
479.461	5.47
479.814	5.69
480.168	5.56
480.521	5.55
480.875	5.52
481.228	5.53
481.582	5.58
481.935	5.49
482.289	5.56
482.642	5.65
482.995	5.66
483.348	5.6
483.701	5.56
484.055	5.56
484.408	5.39
484.761	5.45
485.114	5.45
485.466	5.38
485.819	5.26
486.172	5.21
486.525	5.27
486.878	5.3
487.23	5.38
487.583	5.39
487.936	5.46
488.288	5.48
488.641	5.49
488.993	5.41
489.345	5.47
489.698	5.45
490.05	5.42
490.402	5.37
490.754	5.42
491.107	5.4
491.459	5.47
491.811	5.49
492.163	5.64
492.515	5.6
492.866	5.57
493.218	5.53
493.57	5.52
493.922	5.41
494.274	5.48
494.625	5.49
494.977	5.57
495.328	5.64
495.68	5.8
496.031	5.77
496.383	5.64
496.734	5.71
497.086	5.8
497.437	5.86
497.788	5.82
498.139	5.77
498.49	5.7
498.842	5.73
499.193	5.76
499.544	5.74
499.894	5.79
500.245	5.77
500.596	5.72
500.947	5.67
501.298	5.82
501.648	5.71
501.999	5.83
502.35	5.73
502.7	5.78
503.051	5.93
503.401	5.8
503.752	5.86
504.102	5.9
504.452	5.74
504.803	5.91
505.153	5.9
505.503	5.75
505.853	5.99
506.203	5.86
506.553	5.84
506.903	5.87
507.253	5.98
507.603	5.88
507.953	5.91
508.303	5.96
508.652	6.04
509.002	6.02
509.352	5.87
509.701	5.85
510.051	5.98
510.4	5.85
510.75	5.95
511.099	5.85
511.449	5.95
511.798	5.78
512.147	5.86
512.496	5.92
512.846	5.98
513.195	5.96
513.544	5.94
513.893	5.94
514.242	6.02
514.591	6.01
514.939	5.89
515.288	5.96
515.637	6.08
515.986	5.97
516.334	6.09
516.683	6.13
517.032	6.04
517.38	6.1
517.729	5.99
518.077	5.99
518.426	6
518.774	5.99
519.122	6.07
519.47	5.96
519.819	6.06
520.167	5.97
520.515	6.01
520.863	5.85
521.211	5.92
521.559	5.9
521.907	5.99
522.255	5.86
522.602	5.95
522.95	6.09
523.298	6.17
523.645	6.22
523.993	6.13
524.341	6.2
524.688	6.08
525.036	6.17
525.383	6.16
525.73	6.26
526.078	6.23
526.425	6.11
526.772	6.15
527.119	6.06
527.466	6.01
527.814	6.07
528.161	5.93
528.508	5.99
528.854	6.02
529.201	6.15
529.548	6.1
529.895	6.08
530.242	6
530.588	5.86
530.935	5.83
531.282	5.83
531.628	5.9
531.975	5.9
532.321	5.97
532.667	5.98
533.014	6.12
533.36	6.2
533.706	6.14
534.052	6.17
534.399	6.14
534.745	6.23
535.091	6.01
535.437	6.05
535.783	6.04
536.129	6.06
536.474	6.12
536.82	6.16
537.166	6.19
537.512	6.17
537.857	6.23
538.203	6.23
538.549	6.13
538.894	6.12
539.239	6.08
539.585	6.15
539.93	6.2
540.276	6.23
540.621	6.2
540.966	6.28
541.311	6.42
541.656	6.41
542.001	6.27
542.346	6.34
542.691	6.19
543.036	6.19
543.381	6.14
543.726	6.07
544.071	6.13
544.415	6.15
544.76	6.17
545.105	6.28
545.449	6.13
545.794	6.23
546.138	6.27
546.483	6.28
546.827	6.33
547.171	6.28
547.516	6.37
547.86	6.46
548.204	6.43
548.548	6.33
548.892	6.32
549.236	6.23
549.58	6.25
549.924	6.4
550.268	6.46
550.612	6.46
550.956	6.4
551.3	6.55
551.643	6.55
551.987	6.29
552.33	6.61
552.674	6.41
553.017	6.53
553.361	6.61
553.704	6.62
554.048	6.51
554.391	6.49
554.734	6.62
555.077	6.49
555.42	6.61
555.764	6.57
556.107	6.39
556.45	6.71
556.793	6.49
557.135	6.73
557.478	6.46
557.821	6.62
558.164	6.82
558.507	6.54
558.849	6.48
559.192	6.49
559.534	6.6
559.877	6.71
560.219	6.75
560.562	6.63
560.904	6.74
561.246	6.52
561.589	6.7
561.931	6.8
562.273	6.66
562.615	6.6
562.957	6.6
563.299	6.8
563.641	6.7
563.983	6.73
564.325	6.7
564.667	6.59
565.008	6.61
565.35	7.05
565.692	6.81
566.033	6.7
566.375	6.61
566.716	6.65
567.058	6.64
567.399	6.63
567.741	6.78
568.082	6.62
568.423	6.74
568.764	6.73
569.105	6.73
569.447	6.66
569.788	6.67
570.129	6.5
570.47	6.67
570.811	6.52
571.151	6.57
571.492	6.67
571.833	6.61
572.174	6.78
572.514	6.74
572.855	6.78
573.195	7
573.536	6.9
573.876	6.6
574.217	6.75
574.557	6.78
574.898	6.74
575.238	6.89
575.578	6.69
575.918	6.71
576.258	6.92
576.598	6.91
576.938	6.65
577.278	6.81
577.618	6.77
577.958	6.82
578.298	6.87
578.638	6.74
578.977	6.89
579.317	6.71
579.657	6.89
579.996	6.75
580.336	6.95
580.675	6.89
581.014	7.04
581.354	6.88
581.693	6.94
582.032	7.06
582.372	6.77
582.711	7.14
583.05	7.06
583.389	6.78
583.728	6.9
584.067	6.96
584.406	6.9
584.745	6.97
585.083	6.86
585.422	6.71
585.761	7.08
586.1	6.96
586.438	6.71
586.777	6.79
587.115	6.96
587.454	6.98
587.792	7.07
588.13	7.07
588.469	7.02
588.807	7.21
589.145	7.14
589.483	7
589.821	7
590.159	7.05
590.497	6.95
590.835	7.09
591.173	6.87
591.511	6.95
591.849	7.03
592.187	7.07
592.524	7.04
592.862	6.96
593.2	6.89
593.537	7.1
593.875	7.31
594.212	6.99
594.55	7.08
594.887	6.99
595.224	6.97
595.561	6.98
595.899	6.99
596.236	7.3
596.573	7.26
596.91	6.92
597.247	7.14
597.584	7.12
597.921	7.01
598.258	7.12
598.594	7.05
598.931	6.91
599.268	7.11
599.604	6.89
599.941	7.02
600.277	7.01
600.614	7.24
600.95	6.9
601.287	7.19
601.623	7.16
601.959	7.22
602.296	7.1
602.632	7.13
602.968	7.33
603.304	7.19
603.64	7.05
603.976	6.98
604.312	7.22
604.648	7.12
604.984	6.9
605.319	7.13
605.655	7.19
605.991	7.19
606.326	7.26
606.662	7.24
606.998	7.08
607.333	7.01
607.668	7.05
608.004	7.14
608.339	7.36
608.674	7.16
609.01	7.31
609.345	7.31
609.68	7.17
610.015	7.45
610.35	7.36
610.685	7.22
611.02	7.42
611.355	7.29
611.689	6.92
612.024	7.18
612.359	7.23
612.694	7.22
613.028	7.04
613.363	7.06
613.697	7.42
614.032	7.24
614.366	6.97
614.7	7.07
615.035	7.04
615.369	7.46
615.703	7.24
616.037	7.17
616.371	7.01
616.705	7.18
617.039	7.03
617.373	7.19
617.707	7.02
618.041	7.53
618.375	7.51
618.709	7.65
619.042	7.39
619.376	7.49
619.71	7.26
620.043	7.59
620.377	7.46
620.71	7.22
621.043	7.47
621.377	7.26
621.71	7.55
622.043	7.07
622.376	7.4
622.709	7.26
623.043	7.09
623.376	7.53
623.709	7.78
624.041	7.56
624.374	7.04
624.707	6.96
625.04	6.98
625.373	7.26
625.705	7.83
626.038	7.32
626.37	7.52
626.703	7.47
627.035	7.42
627.368	7.58
627.7	7.36
628.032	7.35
628.365	7.07
628.697	7.49
629.029	7.55
629.361	7.52
629.693	7.55
630.025	7.62
630.357	7.23
630.689	7.35
631.021	7.71
631.353	7.15
631.684	7.65
632.016	7.26
632.348	7.45
632.679	7.38
633.011	7.43
633.342	7.41
633.674	7.66
634.005	7.41
634.336	7.38
634.668	7.41
634.999	7.66
635.33	7.74
635.661	7.94
635.992	7.36
636.323	7.52
636.654	7.35
636.985	7.31
637.316	7.47
637.647	7.5
637.977	7.45
638.308	7.46
638.639	7.4
638.969	7.55
639.3	7.5
639.63	7.76
639.961	7.61
640.291	7.83
640.622	7.49
640.952	7.41
641.282	7.41
641.612	8.08
641.943	7.41
642.273	7.68
642.603	7.45
642.933	7.61
643.263	7.97
643.592	7.59
643.922	7.75
644.252	7.37
644.582	7.4
644.911	7.66
645.241	8.16
645.571	7.72
645.9	7.37
646.23	7.76
646.559	7.71
646.888	7.39
647.218	7.53
647.547	7.53
647.876	7.78
648.205	7.2
648.534	8.08
648.863	7.72
649.192	7.84
649.521	7.59
649.85	7.72
650.179	7.84
650.508	7.87
650.837	7.22
651.165	7.95
651.494	7.49
651.822	7.34
652.151	7.63
652.479	8.05
652.808	7.99
653.136	7.93
653.465	7.78
653.793	7.86
654.121	7.73
654.449	7.76
654.777	7.49
655.105	7.97
655.433	7.79
655.761	7.41
656.089	7.9
656.417	7.52
656.745	8.32
657.073	7.94
657.4	8.11
657.728	8.16
658.056	8.23
658.383	7.48
658.711	8.08
659.038	8.13
659.365	8.3
659.693	7.92
660.02	7.82
660.347	8.12
660.674	8.01
661.001	7.94
661.329	7.83
661.656	7.84
661.982	7.78
662.309	8.16
662.636	7.89
662.963	8.09
663.29	8.16
663.616	7.74
663.943	8.03
664.27	8.35
664.596	8.13
664.923	8.12
665.249	7.64
665.576	8.32
665.902	8.06
666.228	7.39
666.554	8.18
666.881	8.43
667.207	7.83
667.533	7.96
667.859	7.37
668.185	7.69
668.511	8.27
668.837	7.44
669.162	8.36
669.488	7.85
669.814	8.11
670.139	7.81
670.465	8.18
670.791	8.64
671.116	8.1
671.442	8.25
671.767	7.28
672.092	7.87
672.418	8.24
672.743	8.56
673.068	8.11
673.393	8.49
673.718	7.98
674.043	8.51
674.368	8.06
674.693	8.42
675.018	8.6
675.343	7.45
675.667	7.93
675.992	8.73
676.317	7.35
676.641	8.23
676.966	7.99
677.29	7.11
677.615	8.67
677.939	7.75
678.264	7.76
678.588	8.18
678.912	8.19
679.236	8.02
679.56	8.36
679.885	8.33
680.209	7.98
680.532	8.51
680.856	8.01
681.18	8.67
681.504	7.59
681.828	8.23
682.152	8.01
682.475	8.27
682.799	8.25
683.122	7.43
683.446	8.18
683.769	8.63
684.093	8.23
684.416	8.33
684.739	8
685.062	8.69
685.386	8.21
685.709	8.38
686.032	7.96
686.355	7.85
686.678	7.87
687.001	7.14
687.324	8.27
687.646	7.53
687.969	7.88
688.292	8.38
688.614	8.9
688.937	7.97
689.26	8.31
689.582	7.53
689.904	7.9
690.227	8.43
690.549	8.23
690.871	8.09
691.194	8.63
691.516	8.46
691.838	9.18
692.16	8.49
692.482	8.86
692.804	8.38
