Data from 0087_chest_Reflection__1__027.txt Node

Date: Mon Aug 28 18:50:56 CDT 2023
User: ToomeyLab
Spectrometer: FLMS14357
Trigger mode: 0
Integration Time (sec): 1.000000E-2
Scans to average: 100
Electric dark correction enabled: true
Nonlinearity correction enabled: false
Boxcar width: 0
XAxis mode: Wavelengths
Number of Pixels in Spectrum: 2048
>>>>>Begin Spectral Data<<<<<
189.047	-15.99
189.435	-15.99
189.823	-15.99
190.211	-11539.53
190.599	131.51
190.987	540.49
191.375	53.5
191.763	75.71
192.151	-22.88
192.538	133.14
192.926	229.55
193.314	-719.19
193.702	128.92
194.089	82.05
194.477	-1936.47
194.864	100.35
195.252	135.62
195.639	-1735.04
196.027	72.81
196.414	168.33
196.801	130.72
197.189	-9.08
197.576	-314.51
197.963	-38.11
198.351	13.47
198.738	38.51
199.125	-38.87
199.512	19.16
199.899	-39.56
200.286	38.46
200.673	28.03
201.06	12.49
201.447	-29.49
201.833	7.27
202.22	-9.84
202.607	8.92
202.994	31.58
203.38	50.23
203.767	-34.5
204.154	3.7
204.54	-15.89
204.927	27.06
205.313	22.22
205.699	-16.87
206.086	49.02
206.472	7.63
206.858	-0.35
207.245	-5.33
207.631	30.78
208.017	-1.68
208.403	-17.47
208.789	13.33
209.175	-40.14
209.561	-2.53
209.947	7.48
210.333	-19.81
210.719	9.75
211.105	29.17
211.491	23.42
211.876	19.47
212.262	-11.68
212.648	44.33
213.034	-23.05
213.419	6.62
213.805	25.42
214.19	-5.02
214.576	5.37
214.961	15.48
215.346	-8.43
215.732	23.76
216.117	-30.49
216.502	10.05
216.888	-27.5
217.273	18
217.658	49.62
218.043	-6.19
218.428	4.09
218.813	-21.31
219.198	2.11
219.583	18.53
219.968	34.76
220.353	5.54
220.738	17.79
221.122	9.42
221.507	12.44
221.892	1.6
222.276	6.3
222.661	0.8
223.046	-14.33
223.43	4.76
223.815	20.05
224.199	15.66
224.583	3.37
224.968	8.1
225.352	9.45
225.736	16.11
226.121	4.57
226.505	9.1
226.889	10.19
227.273	9.51
227.657	10.02
228.041	6.77
228.425	7.53
228.809	4.59
229.193	6.28
229.577	7.95
229.961	4.62
230.344	6.54
230.728	4.6
231.112	4.41
231.495	5.94
231.879	5.04
232.263	5.77
232.646	3.46
233.03	6.28
233.413	8.94
233.797	4.47
234.18	4.36
234.563	6.3
234.946	7.36
235.33	3.5
235.713	1.78
236.096	4.98
236.479	5.11
236.862	6.03
237.245	6.33
237.628	6.02
238.011	6.81
238.394	6.51
238.777	4.93
239.16	4.29
239.543	4.23
239.925	5.86
240.308	3.96
240.691	2.86
241.073	3.25
241.456	4.43
241.838	3.49
242.221	5.98
242.603	5.83
242.986	6
243.368	5.21
243.75	4.44
244.133	4.66
244.515	5.08
244.897	5.6
245.279	5.38
245.661	4.43
246.043	5.27
246.425	5.07
246.807	5.88
247.189	4.02
247.571	5.4
247.953	5.02
248.335	4.98
248.717	4.63
249.098	4.54
249.48	4.75
249.862	4.96
250.243	4.66
250.625	5.46
251.006	5.19
251.388	5.33
251.769	5.1
252.151	5.37
252.532	3.95
252.913	5.5
253.295	3.64
253.676	4.88
254.057	5.18
254.438	4.47
254.819	4.23
255.2	5.16
255.581	4.63
255.962	4.7
256.343	5.74
256.724	3.46
257.105	4.31
257.486	5.38
257.867	5.13
258.247	5.15
258.628	5.87
259.009	4.54
259.389	4.07
259.77	4.81
260.15	3.61
260.531	4.22
260.911	4.77
261.292	4.7
261.672	4.47
262.052	4.6
262.432	4.58
262.813	4.81
263.193	4.97
263.573	4.64
263.953	5.23
264.333	4.62
264.713	4.11
265.093	4.49
265.473	4.13
265.853	4.01
266.233	4.39
266.612	5.49
266.992	4.54
267.372	4.47
267.752	4.56
268.131	4.23
268.511	4.57
268.89	4.83
269.27	4.42
269.649	4.4
270.029	4.77
270.408	4.25
270.787	4.65
271.167	4.41
271.546	4.37
271.925	4.66
272.304	4.95
272.683	4.55
273.062	4.19
273.441	4.31
273.82	4.08
274.199	3.89
274.578	4.22
274.957	4.29
275.336	4.27
275.715	4.6
276.093	4.29
276.472	4.52
276.851	4.52
277.229	4.12
277.608	4.51
277.986	4.26
278.365	5
278.743	4.21
279.122	4.42
279.5	3.77
279.878	4.19
280.257	4.31
280.635	4.49
281.013	4.38
281.391	4.31
281.769	4.04
282.147	4.55
282.525	4.49
282.903	4.28
283.281	4.23
283.659	5.08
284.037	4.94
284.415	4.23
284.792	4.45
285.17	4.12
285.548	3.95
285.925	4.9
286.303	4.43
286.68	4.57
287.058	4.54
287.435	4.43
287.813	4.46
288.19	4.54
288.567	4.28
288.945	4.52
289.322	4.33
289.699	4.65
290.076	4.44
290.453	4.29
290.83	3.98
291.207	3.9
291.584	4.25
291.961	4.38
292.338	4.43
292.715	3.98
293.092	4.54
293.469	4.32
293.845	4.15
294.222	4.24
294.599	4.15
294.975	4.33
295.352	3.83
295.728	4.49
296.105	4.42
296.481	4.61
296.858	4.43
297.234	4.73
297.61	4.39
297.986	4.15
298.363	4.41
298.739	4.24
299.115	4.23
299.491	4.12
299.867	4.49
300.243	4.48
300.619	4.3
300.995	4.62
301.371	3.95
301.746	4.68
302.122	4.18
302.498	4.44
302.874	5.1
303.249	4.23
303.625	4.34
304	4.52
304.376	4.53
304.751	4.22
305.127	4.23
305.502	4.05
305.878	3.89
306.253	4.26
306.628	4.39
307.003	4.46
307.378	5.04
307.754	4.62
308.129	3.62
308.504	5.33
308.879	4.18
309.254	4.54
309.629	4.01
310.003	4.26
310.378	3.93
310.753	4.17
311.128	4.14
311.502	4.53
311.877	3.94
312.252	4.43
312.626	4.36
313.001	4.56
313.375	4.28
313.75	4.29
314.124	4.09
314.498	4.33
314.873	4.69
315.247	4.61
315.621	3.8
315.995	5.08
316.369	4.79
316.743	4.23
317.117	4.26
317.491	3.64
317.865	4.12
318.239	4
318.613	4.25
318.987	4.51
319.361	4.52
319.734	4.05
320.108	4.28
320.482	4.73
320.855	4.37
321.229	4.39
321.602	4.79
321.976	4.22
322.349	4.5
322.723	3.44
323.096	4.64
323.469	3.26
323.843	4.04
324.216	4.56
324.589	4.13
324.962	4.58
325.335	4.39
325.708	4.11
326.081	4.26
326.454	4.78
326.827	4.2
327.2	4.06
327.573	4.39
327.945	4.53
328.318	4.58
328.691	4.24
329.063	3.72
329.436	3.8
329.809	4.67
330.181	4.22
330.553	3.74
330.926	3.81
331.298	4.81
331.671	4.15
332.043	4.29
332.415	4.67
332.787	4.37
333.159	4.03
333.532	4.58
333.904	4.6
334.276	3.93
334.648	4.47
335.02	4.42
335.391	4.02
335.763	3.97
336.135	4.51
336.507	3.83
336.879	3.73
337.25	4.62
337.622	4.41
337.993	4.03
338.365	4.07
338.736	4.54
339.108	3.39
339.479	3.74
339.851	4.24
340.222	4.4
340.593	4.21
340.964	4.1
341.336	4.02
341.707	4.37
342.078	3.86
342.449	4.2
342.82	4.27
343.191	4.59
343.562	3.99
343.933	3.82
344.303	3.89
344.674	4.29
345.045	4.45
345.416	4.28
345.786	4.32
346.157	4.27
346.527	3.96
346.898	3.95
347.268	3.98
347.639	3.74
348.009	3.81
348.38	4.32
348.75	4.11
349.12	4.45
349.49	4.13
349.861	3.98
350.231	3.86
350.601	4.36
350.971	4.47
351.341	4.32
351.711	4.38
352.081	3.91
352.45	4.08
352.82	4.56
353.19	4.79
353.56	4.26
353.929	4.29
354.299	3.91
354.669	4.24
355.038	4.26
355.408	3.97
355.777	3.87
356.147	3.84
356.516	4.5
356.885	4.31
357.254	4.29
357.624	4.15
357.993	4.39
358.362	3.78
358.731	4.19
359.1	4.21
359.469	4.53
359.838	4.07
360.207	4.2
360.576	4.46
360.945	4.29
361.314	4.27
361.682	4.04
362.051	4.5
362.42	4.08
362.788	4.16
363.157	4.09
363.525	4.15
363.894	4.28
364.262	4.19
364.631	4.19
364.999	4.16
365.367	4.25
365.735	4.09
366.104	4.07
366.472	4.23
366.84	4.13
367.208	4.13
367.576	4.05
367.944	4.38
368.312	4.52
368.68	4.3
369.048	4.24
369.416	4.26
369.783	3.99
370.151	4.56
370.519	4.22
370.886	3.7
371.254	4.05
371.621	4.1
371.989	4.3
372.356	4.11
372.724	4.71
373.091	4.25
373.458	3.88
373.826	4.62
374.193	4.21
374.56	4.24
374.927	4.07
375.294	4.38
375.661	4.37
376.028	3.81
376.395	3.97
376.762	4.63
377.129	4.04
377.496	4.22
377.863	4.54
378.229	4.12
378.596	4.37
378.963	4.49
379.329	4.6
379.696	4.22
380.062	4.24
380.429	4.22
380.795	4.36
381.161	4.25
381.528	4.55
381.894	4.28
382.26	4.41
382.626	4.39
382.993	4.31
383.359	4.38
383.725	4.55
384.091	4.4
384.457	4.19
384.823	4.45
385.188	4.15
385.554	4.16
385.92	3.99
386.286	4.38
386.651	4.26
387.017	4.62
387.383	4.34
387.748	4.15
388.114	4.22
388.479	4.24
388.845	4.35
389.21	4.22
389.575	4.32
389.94	4.31
390.306	4.27
390.671	4.31
391.036	4.16
391.401	4.58
391.766	4.48
392.131	4.58
392.496	4.29
392.861	4.25
393.226	4.46
393.591	4.36
393.956	4.27
394.32	4.22
394.685	4.49
395.05	4.36
395.414	4.41
395.779	4.58
396.143	4.36
396.508	4.11
396.872	4.5
397.236	4.12
397.601	4.23
397.965	4.38
398.329	4.44
398.694	4.38
399.058	4.38
399.422	4.58
399.786	4.59
400.15	4.4
400.514	4.44
400.878	4.2
401.242	4.46
401.605	4.29
401.969	4.19
402.333	4.4
402.697	4.46
403.06	4.42
403.424	4.78
403.787	4.44
404.151	4.44
404.514	4.57
404.878	4.36
405.241	4.49
405.604	4.43
405.968	4.16
406.331	4.57
406.694	4.44
407.057	4.27
407.42	4.29
407.783	4.31
408.146	4.28
408.509	4.63
408.872	4.47
409.235	4.5
409.598	4.39
409.961	4.51
410.323	4.67
410.686	4.49
411.049	4.64
411.411	4.48
411.774	4.43
412.136	4.46
412.499	4.53
412.861	4.53
413.223	4.51
413.586	4.05
413.948	4.45
414.31	4.45
414.672	4.28
415.035	4.7
415.397	4.51
415.759	4.72
416.121	4.55
416.483	4.27
416.845	4.55
417.206	4.63
417.568	4.52
417.93	4.39
418.292	4.47
418.653	4.44
419.015	4.56
419.377	4.23
419.738	4.57
420.1	4.46
420.461	4.44
420.822	4.41
421.184	4.35
421.545	4.44
421.906	4.46
422.267	4.47
422.629	4.34
422.99	4.28
423.351	4.45
423.712	4.31
424.073	4.39
424.434	4.45
424.795	4.52
425.155	4.35
425.516	4.41
425.877	4.36
426.238	4.3
426.598	4.31
426.959	4.43
427.32	4.3
427.68	4.51
428.041	4.3
428.401	4.5
428.761	4.37
429.122	4.49
429.482	4.61
429.842	4.63
430.202	4.48
430.563	4.45
430.923	4.74
431.283	4.54
431.643	4.44
432.003	4.52
432.363	4.53
432.722	4.48
433.082	4.45
433.442	4.49
433.802	4.76
434.161	4.6
434.521	4.46
434.881	4.23
435.24	4.48
435.6	4.5
435.959	4.62
436.319	4.65
436.678	4.53
437.037	4.65
437.396	4.6
437.756	4.54
438.115	4.66
438.474	4.67
438.833	4.57
439.192	4.58
439.551	4.55
439.91	4.63
440.269	4.59
440.628	4.47
440.987	4.59
441.345	4.47
441.704	4.52
442.063	4.54
442.421	4.45
442.78	4.55
443.138	4.51
443.497	4.46
443.855	4.64
444.214	4.59
444.572	4.58
444.93	4.67
445.288	4.48
445.647	4.83
446.005	4.69
446.363	4.53
446.721	4.68
447.079	4.59
447.437	4.45
447.795	4.47
448.153	4.56
448.51	4.44
448.868	4.58
449.226	4.55
449.584	4.5
449.941	4.6
450.299	4.6
450.656	4.66
451.014	4.63
451.371	4.56
451.729	4.51
452.086	4.67
452.443	4.89
452.801	4.64
453.158	4.58
453.515	4.65
453.872	4.6
454.229	4.85
454.586	4.68
454.943	4.74
455.3	4.68
455.657	4.77
456.014	4.69
456.371	4.67
456.727	4.87
457.084	4.56
457.441	4.74
457.797	4.6
458.154	4.76
458.51	4.92
458.867	4.74
459.223	4.71
459.58	4.71
459.936	4.83
460.292	4.65
460.648	4.71
461.005	4.66
461.361	4.64
461.717	4.58
462.073	4.56
462.429	4.51
462.785	4.63
463.141	4.61
463.496	4.82
463.852	4.76
464.208	4.69
464.564	4.82
464.919	4.89
465.275	5.05
465.631	4.88
465.986	4.84
466.342	4.82
466.697	4.82
467.052	4.77
467.408	4.77
467.763	4.82
468.118	4.83
468.473	4.75
468.829	4.83
469.184	4.68
469.539	4.79
469.894	4.79
470.249	4.56
470.603	4.86
470.958	4.69
471.313	4.81
471.668	4.78
472.023	4.85
472.377	4.77
472.732	4.92
473.086	4.94
473.441	4.93
473.795	4.74
474.15	4.94
474.504	4.95
474.859	4.8
475.213	4.89
475.567	4.84
475.921	5.02
476.275	4.9
476.63	5.09
476.984	4.93
477.338	5.03
477.692	4.92
478.045	4.89
478.399	4.83
478.753	4.84
479.107	4.83
479.461	4.97
479.814	4.86
480.168	4.96
480.521	4.98
480.875	4.95
481.228	4.96
481.582	4.97
481.935	5
482.289	4.87
482.642	5
482.995	4.98
483.348	4.97
483.701	4.9
484.055	4.9
484.408	4.8
484.761	4.84
485.114	4.73
485.466	4.64
485.819	4.52
486.172	4.47
486.525	4.53
486.878	4.62
487.23	4.7
487.583	4.84
487.936	4.92
488.288	4.87
488.641	4.81
488.993	4.78
489.345	4.72
489.698	4.71
490.05	4.63
490.402	4.68
490.754	4.78
491.107	4.78
491.459	4.89
491.811	4.9
492.163	5.01
492.515	4.97
492.866	4.99
493.218	4.84
493.57	4.75
493.922	4.62
494.274	4.74
494.625	4.78
494.977	4.94
495.328	4.98
495.68	5.12
496.031	5.03
496.383	5
496.734	5.11
497.086	5.24
497.437	5.24
497.788	5.1
498.139	5.1
498.49	4.99
498.842	4.99
499.193	4.95
499.544	5.07
499.894	5
500.245	5.05
500.596	5.06
500.947	5.1
501.298	5.17
501.648	5.02
501.999	5.26
502.35	5.12
502.7	5.23
503.051	5.22
503.401	5.13
503.752	5.19
504.102	5.11
504.452	5.26
504.803	5.29
505.153	5.14
505.503	5.14
505.853	5.19
506.203	5.26
506.553	5.12
506.903	5.35
507.253	5.31
507.603	5.11
507.953	5.19
508.303	5.36
508.652	5.26
509.002	5.26
509.352	5.1
509.701	5.16
510.051	5.26
510.4	5.14
510.75	5.22
511.099	5.23
511.449	5.21
511.798	5.29
512.147	5.26
512.496	5.32
512.846	5.19
513.195	5.27
513.544	5.32
513.893	5.2
514.242	5.27
514.591	5.26
514.939	5.2
515.288	5.31
515.637	5.32
515.986	5.39
516.334	5.47
516.683	5.43
517.032	5.37
517.38	5.55
517.729	5.42
518.077	5.53
518.426	5.46
518.774	5.43
519.122	5.51
519.47	5.41
519.819	5.27
520.167	5.35
520.515	5.37
520.863	5.19
521.211	5.27
521.559	5.4
521.907	5.41
522.255	5.28
522.602	5.46
522.95	5.6
523.298	5.46
523.645	5.57
523.993	5.49
524.341	5.63
524.688	5.68
525.036	5.59
525.383	5.74
525.73	5.56
526.078	5.58
526.425	5.73
526.772	5.58
527.119	5.56
527.466	5.44
527.814	5.32
528.161	5.38
528.508	5.44
528.854	5.52
529.201	5.53
529.548	5.54
529.895	5.52
530.242	5.42
530.588	5.24
530.935	5.21
531.282	5.27
531.628	5.31
531.975	5.48
532.321	5.55
532.667	5.6
533.014	5.72
533.36	5.76
533.706	5.63
534.052	5.76
534.399	5.67
534.745	5.7
535.091	5.55
535.437	5.52
535.783	5.5
536.129	5.61
536.474	5.62
536.82	5.72
537.166	5.83
537.512	5.84
537.857	5.93
538.203	5.73
538.549	5.66
538.894	5.69
539.239	5.73
539.585	5.89
539.93	5.85
540.276	5.94
540.621	5.97
540.966	5.91
541.311	6.11
541.656	5.97
542.001	6.04
542.346	5.96
542.691	5.93
543.036	5.78
543.381	5.7
543.726	5.67
544.071	5.82
544.415	5.83
544.76	5.95
545.105	5.96
545.449	5.94
545.794	6.07
546.138	6.06
546.483	6.13
546.827	6.11
547.171	6.09
547.516	6.17
547.86	6.22
548.204	6.25
548.548	6.19
548.892	6.1
549.236	6.13
549.58	6.11
549.924	6.17
550.268	6.49
550.612	6.27
550.956	6.41
551.3	6.3
551.643	6.66
551.987	6.37
552.33	6.47
552.674	6.59
553.017	6.42
553.361	6.55
553.704	6.48
554.048	6.71
554.391	6.36
554.734	6.5
555.077	6.45
555.42	6.56
555.764	6.68
556.107	6.56
556.45	6.57
556.793	6.68
557.135	6.84
557.478	6.7
557.821	6.68
558.164	6.7
558.507	6.79
558.849	6.91
559.192	6.72
559.534	6.72
559.877	6.93
560.219	7
560.562	6.85
560.904	7.1
561.246	6.84
561.589	6.92
561.931	6.93
562.273	6.96
562.615	7.03
562.957	7.14
563.299	7.17
563.641	6.85
563.983	6.91
564.325	6.93
564.667	6.99
565.008	6.96
565.35	7.14
565.692	7.32
566.033	7.01
566.375	7.05
566.716	7.08
567.058	7.22
567.399	7.08
567.741	7.2
568.082	7.13
568.423	7.22
568.764	7.12
569.105	7.27
569.447	7.11
569.788	7.23
570.129	7.19
570.47	7.39
570.811	7.42
571.151	7.37
571.492	7.37
571.833	7.41
572.174	7.43
572.514	7.54
572.855	7.37
573.195	7.63
573.536	7.56
573.876	7.44
574.217	7.53
574.557	7.49
574.898	7.63
575.238	7.6
575.578	7.51
575.918	7.71
576.258	7.69
576.598	7.62
576.938	7.63
577.278	7.75
577.618	7.66
577.958	7.85
578.298	7.89
578.638	7.77
578.977	7.99
579.317	7.81
579.657	7.82
579.996	7.99
580.336	7.98
580.675	8.12
581.014	8.2
581.354	8.09
581.693	8.13
582.032	8.19
582.372	8.32
582.711	8.48
583.05	8
583.389	8.49
583.728	8.49
584.067	8.59
584.406	8.16
584.745	8.25
585.083	8.39
585.422	8.42
585.761	8.52
586.1	8.28
586.438	8.21
586.777	8.43
587.115	8.57
587.454	8.55
587.792	8.81
588.13	8.83
588.469	8.7
588.807	8.44
589.145	8.74
589.483	8.63
589.821	8.74
590.159	9
590.497	8.69
590.835	8.81
591.173	8.58
591.511	8.78
591.849	8.89
592.187	8.87
592.524	9.01
592.862	9.07
593.2	8.78
593.537	8.94
593.875	9.4
594.212	9.03
594.55	9.01
594.887	8.93
595.224	9.24
595.561	9.03
595.899	9.1
596.236	9.42
596.573	9.63
596.91	9.25
597.247	9.23
597.584	9.37
597.921	9.27
598.258	9.41
598.594	9.29
598.931	9.05
599.268	9.21
599.604	9.36
599.941	9.41
600.277	9.38
600.614	9.67
600.95	9.51
601.287	9.54
601.623	9.72
601.959	9.81
602.296	9.94
602.632	9.7
602.968	9.77
603.304	9.76
603.64	10
603.976	9.9
604.312	9.94
604.648	9.78
604.984	10.14
605.319	9.87
605.655	9.98
605.991	10.12
606.326	9.88
606.662	9.87
606.998	9.95
607.333	10.04
607.668	9.87
608.004	10.11
608.339	10.16
608.674	10.28
609.01	10.36
609.345	10.44
609.68	10.38
610.015	10.5
610.35	10.63
610.685	10.54
611.02	10.36
611.355	10.47
611.689	10.32
612.024	10.56
612.359	10.5
612.694	10.69
613.028	10.5
613.363	10.51
613.697	10.46
614.032	10.65
614.366	10.62
614.7	11.14
615.035	10.59
615.369	10.77
615.703	11.12
616.037	10.9
616.371	10.65
616.705	11.18
617.039	10.91
617.373	10.99
617.707	11.13
618.041	11.16
618.375	11.03
618.709	11.39
619.042	11.4
619.376	11.3
619.71	11.1
620.043	11.49
620.377	11.63
620.71	11.49
621.043	11.52
621.377	12.01
621.71	11.66
622.043	11.59
622.376	11.54
622.709	11.92
623.043	11.71
623.376	11.9
623.709	12.25
624.041	11.6
624.374	11.82
624.707	11.7
625.04	11.83
625.373	12.26
625.705	12.07
626.038	11.74
626.37	12.11
626.703	12.36
627.035	12.16
627.368	12.05
627.7	12.39
628.032	12.39
628.365	12.04
628.697	12.17
629.029	12.24
629.361	12.34
629.693	12.15
630.025	12.5
630.357	12.23
630.689	12.71
631.021	12.55
631.353	12.57
631.684	12.72
632.016	12.46
632.348	12.64
632.679	12.5
633.011	12.5
633.342	12.78
633.674	12.93
634.005	12.76
634.336	12.78
634.668	12.61
634.999	12.93
635.33	13.04
635.661	13.38
635.992	12.8
636.323	13.06
636.654	12.94
636.985	12.97
637.316	13.06
637.647	13.27
637.977	13.38
638.308	13.45
638.639	13.18
638.969	13.5
639.3	12.96
639.63	13.19
639.961	13.66
640.291	13.46
640.622	13.47
640.952	13.53
641.282	13.52
641.612	13.89
641.943	13.89
642.273	14.32
642.603	13.36
642.933	13.82
643.263	13.95
643.592	13.71
643.922	13.97
644.252	14.21
644.582	13.86
644.911	14.16
645.241	14.16
645.571	13.89
645.9	14.12
646.23	14.35
646.559	13.93
646.888	14.74
647.218	13.94
647.547	14.17
647.876	14.6
648.205	14.74
648.534	14.72
648.863	14.03
649.192	14.55
649.521	14.5
649.85	14.39
650.179	14.29
650.508	14.41
650.837	14.39
651.165	14.74
651.494	14.53
651.822	14.69
652.151	15.19
652.479	15.55
652.808	14.8
653.136	14.98
653.465	14.92
653.793	15.76
654.121	15.42
654.449	15.12
654.777	14.84
655.105	14.81
655.433	14.85
655.761	14.84
656.089	15.57
656.417	15.17
656.745	15.49
657.073	14.91
657.4	15.23
657.728	15.48
658.056	15.64
658.383	15.66
658.711	15.73
659.038	15.61
659.365	15.47
659.693	15.74
660.02	15.74
660.347	16.07
660.674	16.02
661.001	15.63
661.329	15.4
661.656	15.84
661.982	15.36
662.309	16.17
662.636	16.25
662.963	16.38
663.29	16.23
663.616	15.82
663.943	16.41
664.27	16.15
664.596	16.71
664.923	16.66
665.249	16.18
665.576	16.32
665.902	15.89
666.228	15.65
666.554	16.5
666.881	16.65
667.207	16.43
667.533	16
667.859	15.82
668.185	16.79
668.511	17.18
668.837	15.98
669.162	17.06
669.488	16.6
669.814	16.14
670.139	16.78
670.465	16.89
670.791	17.33
671.116	17.33
671.442	16.59
671.767	16.15
672.092	16.93
672.418	17.07
672.743	17.82
673.068	17.73
673.393	17.09
673.718	16.98
674.043	17.33
674.368	17.35
674.693	17.71
675.018	17.65
675.343	17.26
675.667	17.12
675.992	17.59
676.317	17.05
676.641	17.92
676.966	16.91
677.29	17.68
677.615	18.4
677.939	17.88
678.264	17.54
678.588	17.55
678.912	18.19
679.236	17.99
679.56	17.27
679.885	18.61
680.209	18.09
680.532	18.67
680.856	17.96
681.18	18.19
681.504	18.01
681.828	18.27
682.152	18.47
682.475	18.59
682.799	18.24
683.122	18.1
683.446	18.77
683.769	18.51
684.093	18.55
684.416	18.82
684.739	18.42
685.062	18.9
685.386	18.36
685.709	19.5
686.032	18.33
686.355	18.47
686.678	18.92
