Data from 0087_chest_Reflection__2__028.txt Node

Date: Mon Aug 28 18:51:09 CDT 2023
User: ToomeyLab
Spectrometer: FLMS14357
Trigger mode: 0
Integration Time (sec): 1.000000E-2
Scans to average: 100
Electric dark correction enabled: true
Nonlinearity correction enabled: false
Boxcar width: 0
XAxis mode: Wavelengths
Number of Pixels in Spectrum: 2048
>>>>>Begin Spectral Data<<<<<
189.047	31.26
189.435	31.26
189.823	31.26
190.211	4974.42
190.599	470.88
190.987	588.49
191.375	-17.99
191.763	62.13
192.151	-62.94
192.538	233.72
192.926	58.11
193.314	-22.8
193.702	-46.99
194.089	146.86
194.477	476.47
194.864	-181.26
195.252	9.48
195.639	141.03
196.027	121
196.414	429.8
196.801	171.62
197.189	0.34
197.576	-577.79
197.963	92.45
198.351	21.32
198.738	72.12
199.125	43.95
199.512	-76.7
199.899	-37.57
200.286	38.56
200.673	45.65
201.06	-18.61
201.447	87.89
201.833	-55.79
202.22	-2.15
202.607	18.91
202.994	2.91
203.38	34.48
203.767	59.66
204.154	42.48
204.54	-25.7
204.927	0.2
205.313	25.63
205.699	11.94
206.086	9.1
206.472	31.91
206.858	9.62
207.245	1.87
207.631	13.89
208.017	5.1
208.403	27.44
208.789	-19.39
209.175	-8.31
209.561	19.53
209.947	20.93
210.333	-11.93
210.719	32.04
211.105	35.3
211.491	3.49
211.876	49.23
212.262	68.24
212.648	27.96
213.034	-11.19
213.419	-7.46
213.805	21.42
214.19	-4.29
214.576	25.48
214.961	23.75
215.346	0.55
215.732	24.42
216.117	11.13
216.502	6.43
216.888	-24.31
217.273	-3.82
217.658	12.46
218.043	16.2
218.428	9.33
218.813	5.36
219.198	19.01
219.583	15.55
219.968	-3.09
220.353	1.87
220.738	23.41
221.122	22.19
221.507	-5.67
221.892	13.71
222.276	11.02
222.661	-3.58
223.046	7.7
223.43	12.37
223.815	4.98
224.199	14.72
224.583	6.18
224.968	8.51
225.352	10.03
225.736	10.53
226.121	6.75
226.505	8.82
226.889	10.38
227.273	9.42
227.657	0.17
228.041	2.61
228.425	4.51
228.809	1.08
229.193	-0.02
229.577	7.48
229.961	2.46
230.344	4.24
230.728	4.07
231.112	2.99
231.495	3.93
231.879	3.46
232.263	4.39
232.646	3.85
233.03	6.4
233.413	6.79
233.797	4.24
234.18	2.62
234.563	2.23
234.946	6.13
235.33	4.06
235.713	2.33
236.096	5.36
236.479	4.96
236.862	4.34
237.245	2.96
237.628	4.64
238.011	6.51
238.394	5.28
238.777	6.63
239.16	4.52
239.543	2.69
239.925	5.44
240.308	3.5
240.691	2.86
241.073	4.05
241.456	4.71
241.838	3.05
242.221	5.11
242.603	4.7
242.986	5.83
243.368	4.49
243.75	3.96
244.133	4.08
244.515	3.94
244.897	4.65
245.279	4.87
245.661	4.03
246.043	3.96
246.425	4.22
246.807	5.49
247.189	3.63
247.571	4.72
247.953	4.11
248.335	4.11
248.717	4.03
249.098	4.24
249.48	4.26
249.862	4.32
250.243	4.13
250.625	4.96
251.006	3.97
251.388	4.74
251.769	5.07
252.151	4.4
252.532	4.35
252.913	5.28
253.295	3.4
253.676	4.02
254.057	4.37
254.438	3.89
254.819	4.12
255.2	4.16
255.581	4.59
255.962	5.12
256.343	5.52
256.724	3.56
257.105	3.94
257.486	5.06
257.867	4.04
258.247	4.18
258.628	5.77
259.009	4.17
259.389	3.02
259.77	3.95
260.15	3.6
260.531	4.46
260.911	4.15
261.292	4.15
261.672	4.02
262.052	4.06
262.432	4
262.813	4.04
263.193	3.93
263.573	4.06
263.953	4.27
264.333	4.22
264.713	3.28
265.093	4.39
265.473	4.27
265.853	4.25
266.233	3.86
266.612	3.83
266.992	3.96
267.372	3.79
267.752	4.26
268.131	3.74
268.511	3.62
268.89	4.31
269.27	3.7
269.649	3.95
270.029	4.14
270.408	4.52
270.787	4.35
271.167	4.34
271.546	3.82
271.925	4.1
272.304	4
272.683	4.39
273.062	3.76
273.441	4.22
273.82	3.51
274.199	3.94
274.578	3.56
274.957	4.27
275.336	4.09
275.715	4.17
276.093	3.37
276.472	3.71
276.851	4.17
277.229	3.82
277.608	3.81
277.986	3.95
278.365	3.95
278.743	3.57
279.122	3.83
279.5	2.97
279.878	3.44
280.257	4.2
280.635	3.9
281.013	4.33
281.391	3.56
281.769	3.5
282.147	3.92
282.525	4.24
282.903	3.89
283.281	4.08
283.659	4.15
284.037	4.27
284.415	3.91
284.792	3.98
285.17	3.91
285.548	3.84
285.925	4.19
286.303	3.46
286.68	4.17
287.058	3.98
287.435	3.5
287.813	3.83
288.19	4.28
288.567	4.01
288.945	3.75
289.322	3.81
289.699	4.1
290.076	4.36
290.453	4.36
290.83	3.75
291.207	3.97
291.584	3.94
291.961	4.3
292.338	3.96
292.715	3.98
293.092	3.87
293.469	4.13
293.845	3.4
294.222	3.86
294.599	3.89
294.975	4.27
295.352	3.66
295.728	4.17
296.105	4.24
296.481	4.3
296.858	4.31
297.234	4.22
297.61	4.2
297.986	3.74
298.363	4.58
298.739	4.21
299.115	3.91
299.491	4.52
299.867	4.2
300.243	4.13
300.619	4.31
300.995	4.46
301.371	3.83
301.746	4.64
302.122	4.23
302.498	4.1
302.874	4.37
303.249	4.47
303.625	4.53
304	4.19
304.376	4.44
304.751	3.89
305.127	4.4
305.502	4.3
305.878	3.97
306.253	4.06
306.628	4.45
307.003	5.04
307.378	4.61
307.754	4.76
308.129	4.14
308.504	4.79
308.879	4.45
309.254	4.46
309.629	4.42
310.003	4.33
310.378	4.03
310.753	4.74
311.128	5.01
311.502	4.8
311.877	4.25
312.252	5.09
312.626	4.55
313.001	4.47
313.375	4.73
313.75	4.75
314.124	4.45
314.498	5.06
314.873	4.78
315.247	5.02
315.621	4.84
315.995	5.6
316.369	4.79
316.743	4.22
317.117	4.83
317.491	4.14
317.865	3.66
318.239	4.43
318.613	4.46
318.987	4.27
319.361	4.58
319.734	4.84
320.108	4.79
320.482	4.87
320.855	4.54
321.229	4.45
321.602	4.7
321.976	3.94
322.349	4.51
322.723	4.33
323.096	5.16
323.469	4.65
323.843	3.98
324.216	4.76
324.589	5.2
324.962	4.96
325.335	4.87
325.708	4.18
326.081	4.48
326.454	5.04
326.827	4.75
327.2	4.28
327.573	4.59
327.945	5.16
328.318	5.43
328.691	4.48
329.063	4.66
329.436	4.34
329.809	4.67
330.181	4.38
330.553	4.9
330.926	4.76
331.298	4.52
331.671	4.98
332.043	4.76
332.415	5.18
332.787	4.43
333.159	4.9
333.532	5.04
333.904	5
334.276	4.4
334.648	5.07
335.02	4.73
335.391	5.09
335.763	4.93
336.135	5.25
336.507	4.43
336.879	4.35
337.25	5.04
337.622	4.74
337.993	4.74
338.365	4.99
338.736	4.86
339.108	4.54
339.479	4.49
339.851	4.84
340.222	4.96
340.593	4.73
340.964	5.28
341.336	4.76
341.707	4.78
342.078	4.31
342.449	4.85
342.82	4.36
343.191	4.86
343.562	4.53
343.933	4.42
344.303	4.67
344.674	4.89
345.045	4.5
345.416	5.45
345.786	4.55
346.157	4.91
346.527	4.41
346.898	4.51
347.268	4.43
347.639	4.6
348.009	4.7
348.38	4.76
348.75	4.97
349.12	5.06
349.49	4.68
349.861	4.46
350.231	4.28
350.601	5.24
350.971	5.28
351.341	4.36
351.711	4.72
352.081	4.99
352.45	4.86
352.82	5.21
353.19	5.21
353.56	5.03
353.929	4.87
354.299	4.4
354.669	4.73
355.038	5.13
355.408	4.92
355.777	4.98
356.147	4.99
356.516	5.37
356.885	4.93
357.254	4.55
357.624	4.58
357.993	5.01
358.362	4.33
358.731	4.72
359.1	5.07
359.469	5.18
359.838	4.83
360.207	4.96
360.576	5.11
360.945	4.68
361.314	4.59
361.682	4.76
362.051	4.9
362.42	4.62
362.788	4.67
363.157	4.91
363.525	4.84
363.894	4.99
364.262	4.89
364.631	4.73
364.999	4.63
365.367	5.16
365.735	4.7
366.104	4.68
366.472	4.81
366.84	4.81
367.208	4.85
367.576	4.59
367.944	5.05
368.312	5.58
368.68	4.86
369.048	4.94
369.416	5.17
369.783	4.93
370.151	5.07
370.519	5.26
370.886	4.83
371.254	4.97
371.621	4.46
371.989	4.97
372.356	4.92
372.724	5.24
373.091	5.21
373.458	4.76
373.826	4.89
374.193	5.13
374.56	4.86
374.927	4.99
375.294	4.88
375.661	4.93
376.028	4.57
376.395	4.75
376.762	5.07
377.129	5.11
377.496	4.93
377.863	5.16
378.229	4.87
378.596	5.18
378.963	5.26
379.329	5.07
379.696	4.93
380.062	4.76
380.429	4.79
380.795	5.02
381.161	5.03
381.528	5.21
381.894	4.76
382.26	5.11
382.626	5.08
382.993	5.15
383.359	4.98
383.725	5.36
384.091	5.13
384.457	4.79
384.823	5.02
385.188	4.9
385.554	5.03
385.92	4.96
386.286	5.03
386.651	4.93
387.017	5.16
387.383	4.85
387.748	4.94
388.114	4.79
388.479	4.81
388.845	5.05
389.21	4.81
389.575	5.3
389.94	4.89
390.306	5.19
390.671	5.11
391.036	4.64
391.401	5.42
391.766	5.24
392.131	5.07
392.496	4.99
392.861	5
393.226	5.23
393.591	4.82
393.956	5.14
394.32	4.95
394.685	5.15
395.05	5.04
395.414	5.29
395.779	4.95
396.143	5.07
396.508	4.93
396.872	5.16
397.236	4.93
397.601	5.2
397.965	5.03
398.329	5.3
398.694	5.15
399.058	5.07
399.422	5.15
399.786	5.26
400.15	5.28
400.514	5.28
400.878	4.97
401.242	5.01
401.605	5.09
401.969	5
402.333	5.27
402.697	5.12
403.06	5.3
403.424	5.54
403.787	4.98
404.151	4.84
404.514	5.29
404.878	4.98
405.241	5.33
405.604	5.08
405.968	5.09
406.331	5.26
406.694	5.04
407.057	5.29
407.42	5.14
407.783	5.2
408.146	5.11
408.509	5.44
408.872	5.07
409.235	5.28
409.598	5.16
409.961	5.21
410.323	5.43
410.686	5.23
411.049	5.42
411.411	5.31
411.774	5.34
412.136	5.24
412.499	5.13
412.861	5.03
413.223	5.28
413.586	5.07
413.948	4.93
414.31	5.29
414.672	5.25
415.035	5.1
415.397	5.08
415.759	5.19
416.121	5.45
416.483	5.31
416.845	5.45
417.206	5.55
417.568	5.49
417.93	5.11
418.292	5.3
418.653	5.15
419.015	5.18
419.377	5.17
419.738	5.42
420.1	5.31
420.461	5.25
420.822	5.32
421.184	5.24
421.545	5.26
421.906	5.24
422.267	5.25
422.629	5.21
422.99	5.18
423.351	5.28
423.712	5.12
424.073	5.25
424.434	5.29
424.795	5.2
425.155	5.14
425.516	5.13
425.877	5.13
426.238	5.02
426.598	5.14
426.959	5.16
427.32	5.21
427.68	5.29
428.041	5.24
428.401	5.38
428.761	5.3
429.122	5.36
429.482	5.31
429.842	5.49
430.202	5.31
430.563	5.42
430.923	5.52
431.283	5.22
431.643	5.18
432.003	5.37
432.363	5.44
432.722	5.48
433.082	5.46
433.442	5.54
433.802	5.49
434.161	5.51
434.521	5.47
434.881	5.36
435.24	5.46
435.6	5.42
435.959	5.41
436.319	5.4
436.678	5.47
437.037	5.35
437.396	5.53
437.756	5.45
438.115	5.49
438.474	5.68
438.833	5.35
439.192	5.6
439.551	5.36
439.91	5.43
440.269	5.57
440.628	5.47
440.987	5.32
441.345	5.26
441.704	5.3
442.063	5.38
442.421	5.29
442.78	5.43
443.138	5.36
443.497	5.41
443.855	5.47
444.214	5.43
444.572	5.46
444.93	5.61
445.288	5.36
445.647	5.61
446.005	5.61
446.363	5.49
446.721	5.63
447.079	5.45
447.437	5.39
447.795	5.37
448.153	5.5
448.51	5.43
448.868	5.51
449.226	5.37
449.584	5.4
449.941	5.48
450.299	5.41
450.656	5.61
451.014	5.53
451.371	5.43
451.729	5.6
452.086	5.57
452.443	5.74
452.801	5.59
453.158	5.76
453.515	5.71
453.872	5.55
454.229	5.7
454.586	5.82
454.943	5.62
455.3	5.53
455.657	5.66
456.014	5.67
456.371	5.55
456.727	5.68
457.084	5.56
457.441	5.76
457.797	5.72
458.154	5.68
458.51	5.79
458.867	5.69
459.223	5.78
459.58	5.69
459.936	5.66
460.292	5.68
460.648	5.66
461.005	5.5
461.361	5.66
461.717	5.66
462.073	5.59
462.429	5.53
462.785	5.56
463.141	5.7
463.496	5.76
463.852	5.73
464.208	5.85
464.564	5.79
464.919	5.81
465.275	5.89
465.631	5.8
465.986	5.96
466.342	5.82
466.697	5.71
467.052	5.8
467.408	5.87
467.763	5.61
468.118	5.78
468.473	5.83
468.829	5.84
469.184	5.84
469.539	5.79
469.894	5.76
470.249	5.73
470.603	5.86
470.958	5.89
471.313	5.76
471.668	5.83
472.023	6.04
472.377	6
472.732	5.94
473.086	5.82
473.441	6.06
473.795	5.86
474.15	5.94
474.504	5.83
474.859	5.86
475.213	6.01
475.567	5.79
475.921	6.05
476.275	6.04
476.63	6
476.984	5.97
477.338	5.94
477.692	5.93
478.045	6.06
478.399	5.93
478.753	5.77
479.107	5.85
479.461	5.99
479.814	6.07
480.168	6.07
480.521	5.97
480.875	5.92
481.228	5.94
481.582	5.79
481.935	5.93
482.289	5.99
482.642	6.05
482.995	6.2
483.348	6
483.701	5.95
484.055	5.85
484.408	5.92
484.761	5.97
485.114	5.91
485.466	5.78
485.819	5.68
486.172	5.63
486.525	5.63
486.878	5.72
487.23	5.73
487.583	5.82
487.936	5.92
488.288	5.91
488.641	6.02
488.993	5.96
489.345	5.86
489.698	5.89
490.05	5.85
490.402	5.82
490.754	5.93
491.107	5.87
491.459	5.95
491.811	5.93
492.163	6.11
492.515	6.17
492.866	6.15
493.218	6.1
493.57	5.94
493.922	5.86
494.274	5.94
494.625	5.92
494.977	6.08
495.328	6.11
495.68	6.19
496.031	6.31
496.383	6.29
496.734	6.3
497.086	6.32
497.437	6.33
497.788	6.35
498.139	6.38
498.49	6.16
498.842	6.24
499.193	6.22
499.544	6.29
499.894	6.27
500.245	6.21
500.596	6.31
500.947	6.33
501.298	6.41
501.648	6.21
501.999	6.34
502.35	6.28
502.7	6.41
503.051	6.51
503.401	6.41
503.752	6.47
504.102	6.55
504.452	6.52
504.803	6.5
505.153	6.34
505.503	6.41
505.853	6.48
506.203	6.52
506.553	6.47
506.903	6.59
507.253	6.56
507.603	6.54
507.953	6.61
508.303	6.64
508.652	6.69
509.002	6.74
509.352	6.54
509.701	6.61
510.051	6.57
510.4	6.43
510.75	6.47
511.099	6.59
511.449	6.51
511.798	6.55
512.147	6.56
512.496	6.66
512.846	6.65
513.195	6.59
513.544	6.73
513.893	6.68
514.242	6.73
514.591	6.69
514.939	6.58
515.288	6.71
515.637	6.72
515.986	6.71
516.334	6.82
516.683	6.72
517.032	6.67
517.38	6.87
517.729	6.81
518.077	6.94
518.426	6.83
518.774	6.89
519.122	7.01
519.47	6.74
519.819	6.8
520.167	6.8
520.515	6.76
520.863	6.63
521.211	6.71
521.559	6.81
521.907	6.8
522.255	6.73
522.602	6.89
522.95	6.94
523.298	6.98
523.645	7.03
523.993	6.98
524.341	7.09
524.688	7.04
525.036	7.15
525.383	7.1
525.73	7.09
526.078	7.18
526.425	7.12
526.772	7.08
527.119	7.02
527.466	6.99
527.814	6.94
528.161	6.91
528.508	6.99
528.854	6.95
529.201	7.17
529.548	7.03
529.895	7.04
530.242	6.97
530.588	6.76
530.935	6.79
531.282	6.81
531.628	6.83
531.975	6.89
532.321	7.02
532.667	6.97
533.014	7.14
533.36	7.14
533.706	7.21
534.052	7.16
534.399	7.28
534.745	7.22
535.091	7.22
535.437	7.08
535.783	7.03
536.129	7.13
536.474	7.15
536.82	7.19
537.166	7.34
537.512	7.37
537.857	7.54
538.203	7.44
538.549	7.35
538.894	7.31
539.239	7.24
539.585	7.4
539.93	7.35
540.276	7.54
540.621	7.58
540.966	7.51
541.311	7.62
541.656	7.7
542.001	7.65
542.346	7.68
542.691	7.64
543.036	7.52
543.381	7.37
543.726	7.36
544.071	7.42
544.415	7.41
544.76	7.52
545.105	7.6
545.449	7.52
545.794	7.69
546.138	7.69
546.483	7.68
546.827	7.7
547.171	7.81
547.516	7.83
547.86	7.82
548.204	7.82
548.548	7.88
548.892	7.73
549.236	7.71
549.58	7.83
549.924	7.95
550.268	7.94
550.612	7.91
550.956	8.11
551.3	8.1
551.643	8.24
551.987	8.07
552.33	8.16
552.674	8.18
553.017	8.26
553.361	8.31
553.704	8.14
554.048	8.37
554.391	8.2
554.734	8.35
555.077	8.16
555.42	8.1
555.764	8.29
556.107	8.33
556.45	8.22
556.793	8.13
557.135	8.47
557.478	8.39
557.821	8.38
558.164	8.64
558.507	8.61
558.849	8.65
559.192	8.5
559.534	8.45
559.877	8.67
560.219	8.75
560.562	8.56
560.904	8.69
561.246	8.55
561.589	8.63
561.931	8.77
562.273	8.44
562.615	8.76
562.957	8.81
563.299	8.83
563.641	8.71
563.983	8.94
564.325	8.66
564.667	8.72
565.008	8.82
565.35	9.02
565.692	8.88
566.033	8.93
566.375	8.73
566.716	8.92
567.058	8.87
567.399	8.85
567.741	8.91
568.082	9.06
568.423	8.83
568.764	8.89
569.105	9.08
569.447	9.14
569.788	9.09
570.129	8.99
570.47	9.19
570.811	9.17
571.151	9.01
571.492	9.04
571.833	8.9
572.174	9.32
572.514	9.22
572.855	9.1
573.195	9.3
573.536	9.4
573.876	9.13
574.217	9.34
574.557	9.31
574.898	9.46
575.238	9.38
575.578	9.35
575.918	9.68
576.258	9.43
576.598	9.42
576.938	9.44
577.278	9.39
577.618	9.48
577.958	9.52
578.298	9.82
578.638	9.57
578.977	9.71
579.317	9.58
579.657	9.57
579.996	9.77
580.336	9.76
580.675	9.77
581.014	10.04
581.354	9.96
581.693	9.8
582.032	9.98
582.372	9.86
582.711	10.05
583.05	9.82
583.389	10.13
583.728	10.07
584.067	10.25
584.406	9.94
584.745	9.78
585.083	10.16
585.422	10.16
585.761	10.39
586.1	10.32
586.438	10.13
586.777	10.44
587.115	10.29
587.454	10.52
587.792	10.28
588.13	10.55
588.469	10.42
588.807	10.28
589.145	10.37
589.483	10.49
589.821	10.24
590.159	10.76
590.497	10.45
590.835	10.39
591.173	10.36
591.511	10.71
591.849	10.5
592.187	10.49
592.524	10.67
592.862	10.49
593.2	10.64
593.537	10.8
593.875	11
594.212	10.86
594.55	10.99
594.887	10.83
595.224	10.8
595.561	10.69
595.899	10.86
596.236	10.86
596.573	11.23
596.91	10.88
597.247	11.21
597.584	10.99
597.921	10.91
598.258	10.98
598.594	11.07
598.931	10.99
599.268	10.96
599.604	10.96
599.941	11.08
600.277	11.13
600.614	11.22
600.95	11.12
601.287	11.31
601.623	11.42
601.959	11.19
602.296	11.27
602.632	11.35
602.968	11.65
603.304	11.15
603.64	11.33
603.976	11.78
604.312	11.61
604.648	11.54
604.984	11.67
605.319	11.79
605.655	11.74
605.991	11.68
606.326	11.69
606.662	11.63
606.998	11.6
607.333	11.55
607.668	11.62
608.004	11.49
608.339	11.61
608.674	11.66
609.01	11.82
609.345	12.14
609.68	11.67
610.015	12.08
610.35	12.1
610.685	12.18
611.02	12.01
611.355	12.15
611.689	11.82
612.024	11.89
612.359	12.26
612.694	12.13
613.028	11.98
613.363	11.96
613.697	12.1
614.032	12.44
614.366	12.19
614.7	12.42
615.035	12.34
615.369	12.53
615.703	12.41
616.037	12.49
616.371	12.23
616.705	12.36
617.039	12.48
617.373	12.64
617.707	12.41
618.041	12.81
618.375	12.5
618.709	12.89
619.042	12.57
619.376	12.77
619.71	13.24
620.043	12.95
620.377	13
620.71	12.76
621.043	12.95
621.377	12.95
621.71	12.96
622.043	12.65
622.376	13.09
622.709	13.04
623.043	12.88
623.376	13.17
623.709	13.17
624.041	13.33
624.374	13.07
624.707	12.73
625.04	12.82
625.373	13.42
625.705	13.71
626.038	13.17
626.37	13.15
626.703	13.66
627.035	13.71
627.368	13.72
627.7	13.73
628.032	13.54
628.365	13.41
628.697	13.48
629.029	13.55
629.361	13.6
629.693	13.4
630.025	13.7
630.357	13.51
630.689	13.75
631.021	13.87
631.353	13.62
631.684	13.57
632.016	13.65
632.348	13.81
632.679	13.77
633.011	13.93
633.342	13.49
633.674	13.93
634.005	13.65
634.336	13.57
634.668	14.06
634.999	14.42
635.33	14.15
635.661	14.07
635.992	13.67
636.323	14.08
636.654	14.06
636.985	14
637.316	14.13
637.647	14.59
637.977	13.94
638.308	14.42
638.639	14.15
638.969	14.97
639.3	14.42
639.63	14.54
639.961	14.75
640.291	14.35
640.622	14.42
640.952	14.53
641.282	14.78
641.612	14.91
641.943	14.38
642.273	14.95
642.603	14.6
642.933	14.43
643.263	15.06
643.592	14.68
643.922	14.81
644.252	14.97
644.582	14.87
644.911	15.06
645.241	15.17
645.571	15.24
645.9	15.38
646.23	14.8
646.559	15.16
646.888	15.75
647.218	15.08
647.547	15.37
647.876	15.74
648.205	15.04
648.534	15.53
648.863	14.67
649.192	15.41
649.521	15.51
649.85	15.49
650.179	15.61
650.508	15.47
650.837	15.42
651.165	15.53
651.494	15.44
651.822	15.48
652.151	15.47
652.479	15.93
652.808	15.45
653.136	15.4
653.465	15.81
653.793	16.3
654.121	16.24
654.449	16.07
654.777	15.95
655.105	15.96
655.433	16.04
655.761	16.02
656.089	16.2
656.417	15.81
656.745	16.23
657.073	15.61
657.4	15.78
657.728	16.42
658.056	16.25
658.383	16.1
658.711	16.64
659.038	16.03
659.365	16.73
659.693	16.43
660.02	16.2
660.347	16.78
660.674	16.57
661.001	16.6
661.329	16.53
661.656	16.62
661.982	16.1
662.309	16.36
662.636	16.77
662.963	16.67
663.29	16.48
663.616	16.73
663.943	16.5
664.27	17.04
664.596	16.81
664.923	16.78
665.249	17.08
665.576	17.13
665.902	17.22
666.228	16.87
666.554	16.62
666.881	16.78
667.207	17.24
667.533	16.88
667.859	16.27
668.185	17.07
668.511	16.97
668.837	16.48
669.162	17.71
669.488	16.79
669.814	16.86
670.139	17.65
670.465	17.54
670.791	17.07
671.116	17.24
671.442	17.55
671.767	16.89
672.092	17.33
672.418	17.86
672.743	18.17
673.068	17.18
673.393	17.4
673.718	17.24
674.043	17.18
674.368	17.45
674.693	17.81
675.018	18.66
675.343	18.35
675.667	18.09
675.992	18.27
676.317	17.58
676.641	18.08
676.966	18.05
677.29	17.35
677.615	18.87
677.939	18.59
678.264	17.85
678.588	17.45
678.912	18.58
679.236	17.55
679.56	17.94
679.885	18.09
680.209	18.32
680.532	18.57
680.856	18.23
681.18	19.13
681.504	17.65
681.828	18.09
682.152	18.9
682.475	18.69
682.799	18.55
683.122	18.34
683.446	18.13
683.769	18.59
684.093	18.14
684.416	18.69
684.739	18.98
685.062	19.07
685.386	18.52
