Data from 0087_crown_Reflection__0__020.txt Node

Date: Mon Aug 28 18:48:35 CDT 2023
User: ToomeyLab
Spectrometer: FLMS14357
Trigger mode: 0
Integration Time (sec): 1.000000E-2
Scans to average: 100
Electric dark correction enabled: true
Nonlinearity correction enabled: false
Boxcar width: 0
XAxis mode: Wavelengths
Number of Pixels in Spectrum: 2048
>>>>>Begin Spectral Data<<<<<
189.047	4.11
189.435	4.11
189.823	4.11
190.211	6095.35
190.599	-202.04
190.987	283.96
191.375	-0.08
191.763	97.93
192.151	191.79
192.538	-7.86
192.926	248.2
193.314	1194.81
193.702	115.65
194.089	30.36
194.477	-52.94
194.864	-251.8
195.252	-9.27
195.639	2628.21
196.027	103.78
196.414	404.85
196.801	29.48
197.189	15.43
197.576	229.65
197.963	-69.15
198.351	-29.77
198.738	21.24
199.125	-4.27
199.512	72.57
199.899	-11.64
200.286	-19.87
200.673	17.94
201.06	-19.83
201.447	10.14
201.833	-17.99
202.22	17.41
202.607	1.6
202.994	40.68
203.38	39.64
203.767	24.02
204.154	11.2
204.54	-45.97
204.927	18.41
205.313	-4.87
205.699	-67.86
206.086	40.08
206.472	1.3
206.858	-14.03
207.245	-8.22
207.631	21.15
208.017	-9.02
208.403	-10.16
208.789	14.13
209.175	-15.95
209.561	-12.1
209.947	-1.34
210.333	6.31
210.719	1.42
211.105	37.41
211.491	-7.13
211.876	33.28
212.262	-1.79
212.648	10.63
213.034	-22.85
213.419	-5.81
213.805	11.72
214.19	15.4
214.576	-14.33
214.961	-5.86
215.346	-13.16
215.732	33.56
216.117	-2.63
216.502	-6.67
216.888	-6.3
217.273	1.27
217.658	17.44
218.043	3.27
218.428	-7.52
218.813	5.52
219.198	2.93
219.583	-0.06
219.968	4.28
220.353	-11.79
220.738	32.25
221.122	13.19
221.507	-2.32
221.892	4.2
222.276	-6.28
222.661	-0.11
223.046	10.54
223.43	-1.67
223.815	8.5
224.199	12.52
224.583	3.16
224.968	10.77
225.352	14.23
225.736	6.13
226.121	5.78
226.505	8.94
226.889	16.47
227.273	8.34
227.657	10.02
228.041	12.14
228.425	11.85
228.809	9.28
229.193	8.13
229.577	16.2
229.961	8.96
230.344	10.27
230.728	10.2
231.112	10.9
231.495	11.22
231.879	10
232.263	10.36
232.646	10.34
233.03	10.15
233.413	12.99
233.797	10.82
234.18	7.59
234.563	10
234.946	9.84
235.33	8.88
235.713	7.98
236.096	11.39
236.479	9.69
236.862	10.23
237.245	10.42
237.628	11.26
238.011	13.37
238.394	10.18
238.777	11.71
239.16	8.59
239.543	8.55
239.925	13.09
240.308	9.41
240.691	10.13
241.073	7.71
241.456	11.02
241.838	9.5
242.221	9.9
242.603	10.54
242.986	10.31
243.368	10
243.75	9.54
244.133	9.53
244.515	9.35
244.897	10
245.279	9.77
245.661	9.31
246.043	10.22
246.425	9.33
246.807	10.08
247.189	8.83
247.571	9.27
247.953	10.15
248.335	9.47
248.717	9.39
249.098	9.17
249.48	8.95
249.862	9.24
250.243	9.02
250.625	9.67
251.006	9.2
251.388	9.39
251.769	8.98
252.151	8.44
252.532	8.09
252.913	9.81
253.295	8.47
253.676	9.91
254.057	9.28
254.438	9.13
254.819	8.98
255.2	9.12
255.581	9.34
255.962	8.44
256.343	9.18
256.724	8.55
257.105	6.26
257.486	9.36
257.867	8.35
258.247	9.12
258.628	9.03
259.009	7.88
259.389	8.31
259.77	8.83
260.15	8.17
260.531	7.67
260.911	8.39
261.292	8.63
261.672	8.61
262.052	8.23
262.432	8.24
262.813	8.21
263.193	8.44
263.573	8.29
263.953	7.59
264.333	8.54
264.713	8.09
265.093	8.68
265.473	8.51
265.853	7.5
266.233	7.92
266.612	8.89
266.992	8.19
267.372	7.95
267.752	9.16
268.131	8.6
268.511	7.22
268.89	8.1
269.27	7.84
269.649	8.07
270.029	7.96
270.408	8.3
270.787	8.28
271.167	8.03
271.546	7.62
271.925	8.46
272.304	8.03
272.683	8.44
273.062	7.66
273.441	8.41
273.82	7.43
274.199	7.43
274.578	8.08
274.957	8.18
275.336	8.28
275.715	8.35
276.093	7.81
276.472	7.47
276.851	7.84
277.229	7.77
277.608	8.43
277.986	7.31
278.365	8.1
278.743	7.71
279.122	7.68
279.5	7.68
279.878	7.09
280.257	7.72
280.635	7.69
281.013	7.42
281.391	7.15
281.769	7.43
282.147	7.66
282.525	8.51
282.903	7.73
283.281	7.41
283.659	8.11
284.037	7.73
284.415	7.25
284.792	7.32
285.17	7.21
285.548	7.36
285.925	7.77
286.303	7.26
286.68	7.88
287.058	7.61
287.435	6.81
287.813	6.96
288.19	7.49
288.567	7.12
288.945	7.12
289.322	7.02
289.699	7.58
290.076	7.33
290.453	7.3
290.83	6.58
291.207	6.94
291.584	7.17
291.961	7.71
292.338	6.65
292.715	7
293.092	7.09
293.469	7.13
293.845	6.86
294.222	6.75
294.599	7.15
294.975	7.19
295.352	6.24
295.728	7.06
296.105	6.98
296.481	7.38
296.858	7.34
297.234	6.91
297.61	6.84
297.986	6.52
298.363	6.81
298.739	6.54
299.115	6.57
299.491	6.8
299.867	6.81
300.243	6.69
300.619	6.92
300.995	7.49
301.371	6.85
301.746	6.68
302.122	6.59
302.498	6.73
302.874	6.98
303.249	6.74
303.625	6.09
304	6.48
304.376	6.56
304.751	6.35
305.127	6.63
305.502	6.36
305.878	6.18
306.253	6.14
306.628	6.48
307.003	6.37
307.378	6.68
307.754	6.92
308.129	6.02
308.504	6.99
308.879	6.35
309.254	6.48
309.629	5.96
310.003	6.09
310.378	6.14
310.753	6.32
311.128	6.46
311.502	6.59
311.877	6.26
312.252	6.48
312.626	6.3
313.001	6.32
313.375	6.49
313.75	6.18
314.124	6.13
314.498	6.23
314.873	6.66
315.247	6.39
315.621	5.96
315.995	6.64
316.369	6.52
316.743	6
317.117	5.83
317.491	5.97
317.865	6.15
318.239	6.2
318.613	5.96
318.987	5.36
319.361	5.67
319.734	6.45
320.108	6.03
320.482	5.61
320.855	5.62
321.229	6.17
321.602	5.95
321.976	5.56
322.349	6.31
322.723	6.4
323.096	6.08
323.469	5.49
323.843	5.6
324.216	5.54
324.589	6.35
324.962	6.18
325.335	5.66
325.708	5.77
326.081	5.77
326.454	6.02
326.827	5.96
327.2	5.48
327.573	5.83
327.945	6.44
328.318	6.19
328.691	5.74
329.063	5.62
329.436	5.34
329.809	5.91
330.181	5.51
330.553	5.69
330.926	6.02
331.298	5.68
331.671	5.5
332.043	5.59
332.415	6.06
332.787	5.46
333.159	5.54
333.532	6.49
333.904	5.59
334.276	5.54
334.648	5.55
335.02	6.06
335.391	6.07
335.763	5.58
336.135	6.42
336.507	5.55
336.879	5.2
337.25	5.73
337.622	5.44
337.993	5.9
338.365	5.77
338.736	5.73
339.108	4.96
339.479	5.57
339.851	6.02
340.222	5.7
340.593	5.76
340.964	5.89
341.336	5.25
341.707	5.23
342.078	5.64
342.449	5.82
342.82	5.89
343.191	5.31
343.562	5.82
343.933	5.63
344.303	5.76
344.674	5.86
345.045	5.7
345.416	5.62
345.786	6.1
346.157	5.88
346.527	5.35
346.898	6.14
347.268	5.87
347.639	5.3
348.009	5.88
348.38	5.97
348.75	5.75
349.12	6.13
349.49	5.26
349.861	5.33
350.231	5.52
350.601	6.33
350.971	5.9
351.341	5.5
351.711	6.04
352.081	5.79
352.45	5.97
352.82	5.71
353.19	6.43
353.56	5.99
353.929	5.97
354.299	5.52
354.669	5.94
355.038	6.04
355.408	5.56
355.777	5.76
356.147	5.68
356.516	5.81
356.885	6.02
357.254	5.72
357.624	5.69
357.993	5.91
358.362	5.52
358.731	6.05
359.1	5.71
359.469	5.8
359.838	5.68
360.207	5.67
360.576	5.97
360.945	5.75
361.314	5.31
361.682	5.62
362.051	6.05
362.42	5.86
362.788	5.59
363.157	5.86
363.525	5.92
363.894	5.91
364.262	6.05
364.631	5.86
364.999	6.09
365.367	6
365.735	5.97
366.104	5.78
366.472	5.83
366.84	5.69
367.208	5.93
367.576	5.76
367.944	5.94
368.312	6.2
368.68	5.91
369.048	5.91
369.416	5.8
369.783	5.93
370.151	6.03
370.519	6.05
370.886	5.77
371.254	5.84
371.621	5.92
371.989	6.22
372.356	6.12
372.724	6.5
373.091	6.05
373.458	5.94
373.826	5.96
374.193	6.02
374.56	6.15
374.927	6.08
375.294	6.21
375.661	6.16
376.028	5.86
376.395	5.89
376.762	6.21
377.129	5.89
377.496	5.97
377.863	6.3
378.229	5.98
378.596	6.55
378.963	6.27
379.329	6.03
379.696	6.26
380.062	6.17
380.429	5.71
380.795	6.22
381.161	6.14
381.528	6.54
381.894	6.03
382.26	6.32
382.626	6.32
382.993	6.2
383.359	6.32
383.725	6.43
384.091	6.22
384.457	6.29
384.823	6.18
385.188	6.25
385.554	6.04
385.92	6.06
386.286	6.5
386.651	6.25
387.017	6.44
387.383	6.51
387.748	6.4
388.114	6.08
388.479	6.02
388.845	6.18
389.21	6.08
389.575	6.52
389.94	6.35
390.306	6.36
390.671	6.18
391.036	6.32
391.401	6.52
391.766	6.42
392.131	6.2
392.496	6.12
392.861	6.31
393.226	6.43
393.591	6.26
393.956	6.5
394.32	6.1
394.685	6.44
395.05	6.37
395.414	6.37
395.779	6.34
396.143	6.07
396.508	6.31
396.872	6.63
397.236	6.27
397.601	6.12
397.965	6.54
398.329	6.56
398.694	6.27
399.058	6.36
399.422	6.43
399.786	6.59
400.15	6.47
400.514	6.63
400.878	6.47
401.242	6.27
401.605	6.46
401.969	6.29
402.333	6.37
402.697	6.68
403.06	6.58
403.424	6.77
403.787	6.53
404.151	6.2
404.514	6.53
404.878	6.6
405.241	6.72
405.604	6.7
405.968	6.32
406.331	6.58
406.694	6.37
407.057	6.48
407.42	6.52
407.783	6.4
408.146	6.47
408.509	6.76
408.872	6.54
409.235	6.55
409.598	6.69
409.961	6.5
410.323	6.72
410.686	6.66
411.049	6.97
411.411	6.6
411.774	6.64
412.136	6.6
412.499	6.54
412.861	6.81
413.223	6.66
413.586	6.58
413.948	6.59
414.31	6.75
414.672	6.51
415.035	6.77
415.397	6.4
415.759	6.72
416.121	6.73
416.483	6.46
416.845	6.51
417.206	6.92
417.568	6.66
417.93	6.68
418.292	6.76
418.653	6.61
419.015	6.53
419.377	6.58
419.738	6.82
420.1	6.82
420.461	6.72
420.822	6.73
421.184	6.68
421.545	6.69
421.906	6.76
422.267	6.65
422.629	6.56
422.99	6.55
423.351	6.62
423.712	6.58
424.073	6.63
424.434	6.71
424.795	6.7
425.155	6.54
425.516	6.76
425.877	6.65
426.238	6.54
426.598	6.56
426.959	6.7
427.32	6.62
427.68	6.71
428.041	6.73
428.401	6.77
428.761	6.71
429.122	6.64
429.482	6.83
429.842	6.85
430.202	6.8
430.563	6.78
430.923	6.97
431.283	6.66
431.643	6.8
432.003	6.79
432.363	6.81
432.722	6.96
433.082	6.59
433.442	6.89
433.802	6.85
434.161	6.83
434.521	6.81
434.881	6.63
435.24	6.84
435.6	6.82
435.959	6.67
436.319	6.86
436.678	6.82
437.037	6.81
437.396	6.85
437.756	6.67
438.115	6.96
438.474	6.96
438.833	6.79
439.192	6.97
439.551	6.9
439.91	6.93
440.269	7.04
440.628	6.92
440.987	6.79
441.345	6.86
441.704	6.81
442.063	6.74
442.421	6.82
442.78	6.81
443.138	6.76
443.497	6.81
443.855	6.82
444.214	6.86
444.572	6.95
444.93	6.97
445.288	6.94
445.647	6.8
446.005	7.05
446.363	6.89
446.721	6.9
447.079	6.95
447.437	6.84
447.795	6.79
448.153	6.91
448.51	6.83
448.868	6.84
449.226	6.88
449.584	6.86
449.941	6.84
450.299	6.9
450.656	6.92
451.014	6.86
451.371	6.94
451.729	6.74
452.086	6.92
452.443	6.94
452.801	7.03
453.158	6.97
453.515	6.95
453.872	6.96
454.229	7.03
454.586	7.11
454.943	6.9
455.3	6.87
455.657	7.08
456.014	7.1
456.371	6.93
456.727	7.01
457.084	6.84
457.441	7.15
457.797	7.02
458.154	7.12
458.51	7.29
458.867	7
459.223	6.91
459.58	7.02
459.936	7.03
460.292	7.14
460.648	7.05
461.005	6.86
461.361	6.91
461.717	6.88
462.073	6.97
462.429	6.84
462.785	6.81
463.141	6.96
463.496	7.03
463.852	6.94
464.208	7.03
464.564	7.13
464.919	6.97
465.275	7.1
465.631	7.02
465.986	7.19
466.342	7.12
466.697	6.9
467.052	7.08
467.408	7.09
467.763	7.04
468.118	6.99
468.473	7.02
468.829	7.01
469.184	7.03
469.539	7.13
469.894	7.01
470.249	6.9
470.603	7.02
470.958	7.06
471.313	7.16
471.668	6.97
472.023	7.19
472.377	7.08
472.732	7.06
473.086	7.07
473.441	7.17
473.795	7.08
474.15	7.21
474.504	7.05
474.859	7.19
475.213	7.32
475.567	7.16
475.921	7.36
476.275	7.21
476.63	7.15
476.984	7.17
477.338	7.11
477.692	7.01
478.045	7.31
478.399	7.11
478.753	7.1
479.107	7.16
479.461	7.16
479.814	7.25
480.168	7.2
480.521	7.11
480.875	7.08
481.228	6.97
481.582	7.19
481.935	7.06
482.289	7.06
482.642	7.25
482.995	7.23
483.348	7.04
483.701	7.11
484.055	7.14
484.408	7.09
484.761	7.1
485.114	7.05
485.466	6.92
485.819	6.83
486.172	6.75
486.525	6.73
486.878	6.7
487.23	6.69
487.583	6.75
487.936	6.82
488.288	6.99
488.641	6.95
488.993	6.95
489.345	6.93
489.698	6.92
490.05	6.84
490.402	6.78
490.754	6.85
491.107	6.86
491.459	6.8
491.811	6.9
492.163	6.98
492.515	7.01
492.866	7.12
493.218	6.99
493.57	6.99
493.922	6.87
494.274	6.92
494.625	6.83
494.977	6.85
495.328	6.9
495.68	7.03
496.031	7.14
496.383	7
496.734	7.11
497.086	7.17
497.437	7.31
497.788	7.09
498.139	7.12
498.49	7.13
498.842	7.21
499.193	7.03
499.544	7.14
499.894	7.07
500.245	7.07
500.596	7.16
500.947	7.21
501.298	7.15
501.648	7.09
501.999	7.09
502.35	7.07
502.7	7.19
503.051	7.35
503.401	7.15
503.752	7.2
504.102	7.13
504.452	7.28
504.803	7.33
505.153	7.19
505.503	7.19
505.853	7.21
506.203	7.19
506.553	7.17
506.903	7.31
507.253	7.25
507.603	7.06
507.953	7.24
508.303	7.26
508.652	7.24
509.002	7.33
509.352	7.11
509.701	7.19
510.051	7.12
510.4	7.15
510.75	7.2
511.099	7.17
511.449	7.16
511.798	7.15
512.147	7.14
512.496	7.25
512.846	7.25
513.195	7.22
513.544	7.37
513.893	7.21
514.242	7.26
514.591	7.28
514.939	7
515.288	7.18
515.637	7.18
515.986	7.22
516.334	7.21
516.683	7.28
517.032	7.29
517.38	7.35
517.729	7.26
518.077	7.29
518.426	7.13
518.774	7.22
519.122	7.32
519.47	7.24
519.819	7.3
520.167	7.19
520.515	7.18
520.863	7.06
521.211	7.1
521.559	7.09
521.907	7.01
522.255	7.1
522.602	7.13
522.95	7.16
523.298	7.28
523.645	7.19
523.993	7.07
524.341	7.34
524.688	7.34
525.036	7.34
525.383	7.27
525.73	7.23
526.078	7.46
526.425	7.44
526.772	7.31
527.119	7.13
527.466	7.24
527.814	7.04
528.161	7.11
528.508	7.13
528.854	7.15
529.201	7.14
529.548	7.09
529.895	7.18
530.242	7.07
530.588	6.96
530.935	6.9
531.282	6.85
531.628	6.83
531.975	6.85
532.321	6.91
532.667	6.94
533.014	7.03
533.36	7.04
533.706	7.09
534.052	7.01
534.399	7.18
534.745	7.12
535.091	7.12
535.437	7.01
535.783	7.05
536.129	6.97
536.474	6.97
536.82	7
537.166	7.06
537.512	7.14
537.857	7.25
538.203	7.15
538.549	7.1
538.894	7.01
539.239	6.98
539.585	7.08
539.93	7.07
540.276	7.08
540.621	7.26
540.966	7.11
541.311	7.27
541.656	7.23
542.001	7.23
542.346	7.09
542.691	7.15
543.036	7.1
543.381	7.04
543.726	6.98
544.071	7
544.415	6.95
544.76	6.91
545.105	6.91
545.449	6.94
545.794	6.97
546.138	7.12
546.483	7.13
546.827	7.11
547.171	7.17
547.516	7.1
547.86	7.1
548.204	7.31
548.548	7.09
548.892	7.05
549.236	7.07
549.58	7.09
549.924	7.16
550.268	7.13
550.612	7.22
550.956	7.27
551.3	7.13
551.643	7.24
551.987	7.19
552.33	7.23
552.674	7.21
553.017	7.13
553.361	7.32
553.704	7.27
554.048	7.33
554.391	7.22
554.734	7.37
555.077	7.15
555.42	7.23
555.764	7.14
556.107	7.1
556.45	7.33
556.793	7.12
557.135	7.19
557.478	7.25
557.821	7.22
558.164	7.46
558.507	7.4
558.849	7.25
559.192	7.2
559.534	7.1
559.877	7.35
560.219	7.41
560.562	7.17
560.904	7.26
561.246	7.23
561.589	7.26
561.931	7.23
562.273	7.02
562.615	7.26
562.957	7.4
563.299	7.34
563.641	7.16
563.983	7.15
564.325	7.23
564.667	6.95
565.008	7.1
565.35	7.41
565.692	7.26
566.033	7.11
566.375	7.26
566.716	7.1
567.058	7.24
567.399	7.13
567.741	7.3
568.082	6.92
568.423	7.07
568.764	7
569.105	7.29
569.447	7.15
569.788	7.06
570.129	7.12
570.47	7.04
570.811	7.11
571.151	7.01
571.492	7.12
571.833	7.1
572.174	7.12
572.514	7.06
572.855	6.98
573.195	7.29
573.536	7.26
573.876	7.07
574.217	7
574.557	7.1
574.898	7.05
575.238	7.09
575.578	6.97
575.918	7.02
576.258	7.2
576.598	7.05
576.938	7.02
577.278	7.14
577.618	7.08
577.958	7.07
578.298	7.18
578.638	7.02
578.977	7.08
579.317	7.16
579.657	7.02
579.996	7.07
580.336	7.04
580.675	7.11
581.014	7.09
581.354	6.98
581.693	7.12
582.032	7.12
582.372	7.14
582.711	7.3
583.05	7.23
583.389	7.3
583.728	7.19
584.067	7.46
584.406	7.05
584.745	7.05
585.083	7
585.422	6.98
585.761	7.07
586.1	7.23
586.438	7.07
586.777	7.01
587.115	7.29
587.454	7.06
587.792	7.13
588.13	7.27
588.469	6.95
588.807	6.85
589.145	7.17
589.483	7.22
589.821	6.97
590.159	7.22
590.497	7.12
590.835	6.98
591.173	6.86
591.511	7
591.849	7.09
592.187	6.88
592.524	7.19
592.862	6.98
593.2	6.79
593.537	7
593.875	7.1
594.212	7.1
594.55	7
594.887	7.1
595.224	7.11
595.561	6.9
595.899	6.89
596.236	7.04
596.573	7.28
596.91	7.05
597.247	7.06
597.584	6.91
597.921	6.98
598.258	6.96
598.594	6.97
598.931	7.01
599.268	7.02
599.604	6.87
599.941	6.96
600.277	7.01
600.614	6.94
600.95	6.8
601.287	6.79
601.623	7.2
601.959	7.05
602.296	7
602.632	7.07
602.968	7.04
603.304	6.99
603.64	7.08
603.976	6.93
604.312	6.98
604.648	6.76
604.984	6.85
605.319	6.96
605.655	6.93
605.991	6.92
606.326	6.97
606.662	6.95
606.998	6.85
607.333	6.87
607.668	7
608.004	6.8
608.339	6.89
608.674	6.78
609.01	6.88
609.345	7.15
609.68	7.01
610.015	7.23
610.35	6.96
610.685	7.05
611.02	6.97
611.355	7.24
611.689	6.88
612.024	6.92
612.359	6.87
612.694	7.1
613.028	6.99
613.363	6.68
613.697	6.8
614.032	7.21
614.366	6.54
614.7	6.94
615.035	6.71
615.369	6.75
615.703	6.73
616.037	6.98
616.371	6.74
616.705	7.02
617.039	7
617.373	6.67
617.707	6.83
618.041	7.18
618.375	6.71
618.709	7.07
619.042	6.56
619.376	6.75
619.71	6.81
620.043	6.85
620.377	6.77
620.71	6.76
621.043	6.67
621.377	7.05
621.71	6.83
622.043	6.74
622.376	7.13
622.709	6.93
623.043	6.79
623.376	6.66
623.709	6.87
624.041	7.2
624.374	6.87
624.707	6.57
625.04	6.51
625.373	7.12
625.705	6.97
626.038	6.91
626.37	6.89
626.703	7.34
627.035	6.97
627.368	7.12
627.7	6.93
628.032	6.83
628.365	6.56
628.697	6.92
629.029	6.72
629.361	6.94
629.693	6.93
630.025	6.72
630.357	6.64
630.689	6.65
631.021	7.26
631.353	6.89
631.684	6.96
632.016	6.82
632.348	6.6
632.679	6.73
633.011	6.98
633.342	6.52
633.674	6.8
634.005	6.73
634.336	6.31
634.668	6.84
634.999	7.08
635.33	6.88
635.661	7.07
635.992	6.98
636.323	7.12
636.654	6.79
636.985	6.71
637.316	6.74
637.647	7
637.977	6.71
638.308	6.93
638.639	7.06
638.969	7.08
639.3	6.85
639.63	7.13
639.961	6.74
640.291	6.69
640.622	6.79
640.952	6.29
641.282	6.82
641.612	6.83
641.943	6.82
642.273	7.36
642.603	6.39
642.933	6.55
643.263	7.35
643.592	6.49
643.922	6.78
644.252	6.49
644.582	6.43
644.911	6.58
645.241	6.81
645.571	6.5
645.9	6.65
646.23	6.45
646.559	6.6
646.888	6.8
647.218	6.6
647.547	6.99
647.876	6.91
648.205	6.47
648.534	6.91
648.863	6.78
649.192	6.84
649.521	6.93
649.85	6.97
650.179	6.96
650.508	7.06
650.837	6.93
651.165	6.73
651.494	6.89
651.822	6.72
652.151	6.77
652.479	7.19
652.808	6.49
653.136	6.95
653.465	6.52
653.793	7.08
654.121	7.05
654.449	6.91
654.777	6.87
655.105	6.53
655.433	6.75
655.761	6.66
656.089	6.86
656.417	6.63
656.745	6.72
657.073	6.51
657.4	6.71
657.728	7.17
658.056	7.2
658.383	6.89
658.711	7.52
659.038	6.61
659.365	6.8
659.693	6.67
660.02	7.03
660.347	7.08
660.674	6.35
661.001	7.01
661.329	6.48
661.656	6.57
661.982	6.93
662.309	6.98
662.636	6.72
662.963	6.77
663.29	6.94
663.616	6.46
663.943	7.09
664.27	7.1
664.596	6.83
664.923	6.82
665.249	6.79
665.576	6.93
665.902	7.17
666.228	6.32
666.554	6.71
666.881	6.63
667.207	7.14
667.533	6.46
667.859	7.07
668.185	7
668.511	7.22
668.837	6.53
669.162	7.04
669.488	6.36
669.814	7.17
670.139	6.59
670.465	7.4
670.791	7.05
671.116	7.17
671.442	6.9
671.767	6.72
672.092	7.01
672.418	6.98
672.743	7.18
673.068	7.18
673.393	7.07
673.718	6.28
674.043	6.58
674.368	6.93
674.693	7.34
675.018	7.38
675.343	6.4
675.667	7.05
675.992	7.22
676.317	6.65
676.641	7.12
676.966	7.33
677.29	6.67
677.615	7.49
677.939	6.76
678.264	5.97
678.588	6.67
678.912	7.44
679.236	6.41
679.56	6.78
679.885	7.4
680.209	6.52
680.532	7.03
680.856	6.76
681.18	6.67
681.504	7.44
681.828	6.73
682.152	7.05
682.475	6.93
682.799	7.25
683.122	6.66
683.446	6.5
683.769	7.21
684.093	6.85
684.416	7.27
684.739	6.88
685.062	7.4
685.386	6.79
685.709	7.13
686.032	6.67
686.355	6.88
686.678	7.11
687.001	6.56
687.324	6.53
687.646	6.97
687.969	6.46
688.292	7.11
688.614	7.24
688.937	6.75
689.26	6.45
689.582	6.15
689.904	6.81
690.227	7.73
690.549	6.8
690.871	7.45
691.194	6.5
691.516	6.83
691.838	6.55
692.16	7.55
692.482	7.04
692.804	7.36
