Data from 0087_forehead_Reflection__2__017.txt Node

Date: Mon Aug 28 18:47:18 CDT 2023
User: ToomeyLab
Spectrometer: FLMS14357
Trigger mode: 0
Integration Time (sec): 1.000000E-2
Scans to average: 100
Electric dark correction enabled: true
Nonlinearity correction enabled: false
Boxcar width: 0
XAxis mode: Wavelengths
Number of Pixels in Spectrum: 2048
>>>>>Begin Spectral Data<<<<<
189.047	-40.36
189.435	-40.36
189.823	-40.36
190.211	5523.26
190.599	21.96
190.987	580.72
191.375	73.77
191.763	101.43
192.151	-24
192.538	22.99
192.926	10.8
193.314	30.47
193.702	140.08
194.089	111.51
194.477	518.82
194.864	-127.71
195.252	-17.18
195.639	-662.39
196.027	62.93
196.414	-62.81
196.801	58.35
197.189	-41.85
197.576	62.52
197.963	-101.39
198.351	-8.62
198.738	-13.44
199.125	23.37
199.512	14.54
199.899	-53.95
200.286	-96.99
200.673	2.23
201.06	19.8
201.447	-38.21
201.833	-87.29
202.22	-4.31
202.607	24.83
202.994	40.84
203.38	-30.98
203.767	-9.17
204.154	21.08
204.54	-15.83
204.927	-5.38
205.313	14.24
205.699	-30.73
206.086	31.18
206.472	30.11
206.858	-7.77
207.245	0.31
207.631	5.17
208.017	-5.31
208.403	22.21
208.789	3.4
209.175	-35.24
209.561	44.48
209.947	18.35
210.333	47.21
210.719	10.16
211.105	16.71
211.491	-26.92
211.876	20.71
212.262	23.92
212.648	-9.11
213.034	-30.98
213.419	-28.14
213.805	3.11
214.19	-87.72
214.576	55.44
214.961	-38.34
215.346	-17.33
215.732	50.31
216.117	-17.05
216.502	11.62
216.888	-61.91
217.273	12.56
217.658	-10.35
218.043	5.04
218.428	15.74
218.813	-6.07
219.198	-6.57
219.583	10.03
219.968	12.27
220.353	-29.28
220.738	29.41
221.122	7.99
221.507	-9.01
221.892	-4.88
222.276	10.53
222.661	-1.67
223.046	-6.11
223.43	-2.26
223.815	5.21
224.199	-1
224.583	-1.56
224.968	8.95
225.352	14.39
225.736	-3.47
226.121	-7.46
226.505	0.02
226.889	9.05
227.273	1.8
227.657	1.4
228.041	5.54
228.425	0.17
228.809	4.57
229.193	5.34
229.577	6.28
229.961	0.6
230.344	3.85
230.728	2.22
231.112	1.23
231.495	2.55
231.879	2.01
232.263	1.25
232.646	0.42
233.03	3
233.413	3.75
233.797	2.78
234.18	3
234.563	2.33
234.946	4.31
235.33	-1.51
235.713	0.73
236.096	2.57
236.479	2.09
236.862	3.04
237.245	2.59
237.628	2.58
238.011	5.08
238.394	4.03
238.777	2.06
239.16	2.23
239.543	0.71
239.925	3.23
240.308	1.37
240.691	0.99
241.073	2.07
241.456	2.47
241.838	1.41
242.221	4.31
242.603	4.08
242.986	3.47
243.368	2.86
243.75	2.54
244.133	2.74
244.515	2.89
244.897	3.43
245.279	2.83
245.661	2.42
246.043	2.95
246.425	1.86
246.807	3.56
247.189	2.32
247.571	3.19
247.953	3.4
248.335	3.16
248.717	2.85
249.098	2.93
249.48	3.3
249.862	2.97
250.243	2.94
250.625	3.45
251.006	3.29
251.388	3.41
251.769	3.23
252.151	3.25
252.532	2.92
252.913	4.41
253.295	1.54
253.676	3.31
254.057	2.98
254.438	2.61
254.819	2.73
255.2	3.62
255.581	3.67
255.962	3.28
256.343	4.5
256.724	2.85
257.105	3.84
257.486	2.95
257.867	3.04
258.247	2.37
258.628	4.61
259.009	2.62
259.389	1.94
259.77	3.33
260.15	3.06
260.531	2.77
260.911	3.25
261.292	3.12
261.672	2.99
262.052	2.8
262.432	2.89
262.813	3.3
263.193	2.96
263.573	2.88
263.953	3.15
264.333	2.91
264.713	3.01
265.093	3.4
265.473	2.86
265.853	2.6
266.233	2.46
266.612	3.32
266.992	2.97
267.372	2.62
267.752	3.92
268.131	2.63
268.511	2.48
268.89	3.66
269.27	2.95
269.649	2.66
270.029	3.2
270.408	3.04
270.787	2.97
271.167	2.72
271.546	2.97
271.925	2.85
272.304	2.91
272.683	2.92
273.062	2.35
273.441	3.09
273.82	2.48
274.199	2.31
274.578	2.89
274.957	2.78
275.336	3.06
275.715	3.49
276.093	2.63
276.472	2.48
276.851	2.39
277.229	3.13
277.608	2.83
277.986	2.44
278.365	3.17
278.743	2.98
279.122	2.71
279.5	2.43
279.878	2.81
280.257	3.06
280.635	2.94
281.013	2.16
281.391	2.41
281.769	2.65
282.147	2.97
282.525	2.94
282.903	2.59
283.281	3.03
283.659	3.33
284.037	3.3
284.415	2.83
284.792	3
285.17	2.53
285.548	2.56
285.925	3.52
286.303	3.14
286.68	3.05
287.058	3.01
287.435	2.95
287.813	2.86
288.19	3.21
288.567	3.27
288.945	2.76
289.322	2.52
289.699	3.37
290.076	4.07
290.453	3.04
290.83	2.62
291.207	3.07
291.584	3.8
291.961	3.25
292.338	3.21
292.715	3.17
293.092	3.67
293.469	3.24
293.845	3.48
294.222	2.92
294.599	3.67
294.975	3.76
295.352	3.21
295.728	3.9
296.105	3.63
296.481	3.67
296.858	4.42
297.234	4.04
297.61	3.81
297.986	3.66
298.363	4.03
298.739	3.94
299.115	3.96
299.491	4.05
299.867	4.08
300.243	3.83
300.619	4.32
300.995	4.37
301.371	4.39
301.746	4.16
302.122	3.74
302.498	4.09
302.874	4.73
303.249	4.42
303.625	4.71
304	4.17
304.376	4.46
304.751	4.31
305.127	4.53
305.502	4.75
305.878	4.15
306.253	4.57
306.628	4.63
307.003	5.26
307.378	4.71
307.754	4.53
308.129	4.95
308.504	5.67
308.879	4.76
309.254	4.87
309.629	4.89
310.003	4.79
310.378	4.85
310.753	4.98
311.128	5.38
311.502	5.33
311.877	4.76
312.252	5.3
312.626	5.36
313.001	5.05
313.375	5.06
313.75	5.14
314.124	5.14
314.498	5.64
314.873	5.69
315.247	5.88
315.621	4.86
315.995	5.45
316.369	5.61
316.743	4.85
317.117	5.49
317.491	5
317.865	4.99
318.239	5.68
318.613	5.48
318.987	5.97
319.361	6.32
319.734	5.86
320.108	5.38
320.482	6.09
320.855	5.49
321.229	5.83
321.602	6.04
321.976	5.48
322.349	6.33
322.723	5.88
323.096	6.11
323.469	5.83
323.843	5.92
324.216	6.3
324.589	6.08
324.962	6.52
325.335	6.3
325.708	5.9
326.081	6.23
326.454	6.62
326.827	6.06
327.2	5.88
327.573	6.24
327.945	6.9
328.318	6.7
328.691	6.03
329.063	6.11
329.436	5.83
329.809	6.38
330.181	6.28
330.553	6.68
330.926	6.84
331.298	6.25
331.671	6.38
332.043	6.33
332.415	7.12
332.787	5.9
333.159	6.74
333.532	7
333.904	7.15
334.276	6.52
334.648	6.79
335.02	6.96
335.391	6.68
335.763	6.49
336.135	7.13
336.507	6.71
336.879	6.28
337.25	6.96
337.622	6.62
337.993	7.01
338.365	6.79
338.736	7.47
339.108	6.61
339.479	6.14
339.851	7.3
340.222	7.49
340.593	6.56
340.964	7.1
341.336	6.66
341.707	6.44
342.078	6.38
342.449	7.25
342.82	7.65
343.191	7.08
343.562	7.55
343.933	6.77
344.303	7.18
344.674	7.29
345.045	6.92
345.416	7.39
345.786	7.44
346.157	7.23
346.527	6.78
346.898	7.36
347.268	7.2
347.639	6.64
348.009	7.11
348.38	7.17
348.75	7.15
349.12	7.37
349.49	7.25
349.861	6.87
350.231	7.62
350.601	7.68
350.971	7.62
351.341	7.32
351.711	7.26
352.081	7.33
352.45	7.42
352.82	7.48
353.19	7.72
353.56	7.82
353.929	7.78
354.299	7.11
354.669	7.65
355.038	7.42
355.408	7.55
355.777	7.46
356.147	7.36
356.516	7.75
356.885	7.68
357.254	7.73
357.624	7.46
357.993	8.07
358.362	7.5
358.731	7.96
359.1	7.84
359.469	7.98
359.838	7.52
360.207	7.75
360.576	7.88
360.945	7.71
361.314	7.34
361.682	7.62
362.051	8.32
362.42	7.72
362.788	7.62
363.157	8.13
363.525	7.71
363.894	7.85
364.262	8.01
364.631	7.78
364.999	8.15
365.367	8.05
365.735	8.15
366.104	7.8
366.472	7.96
366.84	8.01
367.208	8.17
367.576	8.22
367.944	8.12
368.312	8.43
368.68	8.06
369.048	7.95
369.416	8.31
369.783	8.16
370.151	8.31
370.519	8.47
370.886	8.31
371.254	8.25
371.621	8.13
371.989	8.48
372.356	8.55
372.724	8.87
373.091	8.77
373.458	8.22
373.826	8.66
374.193	8.44
374.56	8.59
374.927	8.51
375.294	8.29
375.661	8.71
376.028	8.42
376.395	8.25
376.762	9.01
377.129	8.47
377.496	8.49
377.863	8.72
378.229	8.6
378.596	8.79
378.963	8.86
379.329	8.96
379.696	8.66
380.062	8.53
380.429	8.57
380.795	8.84
381.161	8.79
381.528	8.96
381.894	8.83
382.26	8.78
382.626	8.74
382.993	9.09
383.359	8.99
383.725	9.04
384.091	9.13
384.457	9.05
384.823	9.02
385.188	8.89
385.554	8.72
385.92	9.07
386.286	9.33
386.651	8.98
387.017	9.31
387.383	9.16
387.748	8.94
388.114	8.87
388.479	8.96
388.845	9.17
389.21	9.36
389.575	9.47
389.94	9.07
390.306	9.33
390.671	9.23
391.036	9.3
391.401	9.63
391.766	9.66
392.131	9.33
392.496	9.33
392.861	9.34
393.226	9.6
393.591	9.18
393.956	9.51
394.32	9.41
394.685	9.73
395.05	9.49
395.414	9.41
395.779	9.72
396.143	9.51
396.508	9.3
396.872	9.66
397.236	9.46
397.601	9.46
397.965	9.58
398.329	9.72
398.694	9.7
399.058	9.67
399.422	9.81
399.786	9.88
400.15	9.88
400.514	9.89
400.878	9.71
401.242	9.65
401.605	9.79
401.969	9.74
402.333	9.62
402.697	9.91
403.06	9.86
403.424	9.93
403.787	9.74
404.151	9.72
404.514	9.92
404.878	10.04
405.241	10.27
405.604	10.06
405.968	9.77
406.331	10.19
406.694	9.82
407.057	9.99
407.42	9.78
407.783	9.88
408.146	9.92
408.509	10.02
408.872	9.95
409.235	10.24
409.598	10.09
409.961	10.11
410.323	10.19
410.686	10.34
411.049	10.46
411.411	10.49
411.774	9.98
412.136	10.07
412.499	10.03
412.861	10.27
413.223	10.01
413.586	10.13
413.948	10.44
414.31	10.24
414.672	10.24
415.035	10.34
415.397	10.31
415.759	10.29
416.121	10.59
416.483	10.22
416.845	10.51
417.206	10.61
417.568	10.55
417.93	10.5
418.292	10.4
418.653	10.26
419.015	10.36
419.377	10.21
419.738	10.43
420.1	10.46
420.461	10.43
420.822	10.33
421.184	10.34
421.545	10.25
421.906	10.38
422.267	10.46
422.629	10.25
422.99	10.26
423.351	10.38
423.712	10.3
424.073	10.36
424.434	10.54
424.795	10.48
425.155	10.41
425.516	10.39
425.877	10.38
426.238	10.28
426.598	10.35
426.959	10.49
427.32	10.58
427.68	10.64
428.041	10.59
428.401	10.7
428.761	10.7
429.122	10.71
429.482	10.84
429.842	11.04
430.202	10.98
430.563	10.99
430.923	11
431.283	10.98
431.643	10.89
432.003	10.94
432.363	11.2
432.722	11.07
433.082	10.89
433.442	11.1
433.802	11.13
434.161	11.13
434.521	11
434.881	10.93
435.24	10.89
435.6	11.02
435.959	10.99
436.319	11.16
436.678	10.98
437.037	11.08
437.396	11.47
437.756	11.19
438.115	11.36
438.474	11.31
438.833	11.15
439.192	11.39
439.551	11.21
439.91	11.35
440.269	11.25
440.628	11.09
440.987	11.24
441.345	11.2
441.704	11.13
442.063	11.13
442.421	11.17
442.78	11.29
443.138	11.28
443.497	11.26
443.855	11.35
444.214	11.42
444.572	11.48
444.93	11.47
445.288	11.55
445.647	11.53
446.005	11.6
446.363	11.54
446.721	11.47
447.079	11.46
447.437	11.22
447.795	11.4
448.153	11.4
448.51	11.3
448.868	11.28
449.226	11.37
449.584	11.42
449.941	11.44
450.299	11.62
450.656	11.59
451.014	11.58
451.371	11.62
451.729	11.62
452.086	11.7
452.443	11.94
452.801	12.05
453.158	11.89
453.515	11.91
453.872	11.79
454.229	11.99
454.586	12.04
454.943	11.76
455.3	11.91
455.657	11.98
456.014	12.01
456.371	12.03
456.727	12.04
457.084	11.91
457.441	11.97
457.797	12.08
458.154	12.07
458.51	12.11
458.867	12.13
459.223	12.07
459.58	12.11
459.936	12.18
460.292	12.11
460.648	11.99
461.005	11.92
461.361	11.98
461.717	12.03
462.073	11.89
462.429	11.81
462.785	12.03
463.141	12.08
463.496	12.22
463.852	12.18
464.208	12.32
464.564	12.26
464.919	12.34
465.275	12.44
465.631	12.5
465.986	12.49
466.342	12.65
466.697	12.51
467.052	12.44
467.408	12.39
467.763	12.52
468.118	12.39
468.473	12.45
468.829	12.52
469.184	12.39
469.539	12.5
469.894	12.37
470.249	12.6
470.603	12.53
470.958	12.52
471.313	12.59
471.668	12.55
472.023	12.83
472.377	12.53
472.732	12.65
473.086	12.76
473.441	12.74
473.795	12.79
474.15	12.92
474.504	12.78
474.859	12.67
475.213	12.83
475.567	12.93
475.921	13.17
476.275	12.96
476.63	12.9
476.984	12.91
477.338	13.11
477.692	13.09
478.045	13.13
478.399	12.78
478.753	12.98
479.107	12.94
479.461	12.99
479.814	13.2
480.168	13.16
480.521	13.04
480.875	13.04
481.228	13.07
481.582	12.99
481.935	13.08
482.289	13.08
482.642	13.16
482.995	13.13
483.348	13.05
483.701	12.98
484.055	12.99
484.408	12.9
484.761	12.88
485.114	12.91
485.466	12.65
485.819	12.46
486.172	12.27
486.525	12.37
486.878	12.37
487.23	12.5
487.583	12.7
487.936	12.91
488.288	12.85
488.641	13.04
488.993	12.9
489.345	12.81
489.698	12.77
490.05	12.64
490.402	12.64
490.754	12.75
491.107	12.86
491.459	12.95
491.811	13.19
492.163	13.37
492.515	13.26
492.866	13.32
493.218	13.15
493.57	13.02
493.922	12.9
494.274	12.98
494.625	13.01
494.977	13.15
495.328	13.28
495.68	13.54
496.031	13.55
496.383	13.61
496.734	13.62
497.086	13.97
497.437	13.68
497.788	13.8
498.139	13.89
498.49	13.74
498.842	13.67
499.193	13.66
499.544	13.6
499.894	13.75
500.245	13.66
500.596	13.85
500.947	13.88
501.298	13.94
501.648	13.81
501.999	13.9
502.35	13.83
502.7	14.12
503.051	14.15
503.401	14.07
503.752	14.1
504.102	14.1
504.452	14.07
504.803	14.18
505.153	14.23
505.503	14
505.853	14.16
506.203	14.28
506.553	14.21
506.903	14.19
507.253	14.21
507.603	14.08
507.953	14.26
508.303	14.33
508.652	14.42
509.002	14.44
509.352	14.24
509.701	14.21
510.051	14.19
510.4	14.22
510.75	14.24
511.099	14.25
511.449	14.22
511.798	14.17
512.147	14.31
512.496	14.38
512.846	14.36
513.195	14.46
513.544	14.52
513.893	14.47
514.242	14.51
514.591	14.55
514.939	14.34
515.288	14.61
515.637	14.58
515.986	14.55
516.334	14.65
516.683	14.65
517.032	14.78
517.38	14.76
517.729	14.85
518.077	14.83
518.426	14.85
518.774	14.75
519.122	14.79
519.47	14.78
519.819	14.69
520.167	14.61
520.515	14.49
520.863	14.51
521.211	14.47
521.559	14.47
521.907	14.51
522.255	14.63
522.602	14.73
522.95	14.94
523.298	14.93
523.645	15.06
523.993	14.96
524.341	15.1
524.688	15.12
525.036	15.11
525.383	15.15
525.73	15.25
526.078	15.26
526.425	15.16
526.772	14.99
527.119	15.07
527.466	14.82
527.814	14.74
528.161	14.71
528.508	14.75
528.854	14.71
529.201	14.92
529.548	14.84
529.895	14.82
530.242	14.65
530.588	14.36
530.935	14.3
531.282	14.35
531.628	14.37
531.975	14.44
532.321	14.62
532.667	14.66
533.014	14.98
533.36	15.01
533.706	15.11
534.052	15.04
534.399	15.18
534.745	15.37
535.091	15.1
535.437	14.84
535.783	14.81
536.129	14.88
536.474	14.98
536.82	15.13
537.166	15.25
537.512	15.34
537.857	15.49
538.203	15.36
538.549	15.41
538.894	15.21
539.239	15.14
539.585	15.36
539.93	15.28
540.276	15.46
540.621	15.52
540.966	15.57
541.311	15.95
541.656	15.89
542.001	15.87
542.346	15.8
542.691	15.63
543.036	15.49
543.381	15.18
543.726	15.06
544.071	15.05
544.415	15.21
544.76	15.27
545.105	15.31
545.449	15.5
545.794	15.6
546.138	15.65
546.483	15.69
546.827	15.66
547.171	15.88
547.516	15.88
547.86	15.92
548.204	15.96
548.548	15.94
548.892	15.84
549.236	15.69
549.58	15.79
549.924	15.99
550.268	15.96
550.612	16.16
550.956	16.18
551.3	16.27
551.643	16.58
551.987	16.09
552.33	16.37
552.674	16.57
553.017	16.52
553.361	16.63
553.704	16.44
554.048	16.39
554.391	16.56
554.734	16.44
555.077	16.36
555.42	16.23
555.764	16.37
556.107	16.5
556.45	16.58
556.793	16.59
557.135	16.76
557.478	16.51
557.821	16.68
558.164	16.86
558.507	16.73
558.849	16.84
559.192	16.69
559.534	16.63
559.877	16.9
560.219	16.84
560.562	16.78
560.904	16.88
561.246	16.98
561.589	16.86
561.931	16.76
562.273	16.86
562.615	16.73
562.957	17.14
563.299	16.95
563.641	16.73
563.983	17.1
564.325	17.03
564.667	16.86
565.008	16.87
565.35	17.22
565.692	17.06
566.033	16.91
566.375	17.25
566.716	17.04
567.058	17.25
567.399	17.03
567.741	17.14
568.082	17.02
568.423	16.74
568.764	16.91
569.105	17.14
569.447	17.13
569.788	17.11
570.129	17.16
570.47	17.45
570.811	17.33
571.151	17.09
571.492	17.12
571.833	17.1
572.174	17.37
572.514	17.24
572.855	17.28
573.195	17.45
573.536	17.43
573.876	17.06
574.217	17.37
574.557	17.23
574.898	17.38
575.238	17.41
575.578	17.4
575.918	17.37
576.258	17.59
576.598	17.32
576.938	17.36
577.278	17.48
577.618	17.31
577.958	17.38
578.298	17.58
578.638	17.62
578.977	17.48
579.317	17.5
579.657	17.53
579.996	17.72
580.336	17.72
580.675	17.95
581.014	17.89
581.354	17.62
581.693	18.03
582.032	18.1
582.372	18.12
582.711	17.92
583.05	17.93
583.389	17.99
583.728	17.85
584.067	18.12
584.406	17.86
584.745	17.97
585.083	17.9
585.422	18.04
585.761	18.22
586.1	18.1
586.438	17.99
586.777	18.17
587.115	18.15
587.454	18.23
587.792	18.16
588.13	18.23
588.469	18.31
588.807	18.15
589.145	18.03
589.483	18.31
589.821	18.41
590.159	18.3
590.497	18.37
590.835	18.57
591.173	18.03
591.511	18.01
591.849	18.27
592.187	18.38
592.524	18.39
592.862	18.47
593.2	18.13
593.537	18.14
593.875	18.56
594.212	18.72
594.55	18.61
594.887	18.4
595.224	18.36
595.561	18.39
595.899	18.5
596.236	18.5
596.573	18.83
596.91	18.34
597.247	18.76
597.584	18.52
597.921	18.38
598.258	18.72
598.594	18.73
598.931	18.51
599.268	18.41
599.604	18.42
599.941	18.62
600.277	18.35
600.614	18.69
600.95	18.67
601.287	18.78
601.623	19.03
601.959	18.74
602.296	18.92
602.632	18.86
602.968	18.98
603.304	19.17
603.64	18.88
603.976	19.28
604.312	18.77
604.648	18.7
604.984	18.83
605.319	19.02
605.655	19.03
605.991	18.93
606.326	19.09
606.662	18.64
606.998	18.8
607.333	18.81
607.668	18.95
608.004	18.97
608.339	19.06
608.674	18.96
609.01	19.23
609.345	19.33
609.68	19.06
610.015	19.51
610.35	19.56
610.685	19.27
611.02	19.54
611.355	19.47
611.689	18.87
612.024	19.16
612.359	19.16
612.694	19.37
613.028	19.35
613.363	19.37
613.697	19.23
614.032	19.42
614.366	19.31
614.7	19.43
615.035	19.33
615.369	19.47
615.703	19.81
616.037	19.76
616.371	19.36
616.705	19.35
617.039	19.46
617.373	19.58
617.707	19.23
618.041	19.43
618.375	19.77
618.709	19.75
619.042	19.76
619.376	19.9
619.71	19.48
620.043	19.91
620.377	19.99
620.71	19.7
621.043	20.07
621.377	19.9
621.71	20.28
622.043	19.84
622.376	20.28
622.709	19.63
623.043	20.24
623.376	20.2
623.709	19.85
624.041	20.05
624.374	19.91
624.707	19.85
625.04	19.85
625.373	20.13
625.705	20.26
626.038	20.23
626.37	20.57
626.703	20.5
627.035	20.38
627.368	20.75
627.7	20.42
628.032	20.4
628.365	19.99
628.697	20.53
629.029	20.23
629.361	20.24
629.693	20.21
630.025	20.12
630.357	20.32
630.689	20.19
631.021	20.32
631.353	20.37
631.684	20.48
632.016	20.44
632.348	20.55
632.679	20.74
633.011	20.13
633.342	20.04
633.674	20.56
634.005	20.61
634.336	20.45
634.668	20.81
634.999	20.29
635.33	20.64
635.661	20.87
635.992	20.53
636.323	20.89
636.654	20.69
636.985	20.64
637.316	20.61
637.647	20.78
637.977	20.21
638.308	20.49
638.639	20.44
638.969	20.98
639.3	20.71
639.63	21.06
639.961	20.85
640.291	20.6
640.622	21.03
640.952	21
641.282	21.1
641.612	20.9
641.943	20.8
642.273	21.51
642.603	20.52
642.933	20.57
643.263	21.6
643.592	20.82
643.922	21.15
644.252	21.28
644.582	21.26
644.911	21.36
645.241	21.64
645.571	20.99
645.9	21.33
646.23	21.51
646.559	21.2
646.888	21.8
647.218	21.1
647.547	21.01
647.876	21.13
648.205	21.69
648.534	21.45
648.863	21.25
649.192	21.52
649.521	21.43
649.85	21.52
650.179	21.31
650.508	21.55
650.837	22
651.165	21.31
651.494	21.17
651.822	21.54
652.151	21.33
652.479	21.72
652.808	21.8
653.136	21.38
653.465	21.64
653.793	21.24
654.121	21.84
654.449	21.89
654.777	21.23
655.105	21.7
655.433	21.63
655.761	21.24
656.089	21.16
656.417	21.84
656.745	21.77
657.073	21.71
657.4	21.78
657.728	21.83
658.056	21.87
658.383	22.15
658.711	22.15
659.038	22.28
659.365	22.03
659.693	21.62
660.02	21.97
660.347	22.31
660.674	22.08
661.001	22.05
661.329	21.66
661.656	21.85
661.982	21.73
662.309	22.42
662.636	21.85
662.963	22.09
663.29	22.33
663.616	21.85
663.943	22.52
664.27	22.32
664.596	21.99
664.923	22.37
665.249	22.26
665.576	22.33
665.902	22.3
666.228	22.31
666.554	22.27
666.881	22.35
667.207	22.28
667.533	22.64
667.859	22.09
668.185	22.67
668.511	22.71
668.837	21.83
669.162	23.25
669.488	22.41
669.814	23.02
670.139	22.93
670.465	22.76
670.791	22.56
671.116	22.13
671.442	22.41
671.767	21.86
672.092	22.99
672.418	22.78
672.743	22.5
673.068	22.62
673.393	22.7
673.718	21.9
