Data from 0038_crown_Reflection__4__39.txt Node

Date: Fri Nov 04 14:58:41 CDT 2022
User: ToomeyLab
Spectrometer: FLMS14357
Trigger mode: 0
Integration Time (sec): 1.000000E-2
Scans to average: 100
Electric dark correction enabled: true
Nonlinearity correction enabled: false
Boxcar width: 0
XAxis mode: Wavelengths
Number of Pixels in Spectrum: 2048
>>>>>Begin Spectral Data<<<<<
189.047	-53.38
189.435	-53.38
189.823	-53.38
190.211	-99.36
190.599	468.65
190.987	38.44
191.375	102.19
191.763	4.85
192.151	-80.56
192.538	6.07
192.926	-17.29
193.314	-186.51
193.702	-690.42
194.089	410.28
194.477	104.5
194.864	162.46
195.252	40.45
195.639	9.46
196.027	475
196.414	-544.09
196.801	74.12
197.189	-42.14
197.576	56.98
197.963	176.59
198.351	-78.45
198.738	-16.32
199.125	-36.03
199.512	-4.31
199.899	17.76
200.286	-54.6
200.673	-2.5
201.06	-36.82
201.447	-42.4
201.833	7.34
202.22	-15.73
202.607	4.17
202.994	19.84
203.38	14.27
203.767	-29.84
204.154	26.75
204.54	-21.76
204.927	-6.7
205.313	27.87
205.699	55.3
206.086	7.75
206.472	-49.28
206.858	-2.3
207.245	18.4
207.631	0.94
208.017	-2.19
208.403	3.14
208.789	26.83
209.175	-25.48
209.561	-32.01
209.947	-22.77
210.333	24.63
210.719	10.32
211.105	3.28
211.491	-17.24
211.876	4.87
212.262	-16.25
212.648	-15.92
213.034	13.77
213.419	-4.86
213.805	-23.62
214.19	-14.35
214.576	20.61
214.961	-2.28
215.346	0.98
215.732	18.96
216.117	2.33
216.502	43.51
216.888	-15.07
217.273	1.64
217.658	0.9
218.043	-7.99
218.428	11.58
218.813	-0.98
219.198	7.87
219.583	-27.41
219.968	9.88
220.353	-5.36
220.738	3.34
221.122	8.47
221.507	8.47
221.892	-21.32
222.276	6.63
222.661	9.38
223.046	-12.57
223.43	-6.29
223.815	-0.69
224.199	3.86
224.583	-4.32
224.968	4.29
225.352	11.75
225.736	-5.08
226.121	-4.21
226.505	3.32
226.889	5.13
227.273	2.6
227.657	-2.94
228.041	3.41
228.425	5.09
228.809	2.95
229.193	2.38
229.577	0.72
229.961	3.57
230.344	2.91
230.728	2.1
231.112	2.11
231.495	2.16
231.879	3.05
232.263	2.57
232.646	1.81
233.03	1.92
233.413	1.04
233.797	1.03
234.18	1.55
234.563	3.72
234.946	2.39
235.33	2.81
235.713	1.57
236.096	3.5
236.479	1.8
236.862	2.53
237.245	1.11
237.628	2.28
238.011	-0.48
238.394	3.26
238.777	2.41
239.16	2.7
239.543	1.63
239.925	1.82
240.308	2.79
240.691	0.62
241.073	2.16
241.456	2.43
241.838	1.41
242.221	2.33
242.603	1.61
242.986	2.06
243.368	2.63
243.75	1.68
244.133	2.33
244.515	2.21
244.897	2.15
245.279	2.23
245.661	2.93
246.043	2.52
246.425	2.42
246.807	2.53
247.189	1.7
247.571	2.58
247.953	1.93
248.335	2.09
248.717	2.22
249.098	2.18
249.48	2.36
249.862	2.53
250.243	2.25
250.625	2.02
251.006	2.1
251.388	2.72
251.769	2.66
252.151	3.26
252.532	2.47
252.913	1.46
253.295	2.36
253.676	2.18
254.057	1.75
254.438	2.19
254.819	2.54
255.2	1.91
255.581	2.5
255.962	3.08
256.343	1.62
256.724	2.02
257.105	1.24
257.486	2.78
257.867	3.78
258.247	2.48
258.628	2.03
259.009	0.88
259.389	2.06
259.77	2.18
260.15	1.75
260.531	2.03
260.911	2.03
261.292	1.68
261.672	2.21
262.052	2.19
262.432	2.15
262.813	1.95
263.193	1.65
263.573	1.97
263.953	1.97
264.333	1.84
264.713	2.55
265.093	2.06
265.473	1.87
265.853	1.95
266.233	2.21
266.612	1.87
266.992	1.98
267.372	0.67
267.752	2.11
268.131	2.62
268.511	2.16
268.89	2.55
269.27	2.15
269.649	2.31
270.029	1.82
270.408	2.32
270.787	2.11
271.167	1.68
271.546	2.48
271.925	1.89
272.304	1.43
272.683	2.18
273.062	1.76
273.441	2.07
273.82	1.89
274.199	1.87
274.578	1.66
274.957	1.57
275.336	1.44
275.715	1.72
276.093	1.92
276.472	1.97
276.851	1.93
277.229	1.91
277.608	1.61
277.986	2.28
278.365	2.07
278.743	2.03
279.122	1.66
279.5	1.82
279.878	1.86
280.257	1.87
280.635	1.44
281.013	1.42
281.391	2.31
281.769	2.06
282.147	1.62
282.525	1.99
282.903	1.94
283.281	2.53
283.659	1.99
284.037	1.54
284.415	2.01
284.792	1.98
285.17	1.63
285.548	2.5
285.925	1.74
286.303	2.01
286.68	2.23
287.058	1.71
287.435	1.9
287.813	1.54
288.19	1.93
288.567	1.83
288.945	1.86
289.322	2.07
289.699	1.94
290.076	1.95
290.453	1.54
290.83	1.96
291.207	1.59
291.584	2.16
291.961	2.15
292.338	1.88
292.715	2.02
293.092	1.93
293.469	2
293.845	1.65
294.222	1.58
294.599	1.49
294.975	1.67
295.352	1.8
295.728	2.06
296.105	1.63
296.481	2.06
296.858	1.85
297.234	2.14
297.61	2.45
297.986	1.7
298.363	1.55
298.739	1.7
299.115	2.01
299.491	1.82
299.867	1.95
300.243	1.85
300.619	2.1
300.995	2
301.371	2.23
301.746	1.91
302.122	1.45
302.498	1.98
302.874	2.03
303.249	1.62
303.625	1.61
304	1.45
304.376	1.3
304.751	1.82
305.127	1.33
305.502	1.52
305.878	2.09
306.253	2.23
306.628	1.63
307.003	1.71
307.378	1.9
307.754	1.77
308.129	1.45
308.504	1.77
308.879	1.66
309.254	1.54
309.629	2.02
310.003	1.59
310.378	1.73
310.753	1.82
311.128	1.6
311.502	1.39
311.877	1.51
312.252	1.72
312.626	1.74
313.001	1.59
313.375	1.92
313.75	1.82
314.124	1.77
314.498	1.58
314.873	1.94
315.247	2.08
315.621	1.59
315.995	2.09
316.369	1.47
316.743	2.31
317.117	2.23
317.491	2.01
317.865	1.58
318.239	1.63
318.613	2.24
318.987	1.94
319.361	1.89
319.734	2.3
320.108	2.2
320.482	0.98
320.855	1.83
321.229	1.59
321.602	1.57
321.976	1.84
322.349	2.56
322.723	1.58
323.096	1.74
323.469	1.56
323.843	1.9
324.216	1.84
324.589	1.6
324.962	1.91
325.335	2.17
325.708	1.62
326.081	1.84
326.454	1.58
326.827	1.55
327.2	1.61
327.573	1.78
327.945	1.76
328.318	1.31
328.691	2.04
329.063	1.81
329.436	2.05
329.809	1.78
330.181	1.78
330.553	1.62
330.926	1.71
331.298	2
331.671	1.36
332.043	1.62
332.415	1.56
332.787	1.38
333.159	1.47
333.532	1.24
333.904	1.89
334.276	1.84
334.648	2.14
335.02	1.38
335.391	1.94
335.763	1.6
336.135	1.49
336.507	1.66
336.879	1.76
337.25	2.25
337.622	1.63
337.993	1.85
338.365	1.74
338.736	1.93
339.108	2.33
339.479	1.71
339.851	1.77
340.222	1.41
340.593	1.78
340.964	1.63
341.336	2.05
341.707	1.42
342.078	1.97
342.449	1.79
342.82	1.79
343.191	1.48
343.562	1.81
343.933	1.84
344.303	1.97
344.674	1.95
345.045	1.36
345.416	1.53
345.786	1.94
346.157	1.81
346.527	2.19
346.898	1.84
347.268	1.75
347.639	1.62
348.009	2.37
348.38	1.68
348.75	1.74
349.12	1.28
349.49	2.03
349.861	1.24
350.231	1.86
350.601	1.72
350.971	1.47
351.341	1.83
351.711	1.8
352.081	1.67
352.45	1.75
352.82	1.67
353.19	1.65
353.56	1.63
353.929	1.95
354.299	2.16
354.669	2.23
355.038	1.91
355.408	1.86
355.777	1.77
356.147	1.66
356.516	1.63
356.885	1.41
357.254	1.92
357.624	1.74
357.993	1.57
358.362	1.83
358.731	1.9
359.1	1.95
359.469	1.75
359.838	1.83
360.207	1.61
360.576	1.83
360.945	1.84
361.314	1.69
361.682	1.69
362.051	2
362.42	1.67
362.788	1.5
363.157	1.72
363.525	1.89
363.894	1.84
364.262	1.87
364.631	2.08
364.999	1.62
365.367	1.54
365.735	2.17
366.104	1.75
366.472	2.12
366.84	1.69
367.208	1.96
367.576	1.76
367.944	2
368.312	1.78
368.68	1.6
369.048	1.71
369.416	1.89
369.783	1.76
370.151	1.57
370.519	2.39
370.886	1.8
371.254	1.93
371.621	1.87
371.989	1.82
372.356	2.04
372.724	1.84
373.091	1.83
373.458	2.13
373.826	1.82
374.193	1.71
374.56	1.63
374.927	2.17
375.294	1.65
375.661	1.83
376.028	1.74
376.395	1.74
376.762	2.13
377.129	2.04
377.496	2.17
377.863	2
378.229	2.06
378.596	1.81
378.963	1.73
379.329	1.7
379.696	2.09
380.062	2.3
380.429	1.81
380.795	1.92
381.161	1.94
381.528	1.83
381.894	1.58
382.26	1.85
382.626	1.61
382.993	2
383.359	1.82
383.725	2.01
384.091	1.97
384.457	1.98
384.823	1.96
385.188	2.14
385.554	1.85
385.92	1.69
386.286	1.81
386.651	2.01
387.017	1.8
387.383	1.88
387.748	1.74
388.114	1.63
388.479	2.42
388.845	1.83
389.21	2.06
389.575	2.1
389.94	1.84
390.306	2.11
390.671	1.99
391.036	1.9
391.401	2.04
391.766	1.87
392.131	1.74
392.496	1.98
392.861	1.91
393.226	1.82
393.591	2.08
393.956	2.17
394.32	1.96
394.685	1.93
395.05	1.99
395.414	2.02
395.779	1.84
396.143	1.9
396.508	1.91
396.872	2.06
397.236	1.96
397.601	1.91
397.965	1.88
398.329	1.89
398.694	1.99
399.058	2.08
399.422	2.01
399.786	1.87
400.15	1.78
400.514	1.73
400.878	2.08
401.242	2.03
401.605	1.88
401.969	1.83
402.333	2.15
402.697	2.01
403.06	2.03
403.424	2.12
403.787	1.84
404.151	2.02
404.514	2.05
404.878	2.16
405.241	2.13
405.604	2.12
405.968	2.03
406.331	1.89
406.694	2.01
407.057	1.98
407.42	2.07
407.783	2
408.146	1.96
408.509	2
408.872	1.9
409.235	2.04
409.598	2.02
409.961	2.06
410.323	2.25
410.686	1.92
411.049	1.93
411.411	1.78
411.774	1.85
412.136	2.1
412.499	2.13
412.861	2.14
413.223	2.27
413.586	1.96
413.948	2.17
414.31	2.2
414.672	2.33
415.035	2.41
415.397	1.88
415.759	1.93
416.121	1.77
416.483	2.04
416.845	2.04
417.206	2.04
417.568	2.34
417.93	1.96
418.292	1.95
418.653	2.14
419.015	2.02
419.377	1.97
419.738	1.99
420.1	2.17
420.461	2.05
420.822	1.94
421.184	2.04
421.545	2.01
421.906	2.03
422.267	2
422.629	2.09
422.99	1.98
423.351	1.87
423.712	2.06
424.073	2.03
424.434	1.93
424.795	2.13
425.155	2.07
425.516	2.13
425.877	1.97
426.238	2.01
426.598	2.02
426.959	1.96
427.32	2
427.68	2.04
428.041	2.01
428.401	2.2
428.761	2.04
429.122	2.06
429.482	2.07
429.842	1.8
430.202	2.19
430.563	2.09
430.923	2.1
431.283	2.05
431.643	2.22
432.003	2.22
432.363	2.13
432.722	2.13
433.082	2.18
433.442	2.13
433.802	2.11
434.161	2.12
434.521	2.05
434.881	2.08
435.24	2.02
435.6	2.13
435.959	1.97
436.319	2.21
436.678	2.06
437.037	2.19
437.396	2.19
437.756	2.12
438.115	2.11
438.474	2.13
438.833	2.1
439.192	2.09
439.551	2.11
439.91	2.34
440.269	2.16
440.628	2.43
440.987	2.15
441.345	2.2
441.704	2.07
442.063	2.07
442.421	2.14
442.78	2.18
443.138	2.17
443.497	2.04
443.855	2.08
444.214	2.17
444.572	2.04
444.93	2.16
445.288	2.16
445.647	2.06
446.005	2.11
446.363	2.2
446.721	2.07
447.079	2.16
447.437	2.17
447.795	2.03
448.153	2.09
448.51	2.18
448.868	2.05
449.226	2.08
449.584	2.14
449.941	1.98
450.299	2.09
450.656	2.16
451.014	2.25
451.371	2.24
451.729	2.2
452.086	2.08
452.443	2.17
452.801	2.26
453.158	2.25
453.515	2.24
453.872	2.09
454.229	2.29
454.586	2.21
454.943	2.18
455.3	2.31
455.657	2.24
456.014	2.15
456.371	2.24
456.727	2.28
457.084	2.26
457.441	2.11
457.797	2.25
458.154	2.26
458.51	2.11
458.867	2.07
459.223	2.24
459.58	2.42
459.936	2.14
460.292	2.2
460.648	2.22
461.005	2.17
461.361	2.14
461.717	2.16
462.073	2.21
462.429	2.25
462.785	2.14
463.141	2.16
463.496	2.03
463.852	2.3
464.208	2.17
464.564	2.24
464.919	2.29
465.275	2.27
465.631	2.21
465.986	2.37
466.342	2.25
466.697	2.09
467.052	2.16
467.408	2.23
467.763	2.18
468.118	2.3
468.473	2.15
468.829	2.21
469.184	2.2
469.539	2.12
469.894	2.23
470.249	2.27
470.603	2.13
470.958	2.08
471.313	2.1
471.668	2.21
472.023	2.06
472.377	2.1
472.732	2.36
473.086	2.19
473.441	2.26
473.795	2.2
474.15	2.16
474.504	2.24
474.859	2.12
475.213	2.3
475.567	2.12
475.921	2.16
476.275	2.28
476.63	2.14
476.984	2.11
477.338	2.18
477.692	2.29
478.045	2.18
478.399	2.33
478.753	2.24
479.107	2.18
479.461	2.3
479.814	2.32
480.168	2.27
480.521	2.17
480.875	2.24
481.228	2.28
481.582	2.41
481.935	2.21
482.289	2.28
482.642	2.27
482.995	2.21
483.348	2.22
483.701	2.25
484.055	2.18
484.408	2.26
484.761	2.28
485.114	2.09
485.466	2.09
485.819	2.08
486.172	2.09
486.525	2.12
486.878	2.17
487.23	2.17
487.583	2.17
487.936	2.19
488.288	2.18
488.641	2.2
488.993	2.16
489.345	2.16
489.698	2.12
490.05	2.18
490.402	2.14
490.754	2.27
491.107	2.21
491.459	2.26
491.811	2.21
492.163	2.23
492.515	2.28
492.866	2.17
493.218	2.15
493.57	2.14
493.922	2.24
494.274	2.18
494.625	2.22
494.977	2.24
495.328	2.36
495.68	2.16
496.031	2.31
496.383	2.22
496.734	2.27
497.086	2.34
497.437	2.37
497.788	2.36
498.139	2.28
498.49	2.2
498.842	2.39
499.193	2.28
499.544	2.32
499.894	2.23
500.245	2.32
500.596	2.26
500.947	2.26
501.298	2.23
501.648	2.37
501.999	2.38
502.35	2.33
502.7	2.29
503.051	2.39
503.401	2.31
503.752	2.42
504.102	2.3
504.452	2.33
504.803	2.3
505.153	2.34
505.503	2.37
505.853	2.3
506.203	2.39
506.553	2.48
506.903	2.41
507.253	2.42
507.603	2.3
507.953	2.32
508.303	2.47
508.652	2.29
509.002	2.45
509.352	2.38
509.701	2.39
510.051	2.38
510.4	2.35
510.75	2.4
511.099	2.43
511.449	2.31
511.798	2.35
512.147	2.31
512.496	2.29
512.846	2.25
513.195	2.39
513.544	2.28
513.893	2.45
514.242	2.23
514.591	2.26
514.939	2.32
515.288	2.36
515.637	2.32
515.986	2.41
516.334	2.42
516.683	2.4
517.032	2.49
517.38	2.48
517.729	2.38
518.077	2.38
518.426	2.35
518.774	2.35
519.122	2.41
519.47	2.31
519.819	2.32
520.167	2.32
520.515	2.31
520.863	2.35
521.211	2.28
521.559	2.34
521.907	2.39
522.255	2.46
522.602	2.44
522.95	2.32
523.298	2.49
523.645	2.38
523.993	2.45
524.341	2.38
524.688	2.53
525.036	2.29
525.383	2.44
525.73	2.38
526.078	2.44
526.425	2.35
526.772	2.33
527.119	2.3
527.466	2.4
527.814	2.27
528.161	2.3
528.508	2.35
528.854	2.33
529.201	2.32
529.548	2.29
529.895	2.27
530.242	2.25
530.588	2.22
530.935	2.24
531.282	2.25
531.628	2.26
531.975	2.31
532.321	2.34
532.667	2.26
533.014	2.38
533.36	2.3
533.706	2.43
534.052	2.41
534.399	2.34
534.745	2.31
535.091	2.25
535.437	2.3
535.783	2.28
536.129	2.4
536.474	2.38
536.82	2.34
537.166	2.29
537.512	2.36
537.857	2.33
538.203	2.22
538.549	2.28
538.894	2.37
539.239	2.46
539.585	2.26
539.93	2.33
540.276	2.37
540.621	2.4
540.966	2.4
541.311	2.29
541.656	2.46
542.001	2.4
542.346	2.35
542.691	2.37
543.036	2.26
543.381	2.31
543.726	2.29
544.071	2.34
544.415	2.32
544.76	2.32
545.105	2.37
545.449	2.39
545.794	2.42
546.138	2.38
546.483	2.34
546.827	2.38
547.171	2.52
547.516	2.4
547.86	2.4
548.204	2.41
548.548	2.31
548.892	2.4
549.236	2.33
549.58	2.4
549.924	2.36
550.268	2.53
550.612	2.3
550.956	2.34
551.3	2.35
551.643	2.48
551.987	2.2
552.33	2.26
552.674	2.42
553.017	2.53
553.361	2.59
553.704	2.42
554.048	2.41
554.391	2.34
554.734	2.49
555.077	2.49
555.42	2.48
555.764	2.62
556.107	2.43
556.45	2.43
556.793	2.58
557.135	2.42
557.478	2.3
557.821	2.43
558.164	2.6
558.507	2.29
558.849	2.52
559.192	2.51
559.534	2.35
559.877	2.39
560.219	2.53
560.562	2.6
560.904	2.7
561.246	2.49
561.589	2.6
561.931	2.4
562.273	2.6
562.615	2.32
562.957	2.55
563.299	2.4
563.641	2.57
563.983	2.5
564.325	2.37
564.667	2.4
565.008	2.41
565.35	2.38
565.692	2.6
566.033	2.53
566.375	2.5
566.716	2.55
567.058	2.48
567.399	2.48
567.741	2.56
568.082	2.64
568.423	2.48
568.764	2.42
569.105	2.39
569.447	2.62
569.788	2.48
570.129	2.71
570.47	2.45
570.811	2.52
571.151	2.46
571.492	2.63
571.833	2.39
572.174	2.54
572.514	2.43
572.855	2.3
573.195	2.61
573.536	2.4
573.876	2.42
574.217	2.4
574.557	2.35
574.898	2.45
575.238	2.44
575.578	2.69
575.918	2.47
576.258	2.59
576.598	2.45
576.938	2.47
577.278	2.5
577.618	2.31
577.958	2.5
578.298	2.43
578.638	2.5
578.977	2.56
579.317	2.51
579.657	2.38
579.996	2.52
580.336	2.63
580.675	2.38
581.014	2.68
581.354	2.38
581.693	2.62
582.032	2.33
582.372	2.55
582.711	2.38
583.05	2.61
583.389	2.42
583.728	2.44
584.067	2.54
584.406	2.4
584.745	2.72
585.083	2.42
585.422	2.59
585.761	2.55
586.1	2.47
586.438	2.36
586.777	2.59
587.115	2.43
587.454	2.57
587.792	2.79
588.13	2.7
588.469	2.57
588.807	2.5
589.145	2.46
589.483	2.3
589.821	2.5
590.159	2.39
590.497	2.85
590.835	2.49
591.173	2.29
591.511	2.69
591.849	2.67
592.187	2.61
592.524	2.73
592.862	2.6
593.2	2.64
593.537	2.38
593.875	2.53
594.212	2.57
594.55	2.35
594.887	2.64
595.224	2.71
595.561	2.32
595.899	2.28
596.236	2.74
596.573	2.55
596.91	2.61
597.247	2.43
597.584	2.32
597.921	2.82
598.258	2.52
598.594	2.38
598.931	2.77
599.268	2.56
599.604	2.61
599.941	2.69
600.277	2.36
600.614	2.72
600.95	2.65
601.287	2.38
601.623	2.54
601.959	2.59
602.296	2.73
602.632	2.73
602.968	2.62
603.304	2.52
603.64	2.64
603.976	2.42
604.312	2.56
604.648	2.51
604.984	2.64
605.319	2.34
605.655	2.4
605.991	2.53
606.326	2.46
606.662	2.46
606.998	2.45
607.333	2.43
607.668	2.75
608.004	2.55
608.339	2.69
608.674	2.6
609.01	2.52
609.345	2.54
609.68	2.51
610.015	2.62
610.35	2.35
610.685	2.61
611.02	2.49
611.355	2.48
611.689	2.59
612.024	2.49
612.359	2.41
612.694	2.67
613.028	2.61
613.363	2.65
613.697	2.43
614.032	2.38
614.366	2.41
614.7	2.56
615.035	2.44
615.369	2.49
615.703	2.81
616.037	2.49
616.371	2.74
616.705	2.63
617.039	2.64
617.373	2.55
617.707	2.95
618.041	2.49
618.375	2.65
618.709	2.85
619.042	3.04
619.376	2.52
619.71	2.5
620.043	2.76
620.377	2.47
620.71	2.72
621.043	2.29
621.377	2.54
621.71	2.91
622.043	2.82
622.376	3.12
622.709	2.42
623.043	2.46
623.376	2.75
623.709	2.7
624.041	2.56
624.374	2.63
624.707	2.31
625.04	2.76
625.373	2.55
625.705	2.47
626.038	2.32
626.37	2.42
626.703	2.58
627.035	2.35
627.368	2.75
627.7	2.51
628.032	2.51
628.365	2.85
628.697	2.59
629.029	2.71
629.361	2.58
629.693	2.59
630.025	2.6
630.357	2.53
630.689	2.62
631.021	2.36
631.353	2.72
631.684	2.62
632.016	2.82
632.348	2.67
632.679	2.5
633.011	2.85
633.342	2.69
633.674	2.1
634.005	2.91
634.336	2.82
634.668	2.74
634.999	3.17
635.33	2.1
635.661	2.7
635.992	2.72
636.323	2.75
636.654	2.42
636.985	2.66
637.316	2.6
637.647	2.26
637.977	2.55
638.308	2.78
638.639	2.86
638.969	2.12
639.3	2.66
639.63	2.56
639.961	2.71
640.291	2.87
640.622	2.81
640.952	2.87
641.282	2.35
641.612	2.97
641.943	2.38
642.273	2.35
642.603	2.89
642.933	2.52
643.263	2.27
643.592	2.73
643.922	2.9
644.252	2.68
644.582	3.02
644.911	2.93
645.241	2.34
645.571	2.28
645.9	2.85
646.23	2.73
646.559	2.81
646.888	2.55
647.218	2.91
647.547	2.69
647.876	2.86
648.205	2.03
648.534	2.93
648.863	3.23
649.192	2.81
649.521	2.61
649.85	2.97
650.179	2.48
650.508	2.63
650.837	2.95
651.165	2.82
651.494	2.77
651.822	2.86
652.151	3.16
652.479	2.44
652.808	2.82
653.136	3.06
653.465	3
653.793	2.61
654.121	2.47
654.449	2.3
654.777	2.54
655.105	2.84
655.433	3.09
655.761	2.57
656.089	2.44
656.417	1.85
656.745	2.63
657.073	2.52
657.4	2.91
657.728	2.99
658.056	2.33
658.383	2.95
658.711	2.85
659.038	2.83
659.365	3.1
659.693	2.98
660.02	2.71
660.347	2.77
660.674	2.96
661.001	2.78
661.329	2.9
661.656	2.77
661.982	2.49
662.309	2.68
662.636	2.72
662.963	2.64
663.29	2.51
663.616	3.19
663.943	2.44
664.27	2.96
664.596	3.08
664.923	2.88
665.249	2.87
665.576	2.59
665.902	2.38
666.228	2.25
666.554	3.53
666.881	2.38
667.207	2.55
667.533	2.36
667.859	3.2
668.185	2.8
668.511	2.8
668.837	2.56
669.162	2.57
669.488	2.59
669.814	2.96
670.139	2.68
670.465	2.65
670.791	2.65
671.116	2.47
671.442	2.65
671.767	3.03
672.092	2.94
672.418	2.82
672.743	3.18
673.068	3.17
673.393	3.09
673.718	2.79
674.043	2.82
674.368	2.22
674.693	3.16
675.018	2.87
675.343	2.62
675.667	2.89
675.992	2.81
676.317	2.8
676.641	2.93
676.966	3.06
677.29	2.99
677.615	2.89
677.939	2.37
678.264	3.31
678.588	3.08
678.912	3.63
679.236	2.85
679.56	2.57
679.885	3.13
680.209	2.25
680.532	2.5
680.856	2.69
681.18	2.66
681.504	2.61
681.828	3.21
682.152	3.2
682.475	2.95
682.799	2.95
683.122	3.08
683.446	3.05
683.769	2.49
684.093	3.15
684.416	2.47
684.739	2.86
685.062	3.6
685.386	2.57
685.709	3.24
686.032	2.81
686.355	3.69
686.678	3.25
687.001	3.12
687.324	3.23
687.646	2.94
687.969	3.19
688.292	2.4
688.614	2.72
688.937	2.82
689.26	2.8
689.582	3.25
689.904	3.44
690.227	2.87
690.549	3.18
690.871	3.37
691.194	2.76
691.516	3.15
691.838	3.07
692.16	3.13
692.482	2.5
692.804	2.25
