Data from 0038_forehead_Reflection__2__42.txt Node

Date: Fri Nov 04 14:59:47 CDT 2022
User: ToomeyLab
Spectrometer: FLMS14357
Trigger mode: 0
Integration Time (sec): 1.000000E-2
Scans to average: 100
Electric dark correction enabled: true
Nonlinearity correction enabled: false
Boxcar width: 0
XAxis mode: Wavelengths
Number of Pixels in Spectrum: 2048
>>>>>Begin Spectral Data<<<<<
189.047	12.6
189.435	12.6
189.823	12.6
190.211	-3.14
190.599	-440.48
190.987	-87.98
191.375	113.16
191.763	85.57
192.151	198.31
192.538	37.98
192.926	87.28
193.314	-56.47
193.702	-685.51
194.089	45.09
194.477	61.39
194.864	38.89
195.252	42.83
195.639	-78.46
196.027	439.36
196.414	-1044.55
196.801	38.52
197.189	-0.06
197.576	17.23
197.963	505.56
198.351	-19.94
198.738	47.96
199.125	-3.5
199.512	34.81
199.899	6.68
200.286	-24.67
200.673	4.01
201.06	-27.39
201.447	-3.5
201.833	13.96
202.22	27.97
202.607	14.56
202.994	21.06
203.38	41.03
203.767	6.16
204.154	27.93
204.54	-29
204.927	5.67
205.313	21.63
205.699	55.78
206.086	66.47
206.472	17.97
206.858	6.31
207.245	32.27
207.631	-0.27
208.017	-19.1
208.403	19.36
208.789	56.25
209.175	17.71
209.561	-2
209.947	-11.96
210.333	4.29
210.719	0.32
211.105	27.35
211.491	36.31
211.876	5.18
212.262	8.65
212.648	15.7
213.034	18.29
213.419	1.19
213.805	16.18
214.19	-26.55
214.576	5.16
214.961	8.69
215.346	25.84
215.732	16.77
216.117	10.24
216.502	-3.76
216.888	5.18
217.273	12.16
217.658	7.85
218.043	11.49
218.428	-5.29
218.813	-25.8
219.198	7.79
219.583	-1.42
219.968	15.76
220.353	-11.8
220.738	-2.03
221.122	-13.9
221.507	20.21
221.892	-12.49
222.276	4.24
222.661	-6.58
223.046	-2.06
223.43	-2.94
223.815	-10.86
224.199	6.14
224.583	4.89
224.968	0.88
225.352	6.19
225.736	-1.29
226.121	-8.44
226.505	6.19
226.889	5.97
227.273	-1.68
227.657	7.35
228.041	5.04
228.425	4.5
228.809	1.77
229.193	3.27
229.577	1.38
229.961	3.05
230.344	2.72
230.728	1.69
231.112	1.61
231.495	1.89
231.879	1.87
232.263	1.18
232.646	1.29
233.03	0.51
233.413	0.5
233.797	0.49
234.18	-0.17
234.563	2.34
234.946	1.35
235.33	3.54
235.713	1.99
236.096	2.53
236.479	2.82
236.862	0.51
237.245	0.65
237.628	2.67
238.011	-0.3
238.394	1.13
238.777	2.12
239.16	0.65
239.543	1.02
239.925	1.93
240.308	2.19
240.691	1.79
241.073	2.13
241.456	2.78
241.838	1.25
242.221	1.38
242.603	1.98
242.986	1.15
243.368	2.08
243.75	1.92
244.133	1.57
244.515	1.84
244.897	1.6
245.279	1.5
245.661	2.73
246.043	2.05
246.425	1.47
246.807	2.4
247.189	1.75
247.571	1.93
247.953	1.97
248.335	1.75
248.717	1.75
249.098	1.71
249.48	1.69
249.862	2.4
250.243	1.74
250.625	1.71
251.006	1.86
251.388	2.67
251.769	2.33
252.151	3.47
252.532	2.3
252.913	1.38
253.295	2.41
253.676	1.67
254.057	1.82
254.438	1.72
254.819	2.31
255.2	1.74
255.581	2
255.962	2.39
256.343	1.41
256.724	2.5
257.105	2.23
257.486	1.61
257.867	3.65
258.247	2.99
258.628	1.49
259.009	1.65
259.389	1.5
259.77	2.45
260.15	2.1
260.531	1.66
260.911	1.75
261.292	1.69
261.672	1.67
262.052	1.86
262.432	1.98
262.813	1.69
263.193	1.48
263.573	1.82
263.953	2.18
264.333	2.43
264.713	1.93
265.093	2.02
265.473	2.06
265.853	1.19
266.233	2.06
266.612	2.61
266.992	2.35
267.372	1.42
267.752	1.76
268.131	2.21
268.511	2.34
268.89	2.22
269.27	1.57
269.649	1.64
270.029	1.83
270.408	2.24
270.787	2.36
271.167	2.09
271.546	2.21
271.925	2.23
272.304	1.94
272.683	1.7
273.062	1.81
273.441	1.85
273.82	1.8
274.199	1.98
274.578	1.74
274.957	1.76
275.336	1.69
275.715	1.9
276.093	2.15
276.472	2.06
276.851	1.47
277.229	1.71
277.608	2.04
277.986	2.41
278.365	2.32
278.743	2.13
279.122	1.69
279.5	2.01
279.878	1.8
280.257	2.06
280.635	1.39
281.013	1.79
281.391	1.89
281.769	2.35
282.147	1.48
282.525	1.77
282.903	2.28
283.281	2.03
283.659	1.73
284.037	1.86
284.415	1.5
284.792	2.19
285.17	1.65
285.548	2.29
285.925	1.59
286.303	2.22
286.68	2.19
287.058	1.92
287.435	1.85
287.813	1.7
288.19	1.94
288.567	2.03
288.945	2.03
289.322	2.08
289.699	2.19
290.076	2.29
290.453	1.63
290.83	1.73
291.207	1.89
291.584	2.13
291.961	2.4
292.338	2.24
292.715	2.04
293.092	2.28
293.469	2.1
293.845	2.33
294.222	2.24
294.599	2
294.975	2.13
295.352	2.24
295.728	2.83
296.105	2.43
296.481	2.18
296.858	2.53
297.234	2.6
297.61	2.57
297.986	1.93
298.363	2.32
298.739	2.54
299.115	2.47
299.491	2.46
299.867	2.27
300.243	2.37
300.619	2.77
300.995	2.88
301.371	3.07
301.746	1.92
302.122	2.95
302.498	3.2
302.874	2.91
303.249	2.82
303.625	2.41
304	3.08
304.376	2.42
304.751	2.67
305.127	2.75
305.502	3.09
305.878	2.46
306.253	3.14
306.628	2.86
307.003	2.79
307.378	3.12
307.754	2.94
308.129	2.79
308.504	2.81
308.879	3.12
309.254	3.24
309.629	3.3
310.003	2.78
310.378	3.15
310.753	3.49
311.128	3.06
311.502	2.78
311.877	3.12
312.252	3.31
312.626	3.25
313.001	3.58
313.375	3.18
313.75	3.38
314.124	3.44
314.498	3.62
314.873	3.33
315.247	3.46
315.621	3.28
315.995	3.89
316.369	3.53
316.743	4
317.117	4.24
317.491	3.84
317.865	3.91
318.239	3.62
318.613	4.09
318.987	3.97
319.361	4.21
319.734	4.12
320.108	4.02
320.482	3.6
320.855	4.1
321.229	4.02
321.602	4.49
321.976	4.01
322.349	4.43
322.723	4.22
323.096	4.18
323.469	4.28
323.843	4.5
324.216	4.4
324.589	4.31
324.962	4.5
325.335	3.84
325.708	4.01
326.081	4.52
326.454	4.5
326.827	4.62
327.2	4.23
327.573	4.01
327.945	5.02
328.318	4.33
328.691	4.47
329.063	4.82
329.436	5.09
329.809	4.31
330.181	4.63
330.553	4.86
330.926	4.74
331.298	4.46
331.671	4.81
332.043	5.12
332.415	4.82
332.787	4.54
333.159	4.14
333.532	4.56
333.904	5.33
334.276	4.69
334.648	5.12
335.02	4.72
335.391	5.19
335.763	4.96
336.135	4.71
336.507	5.21
336.879	5.32
337.25	5.29
337.622	5.1
337.993	4.99
338.365	5.17
338.736	5.32
339.108	5.82
339.479	5
339.851	5.19
340.222	5.38
340.593	5.39
340.964	5.43
341.336	5.14
341.707	5.23
342.078	5.67
342.449	5.4
342.82	4.99
343.191	5.26
343.562	5.55
343.933	5.71
344.303	5.54
344.674	5.4
345.045	4.76
345.416	5.35
345.786	5.8
346.157	5.85
346.527	5.85
346.898	5.98
347.268	5.76
347.639	5.74
348.009	6.06
348.38	5.85
348.75	5.58
349.12	5.4
349.49	5.99
349.861	5.76
350.231	6.08
350.601	5.86
350.971	5.91
351.341	5.95
351.711	6.15
352.081	5.8
352.45	5.76
352.82	6.11
353.19	5.99
353.56	6.12
353.929	6.14
354.299	6.64
354.669	6.73
355.038	6.61
355.408	6.14
355.777	6.17
356.147	6.14
356.516	6.17
356.885	6.13
357.254	6.39
357.624	6.48
357.993	6.17
358.362	6.37
358.731	6.6
359.1	6.56
359.469	6.63
359.838	6.68
360.207	6.67
360.576	6.77
360.945	6.56
361.314	6.65
361.682	6.47
362.051	6.57
362.42	6.98
362.788	6.54
363.157	6.69
363.525	6.73
363.894	6.64
364.262	6.78
364.631	6.97
364.999	7.01
365.367	6.99
365.735	7.16
366.104	6.9
366.472	7
366.84	6.76
367.208	7.08
367.576	6.72
367.944	7.27
368.312	7.3
368.68	7.2
369.048	7.12
369.416	7.2
369.783	6.95
370.151	7.06
370.519	7.5
370.886	7.31
371.254	7.27
371.621	7.36
371.989	7.27
372.356	7.46
372.724	7.25
373.091	7.61
373.458	7.56
373.826	7.27
374.193	7.44
374.56	7.57
374.927	8.02
375.294	7.54
375.661	7.73
376.028	7.45
376.395	7.92
376.762	7.71
377.129	7.85
377.496	7.88
377.863	7.86
378.229	7.69
378.596	7.74
378.963	7.72
379.329	7.89
379.696	8.03
380.062	8.18
380.429	7.75
380.795	7.96
381.161	8.19
381.528	8.25
381.894	8.25
382.26	8.12
382.626	8.14
382.993	8.32
383.359	8.05
383.725	8.16
384.091	8.21
384.457	8.13
384.823	8.39
385.188	8.16
385.554	8.16
385.92	8.03
386.286	8.25
386.651	8.57
387.017	8.06
387.383	8.5
387.748	8.38
388.114	8.52
388.479	9.06
388.845	8.76
389.21	8.84
389.575	8.87
389.94	8.73
390.306	8.6
390.671	8.7
391.036	8.59
391.401	8.83
391.766	8.69
392.131	8.47
392.496	8.95
392.861	8.99
393.226	8.82
393.591	8.76
393.956	9.02
394.32	8.65
394.685	9.12
395.05	9.04
395.414	9.06
395.779	9.07
396.143	8.88
396.508	9.22
396.872	9.16
397.236	9.17
397.601	9.05
397.965	9.1
398.329	9.27
398.694	9.22
399.058	9.35
399.422	9.16
399.786	9.15
400.15	9.43
400.514	9.2
400.878	9.53
401.242	9.44
401.605	9.41
401.969	9.59
402.333	9.51
402.697	9.63
403.06	9.82
403.424	9.43
403.787	9.66
404.151	9.66
404.514	9.79
404.878	9.75
405.241	9.73
405.604	9.88
405.968	9.74
406.331	9.57
406.694	9.71
407.057	9.92
407.42	9.75
407.783	9.57
408.146	9.91
408.509	10.08
408.872	10.13
409.235	9.83
409.598	10
409.961	10.22
410.323	9.78
410.686	10.08
411.049	10.12
411.411	9.99
411.774	10.28
412.136	10.17
412.499	10.28
412.861	10.22
413.223	10.19
413.586	10.34
413.948	10.41
414.31	10.44
414.672	10.38
415.035	10.66
415.397	10.45
415.759	10.61
416.121	10.37
416.483	10.43
416.845	10.42
417.206	10.39
417.568	10.64
417.93	10.48
418.292	10.52
418.653	10.57
419.015	10.47
419.377	10.5
419.738	10.53
420.1	10.75
420.461	10.56
420.822	10.51
421.184	10.71
421.545	10.48
421.906	10.48
422.267	10.49
422.629	10.64
422.99	10.57
423.351	10.43
423.712	10.46
424.073	10.68
424.434	10.58
424.795	10.76
425.155	10.8
425.516	10.68
425.877	10.73
426.238	10.77
426.598	10.84
426.959	10.77
427.32	10.79
427.68	11.02
428.041	10.9
428.401	11.14
428.761	11.17
429.122	11.07
429.482	11.16
429.842	11.06
430.202	11.5
430.563	11.53
430.923	11.61
431.283	11.31
431.643	11.4
432.003	11.67
432.363	11.44
432.722	11.41
433.082	11.66
433.442	11.49
433.802	11.38
434.161	11.47
434.521	11.66
434.881	11.56
435.24	11.52
435.6	11.62
435.959	11.46
436.319	11.59
436.678	11.7
437.037	11.69
437.396	11.75
437.756	11.9
438.115	11.83
438.474	12
438.833	11.84
439.192	11.78
439.551	11.97
439.91	12
440.269	11.94
440.628	12.05
440.987	11.9
441.345	11.97
441.704	11.92
442.063	11.83
442.421	12.06
442.78	12.05
443.138	11.96
443.497	11.98
443.855	11.98
444.214	12.24
444.572	12.2
444.93	12.26
445.288	12.31
445.647	12.2
446.005	12.35
446.363	12.32
446.721	12.29
447.079	12.28
447.437	12.25
447.795	12.29
448.153	12.21
448.51	12.35
448.868	12.34
449.226	12.4
449.584	12.36
449.941	12.37
450.299	12.52
450.656	12.49
451.014	12.6
451.371	12.96
451.729	12.86
452.086	12.78
452.443	12.8
452.801	12.94
453.158	12.95
453.515	13.05
453.872	12.94
454.229	13.14
454.586	12.95
454.943	13.2
455.3	13.13
455.657	13.05
456.014	13.09
456.371	13.14
456.727	13.37
457.084	13.36
457.441	13.29
457.797	13.38
458.154	13.41
458.51	13.44
458.867	13.13
459.223	13.32
459.58	13.66
459.936	13.24
460.292	13.2
460.648	13.36
461.005	13.38
461.361	13.24
461.717	13.19
462.073	13.37
462.429	13.42
462.785	13.34
463.141	13.39
463.496	13.47
463.852	13.61
464.208	13.68
464.564	13.67
464.919	13.88
465.275	13.87
465.631	13.87
465.986	13.97
466.342	13.92
466.697	14.07
467.052	13.93
467.408	13.88
467.763	14.03
468.118	14.13
468.473	14.08
468.829	14.12
469.184	14.23
469.539	13.96
469.894	14.27
470.249	14.3
470.603	14.22
470.958	14.17
471.313	14.11
471.668	14.29
472.023	14.35
472.377	14.54
472.732	14.32
473.086	14.44
473.441	14.59
473.795	14.64
474.15	14.52
474.504	14.53
474.859	14.52
475.213	14.65
475.567	14.67
475.921	14.79
476.275	14.62
476.63	14.65
476.984	14.77
477.338	14.98
477.692	14.85
478.045	14.84
478.399	14.62
478.753	14.91
479.107	15
479.461	14.94
479.814	15.06
480.168	14.93
480.521	14.79
480.875	15.03
481.228	15.2
481.582	14.97
481.935	15.05
482.289	14.99
482.642	15.26
482.995	15.08
483.348	14.97
483.701	14.99
484.055	14.99
484.408	14.95
484.761	14.73
485.114	14.54
485.466	14.36
485.819	14.34
486.172	14.52
486.525	14.6
486.878	14.75
487.23	14.68
487.583	14.77
487.936	14.82
488.288	14.98
488.641	14.94
488.993	14.87
489.345	14.78
489.698	14.91
490.05	14.9
490.402	14.96
490.754	15.06
491.107	15.25
491.459	15.24
491.811	15.43
492.163	15.55
492.515	15.58
492.866	15.35
493.218	15.17
493.57	15.18
493.922	15.37
494.274	15.46
494.625	15.57
494.977	15.63
495.328	15.69
495.68	15.72
496.031	15.94
496.383	16.18
496.734	16.12
497.086	16.38
497.437	16.35
497.788	16.3
498.139	16.28
498.49	16.15
498.842	16.19
499.193	16.2
499.544	16.29
499.894	16.37
500.245	16.34
500.596	16.5
500.947	16.35
501.298	16.49
501.648	16.7
501.999	16.8
502.35	16.72
502.7	16.79
503.051	16.87
503.401	16.85
503.752	17
504.102	17.03
504.452	17.01
504.803	17.05
505.153	17.01
505.503	17.05
505.853	17.02
506.203	17.16
506.553	17.18
506.903	17.15
507.253	17.19
507.603	17.11
507.953	17.17
508.303	17.34
508.652	17.07
509.002	17.32
509.352	17.46
509.701	17.38
510.051	17.32
510.4	17.37
510.75	17.3
511.099	17.37
511.449	17.35
511.798	17.43
512.147	17.47
512.496	17.43
512.846	17.44
513.195	17.55
513.544	17.37
513.893	17.54
514.242	17.48
514.591	17.51
514.939	17.76
515.288	17.72
515.637	17.81
515.986	17.81
516.334	17.94
516.683	18.02
517.032	18.04
517.38	18.06
517.729	18.08
518.077	18.1
518.426	18
518.774	18.11
519.122	18.05
519.47	18.04
519.819	17.94
520.167	18.05
520.515	17.86
520.863	17.93
521.211	18.03
521.559	18.11
521.907	18.05
522.255	18.26
522.602	18.32
522.95	18.22
523.298	18.4
523.645	18.53
523.993	18.59
524.341	18.55
524.688	18.55
525.036	18.52
525.383	18.7
525.73	18.77
526.078	18.71
526.425	18.48
526.772	18.58
527.119	18.45
527.466	18.45
527.814	18.45
528.161	18.4
528.508	18.52
528.854	18.58
529.201	18.49
529.548	18.53
529.895	18.25
530.242	18.03
530.588	18.16
530.935	18.28
531.282	18.47
531.628	18.39
531.975	18.38
532.321	18.53
532.667	18.69
533.014	18.83
533.36	18.85
533.706	18.98
534.052	18.97
534.399	19.05
534.745	18.89
535.091	18.81
535.437	18.86
535.783	18.96
536.129	19.06
536.474	19.15
536.82	19.14
537.166	19.24
537.512	19.3
537.857	19.47
538.203	19.37
538.549	19.29
538.894	19.53
539.239	19.64
539.585	19.62
539.93	19.62
540.276	19.77
540.621	19.81
540.966	20.01
541.311	20.07
541.656	20.1
542.001	19.94
542.346	19.91
542.691	19.73
543.036	19.45
543.381	19.53
543.726	19.68
544.071	19.72
544.415	19.81
544.76	19.71
545.105	19.83
545.449	19.94
545.794	20.1
546.138	20.19
546.483	20.34
546.827	20.24
547.171	20.52
547.516	20.48
547.86	20.51
548.204	20.53
548.548	20.36
548.892	20.54
549.236	20.57
549.58	20.59
549.924	20.9
550.268	20.98
550.612	20.91
550.956	21
551.3	21.18
551.643	21.21
551.987	20.99
552.33	21.22
552.674	21.38
553.017	21.39
553.361	21.69
553.704	21.36
554.048	21.53
554.391	21.27
554.734	21.58
555.077	21.56
555.42	21.65
555.764	21.51
556.107	21.6
556.45	21.53
556.793	21.77
557.135	21.85
557.478	21.67
557.821	22
558.164	21.97
558.507	21.99
558.849	22.14
559.192	22.13
559.534	22.18
559.877	22.25
560.219	22.21
560.562	22.31
560.904	22.29
561.246	22.2
561.589	22.58
561.931	22.18
562.273	22.42
562.615	22.22
562.957	22.61
563.299	22.39
563.641	22.24
563.983	22.41
564.325	22.52
564.667	22.64
565.008	22.65
565.35	22.48
565.692	22.95
566.033	22.63
566.375	22.89
566.716	22.8
567.058	22.75
567.399	22.82
567.741	22.83
568.082	22.67
568.423	22.67
568.764	22.7
569.105	22.73
569.447	23.05
569.788	23.06
570.129	23.1
570.47	23.07
570.811	23.21
571.151	23.18
571.492	23.16
571.833	23.15
572.174	23.3
572.514	23.18
572.855	23.07
573.195	23.36
573.536	23.1
573.876	23.21
574.217	23.27
574.557	23.29
574.898	23.36
575.238	23.22
575.578	23.55
575.918	23.58
576.258	23.47
576.598	23.81
576.938	23.79
577.278	23.47
577.618	23.56
577.958	23.72
578.298	23.81
578.638	23.66
578.977	24.08
579.317	23.94
579.657	24.03
579.996	24.12
580.336	24.4
580.675	24.01
581.014	24.23
581.354	24.23
581.693	24.53
582.032	24.07
582.372	24.5
582.711	24.43
583.05	24.47
583.389	24.52
583.728	24.77
584.067	24.54
584.406	24.44
584.745	24.53
585.083	24.99
585.422	24.66
585.761	24.89
586.1	24.85
586.438	25.03
586.777	25
587.115	25.08
587.454	25.1
587.792	25.37
588.13	25.05
588.469	25.31
588.807	25.11
589.145	25.3
589.483	24.98
589.821	25.41
590.159	25.08
590.497	25.45
590.835	25.38
591.173	25.34
591.511	25.51
591.849	25.47
592.187	25.26
592.524	25.26
592.862	25.32
593.2	25.44
593.537	25.51
593.875	25.53
594.212	25.53
594.55	25.57
594.887	25.87
595.224	25.55
595.561	25.54
595.899	25.8
596.236	25.79
596.573	25.77
596.91	25.7
597.247	25.82
597.584	25.9
597.921	25.95
598.258	25.66
598.594	25.39
598.931	25.96
599.268	25.86
599.604	25.71
599.941	25.8
600.277	26.03
600.614	26.14
600.95	26.29
601.287	25.98
601.623	26.19
601.959	26.46
602.296	26.14
602.632	26.5
602.968	26.52
603.304	26.32
603.64	26.53
603.976	26.14
604.312	26.97
604.648	26.64
604.984	26.52
605.319	26.57
605.655	26.25
605.991	26.37
606.326	26.56
606.662	26.46
606.998	26.32
607.333	26.39
607.668	26.77
608.004	26.68
608.339	26.74
608.674	27.1
609.01	26.95
609.345	27.14
609.68	26.96
610.015	27.28
610.35	27.3
610.685	27.25
611.02	26.85
611.355	27.08
611.689	26.96
612.024	27.24
612.359	27.15
612.694	27.27
613.028	27.49
613.363	27.4
613.697	27.44
614.032	27.68
614.366	27.51
614.7	27.63
615.035	27.67
615.369	27.32
615.703	27.87
616.037	27.65
616.371	28.03
616.705	27.8
617.039	27.94
617.373	27.83
617.707	28.11
618.041	28.26
618.375	28.15
618.709	28.04
619.042	28.33
619.376	27.94
619.71	28.04
620.043	27.93
620.377	28.06
620.71	28.55
621.043	28.35
621.377	28.07
621.71	28.48
622.043	28.27
622.376	28.38
622.709	28.02
623.043	28.62
623.376	28.81
623.709	28.4
624.041	28.39
624.374	28.72
624.707	28.21
625.04	29.16
625.373	28.69
625.705	28.52
626.038	28.59
626.37	28.65
626.703	28.85
627.035	28.6
627.368	28.8
627.7	28.41
628.032	29
628.365	28.75
628.697	28.72
629.029	29.03
629.361	29.21
629.693	29.06
630.025	29.02
630.357	29.28
630.689	29.34
631.021	28.94
631.353	29.32
631.684	29.09
632.016	29.41
632.348	29.29
632.679	29.26
633.011	29.29
633.342	29.1
633.674	29.51
634.005	29.77
634.336	29.69
634.668	29.39
634.999	29.71
635.33	29.4
635.661	29.61
635.992	29.61
636.323	29.79
636.654	29.67
636.985	29.86
637.316	29.97
637.647	29.96
637.977	29.92
638.308	30.45
638.639	30.33
638.969	29.98
639.3	30.66
639.63	30.25
639.961	29.73
640.291	30.12
640.622	30.22
640.952	30.23
641.282	29.87
641.612	30.67
641.943	30.06
642.273	29.97
642.603	30.3
642.933	29.99
643.263	30.19
643.592	30.29
643.922	31.2
644.252	30.45
644.582	30.35
644.911	30.82
645.241	30.41
645.571	30.33
645.9	30.88
646.23	30.38
646.559	30.99
646.888	30.89
647.218	30.85
647.547	30.67
647.876	30.97
648.205	30.89
648.534	31.44
648.863	30.86
649.192	31.06
649.521	30.68
649.85	31.35
650.179	31.29
650.508	31.09
650.837	31.61
651.165	31.32
651.494	31.4
651.822	31.64
652.151	30.87
652.479	31.05
652.808	31.24
653.136	31.3
653.465	31.45
653.793	31.62
654.121	31.26
654.449	30.72
654.777	31.34
655.105	31.58
655.433	31.47
655.761	31.93
656.089	31.39
656.417	31.74
656.745	31.49
657.073	31.61
657.4	31.83
657.728	31.72
658.056	31.71
658.383	31.83
658.711	32
659.038	32.05
659.365	31.67
659.693	32
660.02	31.78
660.347	32.11
660.674	31.82
661.001	32.14
661.329	31.75
661.656	31.82
661.982	31.62
662.309	32.17
662.636	32.18
662.963	31.9
663.29	32.04
663.616	32.33
663.943	32.36
664.27	32.79
664.596	32.08
664.923	32.25
665.249	33.01
665.576	32.66
665.902	32.62
666.228	32.69
666.554	32.79
666.881	32.47
667.207	32.98
667.533	32.18
667.859	33.02
668.185	32.6
668.511	32.84
668.837	32.94
669.162	33.37
669.488	32.28
669.814	33.35
670.139	32.95
670.465	33.12
670.791	32.98
671.116	32.97
671.442	33.1
671.767	33.3
672.092	33.36
672.418	33.7
672.743	32.88
673.068	32.91
673.393	33.43
673.718	33.58
674.043	33.09
674.368	32.85
674.693	33.53
675.018	33.56
675.343	33.26
