Data from 0038_chest_Reflection__1__31.txt Node

Date: Fri Nov 04 14:55:41 CDT 2022
User: ToomeyLab
Spectrometer: FLMS14357
Trigger mode: 0
Integration Time (sec): 1.000000E-2
Scans to average: 100
Electric dark correction enabled: true
Nonlinearity correction enabled: false
Boxcar width: 0
XAxis mode: Wavelengths
Number of Pixels in Spectrum: 2048
>>>>>Begin Spectral Data<<<<<
189.047	16.64
189.435	16.64
189.823	16.64
190.211	40.87
190.599	-229.76
190.987	8.46
191.375	296.35
191.763	30.63
192.151	410.27
192.538	36
192.926	18.19
193.314	-544.78
193.702	-443.69
194.089	297.39
194.477	40.72
194.864	-178.05
195.252	75.8
195.639	-43.73
196.027	406.91
196.414	270.45
196.801	41.93
197.189	-26.99
197.576	42.82
197.963	-569.44
198.351	-65.18
198.738	17.93
199.125	-21.93
199.512	-16.91
199.899	-0.38
200.286	-35.46
200.673	-10
201.06	-26.02
201.447	-1.75
201.833	17.4
202.22	-14.66
202.607	6.17
202.994	20.26
203.38	20.47
203.767	36.17
204.154	32.19
204.54	-43.77
204.927	-0.78
205.313	23.07
205.699	31.87
206.086	5.2
206.472	-20.38
206.858	-29.56
207.245	-7.66
207.631	16.87
208.017	26.26
208.403	-10.7
208.789	24.98
209.175	-17.73
209.561	-20.72
209.947	-83.27
210.333	-10.14
210.719	17.35
211.105	-25.65
211.491	-4.98
211.876	-9.08
212.262	5.93
212.648	-18.62
213.034	27.93
213.419	1.06
213.805	-19.22
214.19	-42.94
214.576	-31.23
214.961	3.59
215.346	-13.94
215.732	20.99
216.117	13.03
216.502	9.68
216.888	1.86
217.273	25.04
217.658	-1.01
218.043	-1.98
218.428	17.64
218.813	1.51
219.198	2.63
219.583	-36.51
219.968	4.99
220.353	-26.33
220.738	-14.94
221.122	7.26
221.507	17.83
221.892	-9.17
222.276	-22.07
222.661	4.64
223.046	5.98
223.43	13.23
223.815	-5.11
224.199	10.02
224.583	5.91
224.968	6.63
225.352	2.53
225.736	1.82
226.121	-9.29
226.505	6.55
226.889	-6.38
227.273	1.18
227.657	-0.47
228.041	3.61
228.425	1.43
228.809	3.55
229.193	1.14
229.577	0.24
229.961	1.87
230.344	3.07
230.728	2.05
231.112	1.45
231.495	1.2
231.879	1.5
232.263	1.65
232.646	1.05
233.03	1.16
233.413	0.64
233.797	0.34
234.18	-0.2
234.563	1.07
234.946	1.71
235.33	2.02
235.713	0.97
236.096	0.95
236.479	1.39
236.862	0.35
237.245	0.4
237.628	1.09
238.011	-0.24
238.394	2.25
238.777	2.49
239.16	3.56
239.543	0.24
239.925	1.53
240.308	3.19
240.691	1.05
241.073	0.67
241.456	1.83
241.838	1.54
242.221	1.23
242.603	1.52
242.986	1.04
243.368	1.89
243.75	1.8
244.133	1.7
244.515	1.77
244.897	1.33
245.279	1.72
245.661	1.81
246.043	1.94
246.425	1.7
246.807	2.42
247.189	1.56
247.571	1.91
247.953	1.37
248.335	1.37
248.717	1.82
249.098	1.7
249.48	1.65
249.862	2.01
250.243	1.69
250.625	1.41
251.006	1.8
251.388	1.93
251.769	2.05
252.151	2.19
252.532	1.82
252.913	0.91
253.295	1.72
253.676	1.19
254.057	1.61
254.438	1.32
254.819	1.76
255.2	0.95
255.581	2.29
255.962	1.71
256.343	1.2
256.724	1.09
257.105	0.56
257.486	2.06
257.867	2.32
258.247	3.05
258.628	1.08
259.009	1.83
259.389	1.89
259.77	1.63
260.15	1.95
260.531	1.65
260.911	1.35
261.292	1.56
261.672	1.52
262.052	1.66
262.432	1.7
262.813	1.31
263.193	1.2
263.573	1.68
263.953	1.27
264.333	1.83
264.713	1.6
265.093	1.24
265.473	2.26
265.853	1.23
266.233	2.18
266.612	1.05
266.992	2.26
267.372	1.13
267.752	1.7
268.131	2.01
268.511	1.84
268.89	1.81
269.27	1.64
269.649	1.52
270.029	1.47
270.408	1.57
270.787	1.79
271.167	1.68
271.546	2.09
271.925	1.53
272.304	1.71
272.683	1.52
273.062	1.42
273.441	1.81
273.82	1.15
274.199	1.4
274.578	1.32
274.957	1.48
275.336	0.77
275.715	1.48
276.093	1.68
276.472	1.26
276.851	1.39
277.229	1.71
277.608	1.77
277.986	2.04
278.365	1.64
278.743	1.76
279.122	1.68
279.5	1.43
279.878	1.27
280.257	1.33
280.635	1.31
281.013	1.19
281.391	1.96
281.769	1.8
282.147	1.39
282.525	1.4
282.903	1.49
283.281	1.79
283.659	1.31
284.037	1.2
284.415	1.49
284.792	1.97
285.17	1.61
285.548	1.62
285.925	1.31
286.303	1.54
286.68	1.48
287.058	1.57
287.435	1.4
287.813	1.51
288.19	1.78
288.567	1.33
288.945	1.51
289.322	1.78
289.699	1.63
290.076	1.54
290.453	1.37
290.83	1.51
291.207	1.48
291.584	1.5
291.961	1.76
292.338	1.75
292.715	1.53
293.092	1.71
293.469	1.56
293.845	1.42
294.222	1.27
294.599	1.3
294.975	1.47
295.352	1.37
295.728	2.03
296.105	1.74
296.481	1.33
296.858	1.5
297.234	1.84
297.61	1.49
297.986	1.32
298.363	1.53
298.739	1.63
299.115	1.37
299.491	1.58
299.867	1.59
300.243	1.42
300.619	1.8
300.995	1.7
301.371	1.98
301.746	1.58
302.122	1.35
302.498	1.56
302.874	1.75
303.249	1.5
303.625	1.49
304	1.46
304.376	1.44
304.751	1.46
305.127	1.01
305.502	1.46
305.878	1.65
306.253	1.86
306.628	1.39
307.003	1.76
307.378	1.56
307.754	1.66
308.129	1.35
308.504	1.63
308.879	1.67
309.254	1.77
309.629	1.71
310.003	1.54
310.378	2.01
310.753	1.84
311.128	1.31
311.502	1.41
311.877	1.15
312.252	1.57
312.626	1.64
313.001	1.33
313.375	1.53
313.75	1.67
314.124	1.28
314.498	1.53
314.873	1.78
315.247	2.17
315.621	1.53
315.995	1.83
316.369	1.4
316.743	2.12
317.117	1.96
317.491	1.76
317.865	1.64
318.239	2.05
318.613	1.59
318.987	1.7
319.361	1.37
319.734	1.71
320.108	1.43
320.482	1.34
320.855	2.18
321.229	1.78
321.602	1.08
321.976	1.39
322.349	2.39
322.723	1.69
323.096	1.89
323.469	1.64
323.843	1.69
324.216	1.5
324.589	1.76
324.962	2.46
325.335	2.05
325.708	1.71
326.081	1.49
326.454	1.52
326.827	1.97
327.2	1.39
327.573	1.37
327.945	1.74
328.318	1.1
328.691	1.63
329.063	1.48
329.436	1.65
329.809	1.78
330.181	1.3
330.553	1.83
330.926	2.24
331.298	1.69
331.671	1.63
332.043	1.39
332.415	1.58
332.787	1.58
333.159	1.44
333.532	1.29
333.904	1.93
334.276	1.48
334.648	1.66
335.02	1.67
335.391	2.05
335.763	1.67
336.135	1.88
336.507	1.53
336.879	1.97
337.25	1.76
337.622	1.79
337.993	1.61
338.365	1.75
338.736	1.95
339.108	1.99
339.479	1.48
339.851	1.14
340.222	1.45
340.593	1.59
340.964	1.49
341.336	0.97
341.707	1.29
342.078	1.77
342.449	1.78
342.82	1.86
343.191	1.34
343.562	1.98
343.933	1.92
344.303	1.65
344.674	1.83
345.045	1.65
345.416	1.45
345.786	1.89
346.157	1.78
346.527	1.8
346.898	1.93
347.268	1.34
347.639	1.55
348.009	1.94
348.38	1.54
348.75	1.77
349.12	1.39
349.49	1.65
349.861	1.71
350.231	2
350.601	1.68
350.971	1.41
351.341	2.03
351.711	1.74
352.081	1.71
352.45	1.6
352.82	1.5
353.19	1.41
353.56	1.94
353.929	1.84
354.299	1.75
354.669	2.12
355.038	1.73
355.408	1.65
355.777	1.95
356.147	1.71
356.516	1.69
356.885	1.52
357.254	1.99
357.624	1.69
357.993	1.69
358.362	1.64
358.731	2.01
359.1	1.58
359.469	1.76
359.838	1.95
360.207	1.58
360.576	1.87
360.945	2.05
361.314	2.04
361.682	1.71
362.051	2.11
362.42	1.9
362.788	1.65
363.157	1.7
363.525	1.82
363.894	1.82
364.262	1.9
364.631	2.1
364.999	1.79
365.367	1.92
365.735	2.01
366.104	1.83
366.472	1.73
366.84	1.31
367.208	1.79
367.576	1.61
367.944	1.71
368.312	1.96
368.68	1.56
369.048	1.6
369.416	1.6
369.783	1.29
370.151	1.64
370.519	2.03
370.886	1.52
371.254	1.82
371.621	2.12
371.989	1.43
372.356	1.53
372.724	1.83
373.091	1.78
373.458	1.94
373.826	2.11
374.193	1.61
374.56	1.61
374.927	1.67
375.294	1.66
375.661	1.95
376.028	1.75
376.395	1.81
376.762	1.8
377.129	1.94
377.496	2.04
377.863	1.75
378.229	1.75
378.596	1.8
378.963	1.9
379.329	1.56
379.696	1.65
380.062	1.98
380.429	1.76
380.795	1.82
381.161	1.7
381.528	1.82
381.894	1.65
382.26	1.67
382.626	1.65
382.993	2.16
383.359	1.87
383.725	1.74
384.091	1.75
384.457	2.1
384.823	2
385.188	1.89
385.554	1.7
385.92	1.6
386.286	1.76
386.651	1.95
387.017	1.82
387.383	1.5
387.748	1.71
388.114	1.54
388.479	2.23
388.845	1.9
389.21	2.1
389.575	2.06
389.94	1.85
390.306	2.02
390.671	1.97
391.036	1.74
391.401	2.15
391.766	1.65
392.131	1.8
392.496	1.78
392.861	2.01
393.226	1.89
393.591	1.92
393.956	2.12
394.32	1.81
394.685	2.07
395.05	2.06
395.414	1.82
395.779	1.85
396.143	1.64
396.508	1.92
396.872	1.76
397.236	2.03
397.601	1.94
397.965	1.8
398.329	1.9
398.694	2.04
399.058	1.88
399.422	1.57
399.786	1.76
400.15	1.97
400.514	1.84
400.878	1.88
401.242	2.11
401.605	1.89
401.969	2.15
402.333	2.09
402.697	1.99
403.06	2.14
403.424	1.89
403.787	2.04
404.151	2.22
404.514	1.95
404.878	2.04
405.241	1.93
405.604	2.04
405.968	1.96
406.331	1.76
406.694	1.65
407.057	1.87
407.42	1.96
407.783	1.77
408.146	1.96
408.509	1.87
408.872	1.91
409.235	1.89
409.598	1.81
409.961	1.93
410.323	1.83
410.686	1.86
411.049	1.98
411.411	1.91
411.774	2.13
412.136	2.17
412.499	2.06
412.861	1.94
413.223	1.9
413.586	1.93
413.948	2.01
414.31	2.05
414.672	2.04
415.035	2.06
415.397	1.89
415.759	2.08
416.121	1.93
416.483	2.11
416.845	1.84
417.206	1.96
417.568	2.05
417.93	1.92
418.292	2.08
418.653	2.17
419.015	1.86
419.377	1.91
419.738	1.96
420.1	2.01
420.461	2
420.822	1.9
421.184	1.96
421.545	1.92
421.906	1.99
422.267	1.85
422.629	2.09
422.99	1.86
423.351	1.8
423.712	1.97
424.073	1.97
424.434	1.9
424.795	1.94
425.155	2.09
425.516	2
425.877	1.81
426.238	1.95
426.598	1.96
426.959	1.91
427.32	1.99
427.68	1.93
428.041	1.93
428.401	1.99
428.761	2.15
429.122	1.96
429.482	1.96
429.842	1.79
430.202	2.1
430.563	1.92
430.923	2.1
431.283	1.98
431.643	2.16
432.003	2.21
432.363	2.05
432.722	2.12
433.082	2.17
433.442	1.99
433.802	2.02
434.161	2.19
434.521	1.99
434.881	2.05
435.24	1.89
435.6	2.07
435.959	2
436.319	1.92
436.678	2.09
437.037	2.03
437.396	2.2
437.756	2.05
438.115	1.95
438.474	2.12
438.833	2.15
439.192	2.09
439.551	2.11
439.91	1.98
440.269	1.98
440.628	2.13
440.987	2.07
441.345	2.05
441.704	2.1
442.063	1.97
442.421	1.98
442.78	2.19
443.138	2.09
443.497	2.01
443.855	1.97
444.214	2.2
444.572	2.08
444.93	2.04
445.288	2.19
445.647	1.95
446.005	2
446.363	2.05
446.721	1.94
447.079	2.03
447.437	1.98
447.795	2.15
448.153	1.99
448.51	2.08
448.868	1.97
449.226	1.97
449.584	2.07
449.941	2.01
450.299	2.14
450.656	2.13
451.014	2.19
451.371	2.28
451.729	2.17
452.086	2.05
452.443	2.16
452.801	2.13
453.158	2.28
453.515	2.16
453.872	1.96
454.229	2.1
454.586	2.12
454.943	2.27
455.3	2.19
455.657	2.06
456.014	2.06
456.371	2.04
456.727	2.24
457.084	2.19
457.441	2.09
457.797	2.17
458.154	2.19
458.51	2.27
458.867	2.1
459.223	2.2
459.58	2.44
459.936	2.06
460.292	2.01
460.648	2.11
461.005	2.01
461.361	2.06
461.717	2.14
462.073	2.11
462.429	2.24
462.785	2.15
463.141	2.13
463.496	2.04
463.852	2.23
464.208	2.26
464.564	2.16
464.919	2.25
465.275	2.27
465.631	2.19
465.986	2.14
466.342	2.06
466.697	2.2
467.052	2.18
467.408	2.11
467.763	2.11
468.118	2.27
468.473	2.17
468.829	2.06
469.184	2.16
469.539	2.03
469.894	2.38
470.249	2.22
470.603	2.15
470.958	2.06
471.313	2.24
471.668	2.1
472.023	2.11
472.377	2.27
472.732	2.21
473.086	2.32
473.441	2.2
473.795	2.14
474.15	2.18
474.504	2.22
474.859	2.26
475.213	2.25
475.567	2.14
475.921	2.22
476.275	2.2
476.63	2.23
476.984	2.14
477.338	2.16
477.692	2.33
478.045	2.18
478.399	2.11
478.753	2.32
479.107	2.3
479.461	2.32
479.814	2.37
480.168	2.24
480.521	2.1
480.875	2.18
481.228	2.22
481.582	2.28
481.935	2.22
482.289	2.22
482.642	2.22
482.995	2.27
483.348	2.22
483.701	2.2
484.055	2.18
484.408	2.17
484.761	2.2
485.114	2.08
485.466	2.08
485.819	2.02
486.172	2.09
486.525	2.12
486.878	2.2
487.23	2.17
487.583	2.13
487.936	2.23
488.288	2.19
488.641	2.15
488.993	2.16
489.345	2.09
489.698	2.13
490.05	2.17
490.402	2.17
490.754	2.26
491.107	2.21
491.459	2.23
491.811	2.22
492.163	2.3
492.515	2.29
492.866	2.14
493.218	2.15
493.57	2.17
493.922	2.22
494.274	2.18
494.625	2.24
494.977	2.28
495.328	2.33
495.68	2.27
496.031	2.27
496.383	2.32
496.734	2.23
497.086	2.42
497.437	2.27
497.788	2.42
498.139	2.32
498.49	2.26
498.842	2.24
499.193	2.34
499.544	2.39
499.894	2.23
500.245	2.4
500.596	2.28
500.947	2.3
501.298	2.3
501.648	2.42
501.999	2.41
502.35	2.3
502.7	2.26
503.051	2.45
503.401	2.44
503.752	2.5
504.102	2.53
504.452	2.32
504.803	2.41
505.153	2.39
505.503	2.44
505.853	2.45
506.203	2.39
506.553	2.53
506.903	2.38
507.253	2.47
507.603	2.34
507.953	2.43
508.303	2.36
508.652	2.34
509.002	2.46
509.352	2.48
509.701	2.37
510.051	2.41
510.4	2.44
510.75	2.4
511.099	2.37
511.449	2.39
511.798	2.34
512.147	2.42
512.496	2.33
512.846	2.33
513.195	2.44
513.544	2.43
513.893	2.47
514.242	2.41
514.591	2.38
514.939	2.52
515.288	2.5
515.637	2.4
515.986	2.51
516.334	2.57
516.683	2.53
517.032	2.64
517.38	2.49
517.729	2.62
518.077	2.65
518.426	2.62
518.774	2.61
519.122	2.49
519.47	2.45
519.819	2.39
520.167	2.45
520.515	2.42
520.863	2.47
521.211	2.48
521.559	2.51
521.907	2.48
522.255	2.54
522.602	2.59
522.95	2.55
523.298	2.61
523.645	2.53
523.993	2.61
524.341	2.5
524.688	2.54
525.036	2.55
525.383	2.55
525.73	2.63
526.078	2.67
526.425	2.62
526.772	2.61
527.119	2.58
527.466	2.53
527.814	2.54
528.161	2.49
528.508	2.58
528.854	2.55
529.201	2.56
529.548	2.53
529.895	2.47
530.242	2.42
530.588	2.43
530.935	2.47
531.282	2.52
531.628	2.5
531.975	2.55
532.321	2.61
532.667	2.58
533.014	2.59
533.36	2.68
533.706	2.67
534.052	2.71
534.399	2.61
534.745	2.65
535.091	2.55
535.437	2.56
535.783	2.59
536.129	2.73
536.474	2.68
536.82	2.69
537.166	2.65
537.512	2.65
537.857	2.69
538.203	2.64
538.549	2.64
538.894	2.8
539.239	2.79
539.585	2.8
539.93	2.74
540.276	2.75
540.621	2.75
540.966	2.93
541.311	2.65
541.656	2.89
542.001	2.86
542.346	2.83
542.691	2.76
543.036	2.7
543.381	2.74
543.726	2.79
544.071	2.8
544.415	2.76
544.76	2.84
545.105	2.83
545.449	2.81
545.794	2.86
546.138	2.83
546.483	2.92
546.827	2.81
547.171	2.89
547.516	2.9
547.86	2.79
548.204	2.98
548.548	2.91
548.892	2.89
549.236	2.93
549.58	2.94
549.924	3.02
550.268	2.98
550.612	2.91
550.956	3.12
551.3	3.01
551.643	3.03
551.987	2.95
552.33	3.17
552.674	3.08
553.017	3.11
553.361	3.27
553.704	3.09
554.048	3.05
554.391	3.08
554.734	3.17
555.077	3.15
555.42	3.17
555.764	3.41
556.107	3.18
556.45	3.33
556.793	3.28
557.135	3.27
557.478	3.1
557.821	3.28
558.164	3.37
558.507	3.21
558.849	3.39
559.192	3.39
559.534	3.32
559.877	3.33
560.219	3.33
560.562	3.41
560.904	3.51
561.246	3.18
561.589	3.44
561.931	3.32
562.273	3.26
562.615	3.32
562.957	3.46
563.299	3.4
563.641	3.39
563.983	3.47
564.325	3.37
564.667	3.59
565.008	3.47
565.35	3.53
565.692	3.47
566.033	3.55
566.375	3.62
566.716	3.67
567.058	3.65
567.399	3.49
567.741	3.54
568.082	3.55
568.423	3.71
568.764	3.44
569.105	3.62
569.447	3.82
569.788	3.49
570.129	3.5
570.47	3.77
570.811	3.91
571.151	3.51
571.492	3.81
571.833	3.66
572.174	3.77
572.514	3.76
572.855	3.72
573.195	3.83
573.536	3.7
573.876	3.7
574.217	3.83
574.557	3.72
574.898	3.85
575.238	3.64
575.578	3.89
575.918	3.82
576.258	3.98
576.598	3.91
576.938	4.02
577.278	3.68
577.618	3.78
577.958	3.93
578.298	3.86
578.638	3.86
578.977	4.15
579.317	4.05
579.657	3.83
579.996	4.1
580.336	4.05
580.675	3.98
581.014	4.34
581.354	4.03
581.693	4.29
582.032	3.96
582.372	4.25
582.711	4.31
583.05	4.15
583.389	4.06
583.728	4.28
584.067	4.29
584.406	4.15
584.745	4.39
585.083	4.01
585.422	4.52
585.761	4.36
586.1	4.22
586.438	4.29
586.777	4.52
587.115	4.45
587.454	4.76
587.792	4.72
588.13	4.57
588.469	4.53
588.807	4.74
589.145	4.62
589.483	4.15
589.821	4.49
590.159	4.29
590.497	4.56
590.835	4.5
591.173	4.38
591.511	4.66
591.849	4.63
592.187	4.63
592.524	4.52
592.862	4.76
593.2	4.67
593.537	4.47
593.875	4.75
594.212	4.64
594.55	4.74
594.887	4.83
595.224	4.83
595.561	4.47
595.899	4.81
596.236	4.84
596.573	4.82
596.91	5
597.247	4.9
597.584	4.84
597.921	5.04
598.258	4.78
598.594	4.73
598.931	4.99
599.268	4.99
599.604	4.88
599.941	5.1
600.277	4.91
600.614	5.11
600.95	5.46
601.287	4.79
601.623	5.24
601.959	5.17
602.296	5.07
602.632	5.21
602.968	5.18
603.304	5.23
603.64	5.3
603.976	4.99
604.312	5.25
604.648	5.34
604.984	5.31
605.319	5.2
605.655	5.05
605.991	5.33
606.326	5.2
606.662	5.2
606.998	5.13
607.333	5.27
607.668	5.53
608.004	5.27
608.339	5.46
608.674	5.54
609.01	5.46
609.345	5.6
609.68	5.33
610.015	5.47
610.35	5.4
610.685	5.76
611.02	5.78
611.355	5.62
611.689	5.7
612.024	5.48
612.359	5.59
612.694	5.7
613.028	5.65
613.363	5.88
613.697	5.75
614.032	5.84
614.366	5.76
614.7	5.68
615.035	5.77
615.369	5.61
615.703	6.21
616.037	5.92
616.371	6.27
616.705	5.84
617.039	6.44
617.373	6.17
617.707	6.16
618.041	5.89
618.375	6.13
618.709	5.83
619.042	5.9
619.376	6.14
619.71	6.08
620.043	6.02
620.377	6.3
620.71	6.29
621.043	6.23
621.377	6.35
621.71	6.26
622.043	6.37
622.376	6.31
622.709	6.31
623.043	6.42
623.376	6.74
623.709	6.43
624.041	6.29
624.374	6.34
624.707	6.25
625.04	6.61
625.373	6.67
625.705	6.04
626.038	6.75
626.37	6.39
626.703	6.59
627.035	6.47
627.368	6.31
627.7	6.44
628.032	6.62
628.365	6.81
628.697	6.58
629.029	6.6
629.361	6.66
629.693	6.53
630.025	7.06
630.357	6.61
630.689	6.65
631.021	6.63
631.353	6.6
631.684	6.98
632.016	6.98
632.348	6.77
632.679	6.66
633.011	6.91
633.342	6.8
633.674	6.72
634.005	7.27
634.336	7.29
634.668	6.84
634.999	7.05
635.33	6.93
635.661	7.03
635.992	7.38
636.323	7.16
636.654	6.92
636.985	6.97
637.316	6.95
637.647	7.28
637.977	7.29
638.308	7.39
638.639	7.37
638.969	7.26
639.3	7.78
639.63	7.18
639.961	7.31
640.291	7.6
640.622	7.23
640.952	7.49
641.282	7.02
641.612	7.59
641.943	7.68
642.273	7.31
642.603	7.45
642.933	7.54
643.263	7.03
643.592	7.43
643.922	7.99
644.252	7.64
644.582	7.62
644.911	7.65
645.241	7.69
645.571	7.52
645.9	7.58
646.23	7.95
646.559	7.99
646.888	7.91
647.218	8.17
647.547	8.25
647.876	7.94
648.205	7.73
648.534	8.11
648.863	7.93
649.192	8.16
649.521	8
649.85	8.65
650.179	8.29
650.508	7.87
650.837	8.63
651.165	8.39
651.494	8.05
651.822	8.21
652.151	8.44
652.479	8.21
652.808	7.98
653.136	8.24
653.465	8.14
653.793	8.18
654.121	8.25
654.449	7.98
654.777	7.96
655.105	8.42
655.433	8.46
655.761	8.25
656.089	8.15
656.417	8.39
656.745	8.41
657.073	8.62
657.4	8.49
657.728	8.91
658.056	8.42
658.383	8.77
658.711	8.15
659.038	8.5
659.365	8.48
659.693	8.93
660.02	9.22
660.347	8.41
660.674	8.6
661.001	8.78
661.329	8.62
661.656	8.82
661.982	8.24
662.309	8.87
662.636	8.53
662.963	8.62
663.29	8.73
663.616	9.04
663.943	8.73
664.27	9.02
664.596	9.05
664.923	8.83
665.249	9.2
665.576	8.53
665.902	8.54
666.228	8.91
666.554	9.65
666.881	9.09
667.207	8.91
667.533	8.85
667.859	9.47
668.185	9.31
668.511	9.21
668.837	8.61
669.162	9.35
669.488	9.05
669.814	9.35
670.139	9.19
670.465	9.73
670.791	9.09
671.116	9.3
671.442	9.17
671.767	9.52
672.092	8.87
672.418	9.46
672.743	9.84
673.068	9.54
673.393	9.72
673.718	10.15
674.043	9.46
674.368	9.32
674.693	9.33
675.018	9.7
675.343	9.85
675.667	10.05
675.992	9.92
676.317	9.97
676.641	9.9
676.966	9.24
677.29	9.71
677.615	10.14
677.939	10.16
678.264	9.81
678.588	9.89
678.912	10.46
679.236	10.04
679.56	10.01
679.885	10.13
680.209	10.55
680.532	10.36
680.856	9.81
681.18	10.1
681.504	10.21
681.828	10.13
682.152	10.39
682.475	9.98
682.799	10.57
683.122	10.07
683.446	10.32
683.769	10.51
684.093	10.2
684.416	10.31
684.739	10.68
685.062	11.1
685.386	10.03
685.709	10.75
686.032	10.4
686.355	11.4
686.678	10.25
687.001	11.17
687.324	10.51
687.646	10.99
687.969	10.94
688.292	10.6
688.614	11.23
688.937	10.92
689.26	10.26
689.582	11.73
689.904	11.37
690.227	10.76
690.549	10.62
690.871	10.92
691.194	11.33
691.516	10.88
