Data from 0038_crown_Reflection__3__38.txt Node

Date: Fri Nov 04 14:58:30 CDT 2022
User: ToomeyLab
Spectrometer: FLMS14357
Trigger mode: 0
Integration Time (sec): 1.000000E-2
Scans to average: 100
Electric dark correction enabled: true
Nonlinearity correction enabled: false
Boxcar width: 0
XAxis mode: Wavelengths
Number of Pixels in Spectrum: 2048
>>>>>Begin Spectral Data<<<<<
189.047	6.4
189.435	6.4
189.823	6.4
190.211	-76.72
190.599	580.75
190.987	-143.64
191.375	249.2
191.763	33.42
192.151	135.21
192.538	39.48
192.926	14.94
193.314	-280.49
193.702	-323.48
194.089	292.1
194.477	86.13
194.864	-2.2
195.252	107.52
195.639	-62.97
196.027	89.1
196.414	58.41
196.801	10.98
197.189	9.21
197.576	111.94
197.963	-146.23
198.351	-31.71
198.738	-32.79
199.125	14.1
199.512	-22.94
199.899	1.68
200.286	-6.2
200.673	5.85
201.06	-32.69
201.447	-18.64
201.833	31.37
202.22	-5.38
202.607	-24.76
202.994	3.65
203.38	28.99
203.767	7.1
204.154	19.78
204.54	-36.86
204.927	15.15
205.313	17.66
205.699	17.34
206.086	13.19
206.472	-29.43
206.858	-14.12
207.245	21.29
207.631	-2.35
208.017	2.64
208.403	3.91
208.789	25.08
209.175	25.96
209.561	-26.01
209.947	-68.46
210.333	11.21
210.719	-26
211.105	-59.08
211.491	1.67
211.876	10.99
212.262	-15.93
212.648	-25.02
213.034	13
213.419	-2.03
213.805	-3.77
214.19	-21.92
214.576	4.96
214.961	10.51
215.346	-16.01
215.732	2.37
216.117	-11.64
216.502	-7.56
216.888	-12.38
217.273	31.23
217.658	-6.59
218.043	-14.21
218.428	-2.63
218.813	-9.07
219.198	-1.36
219.583	-27.61
219.968	16.24
220.353	-28.57
220.738	-28.25
221.122	-0.85
221.507	14.77
221.892	-0.93
222.276	4.53
222.661	2.67
223.046	-2.92
223.43	-3.67
223.815	-15.03
224.199	3.22
224.583	-2.02
224.968	-5.03
225.352	-4.5
225.736	-0.08
226.121	-7.13
226.505	2.48
226.889	1.81
227.273	-0.44
227.657	-3.77
228.041	-0.09
228.425	-0.41
228.809	3.77
229.193	3.2
229.577	-0.89
229.961	2.6
230.344	1.56
230.728	1
231.112	0.93
231.495	0.94
231.879	2.36
232.263	0.08
232.646	-0.42
233.03	-0.76
233.413	-1.18
233.797	-1.18
234.18	-1.23
234.563	0.13
234.946	-0.58
235.33	1.66
235.713	0.88
236.096	1.12
236.479	0.34
236.862	1.01
237.245	-0.36
237.628	-0.21
238.011	0.33
238.394	1.49
238.777	2.37
239.16	1.14
239.543	0.75
239.925	-1.03
240.308	2.09
240.691	0.56
241.073	0.25
241.456	0.55
241.838	-0.24
242.221	0.92
242.603	0.48
242.986	-0
243.368	1.25
243.75	0.92
244.133	1.21
244.515	1.04
244.897	0.92
245.279	0.96
245.661	1
246.043	0.58
246.425	0.85
246.807	2.81
247.189	0.93
247.571	1.06
247.953	1.13
248.335	0.61
248.717	0.89
249.098	0.99
249.48	1.01
249.862	1.41
250.243	1
250.625	0.72
251.006	0.91
251.388	1.19
251.769	1.22
252.151	1.4
252.532	0.72
252.913	0.54
253.295	0.93
253.676	0.56
254.057	0.63
254.438	0.62
254.819	1.26
255.2	0.54
255.581	1.51
255.962	1.09
256.343	1.13
256.724	0.31
257.105	0.75
257.486	1.58
257.867	2.27
258.247	0.56
258.628	0.78
259.009	0.59
259.389	1.29
259.77	0.83
260.15	0.7
260.531	0.91
260.911	0.95
261.292	0.82
261.672	0.98
262.052	1.07
262.432	0.89
262.813	0.69
263.193	0.24
263.573	0.64
263.953	0.95
264.333	1.2
264.713	0.79
265.093	0.61
265.473	0.82
265.853	0.7
266.233	0.88
266.612	1.32
266.992	1.63
267.372	0.52
267.752	1.19
268.131	0.97
268.511	1.2
268.89	1.51
269.27	1.34
269.649	1.09
270.029	0.47
270.408	0.75
270.787	1.03
271.167	1.14
271.546	1.26
271.925	0.57
272.304	0.25
272.683	0.82
273.062	0.95
273.441	1.07
273.82	0.5
274.199	0.91
274.578	0.6
274.957	1.06
275.336	0.79
275.715	1.06
276.093	0.91
276.472	0.58
276.851	0.51
277.229	0.65
277.608	0.38
277.986	1.4
278.365	1.09
278.743	1.28
279.122	0.84
279.5	1.03
279.878	0.42
280.257	0.72
280.635	0.18
281.013	0.83
281.391	1.26
281.769	0.93
282.147	1.01
282.525	0.77
282.903	0.73
283.281	1.24
283.659	0.92
284.037	0.7
284.415	0.87
284.792	1.08
285.17	0.87
285.548	1.21
285.925	0.76
286.303	1.32
286.68	1
287.058	0.87
287.435	0.8
287.813	1.05
288.19	0.84
288.567	0.8
288.945	0.94
289.322	0.8
289.699	0.78
290.076	1.33
290.453	0.7
290.83	0.57
291.207	0.81
291.584	1.1
291.961	1.11
292.338	1.07
292.715	0.82
293.092	0.93
293.469	0.74
293.845	0.84
294.222	1.06
294.599	0.92
294.975	0.84
295.352	1.06
295.728	1.27
296.105	1.13
296.481	0.77
296.858	0.68
297.234	1.59
297.61	1.23
297.986	0.53
298.363	0.52
298.739	1.01
299.115	1.23
299.491	0.73
299.867	1.02
300.243	0.89
300.619	1.34
300.995	1.29
301.371	1.45
301.746	1.03
302.122	0.38
302.498	0.76
302.874	1.05
303.249	0.58
303.625	0.63
304	0.87
304.376	0.7
304.751	0.86
305.127	0.69
305.502	1
305.878	1.17
306.253	0.94
306.628	0.84
307.003	1.11
307.378	0.97
307.754	0.66
308.129	0.22
308.504	0.51
308.879	0.75
309.254	0.88
309.629	1.52
310.003	0.86
310.378	0.84
310.753	1.27
311.128	0.76
311.502	0.57
311.877	1.25
312.252	0.75
312.626	1.16
313.001	0.85
313.375	1.1
313.75	1
314.124	0.73
314.498	0.66
314.873	1.03
315.247	0.72
315.621	1.25
315.995	0.78
316.369	0.88
316.743	1.26
317.117	1.28
317.491	0.8
317.865	0.9
318.239	1
318.613	1.43
318.987	0.91
319.361	1.21
319.734	1.18
320.108	0.83
320.482	0.61
320.855	1.15
321.229	0.93
321.602	0.9
321.976	0.52
322.349	1.48
322.723	0.94
323.096	1.34
323.469	0.46
323.843	0.61
324.216	0.85
324.589	1.18
324.962	1.42
325.335	0.46
325.708	0.63
326.081	0.76
326.454	0.78
326.827	0.86
327.2	0.4
327.573	0.78
327.945	0.84
328.318	0.74
328.691	0.91
329.063	0.36
329.436	1.3
329.809	0.9
330.181	1.13
330.553	0.84
330.926	0.84
331.298	0.93
331.671	0.46
332.043	0.61
332.415	0.4
332.787	0.44
333.159	0.34
333.532	0.82
333.904	1.41
334.276	0.82
334.648	1.55
335.02	0.63
335.391	1.24
335.763	0.97
336.135	0.77
336.507	1.25
336.879	0.98
337.25	0.62
337.622	1.33
337.993	0.69
338.365	1.2
338.736	1.42
339.108	1.18
339.479	1.11
339.851	1.03
340.222	0.61
340.593	1.4
340.964	1.32
341.336	0.92
341.707	0.82
342.078	1.04
342.449	1.03
342.82	0.9
343.191	0.68
343.562	1.12
343.933	0.92
344.303	1.37
344.674	0.81
345.045	1.18
345.416	0.46
345.786	1.1
346.157	1.33
346.527	1.19
346.898	1.17
347.268	0.93
347.639	1.01
348.009	1.33
348.38	0.74
348.75	0.52
349.12	0.64
349.49	0.93
349.861	0.7
350.231	0.96
350.601	0.87
350.971	0.62
351.341	0.94
351.711	0.78
352.081	0.77
352.45	1.09
352.82	0.85
353.19	1.17
353.56	1.14
353.929	0.84
354.299	1.07
354.669	1.08
355.038	1.31
355.408	0.62
355.777	0.87
356.147	0.63
356.516	1.06
356.885	1.16
357.254	1.15
357.624	1
357.993	0.81
358.362	0.94
358.731	1.04
359.1	1.15
359.469	0.95
359.838	1.18
360.207	0.94
360.576	0.88
360.945	1.09
361.314	0.92
361.682	1.14
362.051	1.01
362.42	1.13
362.788	0.89
363.157	0.83
363.525	0.98
363.894	1
364.262	1.17
364.631	0.92
364.999	0.9
365.367	1.05
365.735	1.24
366.104	1.01
366.472	1.23
366.84	0.73
367.208	0.99
367.576	0.82
367.944	1.2
368.312	1.17
368.68	0.66
369.048	0.96
369.416	0.89
369.783	0.81
370.151	0.78
370.519	1.46
370.886	0.92
371.254	1.02
371.621	0.82
371.989	1.09
372.356	1
372.724	0.85
373.091	1.25
373.458	0.98
373.826	0.98
374.193	0.65
374.56	0.94
374.927	1.41
375.294	0.93
375.661	1.09
376.028	0.91
376.395	0.96
376.762	1.33
377.129	0.99
377.496	0.94
377.863	1.19
378.229	0.84
378.596	0.9
378.963	0.97
379.329	0.93
379.696	0.98
380.062	1.24
380.429	0.89
380.795	0.97
381.161	0.78
381.528	1.13
381.894	0.58
382.26	1.05
382.626	0.86
382.993	1.27
383.359	1.13
383.725	0.73
384.091	0.88
384.457	0.85
384.823	1.01
385.188	1.08
385.554	0.89
385.92	0.83
386.286	0.83
386.651	0.95
387.017	0.76
387.383	0.98
387.748	0.81
388.114	0.94
388.479	1.49
388.845	1.07
389.21	1.05
389.575	1.34
389.94	1.09
390.306	1.07
390.671	1.02
391.036	0.83
391.401	1.35
391.766	0.71
392.131	0.99
392.496	0.9
392.861	1.23
393.226	0.92
393.591	1.12
393.956	1.18
394.32	1.09
394.685	1.05
395.05	1.06
395.414	1.09
395.779	1.14
396.143	1.06
396.508	1.13
396.872	1.21
397.236	1.18
397.601	0.99
397.965	0.99
398.329	1.06
398.694	1.33
399.058	1.36
399.422	1.12
399.786	0.78
400.15	0.81
400.514	1.01
400.878	1.25
401.242	1.15
401.605	1.06
401.969	1.22
402.333	0.99
402.697	0.97
403.06	1.22
403.424	1.25
403.787	1.13
404.151	0.99
404.514	1.22
404.878	0.92
405.241	1.26
405.604	1.18
405.968	1
406.331	1.13
406.694	0.97
407.057	1.2
407.42	1.04
407.783	0.84
408.146	1.04
408.509	1.12
408.872	1.1
409.235	1.04
409.598	1.12
409.961	1.18
410.323	0.96
410.686	1.08
411.049	0.98
411.411	1.01
411.774	1.2
412.136	1.22
412.499	1.12
412.861	1.04
413.223	1.13
413.586	1.12
413.948	1.2
414.31	1.09
414.672	0.97
415.035	1.2
415.397	0.91
415.759	1.26
416.121	1.02
416.483	1.07
416.845	1.13
417.206	1.14
417.568	1.04
417.93	1.07
418.292	0.9
418.653	1.23
419.015	0.91
419.377	1.04
419.738	1.07
420.1	1.14
420.461	1.11
420.822	0.99
421.184	1.12
421.545	0.94
421.906	1.12
422.267	1.05
422.629	1.1
422.99	1.01
423.351	0.98
423.712	1.04
424.073	1.09
424.434	0.91
424.795	1.11
425.155	1.14
425.516	1.06
425.877	1.01
426.238	1.02
426.598	1.15
426.959	0.97
427.32	1.03
427.68	1.05
428.041	0.99
428.401	1.03
428.761	1.12
429.122	1.05
429.482	1.07
429.842	0.69
430.202	1.12
430.563	1.09
430.923	1.08
431.283	1.02
431.643	1.13
432.003	1.37
432.363	1.21
432.722	1.08
433.082	1.26
433.442	1.12
433.802	0.96
434.161	1.1
434.521	1.1
434.881	1.17
435.24	0.95
435.6	1.21
435.959	1.01
436.319	1
436.678	1.12
437.037	1.14
437.396	1.26
437.756	1.32
438.115	1.05
438.474	1.16
438.833	1.16
439.192	1.18
439.551	1.09
439.91	1.11
440.269	1.17
440.628	1.16
440.987	1.16
441.345	1.14
441.704	1.11
442.063	1.08
442.421	1.14
442.78	1.12
443.138	1.12
443.497	1.15
443.855	1.08
444.214	1.24
444.572	1.05
444.93	1.25
445.288	1.13
445.647	1.07
446.005	1.16
446.363	1.2
446.721	1
447.079	1.1
447.437	1.03
447.795	1.15
448.153	1.12
448.51	1.13
448.868	1.12
449.226	1.1
449.584	1.14
449.941	1.08
450.299	1.13
450.656	1.11
451.014	1.24
451.371	1.26
451.729	1.26
452.086	1.13
452.443	0.99
452.801	1.17
453.158	1.16
453.515	1.35
453.872	1.23
454.229	1.26
454.586	1.18
454.943	1.19
455.3	1.18
455.657	1.06
456.014	1.14
456.371	1.19
456.727	1.42
457.084	1.29
457.441	1.2
457.797	1.19
458.154	1.18
458.51	1.16
458.867	1.07
459.223	1.29
459.58	1.33
459.936	1.06
460.292	1.22
460.648	1.16
461.005	1.16
461.361	1.19
461.717	1.18
462.073	1.21
462.429	1.21
462.785	1.2
463.141	1.23
463.496	1.11
463.852	1.26
464.208	1.22
464.564	1.11
464.919	1.34
465.275	1.21
465.631	1.26
465.986	1.25
466.342	1.19
466.697	1.23
467.052	1.17
467.408	1.16
467.763	1.31
468.118	1.32
468.473	1.2
468.829	1.1
469.184	1.05
469.539	1.14
469.894	1.32
470.249	1.28
470.603	1.27
470.958	1.08
471.313	1.17
471.668	1.01
472.023	1.07
472.377	1.38
472.732	1.21
473.086	1.14
473.441	1.28
473.795	1.08
474.15	1.12
474.504	1.16
474.859	1.1
475.213	1.18
475.567	1.09
475.921	1.26
476.275	1.31
476.63	1.2
476.984	1.2
477.338	1.27
477.692	1.25
478.045	1.24
478.399	1.28
478.753	1.27
479.107	1.33
479.461	1.31
479.814	1.29
480.168	1.21
480.521	1.13
480.875	1.34
481.228	1.17
481.582	1.32
481.935	1.25
482.289	1.27
482.642	1.18
482.995	1.19
483.348	1.25
483.701	1.33
484.055	1.2
484.408	1.22
484.761	1.19
485.114	1.14
485.466	1.15
485.819	1.12
486.172	1.14
486.525	1.16
486.878	1.22
487.23	1.25
487.583	1.2
487.936	1.23
488.288	1.2
488.641	1.18
488.993	1.17
489.345	1.13
489.698	1.16
490.05	1.19
490.402	1.17
490.754	1.24
491.107	1.26
491.459	1.28
491.811	1.22
492.163	1.3
492.515	1.31
492.866	1.16
493.218	1.2
493.57	1.15
493.922	1.24
494.274	1.14
494.625	1.21
494.977	1.27
495.328	1.36
495.68	1.22
496.031	1.27
496.383	1.26
496.734	1.25
497.086	1.42
497.437	1.29
497.788	1.3
498.139	1.21
498.49	1.2
498.842	1.31
499.193	1.27
499.544	1.23
499.894	1.23
500.245	1.33
500.596	1.25
500.947	1.25
501.298	1.17
501.648	1.27
501.999	1.49
502.35	1.33
502.7	1.25
503.051	1.25
503.401	1.28
503.752	1.34
504.102	1.36
504.452	1.31
504.803	1.37
505.153	1.24
505.503	1.34
505.853	1.32
506.203	1.3
506.553	1.36
506.903	1.3
507.253	1.33
507.603	1.23
507.953	1.26
508.303	1.38
508.652	1.35
509.002	1.32
509.352	1.34
509.701	1.28
510.051	1.28
510.4	1.3
510.75	1.26
511.099	1.39
511.449	1.29
511.798	1.25
512.147	1.35
512.496	1.32
512.846	1.23
513.195	1.3
513.544	1.32
513.893	1.32
514.242	1.26
514.591	1.23
514.939	1.3
515.288	1.33
515.637	1.35
515.986	1.27
516.334	1.32
516.683	1.35
517.032	1.36
517.38	1.36
517.729	1.32
518.077	1.44
518.426	1.26
518.774	1.37
519.122	1.32
519.47	1.26
519.819	1.37
520.167	1.32
520.515	1.3
520.863	1.23
521.211	1.25
521.559	1.39
521.907	1.24
522.255	1.33
522.602	1.31
522.95	1.26
523.298	1.39
523.645	1.41
523.993	1.34
524.341	1.35
524.688	1.56
525.036	1.33
525.383	1.39
525.73	1.37
526.078	1.34
526.425	1.3
526.772	1.26
527.119	1.24
527.466	1.26
527.814	1.25
528.161	1.29
528.508	1.32
528.854	1.33
529.201	1.25
529.548	1.31
529.895	1.23
530.242	1.25
530.588	1.22
530.935	1.25
531.282	1.3
531.628	1.24
531.975	1.32
532.321	1.36
532.667	1.31
533.014	1.37
533.36	1.31
533.706	1.36
534.052	1.36
534.399	1.31
534.745	1.29
535.091	1.22
535.437	1.24
535.783	1.26
536.129	1.36
536.474	1.35
536.82	1.4
537.166	1.3
537.512	1.32
537.857	1.27
538.203	1.24
538.549	1.22
538.894	1.36
539.239	1.41
539.585	1.31
539.93	1.31
540.276	1.32
540.621	1.27
540.966	1.32
541.311	1.24
541.656	1.34
542.001	1.3
542.346	1.32
542.691	1.35
543.036	1.29
543.381	1.24
543.726	1.38
544.071	1.35
544.415	1.34
544.76	1.35
545.105	1.35
545.449	1.37
545.794	1.4
546.138	1.32
546.483	1.36
546.827	1.37
547.171	1.4
547.516	1.31
547.86	1.27
548.204	1.42
548.548	1.33
548.892	1.3
549.236	1.38
549.58	1.4
549.924	1.42
550.268	1.5
550.612	1.32
550.956	1.48
551.3	1.42
551.643	1.39
551.987	1.3
552.33	1.37
552.674	1.3
553.017	1.44
553.361	1.49
553.704	1.4
554.048	1.4
554.391	1.28
554.734	1.37
555.077	1.36
555.42	1.44
555.764	1.58
556.107	1.5
556.45	1.48
556.793	1.5
557.135	1.43
557.478	1.48
557.821	1.61
558.164	1.42
558.507	1.35
558.849	1.56
559.192	1.54
559.534	1.26
559.877	1.38
560.219	1.38
560.562	1.44
560.904	1.55
561.246	1.29
561.589	1.43
561.931	1.31
562.273	1.48
562.615	1.22
562.957	1.48
563.299	1.58
563.641	1.42
563.983	1.43
564.325	1.25
564.667	1.49
565.008	1.4
565.35	1.35
565.692	1.6
566.033	1.63
566.375	1.32
566.716	1.46
567.058	1.63
567.399	1.4
567.741	1.43
568.082	1.43
568.423	1.28
568.764	1.37
569.105	1.29
569.447	1.5
569.788	1.45
570.129	1.43
570.47	1.53
570.811	1.48
571.151	1.49
571.492	1.57
571.833	1.44
572.174	1.6
572.514	1.47
572.855	1.38
573.195	1.36
573.536	1.52
573.876	1.42
574.217	1.36
574.557	1.33
574.898	1.57
575.238	1.34
575.578	1.59
575.918	1.46
576.258	1.5
576.598	1.49
576.938	1.62
577.278	1.29
577.618	1.3
577.958	1.38
578.298	1.57
578.638	1.35
578.977	1.62
579.317	1.54
579.657	1.41
579.996	1.52
580.336	1.42
580.675	1.4
581.014	1.68
581.354	1.47
581.693	1.65
582.032	1.47
582.372	1.61
582.711	1.46
583.05	1.67
583.389	1.34
583.728	1.4
584.067	1.62
584.406	1.29
584.745	1.64
585.083	1.46
585.422	1.67
585.761	1.51
586.1	1.38
586.438	1.4
586.777	1.54
587.115	1.53
587.454	1.55
587.792	1.72
588.13	1.69
588.469	1.55
588.807	1.73
589.145	1.53
589.483	1.16
589.821	1.58
590.159	1.36
590.497	1.79
590.835	1.63
591.173	1.41
591.511	1.64
591.849	1.5
592.187	1.56
592.524	1.56
592.862	1.32
593.2	1.54
593.537	1.32
593.875	1.51
594.212	1.35
594.55	1.51
594.887	1.5
595.224	1.55
595.561	1.29
595.899	1.67
596.236	1.67
596.573	1.67
596.91	1.51
597.247	1.42
597.584	1.37
597.921	1.75
598.258	1.5
598.594	1.45
598.931	1.56
599.268	1.5
599.604	1.56
599.941	1.57
600.277	1.49
600.614	1.71
600.95	1.49
601.287	1.53
601.623	1.65
601.959	1.64
602.296	1.68
602.632	1.92
602.968	1.6
603.304	1.49
603.64	1.53
603.976	1.46
604.312	1.54
604.648	1.48
604.984	1.44
605.319	1.69
605.655	1.51
605.991	1.68
606.326	1.52
606.662	1.42
606.998	1.45
607.333	1.37
607.668	1.7
608.004	1.67
608.339	1.52
608.674	1.76
609.01	1.58
609.345	1.72
609.68	1.66
610.015	1.78
610.35	1.39
610.685	1.56
611.02	1.67
611.355	1.54
611.689	1.72
612.024	1.48
612.359	1.5
612.694	1.69
613.028	1.71
613.363	1.61
613.697	1.54
614.032	1.26
614.366	1.51
614.7	1.57
615.035	1.63
615.369	1.4
615.703	1.76
616.037	1.42
616.371	1.71
616.705	1.53
617.039	1.97
617.373	1.83
617.707	2.04
618.041	1.62
618.375	1.66
618.709	1.69
619.042	1.57
619.376	1.52
619.71	1.64
620.043	1.91
620.377	1.74
620.71	1.6
621.043	1.23
621.377	1.81
621.71	1.76
622.043	1.93
622.376	1.63
622.709	1.91
623.043	1.52
623.376	2.08
623.709	1.51
624.041	1.48
624.374	1.54
624.707	1.33
625.04	1.83
625.373	1.94
625.705	1.49
626.038	1.54
626.37	1.89
626.703	1.88
627.035	1.57
627.368	1.75
627.7	1.82
628.032	1.7
628.365	1.75
628.697	1.58
629.029	1.52
629.361	1.64
629.693	1.86
630.025	2.02
630.357	1.58
630.689	1.5
631.021	1.36
631.353	1.44
631.684	1.55
632.016	1.69
632.348	1.67
632.679	1.48
633.011	1.41
633.342	1.36
633.674	1.46
634.005	1.68
634.336	1.82
634.668	2.08
634.999	1.86
635.33	1.41
635.661	1.67
635.992	1.63
636.323	1.63
636.654	1.5
636.985	1.79
637.316	1.58
637.647	1.5
637.977	1.73
638.308	1.97
638.639	1.84
638.969	1.62
639.3	2
639.63	1.59
639.961	1.8
640.291	1.86
640.622	1.64
640.952	1.88
641.282	1.69
641.612	1.89
641.943	1.5
642.273	1.4
642.603	1.81
642.933	1.4
643.263	1.51
643.592	1.63
643.922	2.24
644.252	2.09
644.582	1.97
644.911	1.74
645.241	1.52
645.571	1.4
645.9	1.79
646.23	1.71
646.559	1.95
646.888	1.58
647.218	2.29
647.547	1.64
647.876	2
648.205	1.53
648.534	2.01
648.863	1.76
649.192	1.49
649.521	1.56
649.85	2.21
650.179	1.61
650.508	1.75
650.837	1.86
651.165	2.02
651.494	1.81
651.822	1.86
652.151	1.65
652.479	1.54
652.808	1.3
653.136	1.74
653.465	1.85
653.793	2.03
654.121	1.72
654.449	1.34
654.777	1.65
655.105	1.86
655.433	1.51
655.761	1.87
656.089	1.65
656.417	1.82
656.745	1.35
657.073	1.41
657.4	1.7
657.728	1.84
658.056	1.46
658.383	1.76
658.711	1.29
659.038	2.29
659.365	2
659.693	1.79
660.02	2.53
660.347	1.83
660.674	1.73
661.001	2.01
661.329	1.95
661.656	2.14
661.982	1.43
662.309	1.72
662.636	1.61
662.963	1.2
663.29	1.19
663.616	2.22
663.943	1.64
664.27	1.91
664.596	1.58
664.923	1.89
665.249	1.99
665.576	2.12
665.902	1.24
666.228	1.28
666.554	2.15
666.881	1.85
667.207	1.93
667.533	1.79
667.859	1.7
668.185	1.63
668.511	2.09
668.837	1.57
669.162	2.08
669.488	1.68
669.814	1.58
670.139	1.49
670.465	1.89
670.791	1.5
671.116	1.61
671.442	2.01
671.767	1.78
672.092	1.84
672.418	1.86
672.743	2.39
673.068	1.66
673.393	2.1
673.718	2.1
674.043	2.49
674.368	1.39
674.693	1.63
675.018	1.83
675.343	2.11
675.667	1.72
675.992	1.63
676.317	2.16
676.641	1.73
676.966	1.67
677.29	1.66
677.615	1.94
677.939	1.93
678.264	2.08
678.588	2.18
678.912	2.33
679.236	2.19
679.56	1.92
679.885	1.89
680.209	2.25
680.532	1.95
680.856	1.9
681.18	1.14
681.504	2.1
681.828	1.76
682.152	2.39
682.475	1.8
682.799	2.08
683.122	1.93
683.446	1.62
683.769	1.45
684.093	1.96
684.416	1.6
684.739	1.61
685.062	3.07
685.386	1.64
685.709	2.08
686.032	2.3
686.355	3.4
686.678	2.18
687.001	1.91
687.324	1.81
687.646	2.22
687.969	1.59
688.292	1.39
688.614	2.59
688.937	2.44
689.26	1.65
689.582	2.73
689.904	2.34
690.227	1.98
690.549	2.21
690.871	2.12
691.194	2.1
691.516	2.02
691.838	1.92
692.16	2.51
692.482	1.85
692.804	1.58
