Data from 0038_forehead_Reflection__1__41.txt Node

Date: Fri Nov 04 14:59:33 CDT 2022
User: ToomeyLab
Spectrometer: FLMS14357
Trigger mode: 0
Integration Time (sec): 1.000000E-2
Scans to average: 100
Electric dark correction enabled: true
Nonlinearity correction enabled: false
Boxcar width: 0
XAxis mode: Wavelengths
Number of Pixels in Spectrum: 2048
>>>>>Begin Spectral Data<<<<<
189.047	-6.1
189.435	-6.1
189.823	-6.1
190.211	-70.12
190.599	201.59
190.987	76.74
191.375	322.22
191.763	27.77
192.151	168.6
192.538	-46.94
192.926	-12.08
193.314	143.17
193.702	-700
194.089	-36.2
194.477	61.28
194.864	110.75
195.252	71.82
195.639	-111.99
196.027	1019.15
196.414	354.55
196.801	66.83
197.189	7.83
197.576	32.63
197.963	468.25
198.351	-42.12
198.738	32.28
199.125	8.57
199.512	-5.54
199.899	-2.65
200.286	-65.83
200.673	9.78
201.06	36.69
201.447	7.16
201.833	26.71
202.22	44.12
202.607	12.69
202.994	36.72
203.38	37.15
203.767	30.69
204.154	17.75
204.54	-19.13
204.927	11.62
205.313	51.15
205.699	56.12
206.086	21.79
206.472	12.47
206.858	-13.81
207.245	1.01
207.631	11.87
208.017	11.89
208.403	22.13
208.789	39.7
209.175	6.05
209.561	-17.82
209.947	-35.6
210.333	14.42
210.719	4.84
211.105	8.43
211.491	29.21
211.876	11.46
212.262	8.3
212.648	-14.89
213.034	40.63
213.419	-1.44
213.805	4.36
214.19	9.95
214.576	-6.42
214.961	23.73
215.346	2.98
215.732	20.07
216.117	6.02
216.502	52.86
216.888	-1.25
217.273	29.7
217.658	12.27
218.043	18.77
218.428	19.03
218.813	15.32
219.198	7.45
219.583	-10.58
219.968	27.07
220.353	4.27
220.738	-3.46
221.122	6.59
221.507	20.03
221.892	-4.6
222.276	6.02
222.661	2.09
223.046	-5.13
223.43	11.06
223.815	-0.19
224.199	11.88
224.583	4.09
224.968	-0.46
225.352	2
225.736	-1.39
226.121	-5.52
226.505	5.13
226.889	7.15
227.273	6.06
227.657	-1.05
228.041	7.4
228.425	5.34
228.809	4.53
229.193	3.79
229.577	1.84
229.961	5.85
230.344	3.32
230.728	2.51
231.112	3.04
231.495	2.87
231.879	4.06
232.263	3.56
232.646	2.82
233.03	3.05
233.413	2.89
233.797	1.72
234.18	3.42
234.563	3.65
234.946	6.09
235.33	3.18
235.713	2.66
236.096	3.84
236.479	3.03
236.862	1.23
237.245	1.68
237.628	3.61
238.011	2.13
238.394	4.67
238.777	3.02
239.16	4.33
239.543	3.41
239.925	3.32
240.308	5.41
240.691	3.03
241.073	2.79
241.456	4.38
241.838	2.77
242.221	2.98
242.603	3.03
242.986	2.89
243.368	3.68
243.75	3.72
244.133	3.28
244.515	3.4
244.897	3.52
245.279	3.13
245.661	3.38
246.043	3.72
246.425	3.59
246.807	3.72
247.189	3.92
247.571	4.39
247.953	3.07
248.335	3.07
248.717	3.28
249.098	3.3
249.48	3.62
249.862	3.74
250.243	3.36
250.625	2.82
251.006	3.43
251.388	3.98
251.769	4.55
252.151	3.84
252.532	3.45
252.913	2.79
253.295	3.72
253.676	3.62
254.057	3.64
254.438	3.62
254.819	3.83
255.2	3.88
255.581	3.75
255.962	4.15
256.343	3.78
256.724	3.77
257.105	2.68
257.486	3.6
257.867	5.15
258.247	3.91
258.628	3.34
259.009	3.09
259.389	3.48
259.77	3.88
260.15	4.06
260.531	3.46
260.911	3.27
261.292	3.34
261.672	3.2
262.052	3.47
262.432	3.66
262.813	3.57
263.193	2.98
263.573	3.56
263.953	3.53
264.333	3.67
264.713	4.15
265.093	3.37
265.473	3.67
265.853	2.92
266.233	4.01
266.612	3.82
266.992	3.96
267.372	3.61
267.752	3.53
268.131	3.8
268.511	3.97
268.89	3.9
269.27	3.8
269.649	3.74
270.029	3.11
270.408	3.08
270.787	3.8
271.167	3.8
271.546	4.29
271.925	3.55
272.304	3.05
272.683	3.46
273.062	3.43
273.441	3.6
273.82	3.34
274.199	3.53
274.578	3.33
274.957	3.27
275.336	2.95
275.715	3.46
276.093	3.8
276.472	3.44
276.851	2.99
277.229	3.32
277.608	3.67
277.986	3.92
278.365	3.7
278.743	3.84
279.122	3.5
279.5	3.76
279.878	3.96
280.257	3.48
280.635	3.37
281.013	3.25
281.391	3.62
281.769	3.61
282.147	3.62
282.525	3.74
282.903	3.58
283.281	3.99
283.659	3.41
284.037	3.05
284.415	3.39
284.792	3.78
285.17	3.44
285.548	3.9
285.925	3.48
286.303	3.92
286.68	3.63
287.058	3.33
287.435	3.65
287.813	3.59
288.19	3.52
288.567	3.47
288.945	3.71
289.322	3.63
289.699	4.01
290.076	4.08
290.453	3.77
290.83	3.63
291.207	3.55
291.584	3.92
291.961	4.11
292.338	4.09
292.715	4.03
293.092	4.39
293.469	4.05
293.845	3.86
294.222	4.17
294.599	3.68
294.975	4.08
295.352	3.93
295.728	4.19
296.105	4.34
296.481	4.36
296.858	4.37
297.234	4.79
297.61	4.74
297.986	4.14
298.363	4.28
298.739	4.27
299.115	4.44
299.491	4.5
299.867	4.5
300.243	4.33
300.619	4.76
300.995	4.91
301.371	4.85
301.746	4.7
302.122	4.92
302.498	4.91
302.874	4.62
303.249	4.64
303.625	4.67
304	4.5
304.376	4.51
304.751	4.97
305.127	4.43
305.502	5.46
305.878	5.14
306.253	5.39
306.628	5.03
307.003	5.11
307.378	5.11
307.754	5.08
308.129	5.23
308.504	4.98
308.879	5.7
309.254	5.57
309.629	5.91
310.003	5.77
310.378	5.24
310.753	5.83
311.128	6.04
311.502	5.29
311.877	5.97
312.252	5.79
312.626	5.71
313.001	5.73
313.375	5.77
313.75	5.62
314.124	5.96
314.498	6.25
314.873	6.41
315.247	6.4
315.621	6.27
315.995	6.56
316.369	6.5
316.743	6.64
317.117	6.72
317.491	6.33
317.865	6.17
318.239	6.89
318.613	7.26
318.987	6.99
319.361	6.75
319.734	7.16
320.108	6.86
320.482	6.01
320.855	6.8
321.229	6.74
321.602	7.06
321.976	6.63
322.349	7.53
322.723	6.95
323.096	7.64
323.469	6.63
323.843	7.16
324.216	7.41
324.589	7.52
324.962	8.05
325.335	7.55
325.708	7.02
326.081	7.44
326.454	7.17
326.827	7.58
327.2	7.76
327.573	7.59
327.945	8.03
328.318	7.47
328.691	7.73
329.063	7.78
329.436	8.01
329.809	8.01
330.181	7.85
330.553	7.69
330.926	7.97
331.298	8.26
331.671	7.84
332.043	7.94
332.415	7.9
332.787	7.95
333.159	7.81
333.532	7.95
333.904	8.24
334.276	8.38
334.648	8.63
335.02	7.89
335.391	8.65
335.763	8.46
336.135	8.33
336.507	8.58
336.879	8.64
337.25	9.15
337.622	9.12
337.993	9.02
338.365	8.46
338.736	8.84
339.108	8.86
339.479	9.08
339.851	8.82
340.222	8.85
340.593	8.91
340.964	8.81
341.336	8.31
341.707	9.09
342.078	9.16
342.449	8.94
342.82	9.34
343.191	9.2
343.562	9.4
343.933	9.25
344.303	9.4
344.674	9.87
345.045	9.12
345.416	8.86
345.786	9.38
346.157	9.05
346.527	9.47
346.898	9.52
347.268	9.4
347.639	9.59
348.009	9.47
348.38	9.3
348.75	9.29
349.12	9.28
349.49	9.76
349.861	9.59
350.231	10.06
350.601	9.67
350.971	9.47
351.341	9.82
351.711	10.01
352.081	9.93
352.45	10.01
352.82	9.76
353.19	10.33
353.56	10.35
353.929	10.5
354.299	10.5
354.669	10.33
355.038	10.2
355.408	10.39
355.777	10.39
356.147	10.24
356.516	10.12
356.885	10.36
357.254	10.56
357.624	10.92
357.993	10.39
358.362	10.17
358.731	10.54
359.1	10.63
359.469	10.75
359.838	10.85
360.207	10.46
360.576	10.63
360.945	10.89
361.314	11.1
361.682	10.97
362.051	10.85
362.42	10.78
362.788	10.71
363.157	10.91
363.525	10.92
363.894	10.96
364.262	11.19
364.631	10.92
364.999	11.19
365.367	10.84
365.735	11.56
366.104	11.01
366.472	11.54
366.84	11.09
367.208	11.33
367.576	11.27
367.944	11.6
368.312	11.38
368.68	11.42
369.048	11.46
369.416	11.69
369.783	11.52
370.151	11.61
370.519	12.24
370.886	11.84
371.254	11.94
371.621	12.01
371.989	11.91
372.356	12
372.724	11.96
373.091	12.08
373.458	11.91
373.826	12.25
374.193	12.05
374.56	11.88
374.927	12.35
375.294	12.12
375.661	12.38
376.028	12.03
376.395	12.45
376.762	12.69
377.129	12.41
377.496	12.54
377.863	12.52
378.229	12.41
378.596	12.34
378.963	12.54
379.329	12.58
379.696	12.58
380.062	12.94
380.429	12.66
380.795	12.78
381.161	12.78
381.528	12.88
381.894	12.9
382.26	13.07
382.626	13.04
382.993	13.17
383.359	13.27
383.725	12.93
384.091	12.87
384.457	12.86
384.823	13.01
385.188	13.16
385.554	13.14
385.92	13.03
386.286	13.32
386.651	13.28
387.017	13.26
387.383	13.34
387.748	13.23
388.114	13.32
388.479	13.65
388.845	13.57
389.21	13.91
389.575	13.63
389.94	13.69
390.306	13.82
390.671	13.7
391.036	13.68
391.401	13.97
391.766	13.65
392.131	13.82
392.496	14
392.861	13.96
393.226	13.84
393.591	14.12
393.956	14.28
394.32	14.19
394.685	14.22
395.05	14.26
395.414	14.28
395.779	14.14
396.143	14.15
396.508	14.17
396.872	14.11
397.236	14.42
397.601	14.26
397.965	14.31
398.329	14.39
398.694	14.72
399.058	14.49
399.422	14.56
399.786	14.42
400.15	14.51
400.514	14.77
400.878	14.73
401.242	14.89
401.605	14.7
401.969	14.93
402.333	15.04
402.697	14.82
403.06	15.07
403.424	15.18
403.787	14.83
404.151	15.15
404.514	15.21
404.878	15.26
405.241	15.22
405.604	15.23
405.968	15.4
406.331	15.18
406.694	15.09
407.057	15.39
407.42	15.25
407.783	15.19
408.146	15.4
408.509	15.36
408.872	15.55
409.235	15.64
409.598	15.5
409.961	15.54
410.323	15.58
410.686	15.65
411.049	15.63
411.411	15.72
411.774	15.87
412.136	15.89
412.499	15.89
412.861	15.81
413.223	15.96
413.586	15.94
413.948	16.09
414.31	15.97
414.672	16.13
415.035	16.11
415.397	16.14
415.759	16.34
416.121	16
416.483	16.12
416.845	16.17
417.206	15.99
417.568	16.46
417.93	16.36
418.292	16.08
418.653	16.06
419.015	16.08
419.377	16.18
419.738	16.28
420.1	16.52
420.461	16.18
420.822	16.35
421.184	16.49
421.545	16.29
421.906	16.32
422.267	16.29
422.629	16.31
422.99	16.21
423.351	16.08
423.712	16.41
424.073	16.31
424.434	16.53
424.795	16.58
425.155	16.63
425.516	16.55
425.877	16.48
426.238	16.51
426.598	16.64
426.959	16.7
427.32	16.72
427.68	16.78
428.041	16.8
428.401	17.01
428.761	17.23
429.122	17.3
429.482	17.17
429.842	17.15
430.202	17.57
430.563	17.25
430.923	17.51
431.283	17.36
431.643	17.61
432.003	17.64
432.363	17.77
432.722	17.62
433.082	17.77
433.442	17.74
433.802	17.62
434.161	17.49
434.521	17.74
434.881	17.65
435.24	17.7
435.6	17.61
435.959	17.67
436.319	17.86
436.678	17.94
437.037	17.74
437.396	18
437.756	18.16
438.115	17.8
438.474	18.15
438.833	18.21
439.192	18.17
439.551	18.27
439.91	18.27
440.269	18.09
440.628	18.29
440.987	18.19
441.345	18.05
441.704	18.3
442.063	18.13
442.421	18.34
442.78	18.25
443.138	18.32
443.497	18.17
443.855	18.42
444.214	18.56
444.572	18.57
444.93	18.56
445.288	18.54
445.647	18.68
446.005	18.74
446.363	18.68
446.721	18.59
447.079	18.61
447.437	18.73
447.795	18.68
448.153	18.5
448.51	18.68
448.868	18.61
449.226	18.67
449.584	18.91
449.941	18.77
450.299	18.84
450.656	18.92
451.014	19.03
451.371	19.3
451.729	19.29
452.086	19.35
452.443	19.45
452.801	19.55
453.158	19.61
453.515	19.53
453.872	19.56
454.229	19.66
454.586	19.59
454.943	19.61
455.3	19.76
455.657	19.71
456.014	19.78
456.371	19.82
456.727	19.93
457.084	19.99
457.441	19.93
457.797	19.97
458.154	20.08
458.51	19.89
458.867	20.12
459.223	20.21
459.58	20.2
459.936	19.97
460.292	19.97
460.648	20.15
461.005	20.05
461.361	19.87
461.717	20.04
462.073	20.05
462.429	20.1
462.785	20.11
463.141	20.2
463.496	20.3
463.852	20.36
464.208	20.37
464.564	20.52
464.919	20.73
465.275	20.83
465.631	20.81
465.986	20.98
466.342	20.79
466.697	21.06
467.052	20.95
467.408	20.87
467.763	21.19
468.118	21.01
468.473	21.25
468.829	21.01
469.184	21.11
469.539	21
469.894	21.32
470.249	21.19
470.603	21.42
470.958	21.24
471.313	21.19
471.668	21.39
472.023	21.33
472.377	21.52
472.732	21.47
473.086	21.6
473.441	21.63
473.795	21.59
474.15	21.7
474.504	21.73
474.859	21.67
475.213	21.76
475.567	21.78
475.921	21.71
476.275	21.96
476.63	21.9
476.984	21.96
477.338	22
477.692	22.08
478.045	22.19
478.399	21.97
478.753	22.05
479.107	22.18
479.461	22.23
479.814	22.28
480.168	22.1
480.521	22.13
480.875	22.24
481.228	22.26
481.582	22.33
481.935	22.34
482.289	22.41
482.642	22.36
482.995	22.43
483.348	22.32
483.701	22.38
484.055	22.2
484.408	22.18
484.761	21.97
485.114	21.61
485.466	21.53
485.819	21.63
486.172	21.81
486.525	21.93
486.878	21.99
487.23	21.98
487.583	21.85
487.936	22.14
488.288	22.18
488.641	22.16
488.993	22.1
489.345	22.18
489.698	22.24
490.05	22.3
490.402	22.36
490.754	22.44
491.107	22.58
491.459	22.63
491.811	22.73
492.163	22.88
492.515	22.98
492.866	22.71
493.218	22.57
493.57	22.66
493.922	22.8
494.274	22.88
494.625	23.02
494.977	23.11
495.328	23.14
495.68	23.21
496.031	23.55
496.383	23.66
496.734	23.79
497.086	24.01
497.437	24.02
497.788	24
498.139	23.81
498.49	23.8
498.842	23.84
499.193	24
499.544	23.89
499.894	24.08
500.245	24.07
500.596	24.16
500.947	24.15
501.298	24.28
501.648	24.41
501.999	24.48
502.35	24.45
502.7	24.43
503.051	24.74
503.401	24.59
503.752	24.84
504.102	24.84
504.452	24.9
504.803	24.74
505.153	24.91
505.503	24.86
505.853	24.97
506.203	24.92
506.553	25.06
506.903	25.12
507.253	24.98
507.603	24.97
507.953	25.18
508.303	25.12
508.652	25.36
509.002	25.31
509.352	25.46
509.701	25.18
510.051	25.29
510.4	25.34
510.75	25.21
511.099	25.47
511.449	25.4
511.798	25.31
512.147	25.35
512.496	25.57
512.846	25.49
513.195	25.64
513.544	25.54
513.893	25.58
514.242	25.6
514.591	25.65
514.939	25.75
515.288	25.93
515.637	25.97
515.986	26.1
516.334	25.96
516.683	26.17
517.032	26.18
517.38	26.34
517.729	26.48
518.077	26.43
518.426	26.47
518.774	26.46
519.122	26.22
519.47	26.32
519.819	26.11
520.167	26.17
520.515	26.01
520.863	26.25
521.211	26.19
521.559	26.19
521.907	26.29
522.255	26.46
522.602	26.47
522.95	26.64
523.298	26.97
523.645	26.88
523.993	26.99
524.341	26.83
524.688	26.97
525.036	26.98
525.383	27.22
525.73	27.19
526.078	27.14
526.425	27.1
526.772	27.1
527.119	26.89
527.466	26.95
527.814	26.89
528.161	26.92
528.508	26.98
528.854	26.91
529.201	26.95
529.548	26.82
529.895	26.71
530.242	26.51
530.588	26.72
530.935	26.94
531.282	27.02
531.628	26.93
531.975	26.88
532.321	26.97
532.667	26.85
533.014	27.43
533.36	27.42
533.706	27.63
534.052	27.62
534.399	27.71
534.745	27.54
535.091	27.27
535.437	27.64
535.783	27.63
536.129	27.77
536.474	27.77
536.82	27.73
537.166	27.72
537.512	28.03
537.857	28.16
538.203	28.04
538.549	28
538.894	28.2
539.239	28.47
539.585	28.43
539.93	28.45
540.276	28.53
540.621	28.65
540.966	28.97
541.311	28.85
541.656	29.07
542.001	28.92
542.346	28.77
542.691	28.55
543.036	28.33
543.381	28.34
543.726	28.46
544.071	28.62
544.415	28.74
544.76	28.56
545.105	28.5
545.449	28.78
545.794	29.03
546.138	29.15
546.483	29.23
546.827	29.45
547.171	29.47
547.516	29.5
547.86	29.58
548.204	29.79
548.548	29.49
548.892	29.59
549.236	29.71
549.58	29.69
549.924	30
550.268	30.1
550.612	30.09
550.956	30.12
551.3	30.21
551.643	30.4
551.987	30.55
552.33	30.48
552.674	30.58
553.017	30.75
553.361	30.86
553.704	30.67
554.048	30.64
554.391	30.71
554.734	30.74
555.077	30.72
555.42	30.88
555.764	31.01
556.107	30.93
556.45	31.09
556.793	31.13
557.135	31.06
557.478	31.14
557.821	31.47
558.164	31.42
558.507	31.33
558.849	31.59
559.192	31.5
559.534	31.47
559.877	31.62
560.219	31.54
560.562	31.76
560.904	31.82
561.246	31.63
561.589	31.87
561.931	31.87
562.273	31.87
562.615	31.65
562.957	31.96
563.299	31.68
563.641	31.94
563.983	31.85
564.325	32.17
564.667	32.25
565.008	32.09
565.35	32.23
565.692	32.36
566.033	32.45
566.375	32.43
566.716	32.38
567.058	32.53
567.399	32.38
567.741	32.42
568.082	32.47
568.423	32.45
568.764	32.54
569.105	32.63
569.447	32.63
569.788	32.61
570.129	32.68
570.47	32.57
570.811	32.96
571.151	32.93
571.492	32.92
571.833	32.94
572.174	33.01
572.514	33.14
572.855	33.02
573.195	33.14
573.536	33.04
573.876	33.19
574.217	33.2
574.557	33.24
574.898	33.18
575.238	33.13
575.578	33.36
575.918	33.38
576.258	33.45
576.598	33.57
576.938	33.66
577.278	33.28
577.618	33.39
577.958	33.59
578.298	34.01
578.638	33.72
578.977	33.79
579.317	33.75
579.657	33.97
579.996	34.19
580.336	34.05
580.675	34.17
581.014	34.31
581.354	34.28
581.693	34.38
582.032	34.42
582.372	34.4
582.711	34.58
583.05	34.52
583.389	34.41
583.728	34.62
584.067	34.94
584.406	34.77
584.745	35.23
585.083	35.12
585.422	35.06
585.761	34.96
586.1	35.29
586.438	35.17
586.777	35.08
587.115	35.42
587.454	35.36
587.792	35.62
588.13	35.42
588.469	35.56
588.807	35.02
589.145	35.58
589.483	35.35
589.821	35.47
590.159	35.67
590.497	35.66
590.835	35.3
591.173	35.53
591.511	35.76
591.849	35.89
592.187	35.55
592.524	35.63
592.862	35.75
593.2	35.85
593.537	35.74
593.875	36.02
594.212	35.88
594.55	36.02
594.887	36.36
595.224	35.91
595.561	35.8
595.899	35.95
596.236	36.11
596.573	36.19
596.91	36.11
597.247	36.01
597.584	36.18
597.921	36.63
598.258	36.27
598.594	35.82
598.931	36.25
599.268	36.4
599.604	36.13
599.941	36.21
600.277	36.24
600.614	36.56
600.95	36.59
601.287	36.39
601.623	36.71
601.959	36.8
602.296	36.72
602.632	37.45
602.968	37
603.304	37.14
603.64	37.16
603.976	36.87
604.312	37.43
604.648	36.98
604.984	37.07
605.319	37.08
605.655	36.84
605.991	37.28
606.326	37.07
606.662	36.9
606.998	37.04
607.333	37.18
607.668	37.39
608.004	37.24
608.339	37.51
608.674	37.62
609.01	37.56
609.345	37.64
609.68	37.62
610.015	37.96
610.35	37.95
610.685	37.99
611.02	37.95
611.355	37.91
611.689	38.15
612.024	38.03
612.359	38.15
612.694	38.1
613.028	38.42
613.363	38.16
613.697	38.34
614.032	38.36
614.366	38.2
614.7	38.59
615.035	38.39
615.369	38.36
615.703	39.15
616.037	39.14
616.371	38.51
616.705	38.89
617.039	38.96
617.373	39.07
617.707	39.24
618.041	39.19
618.375	39.35
618.709	38.89
619.042	39.23
619.376	39.5
619.71	39.14
620.043	39.52
620.377	39.39
620.71	39.79
621.043	39.66
621.377	39.59
621.71	39.92
622.043	39.47
622.376	39.45
622.709	39.46
623.043	39.6
623.376	40.13
623.709	39.89
624.041	39.9
624.374	39.81
624.707	39.74
625.04	39.92
625.373	39.86
625.705	39.67
626.038	40.33
626.37	40.15
626.703	40.17
627.035	40.11
627.368	40.06
627.7	40.01
628.032	40.17
628.365	40.31
628.697	40.05
629.029	40.18
629.361	40.59
629.693	40.53
630.025	40.79
630.357	40.53
630.689	40.52
631.021	40.49
631.353	40.74
631.684	41
632.016	40.71
632.348	41
632.679	41.04
633.011	40.72
633.342	41.05
633.674	40.53
634.005	41.36
634.336	41.24
634.668	41.19
634.999	41.25
635.33	40.61
635.661	41.25
635.992	41.13
636.323	41.31
636.654	41.48
636.985	41.65
637.316	41.05
637.647	41.6
637.977	41.23
638.308	41.76
638.639	42.24
638.969	41.37
639.3	41.85
639.63	41.84
639.961	42
640.291	42.06
640.622	41.79
640.952	42.05
641.282	41.94
641.612	41.92
641.943	41.73
642.273	41.98
642.603	42.34
642.933	41.99
643.263	42.21
643.592	41.88
643.922	42.55
644.252	42.07
644.582	41.94
644.911	42.56
645.241	42.52
645.571	42.23
645.9	42.68
646.23	42.71
646.559	42.23
646.888	42.74
647.218	43.27
647.547	42.65
647.876	43.49
648.205	42.06
648.534	42.78
648.863	43.28
649.192	42.8
649.521	42.84
649.85	43.32
650.179	43.05
650.508	43.03
650.837	43.76
651.165	43.74
651.494	43.74
651.822	43.3
652.151	43.4
652.479	42.8
652.808	43.28
653.136	43.19
653.465	43.58
653.793	43.53
654.121	43.15
654.449	42.93
654.777	43.58
655.105	43.67
655.433	43.66
655.761	43.65
656.089	43.21
656.417	43.77
656.745	43.47
657.073	43.36
657.4	43.07
657.728	43.6
658.056	43.2
658.383	43.91
658.711	43.32
659.038	44.24
659.365	44.49
659.693	43.99
660.02	44.17
660.347	43.85
660.674	43.71
661.001	44.32
661.329	44
661.656	44.24
661.982	44.12
662.309	44.57
662.636	44.5
662.963	44.23
663.29	44.45
663.616	44.42
663.943	44.56
664.27	44.43
664.596	44.49
664.923	44.4
665.249	44.94
665.576	44.97
665.902	44.47
666.228	44.71
666.554	45.23
666.881	44.96
667.207	45.65
667.533	44.8
667.859	44.79
668.185	44.89
668.511	45.7
668.837	44.91
669.162	45.24
669.488	44.79
669.814	44.96
670.139	45.63
670.465	45.7
670.791	45.02
671.116	45.73
671.442	45.92
