Data from 0038_crown_Reflection__1__36.txt Node

Date: Fri Nov 04 14:57:52 CDT 2022
User: ToomeyLab
Spectrometer: FLMS14357
Trigger mode: 0
Integration Time (sec): 1.000000E-2
Scans to average: 100
Electric dark correction enabled: true
Nonlinearity correction enabled: false
Boxcar width: 0
XAxis mode: Wavelengths
Number of Pixels in Spectrum: 2048
>>>>>Begin Spectral Data<<<<<
189.047	105.67
189.435	105.67
189.823	105.67
190.211	-64.45
190.599	558.13
190.987	4.75
191.375	65.72
191.763	60.69
192.151	285.81
192.538	-54.34
192.926	148.17
193.314	-133.54
193.702	-619.04
194.089	208.82
194.477	9.2
194.864	34.99
195.252	55.33
195.639	-174.67
196.027	-175.27
196.414	-475.68
196.801	79.45
197.189	110.36
197.576	136.62
197.963	170.83
198.351	-45.34
198.738	6.65
199.125	8.61
199.512	-36.63
199.899	-15.8
200.286	-125.24
200.673	-30.37
201.06	12.81
201.447	-7.88
201.833	5.67
202.22	-23.77
202.607	17.88
202.994	9.55
203.38	30.12
203.767	-19.22
204.154	30.65
204.54	-34.69
204.927	19.47
205.313	26.29
205.699	30.85
206.086	-44.6
206.472	-19.11
206.858	-53.73
207.245	-14.3
207.631	4.18
208.017	-2.54
208.403	9.4
208.789	8.42
209.175	-4.1
209.561	-51.26
209.947	29.82
210.333	12.96
210.719	-3.44
211.105	-62.92
211.491	25.69
211.876	-1.45
212.262	0.43
212.648	-18.49
213.034	12.27
213.419	1.93
213.805	-24.52
214.19	-43.98
214.576	3.62
214.961	20.13
215.346	-12.85
215.732	12.69
216.117	-8.04
216.502	2.77
216.888	-7.67
217.273	-13.13
217.658	5.12
218.043	-7.9
218.428	24.94
218.813	-23.85
219.198	-13.62
219.583	-38.16
219.968	6.21
220.353	-19.56
220.738	-32.81
221.122	-0.97
221.507	5.12
221.892	-16.05
222.276	-11.13
222.661	0.81
223.046	-3.54
223.43	0.07
223.815	-13.68
224.199	0.81
224.583	-12.77
224.968	-4.87
225.352	0.29
225.736	-7.36
226.121	-6.1
226.505	8.27
226.889	0.63
227.273	-1.11
227.657	0.4
228.041	5.74
228.425	-0.33
228.809	0.9
229.193	1.41
229.577	-0.95
229.961	2.31
230.344	1.74
230.728	1.08
231.112	0.6
231.495	1.38
231.879	2.2
232.263	0.81
232.646	1.03
233.03	0.32
233.413	0.26
233.797	0.85
234.18	0.04
234.563	1.95
234.946	0.55
235.33	2.61
235.713	0.77
236.096	1.12
236.479	0.83
236.862	1.45
237.245	1.42
237.628	0.92
238.011	-1.8
238.394	1.39
238.777	1.83
239.16	1.51
239.543	0.3
239.925	1.24
240.308	0.58
240.691	1.96
241.073	0.95
241.456	0.85
241.838	0.39
242.221	1.2
242.603	0.86
242.986	0.95
243.368	1.7
243.75	1.21
244.133	1.81
244.515	1.39
244.897	1.43
245.279	1.29
245.661	1.59
246.043	2
246.425	1.51
246.807	1.95
247.189	0.97
247.571	1.74
247.953	1.46
248.335	1.09
248.717	1.49
249.098	1.29
249.48	1.24
249.862	1.5
250.243	0.9
250.625	1.02
251.006	1.28
251.388	1.71
251.769	1.48
252.151	1.34
252.532	1.5
252.913	0.42
253.295	1.13
253.676	1.59
254.057	1.29
254.438	1
254.819	1.26
255.2	0.68
255.581	1.67
255.962	1.3
256.343	0.91
256.724	1.48
257.105	0.32
257.486	2.56
257.867	2.95
258.247	1.29
258.628	0.92
259.009	0.87
259.389	1.56
259.77	1.48
260.15	1.03
260.531	1.37
260.911	1.21
261.292	1.03
261.672	1.19
262.052	1.23
262.432	1.33
262.813	0.73
263.193	0.7
263.573	1.38
263.953	0.99
264.333	1.39
264.713	1.87
265.093	1.02
265.473	1.44
265.853	1.08
266.233	1.11
266.612	0.98
266.992	1.7
267.372	0.48
267.752	1.53
268.131	1.48
268.511	1.43
268.89	1.42
269.27	0.88
269.649	1.54
270.029	0.62
270.408	1.06
270.787	1.44
271.167	1.55
271.546	1.77
271.925	1.28
272.304	1.02
272.683	0.95
273.062	1.3
273.441	1.39
273.82	0.97
274.199	1.44
274.578	0.77
274.957	1.21
275.336	1.09
275.715	1.03
276.093	1.05
276.472	0.78
276.851	0.71
277.229	1.14
277.608	1.35
277.986	1.56
278.365	1.07
278.743	1.32
279.122	0.86
279.5	1.11
279.878	1.33
280.257	0.89
280.635	1.01
281.013	0.92
281.391	1.26
281.769	0.89
282.147	0.34
282.525	1.04
282.903	1.33
283.281	1.42
283.659	1.1
284.037	0.97
284.415	1.07
284.792	1.15
285.17	0.95
285.548	0.98
285.925	1.1
286.303	1.49
286.68	1.06
287.058	1.25
287.435	0.95
287.813	0.99
288.19	1.2
288.567	1.18
288.945	1.15
289.322	1.13
289.699	1.61
290.076	1.66
290.453	0.66
290.83	0.88
291.207	0.99
291.584	1.48
291.961	1.11
292.338	1.51
292.715	1.26
293.092	1.11
293.469	1.01
293.845	0.88
294.222	0.78
294.599	0.63
294.975	0.7
295.352	1.21
295.728	1.19
296.105	1.08
296.481	1.22
296.858	1.16
297.234	1.7
297.61	1.2
297.986	0.74
298.363	0.83
298.739	1.01
299.115	1.24
299.491	1.26
299.867	1.13
300.243	0.91
300.619	1.06
300.995	0.93
301.371	1.05
301.746	1.15
302.122	1.34
302.498	0.87
302.874	1.34
303.249	1.17
303.625	0.8
304	1.47
304.376	0.71
304.751	0.84
305.127	0.43
305.502	0.84
305.878	1.41
306.253	1.29
306.628	0.95
307.003	0.84
307.378	0.79
307.754	0.76
308.129	0.9
308.504	1.23
308.879	1.22
309.254	0.96
309.629	1.36
310.003	1.39
310.378	1.19
310.753	1.18
311.128	0.79
311.502	0.71
311.877	1.4
312.252	0.87
312.626	0.71
313.001	1.2
313.375	1.16
313.75	1.17
314.124	1.09
314.498	1.05
314.873	1.27
315.247	1.27
315.621	1.48
315.995	1.2
316.369	0.89
316.743	1.67
317.117	1.41
317.491	1.5
317.865	0.85
318.239	1.47
318.613	1.58
318.987	0.76
319.361	1.02
319.734	1.47
320.108	0.89
320.482	0.62
320.855	1.69
321.229	1.07
321.602	0.93
321.976	1.19
322.349	1.33
322.723	1.25
323.096	1.31
323.469	0.66
323.843	1.36
324.216	1.38
324.589	1.35
324.962	1.39
325.335	0.83
325.708	0.58
326.081	0.98
326.454	1.02
326.827	1.27
327.2	1.32
327.573	0.92
327.945	1.03
328.318	1.02
328.691	1.07
329.063	0.88
329.436	1.33
329.809	1.1
330.181	1.03
330.553	0.97
330.926	0.73
331.298	1.59
331.671	1.12
332.043	1.29
332.415	0.73
332.787	0.65
333.159	1.04
333.532	0.41
333.904	1.67
334.276	1.04
334.648	1.45
335.02	1
335.391	1.31
335.763	0.93
336.135	1.32
336.507	0.9
336.879	0.75
337.25	1.5
337.622	1.33
337.993	1.09
338.365	0.88
338.736	1
339.108	1.47
339.479	1.22
339.851	0.9
340.222	0.75
340.593	1.05
340.964	1.04
341.336	0.79
341.707	0.64
342.078	0.81
342.449	1.19
342.82	1.11
343.191	0.86
343.562	1.2
343.933	1.38
344.303	1.33
344.674	0.9
345.045	0.61
345.416	0.8
345.786	1.64
346.157	1.37
346.527	1.2
346.898	1.28
347.268	1.17
347.639	0.82
348.009	1.5
348.38	1.03
348.75	0.88
349.12	0.9
349.49	1
349.861	0.79
350.231	0.91
350.601	1.03
350.971	0.93
351.341	0.8
351.711	0.98
352.081	1.46
352.45	1.36
352.82	1
353.19	1.41
353.56	0.95
353.929	1.21
354.299	1.25
354.669	1.09
355.038	1.49
355.408	0.91
355.777	1.24
356.147	0.75
356.516	0.92
356.885	0.93
357.254	1.3
357.624	1.06
357.993	0.93
358.362	0.92
358.731	1.09
359.1	1.25
359.469	0.98
359.838	1.23
360.207	1.1
360.576	1.18
360.945	1.32
361.314	1.39
361.682	1.11
362.051	1.07
362.42	1.18
362.788	1.16
363.157	1.27
363.525	1.04
363.894	1.06
364.262	1.28
364.631	1.39
364.999	1.18
365.367	1.11
365.735	1.57
366.104	1.06
366.472	1.4
366.84	0.78
367.208	1.12
367.576	1.1
367.944	1.42
368.312	0.89
368.68	1.06
369.048	1.07
369.416	1.34
369.783	0.78
370.151	0.98
370.519	1.78
370.886	1.05
371.254	1.31
371.621	1.18
371.989	0.85
372.356	1.27
372.724	1.19
373.091	1.12
373.458	1.29
373.826	1.34
374.193	0.94
374.56	1.04
374.927	1.54
375.294	0.77
375.661	1.24
376.028	1.12
376.395	1.22
376.762	1.2
377.129	1.37
377.496	1.31
377.863	1.32
378.229	0.92
378.596	0.87
378.963	1.28
379.329	0.96
379.696	1.23
380.062	1.34
380.429	1.4
380.795	1.31
381.161	1.04
381.528	1.58
381.894	1.22
382.26	1.28
382.626	1.09
382.993	1.24
383.359	1.19
383.725	1.18
384.091	1.25
384.457	1.41
384.823	0.93
385.188	1.23
385.554	1.19
385.92	1.08
386.286	1.04
386.651	1.1
387.017	0.94
387.383	1.25
387.748	0.89
388.114	1.04
388.479	1.69
388.845	1.27
389.21	1.53
389.575	1.49
389.94	1.31
390.306	1.31
390.671	1.43
391.036	0.86
391.401	1.42
391.766	1.26
392.131	1.19
392.496	1.49
392.861	1.46
393.226	1.18
393.591	1.4
393.956	1.28
394.32	1.03
394.685	1.15
395.05	1.41
395.414	1.43
395.779	1.12
396.143	1.16
396.508	1.35
396.872	1.1
397.236	1.22
397.601	1.23
397.965	1.21
398.329	1.15
398.694	1.44
399.058	1.33
399.422	1.15
399.786	1.03
400.15	1.15
400.514	1.47
400.878	1.28
401.242	1.25
401.605	1.15
401.969	1.42
402.333	1.26
402.697	1.43
403.06	1.5
403.424	1.21
403.787	1.36
404.151	1.26
404.514	1.34
404.878	1.31
405.241	1.19
405.604	1.41
405.968	1.25
406.331	1.19
406.694	1.12
407.057	1.27
407.42	1.35
407.783	1.21
408.146	1.14
408.509	1.28
408.872	1.24
409.235	1.11
409.598	1.29
409.961	1.25
410.323	1.21
410.686	1.32
411.049	1.23
411.411	1.17
411.774	1.28
412.136	1.34
412.499	1.54
412.861	1.16
413.223	1.12
413.586	1.26
413.948	1.3
414.31	1.43
414.672	1.23
415.035	1.36
415.397	1.28
415.759	1.68
416.121	1.16
416.483	1.33
416.845	1.44
417.206	1.2
417.568	1.48
417.93	1.18
418.292	1.26
418.653	1.36
419.015	1.31
419.377	1.46
419.738	1.39
420.1	1.52
420.461	1.28
420.822	1.21
421.184	1.37
421.545	1.16
421.906	1.33
422.267	1.18
422.629	1.47
422.99	1.22
423.351	1.14
423.712	1.29
424.073	1.37
424.434	1.32
424.795	1.38
425.155	1.41
425.516	1.31
425.877	1.33
426.238	1.27
426.598	1.31
426.959	1.26
427.32	1.32
427.68	1.32
428.041	1.32
428.401	1.41
428.761	1.33
429.122	1.39
429.482	1.27
429.842	1.13
430.202	1.64
430.563	1.42
430.923	1.39
431.283	1.32
431.643	1.47
432.003	1.54
432.363	1.48
432.722	1.42
433.082	1.57
433.442	1.23
433.802	1.23
434.161	1.44
434.521	1.27
434.881	1.35
435.24	1.22
435.6	1.41
435.959	1.32
436.319	1.39
436.678	1.43
437.037	1.47
437.396	1.55
437.756	1.44
438.115	1.32
438.474	1.47
438.833	1.5
439.192	1.33
439.551	1.39
439.91	1.41
440.269	1.4
440.628	1.38
440.987	1.36
441.345	1.36
441.704	1.32
442.063	1.26
442.421	1.4
442.78	1.46
443.138	1.36
443.497	1.37
443.855	1.41
444.214	1.52
444.572	1.35
444.93	1.28
445.288	1.35
445.647	1.28
446.005	1.36
446.363	1.35
446.721	1.27
447.079	1.33
447.437	1.35
447.795	1.43
448.153	1.38
448.51	1.36
448.868	1.41
449.226	1.31
449.584	1.34
449.941	1.39
450.299	1.38
450.656	1.38
451.014	1.43
451.371	1.54
451.729	1.45
452.086	1.47
452.443	1.49
452.801	1.39
453.158	1.32
453.515	1.46
453.872	1.22
454.229	1.53
454.586	1.35
454.943	1.44
455.3	1.42
455.657	1.26
456.014	1.39
456.371	1.45
456.727	1.56
457.084	1.58
457.441	1.52
457.797	1.34
458.154	1.53
458.51	1.51
458.867	1.35
459.223	1.4
459.58	1.58
459.936	1.3
460.292	1.37
460.648	1.46
461.005	1.23
461.361	1.49
461.717	1.45
462.073	1.5
462.429	1.5
462.785	1.46
463.141	1.42
463.496	1.34
463.852	1.4
464.208	1.43
464.564	1.39
464.919	1.5
465.275	1.51
465.631	1.58
465.986	1.59
466.342	1.38
466.697	1.37
467.052	1.38
467.408	1.39
467.763	1.4
468.118	1.47
468.473	1.48
468.829	1.28
469.184	1.44
469.539	1.3
469.894	1.5
470.249	1.39
470.603	1.43
470.958	1.36
471.313	1.45
471.668	1.34
472.023	1.25
472.377	1.48
472.732	1.42
473.086	1.44
473.441	1.4
473.795	1.44
474.15	1.49
474.504	1.53
474.859	1.37
475.213	1.54
475.567	1.42
475.921	1.54
476.275	1.54
476.63	1.53
476.984	1.36
477.338	1.38
477.692	1.53
478.045	1.53
478.399	1.5
478.753	1.45
479.107	1.46
479.461	1.59
479.814	1.5
480.168	1.47
480.521	1.36
480.875	1.45
481.228	1.54
481.582	1.48
481.935	1.52
482.289	1.35
482.642	1.47
482.995	1.57
483.348	1.43
483.701	1.44
484.055	1.49
484.408	1.44
484.761	1.42
485.114	1.39
485.466	1.35
485.819	1.35
486.172	1.37
486.525	1.38
486.878	1.48
487.23	1.43
487.583	1.49
487.936	1.46
488.288	1.47
488.641	1.43
488.993	1.36
489.345	1.38
489.698	1.39
490.05	1.44
490.402	1.41
490.754	1.46
491.107	1.5
491.459	1.49
491.811	1.37
492.163	1.57
492.515	1.51
492.866	1.44
493.218	1.39
493.57	1.37
493.922	1.46
494.274	1.44
494.625	1.52
494.977	1.51
495.328	1.47
495.68	1.56
496.031	1.38
496.383	1.47
496.734	1.45
497.086	1.57
497.437	1.59
497.788	1.55
498.139	1.4
498.49	1.48
498.842	1.54
499.193	1.45
499.544	1.53
499.894	1.46
500.245	1.54
500.596	1.51
500.947	1.55
501.298	1.45
501.648	1.6
501.999	1.62
502.35	1.55
502.7	1.45
503.051	1.67
503.401	1.54
503.752	1.55
504.102	1.53
504.452	1.67
504.803	1.63
505.153	1.55
505.503	1.5
505.853	1.54
506.203	1.51
506.553	1.58
506.903	1.61
507.253	1.52
507.603	1.51
507.953	1.52
508.303	1.59
508.652	1.63
509.002	1.59
509.352	1.64
509.701	1.52
510.051	1.5
510.4	1.49
510.75	1.54
511.099	1.64
511.449	1.57
511.798	1.51
512.147	1.52
512.496	1.48
512.846	1.44
513.195	1.59
513.544	1.41
513.893	1.55
514.242	1.48
514.591	1.48
514.939	1.57
515.288	1.48
515.637	1.48
515.986	1.35
516.334	1.55
516.683	1.52
517.032	1.57
517.38	1.59
517.729	1.57
518.077	1.55
518.426	1.59
518.774	1.57
519.122	1.56
519.47	1.5
519.819	1.49
520.167	1.48
520.515	1.49
520.863	1.43
521.211	1.5
521.559	1.52
521.907	1.48
522.255	1.6
522.602	1.53
522.95	1.56
523.298	1.66
523.645	1.57
523.993	1.59
524.341	1.49
524.688	1.58
525.036	1.48
525.383	1.66
525.73	1.59
526.078	1.55
526.425	1.58
526.772	1.47
527.119	1.46
527.466	1.54
527.814	1.43
528.161	1.5
528.508	1.53
528.854	1.51
529.201	1.45
529.548	1.45
529.895	1.43
530.242	1.44
530.588	1.45
530.935	1.44
531.282	1.53
531.628	1.46
531.975	1.54
532.321	1.54
532.667	1.58
533.014	1.59
533.36	1.57
533.706	1.54
534.052	1.57
534.399	1.59
534.745	1.52
535.091	1.43
535.437	1.49
535.783	1.49
536.129	1.57
536.474	1.57
536.82	1.52
537.166	1.5
537.512	1.57
537.857	1.51
538.203	1.5
538.549	1.53
538.894	1.57
539.239	1.6
539.585	1.52
539.93	1.49
540.276	1.59
540.621	1.53
540.966	1.67
541.311	1.31
541.656	1.64
542.001	1.54
542.346	1.55
542.691	1.49
543.036	1.43
543.381	1.51
543.726	1.53
544.071	1.48
544.415	1.52
544.76	1.54
545.105	1.51
545.449	1.56
545.794	1.52
546.138	1.53
546.483	1.62
546.827	1.62
547.171	1.6
547.516	1.67
547.86	1.53
548.204	1.58
548.548	1.5
548.892	1.58
549.236	1.54
549.58	1.61
549.924	1.62
550.268	1.79
550.612	1.54
550.956	1.63
551.3	1.63
551.643	1.6
551.987	1.4
552.33	1.54
552.674	1.53
553.017	1.64
553.361	1.84
553.704	1.69
554.048	1.52
554.391	1.5
554.734	1.68
555.077	1.58
555.42	1.61
555.764	1.72
556.107	1.71
556.45	1.73
556.793	1.71
557.135	1.54
557.478	1.57
557.821	1.64
558.164	1.68
558.507	1.63
558.849	1.71
559.192	1.52
559.534	1.57
559.877	1.61
560.219	1.79
560.562	1.63
560.904	1.69
561.246	1.6
561.589	1.63
561.931	1.63
562.273	1.75
562.615	1.61
562.957	1.64
563.299	1.54
563.641	1.74
563.983	1.62
564.325	1.45
564.667	1.61
565.008	1.54
565.35	1.6
565.692	1.8
566.033	1.53
566.375	1.69
566.716	1.73
567.058	1.72
567.399	1.73
567.741	1.68
568.082	1.71
568.423	1.63
568.764	1.64
569.105	1.61
569.447	1.65
569.788	1.55
570.129	1.66
570.47	1.7
570.811	1.6
571.151	1.72
571.492	1.76
571.833	1.59
572.174	1.73
572.514	1.72
572.855	1.49
573.195	1.44
573.536	1.59
573.876	1.63
574.217	1.63
574.557	1.45
574.898	1.56
575.238	1.47
575.578	1.7
575.918	1.75
576.258	1.71
576.598	1.6
576.938	1.67
577.278	1.57
577.618	1.53
577.958	1.58
578.298	1.61
578.638	1.7
578.977	1.56
579.317	1.77
579.657	1.77
579.996	1.43
580.336	1.54
580.675	1.6
581.014	1.96
581.354	1.61
581.693	1.77
582.032	1.64
582.372	1.84
582.711	1.8
583.05	1.67
583.389	1.59
583.728	1.45
584.067	1.78
584.406	1.4
584.745	1.94
585.083	1.6
585.422	1.98
585.761	1.72
586.1	1.39
586.438	1.62
586.777	1.58
587.115	1.55
587.454	1.74
587.792	1.96
588.13	1.56
588.469	1.76
588.807	1.85
589.145	1.6
589.483	1.4
589.821	1.69
590.159	1.66
590.497	1.7
590.835	1.53
591.173	1.63
591.511	1.81
591.849	1.83
592.187	1.6
592.524	1.59
592.862	1.6
593.2	1.76
593.537	1.57
593.875	1.7
594.212	1.63
594.55	1.63
594.887	1.7
595.224	1.59
595.561	1.35
595.899	1.62
596.236	1.74
596.573	1.61
596.91	1.63
597.247	1.62
597.584	1.6
597.921	1.78
598.258	1.83
598.594	1.4
598.931	1.64
599.268	1.72
599.604	1.65
599.941	1.73
600.277	1.7
600.614	1.79
600.95	1.76
601.287	1.58
601.623	1.63
601.959	1.6
602.296	1.84
602.632	1.77
602.968	1.74
603.304	1.64
603.64	1.77
603.976	1.32
604.312	1.66
604.648	1.45
604.984	1.46
605.319	1.55
605.655	1.58
605.991	1.81
606.326	1.71
606.662	1.51
606.998	1.45
607.333	1.66
607.668	1.69
608.004	1.48
608.339	1.47
608.674	1.68
609.01	1.71
609.345	1.53
609.68	1.63
610.015	1.46
610.35	1.7
610.685	1.8
611.02	1.8
611.355	1.64
611.689	1.67
612.024	1.58
612.359	1.58
612.694	1.7
613.028	2
613.363	1.95
613.697	1.61
614.032	1.79
614.366	1.69
614.7	1.56
615.035	1.82
615.369	1.42
615.703	1.9
616.037	1.74
616.371	2.12
616.705	1.3
617.039	1.86
617.373	1.89
617.707	1.94
618.041	1.7
618.375	1.66
618.709	1.61
619.042	1.86
619.376	1.5
619.71	1.78
620.043	2.11
620.377	1.92
620.71	1.71
621.043	1.84
621.377	1.82
621.71	1.79
622.043	1.7
622.376	1.86
622.709	1.86
623.043	2.04
623.376	1.99
623.709	1.65
624.041	1.48
624.374	1.64
624.707	1.51
625.04	2
625.373	1.84
625.705	1.56
626.038	1.49
626.37	1.67
626.703	1.88
627.035	1.63
627.368	1.63
627.7	1.86
628.032	1.68
628.365	2.29
628.697	1.78
629.029	1.78
629.361	1.58
629.693	1.73
630.025	2
630.357	1.63
630.689	1.93
631.021	1.61
631.353	1.8
631.684	1.61
632.016	1.84
632.348	1.41
632.679	1.5
633.011	1.6
633.342	1.71
633.674	1.62
634.005	1.64
634.336	2.11
634.668	1.6
634.999	1.71
635.33	1.46
635.661	2.06
635.992	1.45
636.323	1.71
636.654	1.4
636.985	1.63
637.316	1.68
637.647	1.59
637.977	1.93
638.308	2.14
638.639	1.96
638.969	1.58
639.3	1.97
639.63	2.05
639.961	1.84
640.291	2.13
640.622	1.84
640.952	1.69
641.282	1.83
641.612	1.68
641.943	1.53
642.273	1.2
642.603	1.91
642.933	1.54
643.263	1.04
643.592	1.67
643.922	1.89
644.252	1.74
644.582	1.8
644.911	1.82
645.241	1.83
645.571	1.29
645.9	1.51
646.23	1.64
646.559	2.23
646.888	2.1
647.218	2.24
647.547	1.86
647.876	1.7
648.205	1.44
648.534	1.63
648.863	1.71
649.192	1.86
649.521	1.41
649.85	1.79
650.179	1.45
650.508	1.87
650.837	2.01
651.165	1.96
651.494	1.92
651.822	1.72
652.151	2.08
652.479	1.74
652.808	1.21
653.136	1.56
653.465	1.73
653.793	1.87
654.121	2.03
654.449	1.55
654.777	1.26
655.105	1.9
655.433	1.65
655.761	1.76
656.089	1.58
656.417	1.92
656.745	1.48
657.073	1.49
657.4	1.32
657.728	1.47
658.056	1.31
658.383	1.87
658.711	2.03
659.038	1.9
659.365	2.14
659.693	2.09
660.02	1.79
660.347	1.67
660.674	1.72
661.001	1.83
661.329	2.05
661.656	1.85
661.982	1.42
662.309	1.94
662.636	2.1
662.963	1.83
663.29	1.49
663.616	1.81
663.943	1.51
664.27	2.02
664.596	1.82
664.923	1.54
665.249	1.8
665.576	2.1
665.902	1.1
666.228	1.53
666.554	2.03
666.881	1.45
667.207	1.8
667.533	2.21
667.859	1.54
668.185	1.9
668.511	1.89
668.837	2.17
669.162	2.31
669.488	1.2
669.814	1.83
670.139	1.6
670.465	1.8
670.791	1.13
671.116	1.28
671.442	1.58
671.767	2.03
672.092	1.71
672.418	1.83
672.743	2.33
673.068	1.68
673.393	2.18
673.718	1.56
674.043	1.56
674.368	1.06
674.693	1.71
675.018	1.76
675.343	2.1
675.667	1.94
675.992	1.98
676.317	1.86
676.641	2.25
676.966	1.56
677.29	1.71
677.615	2.05
677.939	2.25
678.264	1.98
678.588	2.05
678.912	2.77
679.236	2.02
679.56	2.09
679.885	1.62
680.209	1.72
680.532	1.56
680.856	1.61
681.18	1.4
681.504	1.56
681.828	1.54
682.152	2.4
682.475	1.9
682.799	2.32
683.122	1.91
683.446	1.78
683.769	1.42
684.093	1.84
684.416	1.51
684.739	1.43
685.062	2.01
685.386	1.7
685.709	2.38
686.032	2.17
686.355	2.64
686.678	2.21
687.001	2.14
687.324	1.87
687.646	2.33
687.969	1.35
688.292	1.61
688.614	2.26
688.937	1.13
689.26	1.49
689.582	1.98
689.904	1.61
690.227	2.05
690.549	1.76
690.871	2.11
691.194	1.89
691.516	1.71
691.838	1.48
692.16	2.16
692.482	1.29
