Data from 0038_forehead_Reflection__4__44.txt Node

Date: Fri Nov 04 15:00:12 CDT 2022
User: ToomeyLab
Spectrometer: FLMS14357
Trigger mode: 0
Integration Time (sec): 1.000000E-2
Scans to average: 100
Electric dark correction enabled: true
Nonlinearity correction enabled: false
Boxcar width: 0
XAxis mode: Wavelengths
Number of Pixels in Spectrum: 2048
>>>>>Begin Spectral Data<<<<<
189.047	-14.16
189.435	-14.16
189.823	-14.16
190.211	4.18
190.599	510.12
190.987	171.74
191.375	91.59
191.763	75.98
192.151	89.55
192.538	49.57
192.926	183.19
193.314	-320.41
193.702	-307.13
194.089	174.62
194.477	6.06
194.864	156.77
195.252	79.03
195.639	-76.64
196.027	1053.99
196.414	-326.14
196.801	62.16
197.189	40.33
197.576	6.63
197.963	472.02
198.351	31.3
198.738	7.2
199.125	25.49
199.512	-17.97
199.899	-8.71
200.286	54.4
200.673	21.29
201.06	3.46
201.447	29.21
201.833	6.14
202.22	37.8
202.607	9.55
202.994	28.66
203.38	34.88
203.767	10.37
204.154	34.88
204.54	-14.41
204.927	12.23
205.313	23.64
205.699	27.33
206.086	26.64
206.472	3.41
206.858	-1.34
207.245	32.56
207.631	30.06
208.017	40.62
208.403	3.48
208.789	29.72
209.175	5.8
209.561	-16.78
209.947	-43.85
210.333	-1.7
210.719	35.83
211.105	-32.28
211.491	-1.32
211.876	23.74
212.262	-3.37
212.648	5.16
213.034	36.16
213.419	-11
213.805	11.63
214.19	-11
214.576	3.69
214.961	36.17
215.346	32.37
215.732	7.59
216.117	25.3
216.502	31.73
216.888	-12.32
217.273	23.64
217.658	13.73
218.043	16.91
218.428	18.69
218.813	30.11
219.198	13.65
219.583	6.57
219.968	0.49
220.353	-17.17
220.738	-8.2
221.122	2.75
221.507	11.93
221.892	-7.14
222.276	6.63
222.661	18.52
223.046	5.59
223.43	-8.26
223.815	9.71
224.199	9.49
224.583	3.83
224.968	-0.04
225.352	4.79
225.736	8.17
226.121	1.23
226.505	9.47
226.889	3.43
227.273	9.16
227.657	5.81
228.041	8.67
228.425	6.44
228.809	6.39
229.193	6.81
229.577	3.59
229.961	3.99
230.344	4.8
230.728	4.88
231.112	3.98
231.495	4.2
231.879	4.56
232.263	4.02
232.646	3.7
233.03	3.16
233.413	3.61
233.797	3
234.18	4.51
234.563	5.87
234.946	3.99
235.33	4.86
235.713	4.02
236.096	4.57
236.479	4.14
236.862	3.94
237.245	5.19
237.628	5.42
238.011	2.94
238.394	5.91
238.777	5.61
239.16	6.03
239.543	2.69
239.925	5.1
240.308	4.89
240.691	3.14
241.073	4.91
241.456	4.01
241.838	3.68
242.221	4.1
242.603	4.11
242.986	4.18
243.368	4.74
243.75	4.53
244.133	4.04
244.515	4.46
244.897	4.08
245.279	4.49
245.661	4.92
246.043	5.48
246.425	4.22
246.807	5.88
247.189	4.74
247.571	4.97
247.953	4.52
248.335	4.37
248.717	4.58
249.098	4.28
249.48	4.62
249.862	4.57
250.243	4.57
250.625	4.36
251.006	4.66
251.388	4.87
251.769	5.11
252.151	4.94
252.532	4.92
252.913	4.89
253.295	4.75
253.676	4.83
254.057	4.44
254.438	4.69
254.819	4.91
255.2	4.26
255.581	6.2
255.962	5.66
256.343	5.09
256.724	5.87
257.105	5.14
257.486	5.96
257.867	6.63
258.247	5.1
258.628	5.04
259.009	4.24
259.389	4.63
259.77	4.79
260.15	4.48
260.531	5.22
260.911	4.45
261.292	4.38
261.672	4.46
262.052	4.52
262.432	4.6
262.813	4.81
263.193	3.94
263.573	4.8
263.953	4.93
264.333	5.23
264.713	4.89
265.093	4.71
265.473	4.97
265.853	4.15
266.233	4.51
266.612	5.42
266.992	5.46
267.372	4.3
267.752	4.83
268.131	4.9
268.511	4.45
268.89	5.38
269.27	4.65
269.649	4.64
270.029	4.81
270.408	4.44
270.787	5.01
271.167	4.76
271.546	5.4
271.925	4.57
272.304	4.41
272.683	4.56
273.062	4.55
273.441	4.8
273.82	4.41
274.199	4.82
274.578	4.54
274.957	4.34
275.336	4.65
275.715	4.37
276.093	4.49
276.472	4.88
276.851	4.39
277.229	4.28
277.608	4.69
277.986	4.94
278.365	4.95
278.743	4.96
279.122	4.54
279.5	4.71
279.878	4.41
280.257	4.81
280.635	4.27
281.013	4.33
281.391	4.58
281.769	4.55
282.147	4.15
282.525	5.04
282.903	4.85
283.281	5.08
283.659	4.48
284.037	4.38
284.415	4.75
284.792	4.73
285.17	4.25
285.548	5.14
285.925	4.87
286.303	4.73
286.68	5.18
287.058	4.81
287.435	4.8
287.813	4.64
288.19	4.94
288.567	4.84
288.945	4.74
289.322	4.83
289.699	5.06
290.076	5.18
290.453	4.72
290.83	5.01
291.207	4.89
291.584	4.96
291.961	5.39
292.338	5.14
292.715	5.25
293.092	5.21
293.469	5.27
293.845	5.36
294.222	5.09
294.599	5.54
294.975	5.25
295.352	5.19
295.728	5.4
296.105	5.7
296.481	5.56
296.858	5.57
297.234	5.88
297.61	6.04
297.986	5.6
298.363	5.34
298.739	5.79
299.115	5.77
299.491	5.81
299.867	5.79
300.243	5.6
300.619	6.19
300.995	6.26
301.371	6.54
301.746	5.55
302.122	6.4
302.498	6.51
302.874	6.26
303.249	5.72
303.625	6.33
304	6.26
304.376	5.87
304.751	6.9
305.127	6.11
305.502	6.42
305.878	6.72
306.253	6.5
306.628	6.31
307.003	6.96
307.378	6.74
307.754	6.69
308.129	6.34
308.504	6.89
308.879	7.22
309.254	7.21
309.629	7.52
310.003	7.1
310.378	7.19
310.753	7.28
311.128	7.36
311.502	6.9
311.877	7.37
312.252	7.22
312.626	7.64
313.001	7.7
313.375	7.74
313.75	7.35
314.124	7.72
314.498	7.77
314.873	7.91
315.247	8.03
315.621	7.79
315.995	8.41
316.369	8.23
316.743	9.02
317.117	8.13
317.491	8.5
317.865	8.21
318.239	8.35
318.613	8.91
318.987	8.67
319.361	8.69
319.734	9.03
320.108	8.74
320.482	8.42
320.855	9.03
321.229	8.84
321.602	9.17
321.976	8.76
322.349	9.1
322.723	9.28
323.096	9.73
323.469	8.98
323.843	8.56
324.216	9.09
324.589	9.27
324.962	9.34
325.335	9.32
325.708	9.28
326.081	9.52
326.454	9.51
326.827	9.85
327.2	9.87
327.573	9.39
327.945	9.7
328.318	9.51
328.691	10.16
329.063	9.82
329.436	10.07
329.809	10.14
330.181	9.99
330.553	9.96
330.926	10
331.298	10.82
331.671	10
332.043	10.25
332.415	10.04
332.787	10.19
333.159	9.94
333.532	10.25
333.904	10.72
334.276	10.73
334.648	10.82
335.02	10.18
335.391	10.64
335.763	10.45
336.135	10.58
336.507	11.18
336.879	10.65
337.25	11.5
337.622	11.16
337.993	10.78
338.365	10.99
338.736	11.12
339.108	11.4
339.479	10.95
339.851	10.82
340.222	11.28
340.593	11.45
340.964	11.28
341.336	11.44
341.707	11.42
342.078	11.64
342.449	11.51
342.82	11.85
343.191	11.34
343.562	11.56
343.933	11.7
344.303	11.94
344.674	11.96
345.045	11.8
345.416	11.29
345.786	12.34
346.157	11.98
346.527	11.98
346.898	12.39
347.268	12.11
347.639	11.9
348.009	12.3
348.38	12.03
348.75	12.36
349.12	11.79
349.49	12.28
349.861	12.24
350.231	12.68
350.601	12.63
350.971	12.46
351.341	12.45
351.711	12.52
352.081	12.5
352.45	12.7
352.82	12.95
353.19	13.18
353.56	13.06
353.929	12.78
354.299	13.33
354.669	13.15
355.038	13.07
355.408	12.89
355.777	13.11
356.147	12.98
356.516	13.29
356.885	13.18
357.254	13.14
357.624	13.14
357.993	13.37
358.362	13.56
358.731	13.46
359.1	13.09
359.469	13.47
359.838	13.72
360.207	13.55
360.576	13.48
360.945	13.91
361.314	13.7
361.682	13.78
362.051	13.83
362.42	13.77
362.788	13.63
363.157	13.74
363.525	13.9
363.894	13.84
364.262	14.01
364.631	14.24
364.999	14.18
365.367	14.05
365.735	14.53
366.104	14.37
366.472	14.57
366.84	14.06
367.208	14.65
367.576	14.54
367.944	14.82
368.312	14.6
368.68	14.47
369.048	14.33
369.416	14.27
369.783	14.65
370.151	14.61
370.519	15.22
370.886	14.9
371.254	14.92
371.621	15.27
371.989	15.09
372.356	14.98
372.724	15.02
373.091	15.14
373.458	15.4
373.826	15.36
374.193	15.23
374.56	15.21
374.927	15.59
375.294	15.04
375.661	15.29
376.028	15.29
376.395	15.94
376.762	15.61
377.129	15.85
377.496	15.78
377.863	15.69
378.229	15.3
378.596	15.58
378.963	15.59
379.329	15.71
379.696	15.69
380.062	16.15
380.429	15.95
380.795	15.89
381.161	16.1
381.528	16.45
381.894	15.74
382.26	16.03
382.626	15.9
382.993	16.33
383.359	16.52
383.725	16.25
384.091	16.23
384.457	16.54
384.823	16.42
385.188	16.26
385.554	16.39
385.92	16.43
386.286	16.55
386.651	16.76
387.017	16.6
387.383	16.89
387.748	16.92
388.114	16.74
388.479	17.51
388.845	17.04
389.21	17.13
389.575	17.14
389.94	17.19
390.306	17.02
390.671	17.01
391.036	17
391.401	17.43
391.766	17.1
392.131	17.21
392.496	17.7
392.861	17.5
393.226	17.49
393.591	17.13
393.956	17.72
394.32	17.43
394.685	17.74
395.05	17.82
395.414	17.61
395.779	17.77
396.143	17.67
396.508	17.76
396.872	17.85
397.236	17.95
397.601	17.8
397.965	17.74
398.329	18
398.694	18.27
399.058	18.17
399.422	18.21
399.786	18.25
400.15	18.37
400.514	18.03
400.878	18.24
401.242	18.53
401.605	18.17
401.969	18.45
402.333	18.67
402.697	18.54
403.06	18.83
403.424	18.59
403.787	18.33
404.151	18.64
404.514	18.83
404.878	18.73
405.241	18.94
405.604	18.8
405.968	18.78
406.331	18.76
406.694	19.08
407.057	19.03
407.42	18.97
407.783	18.85
408.146	19.1
408.509	19.19
408.872	19.21
409.235	19.26
409.598	19.57
409.961	19.19
410.323	19.32
410.686	19.19
411.049	19.52
411.411	19.34
411.774	19.6
412.136	19.47
412.499	19.61
412.861	19.89
413.223	19.45
413.586	19.53
413.948	19.92
414.31	19.69
414.672	19.9
415.035	19.77
415.397	19.88
415.759	19.95
416.121	19.89
416.483	19.83
416.845	20.13
417.206	19.9
417.568	20.4
417.93	20.15
418.292	20.06
418.653	20.17
419.015	20.13
419.377	20.24
419.738	19.89
420.1	20.16
420.461	20.14
420.822	20.01
421.184	20.3
421.545	20.06
421.906	20.15
422.267	20.16
422.629	20.23
422.99	20.18
423.351	20.24
423.712	20.37
424.073	20.41
424.434	20.42
424.795	20.53
425.155	20.54
425.516	20.5
425.877	20.42
426.238	20.43
426.598	20.6
426.959	20.59
427.32	20.66
427.68	20.8
428.041	20.75
428.401	21.02
428.761	21.07
429.122	21.07
429.482	21.31
429.842	21.13
430.202	21.1
430.563	21.4
430.923	21.55
431.283	21.51
431.643	21.58
432.003	21.64
432.363	21.6
432.722	21.71
433.082	21.79
433.442	21.71
433.802	21.61
434.161	21.64
434.521	21.72
434.881	21.83
435.24	21.68
435.6	21.75
435.959	21.82
436.319	21.93
436.678	22
437.037	21.97
437.396	22.12
437.756	22.08
438.115	22.1
438.474	22.28
438.833	22.35
439.192	22.2
439.551	22.35
439.91	22.37
440.269	22.43
440.628	22.46
440.987	22.3
441.345	22.19
441.704	22.3
442.063	22.21
442.421	22.33
442.78	22.56
443.138	22.49
443.497	22.51
443.855	22.62
444.214	22.58
444.572	22.68
444.93	22.74
445.288	22.82
445.647	22.77
446.005	22.98
446.363	22.8
446.721	22.77
447.079	22.86
447.437	22.84
447.795	22.83
448.153	22.87
448.51	22.76
448.868	22.86
449.226	22.94
449.584	22.94
449.941	23.02
450.299	23.15
450.656	23.13
451.014	23.42
451.371	23.41
451.729	23.29
452.086	23.6
452.443	23.66
452.801	23.58
453.158	23.71
453.515	23.88
453.872	23.45
454.229	23.94
454.586	23.87
454.943	23.92
455.3	23.93
455.657	24.03
456.014	23.92
456.371	24.26
456.727	24.28
457.084	24.26
457.441	24.16
457.797	24.25
458.154	24.58
458.51	24.35
458.867	24.36
459.223	24.53
459.58	24.76
459.936	24.25
460.292	24.31
460.648	24.46
461.005	24.25
461.361	24.24
461.717	24.22
462.073	24.32
462.429	24.55
462.785	24.42
463.141	24.46
463.496	24.43
463.852	24.64
464.208	24.89
464.564	24.81
464.919	24.93
465.275	25.31
465.631	25.04
465.986	24.93
466.342	25.3
466.697	25.21
467.052	25.44
467.408	25.23
467.763	25.52
468.118	25.61
468.473	25.47
468.829	25.43
469.184	25.34
469.539	25.42
469.894	25.65
470.249	25.54
470.603	25.65
470.958	25.67
471.313	25.74
471.668	25.71
472.023	25.71
472.377	25.91
472.732	25.89
473.086	26.05
473.441	25.91
473.795	25.96
474.15	26.2
474.504	26.17
474.859	26.21
475.213	26.25
475.567	26.27
475.921	26.43
476.275	26.39
476.63	26.45
476.984	26.43
477.338	26.6
477.692	26.52
478.045	26.61
478.399	26.5
478.753	26.55
479.107	26.79
479.461	26.59
479.814	26.68
480.168	26.8
480.521	26.68
480.875	26.72
481.228	26.88
481.582	26.93
481.935	26.91
482.289	26.99
482.642	26.97
482.995	26.95
483.348	26.85
483.701	26.88
484.055	26.69
484.408	26.78
484.761	26.53
485.114	26.21
485.466	26.08
485.819	26.14
486.172	26.46
486.525	26.5
486.878	26.57
487.23	26.23
487.583	26.3
487.936	26.42
488.288	26.53
488.641	26.59
488.993	26.7
489.345	26.72
489.698	26.81
490.05	26.81
490.402	26.89
490.754	26.92
491.107	27.07
491.459	27.08
491.811	27.22
492.163	27.29
492.515	27.4
492.866	27.29
493.218	27.26
493.57	27.33
493.922	27.57
494.274	27.6
494.625	27.67
494.977	27.61
495.328	27.66
495.68	27.81
496.031	27.99
496.383	28.33
496.734	28.38
497.086	28.61
497.437	28.47
497.788	28.63
498.139	28.64
498.49	28.54
498.842	28.55
499.193	28.71
499.544	28.54
499.894	28.65
500.245	28.79
500.596	28.71
500.947	28.79
501.298	28.86
501.648	29.06
501.999	29.16
502.35	29.16
502.7	29.26
503.051	29.4
503.401	29.17
503.752	29.57
504.102	29.44
504.452	29.54
504.803	29.62
505.153	29.6
505.503	29.53
505.853	29.55
506.203	29.73
506.553	29.76
506.903	29.75
507.253	29.75
507.603	29.85
507.953	30.08
508.303	29.92
508.652	29.92
509.002	30.16
509.352	30.33
509.701	29.93
510.051	30.13
510.4	30.17
510.75	29.96
511.099	30.09
511.449	30.07
511.798	29.99
512.147	30.21
512.496	30.43
512.846	30.21
513.195	30.34
513.544	30.17
513.893	30.4
514.242	30.31
514.591	30.53
514.939	30.61
515.288	30.76
515.637	30.71
515.986	30.82
516.334	30.87
516.683	31.06
517.032	30.86
517.38	31.04
517.729	31.06
518.077	31.15
518.426	31.12
518.774	31.21
519.122	31.12
519.47	31.15
519.819	31.08
520.167	30.95
520.515	30.79
520.863	31.02
521.211	30.97
521.559	31.1
521.907	31.12
522.255	31.08
522.602	31.39
522.95	31.34
523.298	31.62
523.645	31.4
523.993	31.81
524.341	31.82
524.688	32.01
525.036	31.92
525.383	31.92
525.73	31.96
526.078	32
526.425	32
526.772	31.9
527.119	31.79
527.466	31.88
527.814	31.7
528.161	31.77
528.508	31.81
528.854	31.88
529.201	31.74
529.548	31.71
529.895	31.43
530.242	31.38
530.588	31.54
530.935	31.86
531.282	31.9
531.628	31.7
531.975	31.62
532.321	31.66
532.667	31.73
533.014	32.08
533.36	32.11
533.706	32.38
534.052	32.47
534.399	32.47
534.745	32.51
535.091	32.27
535.437	32.5
535.783	32.51
536.129	32.66
536.474	32.79
536.82	32.63
537.166	32.68
537.512	32.82
537.857	32.95
538.203	32.9
538.549	32.93
538.894	33.09
539.239	33.46
539.585	33.24
539.93	33.35
540.276	33.32
540.621	33.24
540.966	33.63
541.311	33.68
541.656	33.65
542.001	33.84
542.346	33.66
542.691	33.47
543.036	33.25
543.381	33.48
543.726	33.6
544.071	33.67
544.415	33.47
544.76	33.39
545.105	33.37
545.449	33.69
545.794	33.76
546.138	33.95
546.483	34.06
546.827	34.21
547.171	34.26
547.516	34.33
547.86	34.43
548.204	34.53
548.548	34.31
548.892	34.5
549.236	34.41
549.58	34.59
549.924	34.73
550.268	34.96
550.612	34.6
550.956	34.85
551.3	35.17
551.643	35.3
551.987	35.31
552.33	35.21
552.674	35.35
553.017	35.63
553.361	35.65
553.704	35.42
554.048	35.66
554.391	35.58
554.734	35.55
555.077	35.85
555.42	35.73
555.764	35.93
556.107	36.07
556.45	35.83
556.793	35.88
557.135	36.05
557.478	36.01
557.821	36.36
558.164	36.47
558.507	36.3
558.849	36.53
559.192	36.49
559.534	36.4
559.877	36.62
560.219	36.53
560.562	36.53
560.904	36.85
561.246	36.68
561.589	36.95
561.931	36.72
562.273	36.73
562.615	36.59
562.957	36.83
563.299	36.93
563.641	36.91
563.983	36.93
564.325	36.83
564.667	36.94
565.008	36.85
565.35	36.96
565.692	37.33
566.033	37.05
566.375	37.35
566.716	37.27
567.058	37.39
567.399	37.47
567.741	37.35
568.082	37.38
568.423	37.46
568.764	37.24
569.105	37.41
569.447	37.59
569.788	37.31
570.129	37.81
570.47	37.61
570.811	37.78
571.151	37.75
571.492	37.89
571.833	37.84
572.174	37.96
572.514	38.04
572.855	37.95
573.195	37.87
573.536	37.93
573.876	38.11
574.217	38.14
574.557	38.07
574.898	38.24
575.238	38.2
575.578	38.1
575.918	38.3
576.258	38.31
576.598	38.59
576.938	38.64
577.278	38.27
577.618	38.36
577.958	38.49
578.298	38.47
578.638	38.48
578.977	38.58
579.317	38.73
579.657	38.73
579.996	39.03
580.336	39.08
580.675	39.07
581.014	39.23
581.354	39.38
581.693	39.73
582.032	39.09
582.372	39.3
582.711	39.16
583.05	39.36
583.389	39.33
583.728	39.48
584.067	39.38
584.406	39.79
584.745	40.05
585.083	39.94
585.422	40.04
585.761	40.08
586.1	40.1
586.438	39.92
586.777	39.96
587.115	40.1
587.454	40.04
587.792	40.39
588.13	40.3
588.469	40.39
588.807	40.19
589.145	40.43
589.483	40.21
589.821	40.39
590.159	40.39
590.497	40.29
590.835	40.7
591.173	40.56
591.511	40.64
591.849	40.77
592.187	40.86
592.524	40.84
592.862	40.74
593.2	40.88
593.537	40.34
593.875	40.77
594.212	40.8
594.55	40.93
594.887	41.2
595.224	41.05
595.561	40.78
595.899	40.97
596.236	40.97
596.573	41.13
596.91	41.34
597.247	40.93
597.584	41.3
597.921	41.37
598.258	41.09
598.594	41.01
598.931	41.4
599.268	41.44
599.604	41.4
599.941	41.19
600.277	41.29
600.614	41.65
600.95	41.25
601.287	41.48
601.623	41.8
601.959	42.08
602.296	41.89
602.632	41.82
602.968	41.79
603.304	41.97
603.64	41.99
603.976	41.72
604.312	42.21
604.648	41.75
604.984	42.36
605.319	42.45
605.655	42.03
605.991	42.32
606.326	42.01
606.662	42.15
606.998	42.24
607.333	42.2
607.668	42.35
608.004	42.16
608.339	42.28
608.674	42.36
609.01	42.21
609.345	42.64
609.68	42.65
610.015	42.83
610.35	42.65
610.685	42.92
611.02	42.75
611.355	42.57
611.689	43
612.024	42.92
612.359	43.14
612.694	43.03
613.028	43.09
613.363	43.11
613.697	43.3
614.032	43.54
614.366	43.42
614.7	43.5
615.035	43.37
615.369	43.12
615.703	44.01
616.037	43.75
616.371	43.89
616.705	43.5
617.039	43.81
617.373	43.75
617.707	44.32
618.041	44.01
618.375	43.85
618.709	43.89
619.042	44.56
619.376	44.07
619.71	43.78
620.043	44.16
620.377	44.28
620.71	44.35
621.043	44.47
621.377	44.04
621.71	44.87
622.043	44.34
622.376	44.72
622.709	44.85
623.043	44.74
623.376	44.68
623.709	44.99
624.041	44.83
624.374	44.68
624.707	44.67
625.04	45.11
625.373	45.12
625.705	44.94
626.038	44.71
626.37	45.09
626.703	45.31
627.035	45.11
627.368	44.95
627.7	44.86
628.032	45.28
628.365	45.31
628.697	45.36
629.029	45.24
629.361	45.29
629.693	45.48
630.025	45.76
630.357	45.38
630.689	45.63
631.021	45.48
631.353	45.64
631.684	45.43
632.016	45.64
632.348	45.52
632.679	45.71
633.011	46.16
633.342	45.91
633.674	45.7
634.005	45.82
634.336	46.19
634.668	45.96
634.999	46.39
635.33	45.92
635.661	46.22
635.992	46.26
636.323	46.23
636.654	45.55
636.985	46.43
637.316	46.36
637.647	46.24
637.977	46.57
638.308	46.65
638.639	47.11
638.969	46.5
639.3	46.95
639.63	46.37
639.961	47.1
640.291	46.93
640.622	47.06
640.952	47.12
641.282	46.91
641.612	46.99
641.943	46.71
642.273	46.61
642.603	46.79
642.933	46.56
643.263	47.05
643.592	46.65
643.922	47.81
644.252	47.04
644.582	47.35
644.911	47.41
645.241	46.91
645.571	47.34
645.9	47.57
646.23	47.74
646.559	47.92
646.888	47.52
647.218	47.88
647.547	47.55
647.876	47.86
648.205	47.62
648.534	47.63
648.863	47.65
649.192	47.99
649.521	47.74
649.85	48.65
650.179	47.48
650.508	47.7
650.837	47.93
651.165	48.3
651.494	47.9
651.822	48.36
652.151	47.98
652.479	48.63
652.808	48.48
653.136	47.95
653.465	48.48
653.793	48.14
654.121	48.18
654.449	47.6
654.777	48.21
655.105	48.77
655.433	48.19
655.761	49.1
656.089	48.5
656.417	49.03
656.745	48.18
657.073	48.35
657.4	48.47
657.728	48.8
658.056	48.44
658.383	48.32
658.711	48.4
659.038	48.58
659.365	49.14
659.693	48.92
660.02	48.7
660.347	48.88
660.674	48.88
661.001	48.87
661.329	49
661.656	49.38
661.982	48.86
662.309	48.93
662.636	48.89
662.963	49.07
663.29	49.17
663.616	49.36
663.943	49.16
664.27	49.35
664.596	49.11
664.923	49.47
665.249	49.57
665.576	49.16
665.902	48.98
666.228	49.44
666.554	49.6
666.881	49.42
667.207	49.18
667.533	49.69
667.859	49.7
668.185	50.17
668.511	49.92
668.837	49.94
669.162	50.07
669.488	49.63
669.814	50.02
670.139	49.86
670.465	50.15
