Data from 0038_chest_Reflection__4__34.txt Node

Date: Fri Nov 04 14:56:35 CDT 2022
User: ToomeyLab
Spectrometer: FLMS14357
Trigger mode: 0
Integration Time (sec): 1.000000E-2
Scans to average: 100
Electric dark correction enabled: true
Nonlinearity correction enabled: false
Boxcar width: 0
XAxis mode: Wavelengths
Number of Pixels in Spectrum: 2048
>>>>>Begin Spectral Data<<<<<
189.047	43.97
189.435	43.97
189.823	43.97
190.211	-13.62
190.599	-59.92
190.987	98.64
191.375	36.11
191.763	1.77
192.151	319.93
192.538	45.29
192.926	191.2
193.314	-233.27
193.702	-338.08
194.089	69.79
194.477	145.73
194.864	398.66
195.252	62.33
195.639	-277.81
196.027	1434.57
196.414	265
196.801	12
197.189	14.13
197.576	61.3
197.963	816.27
198.351	-50.97
198.738	35.85
199.125	-10.2
199.512	-56.78
199.899	-68.15
200.286	27.72
200.673	-13.81
201.06	-35.43
201.447	-37.7
201.833	-7.62
202.22	-19.01
202.607	6.65
202.994	8.16
203.38	31.39
203.767	-17.68
204.154	16.68
204.54	-51.97
204.927	9.12
205.313	15.04
205.699	20.87
206.086	-3.53
206.472	-10.21
206.858	-10.54
207.245	-12.95
207.631	-29.01
208.017	3.04
208.403	11.02
208.789	14.66
209.175	-22.01
209.561	-45.13
209.947	-34.85
210.333	-1.01
210.719	13.89
211.105	-15.25
211.491	31.35
211.876	17.77
212.262	-22.62
212.648	-19.19
213.034	17.78
213.419	-4.51
213.805	-32.21
214.19	-12.41
214.576	3.91
214.961	20.77
215.346	-16.3
215.732	15.37
216.117	6.38
216.502	-8
216.888	-1.11
217.273	28.78
217.658	-17.37
218.043	-24.8
218.428	-2.5
218.813	-17.61
219.198	-4.23
219.583	-18.12
219.968	-4.94
220.353	-18.71
220.738	-21.11
221.122	-9.99
221.507	7.2
221.892	-6.48
222.276	-4.93
222.661	0.91
223.046	-3.53
223.43	-8.28
223.815	-9.38
224.199	1.25
224.583	-6.27
224.968	-1.4
225.352	2.44
225.736	-8.54
226.121	-9.83
226.505	1.59
226.889	-1.72
227.273	0.83
227.657	-0.25
228.041	-2.01
228.425	1.43
228.809	2.02
229.193	-1.93
229.577	-1.04
229.961	1.54
230.344	0.88
230.728	0.42
231.112	-0.06
231.495	0.33
231.879	1.22
232.263	-1.13
232.646	-0.76
233.03	-1.64
233.413	0.01
233.797	-1
234.18	-0.69
234.563	-0.05
234.946	-2.68
235.33	1.89
235.713	-0.39
236.096	0.37
236.479	0.02
236.862	-0.12
237.245	-0.87
237.628	0.92
238.011	-1.7
238.394	0.93
238.777	0.57
239.16	0.28
239.543	-1.15
239.925	1.03
240.308	1.08
240.691	-0.07
241.073	0.55
241.456	0.88
241.838	0.51
242.221	0.45
242.603	0.58
242.986	0.15
243.368	0.54
243.75	0.55
244.133	0.82
244.515	0.46
244.897	0.77
245.279	0.67
245.661	1.11
246.043	1.02
246.425	0.08
246.807	1.14
247.189	0.67
247.571	0.42
247.953	0.35
248.335	0.44
248.717	0.66
249.098	0.59
249.48	0.68
249.862	0.82
250.243	0.33
250.625	0.19
251.006	0.3
251.388	0.21
251.769	0.99
252.151	0.97
252.532	1.2
252.913	-0.5
253.295	1.19
253.676	0.43
254.057	0.36
254.438	0.49
254.819	0.75
255.2	0.32
255.581	1.27
255.962	0.41
256.343	-0.17
256.724	0.64
257.105	0.6
257.486	0.91
257.867	2.15
258.247	0.61
258.628	0.35
259.009	-0.13
259.389	0.76
259.77	0.63
260.15	0.1
260.531	0.64
260.911	0.14
261.292	0.23
261.672	0.66
262.052	0.64
262.432	0.77
262.813	0.38
263.193	0.07
263.573	0.34
263.953	0.46
264.333	0.73
264.713	0.69
265.093	0.27
265.473	1.07
265.853	0.18
266.233	0.64
266.612	0.27
266.992	1.68
267.372	-0.57
267.752	0.79
268.131	0.9
268.511	0.53
268.89	0.77
269.27	0.42
269.649	0.59
270.029	0.36
270.408	0.36
270.787	0.48
271.167	0.48
271.546	1.21
271.925	0.5
272.304	-0.03
272.683	0.56
273.062	0.4
273.441	0.68
273.82	0.13
274.199	0.55
274.578	0.52
274.957	0.35
275.336	0.25
275.715	0.12
276.093	0.75
276.472	0.45
276.851	-0.02
277.229	0.78
277.608	0.24
277.986	0.63
278.365	0.79
278.743	0.77
279.122	0.62
279.5	0.5
279.878	0.73
280.257	0.54
280.635	0.06
281.013	0.71
281.391	0.62
281.769	0.23
282.147	0.23
282.525	0.28
282.903	0.8
283.281	0.86
283.659	0.44
284.037	0.62
284.415	0.23
284.792	0.69
285.17	0.33
285.548	0.95
285.925	0.61
286.303	0.63
286.68	0.97
287.058	0.49
287.435	0.25
287.813	0.41
288.19	0.53
288.567	0.5
288.945	0.58
289.322	0.4
289.699	0.75
290.076	0.45
290.453	0.12
290.83	0.51
291.207	0.56
291.584	0.71
291.961	0.97
292.338	0.8
292.715	0.45
293.092	0.39
293.469	0.67
293.845	0.4
294.222	0.45
294.599	0.38
294.975	0.5
295.352	0.49
295.728	0.99
296.105	0.6
296.481	0.5
296.858	0.68
297.234	0.6
297.61	0.68
297.986	0.59
298.363	0.48
298.739	0.67
299.115	0.89
299.491	0.74
299.867	0.61
300.243	0.53
300.619	1.05
300.995	1.03
301.371	1
301.746	0.37
302.122	0.93
302.498	1.08
302.874	1.22
303.249	0.36
303.625	0.25
304	0.4
304.376	0.58
304.751	0.42
305.127	0.09
305.502	0.85
305.878	1.03
306.253	0.94
306.628	0.6
307.003	0.4
307.378	0.44
307.754	0.76
308.129	0.37
308.504	0.75
308.879	0.56
309.254	0.99
309.629	0.45
310.003	0.83
310.378	0.58
310.753	0.89
311.128	0.6
311.502	0.62
311.877	0.79
312.252	0.62
312.626	0.68
313.001	0.54
313.375	0.7
313.75	0.36
314.124	0.34
314.498	0.91
314.873	0.64
315.247	0.88
315.621	0.77
315.995	0.82
316.369	0.49
316.743	0.85
317.117	1.06
317.491	0.49
317.865	0.08
318.239	0.58
318.613	1.36
318.987	0.96
319.361	0.51
319.734	1.2
320.108	0.6
320.482	0.42
320.855	0.51
321.229	0.67
321.602	0.74
321.976	0.54
322.349	1.63
322.723	0.65
323.096	1.1
323.469	1.38
323.843	0.2
324.216	0.97
324.589	0.99
324.962	0.79
325.335	0.71
325.708	0.1
326.081	0.66
326.454	0.56
326.827	0.53
327.2	0.47
327.573	0.91
327.945	0.86
328.318	0.4
328.691	0.52
329.063	0.88
329.436	0.64
329.809	0.64
330.181	0.91
330.553	0.45
330.926	0.8
331.298	0.81
331.671	0.75
332.043	0.47
332.415	0.26
332.787	0.27
333.159	0.84
333.532	0.38
333.904	0.97
334.276	0.8
334.648	1.11
335.02	0.12
335.391	0.84
335.763	0.93
336.135	0.86
336.507	0.95
336.879	0.63
337.25	1.22
337.622	0.55
337.993	0.88
338.365	0.73
338.736	0.89
339.108	1.06
339.479	0.85
339.851	0.76
340.222	0.59
340.593	0.91
340.964	0.93
341.336	0.45
341.707	0.58
342.078	0.63
342.449	0.93
342.82	0.87
343.191	0.73
343.562	0.84
343.933	1.15
344.303	0.75
344.674	0.85
345.045	0.27
345.416	0.38
345.786	0.46
346.157	0.98
346.527	0.77
346.898	0.91
347.268	0.37
347.639	0.74
348.009	1.28
348.38	0.84
348.75	0.79
349.12	0.64
349.49	1.13
349.861	0.55
350.231	0.96
350.601	0.28
350.971	0.74
351.341	0.64
351.711	0.49
352.081	0.92
352.45	1.03
352.82	0.5
353.19	0.24
353.56	1.2
353.929	0.81
354.299	1.2
354.669	0.88
355.038	0.89
355.408	0.69
355.777	0.96
356.147	0.4
356.516	0.5
356.885	0.7
357.254	1.22
357.624	1.1
357.993	0.83
358.362	0.55
358.731	0.64
359.1	0.77
359.469	0.92
359.838	0.94
360.207	0.74
360.576	0.91
360.945	0.76
361.314	0.82
361.682	0.92
362.051	0.9
362.42	1.09
362.788	0.76
363.157	0.83
363.525	0.72
363.894	1.08
364.262	0.96
364.631	0.94
364.999	0.86
365.367	0.92
365.735	1.11
366.104	0.92
366.472	1.18
366.84	0.51
367.208	0.92
367.576	0.92
367.944	0.75
368.312	0.54
368.68	0.83
369.048	0.8
369.416	0.98
369.783	0.59
370.151	1
370.519	1.41
370.886	0.69
371.254	0.97
371.621	1.08
371.989	0.72
372.356	0.78
372.724	1.04
373.091	0.81
373.458	0.89
373.826	0.96
374.193	0.89
374.56	0.53
374.927	1.05
375.294	0.89
375.661	0.93
376.028	0.95
376.395	1
376.762	1.05
377.129	0.88
377.496	1.11
377.863	1.07
378.229	0.73
378.596	0.77
378.963	0.79
379.329	0.71
379.696	0.85
380.062	1.15
380.429	0.91
380.795	0.93
381.161	0.88
381.528	0.98
381.894	0.65
382.26	0.91
382.626	0.81
382.993	0.96
383.359	0.95
383.725	0.83
384.091	1.05
384.457	0.98
384.823	0.96
385.188	1.1
385.554	0.89
385.92	0.67
386.286	0.81
386.651	1.04
387.017	0.96
387.383	1
387.748	0.72
388.114	0.83
388.479	1.68
388.845	1.05
389.21	1.24
389.575	1.36
389.94	0.77
390.306	1.06
390.671	0.96
391.036	0.9
391.401	1.18
391.766	0.82
392.131	0.7
392.496	1.12
392.861	0.97
393.226	0.63
393.591	1.05
393.956	1.25
394.32	0.72
394.685	1.06
395.05	1.15
395.414	1.05
395.779	0.94
396.143	0.87
396.508	1.07
396.872	0.95
397.236	1.01
397.601	0.87
397.965	0.91
398.329	0.82
398.694	1.04
399.058	1.1
399.422	0.71
399.786	0.9
400.15	0.85
400.514	0.9
400.878	0.96
401.242	1.3
401.605	0.97
401.969	1.22
402.333	1.2
402.697	1.15
403.06	1.07
403.424	0.87
403.787	1.16
404.151	1.2
404.514	1.15
404.878	1.04
405.241	1.05
405.604	0.95
405.968	0.93
406.331	0.94
406.694	0.88
407.057	1.1
407.42	0.9
407.783	0.84
408.146	0.99
408.509	0.99
408.872	1.1
409.235	1.07
409.598	1.05
409.961	1.23
410.323	1.12
410.686	0.96
411.049	0.77
411.411	0.83
411.774	1.21
412.136	1.23
412.499	1.1
412.861	1.02
413.223	1.13
413.586	0.89
413.948	1.04
414.31	0.95
414.672	0.9
415.035	1.17
415.397	0.99
415.759	1.18
416.121	0.89
416.483	1.17
416.845	1.11
417.206	0.97
417.568	1.26
417.93	0.95
418.292	0.95
418.653	1.21
419.015	1.07
419.377	1.02
419.738	1.06
420.1	1.15
420.461	1.13
420.822	0.94
421.184	1.1
421.545	1
421.906	1.03
422.267	1.01
422.629	1.13
422.99	1.05
423.351	1.04
423.712	1.04
424.073	1.09
424.434	1.02
424.795	1.11
425.155	1.17
425.516	1.17
425.877	1.02
426.238	1.09
426.598	1.07
426.959	1.06
427.32	1.07
427.68	1.08
428.041	0.99
428.401	1.29
428.761	1.14
429.122	1.06
429.482	1.17
429.842	0.85
430.202	1.09
430.563	1.02
430.923	1.25
431.283	0.91
431.643	1.08
432.003	1.35
432.363	1.18
432.722	1.19
433.082	1.15
433.442	1.01
433.802	1.22
434.161	0.99
434.521	1.04
434.881	1
435.24	1.15
435.6	1.17
435.959	1.21
436.319	1.1
436.678	1.23
437.037	1.19
437.396	1.18
437.756	1.16
438.115	1.03
438.474	1.27
438.833	1.25
439.192	1.04
439.551	1.29
439.91	1.17
440.269	1.2
440.628	1.17
440.987	1.19
441.345	1.14
441.704	1.12
442.063	1.04
442.421	1.16
442.78	1.14
443.138	1.28
443.497	1.14
443.855	1.16
444.214	1.21
444.572	1.12
444.93	1.01
445.288	1.18
445.647	1.01
446.005	1.11
446.363	1.25
446.721	1.13
447.079	1.13
447.437	1.15
447.795	1.2
448.153	1.17
448.51	1.19
448.868	1.13
449.226	1.14
449.584	1.14
449.941	1.01
450.299	1.28
450.656	1.19
451.014	1.27
451.371	1.27
451.729	1.23
452.086	1.2
452.443	1.3
452.801	1.16
453.158	1.4
453.515	1.26
453.872	1.14
454.229	1.21
454.586	1.23
454.943	1.29
455.3	1.3
455.657	1.06
456.014	1.25
456.371	1.18
456.727	1.39
457.084	1.34
457.441	1.31
457.797	1.15
458.154	1.18
458.51	1.4
458.867	1.09
459.223	1.23
459.58	1.41
459.936	1.08
460.292	1.21
460.648	1.16
461.005	1.14
461.361	1.23
461.717	1.26
462.073	1.22
462.429	1.33
462.785	1.16
463.141	1.27
463.496	1.12
463.852	1.35
464.208	1.41
464.564	1.25
464.919	1.4
465.275	1.17
465.631	1.33
465.986	1.37
466.342	1.21
466.697	1.4
467.052	1.2
467.408	1.18
467.763	1.27
468.118	1.42
468.473	1.18
468.829	1.19
469.184	1.26
469.539	1.2
469.894	1.39
470.249	1.18
470.603	1.25
470.958	1.39
471.313	1.22
471.668	1.32
472.023	1.13
472.377	1.33
472.732	1.39
473.086	1.35
473.441	1.3
473.795	1.28
474.15	1.17
474.504	1.27
474.859	1.17
475.213	1.3
475.567	1.24
475.921	1.21
476.275	1.39
476.63	1.35
476.984	1.16
477.338	1.36
477.692	1.43
478.045	1.29
478.399	1.4
478.753	1.35
479.107	1.4
479.461	1.43
479.814	1.45
480.168	1.35
480.521	1.24
480.875	1.36
481.228	1.39
481.582	1.39
481.935	1.33
482.289	1.15
482.642	1.28
482.995	1.27
483.348	1.32
483.701	1.37
484.055	1.26
484.408	1.4
484.761	1.3
485.114	1.29
485.466	1.21
485.819	1.23
486.172	1.25
486.525	1.26
486.878	1.37
487.23	1.35
487.583	1.24
487.936	1.39
488.288	1.33
488.641	1.31
488.993	1.31
489.345	1.24
489.698	1.28
490.05	1.31
490.402	1.31
490.754	1.37
491.107	1.38
491.459	1.37
491.811	1.31
492.163	1.39
492.515	1.39
492.866	1.35
493.218	1.3
493.57	1.29
493.922	1.38
494.274	1.31
494.625	1.41
494.977	1.48
495.328	1.42
495.68	1.25
496.031	1.44
496.383	1.37
496.734	1.38
497.086	1.64
497.437	1.58
497.788	1.45
498.139	1.41
498.49	1.44
498.842	1.46
499.193	1.42
499.544	1.44
499.894	1.29
500.245	1.38
500.596	1.31
500.947	1.42
501.298	1.38
501.648	1.46
501.999	1.52
502.35	1.48
502.7	1.43
503.051	1.51
503.401	1.41
503.752	1.54
504.102	1.53
504.452	1.5
504.803	1.5
505.153	1.4
505.503	1.51
505.853	1.61
506.203	1.46
506.553	1.47
506.903	1.46
507.253	1.5
507.603	1.39
507.953	1.51
508.303	1.54
508.652	1.42
509.002	1.7
509.352	1.57
509.701	1.49
510.051	1.49
510.4	1.55
510.75	1.54
511.099	1.47
511.449	1.46
511.798	1.44
512.147	1.52
512.496	1.52
512.846	1.4
513.195	1.58
513.544	1.45
513.893	1.54
514.242	1.47
514.591	1.57
514.939	1.62
515.288	1.58
515.637	1.56
515.986	1.55
516.334	1.64
516.683	1.48
517.032	1.63
517.38	1.57
517.729	1.65
518.077	1.61
518.426	1.6
518.774	1.69
519.122	1.6
519.47	1.55
519.819	1.51
520.167	1.62
520.515	1.53
520.863	1.55
521.211	1.53
521.559	1.62
521.907	1.56
522.255	1.62
522.602	1.66
522.95	1.6
523.298	1.69
523.645	1.63
523.993	1.71
524.341	1.66
524.688	1.76
525.036	1.61
525.383	1.75
525.73	1.73
526.078	1.63
526.425	1.78
526.772	1.67
527.119	1.64
527.466	1.64
527.814	1.63
528.161	1.64
528.508	1.6
528.854	1.59
529.201	1.58
529.548	1.62
529.895	1.55
530.242	1.61
530.588	1.59
530.935	1.61
531.282	1.63
531.628	1.6
531.975	1.62
532.321	1.75
532.667	1.72
533.014	1.74
533.36	1.73
533.706	1.79
534.052	1.73
534.399	1.76
534.745	1.76
535.091	1.67
535.437	1.67
535.783	1.66
536.129	1.79
536.474	1.82
536.82	1.72
537.166	1.8
537.512	1.85
537.857	1.81
538.203	1.68
538.549	1.75
538.894	1.81
539.239	1.84
539.585	1.79
539.93	1.81
540.276	1.9
540.621	1.78
540.966	1.98
541.311	1.81
541.656	1.83
542.001	1.88
542.346	1.79
542.691	1.79
543.036	1.73
543.381	1.78
543.726	1.86
544.071	1.87
544.415	1.9
544.76	1.83
545.105	1.86
545.449	1.9
545.794	1.93
546.138	1.9
546.483	1.97
546.827	1.85
547.171	1.91
547.516	2.04
547.86	1.92
548.204	1.96
548.548	2.02
548.892	1.88
549.236	1.96
549.58	1.94
549.924	2.07
550.268	1.99
550.612	1.89
550.956	2.05
551.3	2.01
551.643	2.02
551.987	2.03
552.33	1.96
552.674	1.98
553.017	2.13
553.361	2.36
553.704	2.04
554.048	2.14
554.391	2.05
554.734	2.09
555.077	2.17
555.42	2.24
555.764	2.38
556.107	2.27
556.45	2.23
556.793	2.25
557.135	2.27
557.478	2.13
557.821	2.2
558.164	2.25
558.507	2.18
558.849	2.34
559.192	2.31
559.534	2.21
559.877	2.28
560.219	2.24
560.562	2.23
560.904	2.27
561.246	2.26
561.589	2.32
561.931	2.21
562.273	2.33
562.615	2.24
562.957	2.3
563.299	2.23
563.641	2.33
563.983	2.39
564.325	2.31
564.667	2.36
565.008	2.31
565.35	2.35
565.692	2.67
566.033	2.43
566.375	2.44
566.716	2.44
567.058	2.45
567.399	2.53
567.741	2.65
568.082	2.53
568.423	2.4
568.764	2.41
569.105	2.46
569.447	2.52
569.788	2.44
570.129	2.53
570.47	2.48
570.811	2.48
571.151	2.61
571.492	2.71
571.833	2.44
572.174	2.71
572.514	2.63
572.855	2.46
573.195	2.59
573.536	2.58
573.876	2.58
574.217	2.64
574.557	2.6
574.898	2.62
575.238	2.53
575.578	2.75
575.918	2.64
576.258	2.75
576.598	2.75
576.938	2.79
577.278	2.7
577.618	2.56
577.958	2.59
578.298	2.65
578.638	2.78
578.977	2.91
579.317	2.91
579.657	2.87
579.996	3.07
580.336	2.76
580.675	2.66
581.014	2.85
581.354	2.9
581.693	2.98
582.032	2.85
582.372	3.07
582.711	2.97
583.05	3.04
583.389	2.86
583.728	3.04
584.067	3.02
584.406	2.97
584.745	3.02
585.083	2.9
585.422	3.04
585.761	2.92
586.1	2.98
586.438	3.02
586.777	3.06
587.115	2.95
587.454	3.25
587.792	3.24
588.13	3.1
588.469	3.18
588.807	3.31
589.145	3.13
589.483	2.86
589.821	3.25
590.159	3.02
590.497	3.15
590.835	3.17
591.173	3.01
591.511	3.36
591.849	3.3
592.187	3.25
592.524	3.43
592.862	3.22
593.2	3.35
593.537	3.09
593.875	3.18
594.212	3.19
594.55	3.17
594.887	3.63
595.224	3.57
595.561	3.09
595.899	3.34
596.236	3.55
596.573	3.38
596.91	3.46
597.247	3.37
597.584	3.37
597.921	3.66
598.258	3.55
598.594	3.08
598.931	3.38
599.268	3.51
599.604	3.48
599.941	3.63
600.277	3.63
600.614	3.55
600.95	3.76
601.287	3.62
601.623	3.72
601.959	3.65
602.296	3.63
602.632	3.63
602.968	3.68
603.304	3.61
603.64	3.47
603.976	3.48
604.312	3.65
604.648	3.38
604.984	3.54
605.319	3.64
605.655	3.59
605.991	3.8
606.326	3.78
606.662	3.66
606.998	3.75
607.333	3.72
607.668	3.85
608.004	3.99
608.339	3.86
608.674	4.01
609.01	3.94
609.345	3.79
609.68	4.02
610.015	3.99
610.35	4.06
610.685	4.01
611.02	4.01
611.355	4.05
611.689	4.02
612.024	4.07
612.359	4.15
612.694	3.96
613.028	3.98
613.363	4.22
613.697	3.95
614.032	4.21
614.366	4.08
614.7	4.15
615.035	4.27
615.369	4.25
615.703	4.55
616.037	4.27
616.371	4.34
616.705	4.13
617.039	4.39
617.373	4.57
617.707	4.75
618.041	4.37
618.375	4.32
618.709	4.41
619.042	4.32
619.376	4.31
619.71	4.32
620.043	4.56
620.377	4.61
620.71	4.49
621.043	4.3
621.377	4.47
621.71	4.69
622.043	4.54
622.376	4.64
622.709	4.65
623.043	4.52
623.376	5.1
623.709	4.44
624.041	4.64
624.374	4.08
624.707	4.41
625.04	4.73
625.373	4.74
625.705	4.57
626.038	4.43
626.37	4.65
626.703	4.57
627.035	4.68
627.368	4.79
627.7	4.68
628.032	4.58
628.365	5.09
628.697	4.68
629.029	4.83
629.361	4.86
629.693	4.96
630.025	4.88
630.357	5
630.689	4.91
631.021	4.47
631.353	4.86
631.684	4.99
632.016	5.22
632.348	5.14
632.679	4.76
633.011	5.12
633.342	4.97
633.674	5.05
634.005	5.23
634.336	5.27
634.668	5.17
634.999	5.11
635.33	4.77
635.661	5.27
635.992	5.41
636.323	5.04
636.654	4.86
636.985	5.17
637.316	5.16
637.647	5.12
637.977	5.53
638.308	5.67
638.639	5.48
638.969	5.36
639.3	5.62
639.63	5.4
639.961	5.24
640.291	5.63
640.622	5.71
640.952	5.41
641.282	5.02
641.612	5.43
641.943	5.2
642.273	5.25
642.603	5.54
642.933	5.42
643.263	4.83
643.592	5.52
643.922	5.96
644.252	5.53
644.582	5.62
644.911	5.6
645.241	4.98
645.571	5.17
645.9	5.81
646.23	5.83
646.559	5.63
646.888	5.74
647.218	6.2
647.547	5.68
647.876	5.71
648.205	5.15
648.534	5.76
648.863	5.68
649.192	5.57
649.521	5.74
649.85	6.45
650.179	5.99
650.508	5.68
650.837	5.92
651.165	6.03
651.494	5.78
651.822	6.26
652.151	6.09
652.479	5.56
652.808	5.97
653.136	5.97
653.465	6.31
653.793	6.12
654.121	6.38
654.449	6
654.777	5.93
655.105	6.42
655.433	6.7
655.761	6.23
656.089	6.35
656.417	6.09
656.745	5.84
657.073	6.02
657.4	5.97
657.728	6.39
658.056	6.23
658.383	6.1
658.711	6.11
659.038	6.21
659.365	6.94
659.693	6.84
660.02	6.7
660.347	6.35
660.674	6.02
661.001	6.48
661.329	6.7
661.656	6.67
661.982	6.21
662.309	6.66
662.636	6.76
662.963	6.5
663.29	6.17
663.616	6.45
663.943	6.9
664.27	6.53
664.596	6.7
664.923	7.07
665.249	6.7
665.576	6.56
665.902	5.92
666.228	6.14
666.554	7.01
666.881	6.81
667.207	6.84
667.533	6.94
667.859	6.83
668.185	6.75
668.511	7.16
668.837	6.68
669.162	7.04
669.488	6.25
669.814	6.93
670.139	6.95
670.465	7.17
670.791	6.75
671.116	7.05
671.442	7.2
671.767	6.99
672.092	6.74
672.418	7.19
672.743	7.37
673.068	6.55
673.393	6.97
673.718	7.55
674.043	6.73
674.368	6.78
674.693	6.44
675.018	7
675.343	7
675.667	7.19
675.992	7.44
676.317	7.42
676.641	7.44
676.966	7.17
677.29	7.58
677.615	7.67
677.939	7.16
678.264	8.06
678.588	7.71
678.912	8.04
679.236	7.28
679.56	7.68
679.885	7.5
680.209	7.24
680.532	7.86
680.856	7.24
681.18	7.37
681.504	7.72
681.828	7.32
682.152	7.86
682.475	7.65
682.799	7.87
683.122	7.8
683.446	7.5
683.769	7.35
684.093	7.48
684.416	7.01
684.739	7.69
685.062	8.38
685.386	7.66
685.709	7.54
686.032	8.13
686.355	8.53
686.678	8.11
687.001	7.84
687.324	7.96
687.646	8.42
687.969	8.03
688.292	8.3
688.614	8.84
688.937	7.99
689.26	7.3
689.582	8.37
689.904	8.09
690.227	8.22
690.549	7.73
690.871	8.36
691.194	8.42
691.516	8.14
691.838	7.95
692.16	8.48
