Data from 0038_forehead_Reflection__0__40.txt Node

Date: Fri Nov 04 14:59:18 CDT 2022
User: ToomeyLab
Spectrometer: FLMS14357
Trigger mode: 0
Integration Time (sec): 1.000000E-2
Scans to average: 100
Electric dark correction enabled: true
Nonlinearity correction enabled: false
Boxcar width: 0
XAxis mode: Wavelengths
Number of Pixels in Spectrum: 2048
>>>>>Begin Spectral Data<<<<<
189.047	-59.05
189.435	-59.05
189.823	-59.05
190.211	-70.73
190.599	-506.94
190.987	38.6
191.375	-7.38
191.763	2.79
192.151	0.3
192.538	53.83
192.926	16.29
193.314	2.43
193.702	-236.8
194.089	245.02
194.477	46.33
194.864	92.7
195.252	54.22
195.639	96.86
196.027	-126.33
196.414	64.32
196.801	44.22
197.189	2.9
197.576	86.42
197.963	-313.29
198.351	35.54
198.738	45.03
199.125	31.16
199.512	-22.12
199.899	10.96
200.286	41.62
200.673	9.64
201.06	24.55
201.447	-62.31
201.833	36.02
202.22	21.63
202.607	12.57
202.994	43.35
203.38	31.22
203.767	79.79
204.154	38.04
204.54	3.17
204.927	15.93
205.313	32.25
205.699	18.31
206.086	48.45
206.472	-4.87
206.858	-1.03
207.245	11.34
207.631	5.89
208.017	25.59
208.403	6.36
208.789	35.54
209.175	19.49
209.561	-4.78
209.947	-21.85
210.333	19.5
210.719	4.72
211.105	-23.96
211.491	10.41
211.876	9.24
212.262	16.99
212.648	8.34
213.034	30.65
213.419	7.73
213.805	-21.45
214.19	5.39
214.576	0.56
214.961	28.5
215.346	25.3
215.732	-0.05
216.117	8.68
216.502	3.54
216.888	-15.96
217.273	11.91
217.658	14.17
218.043	29.76
218.428	13.78
218.813	13.48
219.198	21.17
219.583	-19.47
219.968	19.06
220.353	-2.03
220.738	-15.68
221.122	19.53
221.507	2.51
221.892	-9.82
222.276	10.74
222.661	7.55
223.046	-3.29
223.43	9.62
223.815	-8.97
224.199	7.13
224.583	1.73
224.968	4.65
225.352	5.85
225.736	2.08
226.121	-1.18
226.505	5.1
226.889	-0.24
227.273	1.63
227.657	3.77
228.041	4.08
228.425	4.45
228.809	7.04
229.193	5.02
229.577	3.58
229.961	4.82
230.344	4.42
230.728	4.61
231.112	3.39
231.495	4.16
231.879	4.26
232.263	3.49
232.646	2.99
233.03	2.72
233.413	2.18
233.797	3.93
234.18	4.83
234.563	3.09
234.946	4.21
235.33	4.39
235.713	4.01
236.096	4.45
236.479	3.81
236.862	4.77
237.245	2.67
237.628	4.84
238.011	4.46
238.394	5.59
238.777	5.13
239.16	4.78
239.543	2.86
239.925	4.4
240.308	5.24
240.691	3.1
241.073	4.77
241.456	3.92
241.838	3.02
242.221	3.79
242.603	4.17
242.986	4.43
243.368	4.08
243.75	4.17
244.133	3.8
244.515	3.81
244.897	4.35
245.279	3.98
245.661	4.37
246.043	4.81
246.425	3.2
246.807	5.11
247.189	4.2
247.571	4.12
247.953	4.14
248.335	3.9
248.717	4.11
249.098	4.08
249.48	4.12
249.862	4.28
250.243	4.04
250.625	3.95
251.006	4.21
251.388	4.19
251.769	4.83
252.151	4.7
252.532	4.2
252.913	3.29
253.295	4.55
253.676	4.22
254.057	4.33
254.438	4.32
254.819	4.27
255.2	4.12
255.581	4.32
255.962	4.74
256.343	5.31
256.724	4.13
257.105	3.93
257.486	4.57
257.867	6.12
258.247	5.54
258.628	5.38
259.009	3.59
259.389	4.72
259.77	4.68
260.15	4.05
260.531	4.29
260.911	4.16
261.292	4.02
261.672	4.17
262.052	4.19
262.432	4.46
262.813	4.02
263.193	3.98
263.573	4.21
263.953	3.96
264.333	4.65
264.713	4.42
265.093	3.6
265.473	4.24
265.853	3.23
266.233	4.78
266.612	4.42
266.992	4.78
267.372	3.26
267.752	3.94
268.131	4.73
268.511	4.44
268.89	4.46
269.27	4.44
269.649	4.28
270.029	4.03
270.408	3.81
270.787	4.66
271.167	4.35
271.546	4.76
271.925	4.32
272.304	3.82
272.683	4.26
273.062	4.39
273.441	4.35
273.82	3.88
274.199	4.18
274.578	3.95
274.957	4.07
275.336	3.96
275.715	3.71
276.093	4.52
276.472	3.97
276.851	3.6
277.229	4.31
277.608	4.11
277.986	4.35
278.365	4.4
278.743	4.41
279.122	3.71
279.5	4.26
279.878	4.23
280.257	3.72
280.635	3.81
281.013	3.45
281.391	4.23
281.769	4.28
282.147	3.97
282.525	4.32
282.903	4.55
283.281	4.44
283.659	4.42
284.037	4.23
284.415	4.19
284.792	4.33
285.17	3.91
285.548	4.71
285.925	4.12
286.303	4.25
286.68	4.34
287.058	4.3
287.435	4.27
287.813	4.13
288.19	4.45
288.567	4.3
288.945	4.37
289.322	4.62
289.699	4.47
290.076	4.52
290.453	3.77
290.83	3.95
291.207	4.5
291.584	4.91
291.961	4.74
292.338	4.79
292.715	4.78
293.092	4.71
293.469	4.7
293.845	4.62
294.222	4.86
294.599	4.5
294.975	4.91
295.352	4.89
295.728	4.93
296.105	5.02
296.481	5.15
296.858	5.22
297.234	5.63
297.61	5.44
297.986	5.15
298.363	5.07
298.739	4.84
299.115	5.08
299.491	5.34
299.867	5.27
300.243	5.32
300.619	5.67
300.995	5.96
301.371	5.95
301.746	5.58
302.122	5.5
302.498	5.74
302.874	6.11
303.249	5.25
303.625	5.59
304	6.02
304.376	5.63
304.751	5.99
305.127	5.59
305.502	6.09
305.878	6.03
306.253	6.14
306.628	5.53
307.003	6.51
307.378	6.53
307.754	5.92
308.129	6.38
308.504	6.59
308.879	6.87
309.254	6.63
309.629	6.81
310.003	6.55
310.378	7.01
310.753	6.86
311.128	6.74
311.502	6.09
311.877	7.17
312.252	6.8
312.626	6.76
313.001	7.12
313.375	7.24
313.75	6.86
314.124	6.76
314.498	7.22
314.873	7.47
315.247	7.98
315.621	7.53
315.995	7.78
316.369	7.37
316.743	7.82
317.117	7.78
317.491	8.02
317.865	7.67
318.239	7.93
318.613	8.74
318.987	8.02
319.361	8.43
319.734	8.2
320.108	8.35
320.482	7.63
320.855	8.51
321.229	8.58
321.602	8.39
321.976	8.77
322.349	9.31
322.723	8.73
323.096	8.64
323.469	8.43
323.843	8.69
324.216	8.86
324.589	8.96
324.962	8.84
325.335	8.82
325.708	9.04
326.081	9.24
326.454	8.95
326.827	8.99
327.2	9.18
327.573	8.99
327.945	9.32
328.318	8.86
328.691	9.39
329.063	9.25
329.436	9.59
329.809	9.17
330.181	9.33
330.553	9.16
330.926	9.49
331.298	9.94
331.671	9.18
332.043	9.59
332.415	9.36
332.787	9.31
333.159	9.21
333.532	9.27
333.904	9.76
334.276	9.7
334.648	10.05
335.02	9.61
335.391	10.09
335.763	10.25
336.135	10.13
336.507	10.17
336.879	10.15
337.25	10.82
337.622	10.39
337.993	10.35
338.365	10.43
338.736	10.4
339.108	10.42
339.479	9.99
339.851	10.1
340.222	10.34
340.593	10.46
340.964	10.42
341.336	10.39
341.707	10.55
342.078	10.6
342.449	10.91
342.82	10.93
343.191	10.61
343.562	10.78
343.933	10.63
344.303	10.68
344.674	11.06
345.045	10.74
345.416	10.85
345.786	10.99
346.157	11.12
346.527	11.21
346.898	11.33
347.268	11.48
347.639	11
348.009	11.56
348.38	11.01
348.75	11.29
349.12	11.14
349.49	11.42
349.861	11.44
350.231	11.23
350.601	11.63
350.971	11.64
351.341	11.79
351.711	12.08
352.081	11.49
352.45	11.52
352.82	11.54
353.19	11.83
353.56	11.83
353.929	11.52
354.299	12.44
354.669	12.09
355.038	12.21
355.408	11.59
355.777	12.22
356.147	11.97
356.516	11.97
356.885	12.07
357.254	12.3
357.624	12.39
357.993	12.18
358.362	12.18
358.731	12.47
359.1	12.41
359.469	12.32
359.838	12.65
360.207	12.25
360.576	12.51
360.945	12.7
361.314	12.62
361.682	12.59
362.051	12.78
362.42	12.73
362.788	12.59
363.157	12.58
363.525	12.64
363.894	12.8
364.262	12.79
364.631	13.31
364.999	13.12
365.367	12.81
365.735	13.07
366.104	13.22
366.472	13.3
366.84	13.06
367.208	13.36
367.576	13.08
367.944	13.46
368.312	13.38
368.68	13.09
369.048	13.24
369.416	13.32
369.783	13.26
370.151	13.56
370.519	13.75
370.886	13.5
371.254	13.66
371.621	13.49
371.989	13.64
372.356	13.7
372.724	13.61
373.091	14.02
373.458	13.91
373.826	14.01
374.193	13.89
374.56	13.97
374.927	13.98
375.294	14.06
375.661	14.25
376.028	13.97
376.395	14.26
376.762	14.3
377.129	14.22
377.496	14.78
377.863	14.21
378.229	14.09
378.596	14.21
378.963	14.55
379.329	14.52
379.696	14.38
380.062	14.73
380.429	14.64
380.795	14.61
381.161	14.53
381.528	14.72
381.894	14.79
382.26	14.6
382.626	14.79
382.993	15.18
383.359	14.96
383.725	14.88
384.091	15.09
384.457	15.44
384.823	15.19
385.188	14.98
385.554	15.05
385.92	14.89
386.286	15.23
386.651	15.3
387.017	15.35
387.383	15.26
387.748	15.07
388.114	15.05
388.479	15.69
388.845	15.43
389.21	15.68
389.575	15.69
389.94	15.65
390.306	15.4
390.671	15.67
391.036	15.69
391.401	15.91
391.766	15.49
392.131	15.91
392.496	15.72
392.861	15.98
393.226	15.85
393.591	16.13
393.956	16.11
394.32	16.05
394.685	15.96
395.05	16.24
395.414	15.92
395.779	16.13
396.143	15.81
396.508	16.34
396.872	16.12
397.236	16.29
397.601	16.11
397.965	16.25
398.329	16.28
398.694	16.58
399.058	16.53
399.422	16.45
399.786	16.26
400.15	16.58
400.514	16.52
400.878	16.57
401.242	16.9
401.605	16.55
401.969	16.97
402.333	16.67
402.697	16.46
403.06	16.81
403.424	16.94
403.787	16.91
404.151	17.13
404.514	17.14
404.878	16.98
405.241	17.24
405.604	17.13
405.968	17.02
406.331	16.83
406.694	17.35
407.057	17.14
407.42	17.13
407.783	17.11
408.146	17.23
408.509	17.33
408.872	17.49
409.235	17.51
409.598	17.57
409.961	17.7
410.323	17.46
410.686	17.54
411.049	17.49
411.411	17.53
411.774	17.68
412.136	17.62
412.499	17.66
412.861	17.76
413.223	17.62
413.586	17.86
413.948	17.9
414.31	17.73
414.672	18.09
415.035	18.3
415.397	17.92
415.759	18.23
416.121	17.85
416.483	18.13
416.845	18.32
417.206	17.96
417.568	18.06
417.93	18.23
418.292	18
418.653	17.95
419.015	18.06
419.377	18.07
419.738	18.21
420.1	18.19
420.461	18.14
420.822	18.06
421.184	18.05
421.545	18.1
421.906	18.21
422.267	18.09
422.629	18.08
422.99	18.07
423.351	17.94
423.712	18.21
424.073	18.31
424.434	18.34
424.795	18.29
425.155	18.46
425.516	18.47
425.877	18.26
426.238	18.45
426.598	18.51
426.959	18.54
427.32	18.5
427.68	18.65
428.041	18.72
428.401	18.97
428.761	19.01
429.122	18.88
429.482	19.07
429.842	18.9
430.202	19.1
430.563	19.11
430.923	19.21
431.283	19.15
431.643	19.39
432.003	19.48
432.363	19.32
432.722	19.49
433.082	19.4
433.442	19.37
433.802	19.51
434.161	19.53
434.521	19.35
434.881	19.46
435.24	19.48
435.6	19.58
435.959	19.62
436.319	19.61
436.678	19.73
437.037	19.79
437.396	19.82
437.756	19.9
438.115	19.95
438.474	19.96
438.833	19.97
439.192	19.83
439.551	19.85
439.91	19.92
440.269	19.94
440.628	19.93
440.987	20
441.345	19.88
441.704	19.98
442.063	19.8
442.421	20.1
442.78	20.15
443.138	20.05
443.497	20.07
443.855	20.23
444.214	20.34
444.572	20.16
444.93	20.33
445.288	20.47
445.647	20.25
446.005	20.53
446.363	20.35
446.721	20.34
447.079	20.29
447.437	20.49
447.795	20.37
448.153	20.25
448.51	20.28
448.868	20.35
449.226	20.43
449.584	20.49
449.941	20.41
450.299	20.72
450.656	20.61
451.014	20.91
451.371	20.98
451.729	20.95
452.086	21.12
452.443	21.05
452.801	21.17
453.158	21.31
453.515	21.1
453.872	21.3
454.229	21.45
454.586	21.42
454.943	21.31
455.3	21.38
455.657	21.36
456.014	21.28
456.371	21.41
456.727	21.79
457.084	21.67
457.441	21.56
457.797	21.78
458.154	21.83
458.51	21.69
458.867	21.81
459.223	21.7
459.58	21.98
459.936	21.7
460.292	21.64
460.648	21.67
461.005	21.73
461.361	21.63
461.717	21.63
462.073	21.62
462.429	21.75
462.785	21.69
463.141	21.74
463.496	21.71
463.852	22.16
464.208	21.92
464.564	22.07
464.919	22.5
465.275	22.41
465.631	22.42
465.986	22.36
466.342	22.33
466.697	22.63
467.052	22.51
467.408	22.63
467.763	22.52
468.118	22.58
468.473	22.64
468.829	22.59
469.184	22.65
469.539	22.64
469.894	22.7
470.249	22.72
470.603	23.03
470.958	22.71
471.313	22.87
471.668	22.85
472.023	22.91
472.377	23
472.732	23.05
473.086	22.97
473.441	23.05
473.795	23.15
474.15	23.14
474.504	23.19
474.859	22.98
475.213	23.62
475.567	23.42
475.921	23.47
476.275	23.28
476.63	23.45
476.984	23.47
477.338	23.65
477.692	23.44
478.045	23.54
478.399	23.47
478.753	23.53
479.107	23.86
479.461	23.63
479.814	23.66
480.168	23.7
480.521	23.61
480.875	23.83
481.228	23.74
481.582	23.84
481.935	23.85
482.289	23.8
482.642	23.87
482.995	23.85
483.348	23.73
483.701	23.64
484.055	23.59
484.408	23.63
484.761	23.5
485.114	23.09
485.466	22.97
485.819	23.08
486.172	23.35
486.525	23.44
486.878	23.41
487.23	23.26
487.583	23.22
487.936	23.44
488.288	23.47
488.641	23.54
488.993	23.5
489.345	23.58
489.698	23.59
490.05	23.7
490.402	23.7
490.754	23.85
491.107	23.92
491.459	24
491.811	24.09
492.163	24.28
492.515	24.27
492.866	24.15
493.218	24.04
493.57	24.03
493.922	24.3
494.274	24.34
494.625	24.32
494.977	24.5
495.328	24.45
495.68	24.63
496.031	24.83
496.383	25.13
496.734	24.98
497.086	25.24
497.437	25.41
497.788	25.37
498.139	25.16
498.49	25.17
498.842	25.24
499.193	25.28
499.544	25.29
499.894	25.34
500.245	25.4
500.596	25.43
500.947	25.62
501.298	25.57
501.648	25.79
501.999	25.88
502.35	25.81
502.7	25.89
503.051	26.1
503.401	26.08
503.752	26.18
504.102	26.08
504.452	26.28
504.803	26.17
505.153	26.21
505.503	26.06
505.853	26.4
506.203	26.27
506.553	26.47
506.903	26.39
507.253	26.41
507.603	26.4
507.953	26.37
508.303	26.51
508.652	26.44
509.002	26.8
509.352	26.71
509.701	26.6
510.051	26.6
510.4	26.6
510.75	26.51
511.099	26.57
511.449	26.45
511.798	26.56
512.147	26.57
512.496	26.65
512.846	26.73
513.195	26.82
513.544	26.64
513.893	26.69
514.242	26.78
514.591	26.76
514.939	27.22
515.288	27.05
515.637	27.08
515.986	27.11
516.334	27.15
516.683	27.32
517.032	27.28
517.38	27.3
517.729	27.5
518.077	27.54
518.426	27.51
518.774	27.54
519.122	27.48
519.47	27.43
519.819	27.35
520.167	27.18
520.515	27.17
520.863	27.34
521.211	27.32
521.559	27.36
521.907	27.48
522.255	27.69
522.602	27.72
522.95	27.6
523.298	28.02
523.645	27.8
523.993	28.03
524.341	28.16
524.688	28.25
525.036	28.27
525.383	28.2
525.73	28.25
526.078	28.21
526.425	28.37
526.772	28.21
527.119	28.04
527.466	28.01
527.814	28.08
528.161	28.07
528.508	28.07
528.854	27.97
529.201	28.1
529.548	27.96
529.895	27.72
530.242	27.65
530.588	27.79
530.935	28.03
531.282	28.15
531.628	28
531.975	27.94
532.321	27.97
532.667	28.11
533.014	28.37
533.36	28.48
533.706	28.69
534.052	28.58
534.399	28.72
534.745	28.56
535.091	28.28
535.437	28.62
535.783	28.68
536.129	28.75
536.474	28.77
536.82	28.73
537.166	28.72
537.512	28.88
537.857	29.16
538.203	29.02
538.549	29.04
538.894	29.4
539.239	29.4
539.585	29.28
539.93	29.2
540.276	29.53
540.621	29.5
540.966	29.87
541.311	29.84
541.656	29.89
542.001	29.8
542.346	29.56
542.691	29.56
543.036	29.31
543.381	29.22
543.726	29.51
544.071	29.56
544.415	29.58
544.76	29.5
545.105	29.36
545.449	29.56
545.794	30.02
546.138	29.98
546.483	30.18
546.827	30.12
547.171	30.2
547.516	30.27
547.86	30.43
548.204	30.37
548.548	30.44
548.892	30.46
549.236	30.54
549.58	30.69
549.924	30.74
550.268	30.92
550.612	30.97
550.956	30.84
551.3	31.02
551.643	31.21
551.987	31.24
552.33	31.27
552.674	31.4
553.017	31.47
553.361	31.43
553.704	31.47
554.048	31.55
554.391	31.43
554.734	31.46
555.077	31.45
555.42	31.71
555.764	31.65
556.107	31.63
556.45	31.69
556.793	31.67
557.135	31.94
557.478	31.83
557.821	32.25
558.164	32.26
558.507	31.89
558.849	32.13
559.192	32.48
559.534	32.07
559.877	32.23
560.219	32.12
560.562	32.51
560.904	32.72
561.246	32.45
561.589	32.47
561.931	32.61
562.273	32.56
562.615	32.31
562.957	32.75
563.299	32.63
563.641	32.61
563.983	32.64
564.325	32.75
564.667	32.93
565.008	32.83
565.35	32.88
565.692	33.21
566.033	33.07
566.375	32.89
566.716	32.84
567.058	32.79
567.399	33.29
567.741	33.17
568.082	33.06
568.423	33.01
568.764	33.09
569.105	33.17
569.447	33.24
569.788	33.14
570.129	33.21
570.47	33.42
570.811	33.38
571.151	33.71
571.492	33.47
571.833	33.26
572.174	33.59
572.514	33.58
572.855	33.46
573.195	33.67
573.536	33.42
573.876	33.65
574.217	33.59
574.557	33.63
574.898	33.62
575.238	33.83
575.578	33.76
575.918	33.83
576.258	33.86
576.598	34.11
576.938	34.13
577.278	33.82
577.618	33.88
577.958	34.09
578.298	34.25
578.638	34.23
578.977	34.42
579.317	34.41
579.657	34.44
579.996	34.83
580.336	34.4
580.675	34.58
581.014	34.63
581.354	34.76
581.693	34.88
582.032	34.65
582.372	34.89
582.711	34.65
583.05	34.93
583.389	34.83
583.728	35.08
584.067	35.19
584.406	34.94
584.745	35.3
585.083	35.38
585.422	35.37
585.761	35.23
586.1	35.48
586.438	35.18
586.777	35.51
587.115	35.45
587.454	35.77
587.792	35.85
588.13	35.88
588.469	35.71
588.807	35.72
589.145	35.85
589.483	35.81
589.821	35.74
590.159	35.86
590.497	36.13
590.835	35.7
591.173	35.7
591.511	35.99
591.849	35.91
592.187	35.96
592.524	36.02
592.862	35.83
593.2	36.11
593.537	35.88
593.875	36.01
594.212	36.42
594.55	36.25
594.887	36.51
595.224	36.24
595.561	35.99
595.899	36.33
596.236	36.29
596.573	36.45
596.91	36.63
597.247	36.47
597.584	36.4
597.921	36.52
598.258	36.63
598.594	36.26
598.931	36.42
599.268	36.64
599.604	36.2
599.941	36.29
600.277	36.7
600.614	36.6
600.95	36.73
601.287	36.78
601.623	36.91
601.959	36.84
602.296	37.01
602.632	37.2
602.968	37.17
603.304	37.06
603.64	37.38
603.976	36.9
604.312	37.41
604.648	37.07
604.984	37.3
605.319	37.25
605.655	37.28
605.991	37.41
606.326	37.27
606.662	37.05
606.998	37.12
607.333	37.4
607.668	37.52
608.004	37.38
608.339	37.26
608.674	37.6
609.01	37.39
609.345	37.74
609.68	37.66
610.015	38.02
610.35	37.97
610.685	38.04
611.02	38.08
611.355	37.7
611.689	37.89
612.024	37.95
612.359	37.99
612.694	37.95
613.028	38.15
613.363	38.18
613.697	38.29
614.032	38.25
614.366	38.22
614.7	38.77
615.035	38.69
615.369	38.37
615.703	38.97
616.037	38.46
616.371	39.02
616.705	39.02
617.039	39.07
617.373	38.86
617.707	39.3
618.041	38.87
618.375	38.94
618.709	38.78
619.042	39.03
619.376	39.08
619.71	39.4
620.043	39.25
620.377	39.21
620.71	39.16
621.043	39.58
621.377	39.26
621.71	39.55
622.043	39.38
622.376	39.78
622.709	39.73
623.043	39.29
623.376	40.05
623.709	39.44
624.041	39.84
624.374	39.29
624.707	39.65
625.04	39.51
625.373	39.55
625.705	39.67
626.038	39.73
626.37	39.82
626.703	40.21
627.035	39.76
627.368	39.96
627.7	39.64
628.032	39.84
628.365	40.2
628.697	40.05
629.029	39.73
629.361	39.95
629.693	40.14
630.025	40.06
630.357	40.1
630.689	40.28
631.021	40.09
631.353	40.2
631.684	40.25
632.016	40.18
632.348	40.2
632.679	40.47
633.011	40.56
633.342	40.6
633.674	40.47
634.005	40.22
634.336	40.64
634.668	40.55
634.999	40.57
635.33	40.47
635.661	40.75
635.992	40.88
636.323	40.85
636.654	40.43
636.985	41.06
637.316	40.81
637.647	40.85
637.977	41.31
638.308	41.02
638.639	41.44
638.969	40.94
639.3	41.47
639.63	40.96
639.961	41.32
640.291	41.37
640.622	41.28
640.952	41.56
641.282	41.1
641.612	41.66
641.943	41.19
642.273	41.35
642.603	41.61
642.933	41.57
643.263	41.49
643.592	41.62
643.922	41.91
644.252	41.55
644.582	41.13
644.911	41.81
645.241	41.59
645.571	41.63
645.9	41.82
646.23	41.93
646.559	42.02
646.888	42.45
647.218	42.25
647.547	41.87
647.876	42.51
648.205	42.1
648.534	41.82
648.863	42.14
649.192	41.96
649.521	42.15
649.85	42.63
650.179	42.25
650.508	41.6
650.837	42.7
651.165	42.87
651.494	42.53
651.822	42.88
652.151	42.64
652.479	42.39
652.808	42.81
653.136	42.85
653.465	42.58
653.793	42.74
654.121	42.67
654.449	42.46
654.777	42.92
655.105	42.93
655.433	42.67
655.761	42.43
656.089	42.46
656.417	42.95
656.745	42.7
657.073	42.36
657.4	42.81
657.728	42.99
658.056	42.79
658.383	42.71
658.711	42.81
659.038	42.96
659.365	43.32
659.693	43.32
660.02	43.37
660.347	43.22
660.674	42.89
661.001	43.16
661.329	43.38
661.656	43.57
661.982	43.16
662.309	43.33
662.636	43.42
662.963	43.06
663.29	43.54
663.616	43.74
663.943	43.51
664.27	44.14
664.596	43.37
664.923	43.63
665.249	43.85
665.576	44.04
665.902	43.35
666.228	43.34
666.554	44.45
666.881	43.94
667.207	43.89
667.533	44.05
667.859	44.23
668.185	43.96
668.511	44.52
668.837	43.78
669.162	43.84
669.488	43.72
669.814	43.68
670.139	44.12
