Data from 0038_chest_Reflection__0__30.txt Node

Date: Fri Nov 04 14:55:31 CDT 2022
User: ToomeyLab
Spectrometer: FLMS14357
Trigger mode: 0
Integration Time (sec): 1.000000E-2
Scans to average: 100
Electric dark correction enabled: true
Nonlinearity correction enabled: false
Boxcar width: 0
XAxis mode: Wavelengths
Number of Pixels in Spectrum: 2048
>>>>>Begin Spectral Data<<<<<
189.047	179.21
189.435	179.21
189.823	179.21
190.211	-69.33
190.599	-643.85
190.987	-90.54
191.375	257.09
191.763	52.2
192.151	271.68
192.538	2.64
192.926	89.36
193.314	-155.67
193.702	-709.93
194.089	446.4
194.477	77.82
194.864	148.52
195.252	129.34
195.639	153.7
196.027	205.05
196.414	192.05
196.801	-7.42
197.189	-65.14
197.576	90.91
197.963	425.99
198.351	-35.11
198.738	4.2
199.125	1.12
199.512	-57.07
199.899	-2.12
200.286	-15.26
200.673	-1.97
201.06	-14.71
201.447	-22.6
201.833	2.93
202.22	-23.95
202.607	-30.42
202.994	35.77
203.38	34.73
203.767	4
204.154	34.66
204.54	-39.63
204.927	-11.09
205.313	30.27
205.699	32.54
206.086	37.93
206.472	-4.68
206.858	-9.11
207.245	-8.43
207.631	14.48
208.017	-22.76
208.403	18.77
208.789	28.72
209.175	-5.14
209.561	-41.95
209.947	-91.13
210.333	30.06
210.719	3.63
211.105	-44.9
211.491	-4.63
211.876	24.88
212.262	-11.9
212.648	-19.91
213.034	16.41
213.419	-10.11
213.805	-13.93
214.19	12.58
214.576	0.81
214.961	22.41
215.346	-14.44
215.732	10.55
216.117	-3.76
216.502	3.71
216.888	-33.42
217.273	4.33
217.658	2.78
218.043	15.7
218.428	6.71
218.813	-5.91
219.198	-14.89
219.583	-10.76
219.968	-9.51
220.353	-13.79
220.738	-12.66
221.122	1.94
221.507	3.27
221.892	-4.45
222.276	-19.87
222.661	4.75
223.046	4.08
223.43	-9.87
223.815	-9.45
224.199	2.69
224.583	-0.32
224.968	3.24
225.352	7.59
225.736	-4.24
226.121	-6.11
226.505	4.25
226.889	0.27
227.273	2.81
227.657	-0.45
228.041	-0.15
228.425	4.26
228.809	2.04
229.193	2.04
229.577	0.44
229.961	1.82
230.344	2.15
230.728	1.18
231.112	0.81
231.495	1.23
231.879	1.24
232.263	0.65
232.646	0.39
233.03	-0.04
233.413	-0.43
233.797	0.54
234.18	0.16
234.563	0.93
234.946	-0.39
235.33	1.91
235.713	0.74
236.096	1.79
236.479	-0.13
236.862	1.18
237.245	0.22
237.628	0.94
238.011	-0.38
238.394	1.13
238.777	2.2
239.16	1.61
239.543	-0.32
239.925	1.93
240.308	2.17
240.691	1.59
241.073	0.65
241.456	0.74
241.838	0.36
242.221	0.98
242.603	1.75
242.986	0.77
243.368	1.39
243.75	1.42
244.133	1.49
244.515	1.31
244.897	1.34
245.279	1.25
245.661	2.19
246.043	1.43
246.425	1.16
246.807	1.88
247.189	1.09
247.571	1.84
247.953	1.31
248.335	0.86
248.717	1.12
249.098	1.17
249.48	1.34
249.862	1.56
250.243	1.51
250.625	0.97
251.006	1.73
251.388	1.1
251.769	1.8
252.151	1.94
252.532	1.6
252.913	1.49
253.295	1.68
253.676	0.86
254.057	1
254.438	1.51
254.819	1.51
255.2	0.74
255.581	1.23
255.962	1.15
256.343	0.58
256.724	1.55
257.105	1.4
257.486	2
257.867	3.29
258.247	1.52
258.628	1.33
259.009	0.93
259.389	1.17
259.77	1.57
260.15	1.53
260.531	1.21
260.911	1.14
261.292	1.13
261.672	1.21
262.052	1.34
262.432	1.46
262.813	0.92
263.193	1.01
263.573	0.97
263.953	1.15
264.333	1.25
264.713	1.67
265.093	1.35
265.473	1.92
265.853	1.4
266.233	1.39
266.612	2.16
266.992	1.74
267.372	0.75
267.752	1.55
268.131	1.39
268.511	1.16
268.89	1.64
269.27	1.62
269.649	1.6
270.029	1.1
270.408	1.47
270.787	1.28
271.167	1.33
271.546	1.54
271.925	1.49
272.304	1.02
272.683	1.1
273.062	0.98
273.441	1.41
273.82	0.84
274.199	1.29
274.578	0.96
274.957	1.53
275.336	0.95
275.715	0.87
276.093	1.42
276.472	1.04
276.851	0.98
277.229	1.28
277.608	0.93
277.986	1.66
278.365	1.36
278.743	1.26
279.122	1.32
279.5	1.19
279.878	1.18
280.257	1.33
280.635	0.84
281.013	1.34
281.391	1.59
281.769	1.29
282.147	1.1
282.525	1.49
282.903	0.97
283.281	1.97
283.659	0.85
284.037	1.27
284.415	0.85
284.792	1.55
285.17	1.04
285.548	1.39
285.925	1.18
286.303	1.59
286.68	1.67
287.058	1.44
287.435	1.31
287.813	1.18
288.19	1.18
288.567	1.19
288.945	1.36
289.322	1.42
289.699	1.65
290.076	1.88
290.453	0.88
290.83	1.24
291.207	1.38
291.584	1.65
291.961	1.59
292.338	1.53
292.715	1.42
293.092	1.43
293.469	1.07
293.845	1.36
294.222	1.19
294.599	1.18
294.975	1.53
295.352	1.44
295.728	1.61
296.105	0.96
296.481	0.87
296.858	1.55
297.234	2.01
297.61	1.91
297.986	1.26
298.363	1.29
298.739	1.39
299.115	1.44
299.491	1.47
299.867	1.25
300.243	1.38
300.619	1.6
300.995	1.56
301.371	2.2
301.746	1.43
302.122	1.44
302.498	1.54
302.874	1.57
303.249	0.74
303.625	1.45
304	1.44
304.376	1.21
304.751	1.4
305.127	1.2
305.502	1.51
305.878	1.51
306.253	1.46
306.628	1.23
307.003	1.41
307.378	1.55
307.754	1.34
308.129	0.85
308.504	1.32
308.879	1.79
309.254	1.7
309.629	1.93
310.003	1.68
310.378	1.76
310.753	1.72
311.128	1.36
311.502	1.08
311.877	1.65
312.252	1.28
312.626	1.66
313.001	1.45
313.375	1.49
313.75	1.39
314.124	1.35
314.498	1.61
314.873	1.7
315.247	1.69
315.621	1.32
315.995	1.9
316.369	1.35
316.743	1.79
317.117	1.86
317.491	1.59
317.865	1.45
318.239	1.28
318.613	2.35
318.987	1.44
319.361	1.94
319.734	1.71
320.108	1.73
320.482	1.16
320.855	1.7
321.229	1.69
321.602	1.38
321.976	1.9
322.349	2.33
322.723	1.65
323.096	1.68
323.469	1.39
323.843	1.34
324.216	1.87
324.589	1.95
324.962	1.9
325.335	1.65
325.708	1.23
326.081	1.96
326.454	1.57
326.827	1.7
327.2	1.75
327.573	1.57
327.945	1.76
328.318	1.6
328.691	1.88
329.063	1.55
329.436	1.77
329.809	1.45
330.181	2.1
330.553	1.84
330.926	1.92
331.298	2.2
331.671	1.75
332.043	1.71
332.415	1.58
332.787	1.42
333.159	1.64
333.532	1.31
333.904	1.99
334.276	1.83
334.648	1.92
335.02	1.01
335.391	1.82
335.763	1.41
336.135	1.83
336.507	1.77
336.879	1.67
337.25	2.12
337.622	1.82
337.993	1.92
338.365	1.53
338.736	2.14
339.108	2.12
339.479	1.72
339.851	1.74
340.222	1.43
340.593	1.99
340.964	1.62
341.336	1.59
341.707	1.35
342.078	1.87
342.449	1.81
342.82	1.78
343.191	1.31
343.562	1.74
343.933	2.26
344.303	1.84
344.674	1.85
345.045	1.52
345.416	1.64
345.786	1.98
346.157	1.97
346.527	1.72
346.898	1.77
347.268	1.61
347.639	2.02
348.009	2.3
348.38	1.71
348.75	1.54
349.12	1.46
349.49	1.94
349.861	1.57
350.231	2.06
350.601	1.54
350.971	1.67
351.341	1.84
351.711	1.8
352.081	1.76
352.45	1.95
352.82	1.56
353.19	1.58
353.56	1.91
353.929	1.62
354.299	2.31
354.669	2.12
355.038	1.79
355.408	1.69
355.777	1.9
356.147	1.81
356.516	1.52
356.885	1.54
357.254	1.87
357.624	1.94
357.993	1.65
358.362	1.59
358.731	1.78
359.1	1.96
359.469	1.65
359.838	2.04
360.207	1.54
360.576	2.06
360.945	2
361.314	1.98
361.682	2.01
362.051	1.99
362.42	1.94
362.788	1.87
363.157	1.73
363.525	1.77
363.894	1.82
364.262	1.94
364.631	1.91
364.999	1.94
365.367	1.85
365.735	1.8
366.104	1.73
366.472	1.88
366.84	1.6
367.208	1.99
367.576	1.8
367.944	2.03
368.312	1.8
368.68	2.05
369.048	1.73
369.416	1.86
369.783	1.61
370.151	1.57
370.519	2.27
370.886	1.96
371.254	1.72
371.621	1.94
371.989	1.61
372.356	1.66
372.724	1.73
373.091	1.99
373.458	2.06
373.826	1.91
374.193	1.53
374.56	1.78
374.927	1.97
375.294	1.81
375.661	2.21
376.028	1.72
376.395	2.07
376.762	2.01
377.129	2.11
377.496	1.96
377.863	1.76
378.229	1.66
378.596	1.8
378.963	1.86
379.329	1.91
379.696	1.89
380.062	1.99
380.429	1.91
380.795	1.77
381.161	1.9
381.528	2.04
381.894	1.74
382.26	1.88
382.626	1.84
382.993	2.09
383.359	2
383.725	1.96
384.091	1.95
384.457	1.84
384.823	1.9
385.188	1.87
385.554	1.87
385.92	1.59
386.286	2.15
386.651	1.79
387.017	1.86
387.383	1.94
387.748	1.73
388.114	1.79
388.479	2.45
388.845	2.15
389.21	2.08
389.575	2.22
389.94	1.96
390.306	1.98
390.671	2.33
391.036	1.75
391.401	1.97
391.766	1.79
392.131	1.79
392.496	2.06
392.861	1.98
393.226	1.91
393.591	2.07
393.956	2.02
394.32	1.88
394.685	2.08
395.05	2.06
395.414	1.82
395.779	1.82
396.143	1.9
396.508	1.89
396.872	2.19
397.236	2.08
397.601	1.81
397.965	2.06
398.329	2.03
398.694	2.06
399.058	2.19
399.422	1.78
399.786	2.01
400.15	1.99
400.514	2.06
400.878	2.11
401.242	2.23
401.605	1.93
401.969	2.27
402.333	2
402.697	2.3
403.06	2.18
403.424	2
403.787	2.12
404.151	2.13
404.514	2.06
404.878	2.23
405.241	2.07
405.604	2.27
405.968	2.06
406.331	2.01
406.694	1.96
407.057	2.16
407.42	2.05
407.783	1.83
408.146	2.14
408.509	1.98
408.872	2.13
409.235	2.06
409.598	2.13
409.961	2.12
410.323	2.12
410.686	1.99
411.049	2.02
411.411	1.92
411.774	2.2
412.136	2.22
412.499	2.17
412.861	2.22
413.223	2.15
413.586	2.07
413.948	2.26
414.31	2.09
414.672	2.26
415.035	2.16
415.397	2.16
415.759	2.12
416.121	1.99
416.483	2.05
416.845	2.22
417.206	2.1
417.568	2.3
417.93	2.19
418.292	2
418.653	2.21
419.015	1.94
419.377	2.18
419.738	2
420.1	2.2
420.461	2.09
420.822	1.93
421.184	2.14
421.545	2.02
421.906	2.16
422.267	2
422.629	2.1
422.99	2.07
423.351	1.97
423.712	2.06
424.073	2.16
424.434	1.98
424.795	2.15
425.155	2.11
425.516	2.2
425.877	2.12
426.238	2.03
426.598	2.18
426.959	2.02
427.32	2.06
427.68	2.1
428.041	2.07
428.401	2.31
428.761	2.21
429.122	2.09
429.482	2.28
429.842	1.93
430.202	2.32
430.563	2.17
430.923	2.2
431.283	2.2
431.643	2.34
432.003	2.42
432.363	2.33
432.722	2.36
433.082	2.38
433.442	2.08
433.802	2.16
434.161	2.15
434.521	2.28
434.881	2.18
435.24	2.16
435.6	2.25
435.959	2.19
436.319	2.25
436.678	2.31
437.037	2.2
437.396	2.36
437.756	2.17
438.115	2.18
438.474	2.31
438.833	2.35
439.192	2.42
439.551	2.23
439.91	2.18
440.269	2.3
440.628	2.35
440.987	2.17
441.345	2.27
441.704	2.33
442.063	2.07
442.421	2.26
442.78	2.24
443.138	2.28
443.497	2.23
443.855	2.26
444.214	2.47
444.572	2.3
444.93	2.2
445.288	2.25
445.647	2.13
446.005	2.35
446.363	2.18
446.721	2.22
447.079	2.19
447.437	2.17
447.795	2.31
448.153	2.15
448.51	2.27
448.868	2.27
449.226	2.24
449.584	2.26
449.941	2.22
450.299	2.27
450.656	2.23
451.014	2.46
451.371	2.46
451.729	2.33
452.086	2.32
452.443	2.35
452.801	2.54
453.158	2.46
453.515	2.48
453.872	2.24
454.229	2.45
454.586	2.42
454.943	2.43
455.3	2.16
455.657	2.25
456.014	2.38
456.371	2.34
456.727	2.57
457.084	2.45
457.441	2.36
457.797	2.36
458.154	2.55
458.51	2.4
458.867	2.32
459.223	2.49
459.58	2.56
459.936	2.25
460.292	2.25
460.648	2.3
461.005	2.16
461.361	2.35
461.717	2.34
462.073	2.47
462.429	2.37
462.785	2.41
463.141	2.41
463.496	2.3
463.852	2.49
464.208	2.32
464.564	2.25
464.919	2.55
465.275	2.5
465.631	2.55
465.986	2.54
466.342	2.42
466.697	2.39
467.052	2.46
467.408	2.54
467.763	2.53
468.118	2.65
468.473	2.46
468.829	2.3
469.184	2.55
469.539	2.43
469.894	2.58
470.249	2.37
470.603	2.49
470.958	2.45
471.313	2.42
471.668	2.33
472.023	2.4
472.377	2.4
472.732	2.38
473.086	2.44
473.441	2.53
473.795	2.5
474.15	2.55
474.504	2.54
474.859	2.49
475.213	2.59
475.567	2.37
475.921	2.47
476.275	2.69
476.63	2.58
476.984	2.46
477.338	2.52
477.692	2.56
478.045	2.49
478.399	2.52
478.753	2.49
479.107	2.61
479.461	2.62
479.814	2.64
480.168	2.53
480.521	2.46
480.875	2.53
481.228	2.61
481.582	2.6
481.935	2.53
482.289	2.41
482.642	2.64
482.995	2.56
483.348	2.55
483.701	2.61
484.055	2.53
484.408	2.53
484.761	2.49
485.114	2.46
485.466	2.37
485.819	2.39
486.172	2.4
486.525	2.45
486.878	2.54
487.23	2.52
487.583	2.53
487.936	2.59
488.288	2.56
488.641	2.53
488.993	2.45
489.345	2.45
489.698	2.43
490.05	2.52
490.402	2.52
490.754	2.55
491.107	2.64
491.459	2.62
491.811	2.57
492.163	2.69
492.515	2.74
492.866	2.55
493.218	2.51
493.57	2.47
493.922	2.59
494.274	2.58
494.625	2.66
494.977	2.69
495.328	2.71
495.68	2.62
496.031	2.71
496.383	2.83
496.734	2.66
497.086	2.86
497.437	2.85
497.788	2.88
498.139	2.7
498.49	2.74
498.842	2.87
499.193	2.77
499.544	2.82
499.894	2.68
500.245	2.78
500.596	2.72
500.947	2.72
501.298	2.73
501.648	2.81
501.999	2.82
502.35	2.74
502.7	2.86
503.051	2.91
503.401	2.8
503.752	2.84
504.102	2.76
504.452	2.85
504.803	2.99
505.153	2.89
505.503	2.96
505.853	3
506.203	2.77
506.553	2.93
506.903	2.93
507.253	2.97
507.603	2.86
507.953	2.91
508.303	2.97
508.652	2.9
509.002	2.92
509.352	3.08
509.701	2.89
510.051	2.88
510.4	2.89
510.75	2.95
511.099	2.95
511.449	2.93
511.798	2.94
512.147	3.02
512.496	2.87
512.846	2.84
513.195	3.04
513.544	2.87
513.893	3.03
514.242	2.94
514.591	3.01
514.939	3.05
515.288	3
515.637	3.07
515.986	3.08
516.334	3.05
516.683	3.1
517.032	3.09
517.38	3.17
517.729	3.15
518.077	3.05
518.426	3.1
518.774	3.13
519.122	3.02
519.47	3.13
519.819	3.07
520.167	3.09
520.515	3.02
520.863	3
521.211	3.03
521.559	3.16
521.907	3.06
522.255	3.28
522.602	3.16
522.95	3.08
523.298	3.31
523.645	3.17
523.993	3.26
524.341	3.19
524.688	3.19
525.036	3.25
525.383	3.4
525.73	3.32
526.078	3.19
526.425	3.24
526.772	3.28
527.119	3.15
527.466	3.22
527.814	3.15
528.161	3.22
528.508	3.29
528.854	3.22
529.201	3.17
529.548	3.21
529.895	3.15
530.242	3.15
530.588	3.13
530.935	3.17
531.282	3.23
531.628	3.22
531.975	3.29
532.321	3.34
532.667	3.3
533.014	3.37
533.36	3.39
533.706	3.41
534.052	3.45
534.399	3.37
534.745	3.37
535.091	3.3
535.437	3.37
535.783	3.41
536.129	3.46
536.474	3.47
536.82	3.46
537.166	3.53
537.512	3.54
537.857	3.45
538.203	3.49
538.549	3.44
538.894	3.58
539.239	3.56
539.585	3.51
539.93	3.55
540.276	3.6
540.621	3.6
540.966	3.77
541.311	3.53
541.656	3.65
542.001	3.68
542.346	3.63
542.691	3.62
543.036	3.49
543.381	3.53
543.726	3.61
544.071	3.65
544.415	3.66
544.76	3.65
545.105	3.64
545.449	3.8
545.794	3.74
546.138	3.77
546.483	3.75
546.827	3.79
547.171	3.84
547.516	3.8
547.86	3.73
548.204	3.95
548.548	3.85
548.892	3.79
549.236	3.88
549.58	3.93
549.924	4.02
550.268	4.03
550.612	3.96
550.956	4.15
551.3	4.03
551.643	3.96
551.987	4.01
552.33	4.02
552.674	4.16
553.017	4.2
553.361	4.29
553.704	4.09
554.048	4.1
554.391	4.07
554.734	4.29
555.077	4.19
555.42	4.27
555.764	4.53
556.107	4.21
556.45	4.36
556.793	4.28
557.135	4.39
557.478	4.23
557.821	4.5
558.164	4.44
558.507	4.25
558.849	4.37
559.192	4.38
559.534	4.36
559.877	4.61
560.219	4.47
560.562	4.6
560.904	4.59
561.246	4.3
561.589	4.67
561.931	4.47
562.273	4.67
562.615	4.53
562.957	4.5
563.299	4.56
563.641	4.66
563.983	4.76
564.325	4.59
564.667	4.57
565.008	4.6
565.35	4.73
565.692	4.84
566.033	4.78
566.375	4.79
566.716	4.68
567.058	4.74
567.399	4.84
567.741	4.8
568.082	5.02
568.423	4.8
568.764	4.72
569.105	4.87
569.447	5.01
569.788	4.98
570.129	5.05
570.47	5.11
570.811	5.1
571.151	4.86
571.492	5.16
571.833	5.1
572.174	5.3
572.514	5.11
572.855	4.87
573.195	5.09
573.536	5.14
573.876	5.03
574.217	5.17
574.557	5
574.898	5.3
575.238	5.01
575.578	5.28
575.918	5.19
576.258	5.38
576.598	5.27
576.938	5.37
577.278	5.36
577.618	5.1
577.958	5.41
578.298	5.41
578.638	5.37
578.977	5.58
579.317	5.61
579.657	5.54
579.996	5.58
580.336	5.52
580.675	5.34
581.014	5.73
581.354	5.53
581.693	5.99
582.032	5.64
582.372	5.79
582.711	5.59
583.05	5.81
583.389	5.58
583.728	5.84
584.067	5.92
584.406	5.51
584.745	6.09
585.083	5.83
585.422	5.95
585.761	6.05
586.1	5.83
586.438	5.59
586.777	5.86
587.115	6.03
587.454	6.33
587.792	6.3
588.13	6.18
588.469	6.42
588.807	6.1
589.145	6.3
589.483	6.08
589.821	6.09
590.159	6
590.497	6.3
590.835	6.16
591.173	6.17
591.511	6.47
591.849	6.26
592.187	6.28
592.524	6.53
592.862	6.53
593.2	6.37
593.537	6.58
593.875	6.64
594.212	6.43
594.55	6.41
594.887	6.58
595.224	6.69
595.561	6.15
595.899	6.44
596.236	6.8
596.573	6.85
596.91	6.61
597.247	6.62
597.584	6.69
597.921	6.98
598.258	6.73
598.594	6.28
598.931	6.66
599.268	6.88
599.604	6.74
599.941	6.87
600.277	6.68
600.614	7.12
600.95	6.96
601.287	7.01
601.623	6.98
601.959	7.02
602.296	7.07
602.632	7.13
602.968	7.05
603.304	7.16
603.64	7.17
603.976	6.73
604.312	7.08
604.648	7.06
604.984	7.26
605.319	7.15
605.655	7.19
605.991	7.32
606.326	7.36
606.662	7.25
606.998	7.22
607.333	7.33
607.668	7.54
608.004	7.41
608.339	7.53
608.674	7.5
609.01	7.66
609.345	7.49
609.68	7.59
610.015	7.76
610.35	7.74
610.685	7.7
611.02	7.76
611.355	7.73
611.689	7.74
612.024	7.81
612.359	7.58
612.694	7.81
613.028	7.91
613.363	8.1
613.697	8.07
614.032	7.89
614.366	8.03
614.7	7.86
615.035	8.18
615.369	7.89
615.703	8.32
616.037	7.76
616.371	8.06
616.705	8.32
617.039	8.38
617.373	8.28
617.707	8.52
618.041	8.44
618.375	8.26
618.709	8.48
619.042	8.43
619.376	8.44
619.71	8.71
620.043	8.58
620.377	8.78
620.71	8.75
621.043	8.69
621.377	8.4
621.71	8.73
622.043	8.68
622.376	8.86
622.709	8.82
623.043	8.88
623.376	9.17
623.709	8.48
624.041	8.72
624.374	8.77
624.707	8.5
625.04	9.12
625.373	9.32
625.705	8.81
626.038	8.92
626.37	8.87
626.703	9.08
627.035	8.96
627.368	9.11
627.7	8.87
628.032	9.04
628.365	9.32
628.697	8.88
629.029	9.22
629.361	9.3
629.693	9.1
630.025	9.21
630.357	9.42
630.689	9.47
631.021	9.2
631.353	9.26
631.684	9.3
632.016	9.52
632.348	9.44
632.679	9.56
633.011	9.82
633.342	9.76
633.674	9.1
634.005	9.9
634.336	9.76
634.668	9.87
634.999	9.97
635.33	9.57
635.661	9.76
635.992	9.87
636.323	9.61
636.654	9.86
636.985	10.03
637.316	9.71
637.647	9.95
637.977	10.27
638.308	10.27
638.639	10.24
638.969	10.04
639.3	10.37
639.63	9.93
639.961	10.34
640.291	10.43
640.622	10.33
640.952	10.12
641.282	10.05
641.612	10.34
641.943	10.48
642.273	10.07
642.603	10.32
642.933	10.6
643.263	10.25
643.592	10.45
643.922	10.77
644.252	10.58
644.582	10.83
644.911	10.7
645.241	10.43
645.571	10.3
645.9	10.83
646.23	10.53
646.559	10.86
646.888	10.87
647.218	11.2
647.547	10.92
647.876	11.24
648.205	10.6
648.534	11.12
648.863	10.93
649.192	11.08
649.521	10.96
649.85	11.57
650.179	10.99
650.508	11.08
650.837	11.7
651.165	11.66
651.494	11.28
651.822	11.69
652.151	11.29
652.479	11.13
652.808	10.87
653.136	11.33
653.465	11.4
653.793	11.56
654.121	11.25
654.449	11.1
654.777	11.42
655.105	11.51
655.433	11.49
655.761	11.53
656.089	11.29
656.417	11.96
656.745	11.57
657.073	11.47
657.4	11.45
657.728	11.69
658.056	11.19
658.383	11.88
658.711	11.32
659.038	11.98
659.365	12.29
659.693	12.15
660.02	11.82
660.347	11.33
660.674	11.53
661.001	11.87
661.329	11.48
661.656	11.94
661.982	11.76
662.309	11.95
662.636	12.16
662.963	11.98
663.29	12.24
663.616	12.72
663.943	12.5
664.27	12.29
664.596	12.19
664.923	12.54
665.249	12.62
665.576	12.64
665.902	11.71
666.228	12.23
666.554	12.9
666.881	12.3
667.207	12.82
667.533	12.62
667.859	12.73
668.185	13.13
668.511	13
668.837	12.41
669.162	13.08
669.488	12.44
669.814	12.82
670.139	12.49
670.465	13.51
670.791	12.68
671.116	13.04
671.442	12.69
671.767	12.71
672.092	12.82
672.418	12.59
672.743	13.66
673.068	13.41
673.393	12.95
673.718	13.41
674.043	12.94
674.368	12.33
674.693	13.6
675.018	12.84
675.343	13.57
675.667	13.48
675.992	13.02
676.317	13.24
676.641	13.11
676.966	13.08
677.29	14.37
677.615	13.71
677.939	13.31
678.264	13.68
678.588	13.42
678.912	13.76
679.236	13.87
679.56	13.56
679.885	13.36
680.209	13.55
680.532	13.47
680.856	13.87
681.18	13.6
681.504	14.29
681.828	13.47
682.152	13.79
682.475	13.9
682.799	14.67
683.122	13.86
683.446	13.58
683.769	13.86
684.093	14.09
684.416	13.38
684.739	13.47
685.062	14.98
685.386	14.17
685.709	13.83
686.032	14.72
686.355	15.01
686.678	14.56
687.001	14.76
687.324	14.19
687.646	14.83
687.969	14.49
688.292	14.6
688.614	14.67
688.937	14.39
