Data from 0038_crown_Reflection__2__37.txt Node

Date: Fri Nov 04 14:58:10 CDT 2022
User: ToomeyLab
Spectrometer: FLMS14357
Trigger mode: 0
Integration Time (sec): 1.000000E-2
Scans to average: 100
Electric dark correction enabled: true
Nonlinearity correction enabled: false
Boxcar width: 0
XAxis mode: Wavelengths
Number of Pixels in Spectrum: 2048
>>>>>Begin Spectral Data<<<<<
189.047	-14.19
189.435	-14.19
189.823	-14.19
190.211	-23.01
190.599	364.29
190.987	46.64
191.375	57.6
191.763	126.41
192.151	135.99
192.538	37.3
192.926	19.15
193.314	-48.56
193.702	-168.69
194.089	358.59
194.477	-34.05
194.864	-113.44
195.252	92.15
195.639	-35.39
196.027	373.4
196.414	-275.45
196.801	80.42
197.189	-20.56
197.576	79.49
197.963	-102.38
198.351	-76.18
198.738	-6.25
199.125	5.68
199.512	-35.88
199.899	-8.48
200.286	17.89
200.673	9.7
201.06	-3.1
201.447	-29.75
201.833	19.23
202.22	-5.83
202.607	16.93
202.994	18.52
203.38	5.32
203.767	8.4
204.154	5.85
204.54	-59.68
204.927	-12.89
205.313	11.91
205.699	-12.93
206.086	6.35
206.472	-9
206.858	-31.92
207.245	8.06
207.631	8.09
208.017	-17.9
208.403	-10.03
208.789	10.49
209.175	-23.28
209.561	-43.41
209.947	-65.25
210.333	1.09
210.719	-12.04
211.105	-56.89
211.491	-1.8
211.876	7.08
212.262	-8.5
212.648	1.12
213.034	11.54
213.419	-7.49
213.805	-18.29
214.19	-41.85
214.576	9.19
214.961	13.3
215.346	5.55
215.732	-9.44
216.117	-26.37
216.502	6.91
216.888	-27.87
217.273	-15.95
217.658	8.08
218.043	-29.98
218.428	8.26
218.813	-2.14
219.198	4.17
219.583	-37.03
219.968	-1.41
220.353	-0.77
220.738	-12.82
221.122	-14.05
221.507	-0.4
221.892	-21.32
222.276	-8.67
222.661	1.5
223.046	-9.38
223.43	-7.58
223.815	-7.07
224.199	5.56
224.583	1.12
224.968	-2.06
225.352	4.52
225.736	-6.22
226.121	-13.81
226.505	-0.4
226.889	-2.86
227.273	1.81
227.657	-3.86
228.041	0.89
228.425	-1.67
228.809	0.04
229.193	4.03
229.577	-1.85
229.961	0.94
230.344	1.06
230.728	0.52
231.112	0.15
231.495	0.53
231.879	1.27
232.263	0.16
232.646	-0.06
233.03	-0.87
233.413	-0.64
233.797	-1.1
234.18	1.09
234.563	0.53
234.946	0.26
235.33	-0.35
235.713	0.15
236.096	0.97
236.479	-0.08
236.862	0.82
237.245	-0.89
237.628	0.45
238.011	-1.32
238.394	1.71
238.777	-0.84
239.16	1.21
239.543	-0.33
239.925	1.66
240.308	1.33
240.691	0.51
241.073	-0.59
241.456	0.25
241.838	-0.18
242.221	0.21
242.603	-0.09
242.986	0.27
243.368	0.71
243.75	0.46
244.133	0.65
244.515	0.22
244.897	0.6
245.279	0.33
245.661	0.88
246.043	0.61
246.425	1.06
246.807	0.89
247.189	0.65
247.571	0.4
247.953	0.37
248.335	0.62
248.717	0.27
249.098	0.33
249.48	0.49
249.862	0.62
250.243	0.65
250.625	0.13
251.006	0.5
251.388	0.84
251.769	0.77
252.151	1.25
252.532	0.23
252.913	-0.18
253.295	0.52
253.676	0.46
254.057	0.19
254.438	0.4
254.819	-0.03
255.2	-0.13
255.581	0.36
255.962	0.4
256.343	-0.19
256.724	0.86
257.105	0.36
257.486	0.62
257.867	1.09
258.247	0.94
258.628	0.25
259.009	-0.12
259.389	0.5
259.77	0.44
260.15	0.58
260.531	0.64
260.911	0.62
261.292	0.31
261.672	0.46
262.052	0.46
262.432	0.6
262.813	0.22
263.193	-0.28
263.573	0.27
263.953	0.35
264.333	0.66
264.713	1.1
265.093	-0.26
265.473	0.69
265.853	0.05
266.233	0.54
266.612	0.45
266.992	0.7
267.372	0.04
267.752	0.81
268.131	0.57
268.511	0.83
268.89	0.39
269.27	0.34
269.649	0.41
270.029	-0.29
270.408	0.22
270.787	0.61
271.167	0.84
271.546	1.01
271.925	0.35
272.304	0.33
272.683	0.64
273.062	0.48
273.441	0.64
273.82	0.27
274.199	0.39
274.578	-0.17
274.957	0.32
275.336	0.28
275.715	0.86
276.093	0.3
276.472	0.31
276.851	-0
277.229	0.26
277.608	0.38
277.986	0.72
278.365	0.28
278.743	0.61
279.122	-0.04
279.5	0.51
279.878	0.42
280.257	0.29
280.635	-0.11
281.013	0.22
281.391	0.17
281.769	0.39
282.147	0.32
282.525	0.45
282.903	0.51
283.281	0.73
283.659	0.21
284.037	0.3
284.415	0.07
284.792	0.51
285.17	-0.07
285.548	1.35
285.925	0.69
286.303	0.78
286.68	0.68
287.058	0.42
287.435	0.27
287.813	0.57
288.19	0.49
288.567	0.36
288.945	0.22
289.322	0.68
289.699	0.49
290.076	0.35
290.453	0.14
290.83	0.27
291.207	0.38
291.584	0.42
291.961	0.46
292.338	0.76
292.715	0.38
293.092	0.69
293.469	0.19
293.845	0.45
294.222	0.43
294.599	0.23
294.975	0.2
295.352	0.35
295.728	0.56
296.105	0.32
296.481	0.37
296.858	0.54
297.234	0.6
297.61	0.79
297.986	0.26
298.363	0.38
298.739	0.27
299.115	0.62
299.491	0.36
299.867	0.31
300.243	0.4
300.619	0.63
300.995	0.59
301.371	0.97
301.746	0.8
302.122	0.64
302.498	0.35
302.874	0.87
303.249	0.35
303.625	0.44
304	0.84
304.376	0.22
304.751	0.27
305.127	-0.02
305.502	0.51
305.878	0.85
306.253	0.34
306.628	0.32
307.003	-0.06
307.378	0.46
307.754	0.66
308.129	0.11
308.504	0.55
308.879	0.44
309.254	0.41
309.629	0.44
310.003	0.76
310.378	0.64
310.753	0.75
311.128	0.58
311.502	-0.06
311.877	0.45
312.252	0.35
312.626	0.11
313.001	0.52
313.375	0.54
313.75	0.41
314.124	0.53
314.498	0.64
314.873	0.56
315.247	0.48
315.621	0.53
315.995	0.71
316.369	0.47
316.743	1.02
317.117	0.91
317.491	0.54
317.865	0.08
318.239	0.11
318.613	0.67
318.987	0.36
319.361	0.24
319.734	0.65
320.108	0.2
320.482	-0.04
320.855	0.51
321.229	0.32
321.602	0.46
321.976	0.83
322.349	0.96
322.723	0.6
323.096	0.7
323.469	0.14
323.843	0.74
324.216	1.09
324.589	0.5
324.962	1.19
325.335	0.24
325.708	0.13
326.081	0.44
326.454	0.19
326.827	0.61
327.2	0.63
327.573	0
327.945	0.63
328.318	0.21
328.691	0.94
329.063	0.35
329.436	0.69
329.809	0.63
330.181	0.64
330.553	0.56
330.926	0.69
331.298	0.93
331.671	0.27
332.043	0.7
332.415	0.65
332.787	0.17
333.159	0.43
333.532	0.11
333.904	0.85
334.276	0.72
334.648	1.16
335.02	0.05
335.391	0.62
335.763	0.56
336.135	0.64
336.507	0.76
336.879	0.53
337.25	0.88
337.622	0.45
337.993	0.39
338.365	0.07
338.736	0.72
339.108	1.1
339.479	0.8
339.851	0.31
340.222	0.49
340.593	0.58
340.964	0.75
341.336	0.2
341.707	-0.13
342.078	0.44
342.449	0.5
342.82	0.74
343.191	0.4
343.562	1.02
343.933	0.87
344.303	0.63
344.674	0.78
345.045	0.2
345.416	0.12
345.786	0.47
346.157	0.57
346.527	0.51
346.898	1.15
347.268	0.35
347.639	0.67
348.009	0.64
348.38	0.19
348.75	0.15
349.12	0.11
349.49	0.57
349.861	0.32
350.231	0.88
350.601	0.47
350.971	-0.04
351.341	0.39
351.711	0.27
352.081	0.68
352.45	0.81
352.82	0.92
353.19	0.77
353.56	0.8
353.929	0.44
354.299	0.87
354.669	0.34
355.038	0.55
355.408	-0.01
355.777	0.8
356.147	0.25
356.516	0.22
356.885	0.46
357.254	0.37
357.624	0.57
357.993	0.53
358.362	0.26
358.731	0.71
359.1	0.55
359.469	0.49
359.838	0.56
360.207	0.52
360.576	0.32
360.945	0.86
361.314	0.7
361.682	0.19
362.051	0.83
362.42	0.98
362.788	0.44
363.157	0.61
363.525	0.54
363.894	0.68
364.262	0.63
364.631	0.64
364.999	0.64
365.367	0.37
365.735	0.87
366.104	0.8
366.472	0.63
366.84	-0.02
367.208	0.75
367.576	0.49
367.944	0.51
368.312	0.86
368.68	0.32
369.048	0.43
369.416	0.59
369.783	0.27
370.151	0.44
370.519	1.02
370.886	0.38
371.254	0.44
371.621	0.43
371.989	0.51
372.356	0.49
372.724	0.72
373.091	0.49
373.458	0.54
373.826	0.88
374.193	0.52
374.56	0.22
374.927	0.72
375.294	0.19
375.661	0.77
376.028	0.39
376.395	0.74
376.762	0.78
377.129	0.6
377.496	0.84
377.863	0.7
378.229	0.63
378.596	0.19
378.963	0.71
379.329	0.59
379.696	0.66
380.062	0.81
380.429	0.31
380.795	0.56
381.161	0.59
381.528	0.67
381.894	0.43
382.26	0.66
382.626	0.55
382.993	0.55
383.359	0.64
383.725	0.59
384.091	0.69
384.457	0.68
384.823	0.56
385.188	0.68
385.554	0.59
385.92	0.39
386.286	0.66
386.651	0.54
387.017	0.37
387.383	0.46
387.748	0.46
388.114	0.55
388.479	0.97
388.845	0.76
389.21	0.93
389.575	0.72
389.94	0.72
390.306	0.56
390.671	0.47
391.036	0.58
391.401	0.76
391.766	0.46
392.131	0.61
392.496	0.63
392.861	0.7
393.226	0.48
393.591	0.85
393.956	0.78
394.32	0.55
394.685	0.65
395.05	0.75
395.414	0.65
395.779	0.63
396.143	0.61
396.508	0.71
396.872	0.67
397.236	0.71
397.601	0.54
397.965	0.52
398.329	0.66
398.694	0.62
399.058	0.83
399.422	0.58
399.786	0.5
400.15	0.47
400.514	0.66
400.878	0.59
401.242	0.81
401.605	0.34
401.969	0.77
402.333	0.95
402.697	0.64
403.06	0.74
403.424	0.59
403.787	0.68
404.151	0.68
404.514	0.71
404.878	0.65
405.241	0.66
405.604	0.92
405.968	0.57
406.331	0.61
406.694	0.7
407.057	0.55
407.42	0.56
407.783	0.56
408.146	0.65
408.509	0.76
408.872	0.65
409.235	0.75
409.598	0.89
409.961	0.89
410.323	0.77
410.686	0.56
411.049	0.73
411.411	0.28
411.774	0.74
412.136	0.7
412.499	0.66
412.861	0.81
413.223	0.78
413.586	0.63
413.948	0.74
414.31	0.57
414.672	0.76
415.035	0.82
415.397	0.73
415.759	0.92
416.121	0.52
416.483	0.63
416.845	0.77
417.206	0.65
417.568	0.73
417.93	0.63
418.292	0.68
418.653	0.82
419.015	0.57
419.377	0.55
419.738	0.54
420.1	0.74
420.461	0.67
420.822	0.71
421.184	0.77
421.545	0.63
421.906	0.67
422.267	0.64
422.629	0.76
422.99	0.61
423.351	0.49
423.712	0.67
424.073	0.69
424.434	0.66
424.795	0.72
425.155	0.72
425.516	0.77
425.877	0.62
426.238	0.64
426.598	0.66
426.959	0.65
427.32	0.64
427.68	0.65
428.041	0.55
428.401	0.83
428.761	0.82
429.122	0.62
429.482	0.74
429.842	0.5
430.202	0.53
430.563	0.72
430.923	0.82
431.283	0.6
431.643	0.7
432.003	0.89
432.363	0.66
432.722	0.77
433.082	0.69
433.442	0.54
433.802	0.63
434.161	0.75
434.521	0.63
434.881	0.76
435.24	0.6
435.6	0.67
435.959	0.64
436.319	0.67
436.678	0.72
437.037	0.68
437.396	0.87
437.756	0.74
438.115	0.52
438.474	0.73
438.833	0.75
439.192	0.58
439.551	0.76
439.91	0.84
440.269	0.57
440.628	0.79
440.987	0.79
441.345	0.7
441.704	0.7
442.063	0.58
442.421	0.71
442.78	0.75
443.138	0.82
443.497	0.76
443.855	0.58
444.214	0.72
444.572	0.65
444.93	0.6
445.288	0.7
445.647	0.66
446.005	0.7
446.363	0.7
446.721	0.67
447.079	0.73
447.437	0.6
447.795	0.67
448.153	0.63
448.51	0.74
448.868	0.64
449.226	0.68
449.584	0.76
449.941	0.64
450.299	0.7
450.656	0.64
451.014	0.73
451.371	0.78
451.729	0.8
452.086	0.63
452.443	0.66
452.801	0.83
453.158	0.76
453.515	0.64
453.872	0.66
454.229	0.77
454.586	0.74
454.943	0.87
455.3	0.67
455.657	0.63
456.014	0.62
456.371	0.67
456.727	0.82
457.084	0.71
457.441	0.55
457.797	0.65
458.154	0.68
458.51	0.64
458.867	0.57
459.223	0.76
459.58	0.96
459.936	0.59
460.292	0.59
460.648	0.71
461.005	0.7
461.361	0.73
461.717	0.72
462.073	0.81
462.429	0.79
462.785	0.77
463.141	0.77
463.496	0.76
463.852	0.73
464.208	0.77
464.564	0.54
464.919	0.88
465.275	0.83
465.631	0.77
465.986	0.68
466.342	0.7
466.697	0.72
467.052	0.57
467.408	0.71
467.763	0.8
468.118	0.8
468.473	0.73
468.829	0.61
469.184	0.61
469.539	0.62
469.894	0.86
470.249	0.76
470.603	0.86
470.958	0.54
471.313	0.72
471.668	0.6
472.023	0.68
472.377	0.77
472.732	0.68
473.086	0.73
473.441	0.74
473.795	0.76
474.15	0.75
474.504	0.83
474.859	0.7
475.213	0.69
475.567	0.73
475.921	0.64
476.275	0.75
476.63	0.74
476.984	0.67
477.338	0.87
477.692	0.72
478.045	0.71
478.399	0.57
478.753	0.79
479.107	0.66
479.461	0.8
479.814	0.86
480.168	0.83
480.521	0.62
480.875	0.77
481.228	0.76
481.582	0.77
481.935	0.74
482.289	0.63
482.642	0.76
482.995	0.81
483.348	0.63
483.701	0.72
484.055	0.73
484.408	0.72
484.761	0.75
485.114	0.68
485.466	0.71
485.819	0.71
486.172	0.69
486.525	0.74
486.878	0.76
487.23	0.77
487.583	0.72
487.936	0.77
488.288	0.69
488.641	0.71
488.993	0.7
489.345	0.68
489.698	0.72
490.05	0.74
490.402	0.72
490.754	0.79
491.107	0.76
491.459	0.74
491.811	0.7
492.163	0.8
492.515	0.81
492.866	0.65
493.218	0.73
493.57	0.73
493.922	0.79
494.274	0.71
494.625	0.74
494.977	0.76
495.328	0.77
495.68	0.65
496.031	0.66
496.383	0.8
496.734	0.68
497.086	0.94
497.437	0.89
497.788	0.87
498.139	0.66
498.49	0.75
498.842	0.85
499.193	0.72
499.544	0.79
499.894	0.82
500.245	0.86
500.596	0.72
500.947	0.71
501.298	0.76
501.648	0.82
501.999	0.96
502.35	0.79
502.7	0.67
503.051	0.83
503.401	0.85
503.752	0.93
504.102	0.76
504.452	0.8
504.803	0.84
505.153	0.79
505.503	0.84
505.853	0.8
506.203	0.79
506.553	0.92
506.903	0.77
507.253	0.9
507.603	0.72
507.953	0.9
508.303	0.89
508.652	0.7
509.002	0.9
509.352	0.83
509.701	0.76
510.051	0.76
510.4	0.78
510.75	0.82
511.099	0.84
511.449	0.7
511.798	0.8
512.147	0.76
512.496	0.72
512.846	0.74
513.195	0.85
513.544	0.75
513.893	0.87
514.242	0.81
514.591	0.62
514.939	0.87
515.288	0.72
515.637	0.79
515.986	0.79
516.334	0.81
516.683	0.79
517.032	0.85
517.38	0.81
517.729	0.92
518.077	0.81
518.426	0.74
518.774	0.84
519.122	0.77
519.47	0.84
519.819	0.74
520.167	0.78
520.515	0.72
520.863	0.75
521.211	0.76
521.559	0.77
521.907	0.76
522.255	0.79
522.602	0.91
522.95	0.75
523.298	0.9
523.645	0.86
523.993	0.81
524.341	0.81
524.688	0.85
525.036	0.86
525.383	0.82
525.73	0.83
526.078	0.93
526.425	0.78
526.772	0.7
527.119	0.74
527.466	0.81
527.814	0.74
528.161	0.73
528.508	0.81
528.854	0.77
529.201	0.72
529.548	0.8
529.895	0.76
530.242	0.73
530.588	0.73
530.935	0.74
531.282	0.77
531.628	0.74
531.975	0.82
532.321	0.86
532.667	0.79
533.014	0.78
533.36	0.73
533.706	0.79
534.052	0.75
534.399	0.73
534.745	0.81
535.091	0.7
535.437	0.76
535.783	0.75
536.129	0.86
536.474	0.89
536.82	0.78
537.166	0.78
537.512	0.77
537.857	0.79
538.203	0.68
538.549	0.73
538.894	0.89
539.239	0.86
539.585	0.74
539.93	0.7
540.276	0.8
540.621	0.75
540.966	0.95
541.311	0.72
541.656	0.84
542.001	0.76
542.346	0.75
542.691	0.77
543.036	0.7
543.381	0.79
543.726	0.8
544.071	0.77
544.415	0.82
544.76	0.8
545.105	0.82
545.449	0.82
545.794	0.8
546.138	0.74
546.483	0.87
546.827	0.85
547.171	0.8
547.516	0.84
547.86	0.82
548.204	0.79
548.548	0.81
548.892	0.79
549.236	0.78
549.58	0.84
549.924	0.83
550.268	0.86
550.612	0.68
550.956	0.89
551.3	0.91
551.643	0.82
551.987	0.64
552.33	0.88
552.674	0.82
553.017	0.95
553.361	0.94
553.704	0.76
554.048	0.75
554.391	0.64
554.734	0.84
555.077	0.75
555.42	0.88
555.764	1.02
556.107	0.83
556.45	0.91
556.793	0.88
557.135	0.77
557.478	0.74
557.821	0.85
558.164	0.86
558.507	0.65
558.849	1
559.192	0.84
559.534	0.68
559.877	0.81
560.219	0.8
560.562	0.87
560.904	0.89
561.246	0.75
561.589	0.91
561.931	0.82
562.273	0.76
562.615	0.81
562.957	0.89
563.299	0.78
563.641	0.76
563.983	0.79
564.325	0.84
564.667	0.66
565.008	0.72
565.35	0.83
565.692	1.04
566.033	0.88
566.375	0.87
566.716	0.73
567.058	0.88
567.399	0.84
567.741	0.94
568.082	0.84
568.423	0.68
568.764	0.86
569.105	0.84
569.447	0.97
569.788	0.86
570.129	0.83
570.47	0.85
570.811	0.97
571.151	0.75
571.492	0.92
571.833	0.87
572.174	0.95
572.514	0.75
572.855	0.75
573.195	0.81
573.536	0.86
573.876	0.86
574.217	0.82
574.557	0.77
574.898	0.82
575.238	0.73
575.578	0.95
575.918	0.84
576.258	0.89
576.598	0.95
576.938	1.04
577.278	0.9
577.618	0.79
577.958	0.83
578.298	0.84
578.638	0.87
578.977	0.85
579.317	0.85
579.657	0.89
579.996	0.84
580.336	0.76
580.675	0.83
581.014	0.94
581.354	0.78
581.693	1.02
582.032	0.83
582.372	0.93
582.711	0.84
583.05	0.93
583.389	0.58
583.728	0.96
584.067	1.06
584.406	0.83
584.745	1.06
585.083	0.7
585.422	0.98
585.761	0.89
586.1	0.55
586.438	0.78
586.777	1
587.115	0.93
587.454	0.99
587.792	1.06
588.13	1.09
588.469	1.01
588.807	1.1
589.145	0.94
589.483	0.58
589.821	0.92
590.159	0.82
590.497	0.89
590.835	0.74
591.173	0.65
591.511	1.02
591.849	0.99
592.187	0.89
592.524	0.88
592.862	0.99
593.2	0.97
593.537	1
593.875	0.86
594.212	0.93
594.55	0.76
594.887	0.96
595.224	1.05
595.561	0.64
595.899	0.99
596.236	0.94
596.573	0.92
596.91	0.87
597.247	1.01
597.584	0.49
597.921	0.97
598.258	0.77
598.594	0.57
598.931	0.96
599.268	1.1
599.604	0.84
599.941	0.9
600.277	0.87
600.614	1.07
600.95	0.89
601.287	0.73
601.623	0.88
601.959	1.08
602.296	0.79
602.632	0.84
602.968	0.94
603.304	0.95
603.64	0.91
603.976	0.74
604.312	0.77
604.648	0.77
604.984	0.96
605.319	0.9
605.655	0.8
605.991	1.02
606.326	0.92
606.662	0.91
606.998	0.79
607.333	0.72
607.668	1.11
608.004	0.9
608.339	0.98
608.674	1.14
609.01	0.98
609.345	0.75
609.68	0.73
610.015	0.78
610.35	0.72
610.685	1.06
611.02	1.04
611.355	0.85
611.689	1.02
612.024	0.72
612.359	0.61
612.694	0.86
613.028	1.03
613.363	1.14
613.697	0.77
614.032	0.84
614.366	0.83
614.7	0.8
615.035	0.86
615.369	0.9
615.703	1.24
616.037	0.82
616.371	1.04
616.705	0.83
617.039	1.15
617.373	0.9
617.707	1.29
618.041	0.99
618.375	0.89
618.709	0.96
619.042	1.3
619.376	0.73
619.71	1.12
620.043	1.3
620.377	1.23
620.71	1.07
621.043	1.05
621.377	0.88
621.71	0.9
622.043	1.05
622.376	1.11
622.709	1.18
623.043	1.05
623.376	1.57
623.709	0.7
624.041	0.96
624.374	0.64
624.707	0.8
625.04	1.01
625.373	0.79
625.705	0.83
626.038	0.84
626.37	1.07
626.703	1.1
627.035	0.79
627.368	0.87
627.7	0.91
628.032	0.99
628.365	1.19
628.697	0.83
629.029	1.01
629.361	0.74
629.693	0.97
630.025	1.29
630.357	0.68
630.689	0.75
631.021	0.82
631.353	0.65
631.684	0.84
632.016	0.98
632.348	0.77
632.679	0.74
633.011	0.73
633.342	1.15
633.674	0.96
634.005	1.05
634.336	1.11
634.668	0.98
634.999	1.3
635.33	0.63
635.661	0.8
635.992	1.12
636.323	0.86
636.654	0.81
636.985	0.75
637.316	0.98
637.647	1.05
637.977	1.15
638.308	1.23
638.639	1.2
638.969	0.57
639.3	0.93
639.63	0.93
639.961	1.06
640.291	1.25
640.622	1.13
640.952	0.81
641.282	0.79
641.612	0.91
641.943	0.8
642.273	0.86
642.603	0.81
642.933	0.43
643.263	0.47
643.592	0.51
643.922	1.35
644.252	0.95
644.582	0.84
644.911	0.67
645.241	0.74
645.571	0.69
645.9	1.17
646.23	0.79
646.559	1.25
646.888	0.67
647.218	0.92
647.547	0.61
647.876	0.71
648.205	0.46
648.534	1.86
648.863	1.11
649.192	0.73
649.521	0.82
649.85	1.43
650.179	0.94
650.508	0.82
650.837	1.06
651.165	0.95
651.494	0.78
651.822	1.24
652.151	1.09
652.479	0.68
652.808	0.8
653.136	1.33
653.465	1.24
653.793	1.48
654.121	1.14
654.449	0.91
654.777	0.89
655.105	1.13
655.433	1.17
655.761	1.08
656.089	0.25
656.417	0.9
656.745	0.7
657.073	0.94
657.4	1.09
657.728	0.77
658.056	0.65
658.383	0.73
658.711	0.98
659.038	0.75
659.365	1.58
659.693	1.37
660.02	1.24
660.347	1.09
660.674	1.06
661.001	1
661.329	1.08
661.656	0.94
661.982	0.66
662.309	1.02
662.636	0.82
662.963	0.44
663.29	0.65
663.616	1.13
663.943	0.89
664.27	1.2
664.596	0.81
664.923	1.26
665.249	1.19
665.576	1.01
665.902	0.51
666.228	0.62
666.554	1.52
666.881	0.79
667.207	1.06
667.533	0.87
667.859	0.94
668.185	1.28
668.511	1.18
668.837	0.84
669.162	0.94
669.488	0.73
669.814	0.86
670.139	0.87
670.465	1.29
670.791	1.41
671.116	0.81
671.442	1.06
671.767	0.83
672.092	0.91
672.418	1.16
672.743	1.65
673.068	1.07
673.393	1.56
673.718	1.01
674.043	1.4
674.368	0.73
674.693	0.59
675.018	0.88
675.343	0.82
675.667	1.21
675.992	1.13
676.317	0.66
676.641	1.17
676.966	0.84
677.29	1.28
677.615	1.1
677.939	1.04
678.264	0.97
678.588	0.83
678.912	1.84
679.236	1.72
679.56	1.01
679.885	0.84
680.209	1.45
680.532	1.12
680.856	1.12
681.18	0.79
681.504	0.79
681.828	0.91
682.152	1.56
682.475	1.01
682.799	1.32
683.122	1.18
683.446	1.16
683.769	0.8
684.093	1.2
684.416	0.07
684.739	1.54
685.062	1.55
685.386	0.94
685.709	1.47
686.032	1.35
686.355	2.55
686.678	1.77
687.001	1.36
687.324	1.32
687.646	2.23
687.969	1.63
688.292	1.58
688.614	1.3
688.937	0.83
689.26	0.27
689.582	1.33
689.904	0.93
690.227	1.74
690.549	0.9
690.871	0.71
691.194	2.26
