Data from 0038_chest_Reflection__2__32.txt Node

Date: Fri Nov 04 14:55:55 CDT 2022
User: ToomeyLab
Spectrometer: FLMS14357
Trigger mode: 0
Integration Time (sec): 1.000000E-2
Scans to average: 100
Electric dark correction enabled: true
Nonlinearity correction enabled: false
Boxcar width: 0
XAxis mode: Wavelengths
Number of Pixels in Spectrum: 2048
>>>>>Begin Spectral Data<<<<<
189.047	-17.01
189.435	-17.01
189.823	-17.01
190.211	-63.52
190.599	276.39
190.987	41.83
191.375	217.47
191.763	59.14
192.151	47.4
192.538	101.56
192.926	-51.96
193.314	35.88
193.702	-497.08
194.089	181.52
194.477	148.95
194.864	-15.01
195.252	104.09
195.639	-60.63
196.027	1664.1
196.414	-269.32
196.801	95.2
197.189	40.73
197.576	33.8
197.963	812.9
198.351	-25.83
198.738	23.3
199.125	21.65
199.512	-20.34
199.899	-0.67
200.286	-19.72
200.673	7.62
201.06	-5.97
201.447	-30.94
201.833	13.7
202.22	-2.04
202.607	4.01
202.994	19.22
203.38	23.85
203.767	-11.9
204.154	24.63
204.54	-18.57
204.927	10.12
205.313	43.69
205.699	36.35
206.086	-2.83
206.472	11.07
206.858	6.76
207.245	26.66
207.631	1.47
208.017	11.46
208.403	14.59
208.789	21.17
209.175	3.54
209.561	-27.64
209.947	-34.22
210.333	12.52
210.719	-2.63
211.105	-6.15
211.491	26.01
211.876	19.46
212.262	-2.15
212.648	-4.66
213.034	19.07
213.419	1.64
213.805	-21.38
214.19	-11.48
214.576	4.88
214.961	1.51
215.346	-13.6
215.732	18.78
216.117	-4.24
216.502	45.08
216.888	6.54
217.273	-2.28
217.658	-0.39
218.043	7.03
218.428	11.2
218.813	-3.51
219.198	11.79
219.583	-8.34
219.968	16.82
220.353	-14.34
220.738	4.23
221.122	3.08
221.507	7.34
221.892	-10.59
222.276	10.22
222.661	8.58
223.046	4.26
223.43	4.84
223.815	-6.38
224.199	13.54
224.583	0.63
224.968	-3.77
225.352	7.07
225.736	0.35
226.121	0.56
226.505	5.6
226.889	3.6
227.273	2.98
227.657	3.36
228.041	6.26
228.425	6.59
228.809	6.64
229.193	2.23
229.577	2.11
229.961	4.93
230.344	4.54
230.728	3.99
231.112	3.07
231.495	4.16
231.879	4.67
232.263	3.69
232.646	3.88
233.03	3.19
233.413	3.87
233.797	1.96
234.18	2.22
234.563	2.71
234.946	3.55
235.33	4.54
235.713	4.05
236.096	5.32
236.479	4.06
236.862	3.86
237.245	4.2
237.628	4.06
238.011	1.24
238.394	4.98
238.777	2.87
239.16	4.49
239.543	3.04
239.925	2.92
240.308	4.97
240.691	3.63
241.073	3.64
241.456	3.53
241.838	3.45
242.221	3.42
242.603	4.33
242.986	3.68
243.368	4.05
243.75	4.22
244.133	3.74
244.515	3.97
244.897	3.98
245.279	3.71
245.661	4.59
246.043	4.66
246.425	3.25
246.807	4.49
247.189	4.24
247.571	4.05
247.953	3.85
248.335	4.03
248.717	3.68
249.098	3.74
249.48	3.75
249.862	3.94
250.243	3.96
250.625	3.21
251.006	3.43
251.388	4.11
251.769	4.6
252.151	4.38
252.532	3.17
252.913	3.52
253.295	3.26
253.676	3.64
254.057	3.6
254.438	3.59
254.819	3.65
255.2	3.11
255.581	4.02
255.962	3.51
256.343	3.66
256.724	4.71
257.105	3.61
257.486	4.54
257.867	5.07
258.247	4.27
258.628	3.23
259.009	3.45
259.389	3.62
259.77	4.05
260.15	3.95
260.531	3.88
260.911	3.51
261.292	3.37
261.672	3.3
262.052	3.61
262.432	3.54
262.813	3.04
263.193	2.53
263.573	3.01
263.953	3.28
264.333	3.29
264.713	3.54
265.093	3.95
265.473	3.73
265.853	2.9
266.233	3.57
266.612	3.44
266.992	3.59
267.372	2.66
267.752	2.93
268.131	3.66
268.511	3.35
268.89	3.61
269.27	3.27
269.649	3.27
270.029	2.96
270.408	3.13
270.787	3.9
271.167	3.32
271.546	3.99
271.925	3.6
272.304	2.89
272.683	2.9
273.062	3.25
273.441	3.55
273.82	3.19
274.199	3.16
274.578	3.07
274.957	3.4
275.336	3.38
275.715	2.95
276.093	3.35
276.472	3.07
276.851	3.1
277.229	3.6
277.608	3.34
277.986	3.64
278.365	3.19
278.743	3.58
279.122	3.34
279.5	2.84
279.878	3.41
280.257	3.43
280.635	2.68
281.013	3.27
281.391	3.54
281.769	3.12
282.147	2.97
282.525	3.33
282.903	3.22
283.281	3.69
283.659	3.22
284.037	2.82
284.415	3.04
284.792	3.61
285.17	2.93
285.548	3.55
285.925	2.9
286.303	3.27
286.68	3.62
287.058	3.35
287.435	3.16
287.813	2.97
288.19	3.06
288.567	2.74
288.945	3.21
289.322	3.34
289.699	3.44
290.076	3.56
290.453	2.9
290.83	2.84
291.207	2.81
291.584	3.19
291.961	3.19
292.338	3.33
292.715	3.2
293.092	2.88
293.469	3.29
293.845	3.04
294.222	2.97
294.599	3.07
294.975	3.34
295.352	3.14
295.728	3.09
296.105	2.87
296.481	2.91
296.858	3.22
297.234	3.41
297.61	3.52
297.986	2.85
298.363	2.47
298.739	3.06
299.115	3.27
299.491	2.98
299.867	2.94
300.243	2.93
300.619	3.29
300.995	3.43
301.371	3.88
301.746	2.97
302.122	3.07
302.498	2.78
302.874	3.01
303.249	2.78
303.625	2.82
304	3.4
304.376	2.89
304.751	3.03
305.127	2.19
305.502	3.42
305.878	3.06
306.253	3.04
306.628	2.91
307.003	2.88
307.378	3.04
307.754	3.23
308.129	2.61
308.504	3.27
308.879	2.99
309.254	3.14
309.629	3.25
310.003	3.22
310.378	2.81
310.753	3.31
311.128	3.01
311.502	2.78
311.877	3.1
312.252	2.7
312.626	2.97
313.001	2.97
313.375	3.03
313.75	3.09
314.124	3.26
314.498	2.97
314.873	3.07
315.247	2.55
315.621	3.78
315.995	3.34
316.369	3.12
316.743	3.5
317.117	3.27
317.491	3.7
317.865	2.6
318.239	2.86
318.613	3.88
318.987	3.02
319.361	2.87
319.734	3.29
320.108	2.65
320.482	2.52
320.855	3.36
321.229	3.19
321.602	2.98
321.976	2.92
322.349	3.43
322.723	3.56
323.096	2.8
323.469	2.53
323.843	2.98
324.216	3.28
324.589	3.31
324.962	3.06
325.335	2.67
325.708	2.75
326.081	3.23
326.454	2.71
326.827	2.87
327.2	2.88
327.573	2.87
327.945	3.18
328.318	3.06
328.691	2.8
329.063	2.85
329.436	2.84
329.809	2.86
330.181	2.96
330.553	2.98
330.926	3.14
331.298	3.41
331.671	2.92
332.043	2.92
332.415	2.84
332.787	2.56
333.159	2.44
333.532	2.49
333.904	3.38
334.276	2.9
334.648	3.26
335.02	2.6
335.391	2.86
335.763	3.18
336.135	2.61
336.507	2.96
336.879	3.11
337.25	3.32
337.622	3.01
337.993	2.75
338.365	2.69
338.736	3.24
339.108	3.47
339.479	3.13
339.851	2.62
340.222	3.05
340.593	3.23
340.964	3.19
341.336	2.6
341.707	2.66
342.078	3.23
342.449	3.17
342.82	2.92
343.191	3.01
343.562	2.77
343.933	3.26
344.303	3.36
344.674	3.08
345.045	2.85
345.416	2.85
345.786	3.06
346.157	3.26
346.527	2.98
346.898	3.35
347.268	2.92
347.639	3.02
348.009	3.23
348.38	2.92
348.75	2.89
349.12	2.8
349.49	3.38
349.861	3.11
350.231	3.47
350.601	2.97
350.971	2.84
351.341	3.34
351.711	3.26
352.081	3.25
352.45	2.98
352.82	3.07
353.19	2.78
353.56	3.49
353.929	3.09
354.299	3.4
354.669	2.96
355.038	3.42
355.408	3.23
355.777	2.71
356.147	3.05
356.516	2.89
356.885	2.99
357.254	3.23
357.624	3.27
357.993	2.78
358.362	2.73
358.731	3
359.1	3.04
359.469	3.06
359.838	3
360.207	3.06
360.576	3.07
360.945	3.24
361.314	3.21
361.682	3.15
362.051	3.26
362.42	3.28
362.788	3.17
363.157	3.12
363.525	3.08
363.894	3.09
364.262	3.11
364.631	3.09
364.999	3.32
365.367	3.18
365.735	3.2
366.104	3.36
366.472	3.18
366.84	2.8
367.208	3.42
367.576	3.01
367.944	3.3
368.312	3.14
368.68	3.04
369.048	2.99
369.416	3.27
369.783	2.83
370.151	2.78
370.519	3.36
370.886	2.73
371.254	3.08
371.621	3.34
371.989	3.23
372.356	3.31
372.724	3.4
373.091	3.19
373.458	3.25
373.826	3.18
374.193	3.31
374.56	2.96
374.927	3.18
375.294	2.59
375.661	3.25
376.028	3.04
376.395	3.21
376.762	3.35
377.129	3.25
377.496	3.14
377.863	3.18
378.229	3.1
378.596	3.1
378.963	3.29
379.329	3.02
379.696	3.11
380.062	3.5
380.429	3.25
380.795	3.24
381.161	3.12
381.528	3.48
381.894	3.1
382.26	3.48
382.626	2.97
382.993	3.44
383.359	3.49
383.725	3.11
384.091	3.25
384.457	3.42
384.823	3.48
385.188	3.21
385.554	3.34
385.92	2.92
386.286	3.19
386.651	3.26
387.017	3.13
387.383	3.13
387.748	3.11
388.114	3.14
388.479	3.79
388.845	3.12
389.21	3.4
389.575	3.42
389.94	3.28
390.306	3.21
390.671	3.17
391.036	3.17
391.401	3.46
391.766	3.06
392.131	3.15
392.496	3.2
392.861	3.18
393.226	3.1
393.591	3.29
393.956	3.38
394.32	3.15
394.685	3.45
395.05	3.47
395.414	3.29
395.779	3.31
396.143	3.31
396.508	3.43
396.872	3.31
397.236	3.52
397.601	3.33
397.965	3.29
398.329	3.2
398.694	3.35
399.058	3.29
399.422	3.46
399.786	2.92
400.15	3.23
400.514	3.21
400.878	3.28
401.242	3.5
401.605	3.19
401.969	3.53
402.333	3.51
402.697	3.15
403.06	3.54
403.424	3.56
403.787	3.31
404.151	3.24
404.514	3.42
404.878	3.39
405.241	3.38
405.604	3.36
405.968	3.28
406.331	3.34
406.694	3.28
407.057	3.52
407.42	3.24
407.783	3.23
408.146	3.4
408.509	3.48
408.872	3.43
409.235	3.41
409.598	3.38
409.961	3.42
410.323	3.35
410.686	3.32
411.049	3.57
411.411	2.99
411.774	3.47
412.136	3.57
412.499	3.47
412.861	3.46
413.223	3.29
413.586	3.13
413.948	3.31
414.31	3.51
414.672	3.39
415.035	3.42
415.397	3.52
415.759	3.41
416.121	3.25
416.483	3.33
416.845	3.33
417.206	3.18
417.568	3.36
417.93	3.27
418.292	3.44
418.653	3.31
419.015	3.18
419.377	3.28
419.738	3.37
420.1	3.41
420.461	3.34
420.822	3.17
421.184	3.33
421.545	3.38
421.906	3.31
422.267	3.3
422.629	3.37
422.99	3.25
423.351	3.19
423.712	3.29
424.073	3.34
424.434	3.22
424.795	3.35
425.155	3.46
425.516	3.36
425.877	3.26
426.238	3.27
426.598	3.38
426.959	3.27
427.32	3.31
427.68	3.37
428.041	3.37
428.401	3.38
428.761	3.45
429.122	3.4
429.482	3.53
429.842	3.26
430.202	3.52
430.563	3.4
430.923	3.5
431.283	3.41
431.643	3.43
432.003	3.65
432.363	3.51
432.722	3.42
433.082	3.33
433.442	3.38
433.802	3.35
434.161	3.29
434.521	3.42
434.881	3.56
435.24	3.3
435.6	3.54
435.959	3.22
436.319	3.35
436.678	3.5
437.037	3.47
437.396	3.5
437.756	3.46
438.115	3.38
438.474	3.41
438.833	3.61
439.192	3.39
439.551	3.33
439.91	3.53
440.269	3.39
440.628	3.48
440.987	3.42
441.345	3.5
441.704	3.37
442.063	3.37
442.421	3.32
442.78	3.44
443.138	3.4
443.497	3.43
443.855	3.27
444.214	3.43
444.572	3.38
444.93	3.38
445.288	3.5
445.647	3.33
446.005	3.34
446.363	3.27
446.721	3.27
447.079	3.35
447.437	3.25
447.795	3.36
448.153	3.32
448.51	3.33
448.868	3.37
449.226	3.37
449.584	3.44
449.941	3.3
450.299	3.4
450.656	3.4
451.014	3.47
451.371	3.62
451.729	3.5
452.086	3.53
452.443	3.38
452.801	3.47
453.158	3.57
453.515	3.63
453.872	3.38
454.229	3.49
454.586	3.38
454.943	3.53
455.3	3.44
455.657	3.47
456.014	3.36
456.371	3.59
456.727	3.59
457.084	3.44
457.441	3.55
457.797	3.66
458.154	3.54
458.51	3.44
458.867	3.45
459.223	3.73
459.58	3.63
459.936	3.43
460.292	3.37
460.648	3.48
461.005	3.29
461.361	3.4
461.717	3.46
462.073	3.46
462.429	3.57
462.785	3.44
463.141	3.52
463.496	3.32
463.852	3.51
464.208	3.36
464.564	3.38
464.919	3.64
465.275	3.61
465.631	3.54
465.986	3.48
466.342	3.54
466.697	3.51
467.052	3.44
467.408	3.45
467.763	3.53
468.118	3.54
468.473	3.51
468.829	3.42
469.184	3.48
469.539	3.53
469.894	3.75
470.249	3.36
470.603	3.54
470.958	3.31
471.313	3.4
471.668	3.37
472.023	3.36
472.377	3.49
472.732	3.46
473.086	3.46
473.441	3.57
473.795	3.42
474.15	3.51
474.504	3.59
474.859	3.55
475.213	3.59
475.567	3.41
475.921	3.46
476.275	3.52
476.63	3.47
476.984	3.46
477.338	3.54
477.692	3.54
478.045	3.52
478.399	3.51
478.753	3.56
479.107	3.48
479.461	3.58
479.814	3.75
480.168	3.67
480.521	3.44
480.875	3.49
481.228	3.52
481.582	3.45
481.935	3.47
482.289	3.49
482.642	3.5
482.995	3.51
483.348	3.42
483.701	3.52
484.055	3.5
484.408	3.52
484.761	3.38
485.114	3.36
485.466	3.26
485.819	3.25
486.172	3.29
486.525	3.32
486.878	3.41
487.23	3.4
487.583	3.43
487.936	3.37
488.288	3.42
488.641	3.33
488.993	3.34
489.345	3.35
489.698	3.32
490.05	3.34
490.402	3.34
490.754	3.37
491.107	3.41
491.459	3.48
491.811	3.4
492.163	3.5
492.515	3.47
492.866	3.42
493.218	3.41
493.57	3.38
493.922	3.45
494.274	3.44
494.625	3.49
494.977	3.45
495.328	3.45
495.68	3.4
496.031	3.56
496.383	3.6
496.734	3.43
497.086	3.71
497.437	3.71
497.788	3.6
498.139	3.48
498.49	3.48
498.842	3.6
499.193	3.5
499.544	3.64
499.894	3.51
500.245	3.66
500.596	3.61
500.947	3.52
501.298	3.54
501.648	3.59
501.999	3.71
502.35	3.57
502.7	3.52
503.051	3.67
503.401	3.61
503.752	3.72
504.102	3.63
504.452	3.64
504.803	3.55
505.153	3.65
505.503	3.61
505.853	3.59
506.203	3.62
506.553	3.8
506.903	3.72
507.253	3.56
507.603	3.61
507.953	3.61
508.303	3.7
508.652	3.54
509.002	3.77
509.352	3.61
509.701	3.64
510.051	3.64
510.4	3.64
510.75	3.71
511.099	3.61
511.449	3.59
511.798	3.58
512.147	3.62
512.496	3.57
512.846	3.56
513.195	3.67
513.544	3.55
513.893	3.7
514.242	3.58
514.591	3.59
514.939	3.7
515.288	3.57
515.637	3.63
515.986	3.7
516.334	3.62
516.683	3.76
517.032	3.82
517.38	3.71
517.729	3.72
518.077	3.74
518.426	3.64
518.774	3.67
519.122	3.69
519.47	3.63
519.819	3.71
520.167	3.64
520.515	3.59
520.863	3.56
521.211	3.61
521.559	3.71
521.907	3.58
522.255	3.65
522.602	3.69
522.95	3.66
523.298	3.76
523.645	3.8
523.993	3.71
524.341	3.84
524.688	3.74
525.036	3.73
525.383	3.81
525.73	3.92
526.078	3.76
526.425	3.71
526.772	3.72
527.119	3.61
527.466	3.71
527.814	3.65
528.161	3.61
528.508	3.66
528.854	3.64
529.201	3.62
529.548	3.63
529.895	3.61
530.242	3.59
530.588	3.53
530.935	3.59
531.282	3.65
531.628	3.58
531.975	3.66
532.321	3.66
532.667	3.68
533.014	3.71
533.36	3.77
533.706	3.81
534.052	3.71
534.399	3.78
534.745	3.73
535.091	3.67
535.437	3.7
535.783	3.69
536.129	3.81
536.474	3.77
536.82	3.77
537.166	3.79
537.512	3.79
537.857	3.72
538.203	3.78
538.549	3.76
538.894	3.86
539.239	3.95
539.585	3.84
539.93	3.84
540.276	3.9
540.621	3.85
540.966	3.95
541.311	3.81
541.656	4.04
542.001	4.01
542.346	3.9
542.691	3.89
543.036	3.71
543.381	3.79
543.726	3.85
544.071	3.87
544.415	3.85
544.76	3.9
545.105	3.88
545.449	3.9
545.794	3.95
546.138	3.93
546.483	3.94
546.827	3.98
547.171	4.03
547.516	3.96
547.86	4
548.204	4.11
548.548	4.03
548.892	4.04
549.236	4.06
549.58	4.02
549.924	4.12
550.268	4.14
550.612	4.08
550.956	4.19
551.3	4.16
551.643	4.17
551.987	4.18
552.33	4.14
552.674	4.25
553.017	4.38
553.361	4.18
553.704	4.22
554.048	4.1
554.391	4.08
554.734	4.3
555.077	4.28
555.42	4.28
555.764	4.41
556.107	4.27
556.45	4.25
556.793	4.3
557.135	4.36
557.478	4.24
557.821	4.35
558.164	4.42
558.507	4.41
558.849	4.48
559.192	4.38
559.534	4.35
559.877	4.42
560.219	4.23
560.562	4.46
560.904	4.63
561.246	4.32
561.589	4.55
561.931	4.51
562.273	4.49
562.615	4.33
562.957	4.6
563.299	4.52
563.641	4.5
563.983	4.4
564.325	4.53
564.667	4.5
565.008	4.46
565.35	4.41
565.692	4.76
566.033	4.69
566.375	4.61
566.716	4.62
567.058	4.58
567.399	4.72
567.741	4.69
568.082	4.57
568.423	4.55
568.764	4.64
569.105	4.65
569.447	4.76
569.788	4.64
570.129	4.74
570.47	4.63
570.811	4.87
571.151	4.65
571.492	4.86
571.833	4.74
572.174	4.85
572.514	4.83
572.855	4.54
573.195	4.72
573.536	4.66
573.876	4.8
574.217	4.8
574.557	4.71
574.898	4.86
575.238	4.74
575.578	4.9
575.918	4.78
576.258	4.81
576.598	4.99
576.938	4.87
577.278	4.61
577.618	4.8
577.958	4.71
578.298	5.02
578.638	4.84
578.977	5.08
579.317	5.1
579.657	5.06
579.996	5.03
580.336	4.92
580.675	5.02
581.014	5.31
581.354	5.1
581.693	5.37
582.032	4.99
582.372	5.27
582.711	5.29
583.05	5.3
583.389	5.11
583.728	5.27
584.067	5.32
584.406	5.11
584.745	5.49
585.083	5.32
585.422	5.42
585.761	5.3
586.1	5.4
586.438	5.11
586.777	5.38
587.115	5.26
587.454	5.35
587.792	5.43
588.13	5.38
588.469	5.5
588.807	5.67
589.145	5.52
589.483	5.16
589.821	5.48
590.159	5.21
590.497	5.71
590.835	5.52
591.173	5.54
591.511	5.61
591.849	5.66
592.187	5.48
592.524	5.64
592.862	5.55
593.2	5.65
593.537	5.74
593.875	5.72
594.212	5.63
594.55	5.59
594.887	6
595.224	5.67
595.561	5.55
595.899	5.7
596.236	5.88
596.573	5.79
596.91	5.9
597.247	5.83
597.584	5.75
597.921	5.94
598.258	5.94
598.594	5.55
598.931	5.85
599.268	5.94
599.604	5.9
599.941	6
600.277	5.9
600.614	6.07
600.95	6.13
601.287	5.97
601.623	5.87
601.959	6.15
602.296	6.03
602.632	6.14
602.968	6.04
603.304	6.17
603.64	6.11
603.976	6.03
604.312	6.37
604.648	6.04
604.984	6.2
605.319	6.17
605.655	6.31
605.991	6.24
606.326	6.27
606.662	6.2
606.998	6.16
607.333	6.18
607.668	6.4
608.004	6.33
608.339	6.47
608.674	6.42
609.01	6.45
609.345	6.25
609.68	6.29
610.015	6.51
610.35	6.51
610.685	6.59
611.02	6.58
611.355	6.53
611.689	6.61
612.024	6.36
612.359	6.4
612.694	6.63
613.028	6.48
613.363	6.77
613.697	6.64
614.032	6.53
614.366	6.65
614.7	6.51
615.035	6.71
615.369	6.77
615.703	7.14
616.037	6.92
616.371	6.95
616.705	6.89
617.039	7.1
617.373	7.03
617.707	7.3
618.041	6.89
618.375	6.98
618.709	6.88
619.042	6.96
619.376	7.19
619.71	7.19
620.043	7.35
620.377	7.23
620.71	7.32
621.043	7.27
621.377	7.39
621.71	7.18
622.043	7.41
622.376	7.28
622.709	7.14
623.043	7.45
623.376	7.53
623.709	7.21
624.041	7.4
624.374	7.27
624.707	7.23
625.04	7.33
625.373	7.27
625.705	7.39
626.038	7.13
626.37	7.63
626.703	7.44
627.035	7.45
627.368	7.68
627.7	7.26
628.032	7.44
628.365	7.81
628.697	7.53
629.029	7.38
629.361	7.52
629.693	7.82
630.025	7.73
630.357	7.5
630.689	7.64
631.021	7.66
631.353	7.8
631.684	7.89
632.016	8.05
632.348	7.9
632.679	7.58
633.011	7.72
633.342	8.05
633.674	7.92
634.005	7.8
634.336	7.95
634.668	7.94
634.999	7.94
635.33	7.75
635.661	8.21
635.992	8.11
636.323	8.04
636.654	8.05
636.985	8.1
637.316	8.18
637.647	8.04
637.977	8.36
638.308	8.32
638.639	8.58
638.969	8.08
639.3	8.43
639.63	8.17
639.961	8.83
640.291	8.76
640.622	8.51
640.952	8.58
641.282	8.09
641.612	8.46
641.943	8.04
642.273	8.15
642.603	8.45
642.933	8.39
643.263	8.49
643.592	8.36
643.922	9.35
644.252	9.06
644.582	8.31
644.911	8.98
645.241	8.6
645.571	8.71
645.9	8.67
646.23	8.9
646.559	9.14
646.888	8.64
647.218	8.97
647.547	9.01
647.876	8.69
648.205	8.36
648.534	9.44
648.863	9.17
649.192	9.01
649.521	9.09
649.85	9.36
650.179	9.07
650.508	9.07
650.837	9.36
651.165	9.08
651.494	9.29
651.822	9.4
652.151	9.4
652.479	9.42
652.808	9.02
653.136	9.1
653.465	9.2
653.793	9.24
654.121	9.17
654.449	8.98
654.777	8.87
655.105	9.48
655.433	9.16
655.761	8.97
656.089	9.13
656.417	9.48
656.745	8.95
657.073	9.21
657.4	9.66
657.728	8.88
658.056	9.1
658.383	9.61
658.711	9.53
659.038	9.62
659.365	9.97
659.693	10.06
660.02	9.86
660.347	9.44
660.674	9.94
661.001	9.18
661.329	9.82
661.656	9.85
661.982	9.51
662.309	9.81
662.636	9.92
662.963	9.51
663.29	9.87
663.616	9.93
663.943	10.1
664.27	9.96
664.596	9.72
664.923	9.94
665.249	10.42
665.576	10.24
665.902	9.64
666.228	9.76
666.554	10.57
666.881	10.23
667.207	10.22
667.533	10
667.859	10.5
668.185	10.43
668.511	10.63
668.837	10.4
669.162	10.38
669.488	9.85
669.814	10.32
670.139	9.97
670.465	10.7
670.791	10.34
671.116	10.27
671.442	10.58
671.767	10.71
672.092	10.15
672.418	10.36
672.743	10.61
673.068	10.46
673.393	10.63
673.718	10.85
674.043	10.66
674.368	10.17
674.693	10.12
675.018	10.4
675.343	11.11
675.667	11.22
675.992	10.68
676.317	10.83
676.641	10.81
676.966	11.01
677.29	10.89
677.615	11.04
677.939	10.6
678.264	11.13
678.588	10.82
678.912	11.01
679.236	10.96
679.56	10.84
679.885	10.55
680.209	11.46
680.532	11.6
680.856	11.62
681.18	11.33
681.504	11.34
681.828	10.93
682.152	11.21
682.475	11.24
682.799	11.49
683.122	11.36
683.446	11.17
683.769	11.41
684.093	11.54
684.416	10.94
684.739	11.02
685.062	12.14
685.386	11.33
685.709	11.78
686.032	12.05
686.355	11.97
686.678	11.86
687.001	12.21
687.324	11.55
687.646	12.28
687.969	11.62
688.292	11.4
688.614	12.45
688.937	11.54
689.26	11.85
689.582	12.61
689.904	12.43
690.227	11.34
690.549	11.89
690.871	12.25
