Data from 0402_forehead_Reflection__3__226.txt Node

Date: Tue Dec 12 20:14:09 CST 2023
User: ToomeyLab
Spectrometer: FLMS14357
Trigger mode: 0
Integration Time (sec): 1.000000E-2
Scans to average: 100
Electric dark correction enabled: true
Nonlinearity correction enabled: false
Boxcar width: 0
XAxis mode: Wavelengths
Number of Pixels in Spectrum: 2048
>>>>>Begin Spectral Data<<<<<
189.047	-26.5
189.435	-26.5
189.823	-26.5
190.211	-326.32
190.599	533.98
190.987	205.66
191.375	-224.58
191.763	-2406.06
192.151	253.44
192.538	-202.05
192.926	44.12
193.314	-16.96
193.702	11.29
194.089	70.97
194.477	-293.76
194.864	550.8
195.252	-16.34
195.639	-54.59
196.027	57.52
196.414	111.11
196.801	559.81
197.189	-185.91
197.576	1579.59
197.963	79.08
198.351	-18.38
198.738	31.67
199.125	12.66
199.512	-28.86
199.899	41.4
200.286	-5.58
200.673	-43.76
201.06	10.6
201.447	-58.66
201.833	-12.6
202.22	-32.09
202.607	-238.8
202.994	29.94
203.38	29.66
203.767	17.86
204.154	29.97
204.54	22.39
204.927	69.86
205.313	20.27
205.699	15.1
206.086	5.66
206.472	34.56
206.858	24.85
207.245	-14.35
207.631	34.69
208.017	-4.56
208.403	-37.38
208.789	-17.19
209.175	22.16
209.561	4.29
209.947	-41.48
210.333	43.8
210.719	11.78
211.105	2.08
211.491	54.31
211.876	22.9
212.262	16.93
212.648	-65.12
213.034	-19.56
213.419	-15.97
213.805	-8.51
214.19	47.18
214.576	31.66
214.961	-3.27
215.346	-17.22
215.732	14.94
216.117	20.55
216.502	-3.04
216.888	-24.91
217.273	-17.97
217.658	-25.44
218.043	9.89
218.428	28.38
218.813	23.62
219.198	-13.86
219.583	33.72
219.968	23
220.353	-7.84
220.738	-11.49
221.122	12.5
221.507	3.53
221.892	10.29
222.276	-1.22
222.661	-8.15
223.046	-9.26
223.43	13.39
223.815	-4.26
224.199	18.38
224.583	6.44
224.968	3.22
225.352	2.33
225.736	7.27
226.121	5.94
226.505	9.6
226.889	-3.11
227.273	3.46
227.657	6.34
228.041	7.09
228.425	7.22
228.809	4
229.193	6.76
229.577	6.98
229.961	4.58
230.344	4.26
230.728	7.37
231.112	6.35
231.495	7.09
231.879	7.54
232.263	5.61
232.646	3.29
233.03	6.62
233.413	5.7
233.797	4.8
234.18	3.6
234.563	4.86
234.946	10.53
235.33	8.19
235.713	4.57
236.096	3.95
236.479	4.42
236.862	6.16
237.245	5.81
237.628	5.06
238.011	7.54
238.394	6.45
238.777	6.68
239.16	6.88
239.543	4.84
239.925	5.78
240.308	6.66
240.691	5.11
241.073	6.58
241.456	6.27
241.838	5.31
242.221	5.57
242.603	6.39
242.986	4.57
243.368	6.28
243.75	5.35
244.133	5.69
244.515	5.63
244.897	6.34
245.279	6.55
245.661	5.34
246.043	5.02
246.425	5.69
246.807	4.81
247.189	5.85
247.571	5.2
247.953	5.12
248.335	5.5
248.717	5.32
249.098	5.56
249.48	5.43
249.862	5.16
250.243	5.24
250.625	6.47
251.006	4.95
251.388	5.64
251.769	5.36
252.151	5.14
252.532	5.94
252.913	6
253.295	5.83
253.676	5.57
254.057	5.17
254.438	5.96
254.819	5.21
255.2	5.73
255.581	5.9
255.962	4.53
256.343	5.32
256.724	6.58
257.105	5.52
257.486	5.3
257.867	5.23
258.247	5.41
258.628	5.59
259.009	4.2
259.389	5.85
259.77	5.71
260.15	5.27
260.531	6.32
260.911	5.37
261.292	4.93
261.672	5.12
262.052	5.17
262.432	5.27
262.813	4.9
263.193	5.49
263.573	6.12
263.953	5.85
264.333	5.82
264.713	5.44
265.093	5.58
265.473	5.75
265.853	4.52
266.233	4.82
266.612	4.61
266.992	4.41
267.372	5.54
267.752	5.91
268.131	4.17
268.511	5.12
268.89	4.67
269.27	4.86
269.649	4.89
270.029	4.65
270.408	5.17
270.787	5.3
271.167	5.3
271.546	5.06
271.925	5.59
272.304	5.72
272.683	4.96
273.062	5.19
273.441	5.51
273.82	4.62
274.199	5.09
274.578	5.21
274.957	4.86
275.336	4.87
275.715	5.31
276.093	3.9
276.472	5.12
276.851	5.02
277.229	4.61
277.608	5.07
277.986	4.27
278.365	5.4
278.743	4.46
279.122	5.09
279.5	4.79
279.878	4.73
280.257	4.4
280.635	5.11
281.013	5.46
281.391	5.29
281.769	4.58
282.147	4.82
282.525	4.72
282.903	4.78
283.281	4.4
283.659	4.98
284.037	5.2
284.415	4.73
284.792	5.12
285.17	4.97
285.548	5.35
285.925	4.78
286.303	5.01
286.68	5.32
287.058	5.28
287.435	4.84
287.813	4.56
288.19	5.04
288.567	4.95
288.945	4.97
289.322	4.7
289.699	4.78
290.076	4.99
290.453	5.37
290.83	4.86
291.207	5.56
291.584	5.28
291.961	5.61
292.338	5.1
292.715	5.01
293.092	4.88
293.469	5.39
293.845	5.7
294.222	4.7
294.599	5.48
294.975	5.03
295.352	5.36
295.728	5.13
296.105	5.46
296.481	5.87
296.858	5.19
297.234	5.62
297.61	5.26
297.986	5.69
298.363	5.55
298.739	5.11
299.115	5.2
299.491	5.39
299.867	5.32
300.243	5.29
300.619	5.78
300.995	5.32
301.371	5.64
301.746	5.66
302.122	5.83
302.498	5.54
302.874	5.75
303.249	5.77
303.625	5.44
304	5.65
304.376	5.75
304.751	5.37
305.127	6.11
305.502	5.74
305.878	5.61
306.253	5.39
306.628	5.67
307.003	6.05
307.378	6.08
307.754	6.27
308.129	6.01
308.504	6.59
308.879	5.67
309.254	6.44
309.629	5.4
310.003	6.83
310.378	6.16
310.753	6.36
311.128	6.53
311.502	5.68
311.877	5.47
312.252	5.54
312.626	5.91
313.001	5.91
313.375	5.71
313.75	6.37
314.124	5.95
314.498	6.38
314.873	6.5
315.247	6.94
315.621	6.54
315.995	6.33
316.369	6.09
316.743	5.98
317.117	5.74
317.491	6.48
317.865	5.97
318.239	6.26
318.613	7.22
318.987	6.44
319.361	6.14
319.734	5.87
320.108	6.08
320.482	6
320.855	5.97
321.229	6.63
321.602	6.45
321.976	6.79
322.349	6.87
322.723	6.17
323.096	6.21
323.469	6.6
323.843	7.1
324.216	6.47
324.589	6.75
324.962	7.27
325.335	7.33
325.708	6.51
326.081	6.92
326.454	6.48
326.827	7.29
327.2	6.47
327.573	7.16
327.945	6.5
328.318	7.05
328.691	6.37
329.063	7.19
329.436	7.37
329.809	6.67
330.181	6.48
330.553	7.3
330.926	7.09
331.298	6.85
331.671	7.21
332.043	7.05
332.415	7.11
332.787	6.81
333.159	7.1
333.532	7.13
333.904	6.42
334.276	7.54
334.648	7
335.02	6.74
335.391	6.5
335.763	6.9
336.135	7.7
336.507	7.86
336.879	6.91
337.25	7.26
337.622	7.14
337.993	7.43
338.365	7.06
338.736	7.1
339.108	7.79
339.479	7.53
339.851	7.64
340.222	6.66
340.593	7.42
340.964	7.95
341.336	7.24
341.707	7.4
342.078	7.05
342.449	7.63
342.82	7.54
343.191	7.49
343.562	7.8
343.933	7.98
344.303	7.42
344.674	7.73
345.045	7.7
345.416	7.84
345.786	7.56
346.157	7.43
346.527	7.86
346.898	7.52
347.268	7.35
347.639	8.31
348.009	7.5
348.38	7.76
348.75	8.45
349.12	7.79
349.49	8.2
349.861	8.35
350.231	7.65
350.601	8.3
350.971	8.41
351.341	8.29
351.711	8.39
352.081	8.14
352.45	7.92
352.82	8.26
353.19	8.14
353.56	8.02
353.929	8.14
354.299	7.91
354.669	8.05
355.038	7.8
355.408	8.13
355.777	9.02
356.147	8.32
356.516	8.11
356.885	8.59
357.254	8.68
357.624	8.42
357.993	8.14
358.362	8.66
358.731	8.7
359.1	8.28
359.469	8.45
359.838	8.32
360.207	8.4
360.576	8.58
360.945	8.38
361.314	8.94
361.682	8.58
362.051	9.11
362.42	8.61
362.788	8.45
363.157	8.99
363.525	8.81
363.894	8.64
364.262	8.73
364.631	8.49
364.999	8.98
365.367	8.88
365.735	8.86
366.104	8.83
366.472	8.92
366.84	9.04
367.208	8.89
367.576	9.28
367.944	9.32
368.312	9.38
368.68	8.96
369.048	9.3
369.416	8.86
369.783	9.15
370.151	9.51
370.519	9.22
370.886	9.44
371.254	9.22
371.621	9.54
371.989	9.24
372.356	9.2
372.724	9.59
373.091	9.38
373.458	9.44
373.826	9.24
374.193	9.28
374.56	9.58
374.927	9.66
375.294	9.48
375.661	10.25
376.028	10.23
376.395	9.69
376.762	10.23
377.129	9.8
377.496	9.74
377.863	9.72
378.229	9.96
378.596	9.85
378.963	9.94
379.329	9.8
379.696	9.38
380.062	10.15
380.429	9.97
380.795	10.28
381.161	10.06
381.528	10.04
381.894	10.39
382.26	9.78
382.626	10.45
382.993	10.41
383.359	10.11
383.725	10.48
384.091	10.24
384.457	10.06
384.823	10.46
385.188	10.43
385.554	10.49
385.92	10.27
386.286	10.77
386.651	10.69
387.017	10.92
387.383	10.64
387.748	10.74
388.114	11.02
388.479	10.74
388.845	10.93
389.21	10.84
389.575	10.7
389.94	10.91
390.306	10.9
390.671	10.65
391.036	10.91
391.401	10.96
391.766	11.08
392.131	11.05
392.496	11
392.861	10.96
393.226	11.03
393.591	10.87
393.956	11.15
394.32	11.21
394.685	11.16
395.05	10.9
395.414	11.27
395.779	11.07
396.143	11.46
396.508	10.95
396.872	11.46
397.236	11.32
397.601	11.36
397.965	11.71
398.329	11.48
398.694	11.64
399.058	11.72
399.422	11.65
399.786	11.46
400.15	11.43
400.514	11.83
400.878	11.68
401.242	11.56
401.605	11.84
401.969	11.88
402.333	11.87
402.697	11.63
403.06	11.62
403.424	12.04
403.787	11.42
404.151	12.14
404.514	11.85
404.878	12.09
405.241	12.02
405.604	11.96
405.968	12.14
406.331	12.27
406.694	12.33
407.057	12.09
407.42	12.36
407.783	12.16
408.146	12.18
408.509	12.13
408.872	12.28
409.235	12.37
409.598	12.26
409.961	12.53
410.323	12.42
410.686	12.46
411.049	13.06
411.411	12.57
411.774	12.63
412.136	12.77
412.499	12.58
412.861	12.58
413.223	12.87
413.586	12.66
413.948	12.58
414.31	12.78
414.672	12.82
415.035	12.8
415.397	12.88
415.759	12.78
416.121	13.02
416.483	12.84
416.845	12.84
417.206	13.33
417.568	12.88
417.93	13.28
418.292	13.05
418.653	13.32
419.015	12.96
419.377	13.15
419.738	13.01
420.1	13.15
420.461	13.28
420.822	13.21
421.184	13.33
421.545	13.39
421.906	13.21
422.267	13.24
422.629	13.16
422.99	13.21
423.351	13.24
423.712	13.3
424.073	13.41
424.434	13.42
424.795	13.4
425.155	13.36
425.516	13.41
425.877	13.56
426.238	13.56
426.598	13.59
426.959	13.72
427.32	13.74
427.68	13.71
428.041	13.84
428.401	13.99
428.761	13.84
429.122	14.02
429.482	14.24
429.842	14.35
430.202	14.11
430.563	14.35
430.923	14.33
431.283	14.38
431.643	14.71
432.003	14.56
432.363	14.57
432.722	14.51
433.082	14.51
433.442	14.72
433.802	14.63
434.161	14.44
434.521	14.71
434.881	14.52
435.24	14.8
435.6	14.77
435.959	14.88
436.319	14.81
436.678	15.11
437.037	14.98
437.396	14.74
437.756	14.82
438.115	14.92
438.474	15.19
438.833	15.28
439.192	15.33
439.551	15.04
439.91	15.25
440.269	15.25
440.628	15.33
440.987	15.13
441.345	15.42
441.704	15.33
442.063	15.43
442.421	15.49
442.78	15.41
443.138	15.45
443.497	15.55
443.855	15.67
444.214	15.83
444.572	15.79
444.93	15.68
445.288	15.6
445.647	15.77
446.005	15.71
446.363	15.75
446.721	15.8
447.079	15.93
447.437	15.9
447.795	15.88
448.153	15.98
448.51	15.92
448.868	16.01
449.226	16.12
449.584	15.99
449.941	16.13
450.299	16.37
450.656	16.45
451.014	16.41
451.371	16.49
451.729	16.59
452.086	16.39
452.443	16.75
452.801	16.61
453.158	16.77
453.515	16.86
453.872	16.76
454.229	16.77
454.586	16.73
454.943	16.81
455.3	16.84
455.657	16.86
456.014	17.08
456.371	17.44
456.727	17.3
457.084	17.27
457.441	17.24
457.797	17.15
458.154	17.16
458.51	17.09
458.867	17.45
459.223	17.57
459.58	17.39
459.936	17.42
460.292	17.54
460.648	17.46
461.005	17.48
461.361	17.41
461.717	17.49
462.073	17.36
462.429	17.4
462.785	17.54
463.141	17.63
463.496	17.74
463.852	18.09
464.208	17.79
464.564	17.88
464.919	18.26
465.275	18.14
465.631	18.4
465.986	18.31
466.342	18.27
466.697	18.31
467.052	18.37
467.408	18.45
467.763	18.49
468.118	18.69
468.473	18.55
468.829	18.57
469.184	18.36
469.539	18.77
469.894	18.68
470.249	18.88
470.603	18.83
470.958	18.71
471.313	19.18
471.668	19.07
472.023	18.78
472.377	18.91
472.732	19.06
473.086	19.16
473.441	19.26
473.795	19.22
474.15	19.28
474.504	19.37
474.859	19.34
475.213	19.4
475.567	19.16
475.921	19.32
476.275	19.55
476.63	19.56
476.984	19.7
477.338	19.41
477.692	19.75
478.045	19.68
478.399	19.57
478.753	19.58
479.107	19.88
479.461	19.93
479.814	19.7
480.168	19.82
480.521	19.82
480.875	19.88
481.228	20.1
481.582	20.15
481.935	20.03
482.289	20.21
482.642	20.08
482.995	19.99
483.348	20.1
483.701	20.12
484.055	19.95
484.408	19.93
484.761	19.81
485.114	19.62
485.466	19.36
485.819	19.39
486.172	19.4
486.525	19.54
486.878	19.62
487.23	19.81
487.583	19.98
487.936	20.23
488.288	20.2
488.641	20.16
488.993	19.95
489.345	20.01
489.698	20
490.05	19.96
490.402	20.17
490.754	20.2
491.107	20.41
491.459	20.68
491.811	20.9
492.163	20.81
492.515	21.01
492.866	20.86
493.218	20.66
493.57	20.65
493.922	20.64
494.274	20.7
494.625	20.98
494.977	21.16
495.328	21.44
495.68	21.56
496.031	21.78
496.383	21.83
496.734	21.97
497.086	21.87
497.437	21.94
497.788	22.09
498.139	21.89
498.49	22.17
498.842	21.95
499.193	21.97
499.544	21.97
499.894	22.06
500.245	22.33
500.596	22.12
500.947	22.18
501.298	22.32
501.648	22.46
501.999	22.58
502.35	22.77
502.7	22.68
503.051	22.68
503.401	22.78
503.752	22.91
504.102	23.02
504.452	22.98
504.803	23.03
505.153	23.26
505.503	23.07
505.853	23.08
506.203	23.23
506.553	23.26
506.903	23.18
507.253	23.19
507.603	23.45
507.953	23.22
508.303	23.52
508.652	23.61
509.002	23.72
509.352	23.54
509.701	23.66
510.051	23.67
510.4	23.51
510.75	23.36
511.099	23.43
511.449	23.76
511.798	23.73
512.147	23.8
512.496	23.88
512.846	23.74
513.195	23.84
513.544	23.86
513.893	23.98
514.242	23.98
514.591	24.04
514.939	24.13
515.288	24.07
515.637	24.2
515.986	24.25
516.334	24.33
516.683	24.4
517.032	24.38
517.38	24.7
517.729	24.82
518.077	24.5
518.426	24.67
518.774	24.68
519.122	24.63
519.47	24.53
519.819	24.59
520.167	24.42
520.515	24.52
520.863	24.52
521.211	24.63
521.559	24.81
521.907	24.84
522.255	25.05
522.602	25.18
522.95	25.22
523.298	25.24
523.645	25.3
523.993	25.55
524.341	25.41
524.688	25.54
525.036	25.6
525.383	25.69
525.73	25.62
526.078	25.59
526.425	25.56
526.772	25.48
527.119	25.49
527.466	25.52
527.814	25.38
528.161	25.61
528.508	25.51
528.854	25.6
529.201	25.65
529.548	25.46
529.895	25.37
530.242	25.25
530.588	25.18
530.935	25.35
531.282	25.37
531.628	25.41
531.975	25.55
532.321	25.7
532.667	26.15
533.014	26.15
533.36	26.3
533.706	26.28
534.052	26.19
534.399	26.38
534.745	26.15
535.091	26.1
535.437	26.27
535.783	26.24
536.129	26.4
536.474	26.43
536.82	26.72
537.166	26.95
537.512	27.16
537.857	26.97
538.203	27.08
538.549	26.97
538.894	27.1
539.239	27.17
539.585	27.21
539.93	27.43
540.276	27.49
540.621	27.44
540.966	27.76
541.311	27.75
541.656	27.9
542.001	27.85
542.346	27.58
542.691	27.4
543.036	27.18
543.381	27.15
543.726	27.27
544.071	27.38
544.415	27.48
544.76	27.63
545.105	27.78
545.449	27.94
545.794	28.21
546.138	28.09
546.483	28.51
546.827	28.62
547.171	28.63
547.516	28.43
547.86	28.65
548.204	28.7
548.548	28.66
548.892	28.56
549.236	28.78
549.58	28.97
549.924	28.95
550.268	29.01
550.612	29.16
550.956	29.47
551.3	29.52
551.643	29.8
551.987	29.71
552.33	29.57
552.674	29.78
553.017	29.9
553.361	29.99
553.704	29.99
554.048	29.92
554.391	30
554.734	30.13
555.077	30.14
555.42	29.9
555.764	30.04
556.107	30.26
556.45	30.16
556.793	30.27
557.135	30.53
557.478	30.62
557.821	30.73
558.164	30.87
558.507	30.7
558.849	30.79
559.192	30.72
559.534	30.98
559.877	31.09
560.219	31.07
560.562	31.19
560.904	31.29
561.246	31.26
561.589	31.39
561.931	31.33
562.273	31.13
562.615	31.22
562.957	31.64
563.299	31.56
563.641	31.49
563.983	31.6
564.325	31.7
564.667	31.78
565.008	31.66
565.35	31.74
565.692	31.95
566.033	31.8
566.375	31.68
566.716	31.77
567.058	31.97
567.399	32.2
567.741	32.2
568.082	32.01
568.423	32.04
568.764	32.12
569.105	31.93
569.447	32.21
569.788	32.4
570.129	32.49
570.47	32.59
570.811	32.52
571.151	32.8
571.492	32.55
571.833	32.71
572.174	32.65
572.514	32.94
572.855	32.74
573.195	32.81
573.536	33.02
573.876	32.89
574.217	32.8
574.557	32.83
574.898	33.23
575.238	33.19
575.578	33.09
575.918	33.07
576.258	33.45
576.598	33.31
576.938	33.52
577.278	33.51
577.618	33.5
577.958	33.62
578.298	33.81
578.638	33.59
578.977	33.56
579.317	34.09
579.657	34.04
579.996	34.32
580.336	34.39
580.675	34.21
581.014	34.25
581.354	34.63
581.693	34.42
582.032	34.58
582.372	34.79
582.711	34.7
583.05	34.86
583.389	35.06
583.728	34.82
584.067	35.06
584.406	34.86
584.745	35.09
585.083	35.08
585.422	35.27
585.761	35.4
586.1	35.36
586.438	35.17
586.777	35.73
587.115	35.67
587.454	35.94
587.792	35.42
588.13	35.97
588.469	36.13
588.807	35.68
589.145	36.05
589.483	35.85
589.821	35.68
590.159	35.72
590.497	36.09
590.835	36.2
591.173	36.08
591.511	36.13
591.849	35.92
592.187	36.5
592.524	36.19
592.862	36.29
593.2	36.29
593.537	36.07
593.875	36.83
594.212	36.45
594.55	37.07
594.887	36.7
595.224	36.78
595.561	37.04
595.899	36.66
596.236	36.8
596.573	36.78
596.91	37.24
597.247	37.14
597.584	37.29
597.921	37.21
598.258	36.9
598.594	37.09
598.931	37.23
599.268	37.06
599.604	36.94
599.941	37.08
600.277	37.22
600.614	37.33
600.95	37.43
601.287	37.66
601.623	37.61
601.959	37.67
602.296	37.81
602.632	37.83
602.968	38.14
603.304	38.13
603.64	38.22
603.976	38.35
604.312	37.92
604.648	38.11
604.984	37.68
605.319	38.05
605.655	38.12
605.991	38.52
606.326	38.1
606.662	38.18
606.998	38.01
607.333	38.28
607.668	38.49
608.004	38.27
608.339	38.94
608.674	38.86
609.01	38.75
609.345	38.78
609.68	39.14
610.015	38.71
610.35	38.78
610.685	39.1
611.02	39.1
611.355	39.02
611.689	39.22
612.024	38.74
612.359	39.13
612.694	38.95
613.028	39.25
613.363	39.33
613.697	39.46
614.032	39.28
614.366	39.71
614.7	39.59
615.035	39.64
615.369	39.95
615.703	40.05
616.037	40.08
616.371	39.87
616.705	40.03
617.039	40.24
617.373	40.11
617.707	40.26
618.041	39.69
618.375	39.94
618.709	40.69
619.042	40.71
619.376	40.67
619.71	40.42
620.043	40.48
620.377	40.8
620.71	40.86
621.043	40.83
621.377	40.74
621.71	41
622.043	40.98
622.376	41.09
622.709	41.18
623.043	41.42
623.376	41.09
623.709	41.4
624.041	41.67
624.374	41.21
624.707	40.97
625.04	41.55
625.373	41.28
625.705	41.59
626.038	42.09
626.37	42.02
626.703	41.98
627.035	41.55
627.368	41.94
627.7	41.67
628.032	41.93
628.365	42.02
628.697	42.13
629.029	41.77
629.361	41.43
629.693	42
630.025	41.99
630.357	42.01
630.689	41.96
631.021	42.47
631.353	42.38
631.684	42.52
632.016	42.48
632.348	42.74
632.679	42.54
633.011	42.58
633.342	42.74
633.674	42.75
634.005	42.71
634.336	42.66
634.668	43.08
634.999	42.54
635.33	42.92
635.661	43.09
635.992	43.2
636.323	43.13
636.654	43
636.985	42.97
637.316	43.45
637.647	43.35
637.977	43.32
638.308	43.45
638.639	43.72
638.969	43.53
639.3	43.72
639.63	43.63
639.961	43.58
640.291	43.52
640.622	43.29
640.952	43.83
641.282	43.8
641.612	43.87
641.943	43.92
642.273	43.92
642.603	43.91
642.933	44.26
643.263	43.62
643.592	44.35
643.922	44.59
644.252	44.56
644.582	43.98
644.911	44.66
645.241	44.23
645.571	44.77
645.9	44.75
646.23	44.62
646.559	44.3
646.888	44.17
647.218	44.79
647.547	44.9
647.876	45.11
648.205	44.95
648.534	44.72
648.863	44.83
649.192	45.57
649.521	45.21
649.85	45.36
650.179	45.46
650.508	45.19
650.837	45.49
651.165	44.64
651.494	45.37
651.822	44.89
652.151	45.58
652.479	45.92
652.808	45.35
653.136	45.96
653.465	45.77
653.793	45.9
654.121	45.68
654.449	46.37
654.777	46.45
655.105	46.22
655.433	45.4
655.761	46.32
656.089	45.32
656.417	46.64
656.745	45.99
657.073	46.28
657.4	46.31
657.728	46.6
658.056	45.99
658.383	46.1
658.711	46.58
659.038	46.26
659.365	46.14
659.693	46.51
660.02	46.78
660.347	46.11
660.674	46.64
661.001	47.17
661.329	46.86
661.656	47.06
661.982	46.5
662.309	46.62
662.636	46.42
662.963	45.94
663.29	47.44
663.616	46.73
663.943	46.83
664.27	47.07
664.596	47.11
664.923	48.06
665.249	47.07
665.576	47.84
665.902	46.96
666.228	47.3
666.554	47.01
666.881	47.23
667.207	47.21
667.533	47.52
667.859	47.52
668.185	47.71
668.511	47.9
668.837	47.53
669.162	47.85
669.488	47.7
669.814	47.85
670.139	47.4
670.465	47.19
670.791	47.62
671.116	48.1
671.442	47.98
671.767	48.44
672.092	48.55
672.418	48.63
672.743	48.21
