Data from 0402_chest_Reflection__1__214.txt Node

Date: Tue Dec 12 20:10:02 CST 2023
User: ToomeyLab
Spectrometer: FLMS14357
Trigger mode: 0
Integration Time (sec): 1.000000E-2
Scans to average: 100
Electric dark correction enabled: true
Nonlinearity correction enabled: false
Boxcar width: 0
XAxis mode: Wavelengths
Number of Pixels in Spectrum: 2048
>>>>>Begin Spectral Data<<<<<
189.047	6.79
189.435	6.79
189.823	6.79
190.211	1646.05
190.599	1161.89
190.987	23.3
191.375	127.79
191.763	-2026.52
192.151	131.09
192.538	-223.21
192.926	89.67
193.314	93.24
193.702	59.91
194.089	69.14
194.477	0.49
194.864	485.96
195.252	-132.7
195.639	26.39
196.027	113.5
196.414	30.75
196.801	236.96
197.189	-130.58
197.576	822.96
197.963	15.78
198.351	-25.96
198.738	28
199.125	23.35
199.512	-32.54
199.899	-15.2
200.286	22.12
200.673	10.14
201.06	16.5
201.447	-83.69
201.833	-25.49
202.22	-36.7
202.607	-238.32
202.994	0.73
203.38	26.21
203.767	-22.55
204.154	5.13
204.54	31.61
204.927	-30.54
205.313	13.03
205.699	0.68
206.086	-7.84
206.472	28.64
206.858	19.96
207.245	20.24
207.631	22.07
208.017	13.61
208.403	-18.43
208.789	17.89
209.175	7.13
209.561	10.47
209.947	-9.66
210.333	32.83
210.719	-28.39
211.105	-36.44
211.491	16.39
211.876	7.64
212.262	39.54
212.648	-97.7
213.034	-17.49
213.419	-5.72
213.805	28.2
214.19	11.78
214.576	13.85
214.961	8.58
215.346	25.04
215.732	9.9
216.117	-16.82
216.502	-71.41
216.888	-35.81
217.273	-46.44
217.658	-31.71
218.043	-1.43
218.428	20.94
218.813	0.65
219.198	-99.69
219.583	-8.35
219.968	29.52
220.353	-15.57
220.738	-3.29
221.122	-17.29
221.507	-13.28
221.892	-9.47
222.276	-2.28
222.661	3.26
223.046	-15.49
223.43	13.42
223.815	-9.32
224.199	1.78
224.583	9.31
224.968	8.54
225.352	-4.18
225.736	3.12
226.121	-7.92
226.505	4.12
226.889	-5.69
227.273	-2.58
227.657	5.85
228.041	1.6
228.425	-2.04
228.809	0.67
229.193	-0.9
229.577	2.71
229.961	0.08
230.344	1.39
230.728	2.29
231.112	1
231.495	1.05
231.879	1.82
232.263	1.26
232.646	-0.18
233.03	-0.09
233.413	0.7
233.797	0.53
234.18	-1.21
234.563	-3.86
234.946	2.85
235.33	4.2
235.713	1.37
236.096	-0.76
236.479	-1.35
236.862	1.55
237.245	1.99
237.628	0.79
238.011	1.1
238.394	1.34
238.777	2.1
239.16	0.4
239.543	2.34
239.925	0.75
240.308	0.43
240.691	0.56
241.073	1.1
241.456	-0.21
241.838	1.69
242.221	0.48
242.603	2.72
242.986	0.9
243.368	1.87
243.75	1.43
244.133	1.22
244.515	1.55
244.897	1.73
245.279	2.06
245.661	0.78
246.043	0.7
246.425	1.59
246.807	0.75
247.189	1.83
247.571	1.08
247.953	0.8
248.335	1.5
248.717	1.08
249.098	1.45
249.48	1.15
249.862	1.02
250.243	1.34
250.625	1.29
251.006	0.86
251.388	1.16
251.769	1.31
252.151	0.38
252.532	1.97
252.913	2.51
253.295	2.08
253.676	0.7
254.057	1.09
254.438	1.16
254.819	0.88
255.2	1.01
255.581	1.25
255.962	0.37
256.343	0.63
256.724	1.8
257.105	1.4
257.486	0.04
257.867	-0.02
258.247	0.35
258.628	1.77
259.009	0.67
259.389	1.86
259.77	0.72
260.15	1.14
260.531	2.05
260.911	1.9
261.292	0.82
261.672	0.89
262.052	1.14
262.432	1.43
262.813	1.47
263.193	1.65
263.573	2.18
263.953	1.93
264.333	2.65
264.713	0.99
265.093	0.97
265.473	1.33
265.853	-0.06
266.233	1.13
266.612	0.5
266.992	1.64
267.372	1.79
267.752	2.43
268.131	0.59
268.511	1.32
268.89	0.55
269.27	1.23
269.649	0.76
270.029	0.73
270.408	1.53
270.787	0.94
271.167	1.19
271.546	0.74
271.925	2.2
272.304	1.95
272.683	0.89
273.062	1.28
273.441	1.45
273.82	0.62
274.199	0.96
274.578	1.17
274.957	1.02
275.336	0.75
275.715	0.93
276.093	0.91
276.472	1.1
276.851	1.03
277.229	1.01
277.608	1.14
277.986	1.17
278.365	1.04
278.743	1.01
279.122	1.41
279.5	1.13
279.878	0.45
280.257	0.9
280.635	1.03
281.013	1.02
281.391	1.35
281.769	0.35
282.147	1.02
282.525	0.75
282.903	0.81
283.281	0.75
283.659	1.5
284.037	1.52
284.415	1.2
284.792	1.24
285.17	0.7
285.548	1.28
285.925	0.53
286.303	0.89
286.68	1.22
287.058	1.23
287.435	1.1
287.813	0.95
288.19	1.07
288.567	1.39
288.945	0.69
289.322	0.49
289.699	1.35
290.076	1.02
290.453	1.44
290.83	1.04
291.207	1.37
291.584	1.14
291.961	0.96
292.338	0.96
292.715	1.03
293.092	1.24
293.469	1.09
293.845	1.43
294.222	1.3
294.599	1.15
294.975	0.93
295.352	0.67
295.728	1.97
296.105	1.4
296.481	1.49
296.858	0.79
297.234	2.02
297.61	1.43
297.986	1.27
298.363	1.46
298.739	1.08
299.115	1.21
299.491	1.47
299.867	1.34
300.243	1.48
300.619	1.7
300.995	2.11
301.371	1.76
301.746	1.42
302.122	2.25
302.498	1.71
302.874	1.07
303.249	1.94
303.625	1.16
304	1.62
304.376	2.08
304.751	1.62
305.127	1.57
305.502	1.46
305.878	1.21
306.253	1.43
306.628	1.42
307.003	1.93
307.378	1.83
307.754	1.64
308.129	1.36
308.504	2.29
308.879	0.86
309.254	1.7
309.629	1.21
310.003	1.95
310.378	1.95
310.753	2.12
311.128	2.11
311.502	1.33
311.877	1.54
312.252	1.06
312.626	1.66
313.001	1.38
313.375	1.8
313.75	1.81
314.124	1.86
314.498	1.9
314.873	1.74
315.247	2.23
315.621	1.68
315.995	1.89
316.369	1.85
316.743	1.75
317.117	0.94
317.491	1.19
317.865	1.79
318.239	1.63
318.613	1.96
318.987	2.5
319.361	1.69
319.734	1.75
320.108	2.01
320.482	1.9
320.855	1.79
321.229	1.92
321.602	1.96
321.976	2.13
322.349	2.3
322.723	1.91
323.096	1.86
323.469	2.28
323.843	3.37
324.216	1.81
324.589	1.75
324.962	2.24
325.335	2.45
325.708	2.15
326.081	2.13
326.454	1.68
326.827	2.54
327.2	2.04
327.573	1.86
327.945	1.96
328.318	2.22
328.691	0.82
329.063	1.34
329.436	1.82
329.809	1.89
330.181	1.38
330.553	1.85
330.926	2
331.298	1.49
331.671	1.93
332.043	1.82
332.415	1.88
332.787	2.04
333.159	1.89
333.532	1.71
333.904	1.96
334.276	2.38
334.648	1.94
335.02	1.55
335.391	1.84
335.763	2.01
336.135	1.63
336.507	2
336.879	2.04
337.25	1.94
337.622	1.32
337.993	1.81
338.365	1.72
338.736	1.62
339.108	1.88
339.479	2.14
339.851	1.39
340.222	1.77
340.593	2.06
340.964	2.17
341.336	2.01
341.707	1.39
342.078	1.45
342.449	2.12
342.82	2.34
343.191	1.79
343.562	2.23
343.933	2.5
344.303	1.61
344.674	1.88
345.045	2
345.416	2.13
345.786	1.84
346.157	1.76
346.527	2.35
346.898	1.66
347.268	1.64
347.639	1.89
348.009	1.69
348.38	2.16
348.75	2.26
349.12	1.96
349.49	1.84
349.861	2.26
350.231	1.96
350.601	1.93
350.971	1.74
351.341	2.13
351.711	1.77
352.081	2.08
352.45	1.65
352.82	2.07
353.19	1.61
353.56	1.68
353.929	1.76
354.299	2.16
354.669	1.68
355.038	1.59
355.408	1.83
355.777	2.3
356.147	1.91
356.516	2.1
356.885	1.79
357.254	2.07
357.624	1.49
357.993	1.95
358.362	1.84
358.731	2.13
359.1	1.9
359.469	2.02
359.838	1.63
360.207	1.62
360.576	2.06
360.945	1.56
361.314	2
361.682	1.92
362.051	2.41
362.42	2.02
362.788	2.03
363.157	2.29
363.525	2.21
363.894	1.98
364.262	2.08
364.631	1.88
364.999	1.87
365.367	2.02
365.735	1.78
366.104	2.23
366.472	1.87
366.84	2.08
367.208	1.92
367.576	2.26
367.944	2.12
368.312	2.23
368.68	2.13
369.048	2.37
369.416	2.13
369.783	2.01
370.151	2.14
370.519	2.03
370.886	1.96
371.254	1.46
371.621	2.3
371.989	1.68
372.356	2.04
372.724	2.06
373.091	2.11
373.458	1.96
373.826	1.92
374.193	1.77
374.56	2.11
374.927	2.29
375.294	1.65
375.661	2.39
376.028	2.05
376.395	2.24
376.762	2.32
377.129	1.85
377.496	2.05
377.863	2.31
378.229	2.35
378.596	1.94
378.963	1.97
379.329	1.84
379.696	1.85
380.062	2.13
380.429	2.07
380.795	2.26
381.161	2.1
381.528	2.07
381.894	2.17
382.26	2.32
382.626	2.12
382.993	2.14
383.359	1.86
383.725	2.15
384.091	1.93
384.457	1.97
384.823	2.16
385.188	2.08
385.554	2.1
385.92	2.03
386.286	2.08
386.651	2.21
387.017	2.29
387.383	1.87
387.748	2.33
388.114	2.56
388.479	2.18
388.845	2.09
389.21	1.91
389.575	2.03
389.94	2.15
390.306	2.19
390.671	2.32
391.036	2.45
391.401	1.95
391.766	1.95
392.131	2.29
392.496	2.09
392.861	2
393.226	2.19
393.591	2.08
393.956	2.03
394.32	2.35
394.685	2.25
395.05	2.03
395.414	2.14
395.779	2.34
396.143	2.26
396.508	2.07
396.872	2.22
397.236	2.16
397.601	2.5
397.965	2.06
398.329	2.15
398.694	2.26
399.058	2.19
399.422	2.19
399.786	2.2
400.15	2.05
400.514	2.38
400.878	2.32
401.242	2.06
401.605	2.26
401.969	2.41
402.333	2.62
402.697	2.26
403.06	2.03
403.424	2.43
403.787	2.03
404.151	2.39
404.514	2.17
404.878	1.92
405.241	2.05
405.604	2.09
405.968	2.03
406.331	2.4
406.694	2.33
407.057	2.21
407.42	2.17
407.783	2.33
408.146	2.39
408.509	2.43
408.872	2.47
409.235	2.37
409.598	2.3
409.961	2.17
410.323	2.2
410.686	2.37
411.049	2.41
411.411	2.45
411.774	2.51
412.136	2.38
412.499	2.33
412.861	2.1
413.223	2.54
413.586	1.98
413.948	2.24
414.31	2.42
414.672	2.38
415.035	2.23
415.397	2.28
415.759	2.39
416.121	2.2
416.483	2.4
416.845	2.19
417.206	2.56
417.568	2.16
417.93	2.43
418.292	2.35
418.653	2.38
419.015	2.22
419.377	2.07
419.738	2.41
420.1	2.35
420.461	2.36
420.822	2.34
421.184	2.21
421.545	2.46
421.906	2.42
422.267	2.29
422.629	2.23
422.99	2.31
423.351	2.2
423.712	2.32
424.073	2.27
424.434	2.33
424.795	2.41
425.155	2.22
425.516	2.15
425.877	2.25
426.238	2.32
426.598	2.31
426.959	2.26
427.32	2.32
427.68	2.26
428.041	2.42
428.401	2.36
428.761	2.46
429.122	2.53
429.482	2.59
429.842	2.55
430.202	2.36
430.563	2.36
430.923	2.38
431.283	2.27
431.643	2.52
432.003	2.2
432.363	2.47
432.722	2.44
433.082	2.43
433.442	2.53
433.802	2.5
434.161	2.51
434.521	2.52
434.881	2.37
435.24	2.43
435.6	2.43
435.959	2.55
436.319	2.48
436.678	2.49
437.037	2.4
437.396	2.38
437.756	2.42
438.115	2.53
438.474	2.43
438.833	2.46
439.192	2.74
439.551	2.41
439.91	2.33
440.269	2.43
440.628	2.34
440.987	2.4
441.345	2.48
441.704	2.45
442.063	2.5
442.421	2.5
442.78	2.57
443.138	2.46
443.497	2.48
443.855	2.43
444.214	2.54
444.572	2.64
444.93	2.58
445.288	2.31
445.647	2.58
446.005	2.47
446.363	2.34
446.721	2.48
447.079	2.57
447.437	2.35
447.795	2.52
448.153	2.54
448.51	2.48
448.868	2.57
449.226	2.56
449.584	2.53
449.941	2.41
450.299	2.62
450.656	2.43
451.014	2.59
451.371	2.52
451.729	2.55
452.086	2.55
452.443	2.77
452.801	2.58
453.158	2.41
453.515	2.59
453.872	2.62
454.229	2.57
454.586	2.33
454.943	2.5
455.3	2.5
455.657	2.68
456.014	2.66
456.371	2.67
456.727	2.78
457.084	2.67
457.441	2.74
457.797	2.56
458.154	2.55
458.51	2.51
458.867	2.79
459.223	2.89
459.58	2.5
459.936	2.29
460.292	2.52
460.648	2.63
461.005	2.49
461.361	2.5
461.717	2.62
462.073	2.63
462.429	2.56
462.785	2.58
463.141	2.61
463.496	2.5
463.852	2.81
464.208	2.58
464.564	2.56
464.919	2.87
465.275	2.65
465.631	2.73
465.986	2.79
466.342	2.46
466.697	2.88
467.052	2.82
467.408	2.69
467.763	2.75
468.118	2.73
468.473	2.87
468.829	2.71
469.184	2.76
469.539	2.77
469.894	2.74
470.249	2.75
470.603	2.87
470.958	2.78
471.313	2.93
471.668	2.84
472.023	2.72
472.377	2.78
472.732	2.69
473.086	2.84
473.441	2.97
473.795	2.89
474.15	2.94
474.504	2.69
474.859	2.89
475.213	2.69
475.567	2.73
475.921	2.88
476.275	2.79
476.63	2.69
476.984	2.83
477.338	2.76
477.692	3.01
478.045	2.81
478.399	2.83
478.753	2.73
479.107	2.82
479.461	2.84
479.814	2.75
480.168	2.86
480.521	2.69
480.875	2.95
481.228	2.82
481.582	2.8
481.935	2.88
482.289	2.88
482.642	3.02
482.995	2.82
483.348	2.85
483.701	3.06
484.055	2.81
484.408	2.81
484.761	2.84
485.114	2.72
485.466	2.62
485.819	2.65
486.172	2.68
486.525	2.7
486.878	2.77
487.23	2.74
487.583	2.75
487.936	2.82
488.288	2.74
488.641	2.81
488.993	2.75
489.345	2.78
489.698	2.73
490.05	2.8
490.402	2.81
490.754	2.78
491.107	2.8
491.459	2.88
491.811	2.94
492.163	2.86
492.515	2.92
492.866	2.79
493.218	2.86
493.57	2.77
493.922	2.79
494.274	2.88
494.625	2.95
494.977	3.08
495.328	3.01
495.68	2.98
496.031	3.03
496.383	3.07
496.734	3.07
497.086	3.02
497.437	3.04
497.788	3.11
498.139	3.04
498.49	3.1
498.842	2.93
499.193	2.97
499.544	3.1
499.894	3.07
500.245	3.08
500.596	3.14
500.947	3.02
501.298	3.18
501.648	3.19
501.999	3.1
502.35	3.01
502.7	3.18
503.051	3.16
503.401	3.16
503.752	3.3
504.102	3.14
504.452	3.22
504.803	3.31
505.153	3.23
505.503	3.33
505.853	3.19
506.203	3.2
506.553	3.06
506.903	3.26
507.253	3.22
507.603	3.22
507.953	3.23
508.303	3.33
508.652	3.05
509.002	3.28
509.352	3.27
509.701	3.3
510.051	3.24
510.4	3.17
510.75	3.21
511.099	3.17
511.449	3.31
511.798	3.27
512.147	3.28
512.496	3.34
512.846	3.39
513.195	3.22
513.544	3.29
513.893	3.29
514.242	3.18
514.591	3.25
514.939	3.35
515.288	3.22
515.637	3.23
515.986	3.28
516.334	3.42
516.683	3.37
517.032	3.49
517.38	3.32
517.729	3.51
518.077	3.34
518.426	3.41
518.774	3.41
519.122	3.41
519.47	3.35
519.819	3.32
520.167	3.3
520.515	3.31
520.863	3.39
521.211	3.49
521.559	3.45
521.907	3.42
522.255	3.43
522.602	3.58
522.95	3.54
523.298	3.48
523.645	3.56
523.993	3.58
524.341	3.66
524.688	3.45
525.036	3.63
525.383	3.61
525.73	3.67
526.078	3.54
526.425	3.51
526.772	3.53
527.119	3.55
527.466	3.48
527.814	3.51
528.161	3.55
528.508	3.56
528.854	3.6
529.201	3.55
529.548	3.57
529.895	3.48
530.242	3.42
530.588	3.46
530.935	3.48
531.282	3.53
531.628	3.55
531.975	3.59
532.321	3.62
532.667	3.63
533.014	3.7
533.36	3.73
533.706	3.7
534.052	3.66
534.399	3.75
534.745	3.65
535.091	3.61
535.437	3.7
535.783	3.68
536.129	3.78
536.474	3.81
536.82	3.84
537.166	3.88
537.512	3.83
537.857	3.87
538.203	3.81
538.549	3.82
538.894	3.9
539.239	3.89
539.585	3.94
539.93	4
540.276	3.92
540.621	3.91
540.966	3.85
541.311	4.05
541.656	3.97
542.001	4
542.346	3.85
542.691	3.91
543.036	3.88
543.381	3.85
543.726	3.91
544.071	3.91
544.415	4.02
544.76	3.97
545.105	3.95
545.449	4.09
545.794	4.16
546.138	4.05
546.483	4.17
546.827	4.24
547.171	4.23
547.516	4.16
547.86	4.21
548.204	4.23
548.548	4.21
548.892	4.27
549.236	4.23
549.58	4.38
549.924	4.28
550.268	4.45
550.612	4.15
550.956	4.42
551.3	4.74
551.643	4.49
551.987	4.66
552.33	4.48
552.674	4.45
553.017	4.66
553.361	4.66
553.704	4.61
554.048	4.53
554.391	4.51
554.734	4.56
555.077	4.58
555.42	4.51
555.764	4.77
556.107	4.6
556.45	4.66
556.793	4.72
557.135	4.71
557.478	4.67
557.821	4.66
558.164	4.84
558.507	4.84
558.849	4.69
559.192	4.86
559.534	4.77
559.877	4.71
560.219	4.88
560.562	4.84
560.904	4.93
561.246	4.82
561.589	4.81
561.931	4.86
562.273	4.98
562.615	4.88
562.957	5.11
563.299	5.01
563.641	5.03
563.983	4.84
564.325	5.11
564.667	5.03
565.008	5
565.35	5.04
565.692	5.14
566.033	5.18
566.375	5.01
566.716	5.06
567.058	5.22
567.399	5.38
567.741	5.34
568.082	5.09
568.423	5.24
568.764	5.1
569.105	5.11
569.447	5.41
569.788	5.13
570.129	5.34
570.47	5.31
570.811	5.4
571.151	5.48
571.492	5.56
571.833	5.44
572.174	5.38
572.514	5.38
572.855	5.52
573.195	5.34
573.536	5.31
573.876	5.46
574.217	5.6
574.557	5.45
574.898	5.58
575.238	5.75
575.578	5.68
575.918	5.63
576.258	5.63
576.598	5.57
576.938	5.66
577.278	5.77
577.618	5.85
577.958	5.67
578.298	5.87
578.638	5.85
578.977	5.76
579.317	5.97
579.657	5.91
579.996	5.84
580.336	5.94
580.675	6.05
581.014	6.16
581.354	5.9
581.693	5.98
582.032	6.02
582.372	6.12
582.711	6.11
583.05	6.31
583.389	6.39
583.728	6.25
584.067	6.33
584.406	6.6
584.745	6.36
585.083	6.08
585.422	6.6
585.761	6.63
586.1	6.46
586.438	6.75
586.777	6.43
587.115	6.12
587.454	6.36
587.792	6.33
588.13	6.56
588.469	6.51
588.807	6.49
589.145	6.67
589.483	6.49
589.821	6.77
590.159	6.68
590.497	6.68
590.835	6.61
591.173	6.88
591.511	6.8
591.849	6.44
592.187	6.79
592.524	6.65
592.862	6.71
593.2	6.56
593.537	6.69
593.875	7.12
594.212	6.96
594.55	6.76
594.887	7.23
595.224	6.94
595.561	7.24
595.899	7
596.236	7.16
596.573	7.08
596.91	7.18
597.247	7.04
597.584	7.21
597.921	7.44
598.258	7.41
598.594	7.19
598.931	7.22
599.268	7.26
599.604	7.28
599.941	7.11
600.277	7.25
600.614	7.4
600.95	7.64
601.287	7.67
601.623	7.57
601.959	7.62
602.296	7.41
602.632	7.49
602.968	7.83
603.304	7.2
603.64	7.37
603.976	7.44
604.312	7.63
604.648	7.49
604.984	7.5
605.319	7.75
605.655	7.6
605.991	7.82
606.326	7.73
606.662	7.74
606.998	7.48
607.333	7.7
607.668	7.89
608.004	7.93
608.339	8.19
608.674	7.84
609.01	7.85
609.345	8.3
609.68	8.28
610.015	7.95
610.35	8.03
610.685	7.98
611.02	8.21
611.355	8.12
611.689	8.19
612.024	8.01
612.359	8.24
612.694	8.2
613.028	8.45
613.363	8.53
613.697	8.16
614.032	8.74
614.366	8.61
614.7	8.72
615.035	8.71
615.369	8.51
615.703	8.32
616.037	8.89
616.371	8.58
616.705	8.82
617.039	8.75
617.373	8.55
617.707	8.43
618.041	8.83
618.375	8.9
618.709	8.62
619.042	8.91
619.376	8.81
619.71	8.88
620.043	9.36
620.377	8.94
620.71	9.12
621.043	9.1
621.377	8.74
621.71	9.14
622.043	9.08
622.376	9.37
622.709	9.48
623.043	9.22
623.376	9.88
623.709	9.39
624.041	9.39
624.374	9.04
624.707	9.27
625.04	9.19
625.373	9.72
625.705	9.59
626.038	9.65
626.37	9.75
626.703	9.59
627.035	9.65
627.368	9.59
627.7	9.69
628.032	9.48
628.365	9.6
628.697	9.48
629.029	9.62
629.361	9.81
629.693	9.64
630.025	9.45
630.357	9.69
630.689	9.78
631.021	10.2
631.353	9.92
631.684	10.12
632.016	10.15
632.348	10.34
632.679	9.54
633.011	10.35
633.342	10.62
633.674	10.44
634.005	10
634.336	10.2
634.668	10.25
634.999	10.62
635.33	10.2
635.661	10.1
635.992	10.11
636.323	10.43
636.654	10.52
636.985	10.43
637.316	10.33
637.647	10.32
637.977	10.48
638.308	10.79
638.639	10.81
638.969	10.58
639.3	10.68
639.63	10.79
639.961	10.77
640.291	10.6
640.622	10.56
640.952	11.13
641.282	10.89
641.612	10.98
641.943	10.96
642.273	11.33
642.603	11.62
642.933	11.45
643.263	11.28
643.592	11.41
643.922	11.61
644.252	11.83
644.582	10.95
644.911	11.12
645.241	10.9
645.571	11.69
645.9	11.48
646.23	11.36
646.559	11.62
646.888	11.45
647.218	11.48
647.547	11.4
647.876	11.6
648.205	11.85
648.534	11.94
648.863	11.82
649.192	12.14
649.521	11.92
649.85	11.34
650.179	11.77
650.508	12.09
650.837	12.12
651.165	11.85
651.494	11.81
651.822	11.98
652.151	12.13
652.479	11.92
652.808	11.9
653.136	12.27
653.465	12.17
653.793	12.14
654.121	11.62
654.449	12.26
654.777	12.35
655.105	12.31
655.433	12.46
655.761	12.54
656.089	12.6
656.417	12.75
656.745	12.01
657.073	12.1
657.4	12.89
657.728	12.38
658.056	13.09
658.383	12.21
658.711	13.01
659.038	12.35
659.365	12.34
659.693	12.24
660.02	12.61
660.347	12.87
660.674	12.93
661.001	12.62
661.329	12.82
661.656	12.57
661.982	12.8
662.309	13.09
662.636	12.86
662.963	12.92
663.29	13.09
663.616	13.06
663.943	13.27
664.27	13.35
664.596	13.11
664.923	13.69
665.249	12.52
665.576	13.16
665.902	13.54
666.228	13.56
666.554	13.4
666.881	13.18
667.207	13.41
667.533	13.84
667.859	13.35
668.185	13.09
668.511	13.97
668.837	13.58
669.162	14.48
669.488	13.55
669.814	14
670.139	13.81
670.465	13.02
670.791	14.14
671.116	13.87
671.442	13.84
671.767	14.03
672.092	14.44
672.418	14.19
672.743	14.03
673.068	13.74
673.393	14.33
673.718	14.67
674.043	14.49
674.368	13.96
674.693	13.77
675.018	14.11
675.343	14.54
675.667	14.86
675.992	14.13
676.317	13.77
676.641	14.27
676.966	13.44
677.29	14.8
677.615	14.18
677.939	14.38
678.264	15.17
678.588	14.94
678.912	14.67
679.236	14.57
679.56	15.74
679.885	14.37
680.209	14.91
680.532	15
680.856	14.32
681.18	15.37
681.504	14.86
681.828	14.64
682.152	15.22
682.475	15.04
682.799	14.91
683.122	15.01
683.446	15.07
683.769	16.2
684.093	14.96
684.416	14.88
684.739	15.63
685.062	15.33
685.386	15.99
685.709	15.49
686.032	15.55
686.355	15.89
686.678	16.7
687.001	16.03
687.324	15.67
687.646	16.02
687.969	15.37
688.292	16
