Data from 0402_crown_Reflection__0__218.txt Node

Date: Tue Dec 12 20:12:35 CST 2023
User: ToomeyLab
Spectrometer: FLMS14357
Trigger mode: 0
Integration Time (sec): 1.000000E-2
Scans to average: 100
Electric dark correction enabled: true
Nonlinearity correction enabled: false
Boxcar width: 0
XAxis mode: Wavelengths
Number of Pixels in Spectrum: 2048
>>>>>Begin Spectral Data<<<<<
189.047	10.8
189.435	10.8
189.823	10.8
190.211	-4027.63
190.599	1319.17
190.987	120
191.375	432.82
191.763	1070.45
192.151	254.86
192.538	-302.18
192.926	-15.21
193.314	13.17
193.702	32.53
194.089	77.63
194.477	-116.7
194.864	-66.98
195.252	24.31
195.639	-117.86
196.027	67.68
196.414	189.88
196.801	117.34
197.189	154.75
197.576	2786.22
197.963	7.75
198.351	35.35
198.738	22.66
199.125	10.39
199.512	-52.93
199.899	-45.22
200.286	1.76
200.673	-79.43
201.06	-33.69
201.447	-59.31
201.833	-59.23
202.22	10.09
202.607	-209.04
202.994	7.28
203.38	-8.94
203.767	-32.21
204.154	42.04
204.54	23.38
204.927	-61.26
205.313	10.97
205.699	-52.11
206.086	20.3
206.472	12.69
206.858	9.67
207.245	-15
207.631	9.85
208.017	-23.96
208.403	-31.65
208.789	11.13
209.175	-32.75
209.561	-24.75
209.947	-8.59
210.333	14.12
210.719	-41.94
211.105	-37.86
211.491	28.16
211.876	-3.31
212.262	-20.35
212.648	-128.3
213.034	-105.68
213.419	-25.28
213.805	38.88
214.19	34.59
214.576	6.1
214.961	-4.74
215.346	-12.95
215.732	25.16
216.117	-14.66
216.502	-39.62
216.888	-31.57
217.273	-129.81
217.658	-51.84
218.043	-47.99
218.428	10.95
218.813	5.75
219.198	-95.71
219.583	4.75
219.968	-4.91
220.353	-26.01
220.738	4.42
221.122	-4.43
221.507	-32.15
221.892	11.99
222.276	-6.01
222.661	-10.9
223.046	-6.37
223.43	4.28
223.815	-8.01
224.199	16.98
224.583	-2.77
224.968	10.67
225.352	-5.94
225.736	22.7
226.121	-7.41
226.505	5.24
226.889	-0.1
227.273	4.62
227.657	8.35
228.041	10.59
228.425	3.85
228.809	6.13
229.193	3.91
229.577	6.71
229.961	6.06
230.344	7.49
230.728	8.28
231.112	9.21
231.495	8.39
231.879	8.98
232.263	6.38
232.646	6.27
233.03	8.21
233.413	8.71
233.797	7.95
234.18	3.88
234.563	4.68
234.946	8.92
235.33	7.85
235.713	6.79
236.096	7.17
236.479	7.03
236.862	7.44
237.245	6.56
237.628	6.32
238.011	7.73
238.394	7.29
238.777	9.05
239.16	9.53
239.543	7
239.925	9.06
240.308	7.75
240.691	7.52
241.073	8.53
241.456	7.53
241.838	6.88
242.221	7.26
242.603	7.71
242.986	7.31
243.368	7.78
243.75	8.05
244.133	7.7
244.515	8.62
244.897	8.14
245.279	7.89
245.661	7.29
246.043	5.72
246.425	7.58
246.807	8.05
247.189	8.14
247.571	7.91
247.953	7.35
248.335	7.83
248.717	7.41
249.098	7.72
249.48	7.58
249.862	7.34
250.243	6.93
250.625	7.68
251.006	7.54
251.388	7.44
251.769	7.16
252.151	5.9
252.532	8.11
252.913	8.08
253.295	8.16
253.676	6.47
254.057	6.92
254.438	7.1
254.819	6.59
255.2	6.24
255.581	6.54
255.962	6.15
256.343	5.91
256.724	6.85
257.105	6.38
257.486	5.98
257.867	5.97
258.247	6.05
258.628	6.51
259.009	5.57
259.389	6.78
259.77	6.5
260.15	6.93
260.531	6.98
260.911	7.18
261.292	6.63
261.672	6.79
262.052	6.73
262.432	6.87
262.813	6.65
263.193	6.28
263.573	6.35
263.953	7.44
264.333	7.76
264.713	6.76
265.093	6.28
265.473	6.44
265.853	5.41
266.233	5.39
266.612	5.27
266.992	6.01
267.372	7
267.752	6.92
268.131	5.98
268.511	6.34
268.89	5.6
269.27	6.03
269.649	6.01
270.029	6.34
270.408	6.32
270.787	6.16
271.167	6.48
271.546	5.61
271.925	6.43
272.304	6.24
272.683	5.52
273.062	6.27
273.441	6.29
273.82	5.59
274.199	6.15
274.578	6.56
274.957	6.21
275.336	5.82
275.715	6.51
276.093	5.61
276.472	5.96
276.851	6.3
277.229	5.65
277.608	6.23
277.986	5.55
278.365	5.81
278.743	5.48
279.122	6.56
279.5	6.37
279.878	5.51
280.257	5.65
280.635	5.82
281.013	5.56
281.391	6.4
281.769	6.09
282.147	5.93
282.525	5.79
282.903	5.4
283.281	5.88
283.659	5.89
284.037	6.11
284.415	6.07
284.792	6.12
285.17	5.46
285.548	6.29
285.925	5.27
286.303	5.53
286.68	5.81
287.058	5.75
287.435	5.75
287.813	5.56
288.19	5.58
288.567	5.73
288.945	5.62
289.322	5.52
289.699	5.41
290.076	5.82
290.453	5.95
290.83	5.33
291.207	6.17
291.584	5.27
291.961	5.81
292.338	5.57
292.715	5.32
293.092	5.73
293.469	5.55
293.845	5.18
294.222	5.36
294.599	5.58
294.975	5.09
295.352	5.7
295.728	5.09
296.105	4.95
296.481	5.71
296.858	5.41
297.234	5.42
297.61	5.36
297.986	5.72
298.363	5.52
298.739	5.31
299.115	5.15
299.491	5.24
299.867	5.08
300.243	5.22
300.619	4.93
300.995	5.53
301.371	5.48
301.746	5.02
302.122	5.61
302.498	5.42
302.874	5.45
303.249	5.25
303.625	4.82
304	5.14
304.376	4.85
304.751	5.22
305.127	4.89
305.502	4.98
305.878	4.57
306.253	4.95
306.628	5.09
307.003	5.07
307.378	4.52
307.754	4.9
308.129	4.67
308.504	5.65
308.879	4.7
309.254	4.88
309.629	5.05
310.003	5.3
310.378	5.56
310.753	5.61
311.128	5.46
311.502	4.74
311.877	4.52
312.252	4.51
312.626	4.96
313.001	5.09
313.375	4.84
313.75	5.26
314.124	5.03
314.498	5.5
314.873	5.02
315.247	4.76
315.621	4
315.995	4.9
316.369	4.81
316.743	4.33
317.117	4.66
317.491	4.59
317.865	4.43
318.239	5.19
318.613	4.79
318.987	5.22
319.361	4.6
319.734	4.72
320.108	4.79
320.482	4.39
320.855	4.34
321.229	5.2
321.602	4.74
321.976	4.5
322.349	4.11
322.723	4.61
323.096	3.6
323.469	4.93
323.843	5.68
324.216	4.99
324.589	4.41
324.962	4.96
325.335	5.08
325.708	4.74
326.081	4.84
326.454	4.59
326.827	5.35
327.2	4.62
327.573	4.19
327.945	4.78
328.318	5.08
328.691	4.16
329.063	4.85
329.436	5.03
329.809	4.28
330.181	4.32
330.553	4.01
330.926	4.24
331.298	4.08
331.671	4.7
332.043	4.7
332.415	4.29
332.787	4.91
333.159	5.27
333.532	4.61
333.904	4.39
334.276	4.94
334.648	4.62
335.02	4.48
335.391	4.36
335.763	4.77
336.135	4.92
336.507	4.94
336.879	4.24
337.25	4.25
337.622	4.49
337.993	4.48
338.365	4.52
338.736	4.68
339.108	4.06
339.479	4.42
339.851	4.37
340.222	4.48
340.593	4.7
340.964	4.63
341.336	5.39
341.707	4.67
342.078	3.86
342.449	4.56
342.82	4.8
343.191	4.78
343.562	4.82
343.933	5.26
344.303	4.73
344.674	4.76
345.045	4.38
345.416	4.79
345.786	4.26
346.157	4.79
346.527	5.07
346.898	4.86
347.268	4.65
347.639	5.24
348.009	4.8
348.38	4.53
348.75	5.13
349.12	4.9
349.49	4.41
349.861	4.63
350.231	4.4
350.601	4.84
350.971	4.83
351.341	4.8
351.711	5.08
352.081	5
352.45	4.44
352.82	4.6
353.19	5
353.56	4.45
353.929	4.73
354.299	4.8
354.669	4.47
355.038	4.43
355.408	4.86
355.777	4.82
356.147	4.77
356.516	5.02
356.885	4.8
357.254	4.78
357.624	4.51
357.993	4.87
358.362	5
358.731	5.25
359.1	4.62
359.469	4.85
359.838	4.84
360.207	4.65
360.576	5.13
360.945	5.12
361.314	4.94
361.682	5.15
362.051	5.29
362.42	5.33
362.788	4.93
363.157	5.23
363.525	4.93
363.894	4.92
364.262	5.01
364.631	4.85
364.999	5.01
365.367	5.36
365.735	4.79
366.104	5.11
366.472	4.81
366.84	4.82
367.208	4.99
367.576	5.29
367.944	5.09
368.312	4.85
368.68	5.21
369.048	5.05
369.416	5.11
369.783	5.05
370.151	5.24
370.519	4.93
370.886	5.39
371.254	4.91
371.621	5.32
371.989	5.3
372.356	5.16
372.724	5.04
373.091	5.42
373.458	5.08
373.826	4.99
374.193	4.93
374.56	5.27
374.927	5.3
375.294	5.03
375.661	5.25
376.028	5.17
376.395	5.28
376.762	5.78
377.129	5.48
377.496	5.3
377.863	5.12
378.229	5.39
378.596	5.13
378.963	5.23
379.329	5.07
379.696	4.99
380.062	5.44
380.429	5.42
380.795	5.48
381.161	5.46
381.528	5.64
381.894	5.67
382.26	5.35
382.626	5.52
382.993	5.35
383.359	5.27
383.725	5.16
384.091	5.23
384.457	5.43
384.823	5.15
385.188	5.48
385.554	5.36
385.92	5.59
386.286	5.45
386.651	5.68
387.017	5.74
387.383	5.32
387.748	5.65
388.114	5.76
388.479	5.36
388.845	5.44
389.21	5.38
389.575	5.29
389.94	5.6
390.306	5.55
390.671	5.54
391.036	5.64
391.401	5.54
391.766	5.59
392.131	5.71
392.496	5.31
392.861	5.4
393.226	5.57
393.591	5.46
393.956	5.33
394.32	5.74
394.685	5.51
395.05	5.43
395.414	5.64
395.779	5.39
396.143	5.71
396.508	5.61
396.872	5.74
397.236	5.6
397.601	5.54
397.965	5.48
398.329	5.7
398.694	5.45
399.058	5.83
399.422	5.6
399.786	5.97
400.15	5.38
400.514	5.72
400.878	5.66
401.242	5.66
401.605	5.63
401.969	5.56
402.333	5.6
402.697	5.68
403.06	5.35
403.424	5.87
403.787	5.53
404.151	5.78
404.514	5.48
404.878	5.46
405.241	5.7
405.604	5.78
405.968	5.5
406.331	5.78
406.694	5.94
407.057	5.45
407.42	5.77
407.783	5.6
408.146	5.76
408.509	5.75
408.872	5.76
409.235	5.72
409.598	5.74
409.961	5.56
410.323	5.83
410.686	5.67
411.049	5.75
411.411	5.73
411.774	5.95
412.136	5.98
412.499	5.79
412.861	5.87
413.223	6.17
413.586	5.8
413.948	5.68
414.31	5.81
414.672	5.91
415.035	5.73
415.397	5.81
415.759	5.5
416.121	5.79
416.483	5.99
416.845	5.71
417.206	5.95
417.568	5.73
417.93	6.1
418.292	5.83
418.653	6.1
419.015	5.77
419.377	5.88
419.738	5.77
420.1	5.82
420.461	5.89
420.822	5.88
421.184	5.82
421.545	6.05
421.906	5.84
422.267	5.84
422.629	5.81
422.99	5.88
423.351	5.85
423.712	5.87
424.073	5.91
424.434	5.92
424.795	5.84
425.155	5.75
425.516	5.83
425.877	5.83
426.238	5.96
426.598	5.9
426.959	5.92
427.32	5.91
427.68	5.82
428.041	6.09
428.401	5.85
428.761	5.98
429.122	5.97
429.482	6.03
429.842	5.85
430.202	5.94
430.563	5.9
430.923	6.16
431.283	5.8
431.643	6.03
432.003	6
432.363	5.92
432.722	5.98
433.082	5.96
433.442	6.01
433.802	6.08
434.161	6.12
434.521	6
434.881	5.99
435.24	6.12
435.6	6.07
435.959	6.08
436.319	6.07
436.678	6.17
437.037	5.91
437.396	5.84
437.756	5.95
438.115	6.09
438.474	5.84
438.833	6.18
439.192	6.1
439.551	5.93
439.91	5.89
440.269	5.93
440.628	5.88
440.987	5.91
441.345	6.11
441.704	6.07
442.063	6.08
442.421	6.04
442.78	6.11
443.138	6.06
443.497	6.11
443.855	6.09
444.214	6.1
444.572	6.08
444.93	5.96
445.288	5.9
445.647	6.24
446.005	6.02
446.363	6.06
446.721	6.07
447.079	5.97
447.437	5.94
447.795	6.11
448.153	6.07
448.51	6.13
448.868	6.03
449.226	6.1
449.584	6.02
449.941	6.14
450.299	6.16
450.656	6.1
451.014	6.11
451.371	6.14
451.729	6.2
452.086	6.08
452.443	6.19
452.801	5.94
453.158	6.01
453.515	6.19
453.872	6.24
454.229	6.22
454.586	5.95
454.943	6.2
455.3	6.12
455.657	6.19
456.014	6.25
456.371	6.14
456.727	6.25
457.084	6.22
457.441	6.15
457.797	6.19
458.154	5.88
458.51	6.02
458.867	6.41
459.223	6.14
459.58	6.06
459.936	6.18
460.292	6.13
460.648	6.17
461.005	6.14
461.361	6.11
461.717	6.19
462.073	6.04
462.429	6.05
462.785	6.04
463.141	6.13
463.496	6.07
463.852	6.34
464.208	6.14
464.564	6.22
464.919	6.31
465.275	6.28
465.631	6.42
465.986	6.21
466.342	6.16
466.697	6.27
467.052	6.46
467.408	6.25
467.763	6.26
468.118	6.31
468.473	6.24
468.829	6.2
469.184	6.11
469.539	6.37
469.894	6.47
470.249	6.42
470.603	6.17
470.958	6.08
471.313	6.52
471.668	6.36
472.023	6.07
472.377	6.05
472.732	6.38
473.086	6.19
473.441	6.29
473.795	6.28
474.15	6.39
474.504	6.34
474.859	6.28
475.213	6.23
475.567	6.15
475.921	6.37
476.275	6.23
476.63	6.31
476.984	6.44
477.338	6.15
477.692	6.37
478.045	6.37
478.399	6.24
478.753	6.23
479.107	6.19
479.461	6.32
479.814	6.35
480.168	6.14
480.521	6.14
480.875	6.11
481.228	6.36
481.582	6.27
481.935	6.23
482.289	6.4
482.642	6.33
482.995	6.31
483.348	6.11
483.701	6.32
484.055	6.17
484.408	6.13
484.761	6.14
485.114	6.04
485.466	6.01
485.819	5.94
486.172	5.97
486.525	5.99
486.878	6.05
487.23	6.06
487.583	6.02
487.936	6.23
488.288	6.09
488.641	6.08
488.993	6.1
489.345	6.1
489.698	6
490.05	6.03
490.402	6.05
490.754	6.04
491.107	6.1
491.459	6.11
491.811	6.34
492.163	6.16
492.515	6.2
492.866	6.05
493.218	6.05
493.57	6.05
493.922	6
494.274	6.13
494.625	6.18
494.977	6.28
495.328	6.22
495.68	6.23
496.031	6.23
496.383	6.33
496.734	6.29
497.086	6.27
497.437	6.18
497.788	6.28
498.139	6.32
498.49	6.3
498.842	6.25
499.193	6.26
499.544	6.28
499.894	6.21
500.245	6.34
500.596	6.27
500.947	6.24
501.298	6.31
501.648	6.36
501.999	6.27
502.35	6.3
502.7	6.35
503.051	6.18
503.401	6.25
503.752	6.49
504.102	6.3
504.452	6.28
504.803	6.44
505.153	6.34
505.503	6.4
505.853	6.36
506.203	6.37
506.553	6.26
506.903	6.28
507.253	6.36
507.603	6.38
507.953	6.26
508.303	6.37
508.652	6.34
509.002	6.35
509.352	6.32
509.701	6.32
510.051	6.3
510.4	6.18
510.75	6.27
511.099	6.24
511.449	6.33
511.798	6.23
512.147	6.28
512.496	6.28
512.846	6.24
513.195	6.26
513.544	6.34
513.893	6.34
514.242	6.15
514.591	6.21
514.939	6.25
515.288	6.17
515.637	6.22
515.986	6.26
516.334	6.39
516.683	6.22
517.032	6.25
517.38	6.22
517.729	6.45
518.077	6.15
518.426	6.33
518.774	6.21
519.122	6.17
519.47	6.25
519.819	6.2
520.167	6.07
520.515	6.15
520.863	6.18
521.211	6.13
521.559	6.23
521.907	6.21
522.255	6.19
522.602	6.29
522.95	6.18
523.298	6.26
523.645	6.45
523.993	6.23
524.341	6.22
524.688	6.11
525.036	6.2
525.383	6.24
525.73	6.26
526.078	6.24
526.425	6.12
526.772	6.15
527.119	6.21
527.466	6.14
527.814	6.18
528.161	6.19
528.508	6.25
528.854	6.03
529.201	6.16
529.548	6.07
529.895	6.01
530.242	5.94
530.588	5.92
530.935	5.97
531.282	5.97
531.628	5.98
531.975	6.03
532.321	6.05
532.667	6.07
533.014	6.14
533.36	6.14
533.706	6.13
534.052	6.07
534.399	6.04
534.745	6
535.091	5.97
535.437	6.06
535.783	6.01
536.129	6.09
536.474	6.09
536.82	6.16
537.166	6.11
537.512	6.21
537.857	6.2
538.203	6.17
538.549	6.11
538.894	6.07
539.239	6.09
539.585	6.08
539.93	6.24
540.276	6.17
540.621	6.07
540.966	6.12
541.311	6.17
541.656	6.14
542.001	6.1
542.346	6.04
542.691	6.09
543.036	5.92
543.381	5.8
543.726	5.96
544.071	5.98
544.415	5.97
544.76	6.01
545.105	6.07
545.449	6.08
545.794	6.18
546.138	5.92
546.483	6.22
546.827	6.14
547.171	6.08
547.516	6.13
547.86	6.21
548.204	6.12
548.548	6.09
548.892	6
549.236	6.1
549.58	6.13
549.924	6.07
550.268	6.16
550.612	5.98
550.956	6.19
551.3	6.09
551.643	6.1
551.987	6.31
552.33	6.24
552.674	6.14
553.017	6.28
553.361	6.28
553.704	6.05
554.048	6.22
554.391	6.14
554.734	6.1
555.077	6.07
555.42	6.02
555.764	6.01
556.107	5.96
556.45	5.74
556.793	6.01
557.135	6.11
557.478	5.99
557.821	6.12
558.164	5.98
558.507	6.19
558.849	6.08
559.192	6.17
559.534	6.17
559.877	6.15
560.219	5.97
560.562	6.1
560.904	6.05
561.246	5.99
561.589	6.02
561.931	5.92
562.273	5.94
562.615	5.87
562.957	6.07
563.299	6.13
563.641	5.9
563.983	5.95
564.325	6.13
564.667	5.94
565.008	5.85
565.35	5.95
565.692	6.01
566.033	5.98
566.375	5.87
566.716	5.92
567.058	5.95
567.399	6.07
567.741	6.09
568.082	5.97
568.423	6.04
568.764	5.85
569.105	5.84
569.447	6.01
569.788	5.93
570.129	5.72
570.47	6.01
570.811	5.85
571.151	6.21
571.492	6.01
571.833	6.1
572.174	5.89
572.514	5.96
572.855	5.92
573.195	5.93
573.536	5.72
573.876	5.88
574.217	5.77
574.557	5.84
574.898	5.91
575.238	5.85
575.578	5.76
575.918	5.86
576.258	5.94
576.598	5.84
576.938	5.88
577.278	5.89
577.618	5.96
577.958	5.96
578.298	5.97
578.638	5.71
578.977	5.77
579.317	5.87
579.657	5.68
579.996	5.78
580.336	5.93
580.675	5.73
581.014	5.82
581.354	5.84
581.693	5.9
582.032	5.69
582.372	5.98
582.711	5.67
583.05	5.86
583.389	5.84
583.728	5.98
584.067	5.97
584.406	6.15
584.745	6.01
585.083	5.68
585.422	5.88
585.761	5.74
586.1	5.73
586.438	5.81
586.777	5.91
587.115	5.7
587.454	5.82
587.792	5.62
588.13	5.88
588.469	5.7
588.807	5.81
589.145	5.52
589.483	5.77
589.821	5.96
590.159	5.64
590.497	5.77
590.835	5.76
591.173	5.67
591.511	5.62
591.849	5.62
592.187	5.61
592.524	5.62
592.862	5.74
593.2	5.4
593.537	5.49
593.875	5.7
594.212	5.63
594.55	5.58
594.887	5.95
595.224	5.54
595.561	5.95
595.899	5.64
596.236	5.9
596.573	5.65
596.91	5.88
597.247	5.62
597.584	5.89
597.921	5.59
598.258	5.71
598.594	5.82
598.931	5.79
599.268	5.58
599.604	5.6
599.941	5.66
600.277	5.68
600.614	5.78
600.95	5.74
601.287	5.64
601.623	5.69
601.959	5.43
602.296	5.61
602.632	5.48
602.968	5.77
603.304	5.38
603.64	5.7
603.976	5.56
604.312	5.67
604.648	5.73
604.984	5.6
605.319	5.49
605.655	5.54
605.991	5.73
606.326	5.47
606.662	5.45
606.998	5.45
607.333	5.56
607.668	5.67
608.004	5.52
608.339	5.69
608.674	5.63
609.01	5.35
609.345	5.63
609.68	5.39
610.015	5.25
610.35	5.47
610.685	5.53
611.02	5.69
611.355	5.32
611.689	5.56
612.024	5.36
612.359	5.61
612.694	5.32
613.028	5.43
613.363	5.21
613.697	5.49
614.032	5.56
614.366	5.88
614.7	5.27
615.035	5.28
615.369	5.37
615.703	5.28
616.037	5.37
616.371	5.31
616.705	5.4
617.039	5.38
617.373	5.56
617.707	5.06
618.041	5.42
618.375	5.26
618.709	5.37
619.042	5.23
619.376	5.06
619.71	5.25
620.043	5.26
620.377	5.66
620.71	4.87
621.043	4.95
621.377	4.92
621.71	5.4
622.043	5.3
622.376	5.65
622.709	5.34
623.043	5.17
623.376	5.73
623.709	5.43
624.041	5.49
624.374	5.11
624.707	5.14
625.04	5.29
625.373	5.65
625.705	5.29
626.038	4.98
626.37	5.35
626.703	5.69
627.035	5.1
627.368	5.46
627.7	5.42
628.032	5.5
628.365	5.17
628.697	5.25
629.029	5.22
629.361	5.31
629.693	5.27
630.025	5.03
630.357	5.41
630.689	5.21
631.021	5.19
631.353	5.68
631.684	5.28
632.016	5.12
632.348	5.25
632.679	5.12
633.011	5.39
633.342	5.37
633.674	5.29
634.005	5.37
634.336	5.22
634.668	5.41
634.999	5.38
635.33	5.39
635.661	4.98
635.992	5.16
636.323	4.91
636.654	5.15
636.985	5.26
637.316	5.2
637.647	5.41
637.977	5.18
638.308	5.3
638.639	4.99
638.969	5.33
639.3	5.24
639.63	5.34
639.961	5.21
640.291	4.85
640.622	4.87
640.952	5.05
641.282	5.64
641.612	5.44
641.943	4.88
642.273	5.42
642.603	5.89
642.933	4.95
643.263	4.71
643.592	5.35
643.922	5.63
644.252	5.57
644.582	4.83
644.911	5.19
645.241	4.34
645.571	5.5
645.9	4.95
646.23	5.15
646.559	5.29
646.888	5.11
647.218	5.44
647.547	5.29
647.876	5.22
648.205	4.93
648.534	5.15
648.863	5.31
649.192	5.06
649.521	5.57
649.85	4.85
650.179	5.18
650.508	5.62
650.837	5.29
651.165	4.49
651.494	5.26
651.822	4.88
652.151	4.73
652.479	5.36
652.808	5.22
653.136	5.42
653.465	5.44
653.793	5.28
654.121	5.21
654.449	5.15
654.777	5.27
655.105	4.93
655.433	5.43
655.761	4.98
656.089	4.87
656.417	5.4
656.745	4.92
657.073	4.87
657.4	5.18
657.728	4.6
658.056	5
658.383	4.85
658.711	5.21
659.038	4.58
659.365	4.87
659.693	4.84
660.02	4.89
660.347	5.25
660.674	4.89
661.001	5.11
661.329	5.12
661.656	4.84
661.982	5.12
662.309	5.37
662.636	5.05
662.963	4.78
663.29	5.23
663.616	5.04
663.943	5.56
664.27	5.61
664.596	5.42
664.923	5.75
665.249	4.73
665.576	4.88
665.902	5.15
666.228	5.31
666.554	4.76
666.881	3.92
667.207	4.99
667.533	4.81
667.859	4.98
668.185	5.26
668.511	5.19
668.837	5.03
669.162	5.98
669.488	4.7
669.814	5.64
670.139	4.15
670.465	4.65
670.791	4.34
671.116	4.68
671.442	4.63
671.767	5.2
672.092	5.85
672.418	4.69
672.743	4.81
673.068	4.28
673.393	4.67
673.718	4.79
674.043	5.02
674.368	3.9
674.693	5.09
675.018	4.61
675.343	4.89
675.667	4.82
675.992	4.87
676.317	4.91
676.641	5.01
676.966	4.82
677.29	4.36
677.615	4.56
677.939	4.97
678.264	4.26
678.588	5
678.912	4.54
679.236	4.42
679.56	4.63
679.885	4.91
680.209	5.31
680.532	4.87
680.856	4.84
681.18	5.05
681.504	4.89
681.828	5.12
682.152	4.56
682.475	4.78
682.799	5.3
683.122	5
683.446	4.51
683.769	5.62
684.093	3.98
684.416	4.7
684.739	5.15
685.062	4.82
685.386	5.23
685.709	4.6
686.032	5.02
686.355	4.52
686.678	5.21
687.001	5.1
687.324	4.47
687.646	4.91
687.969	3.93
688.292	5.3
688.614	5.14
688.937	4.63
689.26	4.33
689.582	4.35
689.904	5.18
690.227	4.65
690.549	5.12
690.871	4.17
691.194	5.08
691.516	5.18
691.838	4.88
692.16	5.18
