Data from 0402_chest_Reflection__4__217.txt Node

Date: Tue Dec 12 20:10:35 CST 2023
User: ToomeyLab
Spectrometer: FLMS14357
Trigger mode: 0
Integration Time (sec): 1.000000E-2
Scans to average: 100
Electric dark correction enabled: true
Nonlinearity correction enabled: false
Boxcar width: 0
XAxis mode: Wavelengths
Number of Pixels in Spectrum: 2048
>>>>>Begin Spectral Data<<<<<
189.047	-56.7
189.435	-56.7
189.823	-56.7
190.211	-2427.63
190.599	363.83
190.987	181.46
191.375	59.64
191.763	1240.15
192.151	178.63
192.538	-160.64
192.926	152.49
193.314	115.73
193.702	-16.27
194.089	-58.87
194.477	-192.2
194.864	93.45
195.252	50.8
195.639	27.56
196.027	-75.61
196.414	44.28
196.801	641.75
197.189	-116.1
197.576	1455.61
197.963	19.02
198.351	45.44
198.738	55.16
199.125	-1.43
199.512	-91.16
199.899	51.89
200.286	-3.76
200.673	11.64
201.06	-10.92
201.447	-57.92
201.833	16.39
202.22	-32.48
202.607	-281.7
202.994	-27.66
203.38	-24.94
203.767	6.45
204.154	-21.3
204.54	25.51
204.927	-45.19
205.313	22.13
205.699	-2.66
206.086	56.01
206.472	49.65
206.858	8.48
207.245	-21.79
207.631	-1.17
208.017	28.29
208.403	-123.19
208.789	2.57
209.175	-30.59
209.561	3.28
209.947	7.18
210.333	22.8
210.719	-25.01
211.105	3.43
211.491	29.67
211.876	20.44
212.262	11.01
212.648	-40.41
213.034	-49.45
213.419	10.85
213.805	-7.66
214.19	16.1
214.576	9.22
214.961	43.52
215.346	-13.58
215.732	23.22
216.117	0.3
216.502	2.62
216.888	-2.42
217.273	-1.79
217.658	-16.65
218.043	0.2
218.428	13.11
218.813	-0.42
219.198	-74.31
219.583	18.4
219.968	18.33
220.353	1.96
220.738	12.2
221.122	-2.04
221.507	-17.73
221.892	-22.52
222.276	-1.79
222.661	2.64
223.046	-11.47
223.43	12.19
223.815	3.08
224.199	16.74
224.583	2.96
224.968	-3.21
225.352	-6.73
225.736	4.29
226.121	-4.75
226.505	-1.96
226.889	1.02
227.273	-7.63
227.657	8.15
228.041	6.69
228.425	3.3
228.809	-0.41
229.193	0.48
229.577	3.02
229.961	0.53
230.344	2.04
230.728	3.12
231.112	2.68
231.495	2.57
231.879	3.07
232.263	1.43
232.646	1.34
233.03	2.45
233.413	0.85
233.797	0.69
234.18	0.63
234.563	-0.45
234.946	2.24
235.33	4.88
235.713	2.72
236.096	1.99
236.479	0.84
236.862	3.12
237.245	2.15
237.628	2.45
238.011	2.08
238.394	0.43
238.777	1.61
239.16	2.02
239.543	2.12
239.925	3.74
240.308	4.3
240.691	0.78
241.073	3.19
241.456	1.81
241.838	2.16
242.221	2.42
242.603	2.34
242.986	2.33
243.368	2.53
243.75	2.6
244.133	2.46
244.515	2.88
244.897	2.95
245.279	2.36
245.661	1.74
246.043	3.35
246.425	3.37
246.807	2.77
247.189	3.21
247.571	3.17
247.953	2.41
248.335	2.7
248.717	2.45
249.098	2.59
249.48	2.44
249.862	2.21
250.243	2.46
250.625	2.76
251.006	2.1
251.388	2.63
251.769	2.92
252.151	1.79
252.532	1.86
252.913	2.76
253.295	3.02
253.676	2.29
254.057	1.94
254.438	2.92
254.819	2.01
255.2	2.1
255.581	3.31
255.962	0.55
256.343	2.1
256.724	2.41
257.105	4.06
257.486	1.83
257.867	1.53
258.247	2.67
258.628	3.22
259.009	1.48
259.389	1.74
259.77	2.22
260.15	2.32
260.531	2.65
260.911	2.6
261.292	1.9
261.672	2.42
262.052	2.62
262.432	2.54
262.813	2.43
263.193	2.16
263.573	2.44
263.953	3.57
264.333	3.43
264.713	1.93
265.093	2.5
265.473	2.77
265.853	2.08
266.233	1.88
266.612	1.86
266.992	1.65
267.372	2.36
267.752	2.97
268.131	1.8
268.511	1.93
268.89	1.3
269.27	2.3
269.649	2.13
270.029	2.03
270.408	2.33
270.787	1.96
271.167	1.52
271.546	2.67
271.925	2.57
272.304	2.75
272.683	1.6
273.062	2.09
273.441	2.49
273.82	2.09
274.199	2.07
274.578	1.75
274.957	2.02
275.336	1.99
275.715	2.05
276.093	1.34
276.472	2.24
276.851	2.87
277.229	1.83
277.608	2.08
277.986	2.27
278.365	2.69
278.743	1.88
279.122	2.48
279.5	1.49
279.878	2.03
280.257	1.46
280.635	2.45
281.013	1.63
281.391	2
281.769	1.87
282.147	1.75
282.525	1.17
282.903	1.96
283.281	2.25
283.659	1.97
284.037	2.63
284.415	1.92
284.792	2.46
285.17	1.98
285.548	2.31
285.925	2.29
286.303	1.68
286.68	2.1
287.058	2.92
287.435	2.51
287.813	2.2
288.19	2.33
288.567	2.14
288.945	2.45
289.322	1.7
289.699	2.49
290.076	1.83
290.453	2.29
290.83	2.05
291.207	2.7
291.584	2.21
291.961	2.19
292.338	2.11
292.715	2.05
293.092	2.37
293.469	2.2
293.845	2.34
294.222	2.3
294.599	3.12
294.975	2.08
295.352	2.58
295.728	2.59
296.105	2.22
296.481	2.57
296.858	2.21
297.234	2.63
297.61	2.55
297.986	2.45
298.363	2.37
298.739	2.37
299.115	2.1
299.491	2.67
299.867	2.47
300.243	2.23
300.619	2.39
300.995	2.66
301.371	2.02
301.746	2.34
302.122	2.95
302.498	2.32
302.874	2.57
303.249	3.06
303.625	2.25
304	2.73
304.376	2.23
304.751	2.35
305.127	3.06
305.502	2.67
305.878	2.56
306.253	2.94
306.628	2.84
307.003	2.2
307.378	2.36
307.754	2.9
308.129	2.46
308.504	3.22
308.879	2.7
309.254	3.07
309.629	2.56
310.003	2.89
310.378	2.62
310.753	2.82
311.128	3.16
311.502	2.51
311.877	2.42
312.252	2.56
312.626	2.16
313.001	2.13
313.375	2.35
313.75	3.14
314.124	2.61
314.498	2.83
314.873	2.41
315.247	2.74
315.621	2.71
315.995	2.79
316.369	3.17
316.743	3.22
317.117	2.28
317.491	2.58
317.865	3.16
318.239	2.88
318.613	2.92
318.987	2.94
319.361	2.51
319.734	2.45
320.108	2.95
320.482	3.11
320.855	2.31
321.229	2.94
321.602	2.57
321.976	3.03
322.349	2.72
322.723	2.33
323.096	3.07
323.469	2.58
323.843	4.04
324.216	2.99
324.589	3.21
324.962	3.1
325.335	3.05
325.708	2.88
326.081	3.16
326.454	2.81
326.827	3.21
327.2	2.25
327.573	2.75
327.945	2.91
328.318	2.7
328.691	2.85
329.063	2.85
329.436	3
329.809	2.66
330.181	2.21
330.553	2.97
330.926	2.86
331.298	2.81
331.671	3.08
332.043	2.58
332.415	3.03
332.787	2.79
333.159	2.79
333.532	2.66
333.904	3.05
334.276	3.28
334.648	2.5
335.02	2.71
335.391	3.03
335.763	3.02
336.135	3.03
336.507	3.49
336.879	2.63
337.25	3.11
337.622	2.68
337.993	2.64
338.365	2.91
338.736	3.23
339.108	2.37
339.479	2.93
339.851	2.43
340.222	2.62
340.593	2.67
340.964	3.07
341.336	3.05
341.707	2.8
342.078	2.62
342.449	2.55
342.82	2.9
343.191	2.99
343.562	2.82
343.933	3.36
344.303	2.96
344.674	3.32
345.045	2.86
345.416	3.16
345.786	2.56
346.157	2.61
346.527	3.61
346.898	2.66
347.268	2.78
347.639	2.93
348.009	3.07
348.38	2.81
348.75	3.71
349.12	2.97
349.49	2.71
349.861	3.63
350.231	3
350.601	3.3
350.971	3.22
351.341	3.17
351.711	3.04
352.081	3
352.45	2.65
352.82	2.94
353.19	3.01
353.56	2.52
353.929	2.67
354.299	2.45
354.669	2.96
355.038	2.45
355.408	2.74
355.777	3.63
356.147	2.9
356.516	2.65
356.885	2.48
357.254	2.86
357.624	3.08
357.993	3.05
358.362	2.76
358.731	2.95
359.1	2.9
359.469	2.79
359.838	3.03
360.207	3.07
360.576	3.34
360.945	2.52
361.314	3.11
361.682	2.73
362.051	3.08
362.42	3.08
362.788	2.71
363.157	3.24
363.525	2.85
363.894	2.7
364.262	2.85
364.631	2.43
364.999	3.15
365.367	2.98
365.735	2.86
366.104	2.69
366.472	2.52
366.84	2.93
367.208	2.99
367.576	2.88
367.944	3.16
368.312	2.88
368.68	2.99
369.048	3.05
369.416	3.28
369.783	3.13
370.151	3.16
370.519	3.02
370.886	3.14
371.254	2.71
371.621	3.21
371.989	2.54
372.356	2.87
372.724	2.88
373.091	2.58
373.458	3.11
373.826	2.97
374.193	2.77
374.56	2.98
374.927	3.2
375.294	2.76
375.661	3.35
376.028	2.99
376.395	3.04
376.762	3.53
377.129	3.25
377.496	3.07
377.863	2.86
378.229	3.11
378.596	2.93
378.963	3.21
379.329	2.83
379.696	2.82
380.062	3.09
380.429	2.83
380.795	3.29
381.161	3.03
381.528	3.15
381.894	3.27
382.26	2.96
382.626	2.96
382.993	2.92
383.359	3.03
383.725	2.65
384.091	2.89
384.457	2.9
384.823	2.99
385.188	2.8
385.554	3.15
385.92	2.96
386.286	3.22
386.651	3.07
387.017	3.24
387.383	3.26
387.748	2.94
388.114	3.03
388.479	3.04
388.845	3.14
389.21	3.01
389.575	2.79
389.94	2.97
390.306	3.16
390.671	3.25
391.036	3.2
391.401	3.31
391.766	3.44
392.131	3.03
392.496	3.13
392.861	2.85
393.226	3.26
393.591	2.82
393.956	3.02
394.32	2.94
394.685	3.33
395.05	2.86
395.414	3.08
395.779	3.28
396.143	3.38
396.508	2.98
396.872	3.13
397.236	3.21
397.601	3.36
397.965	2.98
398.329	3.3
398.694	3.23
399.058	3.46
399.422	3.01
399.786	3.3
400.15	3.05
400.514	3.4
400.878	3.04
401.242	3.09
401.605	3.51
401.969	3.19
402.333	3.27
402.697	3.15
403.06	2.92
403.424	3.3
403.787	2.95
404.151	3.33
404.514	3.01
404.878	3.06
405.241	3.36
405.604	2.8
405.968	3.13
406.331	3.29
406.694	3.51
407.057	2.99
407.42	3.12
407.783	3.23
408.146	3.2
408.509	3.16
408.872	3.28
409.235	2.9
409.598	3.12
409.961	3.14
410.323	3.39
410.686	3.39
411.049	3.36
411.411	3.39
411.774	3.31
412.136	3.38
412.499	3.19
412.861	3.12
413.223	3.52
413.586	3.33
413.948	3.46
414.31	3.53
414.672	3.39
415.035	3.38
415.397	3.27
415.759	3.18
416.121	3.12
416.483	3.31
416.845	3.26
417.206	3.34
417.568	3.1
417.93	3.29
418.292	3.15
418.653	3.36
419.015	3.27
419.377	3.25
419.738	3.36
420.1	3.28
420.461	3.35
420.822	3.33
421.184	3.28
421.545	3.46
421.906	3.26
422.267	3.26
422.629	3.26
422.99	3.33
423.351	3.33
423.712	3.24
424.073	3.34
424.434	3.31
424.795	3.48
425.155	3.22
425.516	3.25
425.877	3.37
426.238	3.28
426.598	3.3
426.959	3.38
427.32	3.31
427.68	3.43
428.041	3.38
428.401	3.27
428.761	3.42
429.122	3.43
429.482	3.72
429.842	3.42
430.202	3.36
430.563	3.43
430.923	3.43
431.283	3.39
431.643	3.48
432.003	3.44
432.363	3.68
432.722	3.41
433.082	3.47
433.442	3.57
433.802	3.57
434.161	3.46
434.521	3.5
434.881	3.56
435.24	3.46
435.6	3.52
435.959	3.58
436.319	3.67
436.678	3.65
437.037	3.49
437.396	3.35
437.756	3.46
438.115	3.49
438.474	3.55
438.833	3.81
439.192	3.75
439.551	3.42
439.91	3.57
440.269	3.56
440.628	3.43
440.987	3.35
441.345	3.69
441.704	3.48
442.063	3.52
442.421	3.47
442.78	3.51
443.138	3.53
443.497	3.61
443.855	3.51
444.214	3.67
444.572	3.65
444.93	3.76
445.288	3.45
445.647	3.67
446.005	3.44
446.363	3.52
446.721	3.5
447.079	3.62
447.437	3.46
447.795	3.66
448.153	3.6
448.51	3.61
448.868	3.56
449.226	3.59
449.584	3.62
449.941	3.6
450.299	3.58
450.656	3.61
451.014	3.6
451.371	3.53
451.729	3.7
452.086	3.6
452.443	3.76
452.801	3.7
453.158	3.6
453.515	3.86
453.872	3.84
454.229	3.82
454.586	3.64
454.943	3.68
455.3	3.78
455.657	3.54
456.014	3.76
456.371	3.79
456.727	3.81
457.084	3.74
457.441	3.73
457.797	3.81
458.154	3.81
458.51	3.63
458.867	3.75
459.223	4
459.58	3.76
459.936	3.56
460.292	3.84
460.648	3.74
461.005	3.64
461.361	3.65
461.717	3.78
462.073	3.67
462.429	3.68
462.785	3.72
463.141	3.85
463.496	3.66
463.852	3.87
464.208	3.86
464.564	3.91
464.919	3.91
465.275	3.93
465.631	4.04
465.986	3.87
466.342	3.68
466.697	4.11
467.052	4
467.408	3.99
467.763	3.88
468.118	3.78
468.473	3.92
468.829	3.98
469.184	3.65
469.539	3.99
469.894	4.04
470.249	3.91
470.603	3.94
470.958	3.91
471.313	4.13
471.668	4.25
472.023	3.97
472.377	3.94
472.732	3.88
473.086	4.02
473.441	4.27
473.795	4.13
474.15	4.02
474.504	3.86
474.859	4.08
475.213	3.78
475.567	4.04
475.921	4.07
476.275	3.88
476.63	4.01
476.984	4.03
477.338	3.94
477.692	3.97
478.045	4.12
478.399	3.97
478.753	3.98
479.107	4.09
479.461	4.03
479.814	4.02
480.168	3.87
480.521	3.93
480.875	4.09
481.228	4.08
481.582	4.17
481.935	4.04
482.289	4.15
482.642	4.22
482.995	4.02
483.348	4.13
483.701	4.21
484.055	4
484.408	3.99
484.761	4.05
485.114	3.95
485.466	3.87
485.819	3.87
486.172	3.86
486.525	3.88
486.878	3.98
487.23	3.97
487.583	4.02
487.936	4.03
488.288	4.08
488.641	4.1
488.993	4.04
489.345	4.02
489.698	3.99
490.05	4.02
490.402	4
490.754	4.08
491.107	4.12
491.459	4.18
491.811	4.21
492.163	4.12
492.515	4.15
492.866	4.14
493.218	4.09
493.57	4.11
493.922	4.04
494.274	4.12
494.625	4.28
494.977	4.22
495.328	4.32
495.68	4.24
496.031	4.45
496.383	4.38
496.734	4.36
497.086	4.28
497.437	4.34
497.788	4.38
498.139	4.4
498.49	4.61
498.842	4.4
499.193	4.5
499.544	4.34
499.894	4.46
500.245	4.4
500.596	4.46
500.947	4.47
501.298	4.57
501.648	4.56
501.999	4.54
502.35	4.48
502.7	4.52
503.051	4.52
503.401	4.49
503.752	4.74
504.102	4.56
504.452	4.54
504.803	4.65
505.153	4.64
505.503	4.7
505.853	4.66
506.203	4.56
506.553	4.43
506.903	4.53
507.253	4.64
507.603	4.82
507.953	4.72
508.303	4.71
508.652	4.68
509.002	4.72
509.352	4.68
509.701	4.72
510.051	4.76
510.4	4.68
510.75	4.64
511.099	4.62
511.449	4.72
511.798	4.68
512.147	4.78
512.496	4.83
512.846	4.84
513.195	4.75
513.544	4.87
513.893	4.89
514.242	4.79
514.591	4.75
514.939	4.8
515.288	4.75
515.637	4.71
515.986	4.91
516.334	4.92
516.683	4.84
517.032	5.03
517.38	4.91
517.729	4.91
518.077	4.89
518.426	5.11
518.774	4.99
519.122	5.11
519.47	4.96
519.819	4.95
520.167	4.97
520.515	4.9
520.863	4.98
521.211	4.96
521.559	4.91
521.907	4.99
522.255	5.06
522.602	5.23
522.95	5.03
523.298	5.12
523.645	5.26
523.993	5.16
524.341	5.14
524.688	5.2
525.036	5.21
525.383	5.15
525.73	5.2
526.078	5.27
526.425	5.08
526.772	5.14
527.119	5.14
527.466	5.19
527.814	5.17
528.161	5.17
528.508	5.34
528.854	5.24
529.201	5.24
529.548	5.31
529.895	5.16
530.242	5.1
530.588	5.11
530.935	5.17
531.282	5.15
531.628	5.18
531.975	5.21
532.321	5.3
532.667	5.26
533.014	5.39
533.36	5.34
533.706	5.37
534.052	5.39
534.399	5.4
534.745	5.44
535.091	5.38
535.437	5.41
535.783	5.33
536.129	5.45
536.474	5.54
536.82	5.5
537.166	5.62
537.512	5.65
537.857	5.63
538.203	5.61
538.549	5.67
538.894	5.68
539.239	5.56
539.585	5.77
539.93	5.81
540.276	5.72
540.621	5.82
540.966	5.89
541.311	5.87
541.656	5.89
542.001	5.81
542.346	5.8
542.691	5.78
543.036	5.78
543.381	5.7
543.726	5.76
544.071	5.75
544.415	5.73
544.76	5.91
545.105	5.91
545.449	6.07
545.794	6.02
546.138	5.95
546.483	6
546.827	6.25
547.171	6.2
547.516	6.08
547.86	6.21
548.204	6.25
548.548	6.23
548.892	6.23
549.236	6.2
549.58	6.3
549.924	6.2
550.268	6.25
550.612	6.28
550.956	6.51
551.3	6.54
551.643	6.48
551.987	6.55
552.33	6.71
552.674	6.65
553.017	6.8
553.361	6.69
553.704	6.64
554.048	6.62
554.391	6.72
554.734	6.77
555.077	6.96
555.42	6.64
555.764	6.89
556.107	6.77
556.45	6.66
556.793	6.83
557.135	6.98
557.478	6.85
557.821	6.94
558.164	6.92
558.507	7.01
558.849	7
559.192	7.02
559.534	7.26
559.877	7.18
560.219	7.17
560.562	7.09
560.904	7.17
561.246	7.13
561.589	7.23
561.931	7.15
562.273	7.43
562.615	7.22
562.957	7.31
563.299	7.28
563.641	7.39
563.983	7.2
564.325	7.41
564.667	7.5
565.008	7.2
565.35	7.45
565.692	7.5
566.033	7.54
566.375	7.74
566.716	7.41
567.058	7.6
567.399	7.53
567.741	7.69
568.082	7.65
568.423	7.71
568.764	7.69
569.105	7.6
569.447	7.69
569.788	7.78
570.129	7.79
570.47	7.79
570.811	7.94
571.151	7.98
571.492	7.97
571.833	7.96
572.174	7.88
572.514	8.03
572.855	7.84
573.195	7.83
573.536	7.99
573.876	8.12
574.217	7.95
574.557	8.08
574.898	8.29
575.238	8.32
575.578	8.13
575.918	8.21
576.258	8.35
576.598	8.29
576.938	8.34
577.278	8.4
577.618	8.46
577.958	8.63
578.298	8.41
578.638	8.51
578.977	8.43
579.317	8.47
579.657	8.6
579.996	8.8
580.336	8.68
580.675	8.76
581.014	8.86
581.354	8.83
581.693	8.8
582.032	8.67
582.372	8.94
582.711	9.08
583.05	9.12
583.389	9.19
583.728	9.18
584.067	9.15
584.406	9.35
584.745	9.39
585.083	9.27
585.422	9.27
585.761	9.59
586.1	9.26
586.438	9.66
586.777	9.33
587.115	9.12
587.454	9.49
587.792	9.23
588.13	9.54
588.469	9.51
588.807	9.46
589.145	9.66
589.483	9.69
589.821	9.75
590.159	9.57
590.497	9.77
590.835	9.81
591.173	9.61
591.511	9.8
591.849	9.82
592.187	9.8
592.524	9.59
592.862	9.72
593.2	9.6
593.537	9.56
593.875	10
594.212	10.05
594.55	10.21
594.887	10.26
595.224	9.97
595.561	10.43
595.899	10.05
596.236	10.14
596.573	10.22
596.91	10.46
597.247	10.17
597.584	10.28
597.921	10.39
598.258	10.39
598.594	10.39
598.931	10.27
599.268	10.34
599.604	10.28
599.941	10.32
600.277	10.42
600.614	10.52
600.95	10.55
601.287	10.72
601.623	10.52
601.959	10.54
602.296	10.88
602.632	10.64
602.968	11.11
603.304	10.78
603.64	10.64
603.976	10.63
604.312	10.88
604.648	11.11
604.984	10.99
605.319	10.85
605.655	11.08
605.991	11.07
606.326	10.99
606.662	11.03
606.998	11.13
607.333	11.07
607.668	11.32
608.004	11.07
608.339	11.38
608.674	11.39
609.01	11.17
609.345	11.51
609.68	11.6
610.015	11.18
610.35	11.62
610.685	11.76
611.02	11.74
611.355	11.56
611.689	11.58
612.024	11.5
612.359	11.55
612.694	11.67
613.028	11.93
613.363	11.91
613.697	11.81
614.032	11.98
614.366	12
614.7	11.67
615.035	11.82
615.369	12.45
615.703	12.15
616.037	12.13
616.371	12.17
616.705	12.06
617.039	12.28
617.373	12.22
617.707	12.19
618.041	11.98
618.375	12.06
618.709	12.1
619.042	12.54
619.376	12.76
619.71	12.68
620.043	12.76
620.377	12.81
620.71	12.47
621.043	12.48
621.377	12.59
621.71	12.96
622.043	12.91
622.376	13.01
622.709	13.04
623.043	13.25
623.376	13.43
623.709	13.17
624.041	13.4
624.374	12.97
624.707	12.81
625.04	13.18
625.373	13.15
625.705	13.24
626.038	13.24
626.37	13.16
626.703	13.37
627.035	13.27
627.368	13.57
627.7	13.17
628.032	13.37
628.365	13.59
628.697	13.42
629.029	13.26
629.361	13.19
629.693	13.75
630.025	13.28
630.357	13.74
630.689	13.46
631.021	13.9
631.353	13.98
631.684	13.66
632.016	13.87
632.348	14.27
632.679	13.68
633.011	13.95
633.342	14.05
633.674	14.31
634.005	13.97
634.336	14.1
634.668	14.36
634.999	14.21
635.33	14.47
635.661	14
635.992	14.39
636.323	14.16
636.654	14.14
636.985	14.16
637.316	14.43
637.647	14.83
637.977	14.61
638.308	14.42
638.639	14.55
638.969	14.26
639.3	14.31
639.63	14.68
639.961	14.77
640.291	14.84
640.622	14.58
640.952	15.09
641.282	14.55
641.612	14.88
641.943	15.19
642.273	15.14
642.603	15.11
642.933	15.18
643.263	14.91
643.592	15.04
643.922	15.4
644.252	15.24
644.582	14.75
644.911	15.32
645.241	15.13
645.571	15.51
645.9	15.47
646.23	14.87
646.559	15.62
646.888	15.33
647.218	15.08
647.547	15.09
647.876	15.53
648.205	15.88
648.534	15.94
648.863	15.37
649.192	16.22
649.521	15.98
649.85	15.38
650.179	15.91
650.508	16.07
650.837	16.34
651.165	15.84
651.494	15.66
651.822	16.09
652.151	16.56
652.479	16.2
652.808	16.15
653.136	16.62
653.465	16.33
653.793	16.04
654.121	16.41
654.449	16.47
654.777	17.12
655.105	16.87
655.433	16.63
655.761	16.52
656.089	16.29
656.417	16.39
656.745	16.72
657.073	16.26
657.4	16.88
657.728	16.01
658.056	16.65
658.383	16.08
658.711	16.48
659.038	16.45
659.365	17.05
659.693	16.4
660.02	16.51
660.347	16.77
660.674	16.74
661.001	16.99
661.329	17
661.656	16.78
661.982	16.62
662.309	17.15
662.636	17.02
662.963	17.25
663.29	17.36
663.616	16.84
663.943	17.62
664.27	17.1
664.596	17.6
664.923	17.79
665.249	17.04
665.576	17.56
665.902	17.4
666.228	18.03
666.554	17.81
666.881	17.27
667.207	17.32
667.533	17.81
667.859	17.53
668.185	17.91
668.511	17.35
668.837	17.15
669.162	18
669.488	17.51
669.814	17.72
670.139	17.6
670.465	17.1
670.791	18.17
671.116	18.02
671.442	17.65
671.767	18.56
672.092	18.5
672.418	17.96
672.743	18.24
673.068	17.78
673.393	18.17
673.718	18.42
674.043	18.65
674.368	18.06
674.693	18.22
675.018	18
675.343	18.66
675.667	18.74
675.992	18.45
676.317	18.05
676.641	19.05
676.966	18.92
677.29	17.75
677.615	18.35
677.939	18.42
678.264	19.28
678.588	19.14
678.912	18.95
679.236	19.02
679.56	19.32
679.885	18.29
680.209	18.56
680.532	19.14
680.856	18.54
681.18	19.24
681.504	18.9
681.828	18.96
682.152	18.79
682.475	19.2
682.799	19.33
683.122	19.09
683.446	19.08
683.769	19.89
684.093	18.99
684.416	19.04
684.739	18.92
685.062	19.44
685.386	20.08
685.709	20.06
686.032	19.47
