Data from 0402_crown_Reflection__1__219.txt Node

Date: Tue Dec 12 20:12:44 CST 2023
User: ToomeyLab
Spectrometer: FLMS14357
Trigger mode: 0
Integration Time (sec): 1.000000E-2
Scans to average: 100
Electric dark correction enabled: true
Nonlinearity correction enabled: false
Boxcar width: 0
XAxis mode: Wavelengths
Number of Pixels in Spectrum: 2048
>>>>>Begin Spectral Data<<<<<
189.047	31.46
189.435	31.46
189.823	31.46
190.211	2031.58
190.599	510.68
190.987	115.93
191.375	-222.35
191.763	-2296.97
192.151	110.41
192.538	277.95
192.926	77.39
193.314	-11.44
193.702	58.53
194.089	180.31
194.477	-49.01
194.864	386.1
195.252	45.92
195.639	52.26
196.027	32.09
196.414	72.8
196.801	110.05
197.189	-31.7
197.576	1906.12
197.963	1.2
198.351	-7.1
198.738	39.27
199.125	2.84
199.512	-33.74
199.899	-30.2
200.286	-19.27
200.673	-48.94
201.06	35.83
201.447	-93.41
201.833	-2.58
202.22	-16.32
202.607	-449.74
202.994	37.27
203.38	3.8
203.767	-17.24
204.154	-5.31
204.54	32.62
204.927	-4.02
205.313	3.14
205.699	6.45
206.086	-16.99
206.472	25.3
206.858	-3.4
207.245	-11.97
207.631	26.63
208.017	-2.13
208.403	-38.52
208.789	2.05
209.175	-69.03
209.561	20.95
209.947	-21.11
210.333	25.57
210.719	-19.71
211.105	-71.98
211.491	28.14
211.876	2.52
212.262	16.51
212.648	1.02
213.034	-100.37
213.419	-18.97
213.805	-3.61
214.19	22.5
214.576	0.26
214.961	-13.49
215.346	1.34
215.732	38.83
216.117	10.8
216.502	-60.99
216.888	-44.81
217.273	-78
217.658	-37.67
218.043	-39.39
218.428	-0.33
218.813	-15
219.198	-50.83
219.583	12.2
219.968	-2.2
220.353	0.91
220.738	12.63
221.122	-20.65
221.507	-44.03
221.892	-9.99
222.276	3.1
222.661	-11.29
223.046	-12.26
223.43	11.75
223.815	-17.08
224.199	12.2
224.583	-9.98
224.968	-4.07
225.352	-4.69
225.736	11.9
226.121	-16.74
226.505	6.4
226.889	-9.19
227.273	-0.24
227.657	4.97
228.041	3.29
228.425	4.74
228.809	-1.56
229.193	-3.32
229.577	4.59
229.961	1.8
230.344	4.64
230.728	4.87
231.112	4.88
231.495	4.11
231.879	5.05
232.263	3.63
232.646	3.56
233.03	4.27
233.413	1.15
233.797	4.53
234.18	1.35
234.563	2.29
234.946	1.79
235.33	3.58
235.713	4.59
236.096	3.13
236.479	3.51
236.862	3.38
237.245	2.87
237.628	1.62
238.011	3.92
238.394	3.32
238.777	5.13
239.16	4.02
239.543	3.88
239.925	4.84
240.308	3.39
240.691	3.03
241.073	3.29
241.456	4.12
241.838	3.68
242.221	3.79
242.603	4.33
242.986	2.85
243.368	3.78
243.75	3.46
244.133	3.47
244.515	4.02
244.897	3.93
245.279	4.76
245.661	2.31
246.043	2.87
246.425	4.23
246.807	2.91
247.189	4.01
247.571	4.22
247.953	3.23
248.335	3.54
248.717	3.75
249.098	3.63
249.48	3.38
249.862	3.3
250.243	3.33
250.625	4.29
251.006	3.94
251.388	3.42
251.769	3.65
252.151	3.07
252.532	3.28
252.913	3.51
253.295	3.8
253.676	2.58
254.057	3.22
254.438	3.55
254.819	2.93
255.2	3.51
255.581	3.61
255.962	2.71
256.343	2.72
256.724	2.26
257.105	4.47
257.486	3.23
257.867	1.82
258.247	2.58
258.628	2.63
259.009	2.86
259.389	3.21
259.77	2.35
260.15	3.26
260.531	3.77
260.911	3.58
261.292	2.73
261.672	3.05
262.052	3.4
262.432	3.23
262.813	3.36
263.193	3.52
263.573	3.43
263.953	4.03
264.333	3.94
264.713	2.99
265.093	3.59
265.473	3.73
265.853	2.77
266.233	2.6
266.612	2.97
266.992	2.82
267.372	4.15
267.752	4.31
268.131	2.29
268.511	2.83
268.89	2.52
269.27	3.1
269.649	3.41
270.029	2.66
270.408	3.09
270.787	3.08
271.167	3.1
271.546	3.21
271.925	3.34
272.304	3.38
272.683	2.54
273.062	3.72
273.441	3.32
273.82	2.6
274.199	3.39
274.578	3.1
274.957	2.94
275.336	3.07
275.715	3.09
276.093	2.46
276.472	3.34
276.851	3.46
277.229	2.57
277.608	2.98
277.986	2.09
278.365	3.17
278.743	2.5
279.122	3.27
279.5	2.14
279.878	2.57
280.257	3.35
280.635	2.24
281.013	2.63
281.391	3.02
281.769	2.32
282.147	2.79
282.525	2.22
282.903	2.52
283.281	2.57
283.659	3.01
284.037	3
284.415	3.13
284.792	3.05
285.17	2.24
285.548	2.82
285.925	2.23
286.303	2.35
286.68	2.99
287.058	3
287.435	2.59
287.813	2.54
288.19	2.7
288.567	2.99
288.945	2.7
289.322	2.42
289.699	3.08
290.076	2.58
290.453	3.47
290.83	2.4
291.207	3.26
291.584	2.88
291.961	2.67
292.338	2.65
292.715	2.58
293.092	2.6
293.469	2.47
293.845	2.66
294.222	2.72
294.599	2.82
294.975	2.12
295.352	2.46
295.728	2.79
296.105	2.82
296.481	2.7
296.858	2.43
297.234	2.97
297.61	2.76
297.986	2.36
298.363	2.67
298.739	2.79
299.115	2.54
299.491	2.45
299.867	2.75
300.243	2.64
300.619	2.88
300.995	2.5
301.371	2.64
301.746	2.48
302.122	3.35
302.498	2.85
302.874	2.4
303.249	3.22
303.625	2.51
304	2.83
304.376	3.06
304.751	2.44
305.127	2.52
305.502	2.82
305.878	2.49
306.253	3.09
306.628	2.74
307.003	2.25
307.378	2.9
307.754	2.5
308.129	2.62
308.504	3.48
308.879	2.18
309.254	2.99
309.629	2.07
310.003	2.42
310.378	2.9
310.753	2.86
311.128	2.9
311.502	2.43
311.877	2.09
312.252	2.25
312.626	2.69
313.001	2.1
313.375	2.35
313.75	2.62
314.124	2.83
314.498	2.66
314.873	2.01
315.247	2.52
315.621	2.18
315.995	2.45
316.369	2.55
316.743	2.31
317.117	2.19
317.491	2.84
317.865	2.44
318.239	2.51
318.613	2.58
318.987	2.87
319.361	1.94
319.734	2.34
320.108	2.63
320.482	2.37
320.855	2.18
321.229	2.73
321.602	2.18
321.976	2.53
322.349	2.46
322.723	2.07
323.096	2.13
323.469	2.26
323.843	3.43
324.216	2.4
324.589	2.96
324.962	2.54
325.335	2.91
325.708	2.52
326.081	2.84
326.454	2.46
326.827	3.06
327.2	2.51
327.573	2.36
327.945	2.64
328.318	2.52
328.691	1.76
329.063	2.84
329.436	2.68
329.809	2.86
330.181	2.74
330.553	2.5
330.926	2.65
331.298	2.77
331.671	2.64
332.043	2.72
332.415	2.67
332.787	2.25
333.159	2.43
333.532	2.04
333.904	2.32
334.276	2.99
334.648	2.24
335.02	1.72
335.391	2.6
335.763	2.29
336.135	2.92
336.507	2.86
336.879	2.4
337.25	2.15
337.622	2
337.993	2.27
338.365	2.88
338.736	2.44
339.108	2.41
339.479	2.58
339.851	2.28
340.222	2.17
340.593	2.53
340.964	2.16
341.336	2.53
341.707	1.86
342.078	1.71
342.449	2.57
342.82	2.54
343.191	2.74
343.562	2.58
343.933	2.82
344.303	2.47
344.674	2.61
345.045	2.4
345.416	2.7
345.786	2.36
346.157	2.56
346.527	3.03
346.898	2.43
347.268	2.64
347.639	2.54
348.009	2.52
348.38	2.3
348.75	2.96
349.12	2.68
349.49	2.42
349.861	3.13
350.231	2.47
350.601	3
350.971	2.54
351.341	2.64
351.711	3.03
352.081	2.64
352.45	2.35
352.82	2.72
353.19	2.46
353.56	2.44
353.929	2.35
354.299	2.03
354.669	2.41
355.038	1.87
355.408	2.47
355.777	2.88
356.147	2.56
356.516	2.56
356.885	2.38
357.254	2.57
357.624	2.53
357.993	2.63
358.362	2.8
358.731	2.66
359.1	2.37
359.469	2.42
359.838	2.53
360.207	2.73
360.576	2.48
360.945	2.35
361.314	2.65
361.682	2.7
362.051	2.53
362.42	2.7
362.788	2.34
363.157	2.86
363.525	2.75
363.894	2.5
364.262	2.66
364.631	2.46
364.999	2.58
365.367	2.82
365.735	2.22
366.104	2.54
366.472	2.35
366.84	2.67
367.208	2.66
367.576	2.85
367.944	2.81
368.312	2.56
368.68	2.79
369.048	2.76
369.416	2.82
369.783	2.69
370.151	2.83
370.519	2.61
370.886	3.03
371.254	3
371.621	2.84
371.989	2.57
372.356	2.62
372.724	2.25
373.091	2.64
373.458	2.51
373.826	2.72
374.193	2.47
374.56	2.82
374.927	2.89
375.294	2.88
375.661	2.78
376.028	2.76
376.395	2.88
376.762	3.19
377.129	2.84
377.496	2.82
377.863	2.74
378.229	2.83
378.596	2.49
378.963	2.68
379.329	2.51
379.696	2.51
380.062	3
380.429	2.66
380.795	2.85
381.161	2.98
381.528	2.59
381.894	2.99
382.26	2.55
382.626	3.02
382.993	3.05
383.359	2.86
383.725	2.52
384.091	2.67
384.457	2.78
384.823	2.78
385.188	2.94
385.554	3.01
385.92	2.91
386.286	2.88
386.651	3.04
387.017	3.07
387.383	2.81
387.748	3.03
388.114	2.83
388.479	3.13
388.845	2.83
389.21	2.82
389.575	2.72
389.94	3.01
390.306	3
390.671	3.11
391.036	2.95
391.401	2.63
391.766	2.94
392.131	3.19
392.496	2.74
392.861	2.78
393.226	2.93
393.591	2.96
393.956	2.97
394.32	3.03
394.685	3.07
395.05	2.82
395.414	2.89
395.779	2.9
396.143	3.05
396.508	2.75
396.872	2.82
397.236	2.73
397.601	2.92
397.965	2.87
398.329	2.84
398.694	2.73
399.058	3.09
399.422	3.08
399.786	2.81
400.15	2.69
400.514	3.19
400.878	2.99
401.242	2.93
401.605	3.23
401.969	3
402.333	3.05
402.697	2.75
403.06	2.86
403.424	3.07
403.787	2.65
404.151	3.24
404.514	2.93
404.878	2.76
405.241	3.05
405.604	2.91
405.968	2.72
406.331	3.23
406.694	3.25
407.057	2.86
407.42	2.94
407.783	2.82
408.146	3
408.509	2.99
408.872	2.94
409.235	2.89
409.598	2.89
409.961	3.07
410.323	2.87
410.686	3.04
411.049	2.96
411.411	2.99
411.774	3.15
412.136	3.21
412.499	3.13
412.861	3.09
413.223	3.1
413.586	2.6
413.948	3.17
414.31	2.97
414.672	3.23
415.035	2.66
415.397	3.03
415.759	2.97
416.121	2.81
416.483	2.91
416.845	2.85
417.206	3.2
417.568	3.2
417.93	3.2
418.292	3.03
418.653	3.05
419.015	2.94
419.377	3.11
419.738	2.97
420.1	2.98
420.461	3.05
420.822	3.2
421.184	2.99
421.545	3.11
421.906	2.99
422.267	2.99
422.629	2.96
422.99	3.03
423.351	3.04
423.712	2.93
424.073	3.03
424.434	3.09
424.795	3.03
425.155	3
425.516	2.99
425.877	3.06
426.238	3.03
426.598	2.97
426.959	3.02
427.32	2.97
427.68	3.11
428.041	3.13
428.401	3
428.761	3.1
429.122	3.12
429.482	3.23
429.842	3.08
430.202	3.07
430.563	3.06
430.923	3.09
431.283	3.01
431.643	3.25
432.003	2.87
432.363	3.04
432.722	2.9
433.082	3
433.442	3.12
433.802	3.06
434.161	3.1
434.521	3.14
434.881	3.14
435.24	3.18
435.6	3.15
435.959	3.19
436.319	3.13
436.678	3.21
437.037	3.13
437.396	3.09
437.756	3.12
438.115	3.09
438.474	3.13
438.833	3.18
439.192	3.36
439.551	3.14
439.91	2.89
440.269	3.07
440.628	3.07
440.987	3.03
441.345	3.17
441.704	3.04
442.063	3.04
442.421	3.12
442.78	3.1
443.138	3.02
443.497	3.13
443.855	2.98
444.214	3.08
444.572	3.26
444.93	3.19
445.288	2.88
445.647	3.09
446.005	3.21
446.363	3.05
446.721	3.07
447.079	3.08
447.437	3.01
447.795	3.2
448.153	3.15
448.51	3.07
448.868	3.14
449.226	3.23
449.584	3.12
449.941	3.09
450.299	3.18
450.656	3
451.014	3.06
451.371	3.19
451.729	3.19
452.086	3.19
452.443	3.31
452.801	3.1
453.158	3.03
453.515	3.24
453.872	3.17
454.229	3.25
454.586	3.01
454.943	3.15
455.3	3.14
455.657	3.33
456.014	3.2
456.371	3.17
456.727	3.25
457.084	3.16
457.441	3.17
457.797	3.28
458.154	3.2
458.51	3.13
458.867	3.15
459.223	3.15
459.58	3.26
459.936	3.01
460.292	3.18
460.648	3.15
461.005	3.14
461.361	3.16
461.717	3.22
462.073	3.12
462.429	3.06
462.785	3.09
463.141	3.15
463.496	3.13
463.852	3.37
464.208	3.24
464.564	3.33
464.919	3.29
465.275	3.26
465.631	3.23
465.986	3.17
466.342	3.04
466.697	3.23
467.052	3.4
467.408	3.34
467.763	3.31
468.118	3.31
468.473	3.23
468.829	3.31
469.184	3.08
469.539	3.32
469.894	3.3
470.249	3.34
470.603	3.4
470.958	3.21
471.313	3.4
471.668	3.35
472.023	3.23
472.377	3.28
472.732	3.26
473.086	3.17
473.441	3.36
473.795	3.28
474.15	3.25
474.504	3.17
474.859	3.21
475.213	3.19
475.567	3.25
475.921	3.29
476.275	3.2
476.63	3.25
476.984	3.04
477.338	3.28
477.692	3.13
478.045	3.29
478.399	3.2
478.753	3.17
479.107	3.27
479.461	3.21
479.814	3.28
480.168	3.09
480.521	3.18
480.875	3.28
481.228	3.3
481.582	3.28
481.935	3.22
482.289	3.37
482.642	3.26
482.995	3.21
483.348	3.16
483.701	3.29
484.055	3.2
484.408	3.15
484.761	3.13
485.114	3.11
485.466	3.02
485.819	3.01
486.172	3.02
486.525	3.09
486.878	3.07
487.23	3.07
487.583	3.14
487.936	3.16
488.288	3.18
488.641	3.15
488.993	3.09
489.345	3.07
489.698	3.09
490.05	3.09
490.402	3.13
490.754	3.11
491.107	3.14
491.459	3.17
491.811	3.19
492.163	3.1
492.515	3.14
492.866	3.05
493.218	3.09
493.57	3.12
493.922	3.06
494.274	3.14
494.625	3.2
494.977	3.3
495.328	3.2
495.68	3.19
496.031	3.32
496.383	3.14
496.734	3.23
497.086	3.2
497.437	3.29
497.788	3.32
498.139	3.13
498.49	3.32
498.842	3.16
499.193	3.29
499.544	3.24
499.894	3.22
500.245	3.34
500.596	3.18
500.947	3.25
501.298	3.28
501.648	3.25
501.999	3.31
502.35	3.24
502.7	3.26
503.051	3.2
503.401	3.3
503.752	3.42
504.102	3.25
504.452	3.36
504.803	3.29
505.153	3.24
505.503	3.23
505.853	3.34
506.203	3.32
506.553	3.29
506.903	3.24
507.253	3.14
507.603	3.32
507.953	3.23
508.303	3.23
508.652	3.19
509.002	3.31
509.352	3.24
509.701	3.24
510.051	3.37
510.4	3.32
510.75	3.2
511.099	3.22
511.449	3.34
511.798	3.16
512.147	3.22
512.496	3.35
512.846	3.29
513.195	3.25
513.544	3.33
513.893	3.3
514.242	3.26
514.591	3.27
514.939	3.21
515.288	3.31
515.637	3.23
515.986	3.38
516.334	3.3
516.683	3.18
517.032	3.3
517.38	3.29
517.729	3.23
518.077	3.08
518.426	3.31
518.774	3.18
519.122	3.33
519.47	3.23
519.819	3.22
520.167	3.18
520.515	3.17
520.863	3.27
521.211	3.22
521.559	3.3
521.907	3.22
522.255	3.3
522.602	3.41
522.95	3.17
523.298	3.19
523.645	3.38
523.993	3.31
524.341	3.27
524.688	3.25
525.036	3.27
525.383	3.22
525.73	3.22
526.078	3.19
526.425	3.27
526.772	3.2
527.119	3.32
527.466	3.22
527.814	3.11
528.161	3.2
528.508	3.3
528.854	3.22
529.201	3.23
529.548	3.06
529.895	3.1
530.242	3.07
530.588	3.06
530.935	3.11
531.282	3.18
531.628	3.17
531.975	3.12
532.321	3.14
532.667	3.12
533.014	3.13
533.36	3.16
533.706	3.24
534.052	3.21
534.399	3.17
534.745	3.15
535.091	3.1
535.437	3.14
535.783	3.09
536.129	3.21
536.474	3.16
536.82	3.21
537.166	3.26
537.512	3.19
537.857	3.31
538.203	3.24
538.549	3.19
538.894	3.2
539.239	3.18
539.585	3.21
539.93	3.35
540.276	3.23
540.621	3.17
540.966	3.18
541.311	3.18
541.656	3.21
542.001	3.28
542.346	3.25
542.691	3.16
543.036	3.08
543.381	3.1
543.726	3.15
544.071	3.15
544.415	3.12
544.76	3.11
545.105	3.18
545.449	3.24
545.794	3.3
546.138	3.04
546.483	3.32
546.827	3.28
547.171	3.37
547.516	3.21
547.86	3.32
548.204	3.3
548.548	3.27
548.892	3.22
549.236	3.27
549.58	3.27
549.924	3.28
550.268	3.27
550.612	3.14
550.956	3.37
551.3	3.4
551.643	3.16
551.987	3.31
552.33	3.29
552.674	3.25
553.017	3.28
553.361	3.56
553.704	3.23
554.048	3.32
554.391	3.27
554.734	3.27
555.077	3.37
555.42	3.11
555.764	3.34
556.107	3.35
556.45	3.11
556.793	3.12
557.135	3.09
557.478	3.44
557.821	3.13
558.164	3.31
558.507	3.36
558.849	3.35
559.192	3.31
559.534	3.46
559.877	3.21
560.219	3.2
560.562	3.36
560.904	3.4
561.246	3.31
561.589	3.29
561.931	3.28
562.273	3.03
562.615	3.13
562.957	3.28
563.299	3.3
563.641	3.41
563.983	3.19
564.325	3.25
564.667	3.39
565.008	3.12
565.35	3.28
565.692	3.25
566.033	3.21
566.375	3.09
566.716	3.11
567.058	3.44
567.399	3.32
567.741	3.33
568.082	3.37
568.423	3.29
568.764	3.51
569.105	3.3
569.447	3.31
569.788	3.23
570.129	3.32
570.47	3.2
570.811	3.29
571.151	3.36
571.492	3.15
571.833	3.27
572.174	3.2
572.514	3.24
572.855	3.17
573.195	3.27
573.536	3.11
573.876	3.2
574.217	3.14
574.557	3.18
574.898	3.22
575.238	3.21
575.578	3.18
575.918	3.33
576.258	3.32
576.598	3.31
576.938	3.31
577.278	3.27
577.618	3.33
577.958	3.23
578.298	3.26
578.638	3.15
578.977	3.05
579.317	3.21
579.657	3.38
579.996	3.16
580.336	3.29
580.675	3.13
581.014	3.09
581.354	3.3
581.693	3.23
582.032	2.89
582.372	3.24
582.711	3.02
583.05	3.36
583.389	3.34
583.728	3.17
584.067	3.4
584.406	3.5
584.745	3.43
585.083	3.18
585.422	3.26
585.761	3.28
586.1	3.18
586.438	3.38
586.777	3.45
587.115	3.41
587.454	3.42
587.792	3.07
588.13	3.26
588.469	3.24
588.807	3.24
589.145	3.15
589.483	3.15
589.821	3.26
590.159	3.19
590.497	3.16
590.835	3.13
591.173	3.26
591.511	3.1
591.849	3.3
592.187	3.4
592.524	3.19
592.862	3.25
593.2	2.89
593.537	3.2
593.875	3.5
594.212	3.19
594.55	3.48
594.887	3.52
595.224	3.23
595.561	3.43
595.899	3.19
596.236	3.16
596.573	3.12
596.91	3.26
597.247	3.22
597.584	3.04
597.921	3.38
598.258	3.22
598.594	3.03
598.931	3.14
599.268	2.97
599.604	3.2
599.941	3.06
600.277	3.15
600.614	3.4
600.95	3.32
601.287	3.27
601.623	3.28
601.959	2.95
602.296	3.42
602.632	2.99
602.968	3.3
603.304	3.1
603.64	3.41
603.976	3.11
604.312	3.21
604.648	3.3
604.984	3.31
605.319	3.16
605.655	2.98
605.991	3.28
606.326	3.17
606.662	3.29
606.998	3.15
607.333	3.19
607.668	3.02
608.004	3.23
608.339	3.14
608.674	3.17
609.01	3.1
609.345	2.94
609.68	3.24
610.015	3.05
610.35	3.32
610.685	3.13
611.02	3.14
611.355	3.11
611.689	3.1
612.024	3.05
612.359	3.22
612.694	3.32
613.028	3.22
613.363	3.01
613.697	3.24
614.032	3.16
614.366	3.34
614.7	3.11
615.035	3.12
615.369	3.02
615.703	2.83
616.037	2.77
616.371	3.12
616.705	2.99
617.039	3.21
617.373	3.28
617.707	2.94
618.041	3.15
618.375	2.98
618.709	3.3
619.042	3.39
619.376	2.89
619.71	2.93
620.043	2.59
620.377	3.04
620.71	3.02
621.043	2.95
621.377	2.43
621.71	3
622.043	3.13
622.376	3.47
622.709	3.02
623.043	3.12
623.376	3.64
623.709	3.27
624.041	3.18
624.374	3.16
624.707	2.96
625.04	3
625.373	3.37
625.705	3.19
626.038	3.08
626.37	3.26
626.703	3.54
627.035	2.9
627.368	3.25
627.7	2.99
628.032	2.91
628.365	3.08
628.697	2.94
629.029	3.3
629.361	2.89
629.693	3.1
630.025	3.12
630.357	3.15
630.689	3.02
631.021	3.17
631.353	3.26
631.684	3.05
632.016	2.9
632.348	3.24
632.679	2.71
633.011	3.71
633.342	3.18
633.674	2.85
634.005	3.6
634.336	3.37
634.668	3.24
634.999	3.29
635.33	3.22
635.661	2.99
635.992	3.12
636.323	3.13
636.654	3.22
636.985	2.96
637.316	2.95
637.647	3.07
637.977	2.93
638.308	3.19
638.639	3.06
638.969	3.38
639.3	3.09
639.63	3.6
639.961	3.05
640.291	2.8
640.622	2.84
640.952	3.06
641.282	2.91
641.612	3.5
641.943	3.28
642.273	3.31
642.603	3.67
642.933	3.02
643.263	2.5
643.592	3.23
643.922	3.34
644.252	3.01
644.582	2.6
644.911	2.84
645.241	2.63
645.571	3.8
645.9	2.67
646.23	2.85
646.559	3.38
646.888	3.12
647.218	3.13
647.547	2.65
647.876	3.22
648.205	3.1
648.534	2.79
648.863	2.82
649.192	3.52
649.521	3.85
649.85	2.82
650.179	3.53
650.508	3.43
650.837	2.99
651.165	2.76
651.494	3.02
651.822	3.06
652.151	3.45
652.479	3.02
652.808	3.44
653.136	3.75
653.465	3.18
653.793	3.11
654.121	3.01
654.449	3.25
654.777	3.37
655.105	3.11
655.433	3.59
655.761	3.62
656.089	3.14
656.417	3.35
656.745	3.45
657.073	2.48
657.4	3.01
657.728	2.68
658.056	3.27
658.383	3.03
658.711	3.08
659.038	2.67
659.365	3.23
659.693	2.63
660.02	2.55
660.347	3.1
660.674	3.18
661.001	3.53
661.329	3.05
661.656	3.1
661.982	2.9
662.309	3.26
662.636	3.2
662.963	3.25
663.29	3.44
663.616	2.72
663.943	3.72
664.27	3.53
664.596	2.96
664.923	3.45
665.249	2.56
665.576	3.2
665.902	2.65
666.228	3.26
666.554	2.88
666.881	2.54
667.207	3.36
667.533	3.72
667.859	3.46
668.185	3.13
668.511	2.98
668.837	3.35
669.162	3.6
669.488	2.49
669.814	3.49
670.139	3.14
670.465	2.8
670.791	2.79
671.116	3.08
671.442	3.16
671.767	2.78
672.092	3.73
672.418	2.85
672.743	2.87
673.068	2.46
673.393	2.93
673.718	3.37
674.043	3.64
674.368	2.82
674.693	2.8
675.018	2.83
675.343	3
675.667	3.21
675.992	2.9
676.317	2.96
676.641	2.86
676.966	3.05
677.29	2.93
677.615	3.31
677.939	3.34
678.264	3.35
678.588	3.91
678.912	3.74
679.236	2.87
679.56	3.47
679.885	3.47
680.209	3.21
680.532	3.5
680.856	2.63
681.18	3.14
681.504	3.53
681.828	3.25
682.152	2.98
682.475	3.43
682.799	3.1
683.122	2.69
683.446	3.36
683.769	3.94
684.093	2.64
684.416	3
684.739	3.22
685.062	2.53
685.386	3.11
685.709	3.04
686.032	2.64
686.355	2.5
686.678	3.58
687.001	3.34
687.324	3.15
687.646	3.2
687.969	2.93
688.292	3.44
688.614	3.44
688.937	3.13
689.26	2.99
689.582	2.76
689.904	3.25
690.227	3.44
690.549	2.79
690.871	2.66
691.194	3.3
691.516	3.43
691.838	3.03
692.16	2.42
692.482	2.84
692.804	3.18
693.126	2.85
