Data from 0402_chest_Reflection__3__216.txt Node

Date: Tue Dec 12 20:10:25 CST 2023
User: ToomeyLab
Spectrometer: FLMS14357
Trigger mode: 0
Integration Time (sec): 1.000000E-2
Scans to average: 100
Electric dark correction enabled: true
Nonlinearity correction enabled: false
Boxcar width: 0
XAxis mode: Wavelengths
Number of Pixels in Spectrum: 2048
>>>>>Begin Spectral Data<<<<<
189.047	62.68
189.435	62.68
189.823	62.68
190.211	-7.89
190.599	-770.39
190.987	101.56
191.375	392.46
191.763	-1619.7
192.151	134.68
192.538	-15.13
192.926	87.87
193.314	-19.23
193.702	11.78
194.089	138.79
194.477	-94.75
194.864	225.94
195.252	150.17
195.639	76.83
196.027	24.07
196.414	-142.21
196.801	421.77
197.189	-34.74
197.576	1243.88
197.963	8.75
198.351	2.16
198.738	10.53
199.125	-6.96
199.512	-92.21
199.899	-15.86
200.286	-18.3
200.673	-26.28
201.06	-47.2
201.447	-33.21
201.833	10.12
202.22	-22.12
202.607	-307.85
202.994	-19.21
203.38	11.41
203.767	-40.1
204.154	25.03
204.54	24.03
204.927	-33.54
205.313	10.5
205.699	-23.89
206.086	-67.28
206.472	18.83
206.858	-19.77
207.245	-34.03
207.631	11.39
208.017	-13.04
208.403	-24.56
208.789	-8.36
209.175	-21.54
209.561	8.13
209.947	-50.66
210.333	6.71
210.719	-12.47
211.105	-27.61
211.491	-15.09
211.876	-15.01
212.262	13.9
212.648	-63.05
213.034	-33.22
213.419	-12.97
213.805	-31.35
214.19	29.67
214.576	-17.4
214.961	-25.37
215.346	-9.02
215.732	10.98
216.117	-10.56
216.502	-31.03
216.888	-35.92
217.273	-49.14
217.658	-52.31
218.043	-20.8
218.428	-37.1
218.813	-16.01
219.198	-77.24
219.583	-15.38
219.968	-12.34
220.353	-27.05
220.738	-58.23
221.122	-24.77
221.507	-5.77
221.892	-11.28
222.276	-16.23
222.661	5.45
223.046	-19.84
223.43	11.61
223.815	-14.47
224.199	11.71
224.583	0.94
224.968	-4.55
225.352	-5.6
225.736	3.2
226.121	-16.4
226.505	-8.85
226.889	-11.78
227.273	-7.3
227.657	3.49
228.041	-0.59
228.425	-5.1
228.809	-0.66
229.193	-3.94
229.577	1.41
229.961	-0.84
230.344	1.23
230.728	1.55
231.112	1.33
231.495	1.32
231.879	1.84
232.263	-1.23
232.646	-0.74
233.03	0.17
233.413	0.28
233.797	0.65
234.18	-4.52
234.563	-2.31
234.946	-0.56
235.33	1.49
235.713	1.63
236.096	-1.37
236.479	0.85
236.862	-0.48
237.245	0.4
237.628	-0.62
238.011	2.18
238.394	-0.28
238.777	2.44
239.16	1.12
239.543	1.45
239.925	1.25
240.308	-0.7
240.691	0.67
241.073	1.68
241.456	0.67
241.838	0.07
242.221	1.19
242.603	0.96
242.986	0.97
243.368	1.49
243.75	0.99
244.133	1.26
244.515	1.33
244.897	1.42
245.279	1.91
245.661	0.4
246.043	1.49
246.425	2.03
246.807	0.43
247.189	1.01
247.571	0.61
247.953	1.17
248.335	1.36
248.717	1.29
249.098	1.31
249.48	1.2
249.862	0.94
250.243	1.01
250.625	1.72
251.006	0.92
251.388	0.85
251.769	0.3
252.151	-0.53
252.532	0.57
252.913	0.42
253.295	1.79
253.676	0.61
254.057	0.72
254.438	1.17
254.819	0.96
255.2	-0.49
255.581	0.44
255.962	-0.09
256.343	1.61
256.724	0.56
257.105	1.48
257.486	0.23
257.867	0
258.247	1.32
258.628	0.87
259.009	0.99
259.389	0.88
259.77	-0.02
260.15	0.12
260.531	0.94
260.911	1.11
261.292	0.89
261.672	1.19
262.052	1.15
262.432	1.21
262.813	1.05
263.193	0.82
263.573	0.89
263.953	1.55
264.333	1.61
264.713	0.83
265.093	1.27
265.473	1
265.853	0.03
266.233	0.23
266.612	0.57
266.992	1.21
267.372	0.76
267.752	1.53
268.131	0.48
268.511	0.54
268.89	0.2
269.27	0.35
269.649	0.79
270.029	0.51
270.408	1.36
270.787	0.91
271.167	1.16
271.546	1.03
271.925	1.61
272.304	1.43
272.683	0.5
273.062	1.17
273.441	1.21
273.82	1.17
274.199	0.83
274.578	0.62
274.957	1.06
275.336	1.01
275.715	1.03
276.093	0.41
276.472	1.15
276.851	1.2
277.229	0.89
277.608	0.83
277.986	0.27
278.365	0.79
278.743	1.27
279.122	1.19
279.5	0.71
279.878	0.59
280.257	0.85
280.635	0.55
281.013	0.46
281.391	1.41
281.769	0.51
282.147	1.11
282.525	0.31
282.903	0.91
283.281	1.25
283.659	1.07
284.037	1.41
284.415	0.89
284.792	1.11
285.17	0.34
285.548	0.73
285.925	1.06
286.303	1.06
286.68	0.98
287.058	1.42
287.435	0.72
287.813	0.82
288.19	1.05
288.567	0.7
288.945	1.1
289.322	0.51
289.699	1.13
290.076	0.98
290.453	1.13
290.83	0.82
291.207	1.47
291.584	0.89
291.961	1.28
292.338	1.11
292.715	1.31
293.092	0.88
293.469	0.45
293.845	0.72
294.222	0.94
294.599	1.27
294.975	0.53
295.352	1.18
295.728	1.18
296.105	1.2
296.481	0.98
296.858	1.17
297.234	1.53
297.61	0.69
297.986	1.41
298.363	1.52
298.739	1.05
299.115	0.97
299.491	1.06
299.867	0.99
300.243	0.59
300.619	1.44
300.995	1.3
301.371	1.06
301.746	0.96
302.122	1.49
302.498	1.12
302.874	1.03
303.249	1.65
303.625	0.76
304	1.37
304.376	1.02
304.751	1.15
305.127	1.07
305.502	1.11
305.878	0.93
306.253	0.69
306.628	1.18
307.003	0.92
307.378	0.73
307.754	1.15
308.129	0.88
308.504	2
308.879	0.54
309.254	1.37
309.629	0.75
310.003	1.31
310.378	1.04
310.753	1.53
311.128	1.54
311.502	0.51
311.877	0.78
312.252	0.98
312.626	1.02
313.001	1.15
313.375	1
313.75	1.56
314.124	1.59
314.498	1.41
314.873	1.17
315.247	1.36
315.621	1.27
315.995	1.51
316.369	1.62
316.743	1.34
317.117	0.56
317.491	1.12
317.865	0.8
318.239	0.91
318.613	1.39
318.987	1.51
319.361	0.58
319.734	0.95
320.108	1.46
320.482	0.86
320.855	0.7
321.229	1.51
321.602	1.89
321.976	1.64
322.349	1.68
322.723	0.7
323.096	0.82
323.469	1.24
323.843	2.24
324.216	1.03
324.589	1.14
324.962	1.21
325.335	1.54
325.708	1.43
326.081	1.19
326.454	1.47
326.827	2
327.2	1.22
327.573	1.19
327.945	1.96
328.318	1.65
328.691	0.73
329.063	1.66
329.436	1.28
329.809	1.71
330.181	0.52
330.553	1.14
330.926	1.38
331.298	1.1
331.671	1.22
332.043	1.07
332.415	1.24
332.787	1.76
333.159	1.35
333.532	1.42
333.904	1.09
334.276	1.83
334.648	0.83
335.02	1.06
335.391	1.22
335.763	1.04
336.135	1.36
336.507	1.91
336.879	1.04
337.25	1.17
337.622	1.53
337.993	1.25
338.365	1.57
338.736	1.62
339.108	1.36
339.479	1.29
339.851	1.32
340.222	1.2
340.593	1.17
340.964	1.42
341.336	2.03
341.707	1.17
342.078	1.24
342.449	1.07
342.82	1.5
343.191	1.38
343.562	0.94
343.933	1.94
344.303	1.11
344.674	1.45
345.045	1.89
345.416	1.99
345.786	1.26
346.157	1.73
346.527	1.84
346.898	1.21
347.268	1.25
347.639	1.94
348.009	1.86
348.38	1.39
348.75	1.85
349.12	1.81
349.49	1.28
349.861	1.48
350.231	1.51
350.601	1.8
350.971	1.36
351.341	1.58
351.711	1.6
352.081	1.48
352.45	1.14
352.82	1.72
353.19	1.2
353.56	1.64
353.929	1.32
354.299	1.23
354.669	1.41
355.038	1.15
355.408	1.37
355.777	1.61
356.147	0.95
356.516	1.28
356.885	1.44
357.254	1.59
357.624	1.41
357.993	1.56
358.362	1.57
358.731	1.72
359.1	1.4
359.469	1.57
359.838	1.37
360.207	1.51
360.576	1.56
360.945	1.32
361.314	1.48
361.682	1.47
362.051	1.61
362.42	1.65
362.788	1.44
363.157	1.8
363.525	1.46
363.894	1.23
364.262	1.53
364.631	1.1
364.999	1.66
365.367	1.51
365.735	1.26
366.104	1.76
366.472	1.3
366.84	1.36
367.208	1.91
367.576	1.53
367.944	1.73
368.312	1.3
368.68	1.17
369.048	1.37
369.416	1.83
369.783	1.54
370.151	1.63
370.519	1.37
370.886	1.64
371.254	1.26
371.621	1.66
371.989	1.27
372.356	1.57
372.724	1.54
373.091	1.5
373.458	1.69
373.826	1.43
374.193	1.59
374.56	1.87
374.927	1.62
375.294	1.81
375.661	1.94
376.028	1.51
376.395	1.88
376.762	2.03
377.129	1.6
377.496	1.93
377.863	1.44
378.229	1.65
378.596	1.45
378.963	1.81
379.329	1.58
379.696	1.3
380.062	1.74
380.429	1.7
380.795	1.86
381.161	2.08
381.528	1.82
381.894	1.82
382.26	1.43
382.626	1.33
382.993	1.81
383.359	1.54
383.725	1.48
384.091	1.64
384.457	1.45
384.823	1.82
385.188	1.63
385.554	1.76
385.92	1.56
386.286	1.85
386.651	1.77
387.017	1.8
387.383	1.47
387.748	1.64
388.114	1.88
388.479	2.04
388.845	1.76
389.21	1.75
389.575	1.64
389.94	1.86
390.306	1.87
390.671	1.48
391.036	1.83
391.401	1.5
391.766	1.92
392.131	2.06
392.496	1.64
392.861	1.62
393.226	1.88
393.591	1.85
393.956	1.84
394.32	1.9
394.685	1.62
395.05	1.7
395.414	1.78
395.779	1.56
396.143	1.8
396.508	1.75
396.872	1.8
397.236	1.65
397.601	1.72
397.965	1.63
398.329	1.9
398.694	1.63
399.058	1.86
399.422	1.57
399.786	1.93
400.15	1.53
400.514	1.95
400.878	1.81
401.242	1.59
401.605	1.71
401.969	1.79
402.333	1.81
402.697	1.45
403.06	1.59
403.424	1.56
403.787	1.46
404.151	2.05
404.514	1.33
404.878	1.62
405.241	1.81
405.604	1.66
405.968	1.52
406.331	2
406.694	1.93
407.057	1.62
407.42	1.59
407.783	1.65
408.146	1.69
408.509	1.71
408.872	1.63
409.235	1.48
409.598	1.71
409.961	1.69
410.323	1.69
410.686	1.84
411.049	1.83
411.411	2.03
411.774	1.82
412.136	1.77
412.499	1.97
412.861	1.78
413.223	2.12
413.586	1.52
413.948	1.86
414.31	1.95
414.672	1.84
415.035	1.73
415.397	1.84
415.759	1.79
416.121	1.75
416.483	1.65
416.845	1.75
417.206	1.78
417.568	1.81
417.93	1.96
418.292	1.7
418.653	1.85
419.015	1.87
419.377	1.84
419.738	1.68
420.1	1.81
420.461	1.89
420.822	1.88
421.184	1.76
421.545	1.93
421.906	1.79
422.267	1.84
422.629	1.92
422.99	1.89
423.351	1.8
423.712	1.73
424.073	1.86
424.434	1.89
424.795	1.92
425.155	1.74
425.516	1.77
425.877	1.86
426.238	1.89
426.598	1.8
426.959	1.79
427.32	1.81
427.68	1.77
428.041	1.97
428.401	1.76
428.761	1.81
429.122	1.82
429.482	2.1
429.842	2.03
430.202	1.74
430.563	1.8
430.923	1.74
431.283	1.64
431.643	1.89
432.003	1.9
432.363	1.95
432.722	1.75
433.082	1.71
433.442	1.8
433.802	1.88
434.161	1.89
434.521	1.93
434.881	2.01
435.24	1.88
435.6	1.95
435.959	1.85
436.319	2
436.678	1.91
437.037	1.93
437.396	1.88
437.756	1.89
438.115	1.87
438.474	2.01
438.833	1.99
439.192	2.06
439.551	2.01
439.91	1.8
440.269	1.91
440.628	1.95
440.987	1.71
441.345	1.97
441.704	2.01
442.063	1.87
442.421	1.91
442.78	1.92
443.138	1.84
443.497	1.91
443.855	1.99
444.214	1.97
444.572	1.93
444.93	1.89
445.288	1.83
445.647	2.07
446.005	1.91
446.363	1.74
446.721	1.95
447.079	1.99
447.437	1.78
447.795	1.87
448.153	1.9
448.51	1.85
448.868	1.97
449.226	2.05
449.584	2.02
449.941	1.9
450.299	1.98
450.656	1.91
451.014	1.99
451.371	2.04
451.729	2.05
452.086	1.93
452.443	2.06
452.801	1.93
453.158	1.84
453.515	1.99
453.872	1.99
454.229	2.11
454.586	1.76
454.943	1.88
455.3	1.97
455.657	1.92
456.014	1.99
456.371	2.11
456.727	2.05
457.084	2.04
457.441	1.92
457.797	1.98
458.154	1.95
458.51	1.89
458.867	2.05
459.223	2.05
459.58	1.99
459.936	1.74
460.292	1.96
460.648	1.98
461.005	1.88
461.361	2
461.717	1.98
462.073	1.94
462.429	1.94
462.785	1.9
463.141	1.96
463.496	1.92
463.852	2.21
464.208	1.98
464.564	2
464.919	2.12
465.275	2.02
465.631	2.06
465.986	2.06
466.342	1.88
466.697	2.15
467.052	2.2
467.408	2.11
467.763	1.99
468.118	2.06
468.473	2.15
468.829	2.14
469.184	1.84
469.539	2.14
469.894	2.03
470.249	2.16
470.603	2.17
470.958	2.11
471.313	2.42
471.668	2.12
472.023	2.04
472.377	2.08
472.732	2.18
473.086	2.03
473.441	2.16
473.795	2.13
474.15	2.15
474.504	1.99
474.859	2.01
475.213	1.93
475.567	2.1
475.921	2.09
476.275	2.13
476.63	2.2
476.984	2.15
477.338	2.11
477.692	2.16
478.045	2.08
478.399	2.01
478.753	2.14
479.107	2
479.461	2.06
479.814	2.11
480.168	1.88
480.521	1.99
480.875	2.09
481.228	2.2
481.582	2.08
481.935	2.32
482.289	2.07
482.642	2.22
482.995	2.11
483.348	2.08
483.701	2.32
484.055	2.05
484.408	2.16
484.761	2.12
485.114	2.08
485.466	2.06
485.819	1.99
486.172	2.01
486.525	2.04
486.878	2.07
487.23	2
487.583	2.06
487.936	2.1
488.288	2.05
488.641	2.07
488.993	2.07
489.345	2.09
489.698	2.07
490.05	2.05
490.402	2.11
490.754	2.07
491.107	2.11
491.459	2.14
491.811	2.19
492.163	2.1
492.515	2.22
492.866	2.14
493.218	2.11
493.57	2.12
493.922	2.1
494.274	2.14
494.625	2.19
494.977	2.25
495.328	2.26
495.68	2.19
496.031	2.34
496.383	2.28
496.734	2.31
497.086	2.26
497.437	2.33
497.788	2.27
498.139	2.25
498.49	2.3
498.842	2.25
499.193	2.22
499.544	2.17
499.894	2.16
500.245	2.37
500.596	2.28
500.947	2.24
501.298	2.32
501.648	2.32
501.999	2.29
502.35	2.23
502.7	2.31
503.051	2.42
503.401	2.26
503.752	2.42
504.102	2.31
504.452	2.35
504.803	2.42
505.153	2.26
505.503	2.56
505.853	2.38
506.203	2.27
506.553	2.3
506.903	2.42
507.253	2.4
507.603	2.41
507.953	2.45
508.303	2.39
508.652	2.37
509.002	2.38
509.352	2.26
509.701	2.51
510.051	2.34
510.4	2.33
510.75	2.35
511.099	2.27
511.449	2.48
511.798	2.38
512.147	2.47
512.496	2.5
512.846	2.44
513.195	2.29
513.544	2.52
513.893	2.42
514.242	2.26
514.591	2.44
514.939	2.34
515.288	2.35
515.637	2.25
515.986	2.46
516.334	2.63
516.683	2.38
517.032	2.61
517.38	2.42
517.729	2.39
518.077	2.39
518.426	2.56
518.774	2.45
519.122	2.52
519.47	2.36
519.819	2.33
520.167	2.36
520.515	2.43
520.863	2.53
521.211	2.4
521.559	2.48
521.907	2.46
522.255	2.56
522.602	2.57
522.95	2.43
523.298	2.41
523.645	2.55
523.993	2.69
524.341	2.54
524.688	2.52
525.036	2.57
525.383	2.58
525.73	2.59
526.078	2.46
526.425	2.57
526.772	2.54
527.119	2.58
527.466	2.49
527.814	2.5
528.161	2.56
528.508	2.57
528.854	2.49
529.201	2.51
529.548	2.53
529.895	2.5
530.242	2.42
530.588	2.44
530.935	2.48
531.282	2.52
531.628	2.53
531.975	2.55
532.321	2.57
532.667	2.51
533.014	2.58
533.36	2.55
533.706	2.54
534.052	2.63
534.399	2.58
534.745	2.65
535.091	2.54
535.437	2.6
535.783	2.53
536.129	2.6
536.474	2.63
536.82	2.68
537.166	2.69
537.512	2.74
537.857	2.72
538.203	2.66
538.549	2.64
538.894	2.74
539.239	2.71
539.585	2.59
539.93	2.71
540.276	2.62
540.621	2.71
540.966	2.71
541.311	2.78
541.656	2.68
542.001	2.83
542.346	2.69
542.691	2.63
543.036	2.67
543.381	2.61
543.726	2.72
544.071	2.75
544.415	2.72
544.76	2.79
545.105	2.79
545.449	2.83
545.794	2.89
546.138	2.75
546.483	2.87
546.827	2.9
547.171	2.89
547.516	2.82
547.86	2.93
548.204	2.93
548.548	2.81
548.892	2.85
549.236	3.01
549.58	2.96
549.924	2.97
550.268	3.03
550.612	2.93
550.956	3.06
551.3	3.1
551.643	2.94
551.987	3.05
552.33	3.13
552.674	3.16
553.017	3.21
553.361	3.28
553.704	3.08
554.048	3.18
554.391	3.1
554.734	3.09
555.077	3.23
555.42	3.03
555.764	3.2
556.107	3.25
556.45	3.13
556.793	3.03
557.135	3.23
557.478	3.19
557.821	3.26
558.164	3.32
558.507	3.25
558.849	3.35
559.192	3.21
559.534	3.44
559.877	3.35
560.219	3.2
560.562	3.33
560.904	3.27
561.246	3.32
561.589	3.43
561.931	3.19
562.273	3.13
562.615	3.3
562.957	3.37
563.299	3.34
563.641	3.43
563.983	3.38
564.325	3.42
564.667	3.42
565.008	3.36
565.35	3.35
565.692	3.57
566.033	3.56
566.375	3.45
566.716	3.46
567.058	3.76
567.399	3.51
567.741	3.48
568.082	3.37
568.423	3.58
568.764	3.55
569.105	3.52
569.447	3.63
569.788	3.63
570.129	3.57
570.47	3.56
570.811	3.64
571.151	3.66
571.492	3.67
571.833	3.61
572.174	3.59
572.514	3.74
572.855	3.64
573.195	3.58
573.536	3.46
573.876	3.81
574.217	3.82
574.557	3.77
574.898	3.71
575.238	3.92
575.578	3.71
575.918	3.77
576.258	3.84
576.598	3.74
576.938	3.73
577.278	3.78
577.618	3.91
577.958	3.95
578.298	3.87
578.638	3.94
578.977	3.95
579.317	3.91
579.657	4.01
579.996	4.15
580.336	3.96
580.675	3.99
581.014	4.16
581.354	4.11
581.693	3.93
582.032	3.94
582.372	3.93
582.711	4.12
583.05	4.2
583.389	4.13
583.728	4.13
584.067	4.23
584.406	4.27
584.745	4.17
585.083	3.93
585.422	4.36
585.761	4.26
586.1	4.07
586.438	4.24
586.777	4.32
587.115	4.28
587.454	4.42
587.792	4.12
588.13	4.59
588.469	4.26
588.807	4.4
589.145	4.51
589.483	4.42
589.821	4.8
590.159	4.37
590.497	4.28
590.835	4.61
591.173	4.43
591.511	4.61
591.849	4.37
592.187	4.59
592.524	4.42
592.862	4.53
593.2	4.4
593.537	4.5
593.875	4.65
594.212	4.63
594.55	4.51
594.887	4.99
595.224	4.69
595.561	4.95
595.899	4.68
596.236	4.59
596.573	4.83
596.91	4.94
597.247	4.58
597.584	4.85
597.921	5.03
598.258	5
598.594	4.85
598.931	4.85
599.268	4.92
599.604	4.81
599.941	4.77
600.277	4.83
600.614	5.25
600.95	4.93
601.287	4.96
601.623	5.02
601.959	4.73
602.296	5.32
602.632	5.05
602.968	5.21
603.304	5.04
603.64	5.37
603.976	5.12
604.312	5.27
604.648	5.09
604.984	5.19
605.319	4.94
605.655	4.99
605.991	5.23
606.326	4.98
606.662	5.09
606.998	5.01
607.333	5.12
607.668	5.2
608.004	5.33
608.339	5.34
608.674	5.42
609.01	5.27
609.345	5.33
609.68	5.37
610.015	5.23
610.35	5.69
610.685	5.55
611.02	5.6
611.355	5.55
611.689	5.5
612.024	5.47
612.359	5.83
612.694	5.33
613.028	5.74
613.363	5.44
613.697	5.94
614.032	5.57
614.366	5.78
614.7	5.78
615.035	5.76
615.369	5.64
615.703	5.69
616.037	5.59
616.371	5.51
616.705	5.75
617.039	5.82
617.373	6.1
617.707	5.7
618.041	5.94
618.375	5.93
618.709	6.26
619.042	5.79
619.376	6.12
619.71	6.07
620.043	6.02
620.377	6.17
620.71	5.92
621.043	6.02
621.377	5.48
621.71	6.11
622.043	6.28
622.376	6.38
622.709	6.28
623.043	6.07
623.376	6.62
623.709	6.43
624.041	6.55
624.374	6.13
624.707	6.17
625.04	6.1
625.373	6.86
625.705	6.45
626.038	6.29
626.37	6.57
626.703	6.21
627.035	6.46
627.368	6.48
627.7	6.59
628.032	6.44
628.365	6.55
628.697	6.45
629.029	6.31
629.361	6.44
629.693	6.62
630.025	6.19
630.357	6.72
630.689	6.6
631.021	6.65
631.353	6.92
631.684	6.66
632.016	6.77
632.348	7.04
632.679	6.47
633.011	7.15
633.342	6.78
633.674	6.79
634.005	6.87
634.336	7.25
634.668	7.11
634.999	7.41
635.33	6.93
635.661	7.09
635.992	7.08
636.323	6.77
636.654	7.12
636.985	6.94
637.316	7.17
637.647	6.9
637.977	7.51
638.308	7.46
638.639	7.44
638.969	7.16
639.3	7.1
639.63	7.51
639.961	7.38
640.291	7.19
640.622	7.64
640.952	7.41
641.282	7.48
641.612	8
641.943	7.38
642.273	7.85
642.603	7.97
642.933	7.45
643.263	7.42
643.592	7.78
643.922	8.24
644.252	7.99
644.582	7.18
644.911	7.81
645.241	7.33
645.571	7.97
645.9	7.46
646.23	7.55
646.559	8.24
646.888	8.02
647.218	7.77
647.547	8.29
647.876	7.79
648.205	8.26
648.534	8.31
648.863	7.65
649.192	8.04
649.521	7.93
649.85	7.87
650.179	8.32
650.508	8.53
650.837	8.47
651.165	7.94
651.494	7.94
651.822	8.35
652.151	8.47
652.479	8.4
652.808	7.94
653.136	8.69
653.465	8.42
653.793	8.67
654.121	8.51
654.449	8.51
654.777	8.47
655.105	8.37
655.433	8.98
655.761	8.87
656.089	8.82
656.417	8.63
656.745	8.87
657.073	8.85
657.4	8.69
657.728	8.08
658.056	8.73
658.383	8.29
658.711	8.67
659.038	8.38
659.365	9.09
659.693	8.78
660.02	8.72
660.347	8.85
660.674	9.09
661.001	8.92
661.329	8.8
661.656	8.86
661.982	8.73
662.309	9.15
662.636	8.87
662.963	9.41
663.29	9.17
663.616	8.84
663.943	9.37
664.27	9.78
664.596	10
664.923	10.11
665.249	8.86
665.576	9.43
665.902	9.57
666.228	9.21
666.554	9.4
666.881	8.94
667.207	10.18
667.533	9.96
667.859	8.83
668.185	9.24
668.511	9.56
668.837	9.38
669.162	10.21
669.488	9.36
669.814	10.14
670.139	9.33
670.465	9.02
670.791	9.32
671.116	9.23
671.442	9.42
671.767	9.65
672.092	10.64
672.418	10.06
672.743	9.83
673.068	9.15
673.393	9.75
673.718	10.14
674.043	10.23
674.368	9.33
674.693	9.5
675.018	9.89
675.343	9.96
675.667	10.65
675.992	10.18
676.317	9.91
676.641	9.76
676.966	10.13
677.29	10.37
677.615	10.49
677.939	10.51
678.264	10.62
678.588	10.19
678.912	10.6
679.236	9.62
679.56	10.88
679.885	10.75
680.209	10.89
680.532	10.9
680.856	10.18
681.18	10.18
681.504	10.33
681.828	10.81
682.152	10.52
682.475	10.77
682.799	10.77
683.122	10.64
683.446	10.7
683.769	11.87
684.093	10.47
684.416	10.73
684.739	11.13
685.062	11.02
685.386	10.9
685.709	11.49
686.032	11.13
686.355	10.45
686.678	11.15
687.001	11.14
687.324	11.08
687.646	11.15
687.969	11.71
688.292	11.09
688.614	11.25
688.937	11.49
689.26	11.2
689.582	11.01
