Data from 0402_chest_Reflection__0__213.txt Node

Date: Tue Dec 12 20:09:53 CST 2023
User: ToomeyLab
Spectrometer: FLMS14357
Trigger mode: 0
Integration Time (sec): 1.000000E-2
Scans to average: 100
Electric dark correction enabled: true
Nonlinearity correction enabled: false
Boxcar width: 0
XAxis mode: Wavelengths
Number of Pixels in Spectrum: 2048
>>>>>Begin Spectral Data<<<<<
189.047	-28.03
189.435	-28.03
189.823	-28.03
190.211	4873.68
190.599	770.87
190.987	7.73
191.375	-267.04
191.763	1145.45
192.151	359.53
192.538	374.36
192.926	112.03
193.314	152.66
193.702	-18.56
194.089	60.78
194.477	-159.21
194.864	317.65
195.252	-45.92
195.639	115.45
196.027	-46.62
196.414	117.24
196.801	412.44
197.189	-5.87
197.576	1848.98
197.963	21.35
198.351	4.7
198.738	53.37
199.125	-8.36
199.512	-9.88
199.899	-36.44
200.286	-26.72
200.673	-120.11
201.06	-35.3
201.447	-94.11
201.833	-30.14
202.22	10.26
202.607	-195.06
202.994	-19.94
203.38	-8.48
203.767	-67.03
204.154	28.98
204.54	24.27
204.927	33.57
205.313	-0.99
205.699	-45.61
206.086	-1.44
206.472	29.34
206.858	-7.17
207.245	9.77
207.631	4.73
208.017	-1.11
208.403	-65.53
208.789	-19.3
209.175	-42.84
209.561	6.57
209.947	-21.77
210.333	-11.95
210.719	-5.74
211.105	10.81
211.491	30.06
211.876	9.08
212.262	13.47
212.648	-37.56
213.034	-28.33
213.419	-12.74
213.805	0.48
214.19	10.31
214.576	-13.15
214.961	22.04
215.346	-65.2
215.732	6.11
216.117	-1.61
216.502	-29.12
216.888	-14.08
217.273	-46.15
217.658	-21.86
218.043	-53.11
218.428	-3.24
218.813	1.62
219.198	-31.7
219.583	14.2
219.968	-7.28
220.353	-1.43
220.738	0.74
221.122	8.2
221.507	-42.6
221.892	-4.55
222.276	-6.18
222.661	-6.85
223.046	-24.56
223.43	-5.38
223.815	-13.28
224.199	5.78
224.583	-5.75
224.968	0.34
225.352	-4.56
225.736	2.6
226.121	-7.45
226.505	-5.23
226.889	0.66
227.273	-8.17
227.657	7.06
228.041	-2.11
228.425	-2.12
228.809	1.92
229.193	-1.64
229.577	2.6
229.961	0.78
230.344	1.73
230.728	4.08
231.112	1.93
231.495	2.38
231.879	1.24
232.263	0.12
232.646	0.83
233.03	1.32
233.413	0.88
233.797	2.31
234.18	-1.66
234.563	2.99
234.946	3.5
235.33	3.69
235.713	1.9
236.096	0.69
236.479	1.13
236.862	1.04
237.245	1.8
237.628	1.29
238.011	1.47
238.394	0.38
238.777	2.96
239.16	2.11
239.543	2.15
239.925	1.96
240.308	1.89
240.691	1.79
241.073	3.45
241.456	2.73
241.838	1.26
242.221	2.33
242.603	2.43
242.986	0.93
243.368	1.82
243.75	1.68
244.133	2.02
244.515	1.74
244.897	1.86
245.279	2.5
245.661	1.66
246.043	1.17
246.425	3.44
246.807	1.23
247.189	2.66
247.571	1.71
247.953	2.04
248.335	2.29
248.717	1.93
249.098	1.9
249.48	1.88
249.862	1.56
250.243	1.83
250.625	2.53
251.006	1.77
251.388	1.5
251.769	1.34
252.151	1.15
252.532	2.62
252.913	2.69
253.295	3.19
253.676	1.5
254.057	1.73
254.438	2.18
254.819	1.53
255.2	1.94
255.581	1.76
255.962	-0.41
256.343	1.47
256.724	1.54
257.105	2.36
257.486	1.24
257.867	2.1
258.247	1.51
258.628	2.36
259.009	1.3
259.389	1.74
259.77	2.05
260.15	1.83
260.531	2.58
260.911	2.52
261.292	1.62
261.672	1.78
262.052	1.99
262.432	1.83
262.813	1.89
263.193	1.76
263.573	1.83
263.953	2.15
264.333	2.81
264.713	2.19
265.093	1.82
265.473	2.01
265.853	1.13
266.233	0.93
266.612	0.69
266.992	1.88
267.372	2.31
267.752	2.58
268.131	0.91
268.511	1.62
268.89	1.16
269.27	1.21
269.649	1.89
270.029	1.56
270.408	2.52
270.787	1.7
271.167	1.48
271.546	1.57
271.925	2.13
272.304	2.48
272.683	1.2
273.062	1.33
273.441	2.03
273.82	1.73
274.199	1.94
274.578	1.25
274.957	1.54
275.336	2.29
275.715	1.87
276.093	1.45
276.472	2.35
276.851	2.17
277.229	1.43
277.608	1.65
277.986	1.55
278.365	2.27
278.743	1.56
279.122	2.07
279.5	1.14
279.878	1
280.257	1.52
280.635	1.25
281.013	1.74
281.391	2.02
281.769	1.75
282.147	1.57
282.525	0.98
282.903	1.54
283.281	1.75
283.659	1.53
284.037	2.42
284.415	1.68
284.792	2.09
285.17	1.32
285.548	2.18
285.925	1.49
286.303	1.59
286.68	1.53
287.058	2.04
287.435	1.58
287.813	1.53
288.19	1.78
288.567	1.74
288.945	1.82
289.322	1.08
289.699	1.57
290.076	1.66
290.453	2.17
290.83	1.68
291.207	2.2
291.584	1.91
291.961	2.01
292.338	1.41
292.715	1.2
293.092	1.44
293.469	1.52
293.845	1.72
294.222	1.33
294.599	2.18
294.975	1.95
295.352	2.01
295.728	1.95
296.105	2.25
296.481	2.03
296.858	1.78
297.234	2.1
297.61	1.94
297.986	2.06
298.363	2.1
298.739	1.88
299.115	1.41
299.491	1.72
299.867	1.84
300.243	1.8
300.619	2.26
300.995	2.3
301.371	1.83
301.746	2.15
302.122	2.62
302.498	2.14
302.874	2.37
303.249	2.41
303.625	1.35
304	1.99
304.376	1.91
304.751	2.3
305.127	1.77
305.502	2.04
305.878	1.93
306.253	1.44
306.628	2.13
307.003	2.1
307.378	2.02
307.754	1.89
308.129	2.24
308.504	2.91
308.879	1.44
309.254	1.9
309.629	2.49
310.003	1.82
310.378	2.28
310.753	2.04
311.128	2.08
311.502	1.37
311.877	1.68
312.252	1.56
312.626	1.71
313.001	1.93
313.375	1.58
313.75	1.94
314.124	2.26
314.498	1.89
314.873	2.13
315.247	2.15
315.621	1.88
315.995	1.95
316.369	2.05
316.743	1.57
317.117	1.52
317.491	1.44
317.865	2.02
318.239	1.11
318.613	2.65
318.987	2.71
319.361	1.55
319.734	1.82
320.108	1.15
320.482	2.03
320.855	1.84
321.229	2.11
321.602	2.2
321.976	2.12
322.349	2.28
322.723	1.6
323.096	2.19
323.469	1.66
323.843	2.7
324.216	2.56
324.589	1.76
324.962	2.3
325.335	2.44
325.708	1.71
326.081	2.2
326.454	2.47
326.827	2.54
327.2	2.29
327.573	1.8
327.945	2.46
328.318	2.24
328.691	1.39
329.063	2.58
329.436	2.66
329.809	1.84
330.181	1.68
330.553	1.78
330.926	2.07
331.298	2
331.671	2.08
332.043	1.39
332.415	2.35
332.787	1.39
333.159	1.88
333.532	1.88
333.904	1.85
334.276	2.12
334.648	2.08
335.02	2.11
335.391	1.9
335.763	2.26
336.135	2.57
336.507	2.52
336.879	1.33
337.25	1.9
337.622	1.65
337.993	2.1
338.365	1.99
338.736	1.99
339.108	1.8
339.479	2.34
339.851	1.84
340.222	1.95
340.593	2.08
340.964	2.16
341.336	2.71
341.707	1.31
342.078	1.68
342.449	1.96
342.82	2.19
343.191	2.17
343.562	2.35
343.933	2.48
344.303	1.99
344.674	2.29
345.045	2.56
345.416	2.38
345.786	1.46
346.157	2.13
346.527	2.4
346.898	2.04
347.268	1.83
347.639	2.37
348.009	1.88
348.38	1.99
348.75	2.31
349.12	2.06
349.49	2.04
349.861	2.11
350.231	1.97
350.601	2.17
350.971	2.4
351.341	2.16
351.711	1.85
352.081	2.42
352.45	2.1
352.82	2.02
353.19	2.05
353.56	2.4
353.929	2.32
354.299	2.01
354.669	1.94
355.038	1.44
355.408	2.07
355.777	2.51
356.147	1.81
356.516	1.96
356.885	1.83
357.254	2.68
357.624	1.76
357.993	2.11
358.362	1.93
358.731	2.13
359.1	1.75
359.469	2.23
359.838	1.96
360.207	2.04
360.576	2.03
360.945	1.84
361.314	2.22
361.682	2.06
362.051	2.11
362.42	2.38
362.788	2.01
363.157	2.57
363.525	2.39
363.894	2.02
364.262	2.06
364.631	1.72
364.999	2.04
365.367	2.25
365.735	1.86
366.104	2.43
366.472	2.03
366.84	2.25
367.208	2.19
367.576	2
367.944	2.34
368.312	2.28
368.68	2.06
369.048	1.97
369.416	2.03
369.783	2.27
370.151	2.19
370.519	1.89
370.886	2.54
371.254	2.42
371.621	2.06
371.989	2.02
372.356	2.19
372.724	2.43
373.091	1.97
373.458	2.13
373.826	2.15
374.193	1.66
374.56	2.29
374.927	2.44
375.294	2.1
375.661	2.7
376.028	2.37
376.395	2.41
376.762	2.49
377.129	2.34
377.496	2.17
377.863	2.34
378.229	2.16
378.596	1.93
378.963	2.38
379.329	1.92
379.696	2.2
380.062	2.47
380.429	2.18
380.795	2.19
381.161	2.33
381.528	2.24
381.894	2.56
382.26	2.05
382.626	2.32
382.993	2.27
383.359	2.06
383.725	2.28
384.091	2.25
384.457	2.24
384.823	1.91
385.188	2.16
385.554	2.37
385.92	2.17
386.286	2.41
386.651	2.44
387.017	2.65
387.383	2.22
387.748	2.32
388.114	2.46
388.479	2.31
388.845	2.38
389.21	2.14
389.575	2.14
389.94	2.39
390.306	2.37
390.671	2.39
391.036	2.23
391.401	2.23
391.766	2.25
392.131	2.83
392.496	2.02
392.861	2.06
393.226	2.39
393.591	2.42
393.956	2.3
394.32	2.4
394.685	2.33
395.05	2.16
395.414	2.42
395.779	2.32
396.143	2.67
396.508	2.28
396.872	2.28
397.236	2.44
397.601	2.32
397.965	2.42
398.329	2.44
398.694	2.36
399.058	2.37
399.422	2.4
399.786	2.38
400.15	2.28
400.514	2.59
400.878	2.2
401.242	2.26
401.605	2.39
401.969	2.34
402.333	2.38
402.697	2.25
403.06	2.09
403.424	2.45
403.787	2.15
404.151	2.43
404.514	2.36
404.878	2.32
405.241	2.6
405.604	2.29
405.968	2.14
406.331	2.54
406.694	2.61
407.057	2.4
407.42	2.36
407.783	2.41
408.146	2.42
408.509	2.51
408.872	2.33
409.235	2.43
409.598	2.15
409.961	2.49
410.323	2.63
410.686	2.42
411.049	2.39
411.411	2.54
411.774	2.61
412.136	2.61
412.499	2.3
412.861	2.51
413.223	2.72
413.586	2.33
413.948	2.41
414.31	2.49
414.672	2.59
415.035	2.42
415.397	2.33
415.759	2.54
416.121	2.6
416.483	2.54
416.845	2.28
417.206	2.66
417.568	2.61
417.93	2.46
418.292	2.29
418.653	2.63
419.015	2.29
419.377	2.38
419.738	2.49
420.1	2.45
420.461	2.49
420.822	2.6
421.184	2.53
421.545	2.59
421.906	2.49
422.267	2.5
422.629	2.41
422.99	2.47
423.351	2.44
423.712	2.51
424.073	2.54
424.434	2.45
424.795	2.43
425.155	2.46
425.516	2.42
425.877	2.49
426.238	2.45
426.598	2.49
426.959	2.39
427.32	2.54
427.68	2.53
428.041	2.54
428.401	2.51
428.761	2.41
429.122	2.65
429.482	2.82
429.842	2.73
430.202	2.51
430.563	2.59
430.923	2.59
431.283	2.52
431.643	2.73
432.003	2.49
432.363	2.64
432.722	2.5
433.082	2.61
433.442	2.73
433.802	2.66
434.161	2.54
434.521	2.74
434.881	2.62
435.24	2.55
435.6	2.67
435.959	2.61
436.319	2.8
436.678	2.62
437.037	2.63
437.396	2.46
437.756	2.58
438.115	2.69
438.474	2.47
438.833	2.75
439.192	2.78
439.551	2.67
439.91	2.48
440.269	2.55
440.628	2.56
440.987	2.55
441.345	2.59
441.704	2.66
442.063	2.61
442.421	2.65
442.78	2.6
443.138	2.65
443.497	2.67
443.855	2.67
444.214	2.58
444.572	2.77
444.93	2.77
445.288	2.51
445.647	2.74
446.005	2.66
446.363	2.39
446.721	2.66
447.079	2.72
447.437	2.5
447.795	2.6
448.153	2.58
448.51	2.68
448.868	2.69
449.226	2.84
449.584	2.76
449.941	2.56
450.299	2.82
450.656	2.73
451.014	2.7
451.371	2.82
451.729	2.79
452.086	2.68
452.443	2.92
452.801	2.73
453.158	2.58
453.515	2.8
453.872	2.75
454.229	3
454.586	2.61
454.943	2.66
455.3	2.67
455.657	2.72
456.014	2.87
456.371	2.79
456.727	2.79
457.084	2.68
457.441	2.73
457.797	2.89
458.154	2.79
458.51	2.72
458.867	2.88
459.223	2.74
459.58	2.86
459.936	2.53
460.292	2.92
460.648	2.87
461.005	2.71
461.361	2.77
461.717	2.84
462.073	2.72
462.429	2.72
462.785	2.83
463.141	2.81
463.496	2.65
463.852	2.97
464.208	2.91
464.564	2.92
464.919	2.97
465.275	2.76
465.631	3.01
465.986	2.84
466.342	2.75
466.697	2.99
467.052	3.15
467.408	2.96
467.763	2.9
468.118	2.89
468.473	2.81
468.829	2.86
469.184	2.91
469.539	3.02
469.894	3.05
470.249	3.08
470.603	3.02
470.958	2.97
471.313	3.03
471.668	2.96
472.023	2.9
472.377	2.97
472.732	2.9
473.086	3.03
473.441	3.11
473.795	2.86
474.15	2.93
474.504	2.79
474.859	2.99
475.213	2.72
475.567	2.97
475.921	2.98
476.275	2.82
476.63	2.98
476.984	3.05
477.338	2.72
477.692	2.86
478.045	3.01
478.399	2.96
478.753	2.86
479.107	2.9
479.461	3.09
479.814	3.04
480.168	2.92
480.521	2.91
480.875	3.1
481.228	3.06
481.582	3.01
481.935	2.99
482.289	3.13
482.642	3.12
482.995	2.97
483.348	2.97
483.701	3.15
484.055	3.05
484.408	2.98
484.761	3.02
485.114	2.92
485.466	2.83
485.819	2.84
486.172	2.81
486.525	2.86
486.878	2.91
487.23	2.9
487.583	2.92
487.936	2.99
488.288	2.96
488.641	3
488.993	2.9
489.345	2.94
489.698	2.9
490.05	2.95
490.402	3
490.754	2.97
491.107	3.07
491.459	3.01
491.811	3.14
492.163	3.02
492.515	3.12
492.866	3.03
493.218	3
493.57	2.96
493.922	2.95
494.274	3.02
494.625	3.11
494.977	3.15
495.328	3.16
495.68	3.05
496.031	3.14
496.383	3.21
496.734	3.16
497.086	3.18
497.437	3.27
497.788	3.16
498.139	3.17
498.49	3.23
498.842	3.12
499.193	3.16
499.544	3.19
499.894	3.21
500.245	3.24
500.596	3.28
500.947	3.19
501.298	3.26
501.648	3.4
501.999	3.25
502.35	3.14
502.7	3.32
503.051	3.27
503.401	3.26
503.752	3.45
504.102	3.34
504.452	3.42
504.803	3.48
505.153	3.32
505.503	3.42
505.853	3.35
506.203	3.44
506.553	3.36
506.903	3.34
507.253	3.36
507.603	3.47
507.953	3.41
508.303	3.38
508.652	3.46
509.002	3.41
509.352	3.37
509.701	3.33
510.051	3.39
510.4	3.4
510.75	3.35
511.099	3.32
511.449	3.48
511.798	3.3
512.147	3.35
512.496	3.53
512.846	3.49
513.195	3.3
513.544	3.47
513.893	3.61
514.242	3.32
514.591	3.51
514.939	3.38
515.288	3.46
515.637	3.43
515.986	3.51
516.334	3.58
516.683	3.47
517.032	3.58
517.38	3.46
517.729	3.46
518.077	3.45
518.426	3.58
518.774	3.52
519.122	3.55
519.47	3.54
519.819	3.46
520.167	3.46
520.515	3.43
520.863	3.52
521.211	3.46
521.559	3.5
521.907	3.48
522.255	3.62
522.602	3.62
522.95	3.56
523.298	3.61
523.645	3.69
523.993	3.68
524.341	3.78
524.688	3.71
525.036	3.72
525.383	3.62
525.73	3.65
526.078	3.75
526.425	3.71
526.772	3.5
527.119	3.68
527.466	3.67
527.814	3.63
528.161	3.69
528.508	3.73
528.854	3.65
529.201	3.75
529.548	3.71
529.895	3.68
530.242	3.6
530.588	3.6
530.935	3.68
531.282	3.67
531.628	3.7
531.975	3.72
532.321	3.69
532.667	3.73
533.014	3.72
533.36	3.85
533.706	3.73
534.052	3.82
534.399	3.87
534.745	3.79
535.091	3.8
535.437	3.83
535.783	3.8
536.129	3.89
536.474	3.9
536.82	3.89
537.166	4.01
537.512	4.01
537.857	4.04
538.203	3.93
538.549	3.98
538.894	3.99
539.239	4.04
539.585	4.08
539.93	4
540.276	4.19
540.621	4.14
540.966	4.07
541.311	4.06
541.656	4.28
542.001	4.14
542.346	4.07
542.691	4.03
543.036	3.99
543.381	3.93
543.726	4.06
544.071	4.08
544.415	4.12
544.76	4.19
545.105	4.17
545.449	4.21
545.794	4.25
546.138	4.25
546.483	4.32
546.827	4.33
547.171	4.39
547.516	4.31
547.86	4.36
548.204	4.42
548.548	4.4
548.892	4.36
549.236	4.38
549.58	4.44
549.924	4.45
550.268	4.46
550.612	4.4
550.956	4.65
551.3	4.63
551.643	4.64
551.987	4.79
552.33	4.63
552.674	4.62
553.017	4.81
553.361	4.85
553.704	4.7
554.048	4.7
554.391	4.75
554.734	4.73
555.077	4.82
555.42	4.68
555.764	4.76
556.107	4.77
556.45	4.7
556.793	4.74
557.135	4.83
557.478	4.83
557.821	4.87
558.164	5
558.507	5.02
558.849	4.83
559.192	5.11
559.534	5.08
559.877	4.94
560.219	5.08
560.562	5.06
560.904	5.12
561.246	5.08
561.589	5.15
561.931	5.06
562.273	5.08
562.615	5.05
562.957	4.98
563.299	5.21
563.641	5.23
563.983	4.97
564.325	5.34
564.667	5.18
565.008	5.22
565.35	5.03
565.692	5.37
566.033	5.46
566.375	5.15
566.716	5.35
567.058	5.47
567.399	5.43
567.741	5.29
568.082	5.29
568.423	5.45
568.764	5.4
569.105	5.31
569.447	5.54
569.788	5.44
570.129	5.54
570.47	5.52
570.811	5.62
571.151	5.6
571.492	5.69
571.833	5.62
572.174	5.4
572.514	5.61
572.855	5.62
573.195	5.55
573.536	5.67
573.876	5.56
574.217	5.68
574.557	5.68
574.898	5.67
575.238	5.77
575.578	5.61
575.918	6.02
576.258	5.95
576.598	5.78
576.938	5.78
577.278	5.91
577.618	5.89
577.958	5.94
578.298	6.12
578.638	5.85
578.977	6.01
579.317	6.05
579.657	6.06
579.996	6.14
580.336	6.28
580.675	6.07
581.014	6.24
581.354	6.31
581.693	6.36
582.032	6.25
582.372	6.35
582.711	6.27
583.05	6.47
583.389	6.53
583.728	6.37
584.067	6.46
584.406	6.39
584.745	6.44
585.083	6.41
585.422	6.63
585.761	6.59
586.1	6.61
586.438	6.89
586.777	6.7
587.115	6.49
587.454	6.74
587.792	6.47
588.13	6.74
588.469	6.71
588.807	6.6
589.145	6.86
589.483	6.82
589.821	6.98
590.159	6.92
590.497	7.15
590.835	6.83
591.173	6.97
591.511	6.99
591.849	6.82
592.187	7.15
592.524	6.66
592.862	6.99
593.2	6.91
593.537	6.87
593.875	7.11
594.212	7.05
594.55	7.35
594.887	7.58
595.224	7.35
595.561	7.39
595.899	6.99
596.236	7.35
596.573	7.26
596.91	7.58
597.247	7.36
597.584	7.44
597.921	7.32
598.258	7.47
598.594	7.51
598.931	7.5
599.268	7.21
599.604	7.45
599.941	7.55
600.277	7.49
600.614	7.73
600.95	7.64
601.287	7.96
601.623	7.77
601.959	7.58
602.296	7.73
602.632	7.63
602.968	8.16
603.304	7.59
603.64	8.1
603.976	7.75
604.312	8.07
604.648	8.04
604.984	7.99
605.319	7.87
605.655	7.91
605.991	8.04
606.326	7.95
606.662	8.03
606.998	7.91
607.333	8.03
607.668	8.21
608.004	8.29
608.339	8.43
608.674	8.38
609.01	8.31
609.345	8.33
609.68	8.46
610.015	8.25
610.35	8.21
610.685	8.34
611.02	8.39
611.355	8.49
611.689	8.4
612.024	8.52
612.359	8.56
612.694	8.52
613.028	8.76
613.363	8.62
613.697	8.6
614.032	8.87
614.366	8.99
614.7	8.65
615.035	8.59
615.369	8.73
615.703	8.98
616.037	8.9
616.371	8.92
616.705	8.91
617.039	9.22
617.373	9.04
617.707	8.96
618.041	8.71
618.375	9.25
618.709	8.98
619.042	9.27
619.376	9.33
619.71	9.28
620.043	8.95
620.377	9.34
620.71	9.28
621.043	9.14
621.377	9.14
621.71	9.71
622.043	9.7
622.376	9.68
622.709	9.31
623.043	9.35
623.376	10.02
623.709	9.65
624.041	10.06
624.374	9.46
624.707	9.79
625.04	9.56
625.373	9.8
625.705	9.57
626.038	10.08
626.37	10.08
626.703	9.76
627.035	9.62
627.368	9.96
627.7	9.75
628.032	9.69
628.365	9.97
628.697	10.17
629.029	9.89
629.361	9.89
629.693	9.94
630.025	9.98
630.357	10.36
630.689	10.17
631.021	10.42
631.353	10.34
631.684	10.42
632.016	10.4
632.348	10.4
632.679	10.55
633.011	10.8
633.342	10.57
633.674	10.46
634.005	10.28
634.336	10.61
634.668	10.74
634.999	10.43
635.33	10.67
635.661	10.91
635.992	10.69
636.323	10.53
636.654	10.78
636.985	10.81
637.316	10.45
637.647	10.96
637.977	10.85
638.308	11.22
638.639	11.17
638.969	11.14
639.3	10.86
639.63	11.31
639.961	10.97
640.291	10.49
640.622	10.6
640.952	11.26
641.282	10.72
641.612	11.65
641.943	11.59
642.273	11.03
642.603	11.54
642.933	11.31
643.263	11.24
643.592	11.59
643.922	11.94
644.252	11.56
644.582	11.25
644.911	11.6
645.241	10.98
645.571	12.02
645.9	11.8
646.23	11.73
646.559	11.93
646.888	11.68
647.218	11.27
647.547	11.61
647.876	12.3
648.205	11.92
648.534	12.18
648.863	11.7
649.192	12.19
649.521	12.64
649.85	11.64
650.179	12.4
650.508	12.5
650.837	12.11
651.165	11.95
651.494	12.28
651.822	12.27
652.151	12.63
652.479	11.96
652.808	12.38
653.136	12.26
653.465	12.49
653.793	12.54
654.121	12.54
654.449	12.33
654.777	12.53
655.105	12.63
655.433	12.37
655.761	12.77
656.089	12.93
656.417	12.61
656.745	13.14
657.073	12.33
657.4	12.65
657.728	12.54
658.056	12.95
658.383	12.56
658.711	12.82
659.038	12.93
659.365	12.91
659.693	12.78
660.02	12.71
660.347	12.97
660.674	13.11
661.001	12.65
661.329	13.1
661.656	12.91
661.982	13.17
662.309	13.26
662.636	13.42
662.963	12.94
663.29	13.43
663.616	13.47
663.943	14.03
664.27	14.09
664.596	13.68
664.923	13.88
665.249	13.24
665.576	13.71
665.902	13.83
666.228	13.91
666.554	13.05
666.881	13.37
667.207	13.49
667.533	14.13
667.859	13.63
668.185	13.82
668.511	14.32
668.837	13.55
669.162	15.06
669.488	14.09
669.814	14.75
670.139	13.88
670.465	13.58
670.791	14.02
671.116	14.66
671.442	13.69
671.767	14.31
672.092	14.73
672.418	14.38
672.743	14.17
673.068	14.2
673.393	14.28
673.718	15.18
674.043	14.78
674.368	13.29
674.693	14.03
675.018	14.28
675.343	14.88
675.667	15.43
675.992	14.88
676.317	14.63
676.641	13.95
676.966	15
677.29	14.07
677.615	14.43
677.939	14.24
678.264	15.26
678.588	14.39
678.912	15.53
679.236	14.72
679.56	15.41
679.885	14.78
680.209	15.14
680.532	15.38
680.856	14.59
681.18	15.31
681.504	15.01
681.828	15.43
682.152	15.19
682.475	15.33
682.799	15.29
683.122	15.61
683.446	15.4
683.769	16.48
684.093	15.02
684.416	15.15
684.739	15.69
685.062	15.81
685.386	15.36
685.709	15.65
686.032	16
686.355	14.83
686.678	16.35
687.001	15.99
687.324	15.85
