Data from 0402_crown_Reflection__2__220.txt Node

Date: Tue Dec 12 20:12:53 CST 2023
User: ToomeyLab
Spectrometer: FLMS14357
Trigger mode: 0
Integration Time (sec): 1.000000E-2
Scans to average: 100
Electric dark correction enabled: true
Nonlinearity correction enabled: false
Boxcar width: 0
XAxis mode: Wavelengths
Number of Pixels in Spectrum: 2048
>>>>>Begin Spectral Data<<<<<
189.047	59.18
189.435	59.18
189.823	59.18
190.211	-340.79
190.599	663.35
190.987	26.08
191.375	84.5
191.763	1129.55
192.151	147.1
192.538	-98.85
192.926	102.77
193.314	-8.04
193.702	62.35
194.089	131.2
194.477	21.42
194.864	192.11
195.252	73.88
195.639	72.1
196.027	142
196.414	55.59
196.801	277.87
197.189	-72.16
197.576	401.53
197.963	18.72
198.351	-14.74
198.738	2.95
199.125	12.71
199.512	-7.23
199.899	-42.26
200.286	11.51
200.673	-60.58
201.06	-15.1
201.447	-116.9
201.833	-4.88
202.22	4.28
202.607	-304.19
202.994	-6.08
203.38	72.7
203.767	-17.66
204.154	26.61
204.54	20.77
204.927	-46.19
205.313	-33.37
205.699	-16.35
206.086	-26.54
206.472	25.24
206.858	-15.54
207.245	-17.7
207.631	2.52
208.017	6.44
208.403	-57.76
208.789	26.91
209.175	-66.21
209.561	16.74
209.947	-12.68
210.333	17.88
210.719	-26.07
211.105	2.58
211.491	14.53
211.876	-0.9
212.262	15.59
212.648	-47.92
213.034	-35.96
213.419	-17.97
213.805	6.51
214.19	21.57
214.576	18.07
214.961	-59.02
215.346	-0.66
215.732	4.84
216.117	-21.95
216.502	-67.02
216.888	-81.77
217.273	-66.96
217.658	-21.48
218.043	-29.28
218.428	-9.03
218.813	-9.91
219.198	-57.1
219.583	9.25
219.968	10.24
220.353	-3.65
220.738	8.55
221.122	3.37
221.507	-30.5
221.892	-8.81
222.276	8.9
222.661	-8.89
223.046	-5.25
223.43	10.7
223.815	-5.75
224.199	2.3
224.583	-7.17
224.968	-7.86
225.352	-3.8
225.736	-5.67
226.121	-4.03
226.505	0.92
226.889	-2.4
227.273	4.98
227.657	6.46
228.041	6.36
228.425	1.33
228.809	1.67
229.193	0.73
229.577	5.89
229.961	3.93
230.344	3.95
230.728	4.98
231.112	4.73
231.495	4.22
231.879	4.02
232.263	3.46
232.646	3.55
233.03	6.1
233.413	2.73
233.797	2.91
234.18	0.24
234.563	2.82
234.946	4.97
235.33	5.77
235.713	2.53
236.096	3.07
236.479	3.22
236.862	4.28
237.245	2.76
237.628	5.84
238.011	2.95
238.394	4.29
238.777	4.66
239.16	3.52
239.543	5.61
239.925	4.96
240.308	3.6
240.691	2.81
241.073	5.14
241.456	5.15
241.838	3.53
242.221	4.8
242.603	5.64
242.986	3.8
243.368	4.77
243.75	3.94
244.133	4.55
244.515	4.57
244.897	4.68
245.279	5.13
245.661	3.15
246.043	3.82
246.425	4.62
246.807	4.39
247.189	4.08
247.571	4.38
247.953	4.06
248.335	4.1
248.717	4.55
249.098	4.37
249.48	4.63
249.862	4.08
250.243	3.76
250.625	4.37
251.006	4.97
251.388	4.15
251.769	4.35
252.151	3.4
252.532	3.46
252.913	3.99
253.295	4.87
253.676	3.38
254.057	3.8
254.438	4.09
254.819	3.12
255.2	4.4
255.581	3.38
255.962	2.7
256.343	3.56
256.724	4.49
257.105	4.26
257.486	2.79
257.867	3.33
258.247	2.8
258.628	3.64
259.009	3.47
259.389	4.25
259.77	3.83
260.15	3.96
260.531	4.18
260.911	4.26
261.292	3.75
261.672	3.98
262.052	4.08
262.432	4.09
262.813	4.03
263.193	3.81
263.573	4.18
263.953	4.84
264.333	4.52
264.713	4.39
265.093	3.91
265.473	4.75
265.853	3.9
266.233	2.5
266.612	2.68
266.992	3.24
267.372	4.28
267.752	4.34
268.131	2.58
268.511	3.97
268.89	2.83
269.27	3.33
269.649	3.73
270.029	3.29
270.408	3.51
270.787	2.92
271.167	3.29
271.546	3.55
271.925	4.63
272.304	4.01
272.683	3.08
273.062	3.89
273.441	3.88
273.82	3.03
274.199	3.53
274.578	3.31
274.957	3.61
275.336	3.26
275.715	3.81
276.093	3.27
276.472	3.96
276.851	3.76
277.229	3.05
277.608	3.82
277.986	2.99
278.365	3.47
278.743	3.56
279.122	3.89
279.5	3.9
279.878	2.31
280.257	3.11
280.635	3
281.013	2.77
281.391	3.56
281.769	3.18
282.147	3.01
282.525	2.92
282.903	2.94
283.281	3.38
283.659	3.23
284.037	3.65
284.415	3.4
284.792	3.44
285.17	3.25
285.548	3.49
285.925	3.32
286.303	2.46
286.68	3.47
287.058	3.46
287.435	3.09
287.813	3.03
288.19	3.39
288.567	3.2
288.945	3.34
289.322	2.52
289.699	3.34
290.076	2.78
290.453	3.52
290.83	3.65
291.207	3.37
291.584	3.27
291.961	3.24
292.338	3.13
292.715	3.45
293.092	3.13
293.469	2.83
293.845	3.43
294.222	3.27
294.599	3.45
294.975	2.76
295.352	3.04
295.728	2.66
296.105	3.31
296.481	3.38
296.858	3.04
297.234	3.21
297.61	3.39
297.986	2.96
298.363	3.35
298.739	2.89
299.115	2.75
299.491	3.11
299.867	2.84
300.243	3.31
300.619	3
300.995	3.26
301.371	3.19
301.746	2.78
302.122	3.21
302.498	3.41
302.874	3.39
303.249	3.57
303.625	2.81
304	2.95
304.376	2.69
304.751	3.59
305.127	2.9
305.502	3.42
305.878	2.4
306.253	2.84
306.628	2.72
307.003	2.81
307.378	2.63
307.754	3.23
308.129	2.64
308.504	3.75
308.879	2.5
309.254	3.64
309.629	2.76
310.003	2.98
310.378	3
310.753	3.04
311.128	3.03
311.502	2.71
311.877	2.59
312.252	2.54
312.626	2.67
313.001	2.51
313.375	2.57
313.75	2.84
314.124	3.05
314.498	2.99
314.873	2.57
315.247	3.33
315.621	2.87
315.995	3.21
316.369	2.72
316.743	2.7
317.117	2.4
317.491	3.22
317.865	2.7
318.239	3.17
318.613	3.23
318.987	3.51
319.361	2.33
319.734	2.58
320.108	3.22
320.482	2.98
320.855	2.03
321.229	2.91
321.602	2.95
321.976	2.79
322.349	3.63
322.723	2.79
323.096	2.74
323.469	2.32
323.843	3.4
324.216	2.79
324.589	2.66
324.962	2.75
325.335	3.14
325.708	2.93
326.081	3.1
326.454	2.12
326.827	2.58
327.2	2.6
327.573	2.81
327.945	2.75
328.318	3.02
328.691	2.44
329.063	3.12
329.436	2.89
329.809	2.83
330.181	2.88
330.553	2.8
330.926	2.57
331.298	2.36
331.671	2.58
332.043	2.56
332.415	2.66
332.787	2.4
333.159	2.36
333.532	2.58
333.904	2.7
334.276	3.38
334.648	2.74
335.02	2.23
335.391	2.66
335.763	2.11
336.135	2.97
336.507	3.22
336.879	2.55
337.25	2.86
337.622	2.49
337.993	2.86
338.365	2.29
338.736	3.1
339.108	2.7
339.479	3.04
339.851	2.81
340.222	2.44
340.593	2.85
340.964	2.81
341.336	3
341.707	2.76
342.078	3.31
342.449	2.66
342.82	2.74
343.191	3.04
343.562	2.9
343.933	3.29
344.303	2.76
344.674	2.72
345.045	2.88
345.416	3.12
345.786	2.53
346.157	2.75
346.527	2.79
346.898	2.54
347.268	2.55
347.639	2.78
348.009	2.82
348.38	2.95
348.75	2.67
349.12	3.45
349.49	2.56
349.861	3.24
350.231	2.72
350.601	3.09
350.971	3.18
351.341	2.75
351.711	2.69
352.081	2.6
352.45	2.9
352.82	2.92
353.19	2.89
353.56	2.46
353.929	2.63
354.299	2.21
354.669	2.78
355.038	3.03
355.408	2.68
355.777	2.93
356.147	2.81
356.516	3.06
356.885	2.8
357.254	2.98
357.624	2.74
357.993	2.75
358.362	3.26
358.731	3.23
359.1	2.61
359.469	2.9
359.838	2.93
360.207	3.01
360.576	3.38
360.945	2.8
361.314	3.14
361.682	3.02
362.051	3.54
362.42	3.04
362.788	3
363.157	3.16
363.525	3.2
363.894	3.1
364.262	2.83
364.631	2.75
364.999	3.22
365.367	2.95
365.735	2.85
366.104	2.97
366.472	2.61
366.84	2.99
367.208	3.12
367.576	3.17
367.944	3.04
368.312	3.14
368.68	3.01
369.048	3.17
369.416	2.95
369.783	2.93
370.151	3.04
370.519	3.01
370.886	3.42
371.254	2.93
371.621	3.36
371.989	3.05
372.356	2.6
372.724	3.15
373.091	2.92
373.458	2.81
373.826	3.12
374.193	2.69
374.56	3.24
374.927	3.27
375.294	2.99
375.661	3.27
376.028	3.18
376.395	3.45
376.762	3.53
377.129	3.15
377.496	3.11
377.863	3.14
378.229	3.32
378.596	2.94
378.963	3.28
379.329	3.12
379.696	2.94
380.062	3.53
380.429	3.07
380.795	3.1
381.161	3.22
381.528	3.03
381.894	3.59
382.26	3.05
382.626	3.08
382.993	3.39
383.359	2.92
383.725	3.18
384.091	3.17
384.457	2.94
384.823	3.05
385.188	3.08
385.554	3.41
385.92	3.07
386.286	3.21
386.651	3.27
387.017	3.49
387.383	3.1
387.748	3.21
388.114	3.26
388.479	3.59
388.845	3.21
389.21	3.27
389.575	3.05
389.94	2.98
390.306	3.32
390.671	3.19
391.036	3.36
391.401	3.39
391.766	3.37
392.131	3.39
392.496	3.28
392.861	3.26
393.226	3.35
393.591	3.27
393.956	3.33
394.32	3.3
394.685	3.41
395.05	3.19
395.414	3.3
395.779	3.31
396.143	3.37
396.508	3.29
396.872	3.29
397.236	3.37
397.601	3.36
397.965	3.32
398.329	3.27
398.694	3.24
399.058	3.3
399.422	3.14
399.786	3.53
400.15	3.17
400.514	3.45
400.878	3.45
401.242	3.17
401.605	3.47
401.969	3.4
402.333	3.57
402.697	3.19
403.06	3.31
403.424	3.47
403.787	2.95
404.151	3.39
404.514	3.28
404.878	3.2
405.241	3.52
405.604	3.19
405.968	3.2
406.331	3.6
406.694	3.67
407.057	3.29
407.42	3.42
407.783	3.28
408.146	3.33
408.509	3.31
408.872	3.53
409.235	3.21
409.598	3.39
409.961	3.43
410.323	3.3
410.686	3.62
411.049	3.67
411.411	3.59
411.774	3.34
412.136	3.61
412.499	3.23
412.861	3.53
413.223	3.68
413.586	3.45
413.948	3.47
414.31	3.55
414.672	3.63
415.035	3.42
415.397	3.6
415.759	3.45
416.121	3.48
416.483	3.47
416.845	3.17
417.206	3.77
417.568	3.32
417.93	3.45
418.292	3.27
418.653	3.53
419.015	3.39
419.377	3.35
419.738	3.38
420.1	3.43
420.461	3.38
420.822	3.47
421.184	3.54
421.545	3.65
421.906	3.37
422.267	3.41
422.629	3.53
422.99	3.4
423.351	3.46
423.712	3.42
424.073	3.46
424.434	3.35
424.795	3.52
425.155	3.45
425.516	3.39
425.877	3.41
426.238	3.43
426.598	3.44
426.959	3.39
427.32	3.5
427.68	3.36
428.041	3.5
428.401	3.45
428.761	3.56
429.122	3.49
429.482	3.73
429.842	3.76
430.202	3.53
430.563	3.61
430.923	3.62
431.283	3.46
431.643	3.5
432.003	3.53
432.363	3.56
432.722	3.54
433.082	3.6
433.442	3.47
433.802	3.65
434.161	3.62
434.521	3.61
434.881	3.53
435.24	3.6
435.6	3.56
435.959	3.64
436.319	3.57
436.678	3.84
437.037	3.61
437.396	3.34
437.756	3.43
438.115	3.67
438.474	3.56
438.833	3.58
439.192	3.52
439.551	3.59
439.91	3.52
440.269	3.4
440.628	3.53
440.987	3.39
441.345	3.65
441.704	3.53
442.063	3.66
442.421	3.58
442.78	3.66
443.138	3.54
443.497	3.57
443.855	3.6
444.214	3.62
444.572	3.65
444.93	3.69
445.288	3.58
445.647	3.55
446.005	3.62
446.363	3.37
446.721	3.49
447.079	3.63
447.437	3.47
447.795	3.56
448.153	3.55
448.51	3.59
448.868	3.63
449.226	3.61
449.584	3.61
449.941	3.56
450.299	3.63
450.656	3.58
451.014	3.66
451.371	3.75
451.729	3.68
452.086	3.56
452.443	3.79
452.801	3.5
453.158	3.65
453.515	3.77
453.872	3.7
454.229	3.74
454.586	3.61
454.943	3.6
455.3	3.65
455.657	3.57
456.014	3.8
456.371	3.72
456.727	3.73
457.084	3.59
457.441	3.67
457.797	3.71
458.154	3.57
458.51	3.63
458.867	3.78
459.223	3.74
459.58	3.68
459.936	3.38
460.292	3.64
460.648	3.62
461.005	3.61
461.361	3.6
461.717	3.67
462.073	3.56
462.429	3.7
462.785	3.64
463.141	3.68
463.496	3.64
463.852	3.8
464.208	3.71
464.564	3.67
464.919	3.85
465.275	3.78
465.631	3.67
465.986	3.5
466.342	3.62
466.697	3.68
467.052	3.95
467.408	3.81
467.763	3.68
468.118	3.78
468.473	3.73
468.829	3.67
469.184	3.64
469.539	3.81
469.894	3.74
470.249	3.71
470.603	3.77
470.958	3.6
471.313	3.79
471.668	3.83
472.023	3.56
472.377	3.64
472.732	3.68
473.086	3.67
473.441	3.97
473.795	3.59
474.15	3.83
474.504	3.56
474.859	3.76
475.213	3.57
475.567	3.61
475.921	3.93
476.275	3.65
476.63	3.77
476.984	3.86
477.338	3.77
477.692	3.73
478.045	3.77
478.399	3.62
478.753	3.79
479.107	3.68
479.461	3.74
479.814	3.68
480.168	3.62
480.521	3.64
480.875	3.73
481.228	3.7
481.582	3.72
481.935	3.74
482.289	3.77
482.642	3.86
482.995	3.65
483.348	3.57
483.701	3.77
484.055	3.66
484.408	3.65
484.761	3.62
485.114	3.62
485.466	3.49
485.819	3.52
486.172	3.47
486.525	3.55
486.878	3.56
487.23	3.54
487.583	3.6
487.936	3.69
488.288	3.61
488.641	3.59
488.993	3.6
489.345	3.57
489.698	3.57
490.05	3.59
490.402	3.58
490.754	3.55
491.107	3.54
491.459	3.68
491.811	3.71
492.163	3.66
492.515	3.67
492.866	3.57
493.218	3.64
493.57	3.59
493.922	3.56
494.274	3.6
494.625	3.77
494.977	3.72
495.328	3.71
495.68	3.67
496.031	3.77
496.383	3.62
496.734	3.69
497.086	3.75
497.437	3.73
497.788	3.76
498.139	3.69
498.49	3.83
498.842	3.7
499.193	3.66
499.544	3.71
499.894	3.64
500.245	3.75
500.596	3.69
500.947	3.7
501.298	3.67
501.648	3.83
501.999	3.81
502.35	3.79
502.7	3.85
503.051	3.69
503.401	3.88
503.752	3.89
504.102	3.74
504.452	3.75
504.803	3.89
505.153	3.8
505.503	3.82
505.853	3.84
506.203	3.79
506.553	3.73
506.903	3.74
507.253	3.76
507.603	3.74
507.953	3.8
508.303	3.87
508.652	3.72
509.002	3.92
509.352	3.7
509.701	3.75
510.051	3.73
510.4	3.8
510.75	3.66
511.099	3.6
511.449	3.8
511.798	3.71
512.147	3.8
512.496	3.89
512.846	3.71
513.195	3.78
513.544	3.8
513.893	3.73
514.242	3.74
514.591	3.71
514.939	3.79
515.288	3.64
515.637	3.74
515.986	3.77
516.334	3.89
516.683	3.84
517.032	3.75
517.38	3.64
517.729	3.82
518.077	3.7
518.426	3.74
518.774	3.78
519.122	3.79
519.47	3.72
519.819	3.61
520.167	3.69
520.515	3.58
520.863	3.65
521.211	3.65
521.559	3.74
521.907	3.71
522.255	3.71
522.602	3.76
522.95	3.78
523.298	3.73
523.645	3.89
523.993	3.81
524.341	3.68
524.688	3.81
525.036	3.75
525.383	3.64
525.73	3.66
526.078	3.83
526.425	3.73
526.772	3.74
527.119	3.64
527.466	3.71
527.814	3.5
528.161	3.68
528.508	3.73
528.854	3.6
529.201	3.7
529.548	3.64
529.895	3.64
530.242	3.54
530.588	3.51
530.935	3.57
531.282	3.59
531.628	3.59
531.975	3.6
532.321	3.59
532.667	3.6
533.014	3.7
533.36	3.67
533.706	3.63
534.052	3.64
534.399	3.66
534.745	3.63
535.091	3.59
535.437	3.65
535.783	3.59
536.129	3.67
536.474	3.63
536.82	3.69
537.166	3.7
537.512	3.69
537.857	3.7
538.203	3.69
538.549	3.63
538.894	3.69
539.239	3.68
539.585	3.66
539.93	3.72
540.276	3.66
540.621	3.65
540.966	3.66
541.311	3.8
541.656	3.71
542.001	3.65
542.346	3.62
542.691	3.5
543.036	3.52
543.381	3.54
543.726	3.56
544.071	3.58
544.415	3.64
544.76	3.59
545.105	3.63
545.449	3.7
545.794	3.77
546.138	3.53
546.483	3.64
546.827	3.73
547.171	3.79
547.516	3.65
547.86	3.68
548.204	3.71
548.548	3.62
548.892	3.68
549.236	3.63
549.58	3.7
549.924	3.64
550.268	3.69
550.612	3.58
550.956	3.64
551.3	3.82
551.643	3.73
551.987	3.71
552.33	3.6
552.674	3.81
553.017	3.88
553.361	3.88
553.704	3.67
554.048	3.75
554.391	3.63
554.734	3.7
555.077	3.82
555.42	3.55
555.764	3.89
556.107	3.82
556.45	3.56
556.793	3.51
557.135	3.54
557.478	3.68
557.821	3.79
558.164	3.67
558.507	3.62
558.849	3.77
559.192	3.82
559.534	3.85
559.877	3.88
560.219	3.69
560.562	3.74
560.904	3.65
561.246	3.65
561.589	3.81
561.931	3.56
562.273	3.49
562.615	3.6
562.957	3.59
563.299	3.74
563.641	3.85
563.983	3.66
564.325	3.88
564.667	3.8
565.008	3.57
565.35	3.47
565.692	3.59
566.033	3.71
566.375	3.66
566.716	3.62
567.058	3.63
567.399	3.74
567.741	3.75
568.082	3.49
568.423	3.84
568.764	3.72
569.105	3.81
569.447	3.61
569.788	3.76
570.129	3.63
570.47	3.63
570.811	3.76
571.151	3.78
571.492	3.76
571.833	3.88
572.174	3.6
572.514	3.65
572.855	3.67
573.195	3.57
573.536	3.51
573.876	3.69
574.217	3.72
574.557	3.59
574.898	3.58
575.238	3.78
575.578	3.63
575.918	3.71
576.258	3.6
576.598	3.67
576.938	3.67
577.278	3.76
577.618	3.79
577.958	3.54
578.298	3.81
578.638	3.39
578.977	3.65
579.317	3.64
579.657	3.69
579.996	3.56
580.336	3.54
580.675	3.56
581.014	3.78
581.354	3.58
581.693	3.49
582.032	3.41
582.372	3.73
582.711	3.49
583.05	3.67
583.389	3.81
583.728	3.6
584.067	3.77
584.406	3.77
584.745	3.66
585.083	3.49
585.422	3.76
585.761	3.79
586.1	3.53
586.438	3.61
586.777	3.52
587.115	3.43
587.454	3.81
587.792	3.41
588.13	3.83
588.469	3.55
588.807	3.49
589.145	3.73
589.483	3.52
589.821	3.75
590.159	3.52
590.497	3.62
590.835	3.52
591.173	3.51
591.511	3.51
591.849	3.88
592.187	3.69
592.524	3.43
592.862	3.5
593.2	3.51
593.537	3.47
593.875	3.56
594.212	3.6
594.55	3.86
594.887	4.09
595.224	3.75
595.561	3.61
595.899	3.48
596.236	3.73
596.573	3.56
596.91	3.84
597.247	3.7
597.584	3.74
597.921	3.52
598.258	3.75
598.594	3.65
598.931	3.58
599.268	3.54
599.604	3.55
599.941	3.51
600.277	3.4
600.614	3.8
600.95	3.77
601.287	3.51
601.623	3.55
601.959	3.62
602.296	3.72
602.632	3.55
602.968	3.82
603.304	3.39
603.64	3.7
603.976	3.63
604.312	3.52
604.648	3.58
604.984	3.51
605.319	3.51
605.655	3.43
605.991	3.54
606.326	3.28
606.662	3.43
606.998	3.43
607.333	3.59
607.668	3.65
608.004	3.48
608.339	3.67
608.674	3.38
609.01	3.42
609.345	3.5
609.68	3.59
610.015	3.28
610.35	3.49
610.685	3.51
611.02	3.7
611.355	3.45
611.689	3.46
612.024	3.34
612.359	3.51
612.694	3.4
613.028	3.67
613.363	3.48
613.697	3.55
614.032	3.68
614.366	3.57
614.7	3.36
615.035	3.48
615.369	3.52
615.703	3.25
616.037	3.48
616.371	3.44
616.705	3.53
617.039	3.66
617.373	3.49
617.707	3.53
618.041	3.45
618.375	3.21
618.709	3.54
619.042	3.19
619.376	3.27
619.71	3.43
620.043	3.62
620.377	3.61
620.71	3.1
621.043	3.22
621.377	2.97
621.71	3.72
622.043	3.53
622.376	3.67
622.709	3.23
623.043	3.48
623.376	3.77
623.709	3.36
624.041	3.49
624.374	3.69
624.707	3.44
625.04	3.55
625.373	3.91
625.705	3.73
626.038	3.5
626.37	3.6
626.703	3.58
627.035	3.45
627.368	3.61
627.7	3.41
628.032	3.7
628.365	3.38
628.697	3.4
629.029	3.34
629.361	3.36
629.693	3.33
630.025	3.13
630.357	3.43
630.689	3.39
631.021	3.45
631.353	3.49
631.684	3.29
632.016	3.17
632.348	3.49
632.679	3.3
633.011	3.95
633.342	3.68
633.674	3.77
634.005	3.62
634.336	3.38
634.668	3.68
634.999	3.42
635.33	3.18
635.661	3.44
635.992	3.66
636.323	3.19
636.654	3.71
636.985	3.48
637.316	3.53
637.647	3.1
637.977	3.54
638.308	3.79
638.639	3.67
638.969	3.14
639.3	3.23
639.63	3.57
639.961	3.19
640.291	3.4
640.622	3.55
640.952	3.57
641.282	3.45
641.612	3.59
641.943	3.41
642.273	3.11
642.603	3.96
642.933	3.44
643.263	3.22
643.592	3.64
643.922	3.7
644.252	3.35
644.582	3.12
644.911	3.12
645.241	2.95
645.571	3.39
645.9	2.95
646.23	3.46
646.559	3.66
646.888	3.47
647.218	3.43
647.547	3.24
647.876	3.49
648.205	3.38
648.534	3.9
648.863	3.48
649.192	3.97
649.521	3.77
649.85	3.16
650.179	3.66
650.508	3.72
650.837	3.45
651.165	2.69
651.494	3.37
651.822	3.45
652.151	3.81
652.479	3.8
652.808	3.74
653.136	3.7
653.465	3.35
653.793	3.49
654.121	3.7
654.449	3.55
654.777	3.66
655.105	3.76
655.433	3.57
655.761	3.61
656.089	3.43
656.417	3.82
656.745	3.36
657.073	3.14
657.4	3.07
657.728	2.9
658.056	3.55
658.383	2.93
658.711	3.2
659.038	3.11
659.365	3.63
659.693	3.23
660.02	3.1
660.347	3.61
660.674	3.86
661.001	3.67
661.329	3.43
661.656	3.39
661.982	3.16
662.309	3.67
662.636	3.41
662.963	3.08
663.29	4.08
663.616	3.27
663.943	3.54
664.27	3.99
664.596	3.84
664.923	3.88
665.249	3.01
665.576	2.84
665.902	3.41
666.228	3.53
666.554	3.22
666.881	3.18
667.207	3.21
667.533	3.4
667.859	3.42
668.185	3.71
668.511	3.68
668.837	3.34
669.162	4.17
669.488	3.79
669.814	3.41
670.139	3.06
670.465	3.2
670.791	3.57
671.116	3.29
671.442	3.22
671.767	2.82
672.092	3.51
672.418	3.2
672.743	4
673.068	3.33
673.393	3.26
673.718	3.78
674.043	3.98
674.368	2.45
674.693	2.99
675.018	2.92
675.343	3.19
675.667	3.06
675.992	2.68
676.317	2.98
676.641	3.15
676.966	2.93
677.29	3
677.615	2.55
677.939	3.27
678.264	4.04
678.588	2.85
678.912	3.39
679.236	3.23
679.56	3.93
679.885	3.51
680.209	3.71
680.532	3.24
680.856	3.49
681.18	3.8
681.504	3.4
681.828	2.78
682.152	3.24
682.475	3.22
682.799	3.29
683.122	3.31
683.446	3.69
683.769	4.21
684.093	2.64
684.416	3.12
684.739	4.15
685.062	3.6
685.386	3.56
685.709	3.7
686.032	2.73
686.355	3.42
686.678	4.37
687.001	2.8
687.324	3.4
687.646	4.07
687.969	2.77
688.292	3.49
688.614	3.55
688.937	3.11
689.26	3.39
689.582	3.11
689.904	2.76
690.227	3.36
690.549	3.66
690.871	3.25
691.194	4.1
691.516	3.88
691.838	3.28
692.16	3.42
692.482	2.91
692.804	3.68
