Data from 0402_crown_Reflection__3__221.txt Node

Date: Tue Dec 12 20:13:01 CST 2023
User: ToomeyLab
Spectrometer: FLMS14357
Trigger mode: 0
Integration Time (sec): 1.000000E-2
Scans to average: 100
Electric dark correction enabled: true
Nonlinearity correction enabled: false
Boxcar width: 0
XAxis mode: Wavelengths
Number of Pixels in Spectrum: 2048
>>>>>Begin Spectral Data<<<<<
189.047	59.18
189.435	59.18
189.823	59.18
190.211	-467.11
190.599	131.31
190.987	103.37
191.375	-121.09
191.763	-3464.39
192.151	335.71
192.538	772.95
192.926	76.1
193.314	-29.34
193.702	22.63
194.089	56.49
194.477	43.34
194.864	187.83
195.252	-15.2
195.639	-16.64
196.027	99.62
196.414	-5.72
196.801	421.41
197.189	-312.48
197.576	1740.31
197.963	-60.53
198.351	25.28
198.738	26.64
199.125	-37.31
199.512	-74.71
199.899	-42.44
200.286	-13.83
200.673	-122.21
201.06	-0.73
201.447	-37.83
201.833	-18.97
202.22	4.93
202.607	-381.79
202.994	-4.11
203.38	-42.7
203.767	-37.45
204.154	-20.43
204.54	36.65
204.927	-59.15
205.313	1.04
205.699	-50.79
206.086	7.07
206.472	-2.71
206.858	-0.88
207.245	11.18
207.631	1.53
208.017	-30.42
208.403	-44.97
208.789	11.52
209.175	-113.08
209.561	-9.95
209.947	-28.29
210.333	-6.88
210.719	12.05
211.105	-28
211.491	16.85
211.876	11.68
212.262	-32.36
212.648	-72.57
213.034	-56.69
213.419	-21.92
213.805	-19.62
214.19	5.75
214.576	35.12
214.961	-12.1
215.346	11.61
215.732	3.71
216.117	8.84
216.502	-43.75
216.888	-59.32
217.273	-55.34
217.658	-46.98
218.043	-36.32
218.428	-22.35
218.813	-7.69
219.198	-43
219.583	8.25
219.968	-27.37
220.353	-13.79
220.738	-20.48
221.122	-3.68
221.507	-53.2
221.892	-25.27
222.276	5.88
222.661	-16.15
223.046	-21.99
223.43	-5.75
223.815	-4.03
224.199	7.11
224.583	9.56
224.968	1.93
225.352	-9.08
225.736	2.18
226.121	-12.71
226.505	-0.54
226.889	-8.5
227.273	-1.36
227.657	6.8
228.041	3.22
228.425	2.11
228.809	-1.85
229.193	8.74
229.577	6.53
229.961	5.03
230.344	7.08
230.728	6.72
231.112	6.39
231.495	5.71
231.879	7.54
232.263	5.35
232.646	3.89
233.03	7.72
233.413	3.27
233.797	4.41
234.18	4.12
234.563	4.05
234.946	6.86
235.33	7.45
235.713	6.58
236.096	4.84
236.479	5.18
236.862	4.29
237.245	5.15
237.628	4.14
238.011	7.12
238.394	4.89
238.777	5.99
239.16	5.73
239.543	7.04
239.925	6.59
240.308	4.46
240.691	5.15
241.073	6.54
241.456	6.04
241.838	5.24
242.221	6.04
242.603	6.57
242.986	5.18
243.368	5.39
243.75	5.13
244.133	5.54
244.515	6.4
244.897	5.81
245.279	6.76
245.661	5.23
246.043	4.55
246.425	5.23
246.807	4.12
247.189	6.3
247.571	5.92
247.953	5.23
248.335	5.66
248.717	5.55
249.098	5.61
249.48	5.72
249.862	5.4
250.243	5.67
250.625	5.77
251.006	5.44
251.388	5.53
251.769	5.43
252.151	4.86
252.532	4.83
252.913	5.82
253.295	5.32
253.676	5.05
254.057	4.92
254.438	5.58
254.819	5.29
255.2	4.58
255.581	4.97
255.962	3.96
256.343	5.03
256.724	4.7
257.105	5.11
257.486	4.07
257.867	4.02
258.247	3.7
258.628	5.05
259.009	3.5
259.389	5.04
259.77	5.05
260.15	4.46
260.531	5.01
260.911	5.36
261.292	4.97
261.672	4.97
262.052	5.18
262.432	5.11
262.813	4.74
263.193	4.85
263.573	5.29
263.953	4.89
264.333	5.87
264.713	4.62
265.093	4.39
265.473	5.18
265.853	4.49
266.233	4.56
266.612	4.8
266.992	4.68
267.372	5.49
267.752	5.46
268.131	3.79
268.511	4.59
268.89	3.72
269.27	4.1
269.649	4.74
270.029	4.9
270.408	4.3
270.787	4.83
271.167	4.57
271.546	4.71
271.925	4.99
272.304	4.95
272.683	3.85
273.062	4.69
273.441	4.88
273.82	4.28
274.199	4.89
274.578	4.27
274.957	4.24
275.336	4.44
275.715	4.21
276.093	4.09
276.472	4.81
276.851	4.64
277.229	3.46
277.608	4.65
277.986	4.05
278.365	4.01
278.743	4.29
279.122	4.51
279.5	3.58
279.878	3.82
280.257	4.16
280.635	4.28
281.013	3.87
281.391	4.05
281.769	3.59
282.147	4.51
282.525	3.88
282.903	4.02
283.281	4.31
283.659	3.92
284.037	4.56
284.415	4.14
284.792	4.82
285.17	3.54
285.548	4.13
285.925	4.12
286.303	4.44
286.68	4.74
287.058	4.35
287.435	4.28
287.813	3.59
288.19	4.37
288.567	4.23
288.945	4.25
289.322	3.73
289.699	3.87
290.076	4.2
290.453	4.7
290.83	3.58
291.207	4.83
291.584	3.99
291.961	4.38
292.338	3.97
292.715	3.93
293.092	4
293.469	4.21
293.845	4.27
294.222	4.22
294.599	4.27
294.975	3.99
295.352	4.01
295.728	4.11
296.105	3.83
296.481	4.1
296.858	3.92
297.234	4.02
297.61	3.93
297.986	4.11
298.363	3.69
298.739	3.85
299.115	3.59
299.491	4.11
299.867	3.77
300.243	4.03
300.619	4.06
300.995	4
301.371	4.19
301.746	3.35
302.122	4
302.498	3.94
302.874	3.75
303.249	4.42
303.625	3.41
304	4.19
304.376	3.28
304.751	3.7
305.127	3.72
305.502	3.56
305.878	3.55
306.253	3.72
306.628	3.31
307.003	3.6
307.378	3.12
307.754	3.83
308.129	3.56
308.504	4.6
308.879	2.81
309.254	3.64
309.629	3.93
310.003	3.9
310.378	4.12
310.753	4.06
311.128	3.77
311.502	3.11
311.877	3.4
312.252	3.15
312.626	3.96
313.001	3.61
313.375	3.38
313.75	3.95
314.124	4.01
314.498	3.41
314.873	2.94
315.247	3.99
315.621	3.16
315.995	3.83
316.369	3.01
316.743	3.14
317.117	3.11
317.491	3.3
317.865	3.41
318.239	2.76
318.613	3.84
318.987	3.79
319.361	2.96
319.734	3.47
320.108	3.84
320.482	3.37
320.855	3.12
321.229	3.22
321.602	3.64
321.976	3.65
322.349	4.05
322.723	4.08
323.096	3.62
323.469	3.74
323.843	3.74
324.216	3.72
324.589	3.65
324.962	3.52
325.335	4.12
325.708	3.27
326.081	3.84
326.454	3.07
326.827	3.48
327.2	3.7
327.573	3.05
327.945	3.32
328.318	3.78
328.691	3
329.063	3.94
329.436	3.75
329.809	3.27
330.181	2.88
330.553	3.25
330.926	3.28
331.298	3.15
331.671	3.42
332.043	2.94
332.415	4.02
332.787	3.83
333.159	3.27
333.532	3.66
333.904	3.57
334.276	4.08
334.648	3.47
335.02	3.15
335.391	3.09
335.763	2.98
336.135	3.24
336.507	4.32
336.879	3.39
337.25	3.33
337.622	3.53
337.993	3.25
338.365	2.79
338.736	3.46
339.108	2.94
339.479	3.64
339.851	2.99
340.222	2.82
340.593	3.63
340.964	3.3
341.336	3.1
341.707	2.94
342.078	3.28
342.449	3.58
342.82	3.66
343.191	3.13
343.562	3.64
343.933	3.91
344.303	3.6
344.674	3.28
345.045	3.76
345.416	3.75
345.786	3.41
346.157	3.59
346.527	3.62
346.898	3.71
347.268	3.17
347.639	3.61
348.009	3.24
348.38	3.68
348.75	3.7
349.12	3.9
349.49	3.27
349.861	3.98
350.231	3.42
350.601	3.92
350.971	3.68
351.341	3.4
351.711	4.11
352.081	3.75
352.45	3.67
352.82	3.98
353.19	3.63
353.56	3.45
353.929	3.21
354.299	3.38
354.669	3.37
355.038	3.32
355.408	3.67
355.777	3.54
356.147	3.58
356.516	3.78
356.885	3.81
357.254	3.47
357.624	3.62
357.993	3.62
358.362	3.58
358.731	3.63
359.1	3.11
359.469	3.51
359.838	3.78
360.207	3.7
360.576	4.03
360.945	3.54
361.314	3.97
361.682	3.93
362.051	4.22
362.42	3.95
362.788	3.84
363.157	4.08
363.525	3.9
363.894	3.7
364.262	3.74
364.631	3.62
364.999	3.82
365.367	3.94
365.735	3.67
366.104	4.09
366.472	3.94
366.84	3.78
367.208	3.73
367.576	3.82
367.944	3.9
368.312	4.05
368.68	3.91
369.048	4.01
369.416	3.75
369.783	4.09
370.151	3.84
370.519	3.72
370.886	3.66
371.254	3.66
371.621	3.81
371.989	3.43
372.356	3.99
372.724	3.39
373.091	4.06
373.458	3.88
373.826	3.96
374.193	3.63
374.56	3.91
374.927	4.06
375.294	3.99
375.661	3.99
376.028	4.3
376.395	4.14
376.762	4.21
377.129	4.19
377.496	4.27
377.863	3.67
378.229	3.74
378.596	3.83
378.963	4
379.329	3.85
379.696	3.97
380.062	4.36
380.429	4.04
380.795	3.97
381.161	4.11
381.528	3.82
381.894	4.15
382.26	4.13
382.626	4.23
382.993	4.23
383.359	3.88
383.725	3.81
384.091	3.71
384.457	4.05
384.823	4.33
385.188	4.27
385.554	4.42
385.92	3.87
386.286	4.33
386.651	4.08
387.017	4.3
387.383	4.09
387.748	4.12
388.114	4.3
388.479	4.59
388.845	4.07
389.21	4.11
389.575	3.78
389.94	4.21
390.306	4.32
390.671	4.14
391.036	4.27
391.401	4.02
391.766	4.16
392.131	4.17
392.496	4.16
392.861	4.15
393.226	4.18
393.591	4.14
393.956	3.95
394.32	4.38
394.685	4.23
395.05	4.17
395.414	4.12
395.779	4.21
396.143	4.36
396.508	4.09
396.872	4.36
397.236	4.21
397.601	4.24
397.965	4.35
398.329	4.29
398.694	3.88
399.058	4.33
399.422	4.18
399.786	4.36
400.15	4.1
400.514	4.4
400.878	4.17
401.242	4.13
401.605	4.45
401.969	4.33
402.333	4.5
402.697	4.35
403.06	4.08
403.424	4.22
403.787	4.1
404.151	4.41
404.514	4.1
404.878	4.3
405.241	4.46
405.604	3.96
405.968	4.21
406.331	4.55
406.694	4.52
407.057	4.24
407.42	4.36
407.783	4.25
408.146	4.25
408.509	4.43
408.872	4.48
409.235	4.32
409.598	4.4
409.961	4.5
410.323	4.56
410.686	4.75
411.049	4.36
411.411	4.68
411.774	4.63
412.136	4.37
412.499	4.49
412.861	4.53
413.223	4.61
413.586	4.39
413.948	4.24
414.31	4.43
414.672	4.42
415.035	4.34
415.397	4.54
415.759	4.37
416.121	4.31
416.483	4.69
416.845	4.48
417.206	4.67
417.568	4.39
417.93	4.52
418.292	4.45
418.653	4.48
419.015	4.42
419.377	4.33
419.738	4.56
420.1	4.49
420.461	4.54
420.822	4.5
421.184	4.48
421.545	4.71
421.906	4.51
422.267	4.42
422.629	4.51
422.99	4.42
423.351	4.4
423.712	4.46
424.073	4.49
424.434	4.44
424.795	4.57
425.155	4.42
425.516	4.44
425.877	4.45
426.238	4.53
426.598	4.43
426.959	4.5
427.32	4.52
427.68	4.54
428.041	4.52
428.401	4.61
428.761	4.52
429.122	4.61
429.482	4.72
429.842	4.61
430.202	4.37
430.563	4.49
430.923	4.67
431.283	4.54
431.643	4.74
432.003	4.58
432.363	4.73
432.722	4.52
433.082	4.63
433.442	4.54
433.802	4.74
434.161	4.56
434.521	4.71
434.881	4.55
435.24	4.46
435.6	4.55
435.959	4.86
436.319	4.72
436.678	4.79
437.037	4.64
437.396	4.4
437.756	4.55
438.115	4.69
438.474	4.52
438.833	4.75
439.192	4.65
439.551	4.56
439.91	4.58
440.269	4.63
440.628	4.46
440.987	4.38
441.345	4.58
441.704	4.56
442.063	4.6
442.421	4.67
442.78	4.62
443.138	4.54
443.497	4.58
443.855	4.63
444.214	4.65
444.572	4.69
444.93	4.59
445.288	4.44
445.647	4.71
446.005	4.61
446.363	4.51
446.721	4.6
447.079	4.67
447.437	4.51
447.795	4.56
448.153	4.63
448.51	4.66
448.868	4.59
449.226	4.71
449.584	4.67
449.941	4.61
450.299	4.64
450.656	4.58
451.014	4.69
451.371	4.7
451.729	4.76
452.086	4.61
452.443	4.76
452.801	4.82
453.158	4.55
453.515	4.74
453.872	4.59
454.229	4.76
454.586	4.6
454.943	4.66
455.3	4.64
455.657	4.71
456.014	4.7
456.371	4.84
456.727	4.88
457.084	4.64
457.441	4.69
457.797	4.56
458.154	4.67
458.51	4.74
458.867	4.87
459.223	4.8
459.58	4.53
459.936	4.6
460.292	4.73
460.648	4.6
461.005	4.7
461.361	4.62
461.717	4.69
462.073	4.59
462.429	4.65
462.785	4.57
463.141	4.62
463.496	4.65
463.852	4.95
464.208	4.79
464.564	4.65
464.919	4.67
465.275	4.83
465.631	4.77
465.986	4.51
466.342	4.67
466.697	4.79
467.052	4.8
467.408	4.66
467.763	4.85
468.118	4.87
468.473	4.99
468.829	4.74
469.184	4.62
469.539	4.89
469.894	4.78
470.249	4.8
470.603	4.72
470.958	4.73
471.313	4.87
471.668	4.84
472.023	4.93
472.377	4.55
472.732	4.8
473.086	4.88
473.441	4.87
473.795	4.66
474.15	4.81
474.504	4.73
474.859	4.73
475.213	4.57
475.567	4.83
475.921	4.73
476.275	4.68
476.63	4.71
476.984	4.8
477.338	4.8
477.692	4.73
478.045	4.75
478.399	4.68
478.753	4.72
479.107	4.85
479.461	4.86
479.814	4.76
480.168	4.67
480.521	4.55
480.875	4.94
481.228	4.82
481.582	4.75
481.935	4.89
482.289	4.85
482.642	4.89
482.995	4.69
483.348	4.73
483.701	4.91
484.055	4.65
484.408	4.68
484.761	4.62
485.114	4.57
485.466	4.54
485.819	4.51
486.172	4.5
486.525	4.52
486.878	4.57
487.23	4.57
487.583	4.66
487.936	4.61
488.288	4.55
488.641	4.59
488.993	4.57
489.345	4.63
489.698	4.55
490.05	4.62
490.402	4.57
490.754	4.57
491.107	4.69
491.459	4.69
491.811	4.75
492.163	4.64
492.515	4.75
492.866	4.7
493.218	4.61
493.57	4.57
493.922	4.61
494.274	4.67
494.625	4.73
494.977	4.77
495.328	4.82
495.68	4.73
496.031	4.92
496.383	4.73
496.734	4.77
497.086	4.79
497.437	4.78
497.788	4.77
498.139	4.65
498.49	4.82
498.842	4.69
499.193	4.8
499.544	4.8
499.894	4.79
500.245	4.93
500.596	4.83
500.947	4.82
501.298	4.76
501.648	4.93
501.999	4.75
502.35	4.82
502.7	4.77
503.051	4.77
503.401	4.75
503.752	4.87
504.102	4.77
504.452	4.88
504.803	4.82
505.153	4.87
505.503	4.82
505.853	4.8
506.203	4.8
506.553	4.67
506.903	4.69
507.253	4.79
507.603	4.91
507.953	4.89
508.303	4.92
508.652	4.77
509.002	4.84
509.352	4.74
509.701	4.8
510.051	4.87
510.4	4.72
510.75	4.65
511.099	4.71
511.449	4.89
511.798	4.73
512.147	4.79
512.496	4.87
512.846	4.75
513.195	4.71
513.544	4.84
513.893	4.87
514.242	4.7
514.591	4.68
514.939	4.83
515.288	4.73
515.637	4.72
515.986	5.02
516.334	4.99
516.683	4.78
517.032	4.78
517.38	4.69
517.729	4.76
518.077	4.72
518.426	4.78
518.774	4.69
519.122	4.74
519.47	4.71
519.819	4.74
520.167	4.75
520.515	4.66
520.863	4.74
521.211	4.64
521.559	4.73
521.907	4.71
522.255	4.86
522.602	4.82
522.95	4.79
523.298	4.73
523.645	4.85
523.993	4.74
524.341	4.73
524.688	4.63
525.036	4.84
525.383	4.78
525.73	4.57
526.078	4.7
526.425	4.82
526.772	4.57
527.119	4.71
527.466	4.69
527.814	4.57
528.161	4.75
528.508	4.68
528.854	4.68
529.201	4.64
529.548	4.69
529.895	4.55
530.242	4.53
530.588	4.48
530.935	4.6
531.282	4.58
531.628	4.54
531.975	4.57
532.321	4.6
532.667	4.64
533.014	4.57
533.36	4.65
533.706	4.61
534.052	4.71
534.399	4.69
534.745	4.66
535.091	4.53
535.437	4.67
535.783	4.61
536.129	4.71
536.474	4.65
536.82	4.61
537.166	4.75
537.512	4.65
537.857	4.76
538.203	4.68
538.549	4.57
538.894	4.6
539.239	4.72
539.585	4.58
539.93	4.78
540.276	4.64
540.621	4.63
540.966	4.72
541.311	4.78
541.656	4.66
542.001	4.76
542.346	4.66
542.691	4.54
543.036	4.59
543.381	4.52
543.726	4.61
544.071	4.54
544.415	4.54
544.76	4.6
545.105	4.65
545.449	4.61
545.794	4.81
546.138	4.56
546.483	4.68
546.827	4.57
547.171	4.66
547.516	4.66
547.86	4.62
548.204	4.69
548.548	4.69
548.892	4.7
549.236	4.57
549.58	4.69
549.924	4.57
550.268	4.65
550.612	4.56
550.956	4.72
551.3	4.78
551.643	4.7
551.987	4.8
552.33	4.86
552.674	4.92
553.017	4.75
553.361	4.88
553.704	4.71
554.048	4.79
554.391	4.62
554.734	4.77
555.077	4.7
555.42	4.47
555.764	4.71
556.107	4.85
556.45	4.55
556.793	4.53
557.135	4.67
557.478	4.59
557.821	4.67
558.164	4.72
558.507	4.75
558.849	4.64
559.192	4.7
559.534	4.88
559.877	4.78
560.219	4.85
560.562	4.64
560.904	4.73
561.246	4.63
561.589	4.7
561.931	4.61
562.273	4.5
562.615	4.5
562.957	4.65
563.299	4.59
563.641	4.71
563.983	4.62
564.325	4.66
564.667	4.69
565.008	4.48
565.35	4.52
565.692	4.64
566.033	4.6
566.375	4.61
566.716	4.28
567.058	4.65
567.399	4.78
567.741	4.79
568.082	4.69
568.423	4.6
568.764	4.58
569.105	4.45
569.447	4.66
569.788	4.63
570.129	4.58
570.47	4.77
570.811	4.68
571.151	4.63
571.492	4.53
571.833	4.59
572.174	4.63
572.514	4.65
572.855	4.58
573.195	4.47
573.536	4.65
573.876	4.52
574.217	4.67
574.557	4.49
574.898	4.44
575.238	4.67
575.578	4.52
575.918	4.63
576.258	4.53
576.598	4.46
576.938	4.61
577.278	4.72
577.618	4.61
577.958	4.58
578.298	4.61
578.638	4.45
578.977	4.64
579.317	4.54
579.657	4.49
579.996	4.68
580.336	4.58
580.675	4.58
581.014	4.33
581.354	4.61
581.693	4.52
582.032	4.41
582.372	4.49
582.711	4.63
583.05	4.62
583.389	4.47
583.728	4.49
584.067	4.44
584.406	4.71
584.745	4.69
585.083	4.49
585.422	4.55
585.761	4.84
586.1	4.48
586.438	4.5
586.777	4.57
587.115	4.21
587.454	4.43
587.792	4.06
588.13	4.66
588.469	4.42
588.807	4.55
589.145	4.54
589.483	4.25
589.821	4.58
590.159	4.51
590.497	4.4
590.835	4.39
591.173	4.47
591.511	4.48
591.849	4.21
592.187	4.42
592.524	4.24
592.862	4.54
593.2	4.28
593.537	4.22
593.875	4.46
594.212	4.53
594.55	4.3
594.887	4.67
595.224	4.5
595.561	4.83
595.899	4.51
596.236	4.64
596.573	4.29
596.91	4.43
597.247	4.4
597.584	4.61
597.921	4.34
598.258	4.69
598.594	4.45
598.931	4.41
599.268	4.24
599.604	4.36
599.941	4.45
600.277	4.22
600.614	4.39
600.95	4.49
601.287	4.33
601.623	4.41
601.959	4.14
602.296	4.55
602.632	4.39
602.968	4.3
603.304	4.47
603.64	4.6
603.976	4.14
604.312	4.29
604.648	4.49
604.984	4.44
605.319	4.49
605.655	4.36
605.991	4.45
606.326	4.23
606.662	4.41
606.998	4.31
607.333	4.34
607.668	4.32
608.004	4.41
608.339	4.43
608.674	4.3
609.01	4.1
609.345	4.27
609.68	4.08
610.015	3.98
610.35	4.4
610.685	4.4
611.02	4.45
611.355	4.24
611.689	4.38
612.024	4.16
612.359	4.31
612.694	4.2
613.028	4.31
613.363	4.18
613.697	4.39
614.032	4.31
614.366	4.46
614.7	4.11
615.035	4.21
615.369	4.18
615.703	4.15
616.037	4.15
616.371	3.89
616.705	4.32
617.039	4.36
617.373	4.21
617.707	4.28
618.041	3.96
618.375	4.01
618.709	4.21
619.042	4.28
619.376	3.95
619.71	4.09
620.043	4.13
620.377	4.26
620.71	3.86
621.043	3.99
621.377	4.12
621.71	4.07
622.043	4.23
622.376	4.23
622.709	4.09
623.043	4.28
623.376	4.77
623.709	4.18
624.041	4.11
624.374	4.2
624.707	4.04
625.04	4.08
625.373	4.39
625.705	4.09
626.038	4.37
626.37	4.55
626.703	4.2
627.035	4.56
627.368	4.43
627.7	4
628.032	4.03
628.365	4.4
628.697	4.29
629.029	4.01
629.361	4.11
629.693	3.86
630.025	3.97
630.357	4.45
630.689	4
631.021	4.34
631.353	4.36
631.684	4.28
632.016	4.2
632.348	4.29
632.679	3.89
633.011	4.37
633.342	4.31
633.674	4.16
634.005	4
634.336	4.23
634.668	3.9
634.999	4.35
635.33	4.21
635.661	4.18
635.992	4.27
636.323	3.88
636.654	4.19
636.985	4.07
637.316	4.21
637.647	4.03
637.977	4.22
638.308	4.35
638.639	3.94
638.969	4.14
639.3	3.79
639.63	4.5
639.961	4.24
640.291	3.76
640.622	3.89
640.952	4.25
641.282	4.06
641.612	4.15
641.943	3.99
642.273	4.04
642.603	4.52
642.933	4.01
643.263	3.92
643.592	4.24
643.922	4.51
644.252	4.15
644.582	3.51
644.911	3.98
645.241	3.33
645.571	4.45
645.9	3.84
646.23	4.09
646.559	4.1
646.888	4.27
647.218	3.84
647.547	3.89
647.876	4.03
648.205	4.03
648.534	4.39
648.863	4.27
649.192	4.22
649.521	4.36
649.85	3.84
650.179	4.43
650.508	4.61
650.837	4.13
651.165	3.93
651.494	3.94
651.822	4.35
652.151	4.15
652.479	4.13
652.808	4.46
653.136	4.35
653.465	3.82
653.793	4.01
654.121	3.97
654.449	3.77
654.777	4.45
655.105	4.04
655.433	3.79
655.761	4.02
656.089	3.79
656.417	3.93
656.745	4.14
657.073	3.77
657.4	3.76
657.728	3.43
658.056	4.35
658.383	3.69
658.711	4.58
659.038	3.83
659.365	4.07
659.693	4.13
660.02	4.17
660.347	4.25
660.674	3.67
661.001	4.5
661.329	3.96
661.656	4.26
661.982	3.92
662.309	4.23
662.636	4.34
662.963	3.75
663.29	4.27
663.616	3.69
663.943	4.39
664.27	4.28
664.596	4.33
664.923	4.7
665.249	3.2
665.576	3.8
665.902	3.94
666.228	4.22
666.554	4.11
666.881	3.4
667.207	4.1
667.533	4.01
667.859	4.07
668.185	4.33
668.511	3.72
668.837	3.62
669.162	4.87
669.488	3.17
669.814	4.51
670.139	4.06
670.465	3.84
670.791	3.63
671.116	3.87
671.442	3.87
671.767	3.98
672.092	4.86
672.418	4.42
672.743	3.7
673.068	3.46
673.393	4.26
673.718	4.63
674.043	3.51
674.368	3.56
674.693	3.19
675.018	3.5
675.343	3.9
675.667	4.12
675.992	4.04
676.317	4.31
676.641	3.58
676.966	3.71
677.29	3.4
677.615	3.64
677.939	3.97
678.264	4.11
678.588	4.29
678.912	3.72
679.236	3.76
679.56	4.18
679.885	4.39
680.209	4.11
680.532	3.81
680.856	3.5
681.18	4.07
681.504	3.97
681.828	3.59
682.152	3.63
682.475	4.25
682.799	4.13
683.122	4.14
683.446	3.59
683.769	5.12
684.093	3.62
684.416	4.4
684.739	4.3
685.062	4
685.386	4.04
685.709	4.06
686.032	4.09
686.355	3.48
686.678	4.49
687.001	4.5
687.324	3.95
687.646	4.4
687.969	3.67
688.292	3.77
688.614	3.96
688.937	3.99
689.26	3.85
689.582	3.09
689.904	4.01
690.227	4.32
690.549	4.54
690.871	3.94
691.194	3.16
691.516	4.51
691.838	3.68
