Data from 0402_forehead_Reflection__1__224.txt Node

Date: Tue Dec 12 20:13:51 CST 2023
User: ToomeyLab
Spectrometer: FLMS14357
Trigger mode: 0
Integration Time (sec): 1.000000E-2
Scans to average: 100
Electric dark correction enabled: true
Nonlinearity correction enabled: false
Boxcar width: 0
XAxis mode: Wavelengths
Number of Pixels in Spectrum: 2048
>>>>>Begin Spectral Data<<<<<
189.047	-63.75
189.435	-63.75
189.823	-63.75
190.211	-2017.11
190.599	-271.12
190.987	93.8
191.375	849.58
191.763	-571.97
192.151	139.73
192.538	-235.51
192.926	81.7
193.314	-15.63
193.702	7.48
194.089	183.91
194.477	-32.99
194.864	714.84
195.252	-42.24
195.639	5.95
196.027	-28.58
196.414	150.29
196.801	650.36
197.189	-124.32
197.576	382.14
197.963	-26.92
198.351	43.98
198.738	31.97
199.125	37.77
199.512	-108.74
199.899	20.78
200.286	24.76
200.673	-23.4
201.06	5.29
201.447	-62.23
201.833	-3.26
202.22	-10.98
202.607	-62.65
202.994	14.82
203.38	26.21
203.767	48.73
204.154	19.86
204.54	49.13
204.927	44.64
205.313	43.47
205.699	1.83
206.086	7.72
206.472	41.61
206.858	-3.97
207.245	-2.01
207.631	45.24
208.017	-14.95
208.403	-16.44
208.789	28.94
209.175	9.29
209.561	19.26
209.947	-42.68
210.333	9.88
210.719	-1.16
211.105	-32.51
211.491	47.81
211.876	12.07
212.262	-3.15
212.648	-56.8
213.034	-25.83
213.419	21.8
213.805	24.66
214.19	35.07
214.576	20.71
214.961	33.38
215.346	14.34
215.732	13.22
216.117	5.67
216.502	-10.94
216.888	-9.61
217.273	-6.41
217.658	-26.75
218.043	26.85
218.428	17.47
218.813	10.46
219.198	-22.18
219.583	-13.73
219.968	21.7
220.353	12.23
220.738	28.72
221.122	4.96
221.507	-41.5
221.892	0.01
222.276	17.63
222.661	17.55
223.046	3.54
223.43	9.9
223.815	1.33
224.199	8.44
224.583	2.67
224.968	-1.53
225.352	-9.8
225.736	12.45
226.121	3.99
226.505	6.85
226.889	-0.79
227.273	4.53
227.657	14.64
228.041	6.65
228.425	6.38
228.809	5.73
229.193	4.42
229.577	6.11
229.961	2.95
230.344	5.26
230.728	5.01
231.112	4.88
231.495	4.81
231.879	4.45
232.263	3.58
232.646	4.07
233.03	5.12
233.413	3.37
233.797	5.87
234.18	0.86
234.563	1.94
234.946	4.74
235.33	7.19
235.713	4.75
236.096	3.03
236.479	2.57
236.862	3.92
237.245	4.07
237.628	5.89
238.011	6.2
238.394	4.11
238.777	5.61
239.16	3.44
239.543	5.04
239.925	5.6
240.308	4.93
240.691	6.73
241.073	5.69
241.456	4.33
241.838	4.22
242.221	4.95
242.603	4.74
242.986	4.07
243.368	4.78
243.75	4.22
244.133	4.15
244.515	4.43
244.897	4.42
245.279	5.33
245.661	3.61
246.043	2.49
246.425	4.67
246.807	3.61
247.189	4.9
247.571	4.72
247.953	3.68
248.335	4.4
248.717	4.2
249.098	4.54
249.48	4.28
249.862	4.27
250.243	3.75
250.625	4.39
251.006	4.34
251.388	3.82
251.769	3.94
252.151	3.56
252.532	4.79
252.913	4.2
253.295	5.02
253.676	3.07
254.057	3.98
254.438	4.87
254.819	4.34
255.2	4.55
255.581	4.46
255.962	3.99
256.343	3.64
256.724	3.82
257.105	4.88
257.486	2.8
257.867	2.91
258.247	3.8
258.628	4.48
259.009	3.87
259.389	4.14
259.77	3.9
260.15	4.17
260.531	5.03
260.911	4.71
261.292	3.84
261.672	4
262.052	4.11
262.432	4.03
262.813	4.03
263.193	4.25
263.573	3.97
263.953	5.19
264.333	5.29
264.713	4.68
265.093	4.53
265.473	4.89
265.853	3.63
266.233	4.24
266.612	3.16
266.992	3.63
267.372	4.14
267.752	4.79
268.131	3.77
268.511	4.18
268.89	3.48
269.27	3.28
269.649	3.88
270.029	3.93
270.408	4.49
270.787	3.34
271.167	4.01
271.546	3.75
271.925	4.78
272.304	4.49
272.683	3.64
273.062	4.35
273.441	4.15
273.82	3.48
274.199	3.73
274.578	3.7
274.957	4.11
275.336	3.81
275.715	3.72
276.093	3.7
276.472	3.76
276.851	4.43
277.229	3.79
277.608	4.11
277.986	3.97
278.365	3.73
278.743	4.35
279.122	4.05
279.5	3.2
279.878	3.3
280.257	3.92
280.635	3.41
281.013	3.65
281.391	4.11
281.769	4.02
282.147	3.66
282.525	3.08
282.903	4.36
283.281	3.6
283.659	3.97
284.037	3.75
284.415	3.86
284.792	4.22
285.17	3.7
285.548	4.24
285.925	4
286.303	3.5
286.68	3.8
287.058	4.05
287.435	3.85
287.813	3.44
288.19	3.71
288.567	3.72
288.945	3.8
289.322	3.37
289.699	3.82
290.076	4.26
290.453	4.32
290.83	3.77
291.207	3.98
291.584	4.31
291.961	4.21
292.338	3.96
292.715	3.97
293.092	3.61
293.469	4.38
293.845	4.08
294.222	3.96
294.599	3.88
294.975	3.92
295.352	4.32
295.728	4.03
296.105	3.94
296.481	4.53
296.858	4.12
297.234	4.6
297.61	4.39
297.986	4.27
298.363	4.2
298.739	3.8
299.115	3.73
299.491	4.07
299.867	4.2
300.243	3.57
300.619	4.3
300.995	4.41
301.371	4
301.746	4.43
302.122	4.84
302.498	3.83
302.874	4.9
303.249	4.93
303.625	4.09
304	4.08
304.376	4.04
304.751	4.33
305.127	4.36
305.502	5.09
305.878	3.81
306.253	4.21
306.628	4.27
307.003	4.07
307.378	4.55
307.754	4.66
308.129	4.15
308.504	5.34
308.879	4.44
309.254	5.18
309.629	4.53
310.003	4.78
310.378	5.17
310.753	4.79
311.128	4.94
311.502	4.24
311.877	4.17
312.252	4.04
312.626	4.65
313.001	4.26
313.375	4.21
313.75	4.72
314.124	4.83
314.498	4.8
314.873	4.44
315.247	4.74
315.621	4.38
315.995	5.1
316.369	5.09
316.743	4.64
317.117	4.57
317.491	4.3
317.865	5.07
318.239	5.08
318.613	5.42
318.987	5.44
319.361	4.41
319.734	4.97
320.108	4.54
320.482	4.91
320.855	4.99
321.229	4.78
321.602	5.58
321.976	5.2
322.349	4.81
322.723	4.84
323.096	4.55
323.469	5.31
323.843	5.93
324.216	5.01
324.589	5
324.962	5.42
325.335	5.88
325.708	5.15
326.081	5.12
326.454	5.17
326.827	5.38
327.2	5.59
327.573	4.89
327.945	5.13
328.318	5.48
328.691	4.73
329.063	5.52
329.436	5.47
329.809	5.2
330.181	5.12
330.553	5.52
330.926	5.6
331.298	5.13
331.671	5.44
332.043	5.5
332.415	6.15
332.787	5.52
333.159	5.87
333.532	5.5
333.904	5.75
334.276	6.2
334.648	5.53
335.02	5.23
335.391	5.63
335.763	5.09
336.135	5.74
336.507	6.13
336.879	5.17
337.25	5.39
337.622	5.5
337.993	5.82
338.365	5.56
338.736	6.03
339.108	5.9
339.479	6.22
339.851	5.48
340.222	5.75
340.593	6.18
340.964	5.64
341.336	6.17
341.707	5.69
342.078	5.4
342.449	6
342.82	6.4
343.191	6.21
343.562	5.97
343.933	6.18
344.303	6.07
344.674	6.35
345.045	5.93
345.416	6.3
345.786	5.97
346.157	5.93
346.527	6.39
346.898	5.94
347.268	6.71
347.639	6.21
348.009	6.42
348.38	6.5
348.75	6.69
349.12	6.51
349.49	6.28
349.861	6.96
350.231	6.5
350.601	6.74
350.971	6.65
351.341	6.48
351.711	7.07
352.081	6.9
352.45	6.57
352.82	6.51
353.19	6.67
353.56	6.57
353.929	6.16
354.299	6.69
354.669	6.89
355.038	6.33
355.408	6.51
355.777	6.94
356.147	6.37
356.516	7.07
356.885	6.34
357.254	6.86
357.624	6.65
357.993	6.74
358.362	7.03
358.731	7.05
359.1	6.65
359.469	7.05
359.838	6.59
360.207	6.77
360.576	6.85
360.945	6.98
361.314	7.1
361.682	7
362.051	7.22
362.42	7.23
362.788	7.16
363.157	7.71
363.525	7.44
363.894	7.11
364.262	7.24
364.631	6.98
364.999	7.31
365.367	7.37
365.735	7.26
366.104	7.34
366.472	7.22
366.84	7.12
367.208	7.27
367.576	7.22
367.944	7.73
368.312	7.5
368.68	7.52
369.048	7.75
369.416	7.65
369.783	7.61
370.151	7.73
370.519	7.89
370.886	8.05
371.254	7.73
371.621	7.76
371.989	7.47
372.356	7.74
372.724	7.91
373.091	7.54
373.458	7.85
373.826	7.98
374.193	7.46
374.56	7.75
374.927	8.01
375.294	7.87
375.661	8
376.028	8.37
376.395	8.4
376.762	8.52
377.129	8.01
377.496	7.93
377.863	8.08
378.229	8.18
378.596	7.95
378.963	8.28
379.329	8.12
379.696	8.24
380.062	8.55
380.429	8.31
380.795	8.3
381.161	8.81
381.528	8.37
381.894	8.54
382.26	8.63
382.626	8.53
382.993	8.65
383.359	8.7
383.725	8.26
384.091	8.3
384.457	8.73
384.823	8.67
385.188	8.66
385.554	8.95
385.92	8.69
386.286	8.94
386.651	8.78
387.017	9.21
387.383	8.89
387.748	9.1
388.114	9.17
388.479	8.91
388.845	8.86
389.21	8.91
389.575	8.88
389.94	8.91
390.306	9.06
390.671	9.06
391.036	9.21
391.401	9.25
391.766	8.93
392.131	9.34
392.496	9.18
392.861	9.12
393.226	9.52
393.591	9.48
393.956	9.27
394.32	9.35
394.685	9.57
395.05	9.36
395.414	9.59
395.779	9.39
396.143	9.72
396.508	9.37
396.872	9.39
397.236	9.32
397.601	9.7
397.965	9.71
398.329	9.82
398.694	9.73
399.058	10.03
399.422	9.54
399.786	10
400.15	9.63
400.514	10.14
400.878	9.89
401.242	9.88
401.605	10.11
401.969	9.94
402.333	10.2
402.697	9.99
403.06	9.99
403.424	10.12
403.787	9.95
404.151	10.17
404.514	10.09
404.878	10.15
405.241	10.31
405.604	10.2
405.968	10.25
406.331	10.53
406.694	10.56
407.057	10.27
407.42	10.33
407.783	10.16
408.146	10.44
408.509	10.34
408.872	10.53
409.235	10.36
409.598	10.33
409.961	10.53
410.323	10.73
410.686	10.85
411.049	10.84
411.411	10.93
411.774	10.85
412.136	10.68
412.499	10.78
412.861	10.86
413.223	11.1
413.586	10.77
413.948	10.73
414.31	10.93
414.672	10.94
415.035	10.96
415.397	10.98
415.759	11.15
416.121	11.23
416.483	11.13
416.845	11.13
417.206	11.31
417.568	11.09
417.93	11.21
418.292	11.25
418.653	11.25
419.015	11.14
419.377	11.17
419.738	11.32
420.1	11.2
420.461	11.41
420.822	11.34
421.184	11.31
421.545	11.44
421.906	11.34
422.267	11.31
422.629	11.15
422.99	11.3
423.351	11.41
423.712	11.34
424.073	11.44
424.434	11.37
424.795	11.55
425.155	11.47
425.516	11.5
425.877	11.43
426.238	11.57
426.598	11.63
426.959	11.72
427.32	11.76
427.68	11.71
428.041	11.78
428.401	11.87
428.761	11.96
429.122	12.04
429.482	12.2
429.842	12.13
430.202	11.95
430.563	12.19
430.923	12.3
431.283	12.25
431.643	12.52
432.003	12.29
432.363	12.39
432.722	12.19
433.082	12.43
433.442	12.48
433.802	12.43
434.161	12.56
434.521	12.66
434.881	12.44
435.24	12.62
435.6	12.48
435.959	12.64
436.319	12.76
436.678	12.95
437.037	12.65
437.396	12.68
437.756	12.79
438.115	12.87
438.474	12.86
438.833	12.99
439.192	13.14
439.551	12.97
439.91	12.82
440.269	13
440.628	13.07
440.987	12.81
441.345	13.17
441.704	13.22
442.063	13.15
442.421	13.05
442.78	13.16
443.138	13.15
443.497	13.26
443.855	13.26
444.214	13.32
444.572	13.42
444.93	13.45
445.288	13.35
445.647	13.58
446.005	13.5
446.363	13.29
446.721	13.62
447.079	13.52
447.437	13.42
447.795	13.61
448.153	13.51
448.51	13.52
448.868	13.66
449.226	13.74
449.584	13.65
449.941	13.72
450.299	13.75
450.656	13.9
451.014	13.88
451.371	13.83
451.729	14.19
452.086	13.97
452.443	14.4
452.801	14.18
453.158	14.31
453.515	14.31
453.872	14.24
454.229	14.34
454.586	14.18
454.943	14.35
455.3	14.37
455.657	14.41
456.014	14.7
456.371	14.61
456.727	14.77
457.084	14.44
457.441	14.58
457.797	14.63
458.154	14.71
458.51	14.55
458.867	14.95
459.223	14.8
459.58	14.75
459.936	14.69
460.292	14.84
460.648	14.82
461.005	14.83
461.361	14.79
461.717	14.93
462.073	14.77
462.429	14.77
462.785	14.99
463.141	15.06
463.496	15.1
463.852	15.42
464.208	15.34
464.564	15.31
464.919	15.55
465.275	15.44
465.631	15.61
465.986	15.67
466.342	15.24
466.697	15.66
467.052	15.79
467.408	15.7
467.763	15.64
468.118	15.7
468.473	15.73
468.829	15.85
469.184	15.75
469.539	15.85
469.894	16.01
470.249	15.98
470.603	15.9
470.958	16.02
471.313	16.17
471.668	16.27
472.023	16.15
472.377	16.23
472.732	16.26
473.086	16.19
473.441	16.23
473.795	16.48
474.15	16.47
474.504	16.2
474.859	16.39
475.213	16.49
475.567	16.52
475.921	16.5
476.275	16.64
476.63	16.69
476.984	16.7
477.338	16.61
477.692	16.66
478.045	16.78
478.399	16.73
478.753	16.8
479.107	16.66
479.461	16.77
479.814	16.82
480.168	16.8
480.521	16.71
480.875	16.87
481.228	17.05
481.582	16.99
481.935	17.13
482.289	17.19
482.642	17.16
482.995	16.91
483.348	17.08
483.701	17.18
484.055	17.04
484.408	17.05
484.761	16.88
485.114	16.74
485.466	16.48
485.819	16.47
486.172	16.49
486.525	16.49
486.878	16.68
487.23	16.77
487.583	16.91
487.936	17.17
488.288	17.12
488.641	17.06
488.993	17
489.345	17.04
489.698	16.99
490.05	17.01
490.402	17.09
490.754	17.17
491.107	17.31
491.459	17.52
491.811	17.66
492.163	17.62
492.515	17.69
492.866	17.67
493.218	17.48
493.57	17.48
493.922	17.4
494.274	17.54
494.625	17.71
494.977	17.98
495.328	18.05
495.68	18.22
496.031	18.48
496.383	18.38
496.734	18.48
497.086	18.46
497.437	18.68
497.788	18.71
498.139	18.56
498.49	18.71
498.842	18.58
499.193	18.61
499.544	18.61
499.894	18.66
500.245	18.86
500.596	18.77
500.947	18.94
501.298	18.93
501.648	19.07
501.999	19.06
502.35	19.24
502.7	19.32
503.051	19.21
503.401	19.34
503.752	19.32
504.102	19.44
504.452	19.44
504.803	19.43
505.153	19.49
505.503	19.59
505.853	19.56
506.203	19.48
506.553	19.51
506.903	19.58
507.253	19.76
507.603	19.69
507.953	19.87
508.303	19.9
508.652	19.81
509.002	20.03
509.352	19.98
509.701	20.11
510.051	20.13
510.4	19.96
510.75	19.89
511.099	19.77
511.449	19.99
511.798	20.05
512.147	20.16
512.496	20.13
512.846	20.31
513.195	20.28
513.544	20.32
513.893	20.26
514.242	20.27
514.591	20.21
514.939	20.49
515.288	20.46
515.637	20.55
515.986	20.48
516.334	20.68
516.683	20.64
517.032	20.85
517.38	20.81
517.729	21.02
518.077	20.94
518.426	21.07
518.774	20.89
519.122	20.97
519.47	20.71
519.819	20.81
520.167	20.67
520.515	20.76
520.863	20.87
521.211	20.83
521.559	20.79
521.907	20.92
522.255	21.07
522.602	21.11
522.95	21.26
523.298	21.45
523.645	21.43
523.993	21.52
524.341	21.49
524.688	21.55
525.036	21.62
525.383	21.55
525.73	21.59
526.078	21.63
526.425	21.6
526.772	21.71
527.119	21.62
527.466	21.42
527.814	21.46
528.161	21.55
528.508	21.59
528.854	21.56
529.201	21.59
529.548	21.48
529.895	21.36
530.242	21.21
530.588	21.2
530.935	21.35
531.282	21.31
531.628	21.26
531.975	21.51
532.321	21.77
532.667	21.89
533.014	22.06
533.36	22.2
533.706	22.17
534.052	22.31
534.399	22.17
534.745	21.99
535.091	21.95
535.437	22.09
535.783	22.12
536.129	22.24
536.474	22.31
536.82	22.39
537.166	22.68
537.512	22.88
537.857	22.69
538.203	22.75
538.549	22.86
538.894	22.74
539.239	22.82
539.585	22.91
539.93	23.28
540.276	23.13
540.621	23.26
540.966	23.39
541.311	23.29
541.656	23.41
542.001	23.31
542.346	23.33
542.691	23.18
543.036	22.95
543.381	22.8
543.726	22.93
544.071	22.97
544.415	22.98
544.76	23.18
545.105	23.35
545.449	23.44
545.794	23.65
546.138	23.67
546.483	23.95
546.827	23.97
547.171	23.99
547.516	23.99
547.86	24.09
548.204	24.24
548.548	24.16
548.892	24.1
549.236	24.23
549.58	24.31
549.924	24.16
550.268	24.45
550.612	24.34
550.956	24.67
551.3	24.88
551.643	24.92
551.987	25.04
552.33	25.17
552.674	25.1
553.017	25.27
553.361	25.34
553.704	25.08
554.048	25.37
554.391	25.32
554.734	25.29
555.077	25.36
555.42	25.15
555.764	25.32
556.107	25.4
556.45	25.37
556.793	25.41
557.135	25.42
557.478	25.76
557.821	25.84
558.164	25.82
558.507	25.75
558.849	25.74
559.192	25.99
559.534	26.01
559.877	25.81
560.219	26.27
560.562	26.16
560.904	26.2
561.246	26.25
561.589	25.95
561.931	26.24
562.273	26.38
562.615	26.23
562.957	26.42
563.299	26.32
563.641	26.6
563.983	26.51
564.325	26.74
564.667	26.73
565.008	26.54
565.35	26.61
565.692	26.92
566.033	26.79
566.375	26.75
566.716	26.79
567.058	26.97
567.399	26.83
567.741	26.86
568.082	26.85
568.423	26.73
568.764	27.02
569.105	26.76
569.447	26.98
569.788	27.08
570.129	27.12
570.47	27.32
570.811	27.27
571.151	27.68
571.492	27.43
571.833	27.48
572.174	27.28
572.514	27.53
572.855	27.31
573.195	27.43
573.536	27.53
573.876	27.37
574.217	27.44
574.557	27.58
574.898	27.67
575.238	28.1
575.578	27.68
575.918	27.84
576.258	28.18
576.598	27.97
576.938	28.05
577.278	28.22
577.618	28.13
577.958	28.4
578.298	28.54
578.638	28.3
578.977	28.29
579.317	28.44
579.657	28.47
579.996	28.45
580.336	28.83
580.675	28.52
581.014	28.96
581.354	28.69
581.693	29.11
582.032	28.83
582.372	28.9
582.711	28.99
583.05	29.11
583.389	29.19
583.728	29.33
584.067	29.46
584.406	29.33
584.745	29.56
585.083	29.38
585.422	29.75
585.761	29.58
586.1	29.59
586.438	29.83
586.777	29.74
587.115	29.45
587.454	29.86
587.792	29.62
588.13	29.73
588.469	29.75
588.807	29.97
589.145	29.78
589.483	29.68
589.821	29.83
590.159	29.89
590.497	30.28
590.835	30.11
591.173	29.86
591.511	30.22
591.849	29.92
592.187	30.07
592.524	30.28
592.862	30.25
593.2	29.94
593.537	30.27
593.875	30.54
594.212	30.49
594.55	30.63
594.887	30.88
595.224	30.41
595.561	30.54
595.899	30.46
596.236	30.68
596.573	30.84
596.91	30.89
597.247	30.84
597.584	31.01
597.921	31.05
598.258	30.77
598.594	30.85
598.931	30.9
599.268	30.91
599.604	30.99
599.941	30.91
600.277	30.92
600.614	31.26
600.95	31.3
601.287	31.38
601.623	31.69
601.959	31.38
602.296	31.51
602.632	31.79
602.968	31.68
603.304	31.39
603.64	31.84
603.976	31.35
604.312	31.73
604.648	31.5
604.984	31.68
605.319	31.57
605.655	31.73
605.991	31.88
606.326	31.56
606.662	31.5
606.998	31.84
607.333	31.75
607.668	31.63
608.004	31.98
608.339	32.18
608.674	31.97
609.01	32.09
609.345	32.26
609.68	32.52
610.015	32.05
610.35	32.6
610.685	32.27
611.02	32.48
611.355	32.4
611.689	32.44
612.024	32.26
612.359	32.62
612.694	32.42
613.028	32.77
613.363	32.62
613.697	32.73
614.032	32.73
614.366	32.95
614.7	32.83
615.035	33
615.369	33.34
615.703	33.39
616.037	33.29
616.371	33.52
616.705	33.19
617.039	33.52
617.373	33.48
617.707	32.99
618.041	33.42
618.375	33.02
618.709	33.33
619.042	33.27
619.376	33.47
619.71	33.39
620.043	33.96
620.377	34.03
620.71	33.59
621.043	33.7
621.377	33.68
621.71	34.09
622.043	34.13
622.376	34.06
622.709	34.28
623.043	34.04
623.376	34.49
623.709	34.78
624.041	34.63
624.374	34.28
624.707	34.46
625.04	34.22
625.373	34.87
625.705	34.31
626.038	34.43
626.37	34.84
626.703	34.57
627.035	34.24
627.368	34.57
627.7	34.64
628.032	34.65
628.365	34.64
628.697	34.63
629.029	34.47
629.361	34.47
629.693	35.13
630.025	34.94
630.357	34.91
630.689	34.89
631.021	34.91
631.353	35.14
631.684	35.17
632.016	35.22
632.348	34.99
632.679	35.03
633.011	35.53
633.342	35.68
633.674	35.71
634.005	35.78
634.336	35.68
634.668	35.51
634.999	35.7
635.33	35.63
635.661	35.91
635.992	35.7
636.323	35.18
636.654	35.67
636.985	35.64
637.316	35.66
637.647	35.95
637.977	36.1
638.308	36.06
638.639	36.2
638.969	35.81
639.3	36.17
639.63	36.49
639.961	36.3
640.291	36.13
640.622	35.84
640.952	36.28
641.282	36.15
641.612	36.47
641.943	36.55
642.273	36.07
642.603	36.73
642.933	36.43
643.263	36.17
643.592	36.74
643.922	37
644.252	37.12
644.582	36.07
644.911	36.96
645.241	36.82
645.571	37.23
645.9	37.09
646.23	36.87
646.559	36.78
646.888	37.01
647.218	36.82
647.547	37.15
647.876	37.61
648.205	37.46
648.534	36.78
648.863	37.44
649.192	37.46
649.521	37.3
649.85	37.03
650.179	37.69
650.508	37.2
650.837	37.55
651.165	36.94
651.494	37.14
651.822	37.27
652.151	38.25
652.479	38.21
652.808	38.07
653.136	37.82
653.465	37.43
653.793	37.62
654.121	37.7
654.449	37.69
654.777	38.44
655.105	37.97
655.433	37.46
655.761	37.87
656.089	38.32
656.417	38.33
656.745	38.17
657.073	37.94
657.4	38.56
657.728	37.99
658.056	37.88
658.383	37.35
658.711	37.96
659.038	37.95
659.365	37.93
659.693	38.29
660.02	38.15
660.347	38.42
660.674	38.4
661.001	39.02
661.329	38.07
661.656	38.47
661.982	38.52
662.309	38.9
662.636	38.68
662.963	38.47
663.29	38.51
663.616	38.76
663.943	38.78
664.27	39.14
664.596	39.1
664.923	38.93
665.249	39.36
665.576	39.21
665.902	38.79
666.228	39.67
666.554	38.67
666.881	39.17
667.207	38.4
667.533	38.56
667.859	39.29
668.185	39.2
668.511	39.58
668.837	39.52
669.162	40.35
669.488	39.4
669.814	39.33
670.139	39.73
670.465	39.14
670.791	38.89
671.116	39.07
671.442	39.96
671.767	39.95
672.092	39.99
672.418	40.08
672.743	40.01
673.068	39.72
673.393	40.07
673.718	39.9
