Data from 0402_forehead_Reflection__4__227.txt Node

Date: Tue Dec 12 20:14:18 CST 2023
User: ToomeyLab
Spectrometer: FLMS14357
Trigger mode: 0
Integration Time (sec): 1.000000E-2
Scans to average: 100
Electric dark correction enabled: true
Nonlinearity correction enabled: false
Boxcar width: 0
XAxis mode: Wavelengths
Number of Pixels in Spectrum: 2048
>>>>>Begin Spectral Data<<<<<
189.047	-4.77
189.435	-4.77
189.823	-4.77
190.211	-915.79
190.599	-153.4
190.987	65.79
191.375	115.08
191.763	-1800
192.151	35.76
192.538	-298.46
192.926	83.16
193.314	-226.82
193.702	55.68
194.089	-25.47
194.477	-51.45
194.864	135.83
195.252	69.99
195.639	26.25
196.027	80.52
196.414	29.37
196.801	429.67
197.189	-120.94
197.576	1359.18
197.963	92.74
198.351	23.69
198.738	-3.69
199.125	42.73
199.512	-3.72
199.899	9.45
200.286	26.72
200.673	60.4
201.06	64.39
201.447	-100.17
201.833	-14.01
202.22	30.58
202.607	-190.83
202.994	12.75
203.38	29.49
203.767	45.23
204.154	18.07
204.54	32.78
204.927	19.83
205.313	64.63
205.699	19.34
206.086	-5.66
206.472	-1.14
206.858	1.02
207.245	42.72
207.631	63.79
208.017	18.94
208.403	22.6
208.789	39.53
209.175	-30.23
209.561	12.67
209.947	20.12
210.333	11.31
210.719	-21.01
211.105	-18.9
211.491	41.07
211.876	45.32
212.262	13.47
212.648	-25.67
213.034	-8.02
213.419	-9.75
213.805	21.16
214.19	13.95
214.576	25.01
214.961	49.02
215.346	27.61
215.732	13.4
216.117	24.54
216.502	35.05
216.888	3.64
217.273	-8.71
217.658	-13.9
218.043	4.55
218.428	46.4
218.813	37.94
219.198	-16.13
219.583	24.26
219.968	9.33
220.353	8.44
220.738	38.47
221.122	20.47
221.507	-2.3
221.892	19.86
222.276	6.28
222.661	6.42
223.046	9.19
223.43	9.43
223.815	11.29
224.199	10.76
224.583	11.69
224.968	21.83
225.352	-7.43
225.736	8.03
226.121	4.46
226.505	12.54
226.889	9.66
227.273	9.47
227.657	13.08
228.041	5.36
228.425	4.16
228.809	7.41
229.193	4.96
229.577	6.78
229.961	5.11
230.344	6.23
230.728	6.89
231.112	7.29
231.495	6.71
231.879	7.73
232.263	6.21
232.646	6.37
233.03	6.44
233.413	4.52
233.797	4.5
234.18	3.26
234.563	5.65
234.946	6.85
235.33	9.77
235.713	7.85
236.096	5.13
236.479	5.91
236.862	6.59
237.245	7.18
237.628	7.29
238.011	5.6
238.394	6.07
238.777	6.13
239.16	6.15
239.543	7.59
239.925	6.31
240.308	5.51
240.691	5.88
241.073	7.02
241.456	7.01
241.838	5.86
242.221	6.31
242.603	6.73
242.986	5.16
243.368	5.95
243.75	5.55
244.133	5.3
244.515	5.96
244.897	5.83
245.279	6.08
245.661	6.19
246.043	5.32
246.425	6.46
246.807	6.9
247.189	5.05
247.571	6.3
247.953	5.58
248.335	5.46
248.717	5.47
249.098	5.71
249.48	5.26
249.862	5.02
250.243	5.18
250.625	5.9
251.006	6.06
251.388	6.56
251.769	6.71
252.151	4.73
252.532	5.55
252.913	6.49
253.295	5.41
253.676	5.17
254.057	4.85
254.438	5.64
254.819	5.13
255.2	4.69
255.581	5.77
255.962	4.25
256.343	5.88
256.724	5.42
257.105	4.85
257.486	4.91
257.867	4.9
258.247	4.9
258.628	6.24
259.009	4.99
259.389	5.64
259.77	4.81
260.15	4.8
260.531	6.24
260.911	6.01
261.292	5.28
261.672	5.17
262.052	5.24
262.432	5.23
262.813	5.41
263.193	5.48
263.573	6.27
263.953	6.01
264.333	6.44
264.713	5.42
265.093	4.38
265.473	6.47
265.853	4.57
266.233	4.89
266.612	5.67
266.992	5.33
267.372	6.36
267.752	6.42
268.131	4.31
268.511	5.02
268.89	4.73
269.27	4.82
269.649	4.49
270.029	5.3
270.408	5.71
270.787	5.68
271.167	4.98
271.546	5.35
271.925	5.84
272.304	5.93
272.683	4.77
273.062	4.76
273.441	5.5
273.82	4.82
274.199	5.49
274.578	5.21
274.957	5.07
275.336	5.32
275.715	5.56
276.093	4.03
276.472	5.17
276.851	5.39
277.229	4.88
277.608	4.8
277.986	4.35
278.365	5.2
278.743	5.06
279.122	5.72
279.5	4.84
279.878	5.28
280.257	5.24
280.635	5.55
281.013	5.22
281.391	5.65
281.769	4.84
282.147	5.27
282.525	4.79
282.903	4.91
283.281	5.02
283.659	5.23
284.037	5.15
284.415	5.17
284.792	5.42
285.17	5.06
285.548	5.33
285.925	5.07
286.303	5.04
286.68	5.01
287.058	5.32
287.435	5.23
287.813	4.91
288.19	5.15
288.567	5.03
288.945	5.51
289.322	4.48
289.699	5.38
290.076	4.86
290.453	5.25
290.83	5.05
291.207	5.54
291.584	5.36
291.961	5.65
292.338	5.46
292.715	5.31
293.092	5.17
293.469	5.38
293.845	4.84
294.222	5.42
294.599	5.31
294.975	4.52
295.352	5.04
295.728	5.2
296.105	5.09
296.481	5.98
296.858	5.63
297.234	5.57
297.61	5.7
297.986	5.81
298.363	5.2
298.739	5.11
299.115	5.23
299.491	5.15
299.867	5.27
300.243	5.16
300.619	5.24
300.995	5.75
301.371	5.76
301.746	5.42
302.122	5.9
302.498	5.35
302.874	5.58
303.249	6.13
303.625	5.4
304	6.28
304.376	5.69
304.751	5.61
305.127	5.1
305.502	6.21
305.878	5.55
306.253	5.24
306.628	5.97
307.003	6.06
307.378	6.3
307.754	5.95
308.129	5.62
308.504	6.63
308.879	5.76
309.254	6.33
309.629	5.62
310.003	5.72
310.378	6.54
310.753	6.06
311.128	6.29
311.502	5.51
311.877	6.07
312.252	5.53
312.626	5.93
313.001	5.87
313.375	6.01
313.75	6.48
314.124	6.3
314.498	6.35
314.873	5.67
315.247	6.35
315.621	6.53
315.995	6.19
316.369	6.19
316.743	5.89
317.117	5.98
317.491	5.92
317.865	6.51
318.239	6.71
318.613	6.78
318.987	6.36
319.361	6.45
319.734	6.75
320.108	6.78
320.482	6.79
320.855	6.66
321.229	6.63
321.602	6.85
321.976	7.04
322.349	7.53
322.723	6.89
323.096	6.21
323.469	5.98
323.843	8.16
324.216	7.42
324.589	7.01
324.962	7.28
325.335	7.41
325.708	7.33
326.081	6.58
326.454	6.76
326.827	7.29
327.2	7
327.573	7.32
327.945	7.83
328.318	7.88
328.691	7.45
329.063	7.13
329.436	7.2
329.809	7.24
330.181	6.86
330.553	7.2
330.926	7.32
331.298	7.36
331.671	7.26
332.043	7.35
332.415	7.14
332.787	6.94
333.159	7.55
333.532	7.16
333.904	6.87
334.276	7.98
334.648	7.42
335.02	6.66
335.391	7.55
335.763	7.03
336.135	7.37
336.507	7.92
336.879	7.72
337.25	7.42
337.622	7.36
337.993	7.97
338.365	7.82
338.736	8.25
339.108	7.82
339.479	7.99
339.851	7.26
340.222	7.17
340.593	7.89
340.964	8.15
341.336	7.8
341.707	7.47
342.078	7.49
342.449	8.1
342.82	8.27
343.191	8.16
343.562	8.29
343.933	8.03
344.303	8.6
344.674	8.22
345.045	8.5
345.416	8.54
345.786	7.88
346.157	8.2
346.527	8.96
346.898	7.98
347.268	8.48
347.639	8.43
348.009	8.33
348.38	8.2
348.75	8.36
349.12	8.76
349.49	8.37
349.861	9.03
350.231	8.68
350.601	9.04
350.971	8.77
351.341	8.6
351.711	8.83
352.081	8.68
352.45	8.57
352.82	8.84
353.19	8.98
353.56	8.39
353.929	8.45
354.299	9.03
354.669	8.68
355.038	8.74
355.408	8.83
355.777	9.04
356.147	8.58
356.516	9.3
356.885	8.99
357.254	9
357.624	8.79
357.993	9.18
358.362	9.23
358.731	9.15
359.1	9.15
359.469	9.1
359.838	9.16
360.207	9.22
360.576	9.6
360.945	9
361.314	9.62
361.682	9.31
362.051	9.71
362.42	9.69
362.788	9.5
363.157	9.76
363.525	9.72
363.894	9.49
364.262	9.46
364.631	9.41
364.999	9.72
365.367	9.63
365.735	9.56
366.104	9.62
366.472	9.59
366.84	10.06
367.208	9.95
367.576	9.9
367.944	10.23
368.312	10.03
368.68	9.82
369.048	9.75
369.416	10.09
369.783	10.39
370.151	10.29
370.519	10.23
370.886	10.63
371.254	10.38
371.621	10.51
371.989	9.6
372.356	10.18
372.724	10.48
373.091	10.34
373.458	10.24
373.826	10.58
374.193	10.3
374.56	10.65
374.927	10.62
375.294	10.3
375.661	10.91
376.028	10.98
376.395	10.99
376.762	11.02
377.129	10.82
377.496	11.03
377.863	10.41
378.229	11.06
378.596	10.79
378.963	10.93
379.329	10.97
379.696	11.06
380.062	11.28
380.429	10.94
380.795	11.08
381.161	11.36
381.528	11.4
381.894	11.61
382.26	10.93
382.626	11.22
382.993	11.3
383.359	11.15
383.725	11.35
384.091	11.39
384.457	11.27
384.823	11.79
385.188	11.53
385.554	11.68
385.92	11.77
386.286	11.73
386.651	11.85
387.017	11.86
387.383	11.58
387.748	11.78
388.114	11.85
388.479	11.99
388.845	11.94
389.21	12.05
389.575	11.83
389.94	12.11
390.306	12.02
390.671	12.23
391.036	12.13
391.401	12.07
391.766	12.49
392.131	12.55
392.496	12.21
392.861	12.41
393.226	12.64
393.591	12.33
393.956	12.35
394.32	12.53
394.685	12.39
395.05	12.3
395.414	12.59
395.779	12.61
396.143	12.68
396.508	12.57
396.872	12.64
397.236	12.92
397.601	12.83
397.965	13.02
398.329	12.99
398.694	12.81
399.058	13.04
399.422	12.96
399.786	13.08
400.15	13.23
400.514	13.36
400.878	13.01
401.242	13.05
401.605	13.29
401.969	13.29
402.333	13.43
402.697	13.38
403.06	13.06
403.424	13.31
403.787	13.22
404.151	13.68
404.514	13.13
404.878	13.29
405.241	13.68
405.604	13.29
405.968	13.72
406.331	13.96
406.694	13.89
407.057	13.63
407.42	13.75
407.783	13.51
408.146	13.66
408.509	13.9
408.872	13.98
409.235	13.87
409.598	13.99
409.961	14.1
410.323	14.07
410.686	13.95
411.049	14.01
411.411	14.15
411.774	14.16
412.136	14.33
412.499	14.24
412.861	14.42
413.223	14.36
413.586	14.35
413.948	14.28
414.31	14.38
414.672	14.44
415.035	14.7
415.397	14.47
415.759	14.69
416.121	14.63
416.483	14.74
416.845	14.54
417.206	14.68
417.568	14.78
417.93	15.03
418.292	14.8
418.653	14.82
419.015	14.65
419.377	15
419.738	14.9
420.1	14.78
420.461	14.99
420.822	14.92
421.184	14.87
421.545	15.05
421.906	14.91
422.267	14.92
422.629	15.05
422.99	15.1
423.351	15.03
423.712	15.03
424.073	15.18
424.434	15.31
424.795	15.33
425.155	15.42
425.516	15.19
425.877	15.51
426.238	15.46
426.598	15.38
426.959	15.37
427.32	15.49
427.68	15.56
428.041	15.75
428.401	15.75
428.761	15.9
429.122	15.99
429.482	16.39
429.842	16.01
430.202	16.06
430.563	16.16
430.923	16.53
431.283	16.05
431.643	16.58
432.003	16.45
432.363	16.47
432.722	16.3
433.082	16.51
433.442	16.6
433.802	16.79
434.161	16.63
434.521	16.64
434.881	16.73
435.24	16.77
435.6	16.73
435.959	17
436.319	16.91
436.678	16.97
437.037	16.79
437.396	16.66
437.756	17.08
438.115	16.99
438.474	17.29
438.833	17.31
439.192	17.51
439.551	17.21
439.91	17.19
440.269	17.35
440.628	17.31
440.987	17.4
441.345	17.6
441.704	17.59
442.063	17.6
442.421	17.49
442.78	17.47
443.138	17.54
443.497	17.7
443.855	17.44
444.214	17.82
444.572	17.92
444.93	18.04
445.288	17.84
445.647	18.03
446.005	17.86
446.363	18.05
446.721	17.96
447.079	18.13
447.437	17.9
447.795	18.09
448.153	17.98
448.51	18.12
448.868	18.21
449.226	18.19
449.584	18.34
449.941	18.3
450.299	18.57
450.656	18.64
451.014	18.69
451.371	18.61
451.729	18.71
452.086	18.68
452.443	18.89
452.801	18.95
453.158	19.12
453.515	19.08
453.872	19.1
454.229	19.19
454.586	19.16
454.943	19.26
455.3	19.14
455.657	19.37
456.014	19.38
456.371	19.58
456.727	19.4
457.084	19.56
457.441	19.56
457.797	19.47
458.154	19.59
458.51	19.75
458.867	19.92
459.223	19.86
459.58	19.76
459.936	19.57
460.292	19.95
460.648	19.93
461.005	19.83
461.361	19.76
461.717	19.79
462.073	19.75
462.429	19.95
462.785	19.94
463.141	19.99
463.496	20.18
463.852	20.6
464.208	20.35
464.564	20.57
464.919	20.61
465.275	20.71
465.631	20.91
465.986	20.74
466.342	20.6
466.697	20.74
467.052	20.89
467.408	20.96
467.763	21.1
468.118	21.01
468.473	21.01
468.829	21.15
469.184	21.12
469.539	21.27
469.894	21.42
470.249	21.3
470.603	21.55
470.958	21.55
471.313	21.43
471.668	21.75
472.023	21.58
472.377	21.52
472.732	21.81
473.086	21.76
473.441	21.77
473.795	21.81
474.15	21.96
474.504	21.87
474.859	22.05
475.213	22
475.567	22.12
475.921	22.17
476.275	22.08
476.63	22.26
476.984	22.38
477.338	22.12
477.692	22.54
478.045	22.44
478.399	22.29
478.753	22.49
479.107	22.78
479.461	22.65
479.814	22.48
480.168	22.48
480.521	22.54
480.875	22.8
481.228	22.82
481.582	22.71
481.935	22.92
482.289	22.91
482.642	22.95
482.995	22.9
483.348	22.83
483.701	22.87
484.055	22.81
484.408	22.64
484.761	22.55
485.114	22.37
485.466	22.14
485.819	22.19
486.172	22.23
486.525	22.36
486.878	22.43
487.23	22.57
487.583	22.75
487.936	22.91
488.288	22.97
488.641	22.99
488.993	22.82
489.345	22.82
489.698	22.78
490.05	22.92
490.402	23.01
490.754	23.08
491.107	23.39
491.459	23.52
491.811	23.7
492.163	23.86
492.515	23.84
492.866	23.65
493.218	23.45
493.57	23.57
493.922	23.38
494.274	23.64
494.625	23.88
494.977	24.18
495.328	24.44
495.68	24.37
496.031	24.69
496.383	24.63
496.734	24.97
497.086	24.89
497.437	24.95
497.788	25.03
498.139	24.84
498.49	25.06
498.842	24.95
499.193	25.08
499.544	24.93
499.894	25.19
500.245	25.35
500.596	25.3
500.947	25.28
501.298	25.37
501.648	25.49
501.999	25.73
502.35	25.65
502.7	25.94
503.051	25.87
503.401	26.03
503.752	25.97
504.102	25.96
504.452	26.24
504.803	26.14
505.153	26.22
505.503	26.46
505.853	26.12
506.203	26.32
506.553	26.4
506.903	26.41
507.253	26.36
507.603	26.43
507.953	26.54
508.303	26.63
508.652	26.8
509.002	26.58
509.352	26.7
509.701	26.76
510.051	26.69
510.4	26.89
510.75	26.69
511.099	26.76
511.449	26.85
511.798	26.85
512.147	26.95
512.496	27.08
512.846	27.12
513.195	27.12
513.544	27.24
513.893	27.2
514.242	27.25
514.591	27.32
514.939	27.48
515.288	27.43
515.637	27.59
515.986	27.65
516.334	27.6
516.683	27.89
517.032	27.73
517.38	27.89
517.729	28.04
518.077	27.88
518.426	27.97
518.774	28.05
519.122	28.08
519.47	27.86
519.819	28.01
520.167	27.79
520.515	27.73
520.863	27.91
521.211	28.05
521.559	28.04
521.907	28.33
522.255	28.38
522.602	28.45
522.95	28.52
523.298	28.75
523.645	28.74
523.993	28.75
524.341	28.92
524.688	28.95
525.036	29.06
525.383	29.14
525.73	28.95
526.078	29.07
526.425	29.09
526.772	28.93
527.119	29
527.466	28.84
527.814	28.9
528.161	28.99
528.508	29
528.854	29.02
529.201	29.11
529.548	28.92
529.895	28.8
530.242	28.64
530.588	28.58
530.935	28.85
531.282	28.82
531.628	28.87
531.975	29
532.321	29.23
532.667	29.53
533.014	29.62
533.36	29.7
533.706	29.8
534.052	29.84
534.399	29.88
534.745	29.78
535.091	29.7
535.437	29.77
535.783	29.79
536.129	29.94
536.474	30.1
536.82	30.11
537.166	30.45
537.512	30.65
537.857	30.59
538.203	30.69
538.549	30.53
538.894	30.72
539.239	30.65
539.585	30.74
539.93	31.08
540.276	31.13
540.621	31.28
540.966	31.46
541.311	31.43
541.656	31.43
542.001	31.33
542.346	31.23
542.691	31.04
543.036	30.8
543.381	30.87
543.726	30.97
544.071	31.05
544.415	31.19
544.76	31.23
545.105	31.47
545.449	31.7
545.794	31.84
546.138	31.89
546.483	31.94
546.827	32.27
547.171	32.4
547.516	32.25
547.86	32.41
548.204	32.35
548.548	32.35
548.892	32.26
549.236	32.52
549.58	32.59
549.924	32.48
550.268	32.88
550.612	32.9
550.956	33.09
551.3	33.39
551.643	33.24
551.987	33.31
552.33	33.58
552.674	33.68
553.017	33.79
553.361	33.66
553.704	33.64
554.048	33.86
554.391	33.76
554.734	33.73
555.077	33.88
555.42	33.86
555.764	34.04
556.107	34.14
556.45	33.98
556.793	34.04
557.135	34.27
557.478	34.29
557.821	34.36
558.164	34.67
558.507	34.51
558.849	34.65
559.192	34.79
559.534	34.8
559.877	35.13
560.219	34.78
560.562	34.94
560.904	34.9
561.246	35.02
561.589	35.18
561.931	35.44
562.273	35.27
562.615	35.05
562.957	35.25
563.299	35.34
563.641	35.34
563.983	35.29
564.325	35.59
564.667	35.66
565.008	35.58
565.35	35.69
565.692	35.85
566.033	35.77
566.375	35.88
566.716	35.74
567.058	36.11
567.399	35.91
567.741	36.07
568.082	36.07
568.423	35.79
568.764	36.09
569.105	35.86
569.447	36.03
569.788	36.06
570.129	36.26
570.47	36.65
570.811	36.4
571.151	36.68
571.492	36.52
571.833	36.77
572.174	36.76
572.514	36.88
572.855	36.75
573.195	36.75
573.536	36.76
573.876	36.84
574.217	36.62
574.557	36.93
574.898	37.02
575.238	37.07
575.578	37
575.918	37.07
576.258	37.17
576.598	37.27
576.938	37.27
577.278	37.45
577.618	37.38
577.958	37.6
578.298	37.64
578.638	37.87
578.977	37.86
579.317	38.01
579.657	38.2
579.996	38.11
580.336	38.3
580.675	38.53
581.014	38.23
581.354	38.62
581.693	38.35
582.032	38.47
582.372	38.59
582.711	38.88
583.05	38.9
583.389	38.86
583.728	38.63
584.067	38.93
584.406	39.39
584.745	39.03
585.083	39.04
585.422	39.31
585.761	39.4
586.1	39.16
586.438	39.67
586.777	39.62
587.115	39.48
587.454	39.63
587.792	39.6
588.13	39.63
588.469	39.82
588.807	39.6
589.145	40.38
589.483	39.78
589.821	39.86
590.159	40.09
590.497	40.39
590.835	40.33
591.173	40.2
591.511	40.29
591.849	40.17
592.187	40.34
592.524	40.06
592.862	40.55
593.2	40.38
593.537	40.6
593.875	40.91
594.212	40.72
594.55	40.78
594.887	40.68
595.224	40.8
595.561	41.18
595.899	40.91
596.236	41.1
596.573	40.93
596.91	41.36
597.247	41.19
597.584	41.3
597.921	41.35
598.258	40.98
598.594	41.26
598.931	41.28
599.268	41
599.604	40.85
599.941	41.16
600.277	41.36
600.614	41.05
600.95	41.62
601.287	41.87
601.623	41.85
601.959	41.98
602.296	42.27
602.632	42.06
602.968	42.24
603.304	42.16
603.64	42.62
603.976	42.21
604.312	42.05
604.648	42.49
604.984	42.42
605.319	42.34
605.655	42.4
605.991	42.29
606.326	42.35
606.662	42.21
606.998	42.23
607.333	42.35
607.668	42.59
608.004	42.46
608.339	42.94
608.674	42.98
609.01	42.91
609.345	43.1
609.68	43.26
610.015	42.7
610.35	43.32
610.685	43.25
611.02	43.23
611.355	43.12
611.689	43.37
612.024	43.41
612.359	43.38
612.694	43.41
613.028	43.57
613.363	43.47
613.697	43.69
614.032	43.83
614.366	43.99
614.7	44.02
615.035	43.75
615.369	44.22
615.703	44.41
616.037	44.23
616.371	44.01
616.705	44.1
617.039	44.44
617.373	44.59
617.707	44.56
618.041	44.23
618.375	44.3
618.709	44.74
619.042	44.66
619.376	45.36
619.71	44.47
620.043	44.91
620.377	45.11
620.71	45.18
621.043	44.83
621.377	44.75
621.71	45.37
622.043	45.58
622.376	44.57
622.709	45.2
623.043	45.25
623.376	45.56
623.709	45.69
624.041	45.69
624.374	45.25
624.707	45.35
625.04	45.57
625.373	46.11
625.705	45.72
626.038	46.39
626.37	46.18
626.703	45.95
627.035	45.53
627.368	46.19
627.7	46.08
628.032	46.38
628.365	46.26
628.697	45.98
629.029	45.81
629.361	45.99
629.693	46.54
630.025	46.01
630.357	46.74
630.689	46.58
631.021	46.45
631.353	46.64
631.684	47.19
632.016	46.89
632.348	47.12
632.679	46.79
633.011	46.82
633.342	47.12
633.674	47.25
634.005	47.06
634.336	46.9
634.668	47.22
634.999	47.19
635.33	47.13
635.661	47.76
635.992	47.82
636.323	47.6
636.654	47.6
636.985	47.18
637.316	47.69
637.647	47.45
637.977	48.02
638.308	48.14
638.639	47.43
638.969	47.96
639.3	47.61
639.63	48.11
639.961	48.1
640.291	48.03
640.622	47.61
640.952	48.28
641.282	48.05
641.612	48.46
641.943	48.7
642.273	48.39
642.603	48.78
642.933	48.35
643.263	48.39
643.592	48.43
643.922	48.67
644.252	49.38
644.582	48.13
644.911	48.99
645.241	48.66
645.571	49.2
645.9	49.32
646.23	49.25
646.559	49.54
646.888	49.53
647.218	49.61
647.547	49.22
647.876	49.31
648.205	50.08
648.534	49
648.863	49.57
649.192	49.49
649.521	50
649.85	49.8
650.179	49.66
650.508	49.85
650.837	49.93
651.165	49.1
651.494	49.76
651.822	49.73
652.151	50.16
652.479	50.02
652.808	50.2
653.136	50.5
653.465	50.18
653.793	50.37
654.121	50.15
654.449	50.13
654.777	50.61
655.105	50.46
655.433	49.7
655.761	50.7
656.089	49.79
656.417	50.84
656.745	51.29
657.073	50.67
657.4	50.8
657.728	50.17
658.056	50.49
658.383	51.03
658.711	50.68
659.038	50.7
659.365	51.12
659.693	50.77
660.02	50.55
660.347	51.24
660.674	51.07
661.001	51.04
661.329	51.5
661.656	51.3
661.982	51.04
662.309	51.08
662.636	51
662.963	50.87
663.29	51.52
663.616	52.03
663.943	51.33
664.27	51.12
664.596	51.69
664.923	52.22
665.249	51.69
665.576	51.82
665.902	51.53
666.228	52.2
666.554	52.08
666.881	52.47
667.207	52.01
667.533	51.79
667.859	51.49
668.185	52.29
668.511	52.61
668.837	52.4
669.162	51.97
669.488	52
669.814	52.46
670.139	52.5
670.465	52.12
670.791	52.49
671.116	52.5
671.442	52.77
671.767	52.78
672.092	52.93
672.418	53.64
