Data from 0056_crown_Reflection__0__98.txt Node

Date: Fri Dec 16 14:45:30 CST 2022
User: ToomeyLab
Spectrometer: FLMS14357
Trigger mode: 0
Integration Time (sec): 1.000000E-2
Scans to average: 100
Electric dark correction enabled: true
Nonlinearity correction enabled: false
Boxcar width: 0
XAxis mode: Wavelengths
Number of Pixels in Spectrum: 2048
>>>>>Begin Spectral Data<<<<<
189.047	38.51
189.435	38.51
189.823	38.51
190.211	38.37
190.599	-185.98
190.987	-190.96
191.375	-77.31
191.763	115.71
192.151	-371.11
192.538	-507.71
192.926	39.71
193.314	97.25
193.702	272.58
194.089	-196.73
194.477	-569
194.864	96
195.252	101.51
195.639	114.52
196.027	-37.9
196.414	113.43
196.801	-11.51
197.189	73.01
197.576	-337.58
197.963	53.77
198.351	-5.35
198.738	-47.55
199.125	17.03
199.512	-3.9
199.899	-58.07
200.286	-61.53
200.673	20
201.06	12.9
201.447	36.82
201.833	41.82
202.22	28.77
202.607	-14.3
202.994	9.11
203.38	-11.3
203.767	5.27
204.154	-44.43
204.54	21.57
204.927	16.59
205.313	39.32
205.699	18.32
206.086	-15.33
206.472	23.5
206.858	19.57
207.245	1.82
207.631	7.8
208.017	14.96
208.403	16.2
208.789	5.41
209.175	30.43
209.561	-25.64
209.947	-7.36
210.333	-5.18
210.719	-5.23
211.105	-35.2
211.491	-28.19
211.876	-9.15
212.262	-41.54
212.648	-80.72
213.034	-2.3
213.419	22.41
213.805	-15.26
214.19	-23.91
214.576	16.21
214.961	-9.84
215.346	-27.16
215.732	22.23
216.117	-32.08
216.502	-9.52
216.888	-26.24
217.273	13.96
217.658	-35.92
218.043	-6.71
218.428	-0.53
218.813	8.35
219.198	-49.84
219.583	2.23
219.968	-14.6
220.353	17
220.738	-24.15
221.122	14.17
221.507	7.3
221.892	7.08
222.276	9.71
222.661	10.09
223.046	8.18
223.43	10.64
223.815	-2.04
224.199	7.93
224.583	-2.03
224.968	1.48
225.352	9.94
225.736	2.97
226.121	-13.4
226.505	2.33
226.889	2.69
227.273	3.69
227.657	-0.58
228.041	2.47
228.425	6.04
228.809	2.6
229.193	1.82
229.577	1.79
229.961	2.4
230.344	2.1
230.728	2.45
231.112	1.11
231.495	1.69
231.879	2.01
232.263	1.16
232.646	2.52
233.03	0.23
233.413	0.85
233.797	4.5
234.18	0.88
234.563	2.04
234.946	2.34
235.33	3.9
235.713	3.02
236.096	2.71
236.479	4.74
236.862	2.33
237.245	2.21
237.628	3.29
238.011	0.21
238.394	4.51
238.777	2.17
239.16	0.83
239.543	2.48
239.925	1.71
240.308	2.57
240.691	2.95
241.073	2.76
241.456	2.06
241.838	1.93
242.221	2.14
242.603	2.67
242.986	2.82
243.368	2.36
243.75	1.82
244.133	2.53
244.515	2.88
244.897	2.03
245.279	1.61
245.661	3.14
246.043	2.34
246.425	0.89
246.807	2.66
247.189	1.87
247.571	2.19
247.953	2.36
248.335	2.48
248.717	2.32
249.098	2.23
249.48	1.86
249.862	2.74
250.243	2.27
250.625	2.19
251.006	2.23
251.388	2.24
251.769	1.21
252.151	1.96
252.532	2.61
252.913	2.61
253.295	1.85
253.676	2.33
254.057	1.76
254.438	1.97
254.819	2.46
255.2	1.79
255.581	1.54
255.962	2.44
256.343	2.41
256.724	2.22
257.105	2.1
257.486	1.6
257.867	0.57
258.247	2.46
258.628	2.76
259.009	2.36
259.389	2.27
259.77	2.28
260.15	2.56
260.531	2.46
260.911	2.43
261.292	2.27
261.672	2.23
262.052	1.95
262.432	1.84
262.813	2.08
263.193	1.81
263.573	1.93
263.953	2.36
264.333	1.74
264.713	2.39
265.093	2.22
265.473	2.76
265.853	2.06
266.233	1.89
266.612	1.78
266.992	1.41
267.372	1.83
267.752	1.56
268.131	2.48
268.511	2.2
268.89	2.55
269.27	2.4
269.649	2.96
270.029	1.55
270.408	1.3
270.787	2.19
271.167	2.1
271.546	1.57
271.925	1.66
272.304	2.4
272.683	2.12
273.062	2.45
273.441	1.73
273.82	2.4
274.199	2.13
274.578	1.87
274.957	2.34
275.336	2.04
275.715	2.44
276.093	2.5
276.472	2.4
276.851	2.42
277.229	3.05
277.608	2.27
277.986	1.99
278.365	1.74
278.743	2.23
279.122	1.95
279.5	1.77
279.878	1.34
280.257	2.64
280.635	1.46
281.013	2.11
281.391	2.42
281.769	1.78
282.147	2.12
282.525	1.98
282.903	2.5
283.281	2.29
283.659	2.24
284.037	2.21
284.415	2.33
284.792	2.11
285.17	1.73
285.548	1.75
285.925	2.14
286.303	1.91
286.68	2.25
287.058	1.79
287.435	1.99
287.813	2.35
288.19	2.53
288.567	1.73
288.945	2
289.322	2.1
289.699	1.44
290.076	2.08
290.453	1.9
290.83	2.07
291.207	1.9
291.584	2.02
291.961	1.97
292.338	2.05
292.715	2.48
293.092	1.9
293.469	1.83
293.845	1.8
294.222	1.77
294.599	1.97
294.975	2.02
295.352	1.9
295.728	2.1
296.105	1.75
296.481	2.24
296.858	1.8
297.234	1.97
297.61	2.07
297.986	1.96
298.363	1.63
298.739	2.12
299.115	1.72
299.491	2.12
299.867	2.28
300.243	1.94
300.619	2.21
300.995	2.16
301.371	2.31
301.746	2.28
302.122	2.19
302.498	2.06
302.874	2.27
303.249	2.03
303.625	2.05
304	1.97
304.376	1.92
304.751	1.95
305.127	1.81
305.502	2.27
305.878	1.6
306.253	1.88
306.628	2.39
307.003	2.16
307.378	1.51
307.754	2.15
308.129	1.62
308.504	2.36
308.879	2.05
309.254	2.08
309.629	2.03
310.003	2.26
310.378	2.06
310.753	2.28
311.128	2.06
311.502	1.89
311.877	1.88
312.252	2.24
312.626	1.94
313.001	2.03
313.375	1.87
313.75	1.92
314.124	2.28
314.498	1.55
314.873	2.24
315.247	1.67
315.621	2.04
315.995	1.51
316.369	2.05
316.743	2.16
317.117	2.23
317.491	2.23
317.865	1.29
318.239	2.78
318.613	1.58
318.987	1.82
319.361	1.86
319.734	2.24
320.108	2.14
320.482	1.78
320.855	2.2
321.229	2.23
321.602	1.68
321.976	1.81
322.349	1.26
322.723	1.71
323.096	1.91
323.469	1.96
323.843	2.24
324.216	1.17
324.589	2.22
324.962	1.93
325.335	1.71
325.708	1.9
326.081	2.07
326.454	1.75
326.827	1.92
327.2	2.53
327.573	2.11
327.945	1.74
328.318	1.88
328.691	1.85
329.063	1.67
329.436	1.49
329.809	1.8
330.181	1.92
330.553	1.69
330.926	1.61
331.298	1.57
331.671	2.07
332.043	2.29
332.415	2.45
332.787	2.67
333.159	1.72
333.532	1.96
333.904	2.1
334.276	2.23
334.648	1.57
335.02	1.84
335.391	1.89
335.763	2.11
336.135	2.47
336.507	2.29
336.879	1.58
337.25	2.02
337.622	2.03
337.993	1.81
338.365	2.38
338.736	2.01
339.108	1.29
339.479	2.03
339.851	2.26
340.222	2.2
340.593	1.87
340.964	1.85
341.336	1.92
341.707	2.13
342.078	1.87
342.449	2.56
342.82	1.84
343.191	1.75
343.562	1.99
343.933	2.23
344.303	1.8
344.674	2.19
345.045	2.37
345.416	2.11
345.786	1.66
346.157	2.09
346.527	1.83
346.898	1.67
347.268	1.68
347.639	1.86
348.009	2.22
348.38	2.31
348.75	2.26
349.12	2.07
349.49	1.85
349.861	2.85
350.231	2.42
350.601	1.95
350.971	1.88
351.341	1.82
351.711	2.26
352.081	1.96
352.45	2.4
352.82	2.22
353.19	1.94
353.56	1.98
353.929	2.15
354.299	1.74
354.669	2.05
355.038	1.78
355.408	2.26
355.777	2.09
356.147	2.06
356.516	2.15
356.885	2.17
357.254	2.12
357.624	2.58
357.993	2.04
358.362	2.41
358.731	2.17
359.1	2.09
359.469	2.02
359.838	1.82
360.207	1.83
360.576	2.12
360.945	2.08
361.314	2.05
361.682	1.98
362.051	2
362.42	2.39
362.788	2.04
363.157	1.8
363.525	1.88
363.894	1.86
364.262	2.07
364.631	2.64
364.999	1.78
365.367	2.48
365.735	1.98
366.104	2.01
366.472	2.16
366.84	1.99
367.208	1.77
367.576	1.75
367.944	2.49
368.312	1.85
368.68	2.38
369.048	2.19
369.416	1.87
369.783	1.88
370.151	2.23
370.519	2.37
370.886	2.23
371.254	2.23
371.621	2.28
371.989	2.12
372.356	2
372.724	1.94
373.091	2.04
373.458	1.92
373.826	1.95
374.193	2.24
374.56	2.05
374.927	1.82
375.294	2
375.661	2.14
376.028	2.12
376.395	2.08
376.762	2.4
377.129	2.38
377.496	2.09
377.863	2.1
378.229	2.07
378.596	2.24
378.963	1.9
379.329	2.11
379.696	2.29
380.062	2.11
380.429	2.21
380.795	1.88
381.161	2.15
381.528	1.86
381.894	2.21
382.26	2.01
382.626	1.95
382.993	1.8
383.359	2.04
383.725	2.05
384.091	2.14
384.457	2.13
384.823	1.93
385.188	2.14
385.554	1.97
385.92	2.2
386.286	2.39
386.651	2.01
387.017	2.12
387.383	2.09
387.748	2
388.114	2.23
388.479	2.36
388.845	2.08
389.21	2.33
389.575	2.13
389.94	2.11
390.306	2.02
390.671	2.1
391.036	2.2
391.401	2.3
391.766	2.21
392.131	2.2
392.496	2.02
392.861	1.94
393.226	2.4
393.591	2.44
393.956	2.23
394.32	2.2
394.685	2.26
395.05	1.87
395.414	2.28
395.779	2.27
396.143	2.24
396.508	2.09
396.872	2.33
397.236	1.81
397.601	2.35
397.965	2.03
398.329	2.13
398.694	2.15
399.058	2.16
399.422	2.21
399.786	2.28
400.15	2.17
400.514	2.06
400.878	2.22
401.242	2.31
401.605	2.32
401.969	2.33
402.333	2.15
402.697	2.4
403.06	2.41
403.424	2.19
403.787	2.41
404.151	2.21
404.514	2.36
404.878	2.31
405.241	2.33
405.604	2.35
405.968	2.13
406.331	2.29
406.694	2.12
407.057	2.58
407.42	2.19
407.783	2.06
408.146	2.19
408.509	2.12
408.872	1.95
409.235	2.3
409.598	2.39
409.961	2.19
410.323	2.4
410.686	2.24
411.049	2.18
411.411	2.29
411.774	2.04
412.136	2.19
412.499	2.22
412.861	1.87
413.223	2.19
413.586	2.14
413.948	1.99
414.31	2.29
414.672	2.07
415.035	2.3
415.397	2.37
415.759	2.14
416.121	2.44
416.483	2.2
416.845	2.23
417.206	2.3
417.568	2.16
417.93	2.3
418.292	2.24
418.653	2.28
419.015	2.2
419.377	2.24
419.738	2.24
420.1	2.14
420.461	2.18
420.822	2.26
421.184	2.17
421.545	2.15
421.906	2.24
422.267	2.11
422.629	2.08
422.99	2.13
423.351	2.14
423.712	2.2
424.073	2.23
424.434	2.18
424.795	2.2
425.155	2.16
425.516	2.17
425.877	2.14
426.238	2.04
426.598	2.16
426.959	2.07
427.32	2.18
427.68	2.32
428.041	2.18
428.401	2.15
428.761	2.21
429.122	2.29
429.482	2.24
429.842	2.31
430.202	2.21
430.563	2.15
430.923	2.08
431.283	2.24
431.643	2.25
432.003	2.12
432.363	2.23
432.722	2.14
433.082	2.17
433.442	2.19
433.802	2.23
434.161	2.15
434.521	2.19
434.881	2.24
435.24	2.14
435.6	2.18
435.959	2.28
436.319	2.21
436.678	2.27
437.037	2.4
437.396	2.19
437.756	2.25
438.115	2.17
438.474	2.39
438.833	2.21
439.192	2.44
439.551	2.31
439.91	2.34
440.269	2.23
440.628	2.18
440.987	2.11
441.345	2.29
441.704	2.13
442.063	2.19
442.421	2.24
442.78	2.16
443.138	2.19
443.497	2.17
443.855	2.24
444.214	2.27
444.572	2.29
444.93	2.24
445.288	2.13
445.647	2.26
446.005	2.07
446.363	2.25
446.721	2.16
447.079	2.29
447.437	2.12
447.795	2.18
448.153	2.22
448.51	2.2
448.868	2.34
449.226	2.22
449.584	2.18
449.941	2.3
450.299	2.17
450.656	2.25
451.014	2.22
451.371	2.16
451.729	2.23
452.086	2.21
452.443	2.25
452.801	2.32
453.158	2.18
453.515	2.11
453.872	2.31
454.229	2.12
454.586	2.39
454.943	2.2
455.3	2.37
455.657	2.11
456.014	2.28
456.371	2.18
456.727	2.11
457.084	2.29
457.441	2.17
457.797	2.25
458.154	2.18
458.51	2.18
458.867	2.05
459.223	2.29
459.58	2.22
459.936	2.1
460.292	2.28
460.648	2.05
461.005	2.16
461.361	2.17
461.717	2.25
462.073	2.27
462.429	2.24
462.785	2.34
463.141	2.35
463.496	2.21
463.852	2.44
464.208	2.34
464.564	2.16
464.919	2.02
465.275	2.27
465.631	2.18
465.986	2.16
466.342	2.44
466.697	2.15
467.052	2.19
467.408	2.26
467.763	2.11
468.118	2.17
468.473	2.34
468.829	2.21
469.184	2.32
469.539	2.13
469.894	2.32
470.249	2.22
470.603	2.21
470.958	2.47
471.313	2.15
471.668	2.26
472.023	2.37
472.377	2.24
472.732	2.29
473.086	2.06
473.441	2.18
473.795	2.45
474.15	2.27
474.504	2.18
474.859	2.21
475.213	2.24
475.567	2.11
475.921	2.25
476.275	2.28
476.63	2.21
476.984	2.26
477.338	2.42
477.692	2.2
478.045	2.15
478.399	2.28
478.753	2.2
479.107	2.26
479.461	2.4
479.814	2.29
480.168	2.33
480.521	2.25
480.875	2.43
481.228	2.34
481.582	2.24
481.935	2.23
482.289	2.24
482.642	2.27
482.995	2.25
483.348	2.26
483.701	2.2
484.055	2.12
484.408	2.13
484.761	2.05
485.114	2.01
485.466	2.07
485.819	2.1
486.172	2.19
486.525	2.24
486.878	2.24
487.23	2.2
487.583	2.14
487.936	2.2
488.288	2.13
488.641	2.09
488.993	2.06
489.345	2.17
489.698	2.2
490.05	2.18
490.402	2.24
490.754	2.27
491.107	2.25
491.459	2.29
491.811	2.3
492.163	2.2
492.515	2.18
492.866	2.06
493.218	2.09
493.57	2.2
493.922	2.19
494.274	2.29
494.625	2.27
494.977	2.25
495.328	2.34
495.68	2.37
496.031	2.42
496.383	2.25
496.734	2.31
497.086	2.25
497.437	2.3
497.788	2.26
498.139	2.23
498.49	2.25
498.842	2.23
499.193	2.31
499.544	2.29
499.894	2.32
500.245	2.17
500.596	2.4
500.947	2.24
501.298	2.22
501.648	2.31
501.999	2.46
502.35	2.37
502.7	2.36
503.051	2.34
503.401	2.27
503.752	2.24
504.102	2.33
504.452	2.28
504.803	2.19
505.153	2.26
505.503	2.17
505.853	2.25
506.203	2.26
506.553	2.39
506.903	2.33
507.253	2.28
507.603	2.38
507.953	2.33
508.303	2.27
508.652	2.32
509.002	2.3
509.352	2.27
509.701	2.22
510.051	2.35
510.4	2.33
510.75	2.26
511.099	2.29
511.449	2.4
511.798	2.34
512.147	2.37
512.496	2.32
512.846	2.25
513.195	2.31
513.544	2.28
513.893	2.25
514.242	2.46
514.591	2.34
514.939	2.24
515.288	2.3
515.637	2.45
515.986	2.26
516.334	2.35
516.683	2.42
517.032	2.32
517.38	2.28
517.729	2.33
518.077	2.35
518.426	2.17
518.774	2.27
519.122	2.14
519.47	2.27
519.819	2.32
520.167	2.21
520.515	2.29
520.863	2.33
521.211	2.33
521.559	2.31
521.907	2.29
522.255	2.39
522.602	2.32
522.95	2.43
523.298	2.33
523.645	2.32
523.993	2.4
524.341	2.22
524.688	2.34
525.036	2.38
525.383	2.44
525.73	2.45
526.078	2.43
526.425	2.31
526.772	2.22
527.119	2.29
527.466	2.29
527.814	2.3
528.161	2.4
528.508	2.34
528.854	2.24
529.201	2.26
529.548	2.15
529.895	2.14
530.242	2.14
530.588	2.24
530.935	2.28
531.282	2.32
531.628	2.31
531.975	2.35
532.321	2.26
532.667	2.31
533.014	2.29
533.36	2.24
533.706	2.31
534.052	2.24
534.399	2.23
534.745	2.18
535.091	2.23
535.437	2.28
535.783	2.38
536.129	2.38
536.474	2.44
536.82	2.4
537.166	2.41
537.512	2.36
537.857	2.26
538.203	2.28
538.549	2.37
538.894	2.35
539.239	2.41
539.585	2.33
539.93	2.45
540.276	2.33
540.621	2.38
540.966	2.33
541.311	2.34
541.656	2.17
542.001	2.35
542.346	2.26
542.691	2.17
543.036	2.22
543.381	2.32
543.726	2.39
544.071	2.4
544.415	2.33
544.76	2.3
545.105	2.36
545.449	2.3
545.794	2.34
546.138	2.43
546.483	2.32
546.827	2.36
547.171	2.31
547.516	2.42
547.86	2.35
548.204	2.35
548.548	2.45
548.892	2.33
549.236	2.36
549.58	2.37
549.924	2.43
550.268	2.49
550.612	2.43
550.956	2.49
551.3	2.46
551.643	2.42
551.987	2.42
552.33	2.26
552.674	2.49
553.017	2.39
553.361	2.43
553.704	2.28
554.048	2.48
554.391	2.43
554.734	2.35
555.077	2.45
555.42	2.37
555.764	2.43
556.107	2.63
556.45	2.45
556.793	2.51
557.135	2.56
557.478	2.68
557.821	2.39
558.164	2.53
558.507	2.42
558.849	2.38
559.192	2.54
559.534	2.28
559.877	2.47
560.219	2.54
560.562	2.43
560.904	2.4
561.246	2.57
561.589	2.48
561.931	2.64
562.273	2.46
562.615	2.55
562.957	2.5
563.299	2.67
563.641	2.49
563.983	2.44
564.325	2.36
564.667	2.48
565.008	2.44
565.35	2.52
565.692	2.52
566.033	2.46
566.375	2.34
566.716	2.53
567.058	2.58
567.399	2.55
567.741	2.49
568.082	2.3
568.423	2.48
568.764	2.54
569.105	2.56
569.447	2.62
569.788	2.58
570.129	2.44
570.47	2.61
570.811	2.56
571.151	2.5
571.492	2.61
571.833	2.51
572.174	2.43
572.514	2.35
572.855	2.5
573.195	2.39
573.536	2.51
573.876	2.45
574.217	2.55
574.557	2.58
574.898	2.39
575.238	2.59
575.578	2.45
575.918	2.42
576.258	2.53
576.598	2.6
576.938	2.63
577.278	2.55
577.618	2.47
577.958	2.45
578.298	2.54
578.638	2.46
578.977	2.55
579.317	2.74
579.657	2.61
579.996	2.24
580.336	2.46
580.675	2.61
581.014	2.6
581.354	2.53
581.693	2.59
582.032	2.62
582.372	2.73
582.711	2.46
583.05	2.81
583.389	2.62
583.728	2.65
584.067	2.34
584.406	2.83
584.745	2.51
585.083	2.7
585.422	2.58
585.761	2.69
586.1	2.63
586.438	2.71
586.777	2.64
587.115	2.72
587.454	2.65
587.792	2.41
588.13	2.85
588.469	2.73
588.807	2.73
589.145	2.49
589.483	2.57
589.821	2.53
590.159	2.43
590.497	2.46
590.835	2.54
591.173	2.71
591.511	2.63
591.849	2.67
592.187	2.69
592.524	2.54
592.862	2.59
593.2	2.44
593.537	2.52
593.875	2.8
594.212	2.45
594.55	2.56
594.887	2.48
595.224	2.6
595.561	2.68
595.899	2.28
596.236	2.58
596.573	2.47
596.91	2.52
597.247	2.49
597.584	2.69
597.921	2.56
598.258	2.57
598.594	2.51
598.931	2.44
599.268	2.61
599.604	2.64
599.941	2.45
600.277	2.57
600.614	2.65
600.95	2.83
601.287	2.71
601.623	2.68
601.959	2.33
602.296	2.73
602.632	2.73
602.968	2.52
603.304	2.48
603.64	2.61
603.976	2.6
604.312	2.79
604.648	2.83
604.984	2.79
605.319	2.59
605.655	2.76
605.991	2.61
606.326	2.61
606.662	2.53
606.998	2.52
607.333	2.74
607.668	2.65
608.004	2.47
608.339	2.56
608.674	2.72
609.01	2.75
609.345	2.86
609.68	2.64
610.015	2.75
610.35	2.61
610.685	2.68
611.02	2.82
611.355	2.68
611.689	2.47
612.024	2.86
612.359	2.72
612.694	2.98
613.028	2.72
613.363	2.32
613.697	2.74
614.032	2.62
614.366	2.61
614.7	2.98
615.035	2.32
615.369	2.47
615.703	3.03
616.037	2.77
616.371	2.93
616.705	2.67
617.039	3.13
617.373	2.36
617.707	2.44
618.041	2.95
618.375	2.72
618.709	2.84
619.042	2.99
619.376	2.73
619.71	2.63
620.043	2.44
620.377	2.4
620.71	2.7
621.043	2.39
621.377	2.6
621.71	2.84
622.043	2.98
622.376	2.55
622.709	3.02
623.043	2.94
623.376	2.75
623.709	2.75
624.041	2.48
624.374	2.59
624.707	2.49
625.04	2.97
625.373	2.61
625.705	2.76
626.038	2.6
626.37	2.83
626.703	2.58
627.035	2.59
627.368	3.02
627.7	2.81
628.032	2.53
628.365	2.47
628.697	2.64
629.029	2.94
629.361	2.7
629.693	2.9
630.025	2.81
630.357	2.61
630.689	3
631.021	2.73
631.353	2.94
631.684	2.93
632.016	2.76
632.348	2.72
632.679	2.62
633.011	2.85
633.342	2.62
633.674	2.62
634.005	3.01
634.336	2.89
634.668	2.49
634.999	2.78
635.33	2.73
635.661	2.79
635.992	2.79
636.323	2.7
636.654	2.84
636.985	2.55
637.316	2.73
637.647	2.78
637.977	2.84
638.308	2.62
638.639	2.68
638.969	2.59
639.3	2.93
639.63	2.59
639.961	2.8
640.291	3.13
640.622	3.15
640.952	2.74
641.282	2.4
641.612	2.71
641.943	2.77
642.273	2.49
642.603	3
642.933	2.76
643.263	3.24
643.592	2.8
643.922	3.49
644.252	3.05
644.582	2.34
644.911	3.08
645.241	2.94
645.571	2.56
645.9	3.05
646.23	2.88
646.559	2.78
646.888	2.62
647.218	2.87
647.547	3.2
647.876	2.98
648.205	2.84
648.534	2.78
648.863	2.88
649.192	2.43
649.521	2.59
649.85	2.81
650.179	2.33
650.508	3.08
650.837	2.72
651.165	2.92
651.494	2.8
651.822	2.75
652.151	3.12
652.479	3.16
652.808	2.56
653.136	2.51
653.465	3.18
653.793	3.22
654.121	2.95
654.449	2.8
654.777	2.9
655.105	3.12
655.433	3.17
655.761	2.75
656.089	3.11
656.417	2.74
656.745	3.21
657.073	3
657.4	2.93
657.728	3.05
658.056	2.51
658.383	2.78
658.711	2.7
659.038	3.76
659.365	3.1
659.693	2.72
660.02	2.84
660.347	2.98
660.674	2.65
661.001	2.66
661.329	2.58
661.656	2.77
661.982	2.93
662.309	3.02
662.636	2.77
662.963	2.78
663.29	2.88
663.616	3.22
663.943	2.86
664.27	3.07
664.596	2.9
664.923	3.28
665.249	3
665.576	3.14
665.902	2.8
666.228	2.94
666.554	2.63
666.881	3.03
667.207	2.69
667.533	3.15
667.859	3.15
668.185	2.52
668.511	2.51
668.837	2.14
669.162	2.63
669.488	2.81
669.814	3.33
670.139	3.28
670.465	3.28
670.791	2.94
671.116	3.25
671.442	3.05
671.767	3.03
672.092	3.08
672.418	2.94
672.743	3.03
673.068	2.33
673.393	3
673.718	2.68
674.043	3.06
674.368	3.23
674.693	3.28
675.018	3.48
675.343	2.84
675.667	3.12
675.992	2.63
676.317	2.7
676.641	3.31
676.966	3.56
677.29	2.61
677.615	2.95
677.939	2.39
678.264	2.93
678.588	3.52
678.912	3.29
679.236	2.97
679.56	2.32
679.885	3.27
680.209	2.68
680.532	2.52
680.856	3.37
681.18	3
681.504	3
681.828	2.71
682.152	3.09
682.475	2.65
682.799	3.49
683.122	2.7
683.446	2.66
683.769	3.59
684.093	3.24
684.416	2.8
684.739	2.86
685.062	3.58
685.386	3.26
685.709	3.08
686.032	3
686.355	3.15
686.678	2.83
687.001	1.86
687.324	3.07
687.646	2.8
687.969	3.1
688.292	3.3
688.614	3
688.937	2.9
689.26	2.77
689.582	3.53
689.904	3.1
690.227	2.73
690.549	3.31
690.871	3.43
691.194	3.24
691.516	2.74
691.838	3.5
692.16	3.66
692.482	3.15
692.804	2.66
693.126	3.16
