Data from 0056_crown_Reflection__3__101.txt Node

Date: Fri Dec 16 14:45:57 CST 2022
User: ToomeyLab
Spectrometer: FLMS14357
Trigger mode: 0
Integration Time (sec): 1.000000E-2
Scans to average: 100
Electric dark correction enabled: true
Nonlinearity correction enabled: false
Boxcar width: 0
XAxis mode: Wavelengths
Number of Pixels in Spectrum: 2048
>>>>>Begin Spectral Data<<<<<
189.047	43.59
189.435	43.59
189.823	43.59
190.211	5.54
190.599	218.85
190.987	-1.19
191.375	-124.59
191.763	62.16
192.151	149.84
192.538	-45.56
192.926	-176.28
193.314	82.02
193.702	161.62
194.089	-492.94
194.477	-646.29
194.864	175.31
195.252	19.43
195.639	93.51
196.027	-23.35
196.414	-17.73
196.801	-2.68
197.189	70.14
197.576	-2351.68
197.963	141.39
198.351	15.96
198.738	48.67
199.125	35.89
199.512	4.05
199.899	20.72
200.286	-35.57
200.673	22.47
201.06	74
201.447	23.82
201.833	21.58
202.22	2.58
202.607	-7.16
202.994	3.48
203.38	-12.69
203.767	-72.6
204.154	-77.98
204.54	13.85
204.927	20.45
205.313	65.51
205.699	8.71
206.086	-17.07
206.472	5.21
206.858	17.14
207.245	-11.94
207.631	24.35
208.017	14.95
208.403	1.07
208.789	37
209.175	46.24
209.561	6.17
209.947	5.92
210.333	-7.43
210.719	-6.48
211.105	-57.2
211.491	24.98
211.876	9.83
212.262	2.95
212.648	-67.04
213.034	-1.54
213.419	27.48
213.805	3.21
214.19	11.84
214.576	4.05
214.961	3.45
215.346	-0.16
215.732	-19.01
216.117	0.39
216.502	5.87
216.888	-38.9
217.273	14.97
217.658	-32.27
218.043	9.74
218.428	-2.88
218.813	-7.53
219.198	-1
219.583	9.03
219.968	-2.98
220.353	13.55
220.738	13.02
221.122	12.85
221.507	-7.55
221.892	-0.37
222.276	6.42
222.661	-5.76
223.046	6.65
223.43	10.68
223.815	-1.19
224.199	10.24
224.583	-1.95
224.968	4.45
225.352	-3.69
225.736	9.68
226.121	4.16
226.505	0.15
226.889	9.93
227.273	4.09
227.657	3.01
228.041	1.69
228.425	11.14
228.809	3.24
229.193	4.63
229.577	5.18
229.961	5.62
230.344	5.69
230.728	4.11
231.112	4.42
231.495	4.44
231.879	5.59
232.263	4.82
232.646	5.25
233.03	4.06
233.413	5.63
233.797	7.22
234.18	2.96
234.563	2.82
234.946	2.51
235.33	6.98
235.713	3.99
236.096	4.94
236.479	3.85
236.862	4.55
237.245	6.3
237.628	5.85
238.011	5.07
238.394	7
238.777	5.68
239.16	4.47
239.543	4.18
239.925	5.74
240.308	4.5
240.691	4.86
241.073	5.68
241.456	3.9
241.838	4.14
242.221	5.09
242.603	5.22
242.986	5.94
243.368	4.8
243.75	4.76
244.133	4.95
244.515	4.37
244.897	5.5
245.279	4.06
245.661	5.04
246.043	5.91
246.425	4.06
246.807	5.09
247.189	4.23
247.571	4.93
247.953	4.7
248.335	4.9
248.717	4.79
249.098	4.85
249.48	4.31
249.862	4.89
250.243	4.9
250.625	4.81
251.006	4.82
251.388	5.09
251.769	3.96
252.151	4.25
252.532	4.69
252.913	4.64
253.295	4.24
253.676	5.04
254.057	4.44
254.438	4.86
254.819	5.75
255.2	4.92
255.581	3.67
255.962	2.53
256.343	3.36
256.724	3.91
257.105	4.3
257.486	4.12
257.867	2.69
258.247	4.37
258.628	5.22
259.009	5.12
259.389	4.65
259.77	4.16
260.15	5
260.531	5.01
260.911	4.67
261.292	4.35
261.672	4.47
262.052	4.49
262.432	4.39
262.813	4.64
263.193	3.66
263.573	4.93
263.953	4.03
264.333	4.01
264.713	4.3
265.093	4.93
265.473	5.05
265.853	3.88
266.233	4.37
266.612	4.19
266.992	3.24
267.372	4.01
267.752	4.13
268.131	4.52
268.511	4.83
268.89	4.4
269.27	4.39
269.649	4.98
270.029	4.11
270.408	4.73
270.787	3.82
271.167	4.35
271.546	4.24
271.925	4.16
272.304	4.42
272.683	4.21
273.062	4.53
273.441	4.84
273.82	4.69
274.199	4.53
274.578	4.13
274.957	4.14
275.336	4.26
275.715	4.5
276.093	4.43
276.472	4.53
276.851	4.66
277.229	5.09
277.608	4.09
277.986	4.32
278.365	3.68
278.743	4.59
279.122	3.69
279.5	4.03
279.878	3.92
280.257	4.53
280.635	4.39
281.013	4.69
281.391	4.15
281.769	4.01
282.147	4.34
282.525	3.94
282.903	4.57
283.281	3.87
283.659	4.19
284.037	4.18
284.415	4.27
284.792	4.28
285.17	3.81
285.548	4.08
285.925	4.13
286.303	3.71
286.68	4.35
287.058	3.86
287.435	4.01
287.813	4.1
288.19	4.43
288.567	4.1
288.945	4.02
289.322	3.66
289.699	4.29
290.076	4.32
290.453	4.19
290.83	3.94
291.207	4.3
291.584	3.61
291.961	4.28
292.338	4.14
292.715	4.35
293.092	3.94
293.469	4.42
293.845	4.44
294.222	4.17
294.599	4.58
294.975	4.21
295.352	3.65
295.728	4.52
296.105	3.91
296.481	4.68
296.858	4.14
297.234	3.98
297.61	4.14
297.986	4.11
298.363	3.88
298.739	4.41
299.115	4.06
299.491	3.86
299.867	4.1
300.243	3.59
300.619	3.37
300.995	4.16
301.371	4.1
301.746	3.51
302.122	4.25
302.498	4.22
302.874	4.22
303.249	4.49
303.625	4.12
304	4.24
304.376	4.07
304.751	4.08
305.127	3.82
305.502	4.06
305.878	3.86
306.253	3.95
306.628	4.4
307.003	4.03
307.378	3.69
307.754	4.55
308.129	3.49
308.504	4.12
308.879	3.95
309.254	4.25
309.629	3.72
310.003	4.22
310.378	4.38
310.753	4.15
311.128	3.92
311.502	3.8
311.877	3.83
312.252	3.88
312.626	4.15
313.001	3.93
313.375	3.88
313.75	3.89
314.124	4.2
314.498	3.65
314.873	3.8
315.247	3.44
315.621	3.89
315.995	4.18
316.369	4.16
316.743	4.09
317.117	3.95
317.491	3.86
317.865	3.19
318.239	4.3
318.613	3.31
318.987	3.95
319.361	3.67
319.734	4.02
320.108	3.9
320.482	3.42
320.855	3.6
321.229	4.24
321.602	4.18
321.976	3.33
322.349	3.54
322.723	3.17
323.096	3.3
323.469	3.69
323.843	3.5
324.216	3.39
324.589	4.21
324.962	3.61
325.335	3.77
325.708	4.15
326.081	4.13
326.454	4.17
326.827	3.96
327.2	4.17
327.573	4.21
327.945	3.73
328.318	4.03
328.691	3.46
329.063	3.87
329.436	4.12
329.809	3.07
330.181	3.76
330.553	3.94
330.926	3.89
331.298	3.76
331.671	3.44
332.043	3.71
332.415	3.95
332.787	4.33
333.159	3.75
333.532	3.49
333.904	3.68
334.276	4.13
334.648	3.77
335.02	4.13
335.391	3.96
335.763	3.57
336.135	3.9
336.507	4.04
336.879	3.57
337.25	3.74
337.622	3.87
337.993	3.96
338.365	4.15
338.736	4.03
339.108	3.94
339.479	3.74
339.851	4.24
340.222	3.88
340.593	3.7
340.964	3.98
341.336	3.26
341.707	3.69
342.078	3.26
342.449	3.97
342.82	3.8
343.191	3.73
343.562	3.92
343.933	3.94
344.303	3.62
344.674	3.87
345.045	3.99
345.416	3.6
345.786	3.4
346.157	3.83
346.527	3.8
346.898	3.58
347.268	3.42
347.639	3.76
348.009	3.87
348.38	3.54
348.75	3.8
349.12	4.13
349.49	3.59
349.861	3.97
350.231	4.24
350.601	3.78
350.971	3.52
351.341	3.86
351.711	3.81
352.081	3.69
352.45	4.07
352.82	4.14
353.19	3.61
353.56	4.28
353.929	4.16
354.299	3.67
354.669	3.94
355.038	3.62
355.408	4.28
355.777	3.45
356.147	4.04
356.516	4.07
356.885	3.42
357.254	4.11
357.624	3.98
357.993	3.81
358.362	4.06
358.731	3.76
359.1	4.13
359.469	3.94
359.838	3.66
360.207	3.62
360.576	3.87
360.945	3.65
361.314	3.99
361.682	3.69
362.051	3.85
362.42	4.17
362.788	3.83
363.157	3.85
363.525	3.92
363.894	3.59
364.262	3.64
364.631	4.4
364.999	3.62
365.367	3.89
365.735	3.66
366.104	3.58
366.472	3.85
366.84	3.97
367.208	3.33
367.576	3.7
367.944	3.98
368.312	3.46
368.68	4.07
369.048	4.13
369.416	3.75
369.783	3.89
370.151	3.83
370.519	3.58
370.886	4.03
371.254	3.72
371.621	3.82
371.989	4.05
372.356	3.84
372.724	3.96
373.091	3.82
373.458	3.73
373.826	3.85
374.193	4.19
374.56	3.73
374.927	4.01
375.294	4.02
375.661	4.16
376.028	3.88
376.395	3.88
376.762	4.18
377.129	3.95
377.496	3.79
377.863	3.94
378.229	3.96
378.596	3.71
378.963	3.84
379.329	4.18
379.696	3.85
380.062	4.04
380.429	3.93
380.795	3.62
381.161	3.81
381.528	3.5
381.894	4.06
382.26	3.84
382.626	3.62
382.993	3.74
383.359	3.94
383.725	3.56
384.091	3.69
384.457	4.06
384.823	4.06
385.188	4.06
385.554	4.05
385.92	4.07
386.286	4.07
386.651	3.7
387.017	3.92
387.383	3.63
387.748	3.8
388.114	4.1
388.479	3.93
388.845	3.8
389.21	3.87
389.575	4.12
389.94	4.08
390.306	4.06
390.671	3.9
391.036	4.13
391.401	4.17
391.766	3.92
392.131	3.92
392.496	3.73
392.861	3.79
393.226	4.1
393.591	3.89
393.956	4.01
394.32	3.99
394.685	4.03
395.05	3.89
395.414	4.06
395.779	3.78
396.143	4
396.508	4.06
396.872	3.82
397.236	3.75
397.601	4.09
397.965	3.71
398.329	3.96
398.694	3.85
399.058	4.01
399.422	4.14
399.786	4.08
400.15	4.08
400.514	4.02
400.878	4.04
401.242	4.07
401.605	3.89
401.969	4.03
402.333	4.02
402.697	4.12
403.06	4.23
403.424	3.84
403.787	4.09
404.151	3.98
404.514	4.37
404.878	4.12
405.241	4.17
405.604	4.03
405.968	4.04
406.331	4.1
406.694	3.95
407.057	4.3
407.42	4.15
407.783	4.05
408.146	4.1
408.509	3.9
408.872	4.01
409.235	3.99
409.598	4.2
409.961	4.16
410.323	4.02
410.686	4.04
411.049	3.86
411.411	3.91
411.774	4.02
412.136	4.23
412.499	3.99
412.861	3.94
413.223	4.14
413.586	3.89
413.948	4.14
414.31	4.2
414.672	3.86
415.035	4.17
415.397	4.28
415.759	4.01
416.121	4.09
416.483	4.23
416.845	4.01
417.206	4.08
417.568	4.17
417.93	4.01
418.292	4.05
418.653	4.21
419.015	4.19
419.377	4.03
419.738	4.11
420.1	4.03
420.461	4
420.822	4.09
421.184	4.11
421.545	4.06
421.906	4.09
422.267	3.96
422.629	4.11
422.99	4.04
423.351	4
423.712	4.05
424.073	4.15
424.434	3.98
424.795	4
425.155	4
425.516	3.99
425.877	4.15
426.238	3.97
426.598	4.08
426.959	4.06
427.32	4.08
427.68	4.26
428.041	4.15
428.401	4.03
428.761	4.1
429.122	4.04
429.482	4
429.842	4.03
430.202	4.06
430.563	4.05
430.923	4.1
431.283	4.2
431.643	4.15
432.003	4.07
432.363	4.26
432.722	4.14
433.082	4.1
433.442	4.02
433.802	4.11
434.161	4.1
434.521	4.16
434.881	4.24
435.24	4.13
435.6	4.11
435.959	4.22
436.319	4.09
436.678	4.19
437.037	4.1
437.396	4.28
437.756	4.13
438.115	4.14
438.474	4.17
438.833	4.15
439.192	4.35
439.551	4.16
439.91	4.29
440.269	4.31
440.628	4
440.987	4.08
441.345	4.26
441.704	4.3
442.063	4.11
442.421	4.16
442.78	4.12
443.138	4.06
443.497	4.07
443.855	4.15
444.214	4.16
444.572	4.11
444.93	4.31
445.288	4.41
445.647	4.36
446.005	4.1
446.363	4.07
446.721	4.02
447.079	4.2
447.437	4.14
447.795	4.19
448.153	4.09
448.51	4.19
448.868	4.3
449.226	4.11
449.584	4.23
449.941	4.32
450.299	4.28
450.656	4.4
451.014	4.2
451.371	4.36
451.729	4.3
452.086	4.17
452.443	4.09
452.801	4.31
453.158	4.13
453.515	4.31
453.872	4.31
454.229	4.19
454.586	4.41
454.943	4.21
455.3	4.31
455.657	4.22
456.014	4.29
456.371	4.32
456.727	4.21
457.084	4.25
457.441	4.24
457.797	4.15
458.154	4.38
458.51	4.27
458.867	4.15
459.223	4.33
459.58	4.2
459.936	4.24
460.292	4.33
460.648	4.13
461.005	4.2
461.361	4.25
461.717	4.26
462.073	4.22
462.429	4.3
462.785	4.37
463.141	4.4
463.496	4.46
463.852	4.42
464.208	4.09
464.564	4.17
464.919	4.25
465.275	4.28
465.631	4.33
465.986	4.26
466.342	4.18
466.697	4.32
467.052	4.34
467.408	4.27
467.763	4.21
468.118	4.36
468.473	4.58
468.829	4.32
469.184	4.44
469.539	4.39
469.894	4.32
470.249	4.44
470.603	4.22
470.958	4.54
471.313	4.45
471.668	4.3
472.023	4.57
472.377	4.45
472.732	4.43
473.086	4.11
473.441	4.39
473.795	4.55
474.15	4.41
474.504	4.31
474.859	4.3
475.213	4.41
475.567	4.24
475.921	4.36
476.275	4.47
476.63	4.29
476.984	4.48
477.338	4.64
477.692	4.34
478.045	4.25
478.399	4.46
478.753	4.37
479.107	4.35
479.461	4.41
479.814	4.35
480.168	4.52
480.521	4.45
480.875	4.6
481.228	4.34
481.582	4.36
481.935	4.37
482.289	4.24
482.642	4.42
482.995	4.44
483.348	4.47
483.701	4.36
484.055	4.33
484.408	4.33
484.761	4.22
485.114	4.14
485.466	4.17
485.819	4.18
486.172	4.26
486.525	4.33
486.878	4.35
487.23	4.37
487.583	4.37
487.936	4.41
488.288	4.31
488.641	4.28
488.993	4.23
489.345	4.25
489.698	4.33
490.05	4.27
490.402	4.4
490.754	4.42
491.107	4.46
491.459	4.51
491.811	4.51
492.163	4.51
492.515	4.35
492.866	4.26
493.218	4.28
493.57	4.4
493.922	4.44
494.274	4.5
494.625	4.45
494.977	4.55
495.328	4.54
495.68	4.55
496.031	4.68
496.383	4.55
496.734	4.57
497.086	4.43
497.437	4.58
497.788	4.5
498.139	4.52
498.49	4.54
498.842	4.56
499.193	4.49
499.544	4.6
499.894	4.53
500.245	4.47
500.596	4.59
500.947	4.57
501.298	4.53
501.648	4.64
501.999	4.7
502.35	4.65
502.7	4.65
503.051	4.66
503.401	4.53
503.752	4.55
504.102	4.53
504.452	4.52
504.803	4.55
505.153	4.61
505.503	4.58
505.853	4.55
506.203	4.75
506.553	4.7
506.903	4.55
507.253	4.68
507.603	4.76
507.953	4.76
508.303	4.56
508.652	4.59
509.002	4.58
509.352	4.59
509.701	4.61
510.051	4.71
510.4	4.65
510.75	4.56
511.099	4.55
511.449	4.65
511.798	4.82
512.147	4.59
512.496	4.8
512.846	4.66
513.195	4.67
513.544	4.62
513.893	4.51
514.242	4.76
514.591	4.75
514.939	4.61
515.288	4.66
515.637	4.81
515.986	4.65
516.334	4.84
516.683	4.71
517.032	4.68
517.38	4.69
517.729	4.84
518.077	4.74
518.426	4.65
518.774	4.7
519.122	4.64
519.47	4.66
519.819	4.68
520.167	4.68
520.515	4.59
520.863	4.62
521.211	4.73
521.559	4.68
521.907	4.7
522.255	4.76
522.602	4.82
522.95	4.84
523.298	4.72
523.645	4.79
523.993	4.97
524.341	4.94
524.688	4.77
525.036	4.98
525.383	4.85
525.73	4.83
526.078	4.76
526.425	4.73
526.772	4.61
527.119	4.71
527.466	4.66
527.814	4.67
528.161	4.76
528.508	4.78
528.854	4.7
529.201	4.62
529.548	4.55
529.895	4.58
530.242	4.56
530.588	4.63
530.935	4.69
531.282	4.7
531.628	4.71
531.975	4.79
532.321	4.71
532.667	4.82
533.014	4.87
533.36	4.81
533.706	4.85
534.052	4.73
534.399	4.76
534.745	4.61
535.091	4.75
535.437	4.79
535.783	4.91
536.129	4.88
536.474	4.94
536.82	4.84
537.166	4.88
537.512	4.9
537.857	4.92
538.203	4.83
538.549	4.9
538.894	4.8
539.239	4.93
539.585	4.89
539.93	5.12
540.276	4.93
540.621	4.93
540.966	4.97
541.311	5
541.656	4.9
542.001	4.92
542.346	4.8
542.691	4.76
543.036	4.78
543.381	4.84
543.726	4.9
544.071	4.92
544.415	4.96
544.76	4.87
545.105	4.93
545.449	5
545.794	4.99
546.138	4.98
546.483	5
546.827	5.06
547.171	5.05
547.516	5.07
547.86	4.99
548.204	4.93
548.548	5.01
548.892	5.03
549.236	5
549.58	5.04
549.924	5.2
550.268	5.2
550.612	5.14
550.956	4.99
551.3	5.09
551.643	5.11
551.987	5.08
552.33	5.18
552.674	5.23
553.017	5.28
553.361	5.15
553.704	5.02
554.048	5.23
554.391	5.09
554.734	5.05
555.077	5.15
555.42	5.13
555.764	5.29
556.107	5.11
556.45	5.12
556.793	5.43
557.135	5.37
557.478	5.25
557.821	5.12
558.164	5.24
558.507	5.06
558.849	5.19
559.192	5.19
559.534	5.26
559.877	5.27
560.219	5.47
560.562	5.26
560.904	5.33
561.246	5.35
561.589	5.27
561.931	5.45
562.273	5.24
562.615	5.4
562.957	5.34
563.299	5.4
563.641	5.38
563.983	5.25
564.325	5.29
564.667	5.18
565.008	5.14
565.35	5.37
565.692	5.44
566.033	5.3
566.375	5.13
566.716	5.38
567.058	5.35
567.399	5.44
567.741	5.47
568.082	5.18
568.423	5.35
568.764	5.29
569.105	5.45
569.447	5.41
569.788	5.37
570.129	5.46
570.47	5.41
570.811	5.51
571.151	5.49
571.492	5.65
571.833	5.43
572.174	5.43
572.514	5.35
572.855	5.41
573.195	5.38
573.536	5.42
573.876	5.45
574.217	5.49
574.557	5.56
574.898	5.38
575.238	5.31
575.578	5.58
575.918	5.39
576.258	5.41
576.598	5.35
576.938	5.56
577.278	5.51
577.618	5.36
577.958	5.38
578.298	5.6
578.638	5.61
578.977	5.63
579.317	5.64
579.657	5.55
579.996	5.37
580.336	5.44
580.675	5.62
581.014	5.53
581.354	5.46
581.693	5.5
582.032	5.53
582.372	5.54
582.711	5.62
583.05	5.89
583.389	5.48
583.728	5.59
584.067	5.63
584.406	5.83
584.745	5.75
585.083	5.69
585.422	5.7
585.761	5.7
586.1	5.75
586.438	5.8
586.777	5.65
587.115	5.63
587.454	5.56
587.792	5.52
588.13	5.98
588.469	5.64
588.807	5.67
589.145	5.72
589.483	5.72
589.821	5.86
590.159	5.62
590.497	5.43
590.835	5.77
591.173	5.8
591.511	5.94
591.849	5.85
592.187	5.81
592.524	5.55
592.862	5.57
593.2	5.81
593.537	5.53
593.875	5.6
594.212	5.86
594.55	5.65
594.887	5.81
595.224	5.71
595.561	5.67
595.899	5.8
596.236	6.04
596.573	5.81
596.91	5.84
597.247	5.78
597.584	5.93
597.921	5.81
598.258	5.63
598.594	5.69
598.931	5.68
599.268	5.65
599.604	5.84
599.941	5.71
600.277	5.91
600.614	5.8
600.95	5.9
601.287	5.91
601.623	6.13
601.959	5.44
602.296	5.86
602.632	6.18
602.968	6.03
603.304	5.89
603.64	5.92
603.976	5.71
604.312	6.15
604.648	5.98
604.984	5.77
605.319	5.96
605.655	5.97
605.991	5.79
606.326	5.81
606.662	5.78
606.998	5.87
607.333	5.89
607.668	6.09
608.004	6.03
608.339	5.98
608.674	6.1
609.01	6
609.345	6.11
609.68	5.79
610.015	6.04
610.35	5.92
610.685	5.98
611.02	6.11
611.355	6.11
611.689	5.92
612.024	5.98
612.359	6.15
612.694	6.14
613.028	6.31
613.363	5.93
613.697	6.05
614.032	6.07
614.366	5.97
614.7	6.32
615.035	5.99
615.369	6.22
615.703	6.59
616.037	6
616.371	6.05
616.705	6.09
617.039	6.2
617.373	6.3
617.707	6
618.041	6.37
618.375	5.87
618.709	6.26
619.042	6.39
619.376	5.96
619.71	6.35
620.043	6.21
620.377	6.18
620.71	6.1
621.043	6.23
621.377	6.18
621.71	6.19
622.043	6.73
622.376	6.19
622.709	6.7
623.043	6.01
623.376	6.44
623.709	6.17
624.041	6.35
624.374	6.39
624.707	5.78
625.04	6.26
625.373	6.08
625.705	6.47
626.038	6.37
626.37	6.29
626.703	6.36
627.035	6.37
627.368	6.37
627.7	6.63
628.032	6.62
628.365	6.32
628.697	6.28
629.029	6.58
629.361	6.11
629.693	6.68
630.025	6.45
630.357	6.34
630.689	6.63
631.021	6.5
631.353	6.56
631.684	6.39
632.016	6.3
632.348	6.6
632.679	6.29
633.011	6.48
633.342	6.45
633.674	6.42
634.005	6.32
634.336	6.32
634.668	6.2
634.999	6.56
635.33	6.36
635.661	6.68
635.992	6.38
636.323	6.34
636.654	6.28
636.985	6.26
637.316	6.57
637.647	6.69
637.977	6.3
638.308	6.33
638.639	6.44
638.969	6.82
639.3	6.35
639.63	6.09
639.961	6.53
640.291	6.83
640.622	6.83
640.952	6.49
641.282	6.33
641.612	6.09
641.943	6.56
642.273	6.74
642.603	6.72
642.933	6.73
643.263	6.67
643.592	6.21
643.922	7.36
644.252	7.03
644.582	6.64
644.911	6.6
645.241	6.74
645.571	6.66
645.9	6.85
646.23	6.43
646.559	6.66
646.888	6.43
647.218	6.6
647.547	7.02
647.876	6.71
648.205	6.59
648.534	6.56
648.863	6.91
649.192	7.05
649.521	6.22
649.85	7.34
650.179	6.5
650.508	7.14
650.837	6.62
651.165	6.91
651.494	7
651.822	6.7
652.151	7.07
652.479	7.07
652.808	6.6
653.136	7.08
653.465	7.25
653.793	6.89
654.121	7.04
654.449	6.7
654.777	6.76
655.105	6.74
655.433	6.79
655.761	6.66
656.089	7.03
656.417	6.7
656.745	7.64
657.073	7.1
657.4	6.98
657.728	7.2
658.056	7.2
658.383	7.52
658.711	6.62
659.038	7.31
659.365	7.41
659.693	7.06
660.02	6.9
660.347	6.94
660.674	6.76
661.001	6.83
661.329	6.83
661.656	6.8
661.982	7.35
662.309	7.4
662.636	6.87
662.963	7.28
663.29	7.23
663.616	7.31
663.943	7.57
664.27	6.74
664.596	7.18
664.923	7.59
665.249	6.83
665.576	7.26
665.902	7.74
666.228	6.87
666.554	7.14
666.881	7.44
667.207	6.95
667.533	7.69
667.859	7.05
668.185	7.55
668.511	6.94
668.837	6.72
669.162	7.24
669.488	7.17
669.814	7.88
670.139	7.9
670.465	7.56
670.791	7.55
671.116	7.48
671.442	7.22
671.767	6.94
672.092	7.64
672.418	7.53
672.743	7.22
673.068	7.17
673.393	7.36
673.718	7.67
674.043	7.5
674.368	7.43
674.693	7
675.018	7.56
675.343	7.68
675.667	7.75
675.992	6.91
676.317	7.02
676.641	7.42
676.966	7.36
677.29	7.57
677.615	7.05
677.939	7.32
678.264	7
678.588	7.94
678.912	7.59
679.236	7.81
679.56	7.26
679.885	7.52
680.209	7.23
680.532	7.38
680.856	7.48
681.18	7.45
681.504	7.61
681.828	7.18
682.152	7.5
682.475	7.92
682.799	7.75
683.122	7.39
683.446	7.48
683.769	8.16
684.093	8.23
684.416	7.33
684.739	7.53
685.062	7.61
685.386	7.55
685.709	7.58
686.032	7.48
686.355	7.59
686.678	7.3
687.001	6.65
687.324	7.18
687.646	7.26
687.969	7.26
688.292	7.87
688.614	7.95
688.937	7.86
689.26	7.18
689.582	7.55
689.904	8.44
690.227	7.49
690.549	7.92
690.871	7.53
691.194	7.78
691.516	7.65
691.838	7.43
692.16	7.31
692.482	8.39
692.804	7.48
693.126	7.3
693.448	7.63
693.769	8.24
