Data from 0056_forehead_Reflection__3__106.txt Node

Date: Fri Dec 16 14:47:10 CST 2022
User: ToomeyLab
Spectrometer: FLMS14357
Trigger mode: 0
Integration Time (sec): 1.000000E-2
Scans to average: 100
Electric dark correction enabled: true
Nonlinearity correction enabled: false
Boxcar width: 0
XAxis mode: Wavelengths
Number of Pixels in Spectrum: 2048
>>>>>Begin Spectral Data<<<<<
189.047	45.78
189.435	45.78
189.823	45.78
190.211	82.63
190.599	-209.66
190.987	-232.3
191.375	-187.74
191.763	128.32
192.151	-518.1
192.538	-330.99
192.926	50.19
193.314	70.49
193.702	345.17
194.089	48.19
194.477	-691.7
194.864	43.6
195.252	-51.81
195.639	90.84
196.027	61.2
196.414	73.97
196.801	-51.79
197.189	112.16
197.576	1326.17
197.963	66.82
198.351	4.69
198.738	-26.61
199.125	46.96
199.512	24.69
199.899	32.41
200.286	-50.38
200.673	51.07
201.06	35.36
201.447	59.51
201.833	23.54
202.22	47.92
202.607	-60.68
202.994	-17.66
203.38	-17.22
203.767	15.39
204.154	-43.74
204.54	38.62
204.927	18.43
205.313	70.41
205.699	-9.15
206.086	2.51
206.472	2.29
206.858	19.28
207.245	44.55
207.631	16.32
208.017	26.58
208.403	35.6
208.789	26.81
209.175	39.6
209.561	22.08
209.947	19.99
210.333	30.08
210.719	15.18
211.105	13.09
211.491	29.61
211.876	-9.61
212.262	-22.45
212.648	-10.07
213.034	3.66
213.419	38.82
213.805	0.31
214.19	46.76
214.576	-17.76
214.961	8.87
215.346	-13.43
215.732	-2.98
216.117	-7.41
216.502	8.68
216.888	-22.24
217.273	36.26
217.658	-22.12
218.043	16.36
218.428	0.45
218.813	6.32
219.198	-8.36
219.583	2.69
219.968	17.33
220.353	25.31
220.738	-0.31
221.122	-3.14
221.507	-2.71
221.892	-8
222.276	12.83
222.661	14.19
223.046	6.33
223.43	1.77
223.815	11.89
224.199	12.86
224.583	7.13
224.968	9.83
225.352	5.96
225.736	10.71
226.121	-5.22
226.505	10.94
226.889	8.52
227.273	5.74
227.657	-0.34
228.041	8.72
228.425	1.52
228.809	3.17
229.193	1.65
229.577	3.05
229.961	2.25
230.344	3.26
230.728	2.12
231.112	2.05
231.495	2.87
231.879	0.97
232.263	1.56
232.646	2.78
233.03	0.51
233.413	1.43
233.797	5.2
234.18	-0.55
234.563	1.43
234.946	2.65
235.33	2.66
235.713	3.47
236.096	2.14
236.479	4.15
236.862	3.95
237.245	2.97
237.628	3.73
238.011	5.15
238.394	6.29
238.777	3.82
239.16	0.91
239.543	2.38
239.925	3.5
240.308	3.76
240.691	2.02
241.073	3.7
241.456	3.24
241.838	2.51
242.221	2.71
242.603	2.36
242.986	3.22
243.368	2.74
243.75	2.18
244.133	2.79
244.515	3.11
244.897	2.92
245.279	2.83
245.661	2.63
246.043	3.79
246.425	2.61
246.807	3.14
247.189	3.22
247.571	2.75
247.953	2.41
248.335	2.94
248.717	2.77
249.098	2.84
249.48	2.4
249.862	2.84
250.243	2.98
250.625	3.07
251.006	3.61
251.388	3.67
251.769	3.25
252.151	3.23
252.532	3
252.913	3.11
253.295	2.68
253.676	3.31
254.057	2.48
254.438	2.82
254.819	3.14
255.2	3.07
255.581	3.02
255.962	3.21
256.343	3.5
256.724	2.73
257.105	3.42
257.486	3.71
257.867	2.09
258.247	2.42
258.628	3.19
259.009	2.33
259.389	3.29
259.77	2.93
260.15	3.09
260.531	2.85
260.911	2.77
261.292	2.57
261.672	2.68
262.052	2.65
262.432	2.35
262.813	3.01
263.193	2.51
263.573	2.97
263.953	2.96
264.333	3.27
264.713	3.21
265.093	2.21
265.473	3.31
265.853	2.67
266.233	2.21
266.612	2.98
266.992	2.24
267.372	3.55
267.752	2.54
268.131	2.45
268.511	3.22
268.89	3.23
269.27	2.78
269.649	2.97
270.029	2.65
270.408	1.83
270.787	2.77
271.167	3.4
271.546	1.94
271.925	3.16
272.304	3.67
272.683	2.54
273.062	2.88
273.441	2.56
273.82	2.81
274.199	2.39
274.578	2.46
274.957	2.78
275.336	2.49
275.715	2.64
276.093	3.61
276.472	3.2
276.851	3.45
277.229	3.5
277.608	2.64
277.986	3.28
278.365	2.63
278.743	3.36
279.122	2.36
279.5	1.98
279.878	1.98
280.257	2.95
280.635	2.28
281.013	3.17
281.391	2.49
281.769	2.43
282.147	3.25
282.525	2.32
282.903	2.63
283.281	2.25
283.659	2.68
284.037	2.28
284.415	2.68
284.792	2.65
285.17	2.33
285.548	2.77
285.925	2.58
286.303	2.6
286.68	2.98
287.058	2.62
287.435	2.41
287.813	2.78
288.19	3.45
288.567	2.57
288.945	2.61
289.322	2.42
289.699	2.71
290.076	3.2
290.453	2.94
290.83	3.25
291.207	2.95
291.584	2.75
291.961	3.12
292.338	3.27
292.715	3.07
293.092	2.98
293.469	3.24
293.845	3.57
294.222	2.92
294.599	3.47
294.975	3.45
295.352	2.98
295.728	3.05
296.105	3.44
296.481	3.63
296.858	3.41
297.234	3.79
297.61	3.17
297.986	3.28
298.363	3.05
298.739	3.68
299.115	2.97
299.491	3.63
299.867	3.65
300.243	3.35
300.619	3.17
300.995	3.75
301.371	4.05
301.746	3.56
302.122	3.77
302.498	4.05
302.874	3.94
303.249	3.8
303.625	3.92
304	3.48
304.376	3.83
304.751	3.79
305.127	4.07
305.502	4.79
305.878	3.83
306.253	3.88
306.628	4.54
307.003	4.18
307.378	3.83
307.754	4.32
308.129	4.33
308.504	4.37
308.879	4.26
309.254	4.43
309.629	3.95
310.003	4.48
310.378	4.72
310.753	4.93
311.128	4.28
311.502	4.4
311.877	4.61
312.252	4.46
312.626	3.95
313.001	4.52
313.375	4.59
313.75	4.6
314.124	5.49
314.498	4.27
314.873	4.72
315.247	4.65
315.621	5.31
315.995	5.11
316.369	4.65
316.743	5.39
317.117	4.92
317.491	4.96
317.865	5.2
318.239	5.53
318.613	5.22
318.987	5.34
319.361	5.56
319.734	5.56
320.108	5.64
320.482	5.34
320.855	5.21
321.229	5.97
321.602	5.53
321.976	5.62
322.349	4.92
322.723	4.77
323.096	5.18
323.469	5.15
323.843	5.08
324.216	5.51
324.589	6.05
324.962	5.52
325.335	5.84
325.708	5.89
326.081	5.94
326.454	6.01
326.827	6.29
327.2	6.03
327.573	6.02
327.945	5.62
328.318	5.7
328.691	5.78
329.063	5.76
329.436	6
329.809	5.26
330.181	6.15
330.553	6.3
330.926	5.98
331.298	5.32
331.671	6.09
332.043	5.66
332.415	6.7
332.787	6.82
333.159	6.48
333.532	6.19
333.904	6.42
334.276	6.45
334.648	6.39
335.02	6.46
335.391	6.46
335.763	6.8
336.135	6.37
336.507	6.62
336.879	6.7
337.25	6.62
337.622	6.37
337.993	6.77
338.365	6.52
338.736	7.05
339.108	6.61
339.479	6.5
339.851	7.16
340.222	7.29
340.593	6.4
340.964	6.85
341.336	6.57
341.707	6.7
342.078	6.65
342.449	7.2
342.82	7.18
343.191	6.77
343.562	7.22
343.933	6.86
344.303	7.17
344.674	7.28
345.045	7.57
345.416	7.12
345.786	6.81
346.157	7.39
346.527	7.31
346.898	7
347.268	7.2
347.639	7.1
348.009	7.67
348.38	7.22
348.75	7.49
349.12	7.51
349.49	7.32
349.861	8.1
350.231	7.88
350.601	7.86
350.971	7.59
351.341	7.77
351.711	7.22
352.081	7.79
352.45	7.75
352.82	7.71
353.19	7.65
353.56	7.74
353.929	7.57
354.299	7.81
354.669	8.04
355.038	7.67
355.408	8.17
355.777	7.87
356.147	8.14
356.516	8.3
356.885	7.98
357.254	7.89
357.624	8.16
357.993	7.93
358.362	8.18
358.731	8.4
359.1	8.58
359.469	8.06
359.838	7.94
360.207	8.18
360.576	8.53
360.945	8.57
361.314	8.39
361.682	8.12
362.051	8.56
362.42	8.48
362.788	8.7
363.157	8.16
363.525	8.57
363.894	8.23
364.262	8.71
364.631	9.37
364.999	8.42
365.367	9
365.735	8.45
366.104	8.79
366.472	9.06
366.84	8.99
367.208	8.75
367.576	8.94
367.944	9.32
368.312	8.33
368.68	9.2
369.048	9.13
369.416	9.19
369.783	9.06
370.151	9.22
370.519	9.26
370.886	9.29
371.254	9.56
371.621	9.33
371.989	9.32
372.356	9.32
372.724	9.57
373.091	9.31
373.458	9.69
373.826	9.22
374.193	9.9
374.56	9.25
374.927	9.66
375.294	9.87
375.661	9.9
376.028	9.61
376.395	9.7
376.762	10.1
377.129	9.86
377.496	9.84
377.863	10.01
378.229	9.66
378.596	9.78
378.963	10.04
379.329	9.69
379.696	9.87
380.062	10.21
380.429	10.19
380.795	9.95
381.161	10.19
381.528	9.88
381.894	10.33
382.26	9.84
382.626	10.12
382.993	10.13
383.359	10.19
383.725	10.44
384.091	10.46
384.457	10.54
384.823	10.36
385.188	10.45
385.554	10.57
385.92	10.64
386.286	10.47
386.651	10.51
387.017	10.8
387.383	10.87
387.748	10.47
388.114	10.53
388.479	10.86
388.845	10.71
389.21	11.01
389.575	10.76
389.94	10.82
390.306	11
390.671	10.91
391.036	11.08
391.401	11.23
391.766	10.95
392.131	11.05
392.496	11.01
392.861	10.87
393.226	11.25
393.591	11.17
393.956	11.18
394.32	10.95
394.685	11.48
395.05	11.14
395.414	11.41
395.779	11.18
396.143	11.16
396.508	11.21
396.872	11.33
397.236	11.05
397.601	11.43
397.965	11.49
398.329	11.42
398.694	11.61
399.058	11.55
399.422	11.62
399.786	11.69
400.15	11.56
400.514	11.64
400.878	11.73
401.242	11.68
401.605	11.59
401.969	11.7
402.333	11.79
402.697	11.95
403.06	12.19
403.424	11.82
403.787	11.96
404.151	11.96
404.514	12.03
404.878	11.75
405.241	11.86
405.604	12.04
405.968	11.9
406.331	11.98
406.694	12.11
407.057	12.34
407.42	12.16
407.783	12.05
408.146	12.17
408.509	11.97
408.872	12.2
409.235	12.5
409.598	12.37
409.961	12.47
410.323	12.58
410.686	12.32
411.049	12.2
411.411	12.46
411.774	12.43
412.136	12.63
412.499	12.58
412.861	12.37
413.223	12.8
413.586	12.56
413.948	12.79
414.31	12.71
414.672	12.92
415.035	12.65
415.397	13.03
415.759	12.79
416.121	12.89
416.483	12.66
416.845	12.8
417.206	13.01
417.568	12.95
417.93	12.99
418.292	12.83
418.653	13.18
419.015	12.9
419.377	12.94
419.738	12.88
420.1	12.89
420.461	12.81
420.822	12.86
421.184	12.96
421.545	12.92
421.906	12.98
422.267	12.86
422.629	12.96
422.99	12.93
423.351	13.03
423.712	13.09
424.073	13.16
424.434	13.21
424.795	13.01
425.155	13.16
425.516	13.19
425.877	13.2
426.238	13.17
426.598	13.3
426.959	13.33
427.32	13.56
427.68	13.63
428.041	13.68
428.401	13.71
428.761	13.73
429.122	13.81
429.482	13.72
429.842	14.01
430.202	13.78
430.563	14.11
430.923	14.25
431.283	14.13
431.643	14.15
432.003	14.02
432.363	14.15
432.722	14.13
433.082	14.2
433.442	14.19
433.802	14.22
434.161	14.22
434.521	14.31
434.881	14.25
435.24	14.14
435.6	14.38
435.959	14.44
436.319	14.44
436.678	14.47
437.037	14.39
437.396	14.63
437.756	14.58
438.115	14.71
438.474	14.71
438.833	14.73
439.192	14.74
439.551	14.78
439.91	14.89
440.269	14.65
440.628	14.79
440.987	14.56
441.345	14.65
441.704	14.86
442.063	14.72
442.421	14.8
442.78	14.81
443.138	14.88
443.497	14.71
443.855	15.07
444.214	15.09
444.572	15.11
444.93	15.19
445.288	15.19
445.647	15.3
446.005	15.08
446.363	15.16
446.721	15.13
447.079	15.13
447.437	15.07
447.795	15.13
448.153	15.14
448.51	15.19
448.868	15.3
449.226	15.37
449.584	15.42
449.941	15.53
450.299	15.6
450.656	15.52
451.014	15.47
451.371	15.85
451.729	15.92
452.086	15.81
452.443	15.97
452.801	15.88
453.158	15.87
453.515	15.99
453.872	15.88
454.229	15.94
454.586	16.08
454.943	16.05
455.3	16.27
455.657	16.18
456.014	16.27
456.371	16.45
456.727	16.18
457.084	16.23
457.441	16.24
457.797	16.4
458.154	16.41
458.51	16.53
458.867	16.5
459.223	16.42
459.58	16.58
459.936	16.33
460.292	16.48
460.648	16.22
461.005	16.33
461.361	16.21
461.717	16.36
462.073	16.64
462.429	16.66
462.785	16.8
463.141	16.87
463.496	16.96
463.852	17.17
464.208	17
464.564	16.89
464.919	17.07
465.275	17.06
465.631	17.27
465.986	17.04
466.342	17.14
466.697	17.33
467.052	17.27
467.408	17.22
467.763	17.15
468.118	17.51
468.473	17.38
468.829	17.53
469.184	17.55
469.539	17.37
469.894	17.66
470.249	17.65
470.603	17.78
470.958	17.74
471.313	17.78
471.668	17.71
472.023	17.9
472.377	17.92
472.732	17.86
473.086	17.95
473.441	17.95
473.795	18.02
474.15	17.85
474.504	18.15
474.859	18.09
475.213	18.01
475.567	17.99
475.921	18.09
476.275	18.12
476.63	18.25
476.984	18.22
477.338	18.49
477.692	18.32
478.045	18.23
478.399	18.19
478.753	18.18
479.107	18.51
479.461	18.46
479.814	18.44
480.168	18.46
480.521	18.69
480.875	18.64
481.228	18.5
481.582	18.51
481.935	18.58
482.289	18.44
482.642	18.67
482.995	18.48
483.348	18.4
483.701	18.36
484.055	18.35
484.408	18.16
484.761	17.75
485.114	17.73
485.466	17.76
485.819	17.9
486.172	18.04
486.525	18.23
486.878	18.3
487.23	18.54
487.583	18.64
487.936	18.64
488.288	18.35
488.641	18.36
488.993	18.18
489.345	18.27
489.698	18.44
490.05	18.51
490.402	18.77
490.754	19
491.107	19.12
491.459	19.14
491.811	19.25
492.163	19.19
492.515	19.03
492.866	18.7
493.218	18.67
493.57	18.9
493.922	18.98
494.274	19.28
494.625	19.43
494.977	19.62
495.328	19.87
495.68	19.99
496.031	20
496.383	20.05
496.734	20.07
497.086	20.03
497.437	19.94
497.788	20.09
498.139	19.98
498.49	19.91
498.842	20.01
499.193	20.03
499.544	20.24
499.894	20.08
500.245	20.17
500.596	20.27
500.947	20.31
501.298	20.36
501.648	20.43
501.999	20.7
502.35	20.53
502.7	20.67
503.051	20.66
503.401	20.68
503.752	20.73
504.102	20.84
504.452	20.83
504.803	20.75
505.153	20.97
505.503	20.76
505.853	20.77
506.203	20.87
506.553	21.14
506.903	20.99
507.253	21.02
507.603	21.11
507.953	21.17
508.303	21.11
508.652	21.2
509.002	21.19
509.352	21.09
509.701	21.08
510.051	21.35
510.4	21.13
510.75	21.28
511.099	21.12
511.449	21.27
511.798	21.46
512.147	21.37
512.496	21.47
512.846	21.37
513.195	21.54
513.544	21.34
513.893	21.42
514.242	21.67
514.591	21.69
514.939	21.62
515.288	21.75
515.637	21.99
515.986	21.85
516.334	21.88
516.683	21.88
517.032	21.94
517.38	22.05
517.729	22.19
518.077	22.06
518.426	21.95
518.774	22.03
519.122	21.93
519.47	21.78
519.819	21.76
520.167	21.86
520.515	21.8
520.863	21.86
521.211	22.08
521.559	22.03
521.907	22.18
522.255	22.46
522.602	22.46
522.95	22.55
523.298	22.46
523.645	22.57
523.993	22.77
524.341	22.88
524.688	22.74
525.036	22.96
525.383	22.7
525.73	22.81
526.078	22.75
526.425	22.58
526.772	22.41
527.119	22.37
527.466	22.43
527.814	22.49
528.161	22.63
528.508	22.63
528.854	22.55
529.201	22.47
529.548	22.18
529.895	22.04
530.242	22.13
530.588	22.22
530.935	22.38
531.282	22.5
531.628	22.53
531.975	22.92
532.321	22.91
532.667	22.96
533.014	23.13
533.36	23.23
533.706	23.11
534.052	23.09
534.399	22.87
534.745	22.75
535.091	22.81
535.437	23.01
535.783	23.23
536.129	23.35
536.474	23.42
536.82	23.67
537.166	23.59
537.512	23.6
537.857	23.52
538.203	23.47
538.549	23.62
538.894	23.68
539.239	23.81
539.585	23.95
539.93	24.08
540.276	24.07
540.621	24.27
540.966	24.26
541.311	24.31
541.656	24.07
542.001	24.09
542.346	23.64
542.691	23.46
543.036	23.47
543.381	23.73
543.726	23.87
544.071	23.87
544.415	23.95
544.76	24.03
545.105	24.22
545.449	24.29
545.794	24.49
546.138	24.63
546.483	24.69
546.827	24.73
547.171	24.62
547.516	24.8
547.86	24.77
548.204	24.63
548.548	24.79
548.892	24.71
549.236	25
549.58	25.04
549.924	25.29
550.268	25.17
550.612	25.36
550.956	25.37
551.3	25.54
551.643	25.71
551.987	25.67
552.33	25.59
552.674	25.67
553.017	25.86
553.361	25.56
553.704	25.62
554.048	25.63
554.391	25.73
554.734	25.54
555.077	25.84
555.42	25.85
555.764	26
556.107	26.09
556.45	25.91
556.793	26.18
557.135	26.24
557.478	26.13
557.821	26.18
558.164	26.38
558.507	26.2
558.849	26.37
559.192	26.51
559.534	26.21
559.877	26.44
560.219	26.75
560.562	26.58
560.904	26.52
561.246	26.72
561.589	26.69
561.931	26.81
562.273	26.72
562.615	26.69
562.957	26.81
563.299	26.62
563.641	26.83
563.983	26.66
564.325	26.67
564.667	26.9
565.008	26.96
565.35	27.25
565.692	27.28
566.033	27.06
566.375	27.09
566.716	27.22
567.058	26.94
567.399	27.11
567.741	27.07
568.082	26.95
568.423	27.03
568.764	27.14
569.105	27.24
569.447	27.16
569.788	27.21
570.129	27.44
570.47	27.68
570.811	27.65
571.151	27.54
571.492	27.4
571.833	27.69
572.174	27.46
572.514	27.6
572.855	27.58
573.195	27.57
573.536	27.38
573.876	27.57
574.217	27.67
574.557	27.63
574.898	27.67
575.238	27.65
575.578	27.94
575.918	27.91
576.258	27.68
576.598	27.76
576.938	28.1
577.278	27.99
577.618	27.83
577.958	28.13
578.298	28.01
578.638	28.09
578.977	28.41
579.317	28.35
579.657	28.73
579.996	28.55
580.336	28.54
580.675	28.82
581.014	28.58
581.354	28.71
581.693	28.47
582.032	28.86
582.372	28.85
582.711	28.79
583.05	28.74
583.389	28.97
583.728	29
584.067	29
584.406	29.3
584.745	29.25
585.083	29.16
585.422	28.86
585.761	29.44
586.1	29.2
586.438	29.17
586.777	29.16
587.115	29.48
587.454	29.54
587.792	29.29
588.13	29.55
588.469	29.66
588.807	29.82
589.145	29.68
589.483	29.52
589.821	29.66
590.159	29.54
590.497	29.08
590.835	29.85
591.173	29.64
591.511	29.82
591.849	29.75
592.187	29.94
592.524	29.57
592.862	29.8
593.2	29.86
593.537	29.76
593.875	30.01
594.212	30.1
594.55	30.19
594.887	29.74
595.224	29.81
595.561	30.39
595.899	30.12
596.236	30.32
596.573	29.81
596.91	30.12
597.247	30.11
597.584	30.26
597.921	30.07
598.258	29.85
598.594	29.84
598.931	30.04
599.268	30.13
599.604	30.24
599.941	30.19
600.277	30.47
600.614	30.58
600.95	30.6
601.287	30.61
601.623	30.79
601.959	30.67
602.296	30.69
602.632	30.92
602.968	30.52
603.304	30.61
603.64	30.71
603.976	30.91
604.312	31.08
604.648	30.68
604.984	30.54
605.319	30.64
605.655	30.88
605.991	30.71
606.326	30.75
606.662	30.58
606.998	30.8
607.333	30.98
607.668	30.97
608.004	31.07
608.339	30.98
608.674	31.35
609.01	31.42
609.345	31.69
609.68	31.11
610.015	31.41
610.35	31.57
610.685	31.18
611.02	31.41
611.355	31.23
611.689	31.1
612.024	31.29
612.359	31.28
612.694	31.74
613.028	31.62
613.363	31.4
613.697	31.86
614.032	31.74
614.366	31.38
614.7	31.92
615.035	31.85
615.369	31.94
615.703	32.4
616.037	31.91
616.371	31.96
616.705	31.76
617.039	32.04
617.373	32.06
617.707	32.34
618.041	32.33
618.375	31.83
618.709	32.26
619.042	32.3
619.376	31.97
619.71	32.42
620.043	32.48
620.377	32.41
620.71	32.23
621.043	32.13
621.377	32.14
621.71	32.47
622.043	32.69
622.376	32.83
622.709	32.98
623.043	32.6
623.376	32.53
623.709	32.87
624.041	33.04
624.374	32.67
624.707	32.75
625.04	32.54
625.373	32.92
625.705	32.92
626.038	32.79
626.37	32.74
626.703	32.81
627.035	32.88
627.368	33.11
627.7	32.87
628.032	32.38
628.365	32.64
628.697	32.84
629.029	33.14
629.361	33.03
629.693	33.3
630.025	32.67
630.357	33.09
630.689	33.78
631.021	33.22
631.353	33.2
631.684	33.37
632.016	32.95
632.348	33.62
632.679	33.15
633.011	33.6
633.342	33.19
633.674	33.36
634.005	33.72
634.336	33.37
634.668	33.49
634.999	33.5
635.33	33.29
635.661	33.73
635.992	33.35
636.323	33.38
636.654	33.45
636.985	33.88
637.316	34.23
637.647	33.93
637.977	34
638.308	33.43
638.639	33.86
638.969	34.29
639.3	34.43
639.63	33.89
639.961	34.09
640.291	34.56
640.622	34.01
640.952	34.41
641.282	33.61
641.612	33.83
641.943	34.24
642.273	34.33
642.603	34.16
642.933	34.12
643.263	34.28
643.592	34.41
643.922	35.32
644.252	34.65
644.582	34.28
644.911	34.17
645.241	34.29
645.571	34.42
645.9	34.45
646.23	34.66
646.559	34.89
646.888	34.35
647.218	34.52
647.547	34.45
647.876	34.79
648.205	34.28
648.534	34.62
648.863	34.75
649.192	34.45
649.521	34.38
649.85	34.78
650.179	34.45
650.508	35.26
650.837	34.64
651.165	34.76
651.494	34.98
651.822	35
652.151	35.08
652.479	35.62
652.808	34.88
653.136	35.12
653.465	35.07
653.793	35.22
654.121	35.11
654.449	35.13
654.777	35.28
655.105	35.29
655.433	35.17
655.761	34.91
656.089	35.61
656.417	35.5
656.745	35.51
657.073	35.39
657.4	35.56
657.728	35.47
658.056	34.96
658.383	35.72
658.711	35.23
659.038	35.57
659.365	35.49
659.693	35.8
660.02	35.66
660.347	35.55
660.674	35.66
661.001	35.27
661.329	35.58
661.656	35.34
661.982	35.59
662.309	35.72
662.636	35.95
662.963	35.89
663.29	35.89
663.616	35.25
663.943	36.83
664.27	35.67
664.596	35.48
664.923	36.33
665.249	36.2
665.576	36.27
665.902	35.69
666.228	35.88
666.554	36.32
666.881	36.41
667.207	36.17
667.533	36.2
667.859	36.76
668.185	36.18
668.511	36.27
668.837	35.87
669.162	36.21
669.488	36.53
669.814	36.67
670.139	36.85
670.465	35.73
670.791	36.57
671.116	36.17
671.442	36.32
671.767	36.58
672.092	36.74
672.418	36.42
