Data from 0056_chest_Reflection__2__95.txt Node

Date: Fri Dec 16 14:44:19 CST 2022
User: ToomeyLab
Spectrometer: FLMS14357
Trigger mode: 0
Integration Time (sec): 1.000000E-2
Scans to average: 100
Electric dark correction enabled: true
Nonlinearity correction enabled: false
Boxcar width: 0
XAxis mode: Wavelengths
Number of Pixels in Spectrum: 2048
>>>>>Begin Spectral Data<<<<<
189.047	1.32
189.435	1.32
189.823	1.32
190.211	207.01
190.599	479.2
190.987	119.19
191.375	36.96
191.763	95.2
192.151	-176.35
192.538	-18.17
192.926	-45.56
193.314	126.94
193.702	62.84
194.089	-55.85
194.477	1.53
194.864	52.11
195.252	25.66
195.639	133.88
196.027	-80.7
196.414	82.36
196.801	-37.99
197.189	92.95
197.576	292.28
197.963	0.26
198.351	-6.24
198.738	-11.95
199.125	22.83
199.512	-16.53
199.899	-19.94
200.286	1.47
200.673	45.12
201.06	8.79
201.447	27.71
201.833	-38.44
202.22	18.25
202.607	42.67
202.994	0.73
203.38	-29.86
203.767	4.45
204.154	-58.38
204.54	35.32
204.927	24.7
205.313	15.97
205.699	4.34
206.086	0.24
206.472	-21.66
206.858	22.39
207.245	32.05
207.631	9.47
208.017	34.75
208.403	43.37
208.789	4.41
209.175	42.6
209.561	9.31
209.947	38.01
210.333	-30.37
210.719	-11.77
211.105	-35.47
211.491	-1.9
211.876	-13.64
212.262	-30.21
212.648	-53.76
213.034	-4.87
213.419	5.03
213.805	-7.72
214.19	-18.31
214.576	-62.64
214.961	-19.66
215.346	-39.23
215.732	-14.76
216.117	22.8
216.502	2.01
216.888	-17.66
217.273	21.33
217.658	-1.79
218.043	-0.15
218.428	22.73
218.813	-1.42
219.198	-16.79
219.583	20.39
219.968	-0.4
220.353	16.85
220.738	3.25
221.122	-21.65
221.507	1.19
221.892	-10.43
222.276	10.77
222.661	-3.85
223.046	-3.86
223.43	-22.3
223.815	3.91
224.199	-11.85
224.583	-2.8
224.968	1.79
225.352	-9.81
225.736	7.55
226.121	-6.84
226.505	-1.39
226.889	7.09
227.273	3.42
227.657	-0.06
228.041	5.21
228.425	3.71
228.809	0.78
229.193	-0.18
229.577	2.01
229.961	2.56
230.344	1.69
230.728	2.1
231.112	1.75
231.495	1.46
231.879	2
232.263	0.5
232.646	-1.87
233.03	-0.14
233.413	0.63
233.797	4.16
234.18	0.42
234.563	4.07
234.946	0.26
235.33	3.35
235.713	2.46
236.096	1.48
236.479	2.15
236.862	3.2
237.245	3.22
237.628	2.38
238.011	1.91
238.394	3.5
238.777	2.25
239.16	1.3
239.543	1.28
239.925	3.07
240.308	2.77
240.691	2.76
241.073	2.12
241.456	1.55
241.838	2.84
242.221	2.53
242.603	2.03
242.986	3.27
243.368	2.65
243.75	1.86
244.133	2.07
244.515	2.29
244.897	2.69
245.279	2.15
245.661	2.88
246.043	3.63
246.425	1.6
246.807	2.31
247.189	2.17
247.571	2.55
247.953	2.03
248.335	2.51
248.717	2.62
249.098	2.53
249.48	2.17
249.862	2.78
250.243	2.07
250.625	2.26
251.006	2.43
251.388	1.45
251.769	2.92
252.151	3.2
252.532	2.1
252.913	3.02
253.295	2.5
253.676	2.76
254.057	2.51
254.438	2.16
254.819	2.63
255.2	2.77
255.581	0.83
255.962	1.85
256.343	2.24
256.724	1.6
257.105	2.07
257.486	3
257.867	0.12
258.247	2.09
258.628	2.36
259.009	2.45
259.389	2.98
259.77	2.06
260.15	2.85
260.531	2.24
260.911	2.37
261.292	2.26
261.672	2.09
262.052	2.36
262.432	2.36
262.813	1.96
263.193	0.96
263.573	2.07
263.953	2.53
264.333	2.25
264.713	1.91
265.093	2.13
265.473	3.05
265.853	1.71
266.233	1.79
266.612	2.02
266.992	1.7
267.372	2.38
267.752	2.08
268.131	2.19
268.511	2.61
268.89	2.96
269.27	2.64
269.649	2.57
270.029	2.56
270.408	2.23
270.787	1.75
271.167	2.25
271.546	1.9
271.925	2.27
272.304	2.81
272.683	1.84
273.062	2.26
273.441	2.43
273.82	2.66
274.199	2.09
274.578	1.97
274.957	2.76
275.336	2.18
275.715	2.36
276.093	2.75
276.472	2.23
276.851	2.21
277.229	2.48
277.608	2.24
277.986	2.27
278.365	2.02
278.743	2.8
279.122	2.08
279.5	2.06
279.878	1.81
280.257	2.35
280.635	2.54
281.013	2.66
281.391	2.13
281.769	1.73
282.147	2.53
282.525	2.04
282.903	2.52
283.281	1.97
283.659	2.55
284.037	2.16
284.415	2.39
284.792	2.56
285.17	1.8
285.548	1.82
285.925	2.39
286.303	2.04
286.68	2.54
287.058	2.12
287.435	2.06
287.813	2.39
288.19	2.46
288.567	1.63
288.945	2.65
289.322	2.61
289.699	2.25
290.076	3.19
290.453	2.11
290.83	2.6
291.207	2.23
291.584	2.11
291.961	2.51
292.338	2.12
292.715	2.26
293.092	2.7
293.469	2.54
293.845	2.77
294.222	2.73
294.599	2.71
294.975	2.42
295.352	2.39
295.728	2.81
296.105	2.74
296.481	3.27
296.858	2.92
297.234	2.28
297.61	2.44
297.986	2.54
298.363	2.2
298.739	2.86
299.115	2.37
299.491	2.51
299.867	2.78
300.243	2.63
300.619	2.33
300.995	2.51
301.371	2.67
301.746	2.62
302.122	2.72
302.498	3.07
302.874	2.86
303.249	2.92
303.625	2.73
304	2.91
304.376	2.51
304.751	2.56
305.127	2.23
305.502	2.82
305.878	2.86
306.253	2.47
306.628	3.07
307.003	2.98
307.378	2.63
307.754	2.78
308.129	2.33
308.504	2.45
308.879	2.85
309.254	2.98
309.629	2.43
310.003	3.15
310.378	3.06
310.753	2.6
311.128	2.84
311.502	2.78
311.877	3.03
312.252	2.62
312.626	2.95
313.001	2.79
313.375	2.97
313.75	3.08
314.124	3.75
314.498	2.91
314.873	3.11
315.247	2.37
315.621	2.77
315.995	2.73
316.369	3.1
316.743	3.24
317.117	2.97
317.491	3.24
317.865	2.53
318.239	3
318.613	3.06
318.987	2.63
319.361	3.09
319.734	3.85
320.108	3.25
320.482	3.03
320.855	3.66
321.229	3.31
321.602	3.06
321.976	3.07
322.349	2.68
322.723	2.71
323.096	2.84
323.469	2.92
323.843	3.69
324.216	2.71
324.589	3.41
324.962	2.92
325.335	2.89
325.708	3.23
326.081	3.39
326.454	3.38
326.827	3.16
327.2	3.74
327.573	3.6
327.945	3.27
328.318	3.87
328.691	3.44
329.063	3.1
329.436	3.35
329.809	3.75
330.181	3.27
330.553	3.36
330.926	3.38
331.298	2.69
331.671	3.38
332.043	3.24
332.415	4.02
332.787	3.21
333.159	3.22
333.532	2.94
333.904	3.25
334.276	3.98
334.648	3.6
335.02	3.15
335.391	3.59
335.763	3.42
336.135	3.24
336.507	3.57
336.879	2.89
337.25	3.4
337.622	3.7
337.993	3.73
338.365	3.8
338.736	3.63
339.108	2.97
339.479	3.18
339.851	3.65
340.222	3.6
340.593	3.34
340.964	3.42
341.336	3.08
341.707	3.51
342.078	2.87
342.449	3.88
342.82	3.57
343.191	2.98
343.562	3.32
343.933	3.3
344.303	3.53
344.674	3.53
345.045	3.74
345.416	3.22
345.786	3.16
346.157	3.01
346.527	3.24
346.898	3.31
347.268	3.23
347.639	3.29
348.009	3.65
348.38	3.51
348.75	3.61
349.12	3.34
349.49	3.47
349.861	3.6
350.231	3.62
350.601	3.5
350.971	3.51
351.341	3.88
351.711	3.04
352.081	4.01
352.45	3.88
352.82	3.75
353.19	3.29
353.56	3.65
353.929	3.9
354.299	3.35
354.669	3.79
355.038	3.58
355.408	3.83
355.777	3.43
356.147	3.75
356.516	4.03
356.885	3.64
357.254	3.64
357.624	3.67
357.993	3.35
358.362	3.67
358.731	3.52
359.1	3.61
359.469	3.64
359.838	3.39
360.207	3.21
360.576	3.68
360.945	3.54
361.314	3.79
361.682	3.42
362.051	3.53
362.42	3.89
362.788	3.6
363.157	3.47
363.525	3.7
363.894	3.36
364.262	3.69
364.631	4.25
364.999	3.44
365.367	3.64
365.735	3.14
366.104	3.34
366.472	3.6
366.84	3.83
367.208	3.48
367.576	3.59
367.944	3.96
368.312	3.44
368.68	3.74
369.048	3.99
369.416	4.03
369.783	3.76
370.151	3.95
370.519	3.61
370.886	3.75
371.254	3.63
371.621	3.72
371.989	3.79
372.356	3.76
372.724	3.75
373.091	3.69
373.458	3.8
373.826	3.89
374.193	4.28
374.56	3.6
374.927	3.71
375.294	3.76
375.661	3.99
376.028	3.96
376.395	3.83
376.762	3.93
377.129	4.05
377.496	3.96
377.863	3.86
378.229	3.57
378.596	3.89
378.963	3.58
379.329	3.8
379.696	3.86
380.062	4.15
380.429	3.6
380.795	3.68
381.161	3.88
381.528	3.51
381.894	3.81
382.26	3.85
382.626	3.68
382.993	3.66
383.359	3.81
383.725	3.91
384.091	3.93
384.457	4.01
384.823	3.99
385.188	3.94
385.554	3.77
385.92	4
386.286	4.16
386.651	3.83
387.017	4.1
387.383	3.98
387.748	3.57
388.114	4.17
388.479	4.13
388.845	4
389.21	4
389.575	3.97
389.94	3.75
390.306	4.03
390.671	4.13
391.036	4
391.401	4.3
391.766	4.21
392.131	3.95
392.496	3.8
392.861	3.62
393.226	3.98
393.591	3.95
393.956	4.18
394.32	4.03
394.685	4.26
395.05	3.98
395.414	3.99
395.779	3.97
396.143	4.21
396.508	4.22
396.872	4.2
397.236	3.73
397.601	4.05
397.965	3.8
398.329	4.32
398.694	3.74
399.058	3.97
399.422	4.15
399.786	4.29
400.15	4.02
400.514	4.19
400.878	4.05
401.242	4.1
401.605	3.84
401.969	4.08
402.333	4.26
402.697	4.25
403.06	4.37
403.424	3.77
403.787	4.36
404.151	4.05
404.514	3.98
404.878	4.04
405.241	4.17
405.604	4.17
405.968	4.04
406.331	4.21
406.694	4.25
407.057	4.23
407.42	4.2
407.783	4.18
408.146	3.93
408.509	4.06
408.872	4.01
409.235	4.1
409.598	4.32
409.961	4.4
410.323	4.11
410.686	4.12
411.049	3.9
411.411	4.24
411.774	4.22
412.136	4.32
412.499	4.27
412.861	4.33
413.223	4.39
413.586	4.24
413.948	4.44
414.31	4.16
414.672	4.07
415.035	4.24
415.397	4.43
415.759	4.11
416.121	4.47
416.483	4.57
416.845	4.15
417.206	4.32
417.568	4.2
417.93	4.19
418.292	4.13
418.653	4.16
419.015	4.41
419.377	4.31
419.738	4.19
420.1	4.13
420.461	4.17
420.822	4.28
421.184	4.26
421.545	4.26
421.906	4.24
422.267	4.13
422.629	4.22
422.99	4.22
423.351	4.36
423.712	4.24
424.073	4.33
424.434	4.18
424.795	4.23
425.155	4.23
425.516	4.24
425.877	4.35
426.238	4.24
426.598	4.38
426.959	4.33
427.32	4.5
427.68	4.43
428.041	4.38
428.401	4.3
428.761	4.32
429.122	4.18
429.482	4.35
429.842	4.46
430.202	4.4
430.563	4.23
430.923	4.5
431.283	4.38
431.643	4.6
432.003	4.52
432.363	4.67
432.722	4.35
433.082	4.49
433.442	4.43
433.802	4.44
434.161	4.41
434.521	4.49
434.881	4.49
435.24	4.48
435.6	4.51
435.959	4.52
436.319	4.49
436.678	4.66
437.037	4.51
437.396	4.73
437.756	4.54
438.115	4.61
438.474	4.64
438.833	4.7
439.192	4.64
439.551	4.64
439.91	4.53
440.269	4.55
440.628	4.49
440.987	4.61
441.345	4.51
441.704	4.68
442.063	4.41
442.421	4.53
442.78	4.56
443.138	4.51
443.497	4.46
443.855	4.73
444.214	4.69
444.572	4.66
444.93	4.65
445.288	4.6
445.647	4.81
446.005	4.62
446.363	4.61
446.721	4.55
447.079	4.63
447.437	4.57
447.795	4.66
448.153	4.62
448.51	4.6
448.868	4.74
449.226	4.7
449.584	4.69
449.941	4.84
450.299	4.65
450.656	4.81
451.014	4.72
451.371	4.8
451.729	4.7
452.086	4.66
452.443	4.8
452.801	4.83
453.158	4.66
453.515	4.65
453.872	4.89
454.229	4.83
454.586	4.89
454.943	4.79
455.3	5.05
455.657	4.89
456.014	4.88
456.371	4.92
456.727	4.76
457.084	4.83
457.441	4.8
457.797	4.86
458.154	4.84
458.51	4.94
458.867	4.89
459.223	5
459.58	4.67
459.936	4.78
460.292	4.9
460.648	4.74
461.005	4.75
461.361	4.78
461.717	4.85
462.073	4.95
462.429	4.95
462.785	4.93
463.141	4.94
463.496	4.94
463.852	5.02
464.208	4.98
464.564	4.99
464.919	4.88
465.275	5.18
465.631	5.03
465.986	4.9
466.342	4.96
466.697	5.09
467.052	4.99
467.408	5.05
467.763	4.85
468.118	5.16
468.473	5.08
468.829	5.1
469.184	5.1
469.539	4.99
469.894	5.24
470.249	5.08
470.603	5.15
470.958	5.24
471.313	4.96
471.668	5.16
472.023	5.27
472.377	5.03
472.732	5.15
473.086	5.14
473.441	5.19
473.795	5.31
474.15	5.14
474.504	5.17
474.859	5.19
475.213	5.21
475.567	5.08
475.921	5.31
476.275	5.22
476.63	5.14
476.984	5.16
477.338	5.31
477.692	5.14
478.045	5.09
478.399	5.22
478.753	5.17
479.107	5.27
479.461	5.25
479.814	5.19
480.168	5.17
480.521	5.1
480.875	5.42
481.228	5.23
481.582	5.11
481.935	5.26
482.289	5.19
482.642	5.26
482.995	5.18
483.348	5.15
483.701	5.16
484.055	5.05
484.408	5
484.761	4.94
485.114	4.79
485.466	4.88
485.819	4.98
486.172	5.1
486.525	5.23
486.878	5.22
487.23	5.29
487.583	5.27
487.936	5.27
488.288	5.1
488.641	5.08
488.993	5.02
489.345	5.06
489.698	5.21
490.05	5.23
490.402	5.35
490.754	5.38
491.107	5.38
491.459	5.41
491.811	5.49
492.163	5.44
492.515	5.2
492.866	5.07
493.218	5.1
493.57	5.27
493.922	5.4
494.274	5.4
494.625	5.44
494.977	5.46
495.328	5.56
495.68	5.66
496.031	5.56
496.383	5.6
496.734	5.59
497.086	5.41
497.437	5.58
497.788	5.54
498.139	5.5
498.49	5.51
498.842	5.52
499.193	5.56
499.544	5.69
499.894	5.63
500.245	5.58
500.596	5.7
500.947	5.63
501.298	5.57
501.648	5.71
501.999	5.8
502.35	5.8
502.7	5.74
503.051	5.83
503.401	5.75
503.752	5.74
504.102	5.68
504.452	5.68
504.803	5.67
505.153	5.82
505.503	5.76
505.853	5.7
506.203	5.68
506.553	5.8
506.903	5.8
507.253	5.96
507.603	5.78
507.953	5.92
508.303	5.81
508.652	5.81
509.002	5.93
509.352	5.79
509.701	5.82
510.051	5.8
510.4	5.84
510.75	5.86
511.099	5.8
511.449	5.98
511.798	6.04
512.147	5.99
512.496	5.94
512.846	5.85
513.195	5.98
513.544	5.85
513.893	5.84
514.242	6.1
514.591	6.08
514.939	5.92
515.288	6.01
515.637	6.07
515.986	6.05
516.334	6.12
516.683	6.14
517.032	5.96
517.38	6.08
517.729	6
518.077	6.07
518.426	6.07
518.774	6.08
519.122	6.06
519.47	6
519.819	6
520.167	5.96
520.515	5.95
520.863	6.03
521.211	6.1
521.559	6.1
521.907	6.1
522.255	6.25
522.602	6.34
522.95	6.27
523.298	6.2
523.645	6.19
523.993	6.3
524.341	6.2
524.688	6.34
525.036	6.41
525.383	6.28
525.73	6.3
526.078	6.31
526.425	6.17
526.772	6.06
527.119	6.15
527.466	6.25
527.814	6.24
528.161	6.26
528.508	6.23
528.854	6.18
529.201	6.06
529.548	5.96
529.895	5.93
530.242	5.97
530.588	6.11
530.935	6.23
531.282	6.33
531.628	6.32
531.975	6.31
532.321	6.36
532.667	6.39
533.014	6.4
533.36	6.39
533.706	6.36
534.052	6.3
534.399	6.22
534.745	6.19
535.091	6.31
535.437	6.37
535.783	6.51
536.129	6.55
536.474	6.62
536.82	6.58
537.166	6.61
537.512	6.54
537.857	6.45
538.203	6.49
538.549	6.64
538.894	6.64
539.239	6.85
539.585	6.79
539.93	6.76
540.276	6.71
540.621	6.74
540.966	6.72
541.311	6.79
541.656	6.72
542.001	6.66
542.346	6.43
542.691	6.42
543.036	6.46
543.381	6.61
543.726	6.74
544.071	6.81
544.415	6.79
544.76	6.68
545.105	6.8
545.449	6.82
545.794	6.88
546.138	6.94
546.483	6.97
546.827	6.99
547.171	6.94
547.516	7.19
547.86	6.91
548.204	6.9
548.548	7.04
548.892	6.99
549.236	7.17
549.58	7.12
549.924	7.13
550.268	7.33
550.612	7.28
550.956	7.21
551.3	7.18
551.643	7.27
551.987	7.29
552.33	7.15
552.674	7.36
553.017	7.5
553.361	7.15
553.704	7.2
554.048	7.34
554.391	7.34
554.734	7.28
555.077	7.37
555.42	7.43
555.764	7.43
556.107	7.25
556.45	7.42
556.793	7.63
557.135	7.46
557.478	7.6
557.821	7.48
558.164	7.58
558.507	7.51
558.849	7.5
559.192	7.66
559.534	7.55
559.877	7.78
560.219	7.63
560.562	7.73
560.904	7.62
561.246	7.57
561.589	7.74
561.931	7.92
562.273	7.61
562.615	7.74
562.957	7.66
563.299	7.77
563.641	7.77
563.983	7.71
564.325	7.61
564.667	7.75
565.008	7.83
565.35	7.99
565.692	8.06
566.033	7.95
566.375	7.8
566.716	7.9
567.058	7.94
567.399	7.87
567.741	7.87
568.082	7.85
568.423	7.9
568.764	7.87
569.105	8.04
569.447	8.21
569.788	8.09
570.129	8.06
570.47	8.11
570.811	8.13
571.151	8.18
571.492	8.23
571.833	8.1
572.174	8.19
572.514	8.09
572.855	8.22
573.195	8.03
573.536	8.14
573.876	8.26
574.217	8.2
574.557	8.28
574.898	8.14
575.238	8.29
575.578	8.39
575.918	8.35
576.258	8.17
576.598	8.25
576.938	8.45
577.278	8.38
577.618	8.27
577.958	8.42
578.298	8.65
578.638	8.4
578.977	8.71
579.317	8.69
579.657	8.34
579.996	8.48
580.336	8.52
580.675	8.58
581.014	8.51
581.354	8.77
581.693	8.63
582.032	8.7
582.372	8.86
582.711	8.93
583.05	8.9
583.389	9
583.728	8.66
584.067	8.65
584.406	9.04
584.745	8.95
585.083	9.18
585.422	8.9
585.761	9.05
586.1	9.05
586.438	9.22
586.777	8.94
587.115	9
587.454	9.17
587.792	8.95
588.13	9.29
588.469	9.23
588.807	9.13
589.145	9.19
589.483	8.77
589.821	9.19
590.159	8.96
590.497	8.95
590.835	8.99
591.173	9.12
591.511	9.25
591.849	9.34
592.187	9.48
592.524	9.2
592.862	9.3
593.2	9.3
593.537	9.13
593.875	9.2
594.212	9.28
594.55	9.3
594.887	9.37
595.224	9.2
595.561	9.29
595.899	9.26
596.236	9.49
596.573	9.38
596.91	9.58
597.247	9.52
597.584	9.56
597.921	9.4
598.258	9.22
598.594	9.18
598.931	9.34
599.268	9.51
599.604	9.69
599.941	9.71
600.277	9.69
600.614	9.52
600.95	9.68
601.287	9.74
601.623	9.69
601.959	9.6
602.296	9.7
602.632	10.01
602.968	9.71
603.304	9.52
603.64	9.46
603.976	9.86
604.312	9.86
604.648	9.84
604.984	9.71
605.319	9.64
605.655	9.79
605.991	9.89
606.326	9.62
606.662	9.61
606.998	9.81
607.333	9.93
607.668	10.07
608.004	10.07
608.339	10
608.674	9.95
609.01	9.96
609.345	10.22
609.68	9.85
610.015	10.08
610.35	9.89
610.685	9.96
611.02	10.19
611.355	10.06
611.689	9.83
612.024	10.39
612.359	10.34
612.694	10.4
613.028	10.55
613.363	10.15
613.697	10.21
614.032	10.5
614.366	10.33
614.7	10.46
615.035	10.1
615.369	10.45
615.703	10.77
616.037	10.48
616.371	10.02
616.705	10.38
617.039	10.48
617.373	10.54
617.707	10.41
618.041	10.83
618.375	10.66
618.709	10.71
619.042	10.6
619.376	10.48
619.71	10.85
620.043	10.62
620.377	10.81
620.71	10.56
621.043	10.78
621.377	10.52
621.71	11.05
622.043	11.13
622.376	10.84
622.709	10.91
623.043	10.73
623.376	11.1
623.709	10.9
624.041	10.87
624.374	10.81
624.707	10.74
625.04	11.3
625.373	10.9
625.705	11.22
626.038	10.89
626.37	10.91
626.703	10.83
627.035	11.13
627.368	11.28
627.7	11.05
628.032	10.92
628.365	10.85
628.697	10.85
629.029	11.29
629.361	10.99
629.693	11.62
630.025	11.32
630.357	11.22
630.689	11.7
631.021	11.02
631.353	11.32
631.684	11.4
632.016	10.92
632.348	11.28
632.679	11.25
633.011	11.38
633.342	11.53
633.674	11.24
634.005	11.62
634.336	11.49
634.668	11.41
634.999	11.34
635.33	11.31
635.661	11.62
635.992	11.12
636.323	11.27
636.654	11.9
636.985	11.37
637.316	11.69
637.647	11.54
637.977	11.42
638.308	11.82
638.639	11.5
638.969	11.65
639.3	11.67
639.63	11.52
639.961	11.76
640.291	11.99
640.622	11.77
640.952	11.87
641.282	11.33
641.612	11.69
641.943	12.05
642.273	12.03
642.603	11.54
642.933	12.06
643.263	11.68
643.592	11.72
643.922	12.45
644.252	11.66
644.582	11.79
644.911	11.65
645.241	12.28
645.571	11.89
645.9	12.2
646.23	11.91
646.559	12.09
646.888	11.54
647.218	11.76
647.547	12.19
647.876	12.4
648.205	12.19
648.534	12.19
648.863	12.57
649.192	12.19
649.521	11.83
649.85	12.41
650.179	11.72
650.508	12.64
650.837	12.14
651.165	12.18
651.494	12.14
651.822	12.87
652.151	12.01
652.479	12.54
652.808	11.94
653.136	12.6
653.465	12.38
653.793	12.45
654.121	12.59
654.449	12.54
654.777	12.55
655.105	12.83
655.433	12.79
655.761	12.22
656.089	12.53
656.417	12.46
656.745	12.59
657.073	12.87
657.4	12.82
657.728	12.39
658.056	12.22
658.383	12.72
658.711	12.82
659.038	12.9
659.365	12.74
659.693	12.76
660.02	12.73
660.347	12.6
660.674	12.6
661.001	12.61
661.329	12.96
661.656	12.75
661.982	13.01
662.309	12.91
662.636	12.55
662.963	12.57
663.29	13.37
663.616	12.64
663.943	13.26
664.27	12.54
664.596	12.16
664.923	13.46
665.249	13.46
665.576	12.92
665.902	13.03
666.228	13.51
666.554	12.85
666.881	13.21
667.207	13.21
667.533	13.32
667.859	13.1
668.185	13.3
668.511	12.71
668.837	12.68
669.162	12.85
669.488	13.23
669.814	13.51
670.139	13.25
670.465	13.33
670.791	13.83
671.116	12.78
671.442	13.06
671.767	13.32
672.092	13.35
672.418	13.07
672.743	13.37
673.068	12.81
673.393	13.32
673.718	13.06
674.043	13.11
674.368	13.4
674.693	13.91
675.018	13.67
675.343	14.04
675.667	13.15
675.992	13.15
676.317	13.46
676.641	13.99
676.966	14.11
677.29	13.69
677.615	13.31
677.939	13.73
678.264	13.77
678.588	13.83
678.912	13.83
679.236	13.57
679.56	13.06
679.885	14.19
680.209	13.83
680.532	13.68
680.856	13.95
681.18	13.43
681.504	13.31
681.828	13.05
682.152	13.78
682.475	13.68
682.799	14
683.122	13.48
683.446	13.54
683.769	13.75
684.093	14.16
684.416	13.78
684.739	13.7
685.062	14.52
685.386	13.98
685.709	13.78
686.032	13.3
686.355	14.14
686.678	14.12
687.001	13.17
687.324	13.39
687.646	14.14
687.969	13.99
