Data from 0056_forehead_Reflection__2__105.txt Node

Date: Fri Dec 16 14:47:00 CST 2022
User: ToomeyLab
Spectrometer: FLMS14357
Trigger mode: 0
Integration Time (sec): 1.000000E-2
Scans to average: 100
Electric dark correction enabled: true
Nonlinearity correction enabled: false
Boxcar width: 0
XAxis mode: Wavelengths
Number of Pixels in Spectrum: 2048
>>>>>Begin Spectral Data<<<<<
189.047	74.98
189.435	74.98
189.823	74.98
190.211	96.88
190.599	27.82
190.987	-40.15
191.375	-225.44
191.763	83.46
192.151	797.78
192.538	-292.29
192.926	-43.38
193.314	64.69
193.702	134.92
194.089	-271.43
194.477	310.48
194.864	123.8
195.252	50.03
195.639	110.06
196.027	59.64
196.414	-73.4
196.801	23.31
197.189	180.08
197.576	-344.3
197.963	-112.23
198.351	-0.82
198.738	6.54
199.125	37
199.512	6.12
199.899	-29.42
200.286	-37.87
200.673	20.36
201.06	31.47
201.447	18.28
201.833	15.07
202.22	45.32
202.607	12.41
202.994	10.42
203.38	0.74
203.767	-44.63
204.154	-86.57
204.54	11.04
204.927	36.69
205.313	28.64
205.699	14.3
206.086	24.01
206.472	-13.6
206.858	7.16
207.245	25.67
207.631	-9.93
208.017	38.96
208.403	10.28
208.789	26.19
209.175	36.2
209.561	21.94
209.947	-24.58
210.333	17.99
210.719	-18.38
211.105	38.94
211.491	60.18
211.876	16.88
212.262	1.14
212.648	-24.79
213.034	4.9
213.419	40.8
213.805	-11.63
214.19	-8.23
214.576	37.86
214.961	-29.71
215.346	17.67
215.732	-52.96
216.117	-24.44
216.502	-7.35
216.888	-14.14
217.273	42.01
217.658	3.22
218.043	-8
218.428	-5.5
218.813	-7.46
219.198	-28.45
219.583	1.42
219.968	-1.24
220.353	2.73
220.738	-7.93
221.122	-3.15
221.507	-4.39
221.892	17.28
222.276	9.64
222.661	-5.6
223.046	4.61
223.43	-4.08
223.815	13.77
224.199	14.09
224.583	11.48
224.968	6.35
225.352	8.58
225.736	11.93
226.121	2.32
226.505	13.98
226.889	11.09
227.273	5.13
227.657	6.17
228.041	6.45
228.425	5.52
228.809	2.43
229.193	3.52
229.577	5.11
229.961	6.27
230.344	5.71
230.728	4.46
231.112	4.9
231.495	4.68
231.879	5.68
232.263	3.05
232.646	3.9
233.03	3.79
233.413	6.02
233.797	8.37
234.18	2.9
234.563	4.36
234.946	3.52
235.33	6.24
235.713	5.21
236.096	2.35
236.479	5.35
236.862	5.57
237.245	7.24
237.628	4.41
238.011	5.15
238.394	6.8
238.777	4.42
239.16	2.63
239.543	5.1
239.925	5.08
240.308	5.62
240.691	5.44
241.073	5.85
241.456	5.19
241.838	5.41
242.221	5.48
242.603	4.57
242.986	6.01
243.368	4.83
243.75	5.25
244.133	5.64
244.515	5.8
244.897	5.55
245.279	6.23
245.661	5.63
246.043	6.13
246.425	6.14
246.807	5.37
247.189	5.74
247.571	6.2
247.953	5.99
248.335	6.09
248.717	6.03
249.098	5.87
249.48	5.78
249.862	6.13
250.243	5.86
250.625	6.35
251.006	5.71
251.388	6.2
251.769	5.83
252.151	5.46
252.532	6.63
252.913	6.48
253.295	6.3
253.676	6.46
254.057	5.66
254.438	5.57
254.819	6.78
255.2	5.26
255.581	5.36
255.962	6.88
256.343	6.88
256.724	5.75
257.105	6.01
257.486	5.82
257.867	5.22
258.247	5.83
258.628	5.86
259.009	5.66
259.389	6.2
259.77	5.8
260.15	6.37
260.531	5.9
260.911	5.82
261.292	5.83
261.672	5.57
262.052	5.71
262.432	5.73
262.813	6.35
263.193	4.83
263.573	5.69
263.953	5.19
264.333	5.92
264.713	5.48
265.093	5.66
265.473	6
265.853	5.8
266.233	5.63
266.612	6
266.992	5.04
267.372	5.63
267.752	5.19
268.131	5.48
268.511	5.75
268.89	5.84
269.27	5.56
269.649	5.3
270.029	5.3
270.408	5.7
270.787	6.2
271.167	5.7
271.546	4.96
271.925	5.42
272.304	5.58
272.683	5.61
273.062	5.61
273.441	5.56
273.82	6.09
274.199	5.72
274.578	5.49
274.957	5.77
275.336	5.57
275.715	4.8
276.093	5.86
276.472	5.58
276.851	6.07
277.229	6.08
277.608	4.68
277.986	5.56
278.365	5.03
278.743	5.16
279.122	5.19
279.5	4.91
279.878	4.57
280.257	5.56
280.635	4.73
281.013	5.85
281.391	5.64
281.769	5.57
282.147	5.5
282.525	5.09
282.903	5.5
283.281	5.48
283.659	5.75
284.037	5.74
284.415	5.87
284.792	5.42
285.17	5.49
285.548	5.47
285.925	5.65
286.303	5.6
286.68	5.83
287.058	5.62
287.435	5.45
287.813	5.6
288.19	6.06
288.567	5.35
288.945	6.03
289.322	6.02
289.699	5.97
290.076	6.2
290.453	5.85
290.83	6.16
291.207	6.1
291.584	6.11
291.961	6.81
292.338	6.14
292.715	6.18
293.092	6.34
293.469	7.01
293.845	6.67
294.222	7.2
294.599	7.2
294.975	7.2
295.352	6.64
295.728	7.31
296.105	6.83
296.481	7.22
296.858	7.54
297.234	7.59
297.61	7.6
297.986	7.39
298.363	7.48
298.739	7.3
299.115	6.97
299.491	7.53
299.867	7.63
300.243	7.03
300.619	7.32
300.995	7.51
301.371	7.84
301.746	7.63
302.122	7.69
302.498	7.99
302.874	7.58
303.249	7.71
303.625	7.94
304	7.71
304.376	8.32
304.751	7.93
305.127	7.94
305.502	8.13
305.878	8.15
306.253	7.84
306.628	8.38
307.003	8.16
307.378	8.27
307.754	8.63
308.129	7.99
308.504	7.79
308.879	8.36
309.254	8.5
309.629	8.33
310.003	8.66
310.378	8.51
310.753	8.65
311.128	8.18
311.502	8.61
311.877	8.37
312.252	8.77
312.626	8.65
313.001	8.52
313.375	8.75
313.75	8.35
314.124	8.78
314.498	8.66
314.873	8.43
315.247	8.68
315.621	8.75
315.995	8.55
316.369	8.85
316.743	9.17
317.117	8.92
317.491	8.93
317.865	8.3
318.239	9.46
318.613	8.73
318.987	9.13
319.361	9.07
319.734	8.82
320.108	8.91
320.482	8.86
320.855	9.23
321.229	9.52
321.602	8.82
321.976	9.38
322.349	8.36
322.723	8.92
323.096	9.15
323.469	8.97
323.843	9.36
324.216	8.99
324.589	9.33
324.962	9.62
325.335	9.51
325.708	9.59
326.081	10.06
326.454	9.53
326.827	9.79
327.2	9.86
327.573	9.53
327.945	9.06
328.318	9.84
328.691	9.56
329.063	9.09
329.436	9.5
329.809	9.55
330.181	9.11
330.553	9.75
330.926	9.42
331.298	9.08
331.671	9.77
332.043	9.79
332.415	10.31
332.787	10.3
333.159	9.44
333.532	9.62
333.904	9.6
334.276	9.99
334.648	9.96
335.02	9.86
335.391	9.76
335.763	9.91
336.135	10.13
336.507	10.26
336.879	9.84
337.25	9.62
337.622	9.98
337.993	10.19
338.365	10.29
338.736	10.18
339.108	9.64
339.479	10
339.851	10.4
340.222	10.56
340.593	9.77
340.964	10.35
341.336	9.83
341.707	10.28
342.078	9.65
342.449	10.67
342.82	10.05
343.191	9.91
343.562	9.83
343.933	9.91
344.303	10.03
344.674	10.06
345.045	10.62
345.416	10.2
345.786	10.06
346.157	10.39
346.527	10.01
346.898	9.82
347.268	10.43
347.639	10.19
348.009	10.54
348.38	10.22
348.75	10.3
349.12	10.31
349.49	10.36
349.861	10.51
350.231	11.01
350.601	10.37
350.971	10.55
351.341	10.39
351.711	10.3
352.081	10.89
352.45	10.72
352.82	10.62
353.19	10.79
353.56	10.48
353.929	10.8
354.299	10.45
354.669	10.99
355.038	10.72
355.408	11.04
355.777	10.23
356.147	10.84
356.516	10.74
356.885	10.59
357.254	10.94
357.624	11.17
357.993	10.89
358.362	10.58
358.731	10.77
359.1	10.9
359.469	10.58
359.838	10.78
360.207	10.65
360.576	11.03
360.945	10.72
361.314	11.17
361.682	10.75
362.051	10.91
362.42	11.22
362.788	11.16
363.157	11.04
363.525	10.84
363.894	10.8
364.262	10.77
364.631	11.83
364.999	10.84
365.367	11.75
365.735	10.87
366.104	10.96
366.472	11.05
366.84	11.14
367.208	10.86
367.576	10.77
367.944	11.34
368.312	10.76
368.68	11.47
369.048	11.12
369.416	11.1
369.783	11.18
370.151	11.21
370.519	11.32
370.886	11
371.254	11.02
371.621	11.3
371.989	11.35
372.356	11.36
372.724	11.4
373.091	11.12
373.458	11.68
373.826	11.12
374.193	11.44
374.56	11.34
374.927	11.51
375.294	11.38
375.661	11.52
376.028	11.57
376.395	11.38
376.762	11.85
377.129	11.91
377.496	11.6
377.863	11.63
378.229	11.74
378.596	11.64
378.963	11.62
379.329	11.53
379.696	11.48
380.062	11.67
380.429	11.79
380.795	11.45
381.161	11.88
381.528	11.41
381.894	11.74
382.26	11.8
382.626	11.32
382.993	11.46
383.359	11.77
383.725	12.12
384.091	11.94
384.457	11.82
384.823	12.04
385.188	12
385.554	11.97
385.92	11.84
386.286	12.05
386.651	11.83
387.017	12.08
387.383	11.94
387.748	11.85
388.114	11.92
388.479	12.21
388.845	12.22
389.21	12.05
389.575	12.07
389.94	12.39
390.306	12.16
390.671	12.24
391.036	12.29
391.401	12.65
391.766	12.25
392.131	12.29
392.496	12.11
392.861	12.08
393.226	12.18
393.591	12.3
393.956	12.36
394.32	12.18
394.685	12.45
395.05	12.11
395.414	12.33
395.779	12.13
396.143	12.41
396.508	12.49
396.872	12.32
397.236	12.19
397.601	12.47
397.965	12.18
398.329	12.32
398.694	12.42
399.058	12.39
399.422	12.33
399.786	12.4
400.15	12.32
400.514	12.23
400.878	12.39
401.242	12.77
401.605	12.62
401.969	12.61
402.333	12.62
402.697	12.76
403.06	12.66
403.424	12.59
403.787	12.83
404.151	12.54
404.514	12.6
404.878	12.56
405.241	12.91
405.604	12.85
405.968	12.82
406.331	12.76
406.694	12.83
407.057	13.08
407.42	12.79
407.783	12.89
408.146	12.87
408.509	13.02
408.872	12.59
409.235	12.91
409.598	13.05
409.961	13.26
410.323	13.02
410.686	13.05
411.049	13
411.411	13.09
411.774	12.76
412.136	12.9
412.499	13.04
412.861	13
413.223	13.3
413.586	12.93
413.948	13.15
414.31	13.25
414.672	13.31
415.035	13.31
415.397	13.28
415.759	13.15
416.121	13.32
416.483	13.49
416.845	13.12
417.206	13.4
417.568	13.44
417.93	13.32
418.292	13.19
418.653	13.41
419.015	13.36
419.377	13.31
419.738	13.28
420.1	13.35
420.461	13.21
420.822	13.34
421.184	13.33
421.545	13.41
421.906	13.19
422.267	13.12
422.629	13.19
422.99	13.27
423.351	13.17
423.712	13.23
424.073	13.44
424.434	13.3
424.795	13.31
425.155	13.42
425.516	13.24
425.877	13.27
426.238	13.3
426.598	13.51
426.959	13.33
427.32	13.49
427.68	13.65
428.041	13.59
428.401	13.58
428.761	13.6
429.122	13.56
429.482	13.67
429.842	13.8
430.202	13.85
430.563	13.68
430.923	13.85
431.283	13.86
431.643	13.81
432.003	13.98
432.363	14.06
432.722	13.91
433.082	13.68
433.442	13.7
433.802	13.91
434.161	13.79
434.521	14.01
434.881	13.95
435.24	13.95
435.6	14.01
435.959	14.1
436.319	13.91
436.678	13.99
437.037	14.08
437.396	14.26
437.756	14.07
438.115	14.04
438.474	14.1
438.833	14.28
439.192	14.18
439.551	14.2
439.91	14.23
440.269	14.25
440.628	14.2
440.987	14.27
441.345	14.27
441.704	14.33
442.063	14.21
442.421	14.23
442.78	14.18
443.138	14.23
443.497	14.17
443.855	14.32
444.214	14.47
444.572	14.34
444.93	14.48
445.288	14.57
445.647	14.44
446.005	14.34
446.363	14.45
446.721	14.38
447.079	14.4
447.437	14.33
447.795	14.32
448.153	14.21
448.51	14.26
448.868	14.51
449.226	14.48
449.584	14.49
449.941	14.63
450.299	14.76
450.656	14.72
451.014	14.63
451.371	14.71
451.729	14.74
452.086	14.71
452.443	14.75
452.801	14.97
453.158	14.72
453.515	14.83
453.872	14.97
454.229	14.94
454.586	14.86
454.943	14.88
455.3	15.06
455.657	14.87
456.014	15.1
456.371	15.16
456.727	14.96
457.084	15.1
457.441	14.95
457.797	15.15
458.154	15.02
458.51	15.09
458.867	14.98
459.223	15.19
459.58	15.2
459.936	15.27
460.292	15.19
460.648	14.92
461.005	15.06
461.361	14.99
461.717	15.02
462.073	15.02
462.429	15.19
462.785	15.23
463.141	15.45
463.496	15.25
463.852	15.5
464.208	15.37
464.564	15.36
464.919	15.45
465.275	15.5
465.631	15.36
465.986	15.34
466.342	15.58
466.697	15.64
467.052	15.64
467.408	15.75
467.763	15.5
468.118	15.6
468.473	15.69
468.829	15.6
469.184	15.68
469.539	15.48
469.894	15.55
470.249	15.79
470.603	15.89
470.958	15.84
471.313	15.82
471.668	15.75
472.023	15.83
472.377	15.81
472.732	15.86
473.086	15.9
473.441	15.84
473.795	16.13
474.15	16.06
474.504	15.9
474.859	15.83
475.213	15.91
475.567	16.23
475.921	16.18
476.275	16.19
476.63	16.13
476.984	16.14
477.338	16.35
477.692	16.34
478.045	16.13
478.399	16.2
478.753	15.98
479.107	16.11
479.461	16.27
479.814	16.2
480.168	16.37
480.521	16.23
480.875	16.44
481.228	16.46
481.582	16.26
481.935	16.32
482.289	16.17
482.642	16.42
482.995	16.31
483.348	16.25
483.701	16.13
484.055	16.17
484.408	16.08
484.761	15.83
485.114	15.67
485.466	15.69
485.819	15.74
486.172	15.76
486.525	15.89
486.878	16
487.23	16.18
487.583	16.15
487.936	16.25
488.288	16.11
488.641	16.08
488.993	16
489.345	15.95
489.698	16.08
490.05	16.1
490.402	16.21
490.754	16.39
491.107	16.37
491.459	16.64
491.811	16.69
492.163	16.62
492.515	16.52
492.866	16.27
493.218	16.19
493.57	16.34
493.922	16.42
494.274	16.56
494.625	16.66
494.977	16.77
495.328	17.04
495.68	17.06
496.031	17.14
496.383	17.12
496.734	17.19
497.086	17.06
497.437	17.11
497.788	16.98
498.139	17.04
498.49	17.12
498.842	17.05
499.193	17.15
499.544	17.12
499.894	17.12
500.245	17.29
500.596	17.41
500.947	17.27
501.298	17.31
501.648	17.45
501.999	17.39
502.35	17.52
502.7	17.51
503.051	17.5
503.401	17.56
503.752	17.64
504.102	17.62
504.452	17.65
504.803	17.64
505.153	17.64
505.503	17.76
505.853	17.48
506.203	17.51
506.553	17.74
506.903	17.59
507.253	17.75
507.603	17.82
507.953	17.8
508.303	17.83
508.652	17.81
509.002	17.9
509.352	17.73
509.701	17.84
510.051	17.8
510.4	17.71
510.75	17.89
511.099	17.86
511.449	17.84
511.798	17.98
512.147	17.92
512.496	18.05
512.846	17.96
513.195	17.99
513.544	17.85
513.893	17.95
514.242	18.08
514.591	18.14
514.939	17.97
515.288	18.02
515.637	18.3
515.986	18.15
516.334	18.32
516.683	18.36
517.032	18.27
517.38	18.34
517.729	18.36
518.077	18.34
518.426	18.36
518.774	18.27
519.122	18.31
519.47	18.19
519.819	18.24
520.167	18.25
520.515	18.14
520.863	18.18
521.211	18.31
521.559	18.38
521.907	18.42
522.255	18.55
522.602	18.7
522.95	18.61
523.298	18.61
523.645	18.68
523.993	18.88
524.341	18.76
524.688	18.91
525.036	19.05
525.383	19
525.73	18.79
526.078	18.8
526.425	18.7
526.772	18.59
527.119	18.52
527.466	18.56
527.814	18.76
528.161	18.64
528.508	18.64
528.854	18.63
529.201	18.49
529.548	18.38
529.895	18.24
530.242	18.35
530.588	18.42
530.935	18.43
531.282	18.52
531.628	18.6
531.975	18.8
532.321	18.94
532.667	18.95
533.014	19.02
533.36	19.1
533.706	19.03
534.052	18.96
534.399	18.85
534.745	18.77
535.091	18.84
535.437	18.89
535.783	19.08
536.129	19.17
536.474	19.33
536.82	19.38
537.166	19.31
537.512	19.44
537.857	19.22
538.203	19.26
538.549	19.39
538.894	19.36
539.239	19.57
539.585	19.51
539.93	19.65
540.276	19.55
540.621	19.72
540.966	19.89
541.311	19.85
541.656	19.61
542.001	19.65
542.346	19.36
542.691	19.19
543.036	19.25
543.381	19.23
543.726	19.45
544.071	19.54
544.415	19.6
544.76	19.48
545.105	19.74
545.449	19.75
545.794	19.86
546.138	19.98
546.483	19.96
546.827	20
547.171	20.16
547.516	20.17
547.86	19.91
548.204	20.02
548.548	20.11
548.892	20.23
549.236	20.19
549.58	20.28
549.924	20.34
550.268	20.62
550.612	20.48
550.956	20.55
551.3	20.62
551.643	20.7
551.987	20.48
552.33	20.67
552.674	20.94
553.017	20.74
553.361	20.84
553.704	20.77
554.048	20.74
554.391	20.68
554.734	20.86
555.077	20.94
555.42	20.83
555.764	21.12
556.107	20.92
556.45	20.78
556.793	21.09
557.135	21.07
557.478	21.15
557.821	20.92
558.164	21.12
558.507	20.95
558.849	21.03
559.192	21.29
559.534	20.93
559.877	21.26
560.219	21.59
560.562	21.17
560.904	21.33
561.246	21.54
561.589	21.3
561.931	21.49
562.273	21.26
562.615	21.28
562.957	21.46
563.299	21.38
563.641	21.61
563.983	21.54
564.325	21.37
564.667	21.72
565.008	21.44
565.35	21.55
565.692	21.66
566.033	21.54
566.375	21.51
566.716	21.73
567.058	21.69
567.399	21.66
567.741	21.74
568.082	21.69
568.423	21.64
568.764	21.62
569.105	21.51
569.447	21.69
569.788	21.78
570.129	22.08
570.47	22
570.811	22.03
571.151	22.08
571.492	22.04
571.833	22.07
572.174	22.03
572.514	22.04
572.855	22.21
573.195	22
573.536	21.95
573.876	22.16
574.217	22.02
574.557	21.93
574.898	22.07
575.238	22.05
575.578	22.22
575.918	22.19
576.258	22.16
576.598	22.22
576.938	22.32
577.278	22.37
577.618	22.41
577.958	22.49
578.298	22.51
578.638	22.39
578.977	22.49
579.317	22.66
579.657	22.46
579.996	22.83
580.336	22.57
580.675	22.54
581.014	22.68
581.354	22.81
581.693	22.82
582.032	22.76
582.372	22.99
582.711	23.03
583.05	22.99
583.389	22.9
583.728	23.09
584.067	22.76
584.406	23.3
584.745	23.09
585.083	23.23
585.422	22.8
585.761	23.42
586.1	23.27
586.438	23.01
586.777	23.11
587.115	23.08
587.454	23.18
587.792	23.07
588.13	23.36
588.469	23.47
588.807	23.43
589.145	23.29
589.483	23.24
589.821	23.38
590.159	23.37
590.497	23.42
590.835	23.34
591.173	23.38
591.511	23.6
591.849	23.47
592.187	23.67
592.524	23.45
592.862	23.53
593.2	23.39
593.537	23.59
593.875	23.78
594.212	23.69
594.55	23.54
594.887	23.76
595.224	23.48
595.561	23.72
595.899	23.55
596.236	23.77
596.573	23.56
596.91	23.67
597.247	23.63
597.584	23.9
597.921	23.9
598.258	23.93
598.594	23.56
598.931	23.51
599.268	23.74
599.604	24.01
599.941	23.87
600.277	23.91
600.614	24.08
600.95	24.09
601.287	23.84
601.623	24.19
601.959	23.77
602.296	24.07
602.632	24.08
602.968	24.1
603.304	24.25
603.64	24.21
603.976	24.44
604.312	24.51
604.648	24.17
604.984	24.36
605.319	24.07
605.655	24.35
605.991	24.32
606.326	24.25
606.662	24.37
606.998	24.26
607.333	24.29
607.668	24.38
608.004	24.59
608.339	24.5
608.674	24.55
609.01	24.63
609.345	24.9
609.68	24.41
610.015	24.61
610.35	24.57
610.685	24.63
611.02	24.76
611.355	24.55
611.689	24.36
612.024	24.67
612.359	24.56
612.694	25.09
613.028	24.86
613.363	24.81
613.697	25.34
614.032	25.18
614.366	24.86
614.7	25.28
615.035	24.92
615.369	25.03
615.703	25.34
616.037	25.1
616.371	25.06
616.705	25.09
617.039	25.07
617.373	25.21
617.707	24.98
618.041	25.11
618.375	24.88
618.709	25.15
619.042	25.32
619.376	25.32
619.71	25.21
620.043	25.18
620.377	25.6
620.71	25.37
621.043	25.34
621.377	25.48
621.71	25.83
622.043	25.46
622.376	25.38
622.709	25.92
623.043	25.68
623.376	25.52
623.709	25.72
624.041	25.87
624.374	25.31
624.707	25.28
625.04	25.69
625.373	25.59
625.705	25.57
626.038	25.53
626.37	25.89
626.703	26.01
627.035	25.86
627.368	25.86
627.7	25.99
628.032	25.69
628.365	25.56
628.697	25.78
629.029	25.76
629.361	25.75
629.693	25.8
630.025	25.84
630.357	25.92
630.689	26.18
631.021	26.21
631.353	26.5
631.684	25.92
632.016	25.8
632.348	26.03
632.679	25.91
633.011	26.01
633.342	26.2
633.674	26.33
634.005	26.4
634.336	26.37
634.668	26.14
634.999	26.28
635.33	26.04
635.661	26.59
635.992	26.11
636.323	26.43
636.654	26.5
636.985	26.38
637.316	26.18
637.647	26.12
637.977	26.3
638.308	26.44
638.639	26.3
638.969	26.24
639.3	26.9
639.63	26.41
639.961	26.5
640.291	26.89
640.622	26.51
640.952	27.15
641.282	26.16
641.612	26.61
641.943	26.85
642.273	26.85
642.603	26.75
642.933	26.83
643.263	26.95
643.592	26.48
643.922	27.45
644.252	27.09
644.582	26.4
644.911	26.49
645.241	26.55
645.571	26.61
645.9	27.16
646.23	27.08
646.559	27.4
646.888	26.98
647.218	26.86
647.547	27.36
647.876	27.22
648.205	26.83
648.534	27.08
648.863	27
649.192	26.7
649.521	26.91
649.85	27.37
650.179	27.32
650.508	27.38
650.837	27.33
651.165	27.3
651.494	27.45
651.822	27.14
652.151	27.24
652.479	27.42
652.808	26.89
653.136	27.23
653.465	27.4
653.793	27.4
654.121	27.43
654.449	27
654.777	27.34
655.105	27.39
655.433	27.91
655.761	27.52
656.089	27.3
656.417	27.48
656.745	27.94
657.073	27.73
657.4	27.61
657.728	27.59
658.056	27.74
658.383	28.23
658.711	27.2
659.038	28.05
659.365	27.39
659.693	27.89
660.02	27.53
660.347	27.86
660.674	27.56
661.001	27.53
661.329	27.73
661.656	27.68
661.982	27.8
662.309	27.86
662.636	27.43
662.963	28.15
663.29	28.1
663.616	27.89
663.943	28.34
664.27	28.12
664.596	27.5
664.923	28.28
665.249	28.38
665.576	28.08
665.902	27.99
666.228	28.38
666.554	27.98
666.881	28.16
667.207	27.92
667.533	28.27
667.859	28.3
668.185	28.74
668.511	28.32
668.837	27.81
669.162	27.72
669.488	28.55
669.814	28.75
670.139	28.71
670.465	28.63
670.791	28.54
671.116	28.68
