Data from 0056_chest_Reflection__3__96.txt Node

Date: Fri Dec 16 14:44:34 CST 2022
User: ToomeyLab
Spectrometer: FLMS14357
Trigger mode: 0
Integration Time (sec): 1.000000E-2
Scans to average: 100
Electric dark correction enabled: true
Nonlinearity correction enabled: false
Boxcar width: 0
XAxis mode: Wavelengths
Number of Pixels in Spectrum: 2048
>>>>>Begin Spectral Data<<<<<
189.047	39.7
189.435	39.7
189.823	39.7
190.211	113.56
190.599	191.26
190.987	-148.15
191.375	31.01
191.763	302.76
192.151	596.83
192.538	-229.15
192.926	-40.4
193.314	47.17
193.702	113.13
194.089	-414.46
194.477	13.97
194.864	-58.73
195.252	-37.13
195.639	130.27
196.027	-53.55
196.414	-36.99
196.801	37.3
197.189	-28.77
197.576	547.65
197.963	-69.8
198.351	51.63
198.738	-26.61
199.125	22.24
199.512	18.81
199.899	-4.96
200.286	7.3
200.673	33.31
201.06	40.22
201.447	33.2
201.833	65.47
202.22	0.65
202.607	-11.68
202.994	25.01
203.38	-7.92
203.767	15.74
204.154	2.38
204.54	65.21
204.927	30.67
205.313	32.7
205.699	-17.86
206.086	-6.95
206.472	-0.89
206.858	12.57
207.245	3.91
207.631	-22.22
208.017	37.8
208.403	-5.04
208.789	-31.16
209.175	29.93
209.561	19.98
209.947	-11.95
210.333	9.65
210.719	6.75
211.105	-16.68
211.491	19.93
211.876	35.11
212.262	-26.04
212.648	-56.8
213.034	6.75
213.419	22.76
213.805	26.58
214.19	8.46
214.576	5.62
214.961	2.83
215.346	6.39
215.732	11.28
216.117	4.55
216.502	-21.77
216.888	0.53
217.273	17.11
217.658	-12.84
218.043	5.26
218.428	17.65
218.813	5.1
219.198	-5.69
219.583	-9.74
219.968	5.69
220.353	29.25
220.738	-16.55
221.122	-2.56
221.507	2.13
221.892	10.03
222.276	0.27
222.661	-6.7
223.046	7.9
223.43	15.23
223.815	18.2
224.199	7.2
224.583	8.83
224.968	11.24
225.352	0.88
225.736	20.87
226.121	-2.13
226.505	8.9
226.889	5.58
227.273	-0.58
227.657	-1.16
228.041	7.77
228.425	2.79
228.809	4.47
229.193	1.47
229.577	2.24
229.961	2.75
230.344	3.11
230.728	3.1
231.112	3.7
231.495	2.26
231.879	1.35
232.263	1.69
232.646	1.97
233.03	1.88
233.413	1.92
233.797	3.73
234.18	0.73
234.563	2.55
234.946	3.09
235.33	2.41
235.713	2.16
236.096	4.8
236.479	3.52
236.862	2.76
237.245	5.01
237.628	3.83
238.011	3.51
238.394	4.77
238.777	4.2
239.16	-1.19
239.543	1.67
239.925	2.78
240.308	2.31
240.691	2.32
241.073	3.78
241.456	2.4
241.838	2.03
242.221	2.32
242.603	2.37
242.986	3.81
243.368	2.44
243.75	1.95
244.133	2.42
244.515	2.8
244.897	2.31
245.279	1.99
245.661	3.48
246.043	2.66
246.425	2.54
246.807	2.34
247.189	2.35
247.571	2.49
247.953	2.43
248.335	2.48
248.717	2.58
249.098	2.51
249.48	2.06
249.862	2.17
250.243	2.83
250.625	2.45
251.006	2.42
251.388	3.23
251.769	3.07
252.151	3.53
252.532	3.45
252.913	2.28
253.295	2.78
253.676	3.01
254.057	2.02
254.438	2.32
254.819	2.85
255.2	3.27
255.581	2.03
255.962	2.09
256.343	4.05
256.724	2.99
257.105	2.73
257.486	2.37
257.867	1.28
258.247	2.88
258.628	3.5
259.009	2.02
259.389	2.65
259.77	2.34
260.15	2.75
260.531	2.43
260.911	2.43
261.292	2.57
261.672	2.32
262.052	2.4
262.432	2.16
262.813	2.65
263.193	2.64
263.573	2.02
263.953	2.39
264.333	2.38
264.713	1.89
265.093	2.11
265.473	3.02
265.853	2.6
266.233	2.7
266.612	2.24
266.992	2
267.372	2.26
267.752	2.23
268.131	2.38
268.511	2.9
268.89	2.91
269.27	3.24
269.649	2.76
270.029	2.43
270.408	2.29
270.787	2.34
271.167	2.88
271.546	1.49
271.925	2.36
272.304	2.65
272.683	2.39
273.062	2.43
273.441	2.74
273.82	2.79
274.199	2.53
274.578	2.27
274.957	2.85
275.336	2.2
275.715	2.78
276.093	2.81
276.472	2.76
276.851	2.58
277.229	2.92
277.608	1.98
277.986	1.8
278.365	2.48
278.743	2.45
279.122	2.15
279.5	2.26
279.878	2.35
280.257	3.19
280.635	2.06
281.013	2.38
281.391	2.8
281.769	1.67
282.147	2.66
282.525	2.53
282.903	2.51
283.281	2.63
283.659	2.8
284.037	2.31
284.415	2.16
284.792	2.22
285.17	2.58
285.548	2.23
285.925	2.24
286.303	2.26
286.68	2.91
287.058	1.97
287.435	1.98
287.813	2.69
288.19	2.95
288.567	2.36
288.945	2.64
289.322	2.39
289.699	2.67
290.076	2.53
290.453	2.21
290.83	3.19
291.207	2.18
291.584	2.15
291.961	2.33
292.338	2.33
292.715	2.53
293.092	2.09
293.469	2.8
293.845	2.61
294.222	1.83
294.599	3.01
294.975	2.63
295.352	2.41
295.728	2.59
296.105	2.5
296.481	2.84
296.858	2.49
297.234	2.64
297.61	2.53
297.986	2.87
298.363	2.21
298.739	2.86
299.115	2.43
299.491	2.66
299.867	2.88
300.243	2.48
300.619	2.53
300.995	2.53
301.371	3.62
301.746	2.48
302.122	2.79
302.498	2.63
302.874	2.64
303.249	3.11
303.625	2.62
304	2.45
304.376	2.8
304.751	2.68
305.127	2.58
305.502	3.05
305.878	2.85
306.253	2.25
306.628	2.5
307.003	3.12
307.378	2.59
307.754	2.57
308.129	2.57
308.504	2.5
308.879	2.75
309.254	3.02
309.629	2.49
310.003	3.2
310.378	2.69
310.753	3.05
311.128	2.77
311.502	2.47
311.877	2.67
312.252	2.59
312.626	2.32
313.001	2.61
313.375	2.83
313.75	2.56
314.124	3.41
314.498	2.62
314.873	2.81
315.247	2.77
315.621	2.97
315.995	3.41
316.369	3.4
316.743	3.25
317.117	3.14
317.491	3.18
317.865	2.91
318.239	3.1
318.613	2.68
318.987	3.09
319.361	2.86
319.734	2.81
320.108	3
320.482	3.33
320.855	3.05
321.229	3.15
321.602	3.22
321.976	2.59
322.349	2.21
322.723	1.79
323.096	3
323.469	2.43
323.843	2.8
324.216	2.22
324.589	3.61
324.962	2.99
325.335	2.76
325.708	3
326.081	3.49
326.454	2.88
326.827	2.92
327.2	3.17
327.573	2.76
327.945	2.91
328.318	3.09
328.691	3.04
329.063	3.34
329.436	3.1
329.809	2.45
330.181	2.87
330.553	3.33
330.926	3.05
331.298	2.55
331.671	2.96
332.043	2.72
332.415	3.2
332.787	3.53
333.159	2.74
333.532	2.78
333.904	3.06
334.276	2.99
334.648	3.14
335.02	3.31
335.391	3.19
335.763	2.71
336.135	3.44
336.507	3.14
336.879	2.86
337.25	3.07
337.622	3.49
337.993	2.89
338.365	3.3
338.736	3
339.108	2.42
339.479	3.04
339.851	3.19
340.222	2.86
340.593	2.64
340.964	2.93
341.336	2.84
341.707	3.22
342.078	2.71
342.449	3.16
342.82	2.84
343.191	2.82
343.562	3.06
343.933	2.95
344.303	2.94
344.674	3.24
345.045	3.1
345.416	3.18
345.786	2.84
346.157	2.96
346.527	3.3
346.898	2.65
347.268	2.97
347.639	2.83
348.009	3.21
348.38	3.24
348.75	2.97
349.12	3.22
349.49	2.93
349.861	3.41
350.231	3.05
350.601	3.06
350.971	2.73
351.341	3.14
351.711	2.88
352.081	2.99
352.45	3.15
352.82	3.06
353.19	3.35
353.56	2.53
353.929	3.13
354.299	3.09
354.669	3.29
355.038	2.89
355.408	3.31
355.777	2.73
356.147	3.53
356.516	3.26
356.885	3.14
357.254	3.41
357.624	3.29
357.993	2.73
358.362	3.48
358.731	3.07
359.1	3.31
359.469	3.07
359.838	3.07
360.207	2.96
360.576	3.16
360.945	2.91
361.314	3.16
361.682	2.87
362.051	3.1
362.42	3.29
362.788	3.17
363.157	2.93
363.525	3.1
363.894	2.87
364.262	3.04
364.631	3.87
364.999	2.93
365.367	3.72
365.735	2.86
366.104	2.96
366.472	3.32
366.84	3.34
367.208	2.85
367.576	3.2
367.944	3.21
368.312	2.73
368.68	3.36
369.048	3.42
369.416	3.13
369.783	3.08
370.151	3.39
370.519	3.21
370.886	3.25
371.254	3.1
371.621	3.27
371.989	3.29
372.356	3.31
372.724	3.09
373.091	3.26
373.458	2.87
373.826	3.13
374.193	3.63
374.56	2.99
374.927	3.33
375.294	3.57
375.661	3.23
376.028	3.25
376.395	3.15
376.762	3.47
377.129	3.31
377.496	2.88
377.863	3.31
378.229	3.16
378.596	3.03
378.963	3.23
379.329	3.27
379.696	3.32
380.062	3.35
380.429	3.43
380.795	3.1
381.161	3.21
381.528	2.66
381.894	3.46
382.26	3.18
382.626	3.15
382.993	3.08
383.359	3.34
383.725	3.1
384.091	3.13
384.457	3.23
384.823	3.38
385.188	3.67
385.554	3.25
385.92	3.38
386.286	3.45
386.651	3.26
387.017	3.58
387.383	3.26
387.748	3.06
388.114	3.41
388.479	3.5
388.845	3.54
389.21	3.49
389.575	3.55
389.94	3.28
390.306	3.38
390.671	3.27
391.036	3.33
391.401	3.78
391.766	3.41
392.131	3.36
392.496	3.34
392.861	3.2
393.226	3.32
393.591	3.46
393.956	3.41
394.32	3.45
394.685	3.44
395.05	3.22
395.414	3.43
395.779	3.41
396.143	3.56
396.508	3.56
396.872	3.55
397.236	3.16
397.601	3.66
397.965	3.2
398.329	3.43
398.694	3.34
399.058	3.53
399.422	3.51
399.786	3.33
400.15	3.51
400.514	3.43
400.878	3.49
401.242	3.6
401.605	3.36
401.969	3.37
402.333	3.4
402.697	3.52
403.06	3.71
403.424	3.45
403.787	3.86
404.151	3.28
404.514	3.49
404.878	3.46
405.241	3.34
405.604	3.44
405.968	3.44
406.331	3.58
406.694	3.49
407.057	3.75
407.42	3.55
407.783	3.52
408.146	3.36
408.509	3.35
408.872	3.44
409.235	3.57
409.598	3.75
409.961	3.67
410.323	3.67
410.686	3.6
411.049	3.31
411.411	3.58
411.774	3.59
412.136	3.71
412.499	3.56
412.861	3.53
413.223	3.63
413.586	3.36
413.948	3.9
414.31	3.81
414.672	3.55
415.035	3.78
415.397	3.85
415.759	3.72
416.121	3.72
416.483	3.9
416.845	3.42
417.206	3.68
417.568	3.66
417.93	3.58
418.292	3.55
418.653	3.57
419.015	3.67
419.377	3.6
419.738	3.63
420.1	3.67
420.461	3.49
420.822	3.5
421.184	3.55
421.545	3.63
421.906	3.54
422.267	3.47
422.629	3.66
422.99	3.57
423.351	3.67
423.712	3.64
424.073	3.75
424.434	3.54
424.795	3.62
425.155	3.62
425.516	3.6
425.877	3.65
426.238	3.64
426.598	3.67
426.959	3.53
427.32	3.68
427.68	3.66
428.041	3.68
428.401	3.59
428.761	3.66
429.122	3.65
429.482	3.67
429.842	3.8
430.202	3.75
430.563	3.75
430.923	3.79
431.283	3.88
431.643	3.77
432.003	3.83
432.363	3.92
432.722	3.68
433.082	3.77
433.442	3.75
433.802	3.72
434.161	3.81
434.521	3.89
434.881	3.85
435.24	3.72
435.6	3.77
435.959	3.78
436.319	3.74
436.678	3.96
437.037	3.8
437.396	3.79
437.756	3.8
438.115	3.89
438.474	3.97
438.833	3.99
439.192	4.02
439.551	3.88
439.91	3.86
440.269	3.93
440.628	3.8
440.987	3.71
441.345	3.85
441.704	4
442.063	3.91
442.421	3.98
442.78	3.85
443.138	3.8
443.497	3.74
443.855	3.92
444.214	4
444.572	3.86
444.93	4.05
445.288	4.01
445.647	3.97
446.005	3.86
446.363	3.94
446.721	3.86
447.079	3.86
447.437	3.84
447.795	3.82
448.153	3.79
448.51	3.89
448.868	3.92
449.226	3.91
449.584	3.96
449.941	4.1
450.299	3.95
450.656	4.05
451.014	4.06
451.371	3.99
451.729	4.01
452.086	4
452.443	3.94
452.801	4.16
453.158	4.1
453.515	4.07
453.872	4.06
454.229	3.99
454.586	4.08
454.943	4.09
455.3	4.23
455.657	4.09
456.014	4.05
456.371	4.11
456.727	4.15
457.084	3.9
457.441	4.14
457.797	4.09
458.154	4.09
458.51	4.12
458.867	4.17
459.223	4.18
459.58	4.08
459.936	4.03
460.292	4.14
460.648	3.96
461.005	3.98
461.361	4.09
461.717	4.06
462.073	4.14
462.429	4.21
462.785	4.19
463.141	4.38
463.496	4.17
463.852	4.26
464.208	4.24
464.564	4.09
464.919	4.19
465.275	4.22
465.631	4.28
465.986	4.25
466.342	4.25
466.697	4.3
467.052	4.34
467.408	4.32
467.763	4.13
468.118	4.28
468.473	4.34
468.829	4.3
469.184	4.35
469.539	4.26
469.894	4.31
470.249	4.32
470.603	4.35
470.958	4.42
471.313	4.24
471.668	4.51
472.023	4.5
472.377	4.39
472.732	4.34
473.086	4.3
473.441	4.49
473.795	4.4
474.15	4.48
474.504	4.19
474.859	4.51
475.213	4.42
475.567	4.51
475.921	4.49
476.275	4.53
476.63	4.46
476.984	4.33
477.338	4.6
477.692	4.43
478.045	4.27
478.399	4.43
478.753	4.4
479.107	4.5
479.461	4.56
479.814	4.52
480.168	4.6
480.521	4.45
480.875	4.62
481.228	4.57
481.582	4.53
481.935	4.49
482.289	4.49
482.642	4.55
482.995	4.5
483.348	4.39
483.701	4.44
484.055	4.39
484.408	4.36
484.761	4.17
485.114	4.15
485.466	4.22
485.819	4.26
486.172	4.39
486.525	4.44
486.878	4.44
487.23	4.51
487.583	4.51
487.936	4.5
488.288	4.34
488.641	4.36
488.993	4.31
489.345	4.36
489.698	4.48
490.05	4.46
490.402	4.59
490.754	4.61
491.107	4.57
491.459	4.67
491.811	4.69
492.163	4.68
492.515	4.56
492.866	4.39
493.218	4.44
493.57	4.59
493.922	4.57
494.274	4.71
494.625	4.65
494.977	4.79
495.328	4.79
495.68	4.91
496.031	4.91
496.383	4.83
496.734	4.83
497.086	4.67
497.437	5
497.788	4.77
498.139	4.8
498.49	4.78
498.842	4.89
499.193	4.87
499.544	4.88
499.894	4.83
500.245	4.81
500.596	4.93
500.947	4.9
501.298	4.95
501.648	4.93
501.999	5.09
502.35	5.13
502.7	5.11
503.051	5.13
503.401	5.03
503.752	4.91
504.102	5.07
504.452	4.89
504.803	4.99
505.153	4.98
505.503	5.07
505.853	5.01
506.203	5.15
506.553	5.2
506.903	5.18
507.253	5.18
507.603	5.01
507.953	5.27
508.303	5.06
508.652	5.13
509.002	5.13
509.352	5.11
509.701	5.14
510.051	5.25
510.4	5.15
510.75	5.14
511.099	5.18
511.449	5.2
511.798	5.39
512.147	5.16
512.496	5.3
512.846	5.2
513.195	5.29
513.544	5.21
513.893	5.23
514.242	5.46
514.591	5.29
514.939	5.27
515.288	5.27
515.637	5.47
515.986	5.23
516.334	5.36
516.683	5.32
517.032	5.36
517.38	5.39
517.729	5.47
518.077	5.39
518.426	5.35
518.774	5.3
519.122	5.36
519.47	5.44
519.819	5.37
520.167	5.35
520.515	5.35
520.863	5.41
521.211	5.42
521.559	5.43
521.907	5.42
522.255	5.43
522.602	5.54
522.95	5.62
523.298	5.5
523.645	5.55
523.993	5.67
524.341	5.64
524.688	5.55
525.036	5.65
525.383	5.74
525.73	5.66
526.078	5.71
526.425	5.62
526.772	5.45
527.119	5.57
527.466	5.56
527.814	5.59
528.161	5.69
528.508	5.68
528.854	5.57
529.201	5.56
529.548	5.45
529.895	5.4
530.242	5.41
530.588	5.52
530.935	5.67
531.282	5.7
531.628	5.74
531.975	5.87
532.321	5.79
532.667	5.86
533.014	5.83
533.36	5.87
533.706	5.88
534.052	5.79
534.399	5.75
534.745	5.69
535.091	5.75
535.437	5.88
535.783	5.89
536.129	5.95
536.474	6.02
536.82	6.08
537.166	6.14
537.512	6.05
537.857	6.05
538.203	5.95
538.549	6.16
538.894	6.05
539.239	6.21
539.585	6.29
539.93	6.32
540.276	6.32
540.621	6.26
540.966	6.3
541.311	6.3
541.656	6.08
542.001	6.23
542.346	6.16
542.691	6.04
543.036	6.09
543.381	6.19
543.726	6.24
544.071	6.39
544.415	6.29
544.76	6.25
545.105	6.37
545.449	6.34
545.794	6.46
546.138	6.45
546.483	6.58
546.827	6.56
547.171	6.65
547.516	6.66
547.86	6.62
548.204	6.53
548.548	6.62
548.892	6.64
549.236	6.65
549.58	6.75
549.924	6.85
550.268	6.91
550.612	6.93
550.956	6.65
551.3	7
551.643	6.93
551.987	7.04
552.33	6.76
552.674	6.96
553.017	7.05
553.361	7.03
553.704	6.88
554.048	6.91
554.391	7
554.734	6.97
555.077	7.07
555.42	7.13
555.764	7.28
556.107	7.21
556.45	7.12
556.793	7.34
557.135	7.37
557.478	7.27
557.821	7.23
558.164	7.46
558.507	7.22
558.849	7.25
559.192	7.38
559.534	7.18
559.877	7.48
560.219	7.65
560.562	7.54
560.904	7.45
561.246	7.62
561.589	7.51
561.931	7.84
562.273	7.53
562.615	7.63
562.957	7.66
563.299	7.77
563.641	7.77
563.983	7.61
564.325	7.69
564.667	7.75
565.008	7.56
565.35	7.97
565.692	7.96
566.033	7.88
566.375	7.8
566.716	7.7
567.058	7.91
567.399	7.9
567.741	7.91
568.082	7.79
568.423	7.97
568.764	7.95
569.105	8.02
569.447	8.17
569.788	7.98
570.129	7.96
570.47	8.17
570.811	8.22
571.151	8.12
571.492	8.22
571.833	8.26
572.174	8.15
572.514	8.14
572.855	8.25
573.195	8.15
573.536	8.26
573.876	8.23
574.217	8.41
574.557	8.39
574.898	8.26
575.238	8.43
575.578	8.62
575.918	8.44
576.258	8.48
576.598	8.51
576.938	8.61
577.278	8.5
577.618	8.51
577.958	8.62
578.298	8.78
578.638	8.63
578.977	8.9
579.317	8.88
579.657	8.94
579.996	8.91
580.336	8.79
580.675	9.06
581.014	9.01
581.354	9.06
581.693	9.07
582.032	8.8
582.372	8.93
582.711	9.15
583.05	9.25
583.389	9.12
583.728	9.45
584.067	9.24
584.406	9.38
584.745	9.2
585.083	9.73
585.422	9.44
585.761	9.71
586.1	9.52
586.438	9.64
586.777	9.7
587.115	9.61
587.454	9.51
587.792	9.43
588.13	9.77
588.469	9.7
588.807	9.8
589.145	9.76
589.483	9.47
589.821	10.01
590.159	9.76
590.497	9.55
590.835	9.72
591.173	9.98
591.511	9.88
591.849	9.91
592.187	10.02
592.524	9.82
592.862	10.09
593.2	9.96
593.537	10.24
593.875	10.07
594.212	9.94
594.55	10
594.887	10.21
595.224	10.05
595.561	10.28
595.899	10.18
596.236	10.28
596.573	10.16
596.91	10.46
597.247	10.19
597.584	10.32
597.921	10.38
598.258	10.3
598.594	10.05
598.931	10.46
599.268	10.38
599.604	10.48
599.941	10.5
600.277	10.7
600.614	10.5
600.95	10.87
601.287	10.64
601.623	10.74
601.959	10.57
602.296	11.03
602.632	10.82
602.968	11
603.304	10.83
603.64	10.77
603.976	11.03
604.312	11.02
604.648	10.97
604.984	10.85
605.319	10.79
605.655	11.02
605.991	11
606.326	10.91
606.662	11.04
606.998	11.17
607.333	11.31
607.668	11.47
608.004	11.17
608.339	11.18
608.674	11.4
609.01	11.28
609.345	11.63
609.68	11.38
610.015	11.55
610.35	11.28
610.685	11.43
611.02	11.55
611.355	11.65
611.689	11.42
612.024	11.64
612.359	11.79
612.694	12.1
613.028	11.95
613.363	11.82
613.697	12.04
614.032	11.91
614.366	11.87
614.7	12.29
615.035	12.04
615.369	12.16
615.703	12.26
616.037	12.19
616.371	12.25
616.705	12.04
617.039	12.34
617.373	12.11
617.707	12.29
618.041	12.45
618.375	12.01
618.709	12.33
619.042	12.62
619.376	12.22
619.71	12.42
620.043	12.82
620.377	12.69
620.71	12.5
621.043	12.44
621.377	12.76
621.71	12.98
622.043	12.93
622.376	12.59
622.709	13.1
623.043	12.7
623.376	12.97
623.709	13.41
624.041	12.83
624.374	12.88
624.707	13.05
625.04	13.27
625.373	12.96
625.705	13.39
626.038	12.75
626.37	13.28
626.703	12.99
627.035	13.16
627.368	13.18
627.7	13.15
628.032	13.05
628.365	12.89
628.697	13.17
629.029	13.54
629.361	13.59
629.693	13.68
630.025	13.46
630.357	13.55
630.689	13.65
631.021	14.1
631.353	13.61
631.684	13.81
632.016	13.79
632.348	14.18
632.679	13.59
633.011	14.16
633.342	13.91
633.674	13.95
634.005	14.25
634.336	14.05
634.668	13.97
634.999	14.17
635.33	13.92
635.661	14.14
635.992	13.79
636.323	14.14
636.654	14.17
636.985	14.22
637.316	14.34
637.647	14.44
637.977	14.5
638.308	14.26
638.639	14.46
638.969	14.42
639.3	14.32
639.63	14.36
639.961	14.63
640.291	14.74
640.622	14.84
640.952	14.96
641.282	14.38
641.612	14.55
641.943	15.09
642.273	14.31
642.603	14.84
642.933	14.83
643.263	14.86
643.592	15.47
643.922	15.22
644.252	15.35
644.582	15.1
644.911	14.95
645.241	14.91
645.571	15.09
645.9	15.78
646.23	15.29
646.559	15.49
646.888	15.11
647.218	15.57
647.547	15.63
647.876	15.83
648.205	15.74
648.534	15.35
648.863	15.47
649.192	15.32
649.521	15.37
649.85	16.08
650.179	15.44
650.508	16.12
650.837	15.8
651.165	15.93
651.494	15.73
651.822	16.06
652.151	16.17
652.479	16.01
652.808	15.9
653.136	15.91
653.465	16.83
653.793	16.06
654.121	16.04
654.449	16.21
654.777	16.07
655.105	16
655.433	16.42
655.761	16.18
656.089	16.85
656.417	16.27
656.745	17.02
657.073	16.9
657.4	16.56
657.728	16.86
658.056	16.13
658.383	16.66
658.711	16.72
659.038	16.79
659.365	16.9
659.693	16.66
660.02	16.61
660.347	16.48
660.674	16.74
661.001	16.4
661.329	16.87
661.656	16.72
661.982	16.85
662.309	17.27
662.636	16.83
662.963	17.16
663.29	16.86
663.616	17.04
663.943	17.19
664.27	17.61
664.596	17.11
664.923	17.74
665.249	17.23
665.576	17.54
665.902	17.27
666.228	17.61
666.554	17.35
666.881	17.73
667.207	16.88
667.533	17.73
667.859	17.41
668.185	17.83
668.511	17.05
668.837	17.09
669.162	17.33
669.488	18.22
669.814	18.25
670.139	18.44
670.465	18.04
670.791	18.19
671.116	17.87
671.442	18.18
671.767	18.04
672.092	18.17
672.418	18.37
672.743	18.68
673.068	18.11
673.393	18.18
673.718	18.55
674.043	18.66
674.368	18.76
674.693	18.82
675.018	18.45
675.343	18.56
675.667	18.48
675.992	18.28
676.317	18.74
676.641	18.3
676.966	18.85
677.29	18.26
677.615	18.67
677.939	19.15
678.264	18.47
678.588	19.17
678.912	18.91
679.236	19.72
679.56	18.83
679.885	18.36
680.209	19.1
680.532	19.04
680.856	19.47
681.18	18.76
681.504	18.77
681.828	19.14
682.152	18.8
682.475	18.64
682.799	19.68
683.122	19.01
683.446	19.52
683.769	19.28
684.093	19.79
684.416	19.53
684.739	19.99
685.062	19.95
685.386	19.77
685.709	19.57
686.032	20.16
686.355	20.3
