Data from 0056_forehead_Reflection__4__107.txt Node

Date: Fri Dec 16 14:47:21 CST 2022
User: ToomeyLab
Spectrometer: FLMS14357
Trigger mode: 0
Integration Time (sec): 1.000000E-2
Scans to average: 100
Electric dark correction enabled: true
Nonlinearity correction enabled: false
Boxcar width: 0
XAxis mode: Wavelengths
Number of Pixels in Spectrum: 2048
>>>>>Begin Spectral Data<<<<<
189.047	18.49
189.435	18.49
189.823	18.49
190.211	-6.95
190.599	355.06
190.987	-42.59
191.375	-100.32
191.763	184.42
192.151	-307.14
192.538	-383.33
192.926	-44.03
193.314	38.24
193.702	181.17
194.089	-154.3
194.477	-251.75
194.864	72.14
195.252	-83.35
195.639	86.6
196.027	85.78
196.414	-51.65
196.801	52.31
197.189	88.91
197.576	601.01
197.963	10.7
198.351	63.29
198.738	9.65
199.125	33.15
199.512	-4.58
199.899	13.98
200.286	-18.03
200.673	44.01
201.06	50.95
201.447	4.96
201.833	13.36
202.22	18.62
202.607	54.64
202.994	36.64
203.38	-18.11
203.767	-11.03
204.154	-52.08
204.54	43.37
204.927	33.91
205.313	16.4
205.699	-0.01
206.086	0.96
206.472	37.7
206.858	42.93
207.245	21.57
207.631	21.71
208.017	41.1
208.403	45.89
208.789	39.23
209.175	52.09
209.561	-18.88
209.947	19.76
210.333	34.52
210.719	-17.49
211.105	-3.44
211.491	15.01
211.876	-4.98
212.262	23.21
212.648	7.09
213.034	5.2
213.419	45.16
213.805	11.75
214.19	11.83
214.576	31.21
214.961	13.67
215.346	-4.43
215.732	-4.76
216.117	14.54
216.502	26.65
216.888	-7.91
217.273	26.3
217.658	-7.45
218.043	7.3
218.428	28.72
218.813	9.88
219.198	-24.54
219.583	4.19
219.968	9.88
220.353	9.09
220.738	6.19
221.122	-10.37
221.507	15.15
221.892	-0.43
222.276	1.64
222.661	-10.31
223.046	-1.53
223.43	-2.01
223.815	10.61
224.199	23.74
224.583	14.3
224.968	4.05
225.352	-5.04
225.736	10.06
226.121	0.1
226.505	5.44
226.889	10.44
227.273	2.91
227.657	-5.56
228.041	4.56
228.425	2.53
228.809	0.55
229.193	0.21
229.577	1.49
229.961	2.35
230.344	2.37
230.728	2.77
231.112	2.91
231.495	2.6
231.879	4.41
232.263	2.12
232.646	1.83
233.03	-1.11
233.413	0.74
233.797	5.21
234.18	3.62
234.563	0.69
234.946	1.87
235.33	2.36
235.713	3.68
236.096	2.73
236.479	2.59
236.862	4.6
237.245	5.26
237.628	2.77
238.011	3.86
238.394	3.22
238.777	3.59
239.16	3.79
239.543	3.83
239.925	3.75
240.308	2.93
240.691	4.29
241.073	3.19
241.456	3.84
241.838	3.7
242.221	3.13
242.603	3.69
242.986	4.2
243.368	3.77
243.75	3.2
244.133	3.9
244.515	3.19
244.897	3.66
245.279	3.55
245.661	2.94
246.043	3.92
246.425	4.31
246.807	4.47
247.189	4.44
247.571	4.25
247.953	3.86
248.335	3.96
248.717	4.05
249.098	3.9
249.48	3.95
249.862	4.04
250.243	4.22
250.625	4.13
251.006	4.46
251.388	5.34
251.769	3.68
252.151	5.43
252.532	4.05
252.913	3.87
253.295	4.26
253.676	4.83
254.057	3.74
254.438	3.56
254.819	4.38
255.2	4.12
255.581	3.12
255.962	4.04
256.343	4.96
256.724	4.62
257.105	5.1
257.486	4.63
257.867	3.5
258.247	4.25
258.628	4.8
259.009	4.01
259.389	4.71
259.77	4.19
260.15	4.84
260.531	4.01
260.911	4.01
261.292	3.98
261.672	3.84
262.052	3.88
262.432	3.95
262.813	4.01
263.193	3.47
263.573	3.87
263.953	4.28
264.333	4.55
264.713	3.71
265.093	4.07
265.473	3.78
265.853	4.36
266.233	4.19
266.612	3.99
266.992	3.94
267.372	3.96
267.752	2.94
268.131	3.78
268.511	4.27
268.89	4.27
269.27	4.34
269.649	4.22
270.029	3.25
270.408	4.07
270.787	3.83
271.167	3.46
271.546	3.62
271.925	3.73
272.304	4.18
272.683	3.51
273.062	3.86
273.441	3.98
273.82	3.94
274.199	3.78
274.578	3.66
274.957	3.89
275.336	3.85
275.715	4.17
276.093	4.51
276.472	3.94
276.851	3.62
277.229	4.57
277.608	3.72
277.986	3.83
278.365	3.48
278.743	4.01
279.122	3.4
279.5	2.78
279.878	3.14
280.257	3.88
280.635	3.31
281.013	4.01
281.391	3.82
281.769	3.62
282.147	4.15
282.525	3.37
282.903	3.87
283.281	4.05
283.659	3.53
284.037	3.72
284.415	4.22
284.792	3.58
285.17	3.14
285.548	4.06
285.925	3.8
286.303	3.81
286.68	4.14
287.058	3.89
287.435	3.99
287.813	3.95
288.19	4.43
288.567	3.93
288.945	3.99
289.322	4.5
289.699	4.48
290.076	4.4
290.453	3.95
290.83	4.5
291.207	4.07
291.584	4.56
291.961	4.65
292.338	4.56
292.715	4.41
293.092	4.83
293.469	4.75
293.845	4.54
294.222	4.77
294.599	5.31
294.975	5.06
295.352	4.9
295.728	5.11
296.105	5.08
296.481	5.64
296.858	5.73
297.234	5.67
297.61	5.66
297.986	5.76
298.363	5.46
298.739	5.78
299.115	5.23
299.491	5.78
299.867	5.6
300.243	6.17
300.619	5.76
300.995	5.85
301.371	6.66
301.746	5.97
302.122	6.11
302.498	5.8
302.874	6.03
303.249	6.59
303.625	6.39
304	6.42
304.376	6.37
304.751	6.55
305.127	6.13
305.502	6.58
305.878	6.33
306.253	6.13
306.628	6.78
307.003	6.7
307.378	6.68
307.754	6.4
308.129	6.75
308.504	6.3
308.879	7.06
309.254	6.91
309.629	6.8
310.003	7.31
310.378	6.38
310.753	7.65
311.128	6.83
311.502	6.7
311.877	7.02
312.252	7.23
312.626	6.65
313.001	7.02
313.375	6.79
313.75	6.73
314.124	7.45
314.498	6.95
314.873	6.92
315.247	6.74
315.621	7.54
315.995	6.93
316.369	7.41
316.743	7.77
317.117	6.87
317.491	7.21
317.865	6.71
318.239	7.97
318.613	7.63
318.987	7.39
319.361	7.47
319.734	7.86
320.108	7.65
320.482	7.53
320.855	7.93
321.229	8.49
321.602	8.01
321.976	7.73
322.349	7.33
322.723	7.29
323.096	7.37
323.469	7.63
323.843	7.37
324.216	7.67
324.589	7.96
324.962	8.22
325.335	8.17
325.708	7.69
326.081	8.4
326.454	8.05
326.827	7.83
327.2	8.25
327.573	8.05
327.945	7.92
328.318	8.2
328.691	8.01
329.063	7.88
329.436	8.02
329.809	7.88
330.181	8.09
330.553	8.55
330.926	8.29
331.298	7.5
331.671	8.15
332.043	8.58
332.415	8.42
332.787	8.48
333.159	8.41
333.532	8.11
333.904	8.31
334.276	8.47
334.648	8.25
335.02	8
335.391	8.71
335.763	7.7
336.135	8.35
336.507	8.72
336.879	8.2
337.25	8.32
337.622	8.26
337.993	8.32
338.365	8.35
338.736	8.29
339.108	8.47
339.479	8.12
339.851	8.46
340.222	8.71
340.593	8.41
340.964	8.34
341.336	7.84
341.707	8.43
342.078	8.32
342.449	8.89
342.82	8.24
343.191	7.8
343.562	8.56
343.933	8.5
344.303	8.56
344.674	8.45
345.045	8.79
345.416	8.32
345.786	7.97
346.157	8.67
346.527	8.31
346.898	8.33
347.268	8.35
347.639	8.04
348.009	8.44
348.38	8.6
348.75	8.55
349.12	8.95
349.49	8.98
349.861	9.3
350.231	8.84
350.601	8.66
350.971	8.61
351.341	8.44
351.711	9.03
352.081	8.83
352.45	8.47
352.82	8.52
353.19	8.22
353.56	8.84
353.929	8.63
354.299	8.58
354.669	8.84
355.038	8.33
355.408	9.28
355.777	8.46
356.147	9
356.516	9.11
356.885	8.43
357.254	8.77
357.624	8.68
357.993	8.6
358.362	8.77
358.731	8.64
359.1	8.67
359.469	8.74
359.838	8.63
360.207	8.58
360.576	8.6
360.945	8.61
361.314	8.51
361.682	8.35
362.051	8.47
362.42	9.07
362.788	8.73
363.157	8.25
363.525	8.52
363.894	8.42
364.262	8.45
364.631	9.17
364.999	8.48
365.367	9.01
365.735	8.25
366.104	8.4
366.472	8.71
366.84	9.1
367.208	8.47
367.576	8.96
367.944	9.04
368.312	8.22
368.68	8.7
369.048	8.97
369.416	8.7
369.783	8.69
370.151	8.93
370.519	8.9
370.886	9.08
371.254	9.17
371.621	9
371.989	8.66
372.356	8.85
372.724	9.1
373.091	8.9
373.458	8.89
373.826	8.95
374.193	9.21
374.56	8.99
374.927	8.81
375.294	9.05
375.661	9.16
376.028	9.01
376.395	9.05
376.762	9.13
377.129	9.09
377.496	8.83
377.863	9.14
378.229	9.04
378.596	9
378.963	9.07
379.329	8.93
379.696	8.99
380.062	9.3
380.429	9.16
380.795	8.68
381.161	9.05
381.528	8.89
381.894	9.37
382.26	9.04
382.626	9.01
382.993	9.04
383.359	8.98
383.725	9.35
384.091	9
384.457	9.26
384.823	9.08
385.188	9.41
385.554	9.25
385.92	9.24
386.286	9.2
386.651	9.32
387.017	9.4
387.383	9.18
387.748	8.84
388.114	9.38
388.479	9.39
388.845	9.44
389.21	9.13
389.575	9.39
389.94	9.29
390.306	9.11
390.671	9.37
391.036	9.23
391.401	9.49
391.766	9.26
392.131	9.16
392.496	9.25
392.861	9.12
393.226	9.42
393.591	9.62
393.956	9.62
394.32	9.37
394.685	9.68
395.05	9.14
395.414	9.36
395.779	9.23
396.143	9.46
396.508	9.45
396.872	9.52
397.236	9.27
397.601	9.94
397.965	9.26
398.329	9.55
398.694	9.35
399.058	9.31
399.422	9.37
399.786	9.46
400.15	9.29
400.514	9.63
400.878	9.39
401.242	9.54
401.605	9.48
401.969	9.63
402.333	9.58
402.697	9.81
403.06	9.65
403.424	9.42
403.787	10.06
404.151	9.45
404.514	9.65
404.878	9.6
405.241	9.76
405.604	9.56
405.968	9.58
406.331	9.58
406.694	9.64
407.057	9.85
407.42	9.68
407.783	9.51
408.146	9.5
408.509	9.68
408.872	9.38
409.235	9.69
409.598	9.77
409.961	9.71
410.323	9.94
410.686	9.77
411.049	9.67
411.411	9.75
411.774	9.95
412.136	9.97
412.499	9.85
412.861	9.58
413.223	10.07
413.586	9.79
413.948	9.91
414.31	9.91
414.672	9.7
415.035	9.96
415.397	10.02
415.759	9.9
416.121	10.15
416.483	10.07
416.845	9.84
417.206	9.93
417.568	9.71
417.93	9.5
418.292	9.81
418.653	9.78
419.015	10.09
419.377	9.9
419.738	9.73
420.1	9.73
420.461	9.68
420.822	9.9
421.184	9.71
421.545	9.8
421.906	9.76
422.267	9.57
422.629	9.69
422.99	9.68
423.351	9.73
423.712	9.91
424.073	9.85
424.434	9.89
424.795	9.74
425.155	9.71
425.516	9.79
425.877	9.8
426.238	9.72
426.598	9.93
426.959	9.91
427.32	10
427.68	10.04
428.041	10.17
428.401	10.04
428.761	10.17
429.122	9.91
429.482	10.23
429.842	10.07
430.202	10.25
430.563	10.09
430.923	10.05
431.283	10.23
431.643	10.21
432.003	10.39
432.363	10.3
432.722	10.27
433.082	10.23
433.442	10.33
433.802	10.31
434.161	10.08
434.521	10.13
434.881	10.32
435.24	10.21
435.6	10.29
435.959	10.3
436.319	10.29
436.678	10.42
437.037	10.34
437.396	10.34
437.756	10.4
438.115	10.51
438.474	10.44
438.833	10.59
439.192	10.68
439.551	10.52
439.91	10.32
440.269	10.53
440.628	10.39
440.987	10.34
441.345	10.23
441.704	10.31
442.063	10.4
442.421	10.43
442.78	10.35
443.138	10.37
443.497	10.31
443.855	10.47
444.214	10.41
444.572	10.41
444.93	10.6
445.288	10.59
445.647	10.5
446.005	10.48
446.363	10.59
446.721	10.37
447.079	10.45
447.437	10.37
447.795	10.33
448.153	10.45
448.51	10.4
448.868	10.52
449.226	10.58
449.584	10.62
449.941	10.64
450.299	10.7
450.656	10.91
451.014	10.64
451.371	10.77
451.729	10.89
452.086	10.66
452.443	10.78
452.801	10.83
453.158	10.75
453.515	10.86
453.872	10.84
454.229	10.68
454.586	10.79
454.943	10.91
455.3	10.97
455.657	10.82
456.014	11
456.371	11.14
456.727	10.85
457.084	10.96
457.441	11.04
457.797	11.11
458.154	11.02
458.51	10.86
458.867	11.06
459.223	11.13
459.58	10.91
459.936	11.09
460.292	11.03
460.648	10.91
461.005	10.81
461.361	10.88
461.717	10.9
462.073	11.08
462.429	11.07
462.785	11.04
463.141	11.16
463.496	11.22
463.852	11.4
464.208	11.2
464.564	11.35
464.919	11.21
465.275	11.36
465.631	11.34
465.986	11.2
466.342	11.41
466.697	11.07
467.052	11.41
467.408	11.32
467.763	11.13
468.118	11.28
468.473	11.44
468.829	11.36
469.184	11.5
469.539	11.2
469.894	11.49
470.249	11.4
470.603	11.48
470.958	11.57
471.313	11.52
471.668	11.4
472.023	11.59
472.377	11.52
472.732	11.49
473.086	11.46
473.441	11.64
473.795	11.87
474.15	11.54
474.504	11.59
474.859	11.62
475.213	11.66
475.567	11.75
475.921	11.66
476.275	11.72
476.63	11.69
476.984	11.63
477.338	11.74
477.692	11.73
478.045	11.72
478.399	11.73
478.753	11.68
479.107	11.57
479.461	11.85
479.814	11.75
480.168	11.74
480.521	11.76
480.875	11.98
481.228	11.77
481.582	11.66
481.935	11.92
482.289	11.53
482.642	11.77
482.995	11.73
483.348	11.69
483.701	11.67
484.055	11.52
484.408	11.42
484.761	11.2
485.114	11.06
485.466	11.1
485.819	11.22
486.172	11.37
486.525	11.56
486.878	11.51
487.23	11.66
487.583	11.73
487.936	11.74
488.288	11.51
488.641	11.39
488.993	11.39
489.345	11.41
489.698	11.54
490.05	11.6
490.402	11.81
490.754	11.94
491.107	11.91
491.459	12.04
491.811	12.11
492.163	11.98
492.515	11.87
492.866	11.59
493.218	11.6
493.57	11.76
493.922	11.85
494.274	11.99
494.625	12.06
494.977	12.19
495.328	12.34
495.68	12.47
496.031	12.37
496.383	12.32
496.734	12.43
497.086	12.43
497.437	12.43
497.788	12.33
498.139	12.39
498.49	12.39
498.842	12.32
499.193	12.44
499.544	12.53
499.894	12.58
500.245	12.48
500.596	12.58
500.947	12.64
501.298	12.56
501.648	12.66
501.999	12.79
502.35	12.91
502.7	12.82
503.051	12.71
503.401	12.94
503.752	12.9
504.102	12.88
504.452	12.68
504.803	12.68
505.153	12.88
505.503	12.84
505.853	12.65
506.203	12.73
506.553	12.91
506.903	12.75
507.253	12.86
507.603	12.91
507.953	12.97
508.303	12.87
508.652	12.92
509.002	13.04
509.352	12.91
509.701	12.75
510.051	12.84
510.4	12.79
510.75	12.95
511.099	12.93
511.449	12.87
511.798	13.07
512.147	13.04
512.496	13
512.846	12.97
513.195	12.99
513.544	12.98
513.893	12.97
514.242	13.08
514.591	13.05
514.939	13.11
515.288	13.2
515.637	13.34
515.986	13.19
516.334	13.25
516.683	13.22
517.032	13.24
517.38	13.29
517.729	13.3
518.077	13.27
518.426	13.28
518.774	13.16
519.122	13.17
519.47	13.22
519.819	13.11
520.167	13.12
520.515	13.08
520.863	13.22
521.211	13.26
521.559	13.23
521.907	13.42
522.255	13.42
522.602	13.55
522.95	13.51
523.298	13.48
523.645	13.55
523.993	13.76
524.341	13.54
524.688	13.68
525.036	13.74
525.383	13.68
525.73	13.76
526.078	13.66
526.425	13.48
526.772	13.27
527.119	13.35
527.466	13.35
527.814	13.41
528.161	13.44
528.508	13.34
528.854	13.33
529.201	13.17
529.548	12.99
529.895	12.86
530.242	12.91
530.588	13.01
530.935	13.25
531.282	13.32
531.628	13.37
531.975	13.5
532.321	13.59
532.667	13.68
533.014	13.74
533.36	13.78
533.706	13.69
534.052	13.53
534.399	13.36
534.745	13.36
535.091	13.41
535.437	13.56
535.783	13.73
536.129	13.79
536.474	13.9
536.82	13.92
537.166	13.95
537.512	13.91
537.857	13.76
538.203	13.68
538.549	13.89
538.894	13.91
539.239	14.21
539.585	14.25
539.93	14.22
540.276	14.18
540.621	14.27
540.966	14.32
541.311	14.31
541.656	14.07
542.001	14.04
542.346	13.73
542.691	13.51
543.036	13.61
543.381	13.8
543.726	14.02
544.071	14.02
544.415	14.06
544.76	13.97
545.105	14.14
545.449	14.19
545.794	14.39
546.138	14.44
546.483	14.41
546.827	14.48
547.171	14.48
547.516	14.56
547.86	14.48
548.204	14.34
548.548	14.53
548.892	14.5
549.236	14.68
549.58	14.7
549.924	14.81
550.268	15.01
550.612	15.12
550.956	14.88
551.3	15.07
551.643	14.95
551.987	14.99
552.33	14.97
552.674	15.18
553.017	15.18
553.361	14.87
553.704	14.8
554.048	14.86
554.391	14.86
554.734	14.9
555.077	15.08
555.42	15
555.764	15.15
556.107	15.1
556.45	15.23
556.793	15.36
557.135	15.31
557.478	15.3
557.821	15.2
558.164	15.43
558.507	15.17
558.849	15.18
559.192	15.4
559.534	15.12
559.877	15.34
560.219	15.57
560.562	15.56
560.904	15.6
561.246	15.63
561.589	15.55
561.931	15.65
562.273	15.61
562.615	15.54
562.957	15.68
563.299	15.57
563.641	15.64
563.983	15.7
564.325	15.47
564.667	15.61
565.008	15.42
565.35	15.77
565.692	15.82
566.033	15.69
566.375	15.7
566.716	15.65
567.058	15.49
567.399	15.58
567.741	15.63
568.082	15.56
568.423	15.73
568.764	15.63
569.105	15.85
569.447	15.67
569.788	15.8
570.129	15.8
570.47	15.86
570.811	15.96
571.151	15.9
571.492	16.05
571.833	15.87
572.174	15.88
572.514	15.73
572.855	15.87
573.195	15.71
573.536	15.72
573.876	15.92
574.217	15.99
574.557	15.98
574.898	15.84
575.238	16.18
575.578	16.09
575.918	15.98
576.258	15.85
576.598	15.89
576.938	16.09
577.278	16.05
577.618	16.04
577.958	16.18
578.298	16.08
578.638	16.18
578.977	16.34
579.317	16.3
579.657	16.47
579.996	16.25
580.336	15.96
580.675	16.51
581.014	16.34
581.354	16.56
581.693	16.5
582.032	16.49
582.372	16.65
582.711	16.67
583.05	16.73
583.389	16.6
583.728	16.8
584.067	16.43
584.406	17
584.745	16.63
585.083	17.1
585.422	16.72
585.761	17.03
586.1	17
586.438	17.09
586.777	16.97
587.115	16.92
587.454	17.04
587.792	16.94
588.13	17.16
588.469	16.93
588.807	16.99
589.145	17.07
589.483	16.97
589.821	17.09
590.159	16.85
590.497	16.78
590.835	16.97
591.173	16.84
591.511	17.05
591.849	16.88
592.187	17.13
592.524	16.86
592.862	17.14
593.2	17.05
593.537	17.12
593.875	17.29
594.212	17.25
594.55	17.17
594.887	17.01
595.224	17.1
595.561	17.22
595.899	17.13
596.236	17.07
596.573	17.29
596.91	17.14
597.247	17.24
597.584	17.54
597.921	16.95
598.258	16.83
598.594	16.77
598.931	17.03
599.268	17.08
599.604	17.35
599.941	17.42
600.277	17.44
600.614	17.33
600.95	17.51
601.287	17.59
601.623	17.4
601.959	17.42
602.296	17.79
602.632	17.69
602.968	17.31
603.304	17.4
603.64	17.56
603.976	17.64
604.312	17.74
604.648	17.39
604.984	17.32
605.319	17.33
605.655	17.44
605.991	17.29
606.326	17.26
606.662	17.35
606.998	17.39
607.333	17.46
607.668	17.57
608.004	17.76
608.339	17.49
608.674	17.74
609.01	17.92
609.345	17.87
609.68	17.81
610.015	17.74
610.35	17.57
610.685	17.53
611.02	17.51
611.355	17.54
611.689	17.48
612.024	17.87
612.359	17.82
612.694	18.08
613.028	18.02
613.363	17.91
613.697	18.3
614.032	18.16
614.366	17.88
614.7	18.58
615.035	18.37
615.369	17.95
615.703	18.09
616.037	18.54
616.371	18.37
616.705	18.09
617.039	18.21
617.373	18.63
617.707	18.35
618.041	18.42
618.375	18.33
618.709	18.83
619.042	18.55
619.376	18.11
619.71	18.5
620.043	18.46
620.377	18.34
620.71	18.67
621.043	18.2
621.377	18.37
621.71	18.55
622.043	18.33
622.376	18.61
622.709	18.63
623.043	18.52
623.376	18.73
623.709	18.78
624.041	18.44
624.374	18.62
624.707	18.39
625.04	18.74
625.373	18.35
625.705	18.86
626.038	18.67
626.37	18.65
626.703	18.62
627.035	19.08
627.368	18.57
627.7	18.4
628.032	18.61
628.365	18.43
628.697	18.76
629.029	18.91
629.361	18.76
629.693	18.76
630.025	18.62
630.357	18.91
630.689	18.99
631.021	18.86
631.353	19.24
631.684	18.94
632.016	18.55
632.348	19.27
632.679	18.8
633.011	19.01
633.342	18.68
633.674	19.07
634.005	19.08
634.336	19.15
634.668	18.81
634.999	19.07
635.33	18.92
635.661	18.85
635.992	18.93
636.323	19.09
636.654	19.11
636.985	19.01
637.316	19.24
637.647	19.1
637.977	19.34
638.308	18.8
638.639	19.1
638.969	19.51
639.3	19.43
639.63	19.25
639.961	19.75
640.291	19.91
640.622	19.56
640.952	19.12
641.282	19.03
641.612	19.65
641.943	19.55
642.273	19.46
642.603	19.47
642.933	19.81
643.263	19.46
643.592	19.47
643.922	20.4
644.252	19.76
644.582	19.65
644.911	19.68
645.241	19.46
645.571	19.93
645.9	19.51
646.23	19.61
646.559	19.75
646.888	19.52
647.218	20.23
647.547	19.86
647.876	19.97
648.205	19.72
648.534	19.54
648.863	19.94
649.192	19.7
649.521	19.76
649.85	20.08
650.179	19.66
650.508	20.25
650.837	19.77
651.165	19.65
651.494	20.11
651.822	19.7
652.151	20.23
652.479	20.1
652.808	19.44
653.136	19.49
653.465	20.07
653.793	20.17
654.121	19.77
654.449	19.86
654.777	20.14
655.105	20.39
655.433	20.12
655.761	19.96
656.089	20.21
656.417	20.04
656.745	20.6
657.073	20.43
657.4	19.93
657.728	19.91
658.056	19.89
658.383	20.53
658.711	20.19
659.038	20.49
659.365	20.21
659.693	20.19
660.02	20.24
660.347	20.55
660.674	19.97
661.001	19.73
661.329	20.05
661.656	20.11
661.982	20.46
662.309	20.64
662.636	20.3
662.963	20.58
663.29	20.35
663.616	20.41
663.943	20.47
664.27	20.65
664.596	20.57
664.923	21.29
665.249	20.22
665.576	20.86
665.902	20.83
666.228	20.53
666.554	20.65
666.881	21.09
667.207	20.66
667.533	20.84
667.859	20.96
668.185	20.95
668.511	20.98
668.837	20.33
669.162	20.63
669.488	20.74
669.814	21.15
670.139	20.76
670.465	21.18
670.791	20.82
671.116	20.54
671.442	20.38
671.767	21.01
672.092	21.09
672.418	20.93
672.743	21.36
673.068	21.12
673.393	20.54
673.718	20.67
674.043	21.27
674.368	20.88
674.693	21.44
675.018	21.24
675.343	20.79
675.667	21.09
