Data from 0056_forehead_Reflection__0__103.txt Node

Date: Fri Dec 16 14:46:33 CST 2022
User: ToomeyLab
Spectrometer: FLMS14357
Trigger mode: 0
Integration Time (sec): 1.000000E-2
Scans to average: 100
Electric dark correction enabled: true
Nonlinearity correction enabled: false
Boxcar width: 0
XAxis mode: Wavelengths
Number of Pixels in Spectrum: 2048
>>>>>Begin Spectral Data<<<<<
189.047	19.62
189.435	19.62
189.823	19.62
190.211	150.29
190.599	-87.47
190.987	-394.15
191.375	9.83
191.763	245.66
192.151	270.32
192.538	-280.65
192.926	97.59
193.314	102.87
193.702	-163.28
194.089	178.4
194.477	-417.25
194.864	41.32
195.252	-43.79
195.639	132.25
196.027	-6.67
196.414	78.25
196.801	84.15
197.189	93.23
197.576	-716.44
197.963	-152.98
198.351	44.07
198.738	-0.63
199.125	42.83
199.512	-18.21
199.899	-7.69
200.286	14.49
200.673	35.6
201.06	37.73
201.447	40.49
201.833	39.79
202.22	48.63
202.607	33.65
202.994	12.25
203.38	-33.61
203.767	46.98
204.154	-41.23
204.54	30.86
204.927	23.01
205.313	34.23
205.699	24.88
206.086	5.26
206.472	15.69
206.858	44.39
207.245	62.57
207.631	8.98
208.017	34.12
208.403	14.96
208.789	39.18
209.175	50.09
209.561	67.92
209.947	10.56
210.333	-46.5
210.719	-23.65
211.105	-55.86
211.491	36.84
211.876	14.86
212.262	4.05
212.648	23.54
213.034	10.17
213.419	31.16
213.805	24.22
214.19	25.32
214.576	-21.74
214.961	3.89
215.346	14.67
215.732	11.56
216.117	23.33
216.502	35.54
216.888	-3.63
217.273	32.13
217.658	5.35
218.043	39.6
218.428	5.81
218.813	-1.66
219.198	-32.73
219.583	7.01
219.968	-15.88
220.353	24.07
220.738	13.46
221.122	16.32
221.507	0.42
221.892	6.62
222.276	28.93
222.661	5.07
223.046	-1.31
223.43	10.85
223.815	5.72
224.199	25.22
224.583	17.06
224.968	12.73
225.352	6.6
225.736	14.37
226.121	-0.58
226.505	3.96
226.889	8.17
227.273	3.24
227.657	4.41
228.041	6.31
228.425	5.27
228.809	5.37
229.193	0.9
229.577	3.37
229.961	5.22
230.344	4.68
230.728	4.08
231.112	3.62
231.495	4.74
231.879	4.65
232.263	1.91
232.646	2.93
233.03	2.09
233.413	4.22
233.797	6.58
234.18	5.68
234.563	3.83
234.946	3.75
235.33	4.2
235.713	5.14
236.096	5.85
236.479	3.07
236.862	6.16
237.245	5.56
237.628	3.39
238.011	3.36
238.394	5.46
238.777	4.98
239.16	1.13
239.543	3.63
239.925	5.01
240.308	5.21
240.691	3.64
241.073	5.07
241.456	2.9
241.838	3.6
242.221	4.7
242.603	4.04
242.986	3.78
243.368	3.57
243.75	3.1
244.133	3.74
244.515	3.43
244.897	4.39
245.279	4.25
245.661	3.81
246.043	3.37
246.425	3.1
246.807	3.4
247.189	3.67
247.571	3.96
247.953	3.32
248.335	3.51
248.717	3.67
249.098	3.8
249.48	3.46
249.862	3.68
250.243	3.42
250.625	4.65
251.006	3.67
251.388	3.77
251.769	4.32
252.151	4.11
252.532	4.51
252.913	4.09
253.295	4.04
253.676	3.91
254.057	3.69
254.438	3.85
254.819	4.6
255.2	3.67
255.581	3.53
255.962	5.47
256.343	3.83
256.724	3.35
257.105	3.24
257.486	4.1
257.867	2.76
258.247	4.51
258.628	4.73
259.009	3.74
259.389	4.15
259.77	3.79
260.15	4.14
260.531	3.84
260.911	3.54
261.292	3.74
261.672	3.43
262.052	3.64
262.432	3.99
262.813	3.68
263.193	3.84
263.573	4.04
263.953	3.48
264.333	3.78
264.713	3.33
265.093	3.2
265.473	4.94
265.853	4.07
266.233	3.78
266.612	4.28
266.992	3.59
267.372	3.55
267.752	3.69
268.131	3.6
268.511	4.17
268.89	3.91
269.27	4.23
269.649	3.59
270.029	3.67
270.408	3.72
270.787	3.81
271.167	3.92
271.546	3
271.925	3.01
272.304	3.47
272.683	3.29
273.062	3.33
273.441	3.34
273.82	3.77
274.199	4.02
274.578	3.24
274.957	3.22
275.336	3.54
275.715	3.76
276.093	3.79
276.472	3.76
276.851	3.42
277.229	3.85
277.608	3.44
277.986	4.05
278.365	3.45
278.743	3.74
279.122	3.51
279.5	3.94
279.878	3.32
280.257	3.6
280.635	3.05
281.013	3.64
281.391	3.85
281.769	3.53
282.147	4.15
282.525	3.74
282.903	4.01
283.281	3.09
283.659	3.35
284.037	3.68
284.415	3.86
284.792	3.71
285.17	2.99
285.548	3.45
285.925	3.58
286.303	3.08
286.68	3.86
287.058	3.76
287.435	3.58
287.813	3.85
288.19	4.14
288.567	3.58
288.945	3.75
289.322	3.71
289.699	3.81
290.076	4.51
290.453	3.58
290.83	3.84
291.207	3.73
291.584	3.32
291.961	3.75
292.338	4.13
292.715	4.28
293.092	3.98
293.469	4.14
293.845	4.48
294.222	4.19
294.599	4.74
294.975	4.7
295.352	3.99
295.728	4.63
296.105	4.47
296.481	4.81
296.858	4.61
297.234	4.46
297.61	4.54
297.986	4.43
298.363	4.19
298.739	4.57
299.115	4.08
299.491	4.46
299.867	4.64
300.243	4.78
300.619	4.46
300.995	5.01
301.371	5.06
301.746	4.49
302.122	4.87
302.498	4.95
302.874	4.8
303.249	4.52
303.625	4.76
304	4.96
304.376	5
304.751	5.65
305.127	4.71
305.502	5.28
305.878	4.92
306.253	4.83
306.628	5.18
307.003	5.29
307.378	5.25
307.754	5.81
308.129	5.26
308.504	5.07
308.879	5.6
309.254	5.48
309.629	5.88
310.003	5.91
310.378	5.72
310.753	6.05
311.128	5.62
311.502	5.62
311.877	5.69
312.252	5.71
312.626	5.29
313.001	5.61
313.375	5.64
313.75	5.77
314.124	6.66
314.498	5.76
314.873	6.3
315.247	5.9
315.621	5.9
315.995	6.28
316.369	6.13
316.743	6.31
317.117	6.42
317.491	6.45
317.865	6.19
318.239	6.67
318.613	6.43
318.987	6.51
319.361	6.52
319.734	6.47
320.108	6.7
320.482	6.48
320.855	6.76
321.229	7.4
321.602	7.02
321.976	6.41
322.349	6.7
322.723	6.43
323.096	6.51
323.469	6.68
323.843	7.1
324.216	6.78
324.589	7.26
324.962	7.35
325.335	6.92
325.708	7.49
326.081	7.7
326.454	7.5
326.827	7.74
327.2	7.61
327.573	7.35
327.945	7.24
328.318	7.45
328.691	7.69
329.063	7.53
329.436	7.37
329.809	7.32
330.181	7.56
330.553	7.53
330.926	8.28
331.298	7.05
331.671	8.11
332.043	7.61
332.415	8.01
332.787	7.99
333.159	8.12
333.532	8.06
333.904	8.11
334.276	8.09
334.648	7.82
335.02	7.7
335.391	8.37
335.763	8.38
336.135	8.36
336.507	7.96
336.879	8.22
337.25	7.96
337.622	8.21
337.993	8.16
338.365	8.72
338.736	8.28
339.108	7.78
339.479	7.97
339.851	8.85
340.222	8.82
340.593	8.73
340.964	8.43
341.336	8.3
341.707	8.51
342.078	8.42
342.449	8.77
342.82	8.47
343.191	8.37
343.562	8.56
343.933	8.77
344.303	8.98
344.674	8.65
345.045	8.82
345.416	8.65
345.786	8.53
346.157	8.94
346.527	8.62
346.898	8.87
347.268	8.84
347.639	9.32
348.009	9.45
348.38	8.86
348.75	9.4
349.12	8.76
349.49	9.11
349.861	9.62
350.231	9.7
350.601	9.15
350.971	8.95
351.341	9.44
351.711	9.57
352.081	9.81
352.45	9.47
352.82	10.03
353.19	9.47
353.56	9.75
353.929	9.93
354.299	9.67
354.669	9.77
355.038	9.7
355.408	9.98
355.777	9.87
356.147	9.73
356.516	10.22
356.885	9.7
357.254	9.84
357.624	10.19
357.993	9.73
358.362	10.06
358.731	10.01
359.1	10.12
359.469	9.98
359.838	9.92
360.207	9.8
360.576	10.45
360.945	10.15
361.314	10.53
361.682	9.78
362.051	10.1
362.42	10.53
362.788	10.5
363.157	10
363.525	10.45
363.894	10.27
364.262	10.35
364.631	11.01
364.999	10.29
365.367	10.98
365.735	10.4
366.104	10.38
366.472	10.81
366.84	11.12
367.208	10.73
367.576	10.91
367.944	11.15
368.312	10.81
368.68	10.88
369.048	11.19
369.416	10.93
369.783	10.77
370.151	11.16
370.519	10.85
370.886	11.56
371.254	11.11
371.621	11.15
371.989	11.51
372.356	11.17
372.724	11.14
373.091	11.46
373.458	11.51
373.826	11.28
374.193	11.82
374.56	11.67
374.927	11.47
375.294	11.51
375.661	11.87
376.028	11.7
376.395	11.46
376.762	11.86
377.129	12.14
377.496	11.62
377.863	12.03
378.229	11.91
378.596	11.84
378.963	11.99
379.329	11.76
379.696	11.96
380.062	12.41
380.429	12.05
380.795	11.96
381.161	12.24
381.528	11.68
381.894	12.4
382.26	12.11
382.626	12.32
382.993	12.29
383.359	12.24
383.725	12.71
384.091	12.31
384.457	12.23
384.823	12.43
385.188	12.88
385.554	12.67
385.92	12.48
386.286	12.9
386.651	12.58
387.017	12.75
387.383	12.51
387.748	12.58
388.114	12.97
388.479	12.99
388.845	12.86
389.21	12.78
389.575	13.08
389.94	12.84
390.306	13.1
390.671	13.18
391.036	13.22
391.401	13.46
391.766	13.15
392.131	13.32
392.496	12.93
392.861	13.03
393.226	13.17
393.591	13.27
393.956	13.5
394.32	13.33
394.685	13.65
395.05	13.35
395.414	13.33
395.779	13.29
396.143	13.48
396.508	13.87
396.872	13.85
397.236	13.3
397.601	13.9
397.965	13.38
398.329	14.09
398.694	13.71
399.058	13.74
399.422	13.91
399.786	14.04
400.15	13.81
400.514	13.68
400.878	13.83
401.242	14.25
401.605	14.07
401.969	14.28
402.333	14.14
402.697	14.3
403.06	14.37
403.424	13.95
403.787	14.46
404.151	14.05
404.514	14.43
404.878	14.27
405.241	14.25
405.604	14.3
405.968	14.26
406.331	14.51
406.694	14.52
407.057	14.63
407.42	14.52
407.783	14.41
408.146	14.55
408.509	14.52
408.872	14.4
409.235	14.88
409.598	15.01
409.961	14.94
410.323	14.79
410.686	14.82
411.049	14.86
411.411	14.99
411.774	14.9
412.136	14.95
412.499	14.95
412.861	14.83
413.223	15.25
413.586	15.08
413.948	15.31
414.31	15.35
414.672	15.1
415.035	15.3
415.397	15.4
415.759	15.2
416.121	15.23
416.483	15.42
416.845	15.44
417.206	15.38
417.568	15.25
417.93	15.15
418.292	15.28
418.653	15.47
419.015	15.44
419.377	15.31
419.738	15.32
420.1	15.32
420.461	15.32
420.822	15.42
421.184	15.43
421.545	15.47
421.906	15.42
422.267	15.2
422.629	15.4
422.99	15.54
423.351	15.6
423.712	15.67
424.073	15.79
424.434	15.7
424.795	15.67
425.155	15.56
425.516	15.58
425.877	15.68
426.238	15.79
426.598	15.95
426.959	15.93
427.32	16.1
427.68	16.37
428.041	16.4
428.401	16.36
428.761	16.46
429.122	16.32
429.482	16.34
429.842	16.58
430.202	16.6
430.563	16.57
430.923	16.66
431.283	16.91
431.643	16.73
432.003	17
432.363	17.04
432.722	16.76
433.082	16.92
433.442	16.89
433.802	17.09
434.161	16.89
434.521	16.96
434.881	17
435.24	17.02
435.6	17.16
435.959	17.21
436.319	17.24
436.678	17.33
437.037	17.38
437.396	17.6
437.756	17.34
438.115	17.53
438.474	17.55
438.833	17.58
439.192	17.58
439.551	17.62
439.91	17.43
440.269	17.65
440.628	17.52
440.987	17.49
441.345	17.6
441.704	17.72
442.063	17.58
442.421	17.74
442.78	17.66
443.138	17.82
443.497	17.79
443.855	17.97
444.214	18.03
444.572	18.09
444.93	18.23
445.288	18.3
445.647	18.18
446.005	18.02
446.363	18.08
446.721	18.03
447.079	17.96
447.437	17.99
447.795	18.03
448.153	17.96
448.51	18.01
448.868	18.39
449.226	18.21
449.584	18.43
449.941	18.47
450.299	18.66
450.656	18.66
451.014	18.74
451.371	18.75
451.729	18.75
452.086	18.92
452.443	18.99
452.801	18.97
453.158	18.82
453.515	18.96
453.872	19.12
454.229	19
454.586	19.06
454.943	19.23
455.3	19.26
455.657	19.31
456.014	19.31
456.371	19.48
456.727	19.23
457.084	19.52
457.441	19.3
457.797	19.61
458.154	19.65
458.51	19.54
458.867	19.59
459.223	19.77
459.58	19.57
459.936	19.48
460.292	19.61
460.648	19.47
461.005	19.37
461.361	19.35
461.717	19.48
462.073	19.71
462.429	19.85
462.785	19.97
463.141	20.1
463.496	20.11
463.852	20.27
464.208	20.26
464.564	20.32
464.919	20.46
465.275	20.44
465.631	20.4
465.986	20.54
466.342	20.67
466.697	20.64
467.052	20.58
467.408	20.68
467.763	20.66
468.118	20.63
468.473	20.72
468.829	20.76
469.184	20.8
469.539	20.76
469.894	20.82
470.249	21.04
470.603	21.01
470.958	21.14
471.313	21.04
471.668	21.16
472.023	21.47
472.377	21.08
472.732	21.25
473.086	21.3
473.441	21.41
473.795	21.59
474.15	21.36
474.504	21.45
474.859	21.51
475.213	21.49
475.567	21.57
475.921	21.7
476.275	21.8
476.63	21.88
476.984	21.9
477.338	22.12
477.692	21.66
478.045	21.77
478.399	21.96
478.753	21.77
479.107	21.75
479.461	22.05
479.814	22.05
480.168	22.07
480.521	22.09
480.875	22.06
481.228	22.14
481.582	22.03
481.935	22.16
482.289	22.12
482.642	22.31
482.995	22.08
483.348	21.94
483.701	21.95
484.055	21.85
484.408	21.61
484.761	21.32
485.114	21.23
485.466	21.27
485.819	21.46
486.172	21.68
486.525	21.77
486.878	21.98
487.23	22.11
487.583	22.22
487.936	22.22
488.288	22.01
488.641	21.89
488.993	21.87
489.345	21.91
489.698	22
490.05	22.12
490.402	22.47
490.754	22.62
491.107	22.79
491.459	22.88
491.811	22.96
492.163	23.03
492.515	22.6
492.866	22.35
493.218	22.39
493.57	22.56
493.922	22.78
494.274	23.13
494.625	23.1
494.977	23.35
495.328	23.41
495.68	23.7
496.031	23.87
496.383	23.87
496.734	23.9
497.086	23.77
497.437	23.84
497.788	23.82
498.139	23.81
498.49	23.74
498.842	23.71
499.193	23.88
499.544	23.99
499.894	24.19
500.245	24.13
500.596	24.26
500.947	24.32
501.298	24.3
501.648	24.68
501.999	24.62
502.35	24.58
502.7	24.66
503.051	24.82
503.401	24.63
503.752	25.01
504.102	24.98
504.452	24.81
504.803	24.68
505.153	24.97
505.503	24.8
505.853	24.93
506.203	25.02
506.553	25.2
506.903	25.23
507.253	25.45
507.603	25.18
507.953	25.32
508.303	25.37
508.652	25.1
509.002	25.31
509.352	25.23
509.701	25.19
510.051	25.32
510.4	25.18
510.75	25.23
511.099	25.34
511.449	25.48
511.798	25.59
512.147	25.55
512.496	25.77
512.846	25.7
513.195	25.6
513.544	25.64
513.893	25.62
514.242	25.9
514.591	25.93
514.939	25.79
515.288	25.88
515.637	26.13
515.986	26.21
516.334	26.38
516.683	26.13
517.032	26.25
517.38	26.31
517.729	26.37
518.077	26.42
518.426	26.37
518.774	26.33
519.122	26.17
519.47	26.04
519.819	26.07
520.167	26.1
520.515	26.1
520.863	26.21
521.211	26.39
521.559	26.45
521.907	26.53
522.255	26.77
522.602	26.83
522.95	26.99
523.298	26.92
523.645	26.97
523.993	27.18
524.341	27.19
524.688	27.17
525.036	27.16
525.383	27.32
525.73	27.31
526.078	27.23
526.425	27.01
526.772	26.77
527.119	26.8
527.466	26.81
527.814	26.91
528.161	27.08
528.508	26.96
528.854	27.04
529.201	26.8
529.548	26.62
529.895	26.47
530.242	26.54
530.588	26.69
530.935	26.83
531.282	26.99
531.628	27.14
531.975	27.27
532.321	27.51
532.667	27.57
533.014	27.73
533.36	27.81
533.706	27.8
534.052	27.65
534.399	27.4
534.745	27.38
535.091	27.43
535.437	27.59
535.783	27.83
536.129	28.03
536.474	28.13
536.82	28.3
537.166	28.39
537.512	28.37
537.857	28.18
538.203	28.05
538.549	28.23
538.894	28.38
539.239	28.56
539.585	28.75
539.93	28.8
540.276	28.81
540.621	28.9
540.966	28.97
541.311	29.01
541.656	28.78
542.001	28.85
542.346	28.39
542.691	28.13
543.036	28.23
543.381	28.4
543.726	28.65
544.071	28.63
544.415	28.76
544.76	28.74
545.105	29.1
545.449	29.05
545.794	29.38
546.138	29.49
546.483	29.43
546.827	29.56
547.171	29.65
547.516	29.68
547.86	29.65
548.204	29.54
548.548	29.73
548.892	29.79
549.236	29.94
549.58	30.14
549.924	30.07
550.268	30.21
550.612	30.44
550.956	30.4
551.3	30.38
551.643	30.68
551.987	30.54
552.33	30.6
552.674	30.85
553.017	30.76
553.361	30.53
553.704	30.59
554.048	30.61
554.391	30.77
554.734	30.7
555.077	30.93
555.42	30.7
555.764	31.11
556.107	30.99
556.45	30.97
556.793	31.2
557.135	31.28
557.478	31.28
557.821	31.45
558.164	31.53
558.507	31.18
558.849	31.63
559.192	31.44
559.534	31.49
559.877	31.8
560.219	31.93
560.562	31.87
560.904	31.72
561.246	31.93
561.589	31.96
561.931	31.84
562.273	31.96
562.615	31.97
562.957	31.8
563.299	32.07
563.641	32.05
563.983	31.92
564.325	32.18
564.667	32.21
565.008	32.04
565.35	32.58
565.692	32.57
566.033	32.49
566.375	32.41
566.716	32.44
567.058	32.38
567.399	32.21
567.741	32.27
568.082	32.34
568.423	32.21
568.764	32.36
569.105	32.43
569.447	32.75
569.788	32.94
570.129	32.91
570.47	32.89
570.811	33.12
571.151	32.95
571.492	32.83
571.833	33.35
572.174	32.77
572.514	32.89
572.855	32.97
573.195	33.06
573.536	32.88
573.876	33.09
574.217	33.05
574.557	33.22
574.898	33.08
575.238	33.23
575.578	33.59
575.918	33.31
576.258	33.36
576.598	33.41
576.938	33.56
577.278	33.42
577.618	33.49
577.958	33.61
578.298	33.63
578.638	33.68
578.977	34.01
579.317	34.1
579.657	34.21
579.996	34.01
580.336	34.17
580.675	34.41
581.014	34.14
581.354	34.31
581.693	34.47
582.032	34.49
582.372	34.55
582.711	34.38
583.05	34.55
583.389	34.77
583.728	34.74
584.067	34.69
584.406	34.85
584.745	34.72
585.083	34.91
585.422	35.13
585.761	35.11
586.1	35.17
586.438	35.1
586.777	35.18
587.115	35.32
587.454	35.03
587.792	35.15
588.13	35.51
588.469	35.25
588.807	35.42
589.145	35.53
589.483	35.27
589.821	35.51
590.159	35.38
590.497	35.12
590.835	35.48
591.173	35.49
591.511	35.45
591.849	35.55
592.187	35.86
592.524	35.52
592.862	35.6
593.2	35.82
593.537	35.93
593.875	35.88
594.212	36.03
594.55	36.03
594.887	35.87
595.224	35.57
595.561	35.82
595.899	36.18
596.236	36.03
596.573	36.01
596.91	36.24
597.247	35.95
597.584	36.11
597.921	36.15
598.258	35.91
598.594	35.72
598.931	35.87
599.268	36.14
599.604	36.32
599.941	36.13
600.277	36.44
600.614	36.59
600.95	36.83
601.287	36.87
601.623	36.42
601.959	36.54
602.296	36.97
602.632	37.01
602.968	36.65
603.304	36.86
603.64	36.7
603.976	37.07
604.312	37.11
604.648	36.87
604.984	36.64
605.319	36.44
605.655	36.85
605.991	36.59
606.326	36.68
606.662	36.65
606.998	36.85
607.333	37.01
607.668	37.16
608.004	37.32
608.339	37.18
608.674	37.53
609.01	37.5
609.345	37.67
609.68	37.59
610.015	37.82
610.35	37.48
610.685	37.45
611.02	37.56
611.355	37.4
611.689	37.33
612.024	37.46
612.359	37.76
612.694	37.77
613.028	38.02
613.363	37.99
613.697	38.05
614.032	38.13
614.366	38.16
614.7	38.32
615.035	38.33
615.369	38.25
615.703	38.32
616.037	37.99
616.371	38.21
616.705	38.06
617.039	38.5
617.373	38.51
617.707	38.19
618.041	38.56
618.375	38.45
618.709	38.22
619.042	38.43
619.376	38.52
619.71	38.93
620.043	38.93
620.377	39.11
620.71	38.96
621.043	38.43
621.377	38.99
621.71	38.76
622.043	38.76
622.376	38.91
622.709	39.32
623.043	39.22
623.376	39.13
623.709	39.4
624.041	39.22
624.374	39.08
624.707	38.94
625.04	38.94
625.373	39.43
625.705	39.26
626.038	39.43
626.37	39.72
626.703	39.8
627.035	39.42
627.368	39.67
627.7	39.44
628.032	39.28
628.365	39.09
628.697	39.46
629.029	39.74
629.361	39.92
629.693	39.26
630.025	39.76
630.357	39.63
630.689	39.93
631.021	39.95
631.353	39.87
631.684	40.06
632.016	39.79
632.348	39.9
632.679	40.4
633.011	40.14
633.342	40.22
633.674	40.62
634.005	40.28
634.336	40.21
634.668	39.82
634.999	40.3
635.33	40.03
635.661	40.73
635.992	39.97
636.323	40.21
636.654	40.32
636.985	40.4
637.316	40.56
637.647	40.44
637.977	40.49
638.308	40.5
638.639	40.56
638.969	40.69
639.3	40.68
639.63	40.43
639.961	40.93
640.291	41.31
640.622	41.05
640.952	40.81
641.282	40.27
641.612	40.84
641.943	41.24
642.273	41.08
642.603	40.65
642.933	41.25
643.263	41.02
643.592	41.02
643.922	41.69
644.252	41.29
644.582	40.94
644.911	40.88
645.241	41.13
645.571	40.98
645.9	41.27
646.23	41.17
646.559	41.97
646.888	41.15
647.218	41.13
647.547	41.94
647.876	41.74
648.205	41.37
648.534	41.09
648.863	41.7
649.192	40.98
649.521	41.57
649.85	42.18
650.179	41.51
650.508	42.16
650.837	41.92
651.165	41.89
651.494	41.94
651.822	41.8
652.151	41.74
652.479	42.32
652.808	42.06
653.136	41.93
653.465	41.29
653.793	42.67
654.121	41.99
654.449	42
654.777	42.05
655.105	42.34
655.433	42.35
655.761	41.78
656.089	41.72
656.417	42.23
656.745	42.33
657.073	42.9
657.4	42.7
657.728	42.38
658.056	42.34
658.383	42.93
658.711	42.66
659.038	42.78
659.365	42.75
659.693	42.58
660.02	42.57
660.347	42.91
660.674	42.44
661.001	42.53
661.329	42.71
661.656	42.53
661.982	42.71
662.309	42.67
662.636	42.62
662.963	43.12
663.29	43.11
663.616	42.53
663.943	43.17
664.27	42.48
664.596	43.01
664.923	43.4
665.249	43.17
665.576	43.77
665.902	43.74
666.228	43.2
666.554	42.91
666.881	43.41
667.207	43.13
667.533	43.38
667.859	42.74
668.185	43.18
668.511	43.41
668.837	43.37
669.162	43.37
669.488	43.63
669.814	43.56
670.139	44.08
670.465	43.67
670.791	43.58
671.116	43.71
671.442	43.36
