Data from 0056_crown_Reflection__4__102.txt Node

Date: Fri Dec 16 14:46:06 CST 2022
User: ToomeyLab
Spectrometer: FLMS14357
Trigger mode: 0
Integration Time (sec): 1.000000E-2
Scans to average: 100
Electric dark correction enabled: true
Nonlinearity correction enabled: false
Boxcar width: 0
XAxis mode: Wavelengths
Number of Pixels in Spectrum: 2048
>>>>>Begin Spectral Data<<<<<
189.047	12.83
189.435	12.83
189.823	12.83
190.211	22.48
190.599	245.17
190.987	-67.19
191.375	32.31
191.763	44.57
192.151	270
192.538	14.32
192.926	-56.12
193.314	89.53
193.702	426.77
194.089	98.71
194.477	-409.83
194.864	-67.35
195.252	84.05
195.639	91.99
196.027	-0.68
196.414	224.6
196.801	-56.71
197.189	55.37
197.576	-205.7
197.963	-120.69
198.351	-2.46
198.738	-32.14
199.125	42.36
199.512	-13.36
199.899	-14.22
200.286	-45.67
200.673	39.27
201.06	30.59
201.447	29.21
201.833	-5.43
202.22	5.67
202.607	-8.35
202.994	-18.9
203.38	-28.44
203.767	-52.36
204.154	-68.07
204.54	11.15
204.927	-34.43
205.313	-2.73
205.699	11.91
206.086	-2.83
206.472	7.71
206.858	29.5
207.245	3.18
207.631	-36.94
208.017	13.63
208.403	36.64
208.789	22.12
209.175	14.87
209.561	1.69
209.947	-35.21
210.333	-48.14
210.719	3.26
211.105	-23.89
211.491	-11.41
211.876	-19.14
212.262	-12.74
212.648	-33.24
213.034	-12.56
213.419	18.38
213.805	-9.52
214.19	0.32
214.576	-12.19
214.961	-44.76
215.346	-74.73
215.732	-8.1
216.117	-33.95
216.502	-32.69
216.888	-17.32
217.273	14.85
217.658	-47.19
218.043	-12.11
218.428	-3.72
218.813	-5.05
219.198	-44.31
219.583	3.46
219.968	-22.26
220.353	8.72
220.738	4.84
221.122	-12.43
221.507	-9.11
221.892	-7.28
222.276	4.86
222.661	-7.17
223.046	1.65
223.43	-8.88
223.815	0.36
224.199	-6.1
224.583	-3
224.968	1.16
225.352	-1.44
225.736	3.57
226.121	-1.74
226.505	6.8
226.889	4.77
227.273	7.59
227.657	4.3
228.041	2.51
228.425	2.92
228.809	1.75
229.193	2.19
229.577	4.9
229.961	5.03
230.344	5.33
230.728	5.05
231.112	4.96
231.495	5.24
231.879	6.57
232.263	5.11
232.646	6.29
233.03	2.87
233.413	1.31
233.797	5.98
234.18	3.48
234.563	4.81
234.946	3.22
235.33	3.84
235.713	3.62
236.096	3.39
236.479	5.42
236.862	6.43
237.245	7.62
237.628	6.51
238.011	2.31
238.394	6.07
238.777	4.37
239.16	3.01
239.543	2.48
239.925	6.61
240.308	3.39
240.691	2.97
241.073	3.8
241.456	4.21
241.838	3.36
242.221	4.84
242.603	5.02
242.986	5.57
243.368	4.85
243.75	4.68
244.133	4.61
244.515	4.47
244.897	4.12
245.279	4.28
245.661	4.31
246.043	4.77
246.425	3.81
246.807	4.74
247.189	4.31
247.571	4.67
247.953	4.62
248.335	4.77
248.717	4.6
249.098	4.48
249.48	4.35
249.862	4.88
250.243	4.66
250.625	4.84
251.006	4.5
251.388	5.19
251.769	4.42
252.151	3.98
252.532	4.8
252.913	4.06
253.295	4.37
253.676	4.21
254.057	3.54
254.438	4.22
254.819	5
255.2	3.24
255.581	4.26
255.962	3.87
256.343	4.02
256.724	4.03
257.105	4.06
257.486	4.65
257.867	1.98
258.247	3.57
258.628	5.45
259.009	4.19
259.389	4.65
259.77	3.9
260.15	4.42
260.531	4.34
260.911	4.4
261.292	4.41
261.672	4.05
262.052	4.01
262.432	4.08
262.813	4.45
263.193	3.79
263.573	4.52
263.953	4.22
264.333	3.77
264.713	3.3
265.093	4.04
265.473	4.22
265.853	4.16
266.233	4.25
266.612	4.87
266.992	4.38
267.372	4.23
267.752	3.7
268.131	4.04
268.511	4.37
268.89	4.31
269.27	4.03
269.649	4.39
270.029	4.12
270.408	3.68
270.787	3.64
271.167	4.45
271.546	3.96
271.925	4.22
272.304	4.16
272.683	3.56
273.062	4.33
273.441	4.13
273.82	4.57
274.199	3.92
274.578	3.77
274.957	4.32
275.336	3.99
275.715	4.4
276.093	5
276.472	4.35
276.851	4.64
277.229	4.7
277.608	3.8
277.986	4.08
278.365	3.68
278.743	4.13
279.122	3.78
279.5	4.09
279.878	3.45
280.257	4.47
280.635	3.82
281.013	4.94
281.391	4.33
281.769	4.01
282.147	3.96
282.525	3.72
282.903	4
283.281	4.14
283.659	4.15
284.037	3.59
284.415	3.98
284.792	3.84
285.17	3.56
285.548	4.07
285.925	4.18
286.303	3.96
286.68	3.93
287.058	3.61
287.435	3.9
287.813	4.25
288.19	4.22
288.567	3.43
288.945	3.92
289.322	3.98
289.699	4.26
290.076	4.41
290.453	4.1
290.83	4.21
291.207	4.08
291.584	3.63
291.961	3.76
292.338	3.86
292.715	3.95
293.092	3.72
293.469	4.02
293.845	4.64
294.222	3.67
294.599	4.28
294.975	3.67
295.352	3.81
295.728	3.78
296.105	3.69
296.481	4.1
296.858	3.91
297.234	3.82
297.61	4.08
297.986	3.67
298.363	3.4
298.739	3.77
299.115	3.39
299.491	3.73
299.867	4
300.243	3.81
300.619	3.75
300.995	3.81
301.371	4.11
301.746	3.74
302.122	3.75
302.498	3.55
302.874	3.33
303.249	4.35
303.625	3.54
304	3.33
304.376	3.7
304.751	3.76
305.127	3.67
305.502	4.04
305.878	3.74
306.253	3.9
306.628	4.17
307.003	3.97
307.378	3.84
307.754	4.19
308.129	3.45
308.504	3.78
308.879	3.38
309.254	3.6
309.629	3.53
310.003	3.99
310.378	3.98
310.753	3.76
311.128	3.46
311.502	3.62
311.877	4.02
312.252	3.73
312.626	3.45
313.001	3.58
313.375	3.66
313.75	3.34
314.124	4.05
314.498	3.43
314.873	3.77
315.247	3.01
315.621	3.96
315.995	3.75
316.369	3.6
316.743	3.88
317.117	4.05
317.491	4.28
317.865	3.04
318.239	4
318.613	3.57
318.987	3.65
319.361	3.78
319.734	3.83
320.108	3.87
320.482	3.51
320.855	3.5
321.229	3.39
321.602	3.58
321.976	3.65
322.349	3.23
322.723	2.81
323.096	3.3
323.469	3.06
323.843	3.29
324.216	3.44
324.589	3.55
324.962	3.6
325.335	3.57
325.708	3.77
326.081	3.69
326.454	3.6
326.827	3.63
327.2	3.78
327.573	3.57
327.945	3.34
328.318	3.77
328.691	3.74
329.063	3.19
329.436	3.38
329.809	3.38
330.181	3.21
330.553	4.66
330.926	3.56
331.298	3.44
331.671	2.99
332.043	3.67
332.415	3.96
332.787	4.09
333.159	3.41
333.532	3.99
333.904	3.92
334.276	3.75
334.648	3.99
335.02	3.26
335.391	3.49
335.763	3.26
336.135	3.89
336.507	3.55
336.879	3.51
337.25	3.88
337.622	3.61
337.993	3.46
338.365	3.93
338.736	3.4
339.108	3.54
339.479	3.63
339.851	3.92
340.222	3.64
340.593	3.23
340.964	3.53
341.336	3.11
341.707	3.71
342.078	2.9
342.449	4.02
342.82	3.55
343.191	3.4
343.562	3.61
343.933	3.7
344.303	3.71
344.674	3.45
345.045	3.98
345.416	3.31
345.786	3.36
346.157	3.87
346.527	3.27
346.898	3.79
347.268	3.38
347.639	3.72
348.009	3.71
348.38	3.78
348.75	3.63
349.12	3.73
349.49	3.37
349.861	3.64
350.231	3.74
350.601	4
350.971	3.68
351.341	3.48
351.711	3.59
352.081	3.52
352.45	3.39
352.82	3.44
353.19	3.29
353.56	3.27
353.929	3.77
354.299	3.7
354.669	3.5
355.038	3.54
355.408	3.81
355.777	3.45
356.147	3.46
356.516	4.03
356.885	3.4
357.254	3.67
357.624	3.51
357.993	3.62
358.362	3.78
358.731	3.67
359.1	3.62
359.469	3.74
359.838	3.14
360.207	3.25
360.576	3.78
360.945	3.22
361.314	3.87
361.682	3.33
362.051	3.43
362.42	3.71
362.788	3.61
363.157	3.38
363.525	3.58
363.894	3.43
364.262	3.43
364.631	4.11
364.999	3.28
365.367	3.76
365.735	3.27
366.104	3.08
366.472	3.62
366.84	3.61
367.208	3.46
367.576	3.56
367.944	3.76
368.312	2.99
368.68	3.52
369.048	3.68
369.416	3.52
369.783	3.56
370.151	3.69
370.519	3.6
370.886	3.79
371.254	3.79
371.621	3.53
371.989	3.46
372.356	3.53
372.724	3.59
373.091	3.46
373.458	3.65
373.826	3.61
374.193	3.85
374.56	3.37
374.927	3.72
375.294	3.72
375.661	3.65
376.028	3.69
376.395	3.25
376.762	3.9
377.129	3.74
377.496	3.77
377.863	3.44
378.229	3.6
378.596	3.51
378.963	3.49
379.329	3.7
379.696	3.77
380.062	3.9
380.429	3.81
380.795	3.44
381.161	3.73
381.528	3.34
381.894	3.52
382.26	3.27
382.626	3.49
382.993	3.26
383.359	3.49
383.725	3.72
384.091	3.53
384.457	3.57
384.823	3.62
385.188	3.97
385.554	3.8
385.92	3.95
386.286	3.89
386.651	3.37
387.017	3.43
387.383	3.85
387.748	3.46
388.114	3.72
388.479	3.77
388.845	3.73
389.21	3.66
389.575	4.02
389.94	3.59
390.306	3.72
390.671	3.62
391.036	3.67
391.401	4.11
391.766	3.67
392.131	3.6
392.496	3.57
392.861	3.58
393.226	3.77
393.591	3.75
393.956	3.65
394.32	3.54
394.685	3.84
395.05	3.65
395.414	3.83
395.779	3.88
396.143	3.69
396.508	3.79
396.872	3.74
397.236	3.4
397.601	3.73
397.965	3.59
398.329	3.87
398.694	3.81
399.058	4.04
399.422	3.55
399.786	3.87
400.15	3.75
400.514	3.59
400.878	3.37
401.242	3.71
401.605	3.52
401.969	3.7
402.333	3.62
402.697	3.96
403.06	3.88
403.424	3.6
403.787	3.96
404.151	3.79
404.514	3.97
404.878	3.89
405.241	3.77
405.604	3.67
405.968	3.75
406.331	3.87
406.694	3.76
407.057	4.01
407.42	3.75
407.783	3.73
408.146	3.79
408.509	3.49
408.872	3.64
409.235	3.89
409.598	3.79
409.961	3.93
410.323	3.73
410.686	3.75
411.049	3.55
411.411	3.75
411.774	3.77
412.136	3.81
412.499	3.67
412.861	3.75
413.223	3.85
413.586	3.63
413.948	3.53
414.31	3.92
414.672	3.58
415.035	3.98
415.397	3.89
415.759	3.76
416.121	3.91
416.483	3.97
416.845	3.91
417.206	3.92
417.568	3.78
417.93	3.82
418.292	3.76
418.653	3.89
419.015	3.83
419.377	3.91
419.738	3.86
420.1	3.79
420.461	3.67
420.822	3.84
421.184	3.79
421.545	3.73
421.906	3.87
422.267	3.61
422.629	3.83
422.99	3.79
423.351	3.75
423.712	3.78
424.073	3.91
424.434	3.74
424.795	3.78
425.155	3.75
425.516	3.71
425.877	3.86
426.238	3.67
426.598	3.8
426.959	3.76
427.32	3.76
427.68	3.87
428.041	3.86
428.401	3.85
428.761	3.81
429.122	3.91
429.482	3.82
429.842	4.06
430.202	3.85
430.563	3.8
430.923	3.75
431.283	3.91
431.643	3.76
432.003	3.87
432.363	3.9
432.722	3.73
433.082	3.97
433.442	3.82
433.802	3.99
434.161	3.7
434.521	3.8
434.881	4
435.24	3.79
435.6	3.86
435.959	3.93
436.319	3.79
436.678	3.82
437.037	3.82
437.396	3.96
437.756	3.82
438.115	3.91
438.474	4
438.833	3.91
439.192	3.96
439.551	3.89
439.91	3.94
440.269	4.08
440.628	3.77
440.987	3.76
441.345	3.81
441.704	3.91
442.063	3.88
442.421	4.01
442.78	3.9
443.138	3.86
443.497	3.85
443.855	3.91
444.214	3.82
444.572	3.9
444.93	3.97
445.288	3.96
445.647	3.92
446.005	3.77
446.363	3.93
446.721	3.68
447.079	3.98
447.437	3.81
447.795	3.89
448.153	3.88
448.51	3.82
448.868	3.97
449.226	3.89
449.584	3.95
449.941	4.02
450.299	3.82
450.656	3.89
451.014	3.93
451.371	3.97
451.729	3.87
452.086	3.76
452.443	3.85
452.801	3.93
453.158	3.96
453.515	4
453.872	4.17
454.229	3.86
454.586	4.01
454.943	3.91
455.3	4.03
455.657	3.91
456.014	4.06
456.371	4.09
456.727	3.77
457.084	3.94
457.441	3.82
457.797	3.99
458.154	3.95
458.51	4.05
458.867	3.92
459.223	3.94
459.58	3.89
459.936	3.82
460.292	4.02
460.648	3.86
461.005	3.88
461.361	3.94
461.717	3.99
462.073	3.93
462.429	3.94
462.785	4.02
463.141	4.13
463.496	3.99
463.852	4.19
464.208	4.08
464.564	3.97
464.919	3.99
465.275	4.16
465.631	3.96
465.986	3.93
466.342	4.05
466.697	3.85
467.052	4.18
467.408	4.06
467.763	3.94
468.118	4.04
468.473	4.04
468.829	3.98
469.184	4.19
469.539	3.77
469.894	4.03
470.249	4.15
470.603	4
470.958	4.12
471.313	4.05
471.668	4.26
472.023	4.02
472.377	4.01
472.732	4.1
473.086	3.91
473.441	4.03
473.795	4.11
474.15	3.96
474.504	4.02
474.859	4.05
475.213	3.88
475.567	4.01
475.921	4.16
476.275	4.02
476.63	3.99
476.984	4.07
477.338	4.33
477.692	4.1
478.045	3.95
478.399	4.06
478.753	4.02
479.107	3.98
479.461	4.18
479.814	4.06
480.168	4.05
480.521	4.06
480.875	4.21
481.228	4.03
481.582	3.98
481.935	4
482.289	3.94
482.642	4.14
482.995	4.03
483.348	3.95
483.701	4.07
484.055	3.99
484.408	3.92
484.761	3.86
485.114	3.86
485.466	3.86
485.819	3.87
486.172	3.89
486.525	3.93
486.878	3.97
487.23	3.94
487.583	3.92
487.936	3.99
488.288	3.88
488.641	3.97
488.993	3.87
489.345	3.91
489.698	3.99
490.05	3.9
490.402	3.99
490.754	4
491.107	4.06
491.459	4.15
491.811	4.21
492.163	4.06
492.515	4.08
492.866	3.92
493.218	3.95
493.57	3.99
493.922	3.98
494.274	4.02
494.625	4.04
494.977	4.1
495.328	4.25
495.68	4.22
496.031	4.16
496.383	4.07
496.734	4.31
497.086	3.98
497.437	4.16
497.788	4.09
498.139	4.15
498.49	4.09
498.842	4.21
499.193	4.16
499.544	4.18
499.894	4.22
500.245	4.19
500.596	4.19
500.947	4.19
501.298	4.15
501.648	4.17
501.999	4.34
502.35	4.27
502.7	4.26
503.051	4.29
503.401	4.17
503.752	4.26
504.102	4.25
504.452	4.19
504.803	4.16
505.153	4.26
505.503	4.21
505.853	4.07
506.203	4.1
506.553	4.14
506.903	4.2
507.253	4.26
507.603	4.2
507.953	4.31
508.303	4.31
508.652	4.31
509.002	4.25
509.352	4.27
509.701	4.24
510.051	4.21
510.4	4.15
510.75	4.17
511.099	4.17
511.449	4.2
511.798	4.28
512.147	4.22
512.496	4.3
512.846	4.26
513.195	4.28
513.544	4.19
513.893	4.26
514.242	4.31
514.591	4.18
514.939	4.2
515.288	4.37
515.637	4.29
515.986	4.26
516.334	4.32
516.683	4.3
517.032	4.28
517.38	4.23
517.729	4.3
518.077	4.31
518.426	4.22
518.774	4.23
519.122	4.16
519.47	4.22
519.819	4.28
520.167	4.2
520.515	4.19
520.863	4.28
521.211	4.24
521.559	4.27
521.907	4.27
522.255	4.39
522.602	4.35
522.95	4.36
523.298	4.31
523.645	4.3
523.993	4.43
524.341	4.4
524.688	4.23
525.036	4.43
525.383	4.37
525.73	4.43
526.078	4.39
526.425	4.32
526.772	4.21
527.119	4.24
527.466	4.23
527.814	4.27
528.161	4.31
528.508	4.28
528.854	4.28
529.201	4.21
529.548	4.18
529.895	4.16
530.242	4.14
530.588	4.17
530.935	4.18
531.282	4.21
531.628	4.23
531.975	4.25
532.321	4.23
532.667	4.3
533.014	4.32
533.36	4.37
533.706	4.37
534.052	4.22
534.399	4.22
534.745	4.23
535.091	4.25
535.437	4.28
535.783	4.33
536.129	4.34
536.474	4.34
536.82	4.35
537.166	4.28
537.512	4.38
537.857	4.37
538.203	4.35
538.549	4.44
538.894	4.35
539.239	4.45
539.585	4.41
539.93	4.36
540.276	4.41
540.621	4.46
540.966	4.41
541.311	4.38
541.656	4.43
542.001	4.48
542.346	4.39
542.691	4.29
543.036	4.24
543.381	4.28
543.726	4.35
544.071	4.43
544.415	4.36
544.76	4.29
545.105	4.48
545.449	4.31
545.794	4.38
546.138	4.45
546.483	4.4
546.827	4.4
547.171	4.48
547.516	4.53
547.86	4.37
548.204	4.43
548.548	4.48
548.892	4.44
549.236	4.62
549.58	4.48
549.924	4.51
550.268	4.62
550.612	4.58
550.956	4.41
551.3	4.49
551.643	4.64
551.987	4.37
552.33	4.57
552.674	4.67
553.017	4.45
553.361	4.45
553.704	4.45
554.048	4.62
554.391	4.64
554.734	4.54
555.077	4.54
555.42	4.61
555.764	4.59
556.107	4.6
556.45	4.49
556.793	4.69
557.135	4.72
557.478	4.66
557.821	4.47
558.164	4.73
558.507	4.53
558.849	4.61
559.192	4.73
559.534	4.42
559.877	4.69
560.219	4.75
560.562	4.73
560.904	4.73
561.246	4.69
561.589	4.73
561.931	4.59
562.273	4.5
562.615	4.56
562.957	4.68
563.299	4.66
563.641	4.66
563.983	4.6
564.325	4.61
564.667	4.71
565.008	4.51
565.35	4.75
565.692	4.77
566.033	4.77
566.375	4.54
566.716	4.68
567.058	4.7
567.399	4.66
567.741	4.73
568.082	4.56
568.423	4.67
568.764	4.76
569.105	4.76
569.447	4.74
569.788	4.78
570.129	4.8
570.47	4.71
570.811	4.7
571.151	4.7
571.492	4.88
571.833	4.82
572.174	4.82
572.514	4.58
572.855	4.82
573.195	4.69
573.536	4.72
573.876	4.73
574.217	4.68
574.557	4.74
574.898	4.61
575.238	4.57
575.578	4.74
575.918	4.77
576.258	4.75
576.598	4.76
576.938	4.89
577.278	4.7
577.618	4.78
577.958	4.67
578.298	4.86
578.638	4.72
578.977	4.93
579.317	4.88
579.657	4.85
579.996	4.79
580.336	4.48
580.675	4.8
581.014	4.84
581.354	4.83
581.693	4.61
582.032	4.69
582.372	4.89
582.711	4.79
583.05	4.94
583.389	4.78
583.728	4.88
584.067	4.78
584.406	4.89
584.745	4.83
585.083	5.15
585.422	4.75
585.761	5.03
586.1	4.9
586.438	4.95
586.777	4.9
587.115	4.85
587.454	4.71
587.792	4.87
588.13	5.33
588.469	4.94
588.807	5.14
589.145	4.87
589.483	4.84
589.821	4.96
590.159	4.79
590.497	4.56
590.835	4.8
591.173	5.07
591.511	4.97
591.849	4.99
592.187	5.23
592.524	4.73
592.862	4.9
593.2	5.15
593.537	4.84
593.875	5.02
594.212	4.82
594.55	4.93
594.887	4.97
595.224	4.91
595.561	5.05
595.899	4.97
596.236	4.91
596.573	4.91
596.91	4.98
597.247	4.92
597.584	5
597.921	4.97
598.258	5.03
598.594	4.85
598.931	4.87
599.268	4.9
599.604	5.15
599.941	4.91
600.277	5.15
600.614	4.94
600.95	5.06
601.287	5.08
601.623	5.1
601.959	4.97
602.296	4.95
602.632	5.18
602.968	4.92
603.304	4.94
603.64	4.77
603.976	4.97
604.312	5.09
604.648	5.2
604.984	5.07
605.319	5.05
605.655	5.16
605.991	5.1
606.326	5.02
606.662	5
606.998	5.03
607.333	4.95
607.668	4.94
608.004	5.06
608.339	4.9
608.674	5.03
609.01	5.23
609.345	5.2
609.68	4.96
610.015	5.29
610.35	5.22
610.685	5.13
611.02	5.18
611.355	5.12
611.689	4.93
612.024	5.26
612.359	5.18
612.694	5.2
613.028	5.43
613.363	4.88
613.697	5.1
614.032	4.92
614.366	4.96
614.7	5.32
615.035	5.2
615.369	5.34
615.703	5.38
616.037	5.22
616.371	5.11
616.705	5.25
617.039	5.55
617.373	5.27
617.707	5.19
618.041	5.4
618.375	5.18
618.709	5.41
619.042	5.22
619.376	4.76
619.71	4.94
620.043	5.09
620.377	5.19
620.71	5.16
621.043	4.81
621.377	5.27
621.71	5.46
622.043	5.43
622.376	5.28
622.709	5.33
623.043	5.3
623.376	5.19
623.709	5.39
624.041	5.21
624.374	5.15
624.707	5.11
625.04	5.48
625.373	5.04
625.705	5.08
626.038	5.31
626.37	5.29
626.703	5.04
627.035	5.32
627.368	5.46
627.7	5.39
628.032	5.47
628.365	5
628.697	5.02
629.029	5.46
629.361	5.27
629.693	5.68
630.025	5.22
630.357	5.33
630.689	5.4
631.021	5.38
631.353	5.56
631.684	5.37
632.016	5.26
632.348	5.21
632.679	5.24
633.011	5.47
633.342	5.34
633.674	5.22
634.005	5.36
634.336	5.41
634.668	5.46
634.999	5.34
635.33	5.36
635.661	5.33
635.992	5.1
636.323	5.54
636.654	5.55
636.985	5.27
637.316	5.19
637.647	5.43
637.977	5.45
638.308	5.59
638.639	5.28
638.969	5.15
639.3	5.4
639.63	5.24
639.961	5.28
640.291	5.84
640.622	5.64
640.952	5.53
641.282	5.5
641.612	4.85
641.943	5.56
642.273	5.49
642.603	5.53
642.933	5.47
643.263	5.49
643.592	5.31
643.922	5.79
644.252	5.27
644.582	5.28
644.911	5.24
645.241	5.45
645.571	5.53
645.9	5.82
646.23	5.22
646.559	5.7
646.888	5.25
647.218	5.46
647.547	5.78
647.876	5.7
648.205	5.09
648.534	5.12
648.863	5.73
649.192	5.34
649.521	5.17
649.85	6
650.179	5.21
650.508	5.28
650.837	5.2
651.165	5.9
651.494	5.62
651.822	5.65
652.151	5.89
652.479	5.7
652.808	5.13
653.136	5.14
653.465	6.06
653.793	5.81
654.121	5.64
654.449	5.61
654.777	5.64
655.105	5.73
655.433	5.87
655.761	5.18
656.089	5.58
656.417	5.61
656.745	5.65
657.073	6.2
657.4	5.57
657.728	5.78
658.056	5.26
658.383	5.87
658.711	5.61
659.038	5.89
659.365	5.82
659.693	5.65
660.02	5.79
660.347	5.74
660.674	5.57
661.001	5.44
661.329	5.35
661.656	5.55
661.982	5.6
662.309	5.51
662.636	5.65
662.963	5.76
663.29	5.74
663.616	6.05
663.943	6.02
664.27	6.04
664.596	5.3
664.923	6.27
665.249	5.49
665.576	5.5
665.902	5.37
666.228	5.47
666.554	5.58
666.881	5.64
667.207	5.89
667.533	6.02
667.859	5.99
668.185	6
668.511	5.63
668.837	5.36
669.162	6.17
669.488	6.08
669.814	6
670.139	6.14
670.465	6.11
670.791	5.96
671.116	5.64
671.442	5.66
671.767	5.54
672.092	6.03
672.418	5.66
672.743	6.01
673.068	5.48
673.393	5.89
673.718	5.56
674.043	6.2
674.368	6.68
674.693	5.98
675.018	6.29
675.343	6.28
675.667	5.67
675.992	5.21
676.317	5.84
676.641	6.39
676.966	6.13
677.29	6.28
677.615	5.98
677.939	5.96
678.264	5.88
678.588	6.06
678.912	5.77
679.236	6.03
679.56	5.24
679.885	6.4
680.209	5.47
680.532	5.88
680.856	6.35
681.18	5.95
681.504	5.61
681.828	5.82
682.152	5.94
682.475	5.88
682.799	6
683.122	5.57
683.446	5.72
683.769	6.19
684.093	5.77
684.416	5.62
684.739	6.09
685.062	6.17
685.386	5.92
685.709	5.73
686.032	6.04
686.355	6.32
686.678	6.12
687.001	5.3
687.324	5.43
687.646	5.38
687.969	6.33
688.292	6.59
688.614	6.35
688.937	5.75
689.26	5.95
689.582	5.79
689.904	5.74
690.227	6.31
690.549	6.41
690.871	6.37
691.194	6.81
691.516	6.1
691.838	5.66
692.16	5.82
692.482	5.8
692.804	5.4
