Data from 0056_crown_Reflection__2__100.txt Node

Date: Fri Dec 16 14:45:48 CST 2022
User: ToomeyLab
Spectrometer: FLMS14357
Trigger mode: 0
Integration Time (sec): 1.000000E-2
Scans to average: 100
Electric dark correction enabled: true
Nonlinearity correction enabled: false
Boxcar width: 0
XAxis mode: Wavelengths
Number of Pixels in Spectrum: 2048
>>>>>Begin Spectral Data<<<<<
189.047	8.66
189.435	8.66
189.823	8.66
190.211	167.37
190.599	661.03
190.987	-274.44
191.375	-35.27
191.763	-27.69
192.151	105.24
192.538	-145.31
192.926	-94.61
193.314	3.82
193.702	231.53
194.089	-223.67
194.477	-25.98
194.864	-158.9
195.252	7.15
195.639	89.09
196.027	-63.03
196.414	76.73
196.801	-45.2
197.189	110.69
197.576	185.57
197.963	-113.01
198.351	-41.1
198.738	-4.82
199.125	12.09
199.512	-18.6
199.899	-91.29
200.286	-38.17
200.673	29.72
201.06	42.31
201.447	33.94
201.833	-17.83
202.22	13.09
202.607	-53.23
202.994	-2.33
203.38	-10.24
203.767	-0.78
204.154	-19.6
204.54	53.81
204.927	65.45
205.313	53.95
205.699	19.71
206.086	-5.15
206.472	-18.34
206.858	12.16
207.245	10.39
207.631	-17
208.017	7.96
208.403	-10.98
208.789	-9.8
209.175	31.66
209.561	18.7
209.947	-25.17
210.333	-13.08
210.719	32
211.105	-67.4
211.491	12.71
211.876	-28.1
212.262	-23.02
212.648	0.92
213.034	0.25
213.419	55.46
213.805	23.15
214.19	16.86
214.576	-33.89
214.961	-42.44
215.346	-44.29
215.732	5.92
216.117	-10.45
216.502	-19.99
216.888	-4.79
217.273	-20.4
217.658	-8.14
218.043	-3.06
218.428	22.38
218.813	0.94
219.198	-50.68
219.583	-24.43
219.968	-9.49
220.353	-8.62
220.738	-15.1
221.122	4.64
221.507	0.87
221.892	19.53
222.276	9.35
222.661	4.74
223.046	3.95
223.43	-8.88
223.815	3.55
224.199	3.75
224.583	6.82
224.968	3.87
225.352	2.25
225.736	8.17
226.121	0.48
226.505	6.77
226.889	12.56
227.273	3.44
227.657	3.8
228.041	6.77
228.425	9.46
228.809	4.58
229.193	4.1
229.577	4.6
229.961	7.13
230.344	6.79
230.728	6.35
231.112	7.03
231.495	4.65
231.879	5.86
232.263	4.02
232.646	5.4
233.03	4.06
233.413	3.7
233.797	5.45
234.18	4.09
234.563	6.72
234.946	5.04
235.33	6.57
235.713	6.42
236.096	5.41
236.479	8.46
236.862	6.75
237.245	4.87
237.628	7.22
238.011	7.07
238.394	6.77
238.777	5.77
239.16	2.74
239.543	3.82
239.925	6.23
240.308	6.1
240.691	4.06
241.073	5.4
241.456	5.03
241.838	6.06
242.221	5.45
242.603	5.48
242.986	6.87
243.368	5.71
243.75	5.69
244.133	5.56
244.515	5.83
244.897	5.59
245.279	5.82
245.661	5.23
246.043	6.27
246.425	5.56
246.807	6
247.189	5.31
247.571	5.44
247.953	5.52
248.335	5.79
248.717	5.51
249.098	5.46
249.48	4.81
249.862	5.44
250.243	5.34
250.625	5.35
251.006	5.01
251.388	5.76
251.769	5.48
252.151	5.04
252.532	5.02
252.913	5.47
253.295	5.6
253.676	5.43
254.057	5.25
254.438	5.22
254.819	5.16
255.2	6.49
255.581	4.42
255.962	5.05
256.343	5.63
256.724	5.44
257.105	5.51
257.486	5.19
257.867	4.28
258.247	5.27
258.628	5.2
259.009	4.67
259.389	5.6
259.77	5.01
260.15	5.91
260.531	5.49
260.911	5.01
261.292	5.01
261.672	5.03
262.052	4.86
262.432	4.83
262.813	4.68
263.193	4.29
263.573	5.24
263.953	4.47
264.333	5.21
264.713	4.84
265.093	4.76
265.473	5.54
265.853	5.1
266.233	5.19
266.612	5.35
266.992	4.69
267.372	4.53
267.752	4.47
268.131	4.76
268.511	4.82
268.89	4.85
269.27	4.86
269.649	5.05
270.029	4.69
270.408	4.83
270.787	4.49
271.167	5.29
271.546	4.2
271.925	4.65
272.304	4.55
272.683	4.66
273.062	5.25
273.441	4.91
273.82	5.02
274.199	4.94
274.578	4.7
274.957	4.85
275.336	5.02
275.715	4.31
276.093	5.21
276.472	5.05
276.851	5.29
277.229	5.17
277.608	4.29
277.986	4.61
278.365	4.39
278.743	4.87
279.122	4.24
279.5	4.34
279.878	4.02
280.257	4.82
280.635	4.3
281.013	5.35
281.391	4.3
281.769	5.06
282.147	4.87
282.525	4.56
282.903	4.86
283.281	4.78
283.659	4.73
284.037	4.61
284.415	4.65
284.792	4.86
285.17	4.62
285.548	4.75
285.925	4.94
286.303	4.5
286.68	4.83
287.058	5.09
287.435	4.29
287.813	4.77
288.19	4.91
288.567	4.36
288.945	4.67
289.322	4.49
289.699	5.16
290.076	4.84
290.453	4.34
290.83	4.67
291.207	4.54
291.584	4.41
291.961	4.78
292.338	4.63
292.715	4.98
293.092	4.58
293.469	4.52
293.845	4.18
294.222	4.62
294.599	4.85
294.975	4.65
295.352	4.23
295.728	4.75
296.105	4.41
296.481	4.72
296.858	4.54
297.234	4.6
297.61	4.87
297.986	4.36
298.363	4.17
298.739	4.74
299.115	4.25
299.491	4.49
299.867	4.66
300.243	4.55
300.619	4.49
300.995	4.78
301.371	4.7
301.746	4.28
302.122	4.91
302.498	4.57
302.874	4.68
303.249	4.72
303.625	4.07
304	4.04
304.376	4.13
304.751	4.71
305.127	4.5
305.502	4.73
305.878	3.99
306.253	4.22
306.628	4.2
307.003	5
307.378	4.29
307.754	3.94
308.129	3.86
308.504	4.36
308.879	4.7
309.254	4.54
309.629	4.12
310.003	4.49
310.378	4.27
310.753	4.18
311.128	4.21
311.502	3.93
311.877	4.34
312.252	4.2
312.626	4.03
313.001	4.2
313.375	3.95
313.75	3.76
314.124	4.7
314.498	4.28
314.873	4.21
315.247	3.98
315.621	4.64
315.995	4.02
316.369	4.38
316.743	4.35
317.117	4.09
317.491	4.09
317.865	3.56
318.239	4.8
318.613	4.44
318.987	4.44
319.361	4
319.734	4.42
320.108	4.03
320.482	3.89
320.855	4.34
321.229	4.52
321.602	3.8
321.976	4.21
322.349	3.69
322.723	3.71
323.096	3.94
323.469	3.74
323.843	3.69
324.216	4.14
324.589	4.14
324.962	4.2
325.335	4.34
325.708	4.2
326.081	4.47
326.454	4.35
326.827	4.71
327.2	4.32
327.573	4.32
327.945	4.1
328.318	4.09
328.691	3.77
329.063	3.75
329.436	3.98
329.809	4.08
330.181	3.97
330.553	4.62
330.926	4.28
331.298	4.11
331.671	3.95
332.043	4.27
332.415	4.71
332.787	4.83
333.159	4.33
333.532	4.45
333.904	4.2
334.276	4.05
334.648	3.95
335.02	4
335.391	4.42
335.763	3.66
336.135	4.57
336.507	4.52
336.879	3.89
337.25	3.96
337.622	4.34
337.993	4.25
338.365	4.44
338.736	4.06
339.108	4.1
339.479	3.79
339.851	4.78
340.222	4.07
340.593	3.96
340.964	3.92
341.336	3.77
341.707	4.08
342.078	4.07
342.449	4.4
342.82	4.05
343.191	3.83
343.562	4.07
343.933	4.1
344.303	4.35
344.674	4.18
345.045	4.56
345.416	3.92
345.786	3.57
346.157	4.02
346.527	3.85
346.898	4.1
347.268	3.71
347.639	3.92
348.009	4.44
348.38	4.24
348.75	4.28
349.12	4.25
349.49	4.03
349.861	4.7
350.231	4.44
350.601	3.97
350.971	4.03
351.341	3.9
351.711	4.12
352.081	4
352.45	3.94
352.82	3.78
353.19	3.97
353.56	3.81
353.929	4.43
354.299	4.08
354.669	4.4
355.038	4.22
355.408	4.43
355.777	4.32
356.147	4.38
356.516	4.43
356.885	4
357.254	4.38
357.624	4.33
357.993	4.21
358.362	4.35
358.731	3.91
359.1	4.36
359.469	4.2
359.838	3.99
360.207	3.96
360.576	4.32
360.945	4.25
361.314	4.07
361.682	3.74
362.051	4.07
362.42	4.32
362.788	4.24
363.157	3.97
363.525	4.13
363.894	3.88
364.262	3.89
364.631	4.69
364.999	4.04
365.367	4.55
365.735	3.99
366.104	4.2
366.472	4.37
366.84	4.22
367.208	3.76
367.576	4.18
367.944	4.48
368.312	4.1
368.68	4.43
369.048	4.43
369.416	4.37
369.783	4.06
370.151	4.15
370.519	4.16
370.886	4.1
371.254	3.87
371.621	4.28
371.989	4.26
372.356	4
372.724	4.34
373.091	4.07
373.458	4.25
373.826	4.09
374.193	4.49
374.56	3.97
374.927	4.01
375.294	4.56
375.661	4.41
376.028	3.9
376.395	4.01
376.762	4.48
377.129	4.55
377.496	4.45
377.863	4.04
378.229	4.21
378.596	4.29
378.963	4.13
379.329	4.05
379.696	4.16
380.062	4.6
380.429	4.14
380.795	4.14
381.161	4.02
381.528	3.87
381.894	4.51
382.26	4.13
382.626	4.15
382.993	4.13
383.359	4.08
383.725	4.42
384.091	4.25
384.457	4.34
384.823	4.25
385.188	4.43
385.554	4.27
385.92	4.5
386.286	4.47
386.651	4.12
387.017	4.49
387.383	4.31
387.748	4.24
388.114	4.41
388.479	4.37
388.845	4.27
389.21	4.22
389.575	4.38
389.94	4.41
390.306	4.34
390.671	4.13
391.036	4.53
391.401	4.94
391.766	4.24
392.131	4.01
392.496	4.23
392.861	4.14
393.226	4.38
393.591	4.42
393.956	4.5
394.32	4.3
394.685	4.71
395.05	4.23
395.414	4.21
395.779	4.25
396.143	4.56
396.508	4.62
396.872	4.36
397.236	4.02
397.601	4.42
397.965	4.02
398.329	4.43
398.694	4.11
399.058	4.23
399.422	4.26
399.786	4.52
400.15	4.45
400.514	4.55
400.878	4.44
401.242	4.61
401.605	4.26
401.969	4.32
402.333	4.29
402.697	4.53
403.06	4.56
403.424	4.39
403.787	4.68
404.151	4.46
404.514	4.16
404.878	4.36
405.241	4.48
405.604	4.33
405.968	4.32
406.331	4.49
406.694	4.39
407.057	4.58
407.42	4.54
407.783	4.52
408.146	4.29
408.509	4.4
408.872	4.32
409.235	4.33
409.598	4.59
409.961	4.65
410.323	4.47
410.686	4.54
411.049	4.33
411.411	4.3
411.774	4.47
412.136	4.47
412.499	4.48
412.861	4.23
413.223	4.7
413.586	4.36
413.948	4.49
414.31	4.52
414.672	4.33
415.035	4.46
415.397	4.94
415.759	4.45
416.121	4.77
416.483	4.7
416.845	4.56
417.206	4.57
417.568	4.6
417.93	4.36
418.292	4.45
418.653	4.47
419.015	4.46
419.377	4.44
419.738	4.35
420.1	4.45
420.461	4.44
420.822	4.44
421.184	4.46
421.545	4.42
421.906	4.41
422.267	4.32
422.629	4.37
422.99	4.38
423.351	4.42
423.712	4.37
424.073	4.57
424.434	4.37
424.795	4.39
425.155	4.4
425.516	4.4
425.877	4.41
426.238	4.28
426.598	4.47
426.959	4.29
427.32	4.43
427.68	4.49
428.041	4.5
428.401	4.45
428.761	4.43
429.122	4.4
429.482	4.44
429.842	4.45
430.202	4.5
430.563	4.5
430.923	4.35
431.283	4.61
431.643	4.5
432.003	4.64
432.363	4.65
432.722	4.51
433.082	4.56
433.442	4.41
433.802	4.59
434.161	4.45
434.521	4.63
434.881	4.62
435.24	4.32
435.6	4.52
435.959	4.48
436.319	4.51
436.678	4.61
437.037	4.55
437.396	4.63
437.756	4.46
438.115	4.52
438.474	4.65
438.833	4.68
439.192	4.71
439.551	4.6
439.91	4.65
440.269	4.7
440.628	4.63
440.987	4.48
441.345	4.59
441.704	4.59
442.063	4.42
442.421	4.55
442.78	4.38
443.138	4.43
443.497	4.42
443.855	4.56
444.214	4.57
444.572	4.56
444.93	4.59
445.288	4.65
445.647	4.71
446.005	4.53
446.363	4.61
446.721	4.44
447.079	4.47
447.437	4.45
447.795	4.47
448.153	4.49
448.51	4.48
448.868	4.61
449.226	4.49
449.584	4.53
449.941	4.63
450.299	4.57
450.656	4.56
451.014	4.59
451.371	4.65
451.729	4.61
452.086	4.56
452.443	4.5
452.801	4.67
453.158	4.63
453.515	4.56
453.872	4.78
454.229	4.57
454.586	4.55
454.943	4.55
455.3	4.64
455.657	4.61
456.014	4.68
456.371	4.7
456.727	4.61
457.084	4.43
457.441	4.5
457.797	4.78
458.154	4.56
458.51	4.56
458.867	4.53
459.223	4.65
459.58	4.6
459.936	4.49
460.292	4.61
460.648	4.51
461.005	4.47
461.361	4.46
461.717	4.54
462.073	4.57
462.429	4.63
462.785	4.61
463.141	4.78
463.496	4.58
463.852	4.69
464.208	4.56
464.564	4.51
464.919	4.47
465.275	4.65
465.631	4.72
465.986	4.48
466.342	4.65
466.697	4.53
467.052	4.7
467.408	4.73
467.763	4.53
468.118	4.67
468.473	4.79
468.829	4.64
469.184	4.69
469.539	4.4
469.894	4.51
470.249	4.67
470.603	4.68
470.958	4.8
471.313	4.66
471.668	4.62
472.023	4.89
472.377	4.5
472.732	4.55
473.086	4.63
473.441	4.6
473.795	4.75
474.15	4.56
474.504	4.65
474.859	4.76
475.213	4.66
475.567	4.56
475.921	4.79
476.275	4.68
476.63	4.62
476.984	4.6
477.338	5.01
477.692	4.76
478.045	4.7
478.399	4.79
478.753	4.54
479.107	4.67
479.461	4.73
479.814	4.59
480.168	4.71
480.521	4.67
480.875	4.85
481.228	4.75
481.582	4.64
481.935	4.66
482.289	4.48
482.642	4.64
482.995	4.62
483.348	4.66
483.701	4.63
484.055	4.54
484.408	4.54
484.761	4.45
485.114	4.44
485.466	4.44
485.819	4.42
486.172	4.42
486.525	4.48
486.878	4.51
487.23	4.55
487.583	4.59
487.936	4.6
488.288	4.56
488.641	4.55
488.993	4.44
489.345	4.48
489.698	4.52
490.05	4.53
490.402	4.54
490.754	4.61
491.107	4.61
491.459	4.69
491.811	4.72
492.163	4.68
492.515	4.69
492.866	4.51
493.218	4.52
493.57	4.53
493.922	4.5
494.274	4.57
494.625	4.61
494.977	4.63
495.328	4.74
495.68	4.83
496.031	4.73
496.383	4.65
496.734	4.82
497.086	4.63
497.437	4.83
497.788	4.7
498.139	4.7
498.49	4.75
498.842	4.74
499.193	4.69
499.544	4.82
499.894	4.74
500.245	4.69
500.596	4.79
500.947	4.73
501.298	4.7
501.648	4.65
501.999	4.84
502.35	4.93
502.7	4.82
503.051	4.89
503.401	4.84
503.752	4.62
504.102	4.81
504.452	4.84
504.803	4.63
505.153	4.72
505.503	4.78
505.853	4.71
506.203	4.81
506.553	4.79
506.903	4.76
507.253	4.89
507.603	4.82
507.953	4.85
508.303	4.86
508.652	4.75
509.002	4.74
509.352	4.75
509.701	4.64
510.051	4.8
510.4	4.76
510.75	4.77
511.099	4.76
511.449	4.76
511.798	4.88
512.147	4.66
512.496	4.9
512.846	4.77
513.195	4.81
513.544	4.81
513.893	4.67
514.242	4.84
514.591	4.78
514.939	4.74
515.288	4.81
515.637	4.86
515.986	4.84
516.334	4.94
516.683	4.88
517.032	4.91
517.38	4.82
517.729	4.94
518.077	4.74
518.426	4.79
518.774	4.75
519.122	4.8
519.47	4.82
519.819	4.83
520.167	4.82
520.515	4.73
520.863	4.74
521.211	4.82
521.559	4.85
521.907	4.85
522.255	4.79
522.602	4.89
522.95	4.88
523.298	4.84
523.645	4.74
523.993	4.95
524.341	4.98
524.688	4.78
525.036	5.08
525.383	4.97
525.73	4.91
526.078	4.93
526.425	4.85
526.772	4.65
527.119	4.71
527.466	4.8
527.814	4.84
528.161	4.86
528.508	4.79
528.854	4.76
529.201	4.75
529.548	4.73
529.895	4.68
530.242	4.71
530.588	4.68
530.935	4.69
531.282	4.75
531.628	4.77
531.975	4.76
532.321	4.87
532.667	4.84
533.014	4.82
533.36	4.77
533.706	4.83
534.052	4.77
534.399	4.87
534.745	4.76
535.091	4.75
535.437	4.78
535.783	4.81
536.129	4.85
536.474	4.92
536.82	4.81
537.166	4.96
537.512	4.99
537.857	4.98
538.203	4.81
538.549	4.91
538.894	4.85
539.239	5.07
539.585	4.97
539.93	4.85
540.276	4.93
540.621	4.97
540.966	4.95
541.311	4.94
541.656	4.92
542.001	4.99
542.346	4.88
542.691	4.85
543.036	4.75
543.381	4.84
543.726	4.85
544.071	4.95
544.415	4.92
544.76	4.91
545.105	4.89
545.449	4.87
545.794	4.98
546.138	5.02
546.483	4.98
546.827	5.02
547.171	4.9
547.516	5.02
547.86	4.98
548.204	4.92
548.548	5.05
548.892	4.92
549.236	4.99
549.58	4.95
549.924	5
550.268	5.07
550.612	5.09
550.956	4.91
551.3	4.99
551.643	4.97
551.987	5.01
552.33	5.02
552.674	5.28
553.017	5.12
553.361	5.16
553.704	5
554.048	5.1
554.391	5.14
554.734	4.91
555.077	5.19
555.42	5.16
555.764	5.09
556.107	5.21
556.45	5.13
556.793	5.3
557.135	5.36
557.478	5.24
557.821	5
558.164	5.01
558.507	5.02
558.849	4.99
559.192	5.18
559.534	5.1
559.877	5.29
560.219	5.39
560.562	5.08
560.904	5.15
561.246	5.1
561.589	5.21
561.931	5.43
562.273	5.07
562.615	5.31
562.957	5.18
563.299	5.32
563.641	5.26
563.983	5.14
564.325	5.09
564.667	5.18
565.008	5.2
565.35	5.41
565.692	5.26
566.033	5.23
566.375	5.07
566.716	5.22
567.058	5.28
567.399	5.28
567.741	5.21
568.082	5.16
568.423	5.23
568.764	5.15
569.105	5.11
569.447	5.18
569.788	5.21
570.129	5.31
570.47	5.4
570.811	5.14
571.151	5.15
571.492	5.25
571.833	5.25
572.174	5.13
572.514	5.05
572.855	5.4
573.195	5.1
573.536	5.29
573.876	5.19
574.217	5.26
574.557	5.19
574.898	5.14
575.238	5.25
575.578	5.37
575.918	5.13
576.258	5.15
576.598	5.19
576.938	5.4
577.278	5.42
577.618	5.33
577.958	5.31
578.298	5.32
578.638	5.29
578.977	5.39
579.317	5.38
579.657	5.37
579.996	5.57
580.336	5.17
580.675	5.45
581.014	5.33
581.354	5.45
581.693	5.26
582.032	5.21
582.372	5.51
582.711	5.35
583.05	5.42
583.389	5.3
583.728	5.36
584.067	5.52
584.406	5.56
584.745	5.48
585.083	5.47
585.422	5.44
585.761	5.39
586.1	5.54
586.438	5.45
586.777	5.3
587.115	5.49
587.454	5.49
587.792	5.31
588.13	5.74
588.469	5.44
588.807	5.81
589.145	5.61
589.483	5.46
589.821	5.49
590.159	5.32
590.497	4.99
590.835	5.25
591.173	5.28
591.511	5.48
591.849	5.44
592.187	5.57
592.524	5.34
592.862	5.51
593.2	5.27
593.537	5.44
593.875	5.48
594.212	5.43
594.55	5.38
594.887	5.69
595.224	5.46
595.561	5.38
595.899	5.48
596.236	5.39
596.573	5.53
596.91	5.34
597.247	5.3
597.584	5.55
597.921	5.42
598.258	5.38
598.594	5.19
598.931	5.43
599.268	5.41
599.604	5.64
599.941	5.52
600.277	5.37
600.614	5.53
600.95	5.29
601.287	5.46
601.623	5.78
601.959	5.44
602.296	5.51
602.632	5.63
602.968	5.33
603.304	5.54
603.64	5.64
603.976	5.56
604.312	5.67
604.648	5.58
604.984	5.5
605.319	5.41
605.655	5.47
605.991	5.47
606.326	5.28
606.662	5.39
606.998	5.56
607.333	5.32
607.668	5.45
608.004	5.4
608.339	5.46
608.674	5.32
609.01	5.68
609.345	5.44
609.68	5.28
610.015	5.44
610.35	5.75
610.685	5.63
611.02	5.66
611.355	5.6
611.689	5.35
612.024	5.63
612.359	5.58
612.694	5.59
613.028	5.74
613.363	5.49
613.697	5.61
614.032	5.74
614.366	5.52
614.7	5.76
615.035	5.41
615.369	5.6
615.703	6.09
616.037	5.39
616.371	5.93
616.705	5.63
617.039	5.8
617.373	5.5
617.707	5.5
618.041	5.85
618.375	5.4
618.709	5.69
619.042	5.3
619.376	5.61
619.71	5.64
620.043	5.45
620.377	5.88
620.71	5.47
621.043	5.44
621.377	5.5
621.71	6.01
622.043	5.75
622.376	5.72
622.709	5.99
623.043	5.66
623.376	5.66
623.709	5.9
624.041	5.56
624.374	5.7
624.707	5.42
625.04	5.85
625.373	5.68
625.705	6.03
626.038	5.41
626.37	5.63
626.703	5.56
627.035	5.45
627.368	5.93
627.7	6.12
628.032	5.84
628.365	5.61
628.697	5.71
629.029	5.92
629.361	5.58
629.693	6.16
630.025	5.74
630.357	5.66
630.689	6.04
631.021	5.8
631.353	5.73
631.684	5.82
632.016	5.75
632.348	5.65
632.679	5.49
633.011	5.94
633.342	5.64
633.674	5.68
634.005	5.89
634.336	5.88
634.668	5.62
634.999	5.7
635.33	5.28
635.661	5.82
635.992	5.51
636.323	5.92
636.654	5.87
636.985	5.56
637.316	5.74
637.647	5.82
637.977	6.1
638.308	5.88
638.639	5.53
638.969	5.47
639.3	5.71
639.63	5.73
639.961	5.73
640.291	6.04
640.622	5.92
640.952	5.64
641.282	5.27
641.612	5.86
641.943	5.94
642.273	5.82
642.603	5.96
642.933	5.96
643.263	6.05
643.592	5.86
643.922	6.12
644.252	6
644.582	5.45
644.911	6.01
645.241	5.82
645.571	5.93
645.9	6.01
646.23	5.93
646.559	5.84
646.888	5.46
647.218	6.11
647.547	6.06
647.876	6.12
648.205	5.59
648.534	5.76
648.863	6.06
649.192	6
649.521	5.34
649.85	5.89
650.179	5.43
650.508	5.98
650.837	6.06
651.165	5.78
651.494	5.99
651.822	5.92
652.151	6.27
652.479	6.45
652.808	5.41
653.136	5.76
653.465	5.97
653.793	6.2
654.121	5.74
654.449	6.37
654.777	6.14
655.105	6
655.433	6.08
655.761	6.28
656.089	6.13
656.417	5.55
656.745	6.39
657.073	6.04
657.4	5.97
657.728	6.2
658.056	5.97
658.383	6.26
658.711	5.97
659.038	6.41
659.365	6.54
659.693	6.19
660.02	6.21
660.347	6.13
660.674	5.76
661.001	5.34
661.329	6.22
661.656	5.92
661.982	5.89
662.309	6.22
662.636	6.26
662.963	6.32
663.29	5.74
663.616	5.84
663.943	6.36
664.27	6.48
664.596	5.74
664.923	6.27
665.249	6.42
665.576	6.09
665.902	6.15
666.228	6.57
666.554	5.93
666.881	6.05
667.207	5.82
667.533	6.24
667.859	6.24
668.185	5.91
668.511	5.91
668.837	5.52
669.162	6.22
669.488	5.85
669.814	6.46
670.139	6.75
670.465	6.22
670.791	6.57
671.116	5.95
671.442	6.2
671.767	6.11
672.092	5.87
672.418	6.4
672.743	5.99
673.068	6.35
673.393	6.09
673.718	6.26
674.043	5.93
674.368	6.09
674.693	6.65
675.018	6.31
675.343	6.09
675.667	6.22
675.992	5.51
676.317	6.5
676.641	6.28
676.966	6.29
677.29	5.9
677.615	6.16
677.939	6.56
678.264	6.51
678.588	6.29
678.912	6.31
679.236	6.12
679.56	6.34
679.885	6.2
680.209	5.89
680.532	6.35
680.856	5.93
681.18	6.21
681.504	6.11
681.828	5.86
682.152	6.11
682.475	6.17
682.799	6.47
683.122	6.11
683.446	6.28
683.769	6.53
684.093	5.97
684.416	6.53
684.739	7.05
685.062	6.1
685.386	6.59
685.709	6.14
686.032	7.02
686.355	6.37
686.678	5.83
687.001	5.08
687.324	6.27
687.646	5.91
687.969	6.07
688.292	6.4
688.614	6.55
688.937	6.64
689.26	6.1
689.582	5.83
689.904	6.1
690.227	6.1
690.549	6.53
690.871	6.29
691.194	6.19
691.516	6.1
691.838	6.14
692.16	6.36
692.482	6.63
692.804	6.16
