Data from 0056_crown_Reflection__1__99.txt Node

Date: Fri Dec 16 14:45:39 CST 2022
User: ToomeyLab
Spectrometer: FLMS14357
Trigger mode: 0
Integration Time (sec): 1.000000E-2
Scans to average: 100
Electric dark correction enabled: true
Nonlinearity correction enabled: false
Boxcar width: 0
XAxis mode: Wavelengths
Number of Pixels in Spectrum: 2048
>>>>>Begin Spectral Data<<<<<
189.047	4.25
189.435	4.25
189.823	4.25
190.211	31.13
190.599	-199.43
190.987	302.89
191.375	55.57
191.763	192.11
192.151	316.35
192.538	8.63
192.926	12.59
193.314	142.4
193.702	447.26
194.089	-178.4
194.477	-400.22
194.864	-27.98
195.252	-108.61
195.639	117.63
196.027	-49.3
196.414	9.4
196.801	20.51
197.189	205.11
197.576	1784.9
197.963	-105.33
198.351	-0.48
198.738	-41.48
199.125	1.56
199.512	-6.08
199.899	-77.14
200.286	-69.89
200.673	18.47
201.06	13.37
201.447	6.6
201.833	-18.58
202.22	-14.06
202.607	-6.89
202.994	27.88
203.38	-25.08
203.767	-66.05
204.154	-61.95
204.54	24.83
204.927	12.3
205.313	40.22
205.699	-26.35
206.086	-30.15
206.472	-25.72
206.858	1.44
207.245	14.89
207.631	-53.17
208.017	-0.91
208.403	10.55
208.789	5.76
209.175	47.33
209.561	11.53
209.947	-25.3
210.333	-39.46
210.719	-26.23
211.105	-28.76
211.491	-8.08
211.876	-1.17
212.262	-33.16
212.648	-57.22
213.034	-23.18
213.419	13.92
213.805	-29.72
214.19	-0.43
214.576	-33.38
214.961	16.19
215.346	-46.11
215.732	13.2
216.117	-41.91
216.502	-3.86
216.888	-28.21
217.273	-24.13
217.658	-37.18
218.043	-17
218.428	4.09
218.813	-21.91
219.198	-23.93
219.583	-1.39
219.968	-7.58
220.353	-7.94
220.738	-12.83
221.122	-20.63
221.507	-4.87
221.892	-1.7
222.276	4.19
222.661	-8.12
223.046	-0.95
223.43	-9.08
223.815	5.18
224.199	5.29
224.583	-6.7
224.968	-3.87
225.352	0.64
225.736	2.03
226.121	-9.87
226.505	4.53
226.889	9.76
227.273	1.65
227.657	5.86
228.041	3.72
228.425	5.38
228.809	1.58
229.193	3.17
229.577	3.85
229.961	5.25
230.344	6.03
230.728	5.37
231.112	5.74
231.495	4.3
231.879	4.45
232.263	3.52
232.646	3.31
233.03	3.91
233.413	4.02
233.797	5.63
234.18	5.47
234.563	5.24
234.946	4.53
235.33	5.06
235.713	3.98
236.096	7.11
236.479	5.87
236.862	6.55
237.245	7.06
237.628	4.02
238.011	4.29
238.394	6.9
238.777	4.02
239.16	2.89
239.543	4.22
239.925	6.83
240.308	5.56
240.691	5.16
241.073	4.03
241.456	4.48
241.838	5.98
242.221	5.47
242.603	4.44
242.986	5.91
243.368	5.15
243.75	4.51
244.133	5.4
244.515	5.33
244.897	4.65
245.279	3.65
245.661	4.59
246.043	4.02
246.425	3.5
246.807	3.97
247.189	4.56
247.571	4.91
247.953	4.99
248.335	5.2
248.717	4.95
249.098	5.02
249.48	4.36
249.862	4.68
250.243	4.59
250.625	4.49
251.006	4.12
251.388	5.29
251.769	4.75
252.151	4.89
252.532	4.68
252.913	5.5
253.295	4.57
253.676	4.95
254.057	4.17
254.438	4.48
254.819	4.8
255.2	4.55
255.581	3.97
255.962	4.21
256.343	4.62
256.724	3.62
257.105	4.13
257.486	3.93
257.867	2.91
258.247	4.76
258.628	5.22
259.009	4.34
259.389	4.29
259.77	4.01
260.15	5.37
260.531	4.69
260.911	4.33
261.292	4.43
261.672	4.36
262.052	4.12
262.432	4.47
262.813	4.64
263.193	4.11
263.573	4.49
263.953	4.55
264.333	4.52
264.713	3.65
265.093	3.35
265.473	4.8
265.853	4.31
266.233	3.73
266.612	4.43
266.992	4.61
267.372	4.08
267.752	3.82
268.131	4.57
268.511	4.67
268.89	4.65
269.27	3.88
269.649	4.83
270.029	3.82
270.408	4.29
270.787	4.15
271.167	4.53
271.546	3.29
271.925	4.14
272.304	4.58
272.683	3.81
273.062	4.31
273.441	4.63
273.82	4.79
274.199	4.57
274.578	3.96
274.957	4.43
275.336	3.97
275.715	4.23
276.093	4.82
276.472	4.21
276.851	4.68
277.229	4.84
277.608	3.65
277.986	4.54
278.365	3.67
278.743	4.66
279.122	3.7
279.5	4.11
279.878	3.4
280.257	4.18
280.635	3.51
281.013	4.74
281.391	4.15
281.769	3.72
282.147	4.08
282.525	4.22
282.903	3.96
283.281	4.43
283.659	4.18
284.037	4.37
284.415	4.64
284.792	3.93
285.17	4.03
285.548	4.11
285.925	4.1
286.303	4.13
286.68	4.3
287.058	4.19
287.435	4.31
287.813	4.4
288.19	4.12
288.567	3.95
288.945	4.62
289.322	4.03
289.699	3.82
290.076	4.56
290.453	4.09
290.83	4.53
291.207	4.06
291.584	3.93
291.961	4.34
292.338	3.96
292.715	4.28
293.092	3.68
293.469	4.23
293.845	4.19
294.222	4.82
294.599	4.46
294.975	4.08
295.352	3.52
295.728	4.33
296.105	4.01
296.481	4.73
296.858	3.66
297.234	3.89
297.61	4.46
297.986	4.35
298.363	3.92
298.739	4.08
299.115	3.85
299.491	3.88
299.867	4.18
300.243	3.99
300.619	3.98
300.995	3.94
301.371	3.93
301.746	3.86
302.122	4.54
302.498	3.71
302.874	3.62
303.249	4.45
303.625	3.73
304	3.63
304.376	3.98
304.751	3.79
305.127	3.76
305.502	4.4
305.878	3.62
306.253	3.74
306.628	4.41
307.003	4.22
307.378	3.38
307.754	4.23
308.129	3.48
308.504	3.87
308.879	4.16
309.254	4.36
309.629	3.32
310.003	4.31
310.378	3.53
310.753	4.06
311.128	3.72
311.502	3.81
311.877	4.05
312.252	3.86
312.626	3.66
313.001	3.77
313.375	3.66
313.75	3.76
314.124	4.22
314.498	3.67
314.873	3.31
315.247	3.42
315.621	3.98
315.995	4.18
316.369	3.71
316.743	3.63
317.117	3.46
317.491	3.43
317.865	3.8
318.239	4.13
318.613	3.7
318.987	3.58
319.361	3.4
319.734	3.9
320.108	3.46
320.482	3.82
320.855	3.86
321.229	4.35
321.602	3.67
321.976	3.89
322.349	3.4
322.723	2.75
323.096	3.44
323.469	3.43
323.843	4.11
324.216	3.26
324.589	3.83
324.962	3.79
325.335	3.52
325.708	3.92
326.081	4.05
326.454	3.76
326.827	3.6
327.2	3.95
327.573	4.01
327.945	3.4
328.318	3.71
328.691	3.58
329.063	3.54
329.436	3.35
329.809	3.5
330.181	3.74
330.553	3.97
330.926	3.58
331.298	3.58
331.671	3.78
332.043	3.83
332.415	3.94
332.787	3.93
333.159	3.56
333.532	3.8
333.904	3.54
334.276	3.65
334.648	3.46
335.02	3.57
335.391	3.62
335.763	3.04
336.135	3.62
336.507	3.47
336.879	3.89
337.25	3.52
337.622	3.87
337.993	3.85
338.365	4.4
338.736	3.32
339.108	3.4
339.479	3.56
339.851	4.38
340.222	3.92
340.593	3.16
340.964	3.72
341.336	3.32
341.707	3.91
342.078	3.76
342.449	4.21
342.82	3.58
343.191	3.36
343.562	3.49
343.933	3.49
344.303	3.84
344.674	3.57
345.045	3.64
345.416	3.76
345.786	3.44
346.157	3.42
346.527	3.33
346.898	3.75
347.268	3.65
347.639	3.39
348.009	3.93
348.38	3.67
348.75	3.7
349.12	3.78
349.49	3.52
349.861	3.98
350.231	3.84
350.601	3.9
350.971	3.36
351.341	3.82
351.711	3.69
352.081	3.65
352.45	3.59
352.82	3.59
353.19	3.68
353.56	3.56
353.929	3.57
354.299	3.57
354.669	3.77
355.038	3.53
355.408	3.9
355.777	3.55
356.147	3.97
356.516	3.9
356.885	3.47
357.254	3.68
357.624	3.85
357.993	3.65
358.362	3.9
358.731	3.59
359.1	4.04
359.469	3.81
359.838	3.47
360.207	3.49
360.576	3.7
360.945	3.55
361.314	4.12
361.682	3.33
362.051	3.61
362.42	4.01
362.788	3.62
363.157	3.64
363.525	3.57
363.894	3.59
364.262	3.71
364.631	4.3
364.999	3.54
365.367	3.72
365.735	3.22
366.104	3.38
366.472	3.87
366.84	3.8
367.208	3.51
367.576	3.63
367.944	3.9
368.312	3.27
368.68	3.91
369.048	3.73
369.416	3.58
369.783	3.67
370.151	3.73
370.519	3.38
370.886	3.69
371.254	3.86
371.621	3.69
371.989	3.79
372.356	3.5
372.724	3.51
373.091	3.82
373.458	3.62
373.826	3.65
374.193	3.91
374.56	3.51
374.927	3.56
375.294	4.04
375.661	3.65
376.028	3.61
376.395	3.8
376.762	3.84
377.129	4.13
377.496	3.84
377.863	3.9
378.229	3.62
378.596	3.7
378.963	3.63
379.329	3.71
379.696	3.83
380.062	3.79
380.429	3.61
380.795	3.65
381.161	3.86
381.528	3.64
381.894	3.99
382.26	3.5
382.626	3.84
382.993	3.4
383.359	3.62
383.725	4.11
384.091	3.53
384.457	3.93
384.823	3.8
385.188	4.08
385.554	3.73
385.92	4.03
386.286	3.94
386.651	3.85
387.017	3.98
387.383	3.78
387.748	3.95
388.114	3.97
388.479	3.89
388.845	3.97
389.21	3.89
389.575	3.76
389.94	3.79
390.306	3.81
390.671	3.88
391.036	3.7
391.401	4.32
391.766	3.7
392.131	3.98
392.496	3.84
392.861	3.72
393.226	3.91
393.591	3.94
393.956	3.8
394.32	4.01
394.685	4.05
395.05	3.72
395.414	3.78
395.779	3.94
396.143	3.92
396.508	3.96
396.872	4.06
397.236	3.5
397.601	3.95
397.965	3.73
398.329	4.18
398.694	3.61
399.058	4
399.422	3.97
399.786	3.59
400.15	3.9
400.514	3.84
400.878	3.98
401.242	4.08
401.605	3.97
401.969	4.21
402.333	3.97
402.697	4.02
403.06	4.12
403.424	3.74
403.787	3.81
404.151	3.7
404.514	4.06
404.878	3.95
405.241	4.04
405.604	3.96
405.968	3.98
406.331	4.01
406.694	3.97
407.057	3.99
407.42	3.99
407.783	3.87
408.146	4.02
408.509	3.75
408.872	3.57
409.235	4.2
409.598	4.17
409.961	4.06
410.323	3.91
410.686	3.76
411.049	3.85
411.411	3.97
411.774	3.98
412.136	3.98
412.499	3.78
412.861	3.71
413.223	4.07
413.586	3.75
413.948	4.11
414.31	3.99
414.672	3.73
415.035	4.09
415.397	4.11
415.759	3.99
416.121	3.98
416.483	4.18
416.845	3.93
417.206	3.96
417.568	3.95
417.93	4
418.292	3.87
418.653	4.02
419.015	4.04
419.377	3.96
419.738	4.01
420.1	3.92
420.461	3.93
420.822	3.98
421.184	4.01
421.545	3.95
421.906	4
422.267	3.84
422.629	3.95
422.99	3.94
423.351	3.92
423.712	3.86
424.073	4.02
424.434	3.87
424.795	3.91
425.155	3.94
425.516	3.89
425.877	4.04
426.238	3.88
426.598	3.97
426.959	3.93
427.32	3.93
427.68	4.12
428.041	4.11
428.401	3.85
428.761	3.9
429.122	3.86
429.482	3.94
429.842	4.02
430.202	3.91
430.563	4.23
430.923	4.03
431.283	4.16
431.643	4.04
432.003	4.26
432.363	4.03
432.722	4.16
433.082	4
433.442	3.95
433.802	4.11
434.161	3.99
434.521	4.04
434.881	4.03
435.24	3.97
435.6	4.06
435.959	4.09
436.319	4.01
436.678	4.08
437.037	4.01
437.396	3.97
437.756	4.09
438.115	4.06
438.474	4.2
438.833	4.01
439.192	4.15
439.551	4.22
439.91	4.14
440.269	4.17
440.628	4.09
440.987	3.98
441.345	3.99
441.704	4.11
442.063	4.09
442.421	4.04
442.78	4.04
443.138	4.02
443.497	3.9
443.855	3.95
444.214	4.04
444.572	4.02
444.93	4.07
445.288	4.08
445.647	4.17
446.005	4
446.363	4.04
446.721	3.96
447.079	4.09
447.437	4.04
447.795	4.09
448.153	4.08
448.51	3.99
448.868	4.09
449.226	4.13
449.584	4.06
449.941	4.21
450.299	3.97
450.656	4.14
451.014	4
451.371	4.09
451.729	3.94
452.086	4
452.443	4.08
452.801	4.15
453.158	4.21
453.515	4.13
453.872	4.18
454.229	4.03
454.586	4
454.943	4.13
455.3	4.15
455.657	4.11
456.014	4.22
456.371	4.15
456.727	4.2
457.084	3.98
457.441	4.06
457.797	4.09
458.154	4.2
458.51	4.18
458.867	3.93
459.223	4.12
459.58	4.13
459.936	4.09
460.292	4.06
460.648	4.12
461.005	4.09
461.361	4.05
461.717	4.04
462.073	4.18
462.429	4.05
462.785	4.06
463.141	4.14
463.496	4.1
463.852	4.25
464.208	4.23
464.564	4.16
464.919	4.11
465.275	4.08
465.631	4.22
465.986	4
466.342	4.14
466.697	4.14
467.052	4.21
467.408	4.21
467.763	4.02
468.118	4.15
468.473	4.23
468.829	4.2
469.184	4.2
469.539	4.06
469.894	4.03
470.249	4.19
470.603	4.22
470.958	4.28
471.313	4.19
471.668	4.12
472.023	4.17
472.377	4.04
472.732	4.27
473.086	4.02
473.441	4.24
473.795	4.32
474.15	4.13
474.504	4.21
474.859	4.26
475.213	4.24
475.567	4.14
475.921	4.2
476.275	4.16
476.63	4.13
476.984	4.27
477.338	4.56
477.692	4.22
478.045	4.15
478.399	4.3
478.753	4.18
479.107	4.25
479.461	4.28
479.814	4.18
480.168	4.2
480.521	4.16
480.875	4.26
481.228	4.27
481.582	4.09
481.935	4.16
482.289	4.2
482.642	4.25
482.995	4.14
483.348	4.2
483.701	4.17
484.055	4.11
484.408	4.03
484.761	3.98
485.114	3.98
485.466	4.01
485.819	4
486.172	4.04
486.525	4.05
486.878	4.1
487.23	4.14
487.583	4.09
487.936	4.16
488.288	4.12
488.641	4.09
488.993	4.02
489.345	4.01
489.698	4.05
490.05	4.07
490.402	4.15
490.754	4.21
491.107	4.19
491.459	4.29
491.811	4.34
492.163	4.18
492.515	4.19
492.866	4.05
493.218	4.06
493.57	4.11
493.922	4.15
494.274	4.18
494.625	4.24
494.977	4.27
495.328	4.34
495.68	4.4
496.031	4.32
496.383	4.19
496.734	4.31
497.086	4.25
497.437	4.34
497.788	4.26
498.139	4.27
498.49	4.24
498.842	4.31
499.193	4.23
499.544	4.36
499.894	4.25
500.245	4.22
500.596	4.33
500.947	4.23
501.298	4.22
501.648	4.36
501.999	4.44
502.35	4.39
502.7	4.48
503.051	4.53
503.401	4.41
503.752	4.37
504.102	4.42
504.452	4.23
504.803	4.22
505.153	4.35
505.503	4.3
505.853	4.23
506.203	4.32
506.553	4.36
506.903	4.23
507.253	4.26
507.603	4.32
507.953	4.46
508.303	4.38
508.652	4.21
509.002	4.4
509.352	4.32
509.701	4.29
510.051	4.42
510.4	4.32
510.75	4.36
511.099	4.4
511.449	4.29
511.798	4.48
512.147	4.32
512.496	4.35
512.846	4.33
513.195	4.38
513.544	4.31
513.893	4.31
514.242	4.38
514.591	4.44
514.939	4.33
515.288	4.33
515.637	4.52
515.986	4.3
516.334	4.42
516.683	4.3
517.032	4.33
517.38	4.32
517.729	4.42
518.077	4.38
518.426	4.43
518.774	4.44
519.122	4.39
519.47	4.37
519.819	4.38
520.167	4.4
520.515	4.32
520.863	4.36
521.211	4.36
521.559	4.44
521.907	4.33
522.255	4.4
522.602	4.48
522.95	4.39
523.298	4.4
523.645	4.36
523.993	4.54
524.341	4.51
524.688	4.41
525.036	4.45
525.383	4.55
525.73	4.51
526.078	4.53
526.425	4.45
526.772	4.39
527.119	4.36
527.466	4.32
527.814	4.32
528.161	4.42
528.508	4.39
528.854	4.33
529.201	4.36
529.548	4.29
529.895	4.26
530.242	4.27
530.588	4.27
530.935	4.31
531.282	4.34
531.628	4.33
531.975	4.43
532.321	4.44
532.667	4.41
533.014	4.4
533.36	4.39
533.706	4.56
534.052	4.38
534.399	4.33
534.745	4.37
535.091	4.35
535.437	4.41
535.783	4.48
536.129	4.45
536.474	4.49
536.82	4.43
537.166	4.51
537.512	4.49
537.857	4.46
538.203	4.4
538.549	4.52
538.894	4.43
539.239	4.6
539.585	4.58
539.93	4.52
540.276	4.52
540.621	4.58
540.966	4.62
541.311	4.57
541.656	4.49
542.001	4.55
542.346	4.46
542.691	4.47
543.036	4.42
543.381	4.45
543.726	4.5
544.071	4.53
544.415	4.41
544.76	4.41
545.105	4.58
545.449	4.54
545.794	4.54
546.138	4.52
546.483	4.53
546.827	4.62
547.171	4.51
547.516	4.68
547.86	4.56
548.204	4.49
548.548	4.68
548.892	4.55
549.236	4.7
549.58	4.57
549.924	4.59
550.268	4.66
550.612	4.63
550.956	4.57
551.3	4.69
551.643	4.74
551.987	4.59
552.33	4.5
552.674	4.61
553.017	4.81
553.361	4.72
553.704	4.62
554.048	4.61
554.391	4.61
554.734	4.65
555.077	4.68
555.42	4.7
555.764	4.66
556.107	4.71
556.45	4.66
556.793	4.76
557.135	4.92
557.478	4.7
557.821	4.68
558.164	4.77
558.507	4.69
558.849	4.65
559.192	4.71
559.534	4.61
559.877	4.71
560.219	4.89
560.562	4.73
560.904	4.64
561.246	4.71
561.589	4.71
561.931	4.92
562.273	4.67
562.615	4.9
562.957	4.76
563.299	4.84
563.641	4.82
563.983	4.74
564.325	4.64
564.667	4.82
565.008	4.64
565.35	4.91
565.692	4.97
566.033	4.83
566.375	4.63
566.716	4.65
567.058	4.7
567.399	4.87
567.741	4.82
568.082	4.79
568.423	4.9
568.764	4.73
569.105	5
569.447	4.7
569.788	4.89
570.129	4.84
570.47	4.88
570.811	4.77
571.151	4.86
571.492	4.96
571.833	4.9
572.174	4.75
572.514	4.72
572.855	4.92
573.195	4.9
573.536	4.79
573.876	4.8
574.217	4.86
574.557	4.97
574.898	4.64
575.238	4.78
575.578	4.93
575.918	4.84
576.258	4.87
576.598	4.93
576.938	5.14
577.278	4.88
577.618	4.87
577.958	4.76
578.298	4.86
578.638	4.82
578.977	5.03
579.317	4.93
579.657	4.92
579.996	4.78
580.336	4.78
580.675	4.91
581.014	5.1
581.354	5.04
581.693	4.96
582.032	4.93
582.372	5.13
582.711	4.97
583.05	5.01
583.389	4.98
583.728	4.98
584.067	4.93
584.406	5.06
584.745	5.03
585.083	5.04
585.422	5.1
585.761	5.05
586.1	5.18
586.438	4.88
586.777	5.13
587.115	5.08
587.454	5.11
587.792	4.76
588.13	5.3
588.469	5.13
588.807	5.24
589.145	5.15
589.483	4.87
589.821	5.33
590.159	4.89
590.497	4.99
590.835	5.1
591.173	5.16
591.511	5.21
591.849	5.12
592.187	5.15
592.524	4.92
592.862	5.11
593.2	4.97
593.537	4.91
593.875	5.17
594.212	5.17
594.55	4.97
594.887	5.39
595.224	5.06
595.561	5.05
595.899	5.17
596.236	5.3
596.573	4.82
596.91	4.94
597.247	4.83
597.584	5.07
597.921	5.02
598.258	5.13
598.594	4.95
598.931	4.97
599.268	5.08
599.604	5.15
599.941	5.01
600.277	5.07
600.614	5.1
600.95	5.28
601.287	4.94
601.623	5.12
601.959	5.01
602.296	5.4
602.632	5.23
602.968	5.13
603.304	5.06
603.64	4.89
603.976	5.33
604.312	5.25
604.648	5.33
604.984	5.31
605.319	5.21
605.655	5.02
605.991	5.23
606.326	5.04
606.662	5.05
606.998	5.09
607.333	5.13
607.668	5.24
608.004	5.06
608.339	5.11
608.674	5.14
609.01	5.28
609.345	5.39
609.68	4.94
610.015	5.25
610.35	5.16
610.685	5.18
611.02	5.4
611.355	5.37
611.689	5.23
612.024	5.38
612.359	5.15
612.694	5.27
613.028	5.59
613.363	5.01
613.697	5.35
614.032	5.59
614.366	5.25
614.7	5.67
615.035	5.16
615.369	5.44
615.703	5.52
616.037	5.12
616.371	5.39
616.705	5.34
617.039	5.6
617.373	5.35
617.707	5.36
618.041	5.77
618.375	5.13
618.709	5.39
619.042	5.12
619.376	5.36
619.71	5.37
620.043	5.05
620.377	5.34
620.71	5.42
621.043	5.13
621.377	5.19
621.71	5.87
622.043	5.38
622.376	5.32
622.709	5.46
623.043	5.18
623.376	5.59
623.709	5.48
624.041	5.51
624.374	5.16
624.707	5.36
625.04	5.46
625.373	5.41
625.705	5.33
626.038	5.17
626.37	5.36
626.703	5.28
627.035	5.49
627.368	5.53
627.7	5.72
628.032	5.54
628.365	5.35
628.697	5.39
629.029	5.78
629.361	5.28
629.693	5.46
630.025	5.37
630.357	5.65
630.689	5.62
631.021	5.62
631.353	5.82
631.684	5.8
632.016	5.4
632.348	5.65
632.679	5.16
633.011	5.65
633.342	5.34
633.674	5.33
634.005	5.5
634.336	5.43
634.668	5.6
634.999	5.92
635.33	5.32
635.661	5.62
635.992	5.43
636.323	5.72
636.654	5.78
636.985	5.53
637.316	5.49
637.647	5.52
637.977	5.77
638.308	5.52
638.639	5.35
638.969	5.45
639.3	5.5
639.63	4.99
639.961	5.34
640.291	5.87
640.622	5.5
640.952	5.63
641.282	5.28
641.612	5.36
641.943	5.66
642.273	5.43
642.603	5.78
642.933	5.38
643.263	5.76
643.592	5.34
643.922	6.16
644.252	5.58
644.582	5.82
644.911	5.14
645.241	5.49
645.571	5.56
645.9	6.08
646.23	5.51
646.559	5.7
646.888	5.65
647.218	5.69
647.547	5.72
647.876	6.06
648.205	5.52
648.534	5.42
648.863	5.58
649.192	5.56
649.521	5.2
649.85	5.68
650.179	5.39
650.508	5.54
650.837	5.93
651.165	5.53
651.494	5.87
651.822	5.78
652.151	6.06
652.479	6.23
652.808	5.37
653.136	5.69
653.465	6.08
653.793	5.69
654.121	6.03
654.449	5.95
654.777	5.96
655.105	6.15
655.433	6.02
655.761	5.57
656.089	5.99
656.417	5.92
656.745	6.12
657.073	6.11
657.4	5.69
657.728	6.17
658.056	5.82
658.383	6.15
658.711	5.8
659.038	5.93
659.365	5.86
659.693	5.98
660.02	5.69
660.347	5.82
660.674	5.97
661.001	5.31
661.329	5.81
661.656	5.77
661.982	5.91
662.309	5.81
662.636	5.4
662.963	5.75
663.29	6.06
663.616	5.64
663.943	6.25
664.27	5.94
664.596	5.83
664.923	6.51
665.249	5.67
665.576	5.43
665.902	6.13
666.228	5.46
666.554	5.99
666.881	6.17
667.207	6.19
667.533	6.5
667.859	5.32
668.185	5.96
668.511	5.44
668.837	5.45
669.162	6.43
669.488	5.92
669.814	6.21
670.139	6.01
670.465	6.06
670.791	5.92
671.116	5.67
671.442	5.95
671.767	5.73
672.092	5.83
672.418	6.19
672.743	6.44
673.068	5.18
673.393	5.82
673.718	5.47
674.043	5.94
674.368	6.06
674.693	6.46
675.018	6.29
675.343	6.02
675.667	5.96
675.992	5.18
676.317	5.94
676.641	5.65
676.966	6.15
677.29	5.94
677.615	6.06
677.939	6.15
678.264	6.14
678.588	6.53
678.912	6.08
679.236	6.64
679.56	5.56
679.885	6
680.209	5.61
680.532	6.09
680.856	6.77
681.18	5.82
681.504	6.03
681.828	5.79
682.152	5.73
682.475	5.88
682.799	6.25
683.122	6
683.446	5.67
683.769	6.12
684.093	5.79
684.416	5.86
684.739	6.35
685.062	6.36
685.386	6.28
685.709	5.8
686.032	6.07
686.355	6.09
686.678	6.7
687.001	5.64
687.324	5.53
687.646	5.67
687.969	5.49
688.292	6.27
688.614	6.78
688.937	6.14
689.26	5.9
689.582	6.17
689.904	6.11
690.227	5.81
690.549	5.99
690.871	6.43
691.194	5.82
691.516	6.05
691.838	6.26
692.16	6.19
