Data from 0056_chest_Reflection__1__94.txt Node

Date: Fri Dec 16 14:44:06 CST 2022
User: ToomeyLab
Spectrometer: FLMS14357
Trigger mode: 0
Integration Time (sec): 1.000000E-2
Scans to average: 100
Electric dark correction enabled: true
Nonlinearity correction enabled: false
Boxcar width: 0
XAxis mode: Wavelengths
Number of Pixels in Spectrum: 2048
>>>>>Begin Spectral Data<<<<<
189.047	1.51
189.435	1.51
189.823	1.51
190.211	110.88
190.599	496.21
190.987	43.63
191.375	-59.87
191.763	195.95
192.151	250.95
192.538	-664.41
192.926	13.96
193.314	88.36
193.702	177.99
194.089	-58.95
194.477	430.35
194.864	-50
195.252	9.58
195.639	166.45
196.027	-61.27
196.414	48.04
196.801	46.21
197.189	147.01
197.576	892.28
197.963	-113.83
198.351	-1.58
198.738	-35.69
199.125	7.32
199.512	9.95
199.899	-22.64
200.286	-15.69
200.673	34.51
201.06	27.8
201.447	37.06
201.833	2.97
202.22	6.48
202.607	-9.39
202.994	9.92
203.38	-46.98
203.767	-33.03
204.154	-45.6
204.54	66.07
204.927	32.09
205.313	43.98
205.699	1.65
206.086	-12.04
206.472	-2.9
206.858	12.59
207.245	22.29
207.631	2.53
208.017	-3.61
208.403	11.81
208.789	-23.04
209.175	26.98
209.561	-24.4
209.947	-3.44
210.333	-26.33
210.719	11.02
211.105	-45.79
211.491	9.57
211.876	0.68
212.262	1.18
212.648	-43.23
213.034	2.33
213.419	23.05
213.805	-1.35
214.19	-19.67
214.576	-26.62
214.961	7.91
215.346	-7.5
215.732	8.09
216.117	-5.04
216.502	36.35
216.888	-9.47
217.273	32.56
217.658	-16.17
218.043	-19.46
218.428	-7.82
218.813	-11.81
219.198	-39.01
219.583	9.44
219.968	-11.36
220.353	23.18
220.738	-14.34
221.122	4.39
221.507	-1.02
221.892	-5.46
222.276	-10.68
222.661	-11.35
223.046	13.95
223.43	0.63
223.815	4.56
224.199	3.22
224.583	5.77
224.968	2.98
225.352	10.86
225.736	15.86
226.121	-0.16
226.505	5.68
226.889	15.27
227.273	9.75
227.657	3.54
228.041	7.68
228.425	6.97
228.809	6.29
229.193	4.42
229.577	4.5
229.961	5.56
230.344	5.93
230.728	6.01
231.112	4.88
231.495	5.35
231.879	7.89
232.263	4.39
232.646	5.67
233.03	4.62
233.413	4.32
233.797	8.94
234.18	2.28
234.563	5.43
234.946	5.04
235.33	6.39
235.713	7.01
236.096	7.26
236.479	8.52
236.862	6.75
237.245	7.38
237.628	6.09
238.011	5.59
238.394	8.29
238.777	7.34
239.16	5.51
239.543	5.76
239.925	9.44
240.308	6.16
240.691	4.75
241.073	7.57
241.456	5.88
241.838	5.55
242.221	5.76
242.603	5.97
242.986	7.47
243.368	6.38
243.75	6.1
244.133	6.32
244.515	6.28
244.897	5.98
245.279	7.17
245.661	5.98
246.043	5.93
246.425	5.64
246.807	5.77
247.189	5.98
247.571	6.09
247.953	6.72
248.335	6.68
248.717	6.47
249.098	6.49
249.48	6.36
249.862	6.63
250.243	6.18
250.625	6.27
251.006	6.97
251.388	7.59
251.769	6.47
252.151	7.3
252.532	6.77
252.913	6.87
253.295	6.29
253.676	6.12
254.057	6.11
254.438	5.97
254.819	6.97
255.2	6.7
255.581	6.25
255.962	6.43
256.343	6.22
256.724	6.34
257.105	5.38
257.486	6.52
257.867	5.13
258.247	6.64
258.628	6.59
259.009	6.23
259.389	6.92
259.77	6
260.15	7.2
260.531	6.09
260.911	6.15
261.292	6.03
261.672	6.06
262.052	5.85
262.432	6.2
262.813	5.87
263.193	5.64
263.573	6.26
263.953	6.25
264.333	5.97
264.713	5.99
265.093	5.87
265.473	5.33
265.853	6.32
266.233	5.37
266.612	6.36
266.992	5.59
267.372	5.55
267.752	5.57
268.131	5.72
268.511	5.86
268.89	6.21
269.27	6.01
269.649	6.2
270.029	6.09
270.408	5.98
270.787	5.69
271.167	5.95
271.546	5.31
271.925	5.76
272.304	5.34
272.683	5.71
273.062	6.13
273.441	6.07
273.82	5.99
274.199	5.91
274.578	5.51
274.957	6.23
275.336	5.5
275.715	6.14
276.093	5.96
276.472	6.06
276.851	5.87
277.229	6.22
277.608	5.24
277.986	5.37
278.365	4.94
278.743	5.88
279.122	4.91
279.5	5.37
279.878	5.24
280.257	5.91
280.635	5.25
281.013	5.51
281.391	5.22
281.769	5.6
282.147	5.65
282.525	5.74
282.903	5.63
283.281	5.77
283.659	5.67
284.037	5.69
284.415	5.98
284.792	5.7
285.17	5.5
285.548	5.7
285.925	5.87
286.303	5.42
286.68	5.82
287.058	5.88
287.435	5.65
287.813	5.68
288.19	6.31
288.567	5.61
288.945	5.69
289.322	5.27
289.699	5.99
290.076	6.12
290.453	5.89
290.83	6.65
291.207	6.11
291.584	5.79
291.961	6.34
292.338	5.84
292.715	6.3
293.092	6.28
293.469	6.62
293.845	6.29
294.222	6.34
294.599	7.12
294.975	6.99
295.352	6.03
295.728	6.84
296.105	6.83
296.481	7.19
296.858	7.04
297.234	6.63
297.61	6.47
297.986	6.74
298.363	6.79
298.739	6.94
299.115	6.69
299.491	6.72
299.867	7.03
300.243	6.73
300.619	6.58
300.995	6.87
301.371	7.27
301.746	6.63
302.122	7.19
302.498	7.18
302.874	7.22
303.249	7.11
303.625	6.8
304	6.89
304.376	7.1
304.751	6.92
305.127	6.87
305.502	7.15
305.878	6.55
306.253	6.96
306.628	7.23
307.003	7.6
307.378	6.54
307.754	7.25
308.129	6.89
308.504	7.23
308.879	7.73
309.254	7.54
309.629	7.04
310.003	7.68
310.378	7.25
310.753	7.58
311.128	7.31
311.502	7.13
311.877	7.44
312.252	7.26
312.626	7.37
313.001	7.14
313.375	7.66
313.75	6.67
314.124	7.82
314.498	7.36
314.873	7.57
315.247	7.28
315.621	7.27
315.995	7.22
316.369	7.41
316.743	7.31
317.117	7.21
317.491	7.64
317.865	7.01
318.239	7.87
318.613	7.29
318.987	7.4
319.361	7.83
319.734	7.62
320.108	7.82
320.482	7.1
320.855	6.92
321.229	8.7
321.602	8
321.976	7.32
322.349	7.17
322.723	6.77
323.096	8.04
323.469	7.32
323.843	7.31
324.216	7.67
324.589	7.76
324.962	7.09
325.335	7.5
325.708	7.68
326.081	7.97
326.454	7.49
326.827	7.75
327.2	7.69
327.573	7.94
327.945	7.62
328.318	7.48
328.691	7.58
329.063	7.09
329.436	7.78
329.809	7.95
330.181	7.64
330.553	7.88
330.926	7.51
331.298	7.19
331.671	7.48
332.043	7.64
332.415	7.81
332.787	8.01
333.159	7.16
333.532	7.6
333.904	7.26
334.276	7.59
334.648	8.04
335.02	7.77
335.391	7.91
335.763	7.72
336.135	7.85
336.507	7.79
336.879	7.96
337.25	7.56
337.622	7.55
337.993	7.87
338.365	8.03
338.736	7.74
339.108	7.85
339.479	7.59
339.851	8.11
340.222	7.94
340.593	7.57
340.964	7.55
341.336	7.13
341.707	7.57
342.078	7.19
342.449	7.87
342.82	7.89
343.191	7.43
343.562	7.73
343.933	7.46
344.303	8.16
344.674	8.07
345.045	8.29
345.416	7.78
345.786	7.68
346.157	7.72
346.527	7.71
346.898	7.76
347.268	7.82
347.639	7.55
348.009	7.79
348.38	7.74
348.75	7.47
349.12	7.85
349.49	7.73
349.861	8.07
350.231	8.44
350.601	7.93
350.971	8.13
351.341	8.07
351.711	7.41
352.081	7.57
352.45	8
352.82	8.06
353.19	7.51
353.56	7.92
353.929	8.15
354.299	7.68
354.669	7.95
355.038	8.25
355.408	8.06
355.777	7.87
356.147	7.69
356.516	7.9
356.885	7.62
357.254	8.08
357.624	7.73
357.993	7.69
358.362	8.03
358.731	7.75
359.1	8
359.469	7.8
359.838	7.66
360.207	7.74
360.576	7.95
360.945	8.12
361.314	8.07
361.682	7.67
362.051	7.77
362.42	8.1
362.788	7.93
363.157	7.87
363.525	7.98
363.894	7.71
364.262	7.75
364.631	8.49
364.999	7.66
365.367	8.44
365.735	7.42
366.104	7.85
366.472	7.79
366.84	8.14
367.208	7.68
367.576	7.82
367.944	8.21
368.312	7.38
368.68	8.41
369.048	7.99
369.416	7.77
369.783	8.01
370.151	8.19
370.519	7.95
370.886	7.96
371.254	8.1
371.621	8.34
371.989	8.07
372.356	7.91
372.724	8.1
373.091	8.03
373.458	8.01
373.826	8.11
374.193	8.15
374.56	7.8
374.927	7.93
375.294	8.28
375.661	8.26
376.028	8.04
376.395	8.28
376.762	8.47
377.129	8.58
377.496	8.16
377.863	7.89
378.229	8.26
378.596	7.98
378.963	8.12
379.329	8.17
379.696	8.09
380.062	8.34
380.429	8.12
380.795	8.36
381.161	8.14
381.528	7.87
381.894	8.1
382.26	8.05
382.626	7.91
382.993	7.87
383.359	8
383.725	8.53
384.091	8.21
384.457	8.11
384.823	8.53
385.188	8.51
385.554	8.39
385.92	8.22
386.286	8.25
386.651	8.23
387.017	8.41
387.383	8.15
387.748	7.81
388.114	8.37
388.479	8.43
388.845	8.22
389.21	8.35
389.575	8.36
389.94	8.16
390.306	8.22
390.671	8.44
391.036	8.4
391.401	8.46
391.766	8.37
392.131	8.19
392.496	8.32
392.861	8.14
393.226	8.32
393.591	8.43
393.956	8.36
394.32	8.35
394.685	8.37
395.05	8.15
395.414	8.62
395.779	8.35
396.143	8.58
396.508	8.52
396.872	8.45
397.236	8.15
397.601	8.51
397.965	8.05
398.329	8.44
398.694	8.18
399.058	8.52
399.422	8.64
399.786	8.49
400.15	8.34
400.514	8.44
400.878	8.24
401.242	8.43
401.605	8.53
401.969	8.38
402.333	8.58
402.697	8.6
403.06	8.61
403.424	8.17
403.787	8.45
404.151	8.26
404.514	8.4
404.878	8.47
405.241	8.62
405.604	8.63
405.968	8.52
406.331	8.47
406.694	8.42
407.057	8.74
407.42	8.53
407.783	8.39
408.146	8.44
408.509	8.53
408.872	8.43
409.235	8.55
409.598	8.74
409.961	8.66
410.323	8.42
410.686	8.53
411.049	8.59
411.411	8.47
411.774	8.54
412.136	8.7
412.499	8.44
412.861	8.57
413.223	8.76
413.586	8.55
413.948	8.68
414.31	8.77
414.672	8.59
415.035	8.79
415.397	8.68
415.759	8.52
416.121	8.71
416.483	8.87
416.845	8.67
417.206	8.77
417.568	8.62
417.93	8.67
418.292	8.71
418.653	8.78
419.015	8.68
419.377	8.77
419.738	8.53
420.1	8.56
420.461	8.5
420.822	8.7
421.184	8.63
421.545	8.59
421.906	8.67
422.267	8.49
422.629	8.65
422.99	8.57
423.351	8.6
423.712	8.64
424.073	8.67
424.434	8.66
424.795	8.65
425.155	8.69
425.516	8.61
425.877	8.59
426.238	8.42
426.598	8.71
426.959	8.68
427.32	8.71
427.68	8.81
428.041	8.73
428.401	8.65
428.761	8.77
429.122	8.74
429.482	8.78
429.842	8.88
430.202	8.75
430.563	8.94
430.923	8.81
431.283	8.96
431.643	8.93
432.003	9.01
432.363	8.95
432.722	8.88
433.082	8.93
433.442	8.96
433.802	8.91
434.161	8.94
434.521	8.9
434.881	8.97
435.24	8.9
435.6	8.83
435.959	8.95
436.319	8.89
436.678	8.92
437.037	9.09
437.396	8.9
437.756	8.97
438.115	8.94
438.474	9.03
438.833	9.11
439.192	9.24
439.551	9.03
439.91	9.07
440.269	9.07
440.628	8.93
440.987	8.93
441.345	8.94
441.704	9.05
442.063	8.98
442.421	8.94
442.78	8.93
443.138	8.98
443.497	8.89
443.855	9.05
444.214	9.09
444.572	8.97
444.93	9.06
445.288	9.09
445.647	9.02
446.005	9.04
446.363	9.18
446.721	8.98
447.079	9.02
447.437	9.07
447.795	8.97
448.153	8.98
448.51	8.92
448.868	9.1
449.226	9.03
449.584	9.06
449.941	9.15
450.299	9.19
450.656	9.22
451.014	9.1
451.371	9.23
451.729	9.18
452.086	9.23
452.443	9.27
452.801	9.51
453.158	9.22
453.515	9.25
453.872	9.29
454.229	9.17
454.586	9.35
454.943	9.2
455.3	9.52
455.657	9.28
456.014	9.39
456.371	9.35
456.727	9.37
457.084	9.4
457.441	9.33
457.797	9.45
458.154	9.45
458.51	9.3
458.867	9.5
459.223	9.38
459.58	9.27
459.936	9.31
460.292	9.47
460.648	9.29
461.005	9.35
461.361	9.29
461.717	9.22
462.073	9.23
462.429	9.31
462.785	9.37
463.141	9.32
463.496	9.42
463.852	9.61
464.208	9.37
464.564	9.41
464.919	9.44
465.275	9.59
465.631	9.58
465.986	9.54
466.342	9.55
466.697	9.73
467.052	9.52
467.408	9.58
467.763	9.47
468.118	9.66
468.473	9.57
468.829	9.45
469.184	9.74
469.539	9.35
469.894	9.68
470.249	9.65
470.603	9.59
470.958	9.63
471.313	9.5
471.668	9.77
472.023	9.8
472.377	9.72
472.732	9.6
473.086	9.65
473.441	9.77
473.795	9.94
474.15	9.7
474.504	9.84
474.859	9.66
475.213	9.75
475.567	9.71
475.921	9.74
476.275	9.76
476.63	9.88
476.984	9.7
477.338	9.91
477.692	9.81
478.045	9.79
478.399	9.83
478.753	9.75
479.107	9.82
479.461	9.77
479.814	9.77
480.168	9.77
480.521	9.8
480.875	9.97
481.228	9.84
481.582	9.8
481.935	9.8
482.289	9.79
482.642	9.91
482.995	9.9
483.348	9.79
483.701	9.74
484.055	9.79
484.408	9.72
484.761	9.57
485.114	9.5
485.466	9.48
485.819	9.38
486.172	9.41
486.525	9.44
486.878	9.52
487.23	9.62
487.583	9.68
487.936	9.73
488.288	9.71
488.641	9.74
488.993	9.6
489.345	9.6
489.698	9.66
490.05	9.59
490.402	9.72
490.754	9.81
491.107	9.83
491.459	9.92
491.811	9.96
492.163	9.97
492.515	9.89
492.866	9.8
493.218	9.83
493.57	9.8
493.922	9.73
494.274	9.76
494.625	9.81
494.977	9.96
495.328	10.16
495.68	10.36
496.031	10.25
496.383	10.16
496.734	10.3
497.086	10.03
497.437	10.31
497.788	10.26
498.139	10.23
498.49	10.21
498.842	10.08
499.193	10.13
499.544	10.38
499.894	10.33
500.245	10.23
500.596	10.34
500.947	10.25
501.298	10.3
501.648	10.37
501.999	10.47
502.35	10.44
502.7	10.51
503.051	10.47
503.401	10.47
503.752	10.42
504.102	10.44
504.452	10.43
504.803	10.4
505.153	10.52
505.503	10.39
505.853	10.4
506.203	10.52
506.553	10.4
506.903	10.47
507.253	10.58
507.603	10.45
507.953	10.56
508.303	10.57
508.652	10.53
509.002	10.55
509.352	10.58
509.701	10.7
510.051	10.71
510.4	10.52
510.75	10.59
511.099	10.68
511.449	10.68
511.798	10.63
512.147	10.66
512.496	10.72
512.846	10.7
513.195	10.81
513.544	10.61
513.893	10.66
514.242	10.83
514.591	10.79
514.939	10.69
515.288	10.66
515.637	10.86
515.986	10.88
516.334	10.78
516.683	10.77
517.032	10.92
517.38	10.75
517.729	11.04
518.077	10.93
518.426	10.81
518.774	10.79
519.122	10.92
519.47	10.89
519.819	11
520.167	10.89
520.515	10.84
520.863	10.86
521.211	10.79
521.559	10.89
521.907	10.92
522.255	11.05
522.602	11.1
522.95	11.22
523.298	11.13
523.645	11.04
523.993	11.29
524.341	11.2
524.688	11.23
525.036	11.24
525.383	11.2
525.73	11.32
526.078	11.21
526.425	11.3
526.772	11.19
527.119	11.15
527.466	11.15
527.814	11.06
528.161	11.18
528.508	11.18
528.854	11.15
529.201	11.16
529.548	11.14
529.895	11
530.242	11.02
530.588	10.95
530.935	10.92
531.282	10.97
531.628	11.01
531.975	11.16
532.321	11.24
532.667	11.24
533.014	11.35
533.36	11.39
533.706	11.42
534.052	11.37
534.399	11.33
534.745	11.29
535.091	11.31
535.437	11.25
535.783	11.36
536.129	11.42
536.474	11.42
536.82	11.47
537.166	11.63
537.512	11.56
537.857	11.63
538.203	11.57
538.549	11.61
538.894	11.58
539.239	11.66
539.585	11.79
539.93	11.67
540.276	11.69
540.621	11.91
540.966	11.84
541.311	11.97
541.656	11.85
542.001	11.92
542.346	11.85
542.691	11.7
543.036	11.63
543.381	11.71
543.726	11.67
544.071	11.72
544.415	11.69
544.76	11.74
545.105	11.95
545.449	11.79
545.794	11.96
546.138	11.95
546.483	12.12
546.827	12.16
547.171	12.18
547.516	12.17
547.86	12.14
548.204	12.12
548.548	12.2
548.892	12.07
549.236	12.21
549.58	12.25
549.924	12.29
550.268	12.47
550.612	12.44
550.956	12.4
551.3	12.51
551.643	12.64
551.987	12.63
552.33	12.45
552.674	12.64
553.017	12.7
553.361	12.69
553.704	12.57
554.048	12.67
554.391	12.65
554.734	12.71
555.077	12.74
555.42	12.6
555.764	12.61
556.107	12.68
556.45	12.73
556.793	13.04
557.135	12.93
557.478	12.89
557.821	12.75
558.164	13.06
558.507	12.74
558.849	13.01
559.192	13.02
559.534	13.05
559.877	13.2
560.219	12.94
560.562	13.05
560.904	13.19
561.246	13.31
561.589	13.1
561.931	13.39
562.273	13.05
562.615	13.2
562.957	13.17
563.299	13.29
563.641	13.25
563.983	13.43
564.325	13.2
564.667	13.39
565.008	13.27
565.35	13.67
565.692	13.47
566.033	13.65
566.375	13.42
566.716	13.57
567.058	13.55
567.399	13.41
567.741	13.57
568.082	13.39
568.423	13.56
568.764	13.52
569.105	13.7
569.447	13.56
569.788	13.56
570.129	13.59
570.47	13.7
570.811	13.87
571.151	13.85
571.492	13.86
571.833	13.83
572.174	13.67
572.514	13.74
572.855	13.81
573.195	13.88
573.536	13.87
573.876	13.83
574.217	13.97
574.557	14.17
574.898	13.79
575.238	14.16
575.578	14.18
575.918	13.87
576.258	13.99
576.598	14.07
576.938	14.24
577.278	14.13
577.618	14.07
577.958	14
578.298	14.23
578.638	14.4
578.977	14.29
579.317	14.37
579.657	14.42
579.996	14.31
580.336	14.39
580.675	14.37
581.014	14.57
581.354	14.64
581.693	14.44
582.032	14.51
582.372	14.63
582.711	14.71
583.05	14.88
583.389	14.85
583.728	14.81
584.067	14.95
584.406	15.1
584.745	14.83
585.083	14.91
585.422	14.65
585.761	15.07
586.1	15.07
586.438	14.94
586.777	15.07
587.115	14.94
587.454	15.18
587.792	14.86
588.13	15.31
588.469	15.19
588.807	15.25
589.145	15.24
589.483	15.09
589.821	15.42
590.159	15.07
590.497	15.09
590.835	15.39
591.173	15.52
591.511	15.71
591.849	15.38
592.187	15.48
592.524	15.58
592.862	15.3
593.2	15.45
593.537	15.56
593.875	15.68
594.212	15.64
594.55	15.89
594.887	15.71
595.224	15.64
595.561	15.66
595.899	15.8
596.236	15.89
596.573	15.48
596.91	15.81
597.247	15.63
597.584	15.97
597.921	15.67
598.258	15.85
598.594	15.84
598.931	15.74
599.268	15.86
599.604	16.02
599.941	15.92
600.277	15.86
600.614	16.16
600.95	16.35
601.287	16.09
601.623	16.4
601.959	15.97
602.296	16.14
602.632	16.4
602.968	16.19
603.304	16.32
603.64	16.17
603.976	16.27
604.312	16.46
604.648	16.48
604.984	16.34
605.319	16.46
605.655	16.35
605.991	16.32
606.326	16.37
606.662	16.24
606.998	16.37
607.333	16.45
607.668	16.55
608.004	16.34
608.339	16.54
608.674	16.64
609.01	16.88
609.345	17.01
609.68	16.45
610.015	16.69
610.35	16.85
610.685	17.07
611.02	17.11
611.355	17.02
611.689	16.58
612.024	17.08
612.359	17.03
612.694	17.09
613.028	17.36
613.363	17.06
613.697	17.11
614.032	16.99
614.366	17.05
614.7	17.6
615.035	17.08
615.369	16.86
615.703	17.46
616.037	17.31
616.371	17.51
616.705	17.48
617.039	17.38
617.373	17.44
617.707	17.4
618.041	17.34
618.375	17.31
618.709	17.7
619.042	17.77
619.376	17.54
619.71	17.64
620.043	17.39
620.377	18
620.71	17.69
621.043	17.77
621.377	17.7
621.71	17.91
622.043	18.04
622.376	17.74
622.709	17.9
623.043	18.03
623.376	17.97
623.709	18.26
624.041	18.14
624.374	18.09
624.707	18.12
625.04	18.24
625.373	18.29
625.705	18.23
626.038	18.09
626.37	18.6
626.703	18
627.035	18.32
627.368	18.4
627.7	18.67
628.032	18.13
628.365	18.12
628.697	18.28
629.029	18.61
629.361	18.37
629.693	18.9
630.025	18.22
630.357	18.51
630.689	18.94
631.021	18.89
631.353	18.92
631.684	18.78
632.016	18.72
632.348	18.94
632.679	18.6
633.011	18.96
633.342	18.68
633.674	18.53
634.005	18.88
634.336	18.69
634.668	18.85
634.999	18.88
635.33	18.89
635.661	19.14
635.992	18.53
636.323	19.2
636.654	19.26
636.985	18.91
637.316	18.99
637.647	19.05
637.977	18.98
638.308	18.89
638.639	18.99
638.969	19.44
639.3	19.58
639.63	19.11
639.961	19.05
640.291	19.66
640.622	19.57
640.952	19.08
641.282	19.17
641.612	19.57
641.943	19.71
642.273	19.34
642.603	19.15
642.933	19.68
643.263	19.86
643.592	19.65
643.922	19.81
644.252	19.98
644.582	19.95
644.911	19.69
645.241	19.29
645.571	19.63
645.9	19.97
646.23	19.96
646.559	19.94
646.888	19.66
647.218	19.86
647.547	20.51
647.876	19.79
648.205	20.08
648.534	19.92
648.863	19.96
649.192	19.85
649.521	19.89
649.85	20.78
650.179	20.22
650.508	20.1
650.837	20.5
651.165	19.96
651.494	20.51
651.822	20.04
652.151	20.23
652.479	20.68
652.808	20.14
653.136	20.54
653.465	20.25
653.793	20.74
654.121	20.22
654.449	20.19
654.777	20.62
655.105	20.66
655.433	21.18
655.761	20.52
656.089	20.68
656.417	20.82
656.745	20.99
657.073	21.07
657.4	20.81
657.728	20.47
658.056	20.87
658.383	20.92
658.711	20.34
659.038	21.34
659.365	21.13
659.693	21.14
660.02	21.19
660.347	20.91
660.674	21.08
661.001	21.12
661.329	21.32
661.656	20.82
661.982	21.14
662.309	21.53
662.636	21.02
662.963	21.55
663.29	21.58
663.616	21.5
663.943	21.54
664.27	21.12
664.596	21.06
664.923	22.1
665.249	21.36
665.576	21.3
665.902	21.67
666.228	21.26
666.554	21.31
666.881	22.03
667.207	21.9
667.533	21.95
667.859	21.56
668.185	21.66
668.511	21.29
668.837	21.58
669.162	21.82
669.488	21.8
669.814	22.04
670.139	22.7
670.465	22.06
670.791	21.92
671.116	21.77
671.442	22.12
671.767	22.16
672.092	22.15
672.418	21.77
672.743	22.13
673.068	21.9
673.393	21.82
673.718	22.48
674.043	22.2
674.368	22.4
674.693	22.36
675.018	22.09
675.343	22.56
675.667	22.36
675.992	21.64
676.317	22.37
676.641	22
676.966	22.82
677.29	22.68
677.615	22.37
677.939	22.08
678.264	22.27
678.588	22.75
678.912	22.93
679.236	23.01
679.56	22.67
679.885	22.61
