Data from 0056_chest_Reflection__4__97.txt Node

Date: Fri Dec 16 14:44:46 CST 2022
User: ToomeyLab
Spectrometer: FLMS14357
Trigger mode: 0
Integration Time (sec): 1.000000E-2
Scans to average: 100
Electric dark correction enabled: true
Nonlinearity correction enabled: false
Boxcar width: 0
XAxis mode: Wavelengths
Number of Pixels in Spectrum: 2048
>>>>>Begin Spectral Data<<<<<
189.047	30.29
189.435	30.29
189.823	30.29
190.211	74.5
190.599	343.22
190.987	-105.93
191.375	-116.91
191.763	123.22
192.151	-539.37
192.538	-176.38
192.926	217.67
193.314	83.69
193.702	416.02
194.089	-371.26
194.477	-438.86
194.864	-59.96
195.252	63.63
195.639	117.12
196.027	14.75
196.414	33.25
196.801	-43.91
197.189	80.04
197.576	-83.89
197.963	-6.34
198.351	35.32
198.738	-11.05
199.125	14.4
199.512	-19.02
199.899	-61.21
200.286	-53.95
200.673	43.54
201.06	68.04
201.447	20.59
201.833	1.64
202.22	6.72
202.607	20.05
202.994	11.15
203.38	-18.93
203.767	-80.58
204.154	-69.81
204.54	16.28
204.927	4.86
205.313	17.92
205.699	35.92
206.086	0.81
206.472	1.44
206.858	24.9
207.245	2.35
207.631	10.34
208.017	53.74
208.403	0.15
208.789	4.25
209.175	34.12
209.561	5.1
209.947	-3.2
210.333	-43.37
210.719	-4.14
211.105	-4.62
211.491	13.52
211.876	2.14
212.262	-38.82
212.648	-48.98
213.034	-1.02
213.419	25.97
213.805	26.94
214.19	-23.76
214.576	-42.4
214.961	16.93
215.346	5.3
215.732	3.47
216.117	-6.06
216.502	-6.8
216.888	-48.24
217.273	22.35
217.658	-12.91
218.043	-2.3
218.428	10.57
218.813	-13.01
219.198	-29.85
219.583	-23.33
219.968	12.46
220.353	12.73
220.738	-34.1
221.122	-9.98
221.507	-17.52
221.892	-4.1
222.276	10.06
222.661	0.02
223.046	3.76
223.43	-12.58
223.815	7.52
224.199	13.99
224.583	0.18
224.968	9.91
225.352	1.15
225.736	-0.91
226.121	-6.44
226.505	2.52
226.889	9.53
227.273	6.89
227.657	-2
228.041	5.31
228.425	5.43
228.809	3.32
229.193	3.22
229.577	4.18
229.961	3.66
230.344	3.75
230.728	3.8
231.112	3.81
231.495	3.85
231.879	2.25
232.263	3.17
232.646	2.99
233.03	2.98
233.413	2.88
233.797	4.25
234.18	1.83
234.563	0.54
234.946	2.41
235.33	4.15
235.713	4.05
236.096	4.42
236.479	4.84
236.862	5.08
237.245	3.49
237.628	3.97
238.011	2.63
238.394	4.41
238.777	3.93
239.16	2.09
239.543	2.93
239.925	2.36
240.308	4.21
240.691	2.54
241.073	4.45
241.456	3.68
241.838	3.21
242.221	3.75
242.603	4.2
242.986	4.4
243.368	3.98
243.75	3.45
244.133	4.21
244.515	3.45
244.897	3.46
245.279	3.82
245.661	3.05
246.043	4.08
246.425	3.24
246.807	4.02
247.189	3.27
247.571	3.28
247.953	3.56
248.335	4
248.717	3.65
249.098	3.77
249.48	3.09
249.862	3.42
250.243	3.23
250.625	3.33
251.006	3.15
251.388	3.39
251.769	2.78
252.151	2.84
252.532	3.02
252.913	3.57
253.295	3.25
253.676	3.82
254.057	3.05
254.438	3.75
254.819	3.06
255.2	3.61
255.581	3.05
255.962	2.52
256.343	3.93
256.724	2.43
257.105	2.67
257.486	2.76
257.867	1.71
258.247	3.03
258.628	4.35
259.009	3.45
259.389	3.76
259.77	3.26
260.15	3.94
260.531	3.5
260.911	3.43
261.292	3.58
261.672	3.26
262.052	3.36
262.432	3.49
262.813	3.52
263.193	3.2
263.573	3.21
263.953	3.19
264.333	3.58
264.713	3.02
265.093	2.75
265.473	4.56
265.853	3.32
266.233	2.91
266.612	3.39
266.992	2.52
267.372	3.43
267.752	3.05
268.131	2.95
268.511	3.5
268.89	3.61
269.27	3.67
269.649	3.14
270.029	2.45
270.408	3.45
270.787	3.06
271.167	3.75
271.546	2.56
271.925	3.18
272.304	3.52
272.683	3.08
273.062	3.4
273.441	3.17
273.82	3.48
274.199	3.6
274.578	3.23
274.957	3.21
275.336	2.7
275.715	3.35
276.093	3.66
276.472	2.8
276.851	3.29
277.229	3.18
277.608	3.13
277.986	3.29
278.365	3.2
278.743	2.83
279.122	3.06
279.5	3.1
279.878	2.74
280.257	3.44
280.635	3.09
281.013	3.85
281.391	2.98
281.769	2.81
282.147	3.18
282.525	3
282.903	3.95
283.281	3.29
283.659	3.22
284.037	3.21
284.415	3.16
284.792	3.59
285.17	3.06
285.548	3.46
285.925	3.17
286.303	2.58
286.68	3.35
287.058	3.07
287.435	3.07
287.813	3.22
288.19	3.7
288.567	3.29
288.945	3.28
289.322	2.86
289.699	2.86
290.076	3.42
290.453	2.69
290.83	3.54
291.207	3.16
291.584	3.07
291.961	3.3
292.338	3.57
292.715	3.4
293.092	3.39
293.469	3.56
293.845	3.42
294.222	3.22
294.599	3.6
294.975	3.48
295.352	2.93
295.728	3.38
296.105	3.32
296.481	3.62
296.858	3.42
297.234	3.34
297.61	3.75
297.986	3.38
298.363	3.1
298.739	3.5
299.115	3.06
299.491	3.46
299.867	3.37
300.243	3.12
300.619	3.35
300.995	3.32
301.371	3.44
301.746	3.54
302.122	3.15
302.498	3.25
302.874	3.37
303.249	3.39
303.625	3.36
304	3.17
304.376	3.32
304.751	3.21
305.127	2.74
305.502	3.59
305.878	3.12
306.253	3.6
306.628	3.33
307.003	3.73
307.378	2.98
307.754	3.27
308.129	3.03
308.504	3.27
308.879	3.15
309.254	3.62
309.629	3.2
310.003	3.8
310.378	3.3
310.753	2.98
311.128	3.15
311.502	2.95
311.877	3.35
312.252	2.93
312.626	2.86
313.001	3.08
313.375	3.16
313.75	3.11
314.124	3.84
314.498	3.56
314.873	3.39
315.247	3.11
315.621	3.43
315.995	3.75
316.369	3.35
316.743	3.73
317.117	3.56
317.491	3.49
317.865	2.59
318.239	3.89
318.613	3.1
318.987	3.6
319.361	3.43
319.734	3.05
320.108	3.67
320.482	3.29
320.855	2.91
321.229	3.47
321.602	3.4
321.976	3.48
322.349	3.04
322.723	2.59
323.096	3.44
323.469	2.55
323.843	3.53
324.216	3.21
324.589	3.67
324.962	3.08
325.335	3.02
325.708	3.34
326.081	3.79
326.454	3.56
326.827	3.44
327.2	3.79
327.573	3.55
327.945	3.05
328.318	3.5
328.691	3.48
329.063	3.62
329.436	3.58
329.809	3
330.181	3.11
330.553	3.35
330.926	3.56
331.298	2.94
331.671	2.98
332.043	3.13
332.415	3.25
332.787	3.46
333.159	3.21
333.532	3.1
333.904	3.84
334.276	3.73
334.648	3.54
335.02	3.09
335.391	3.35
335.763	3.39
336.135	3.49
336.507	3.46
336.879	3.09
337.25	3.91
337.622	3.57
337.993	3.9
338.365	3.84
338.736	3.68
339.108	3.51
339.479	3.41
339.851	3.4
340.222	3.32
340.593	3.43
340.964	3.15
341.336	2.71
341.707	3.33
342.078	3.13
342.449	3.64
342.82	3.52
343.191	3.09
343.562	3.58
343.933	3.43
344.303	3.51
344.674	3.35
345.045	3.63
345.416	3.18
345.786	2.94
346.157	3.62
346.527	3.51
346.898	3.47
347.268	3.39
347.639	3.57
348.009	3.32
348.38	3.17
348.75	3.72
349.12	3.33
349.49	3.52
349.861	3.75
350.231	3.79
350.601	3.43
350.971	3.46
351.341	3.62
351.711	3.39
352.081	3.34
352.45	3.49
352.82	3.54
353.19	3.28
353.56	3.1
353.929	3.58
354.299	3.08
354.669	3.5
355.038	3.6
355.408	3.77
355.777	3.26
356.147	3.81
356.516	3.72
356.885	3.17
357.254	3.6
357.624	3.47
357.993	3.18
358.362	3.79
358.731	3.61
359.1	3.59
359.469	3.48
359.838	3.17
360.207	3.24
360.576	3.59
360.945	3.44
361.314	3.62
361.682	3.39
362.051	3.34
362.42	3.72
362.788	3.47
363.157	3.35
363.525	3.41
363.894	3.25
364.262	3.19
364.631	3.9
364.999	3.3
365.367	4.03
365.735	3
366.104	3.32
366.472	3.58
366.84	3.68
367.208	3.06
367.576	3.49
367.944	3.6
368.312	3.26
368.68	3.79
369.048	3.53
369.416	3.49
369.783	3.65
370.151	3.57
370.519	3.36
370.886	3.6
371.254	3.55
371.621	3.61
371.989	3.6
372.356	3.31
372.724	3.37
373.091	3.57
373.458	3.62
373.826	3.21
374.193	4.03
374.56	3.52
374.927	3.21
375.294	3.94
375.661	3.58
376.028	3.65
376.395	3.39
376.762	3.71
377.129	3.63
377.496	3.51
377.863	3.54
378.229	3.36
378.596	3.57
378.963	3.62
379.329	3.53
379.696	3.52
380.062	3.79
380.429	3.59
380.795	3.51
381.161	3.5
381.528	3.27
381.894	3.7
382.26	3.51
382.626	3.57
382.993	3.22
383.359	3.53
383.725	3.48
384.091	3.64
384.457	3.49
384.823	3.74
385.188	3.61
385.554	3.42
385.92	3.79
386.286	3.76
386.651	3.47
387.017	3.65
387.383	3.46
387.748	3.67
388.114	3.69
388.479	3.84
388.845	3.75
389.21	3.7
389.575	3.82
389.94	3.57
390.306	3.65
390.671	3.64
391.036	3.74
391.401	4.1
391.766	3.68
392.131	3.63
392.496	3.42
392.861	3.62
393.226	3.66
393.591	3.61
393.956	3.85
394.32	3.88
394.685	3.72
395.05	3.62
395.414	3.77
395.779	3.67
396.143	3.74
396.508	3.7
396.872	3.71
397.236	3.59
397.601	3.79
397.965	3.55
398.329	3.75
398.694	3.34
399.058	3.68
399.422	3.87
399.786	3.62
400.15	3.6
400.514	3.58
400.878	3.64
401.242	3.76
401.605	3.9
401.969	3.75
402.333	3.62
402.697	3.91
403.06	3.86
403.424	3.64
403.787	3.9
404.151	3.48
404.514	3.74
404.878	3.84
405.241	3.69
405.604	3.9
405.968	3.61
406.331	3.89
406.694	3.63
407.057	3.8
407.42	3.73
407.783	3.82
408.146	3.8
408.509	3.85
408.872	3.63
409.235	4.01
409.598	4.11
409.961	4.01
410.323	3.56
410.686	3.37
411.049	3.67
411.411	3.59
411.774	3.65
412.136	3.78
412.499	3.7
412.861	3.64
413.223	3.79
413.586	3.65
413.948	3.83
414.31	3.83
414.672	3.82
415.035	3.88
415.397	3.88
415.759	3.84
416.121	4.07
416.483	3.85
416.845	3.91
417.206	3.95
417.568	3.92
417.93	3.8
418.292	3.71
418.653	3.81
419.015	3.79
419.377	3.79
419.738	3.83
420.1	3.68
420.461	3.85
420.822	3.78
421.184	3.8
421.545	3.8
421.906	3.8
422.267	3.64
422.629	3.76
422.99	3.75
423.351	3.81
423.712	3.81
424.073	3.9
424.434	3.84
424.795	3.78
425.155	3.86
425.516	3.72
425.877	3.83
426.238	3.72
426.598	3.88
426.959	3.79
427.32	3.87
427.68	3.96
428.041	3.86
428.401	3.79
428.761	3.9
429.122	3.99
429.482	3.81
429.842	3.93
430.202	3.84
430.563	3.84
430.923	3.88
431.283	4.07
431.643	3.99
432.003	4.09
432.363	4.01
432.722	3.94
433.082	3.86
433.442	3.98
433.802	3.9
434.161	3.92
434.521	3.92
434.881	4.02
435.24	3.92
435.6	4.01
435.959	3.87
436.319	3.85
436.678	4.07
437.037	3.92
437.396	4.01
437.756	3.96
438.115	3.88
438.474	3.98
438.833	4.09
439.192	4.18
439.551	3.99
439.91	4
440.269	4.07
440.628	3.92
440.987	3.96
441.345	3.94
441.704	4.05
442.063	3.95
442.421	4.05
442.78	3.93
443.138	3.92
443.497	3.99
443.855	3.86
444.214	4.03
444.572	3.95
444.93	3.99
445.288	4.1
445.647	4.03
446.005	3.85
446.363	4.11
446.721	3.98
447.079	3.97
447.437	3.89
447.795	3.98
448.153	3.9
448.51	4
448.868	4.02
449.226	4.05
449.584	4.08
449.941	4.11
450.299	4.15
450.656	4.08
451.014	4.08
451.371	4.14
451.729	4.18
452.086	4.05
452.443	4.11
452.801	4.06
453.158	4.09
453.515	4.16
453.872	4.25
454.229	3.96
454.586	4.03
454.943	4.19
455.3	4.08
455.657	4.13
456.014	4.15
456.371	4.11
456.727	4.11
457.084	4.01
457.441	4.06
457.797	4.22
458.154	4.22
458.51	4.1
458.867	4.03
459.223	4.14
459.58	4.01
459.936	4.12
460.292	4.25
460.648	3.97
461.005	4.03
461.361	4.1
461.717	4.12
462.073	4.12
462.429	4.08
462.785	4.28
463.141	4.32
463.496	4.12
463.852	4.31
464.208	4.2
464.564	4.08
464.919	4.15
465.275	4.11
465.631	4.12
465.986	4.16
466.342	4.19
466.697	4.08
467.052	4.2
467.408	4.21
467.763	4.03
468.118	4.15
468.473	4.28
468.829	4.05
469.184	4.17
469.539	4.02
469.894	4.15
470.249	4.23
470.603	4.22
470.958	4.28
471.313	4.18
471.668	4.31
472.023	4.39
472.377	4.23
472.732	4.31
473.086	4.26
473.441	4.43
473.795	4.38
474.15	4.21
474.504	4.18
474.859	4.08
475.213	4.29
475.567	4.32
475.921	4.37
476.275	4.32
476.63	4.32
476.984	4.16
477.338	4.47
477.692	4.37
478.045	4.19
478.399	4.32
478.753	4.16
479.107	4.33
479.461	4.36
479.814	4.24
480.168	4.38
480.521	4.34
480.875	4.46
481.228	4.38
481.582	4.23
481.935	4.34
482.289	4.26
482.642	4.3
482.995	4.18
483.348	4.3
483.701	4.24
484.055	4.15
484.408	4.18
484.761	4.06
485.114	4
485.466	4.04
485.819	4.1
486.172	4.22
486.525	4.28
486.878	4.31
487.23	4.3
487.583	4.26
487.936	4.29
488.288	4.19
488.641	4.21
488.993	4.15
489.345	4.18
489.698	4.23
490.05	4.27
490.402	4.39
490.754	4.4
491.107	4.35
491.459	4.44
491.811	4.39
492.163	4.33
492.515	4.29
492.866	4.13
493.218	4.17
493.57	4.33
493.922	4.38
494.274	4.45
494.625	4.51
494.977	4.42
495.328	4.51
495.68	4.61
496.031	4.48
496.383	4.32
496.734	4.55
497.086	4.47
497.437	4.57
497.788	4.46
498.139	4.5
498.49	4.52
498.842	4.5
499.193	4.56
499.544	4.6
499.894	4.53
500.245	4.43
500.596	4.48
500.947	4.67
501.298	4.48
501.648	4.62
501.999	4.81
502.35	4.74
502.7	4.53
503.051	4.78
503.401	4.72
503.752	4.61
504.102	4.66
504.452	4.54
504.803	4.51
505.153	4.71
505.503	4.65
505.853	4.47
506.203	4.7
506.553	4.66
506.903	4.69
507.253	4.73
507.603	4.59
507.953	4.67
508.303	4.59
508.652	4.74
509.002	4.8
509.352	4.67
509.701	4.55
510.051	4.67
510.4	4.67
510.75	4.62
511.099	4.51
511.449	4.69
511.798	4.8
512.147	4.69
512.496	4.84
512.846	4.65
513.195	4.79
513.544	4.75
513.893	4.69
514.242	4.83
514.591	4.81
514.939	4.78
515.288	4.85
515.637	4.88
515.986	4.73
516.334	5.01
516.683	4.81
517.032	4.81
517.38	4.92
517.729	4.72
518.077	4.86
518.426	4.72
518.774	4.83
519.122	4.86
519.47	4.82
519.819	4.82
520.167	4.86
520.515	4.81
520.863	4.74
521.211	4.82
521.559	4.87
521.907	4.95
522.255	4.91
522.602	5.01
522.95	4.91
523.298	4.89
523.645	4.96
523.993	5.02
524.341	4.9
524.688	4.91
525.036	5.06
525.383	5.04
525.73	4.94
526.078	5.04
526.425	4.77
526.772	4.79
527.119	4.82
527.466	4.91
527.814	4.94
528.161	4.97
528.508	4.9
528.854	4.83
529.201	4.86
529.548	4.78
529.895	4.68
530.242	4.76
530.588	4.86
530.935	4.94
531.282	5.01
531.628	4.98
531.975	5.07
532.321	5.07
532.667	5.12
533.014	5.09
533.36	5.08
533.706	5.06
534.052	4.98
534.399	4.9
534.745	4.97
535.091	4.98
535.437	5.07
535.783	5.17
536.129	5.14
536.474	5.27
536.82	5.26
537.166	5.22
537.512	5.15
537.857	5.14
538.203	5.19
538.549	5.2
538.894	5.27
539.239	5.36
539.585	5.31
539.93	5.44
540.276	5.28
540.621	5.32
540.966	5.41
541.311	5.36
541.656	5.24
542.001	5.27
542.346	5.21
542.691	5.13
543.036	5.1
543.381	5.27
543.726	5.32
544.071	5.41
544.415	5.37
544.76	5.31
545.105	5.37
545.449	5.33
545.794	5.48
546.138	5.49
546.483	5.41
546.827	5.51
547.171	5.47
547.516	5.57
547.86	5.43
548.204	5.41
548.548	5.56
548.892	5.63
549.236	5.6
549.58	5.71
549.924	5.73
550.268	5.77
550.612	5.65
550.956	5.67
551.3	5.71
551.643	5.7
551.987	5.74
552.33	5.66
552.674	5.71
553.017	5.91
553.361	5.72
553.704	5.63
554.048	5.77
554.391	5.7
554.734	5.75
555.077	5.83
555.42	5.74
555.764	5.79
556.107	5.92
556.45	5.84
556.793	6.01
557.135	6.05
557.478	6.04
557.821	5.9
558.164	6.07
558.507	5.94
558.849	6.02
559.192	6.1
559.534	5.88
559.877	6.13
560.219	6.09
560.562	6.08
560.904	5.99
561.246	6.18
561.589	6.1
561.931	6.23
562.273	6.11
562.615	6.26
562.957	6.17
563.299	6.29
563.641	6.17
563.983	6.21
564.325	6.08
564.667	6.12
565.008	6.17
565.35	6.32
565.692	6.44
566.033	6.42
566.375	6.15
566.716	6.27
567.058	6.43
567.399	6.34
567.741	6.3
568.082	6.22
568.423	6.37
568.764	6.28
569.105	6.4
569.447	6.28
569.788	6.49
570.129	6.4
570.47	6.6
570.811	6.59
571.151	6.43
571.492	6.59
571.833	6.61
572.174	6.45
572.514	6.43
572.855	6.64
573.195	6.49
573.536	6.46
573.876	6.63
574.217	6.58
574.557	6.71
574.898	6.65
575.238	6.5
575.578	6.87
575.918	6.71
576.258	6.7
576.598	6.74
576.938	6.86
577.278	6.64
577.618	6.79
577.958	6.89
578.298	6.7
578.638	6.68
578.977	7
579.317	7.02
579.657	6.87
579.996	6.94
580.336	7.06
580.675	6.85
581.014	6.82
581.354	7.1
581.693	7.2
582.032	6.99
582.372	7.17
582.711	7.22
583.05	7.25
583.389	6.88
583.728	7.14
584.067	7.04
584.406	7.37
584.745	7.12
585.083	7.24
585.422	7.09
585.761	7.42
586.1	7.29
586.438	7.24
586.777	7.4
587.115	7.37
587.454	7.28
587.792	7.24
588.13	7.49
588.469	7.55
588.807	7.46
589.145	7.53
589.483	7.3
589.821	7.49
590.159	7.37
590.497	7.48
590.835	7.49
591.173	7.74
591.511	7.58
591.849	7.53
592.187	7.56
592.524	7.36
592.862	7.62
593.2	7.62
593.537	7.48
593.875	7.58
594.212	7.6
594.55	7.75
594.887	7.72
595.224	7.76
595.561	7.83
595.899	7.81
596.236	8.04
596.573	7.75
596.91	8.3
597.247	7.63
597.584	7.96
597.921	7.93
598.258	7.65
598.594	7.54
598.931	7.74
599.268	7.89
599.604	8.03
599.941	7.81
600.277	7.93
600.614	8.03
600.95	8.2
601.287	8.06
601.623	8.07
601.959	8.1
602.296	8.23
602.632	8.35
602.968	8.07
603.304	8.08
603.64	8.04
603.976	8.09
604.312	8.27
604.648	8.27
604.984	8.23
605.319	8.08
605.655	8.24
605.991	8.17
606.326	8.15
606.662	8.02
606.998	8.29
607.333	8.25
607.668	8.55
608.004	8.5
608.339	8.63
608.674	8.47
609.01	8.36
609.345	8.87
609.68	8.43
610.015	8.42
610.35	8.38
610.685	8.6
611.02	8.61
611.355	8.5
611.689	8.3
612.024	8.88
612.359	8.8
612.694	8.82
613.028	8.94
613.363	8.55
613.697	8.83
614.032	8.66
614.366	8.37
614.7	9.28
615.035	8.73
615.369	8.94
615.703	9.09
616.037	8.87
616.371	8.57
616.705	8.86
617.039	9.09
617.373	9.19
617.707	8.83
618.041	9.07
618.375	9.02
618.709	9.09
619.042	8.95
619.376	8.79
619.71	8.82
620.043	9.14
620.377	8.93
620.71	9.09
621.043	8.87
621.377	8.95
621.71	9.61
622.043	9.4
622.376	9.13
622.709	9.64
623.043	9.52
623.376	9.33
623.709	9.57
624.041	9.3
624.374	9.37
624.707	9.16
625.04	9.55
625.373	9.62
625.705	9.57
626.038	9.46
626.37	9.48
626.703	9.5
627.035	9.3
627.368	9.62
627.7	9.59
628.032	9.43
628.365	9.29
628.697	9.51
629.029	9.8
629.361	9.63
629.693	9.73
630.025	9.88
630.357	9.89
630.689	9.84
631.021	9.96
631.353	9.81
631.684	10.02
632.016	9.94
632.348	10.13
632.679	9.85
633.011	9.72
633.342	9.7
633.674	10.06
634.005	10.13
634.336	10.07
634.668	9.76
634.999	10.04
635.33	10
635.661	10.17
635.992	9.69
636.323	10.4
636.654	10.03
636.985	10.17
637.316	10.15
637.647	10
637.977	9.78
638.308	9.96
638.639	10.28
638.969	10.29
639.3	10.32
639.63	10.43
639.961	10.34
640.291	10.87
640.622	10.51
640.952	10.29
641.282	9.99
641.612	10.33
641.943	10.68
642.273	10.18
642.603	10.19
642.933	10.89
643.263	10.44
643.592	10.35
643.922	10.99
644.252	10.71
644.582	10.61
644.911	10.63
645.241	10.48
645.571	10.66
645.9	10.72
646.23	11.04
646.559	10.5
646.888	11
647.218	10.94
647.547	11.07
647.876	10.75
648.205	10.95
648.534	10.67
648.863	10.89
649.192	10.76
649.521	10.48
649.85	11.33
650.179	10.7
650.508	11.24
650.837	11.11
651.165	10.53
651.494	11.15
651.822	11.43
652.151	11.23
652.479	11.48
652.808	11.26
653.136	11.27
653.465	11.4
653.793	11.82
654.121	11.46
654.449	11.42
654.777	11.32
655.105	11.54
655.433	11.47
655.761	10.93
656.089	11.58
656.417	11.09
656.745	11.57
657.073	11.57
657.4	11.65
657.728	11.24
658.056	11.04
658.383	11.66
658.711	11.85
659.038	11.69
659.365	11.52
659.693	11.61
660.02	11.42
660.347	11.94
660.674	11.33
661.001	11.45
661.329	11.7
661.656	11.68
661.982	12.08
662.309	12.17
662.636	11.73
662.963	11.8
663.29	11.79
663.616	11.97
663.943	11.78
664.27	12.1
664.596	11.44
664.923	12.19
665.249	12.19
665.576	11.6
665.902	11.84
666.228	11.73
666.554	12.08
666.881	11.95
667.207	11.96
667.533	12.44
667.859	12.32
668.185	12.5
668.511	11.63
668.837	11.58
669.162	12.38
669.488	12.08
669.814	12.57
670.139	12.7
670.465	12.49
670.791	12.64
671.116	11.99
671.442	12.36
671.767	12.21
672.092	12.51
672.418	12.45
672.743	12.49
673.068	12.14
673.393	12.53
673.718	12.09
674.043	12.63
674.368	12.95
674.693	12.99
675.018	12.65
675.343	12.48
675.667	12.7
675.992	12.39
676.317	12.76
676.641	12.53
676.966	12.91
677.29	12.69
677.615	13.04
677.939	12.85
678.264	12.45
678.588	13.39
678.912	13.01
679.236	12.43
679.56	12.29
679.885	13.08
680.209	12.94
680.532	13.02
680.856	13.09
681.18	12.72
681.504	12.75
681.828	13.11
682.152	12.71
682.475	12.81
682.799	13.45
683.122	12.67
683.446	12.83
683.769	13.03
684.093	13.45
684.416	13.02
684.739	13.62
685.062	13.45
685.386	13.48
685.709	13.14
686.032	13.51
686.355	13.63
686.678	13.22
687.001	12.47
687.324	13.56
687.646	13.18
687.969	13.04
688.292	13.98
688.614	13.58
688.937	13.65
