Data from 0027_chest_Reflection__4__95.txt Node

Date: Thu Oct 20 21:41:37 CDT 2022
User: ToomeyLab
Spectrometer: FLMS14357
Trigger mode: 0
Integration Time (sec): 1.000000E-2
Scans to average: 100
Electric dark correction enabled: true
Nonlinearity correction enabled: false
Boxcar width: 0
XAxis mode: Wavelengths
Number of Pixels in Spectrum: 2048
>>>>>Begin Spectral Data<<<<<
189.047	53.17
189.435	53.17
189.823	53.17
190.211	-59.96
190.599	44.73
190.987	-756.85
191.375	62.51
191.763	127.44
192.151	208.74
192.538	134.79
192.926	85.55
193.314	29.72
193.702	34.32
194.089	70.14
194.477	-7.34
194.864	6.87
195.252	171.47
195.639	429.72
196.027	-35.48
196.414	37.82
196.801	447.18
197.189	95.46
197.576	234.62
197.963	-261.7
198.351	26.55
198.738	-13.94
199.125	-16.61
199.512	42.58
199.899	-2.11
200.286	41.43
200.673	13.26
201.06	40.12
201.447	50.84
201.833	-21.64
202.22	-7.51
202.607	27.28
202.994	-30.55
203.38	-8.53
203.767	24.85
204.154	6.54
204.54	-19.66
204.927	6.56
205.313	46.72
205.699	43.98
206.086	18.9
206.472	-15.81
206.858	-10.66
207.245	12.14
207.631	-17.91
208.017	24.26
208.403	-18.02
208.789	20.73
209.175	26.74
209.561	25.59
209.947	23.45
210.333	22.46
210.719	13.7
211.105	13.64
211.491	-43.45
211.876	2.05
212.262	10.1
212.648	21.06
213.034	17.72
213.419	-7.19
213.805	-11.94
214.19	-4.89
214.576	-44.44
214.961	11.39
215.346	7.78
215.732	10.63
216.117	-15.19
216.502	-3.4
216.888	-8.43
217.273	-19.7
217.658	27
218.043	22.83
218.428	1.69
218.813	29.94
219.198	-1.2
219.583	-0.83
219.968	19.62
220.353	-1.83
220.738	23.08
221.122	-2.33
221.507	0.77
221.892	-0.1
222.276	-2.2
222.661	17.14
223.046	19.25
223.43	4.95
223.815	8.19
224.199	-3.01
224.583	3.8
224.968	6.18
225.352	11.28
225.736	9.3
226.121	-0.33
226.505	4.92
226.889	5.43
227.273	1.21
227.657	6.37
228.041	5.16
228.425	4.66
228.809	7.5
229.193	6.85
229.577	5.52
229.961	6
230.344	6.35
230.728	5.55
231.112	5.39
231.495	5.42
231.879	7.88
232.263	5.63
232.646	5.56
233.03	5.26
233.413	4.13
233.797	4.59
234.18	3.1
234.563	7.8
234.946	7.62
235.33	6.1
235.713	5.71
236.096	5.35
236.479	6.42
236.862	6.11
237.245	5.24
237.628	5
238.011	6.04
238.394	7.6
238.777	5.4
239.16	5.18
239.543	3.97
239.925	5.45
240.308	5.98
240.691	7.43
241.073	5.36
241.456	6.12
241.838	5.27
242.221	5.79
242.603	6.37
242.986	6
243.368	6.12
243.75	6.28
244.133	6.16
244.515	5.81
244.897	5.06
245.279	4.95
245.661	6.28
246.043	6.18
246.425	6.1
246.807	5.87
247.189	6.75
247.571	5.8
247.953	6.08
248.335	6.06
248.717	5.82
249.098	5.74
249.48	5.55
249.862	5.68
250.243	5.59
250.625	5.89
251.006	6.19
251.388	5.68
251.769	6.12
252.151	5.64
252.532	5.44
252.913	5.88
253.295	5.75
253.676	5.62
254.057	5.23
254.438	5.97
254.819	6.37
255.2	6.1
255.581	5.93
255.962	6.6
256.343	5.49
256.724	6.1
257.105	5.97
257.486	5.24
257.867	6.62
258.247	5.99
258.628	5.13
259.009	5.24
259.389	5.77
259.77	5.98
260.15	5.79
260.531	5.99
260.911	5.66
261.292	5.93
261.672	5.73
262.052	5.58
262.432	5.68
262.813	5.77
263.193	6.23
263.573	5.66
263.953	5.03
264.333	5.65
264.713	5.73
265.093	5.48
265.473	6.03
265.853	6.45
266.233	5.93
266.612	6.5
266.992	5.26
267.372	6.52
267.752	5.92
268.131	6.35
268.511	5.62
268.89	5.16
269.27	5.6
269.649	5.43
270.029	5.6
270.408	5.59
270.787	5.43
271.167	5.82
271.546	5.6
271.925	5.45
272.304	5.81
272.683	5.27
273.062	4.91
273.441	5.78
273.82	5.86
274.199	5.18
274.578	5.08
274.957	5.2
275.336	5.24
275.715	5.65
276.093	6.18
276.472	5.65
276.851	5.6
277.229	5.32
277.608	4.83
277.986	5.72
278.365	5.22
278.743	5.74
279.122	5.23
279.5	4.88
279.878	5.79
280.257	5.24
280.635	5.54
281.013	5.51
281.391	5.14
281.769	5.37
282.147	5.1
282.525	5.45
282.903	5.28
283.281	4.72
283.659	5.01
284.037	5.25
284.415	5.07
284.792	5.3
285.17	5.64
285.548	5.15
285.925	5.39
286.303	5.62
286.68	5.81
287.058	5.31
287.435	5.24
287.813	5.23
288.19	5.14
288.567	5.29
288.945	5.75
289.322	5.07
289.699	5.11
290.076	5.57
290.453	4.99
290.83	5.61
291.207	5.52
291.584	5.58
291.961	5.3
292.338	4.93
292.715	5.21
293.092	5.81
293.469	5.65
293.845	5.81
294.222	5.77
294.599	6.3
294.975	5.24
295.352	5.83
295.728	5.72
296.105	5.66
296.481	5.14
296.858	5.71
297.234	5.95
297.61	5.55
297.986	5.43
298.363	5.52
298.739	5.58
299.115	5.63
299.491	5.58
299.867	5.19
300.243	5.53
300.619	5.76
300.995	4.98
301.371	5.88
301.746	5.6
302.122	6.52
302.498	5.85
302.874	6.25
303.249	5.96
303.625	6.07
304	5.89
304.376	5.81
304.751	6
305.127	5.2
305.502	6.12
305.878	6.15
306.253	5.77
306.628	6.01
307.003	5.68
307.378	5.32
307.754	6.04
308.129	6.01
308.504	6.11
308.879	5.96
309.254	5.86
309.629	5.98
310.003	5.77
310.378	5.92
310.753	6.41
311.128	5.81
311.502	5.59
311.877	5.94
312.252	5.89
312.626	5.91
313.001	6.36
313.375	6.1
313.75	5.9
314.124	5.95
314.498	5.34
314.873	6.02
315.247	6.11
315.621	6.38
315.995	6.03
316.369	6.33
316.743	5.43
317.117	6.4
317.491	6.31
317.865	6.13
318.239	6.02
318.613	6.53
318.987	5.86
319.361	6.19
319.734	6.15
320.108	6.42
320.482	6.09
320.855	6.18
321.229	6.3
321.602	5.43
321.976	5.88
322.349	6.22
322.723	6.05
323.096	5.82
323.469	6.21
323.843	6.3
324.216	5.97
324.589	6.35
324.962	5.66
325.335	6.36
325.708	6.7
326.081	6.21
326.454	5.96
326.827	6.48
327.2	6.33
327.573	6.16
327.945	6.4
328.318	5.91
328.691	6.23
329.063	6.41
329.436	6.2
329.809	6.79
330.181	6.39
330.553	6.02
330.926	6.25
331.298	5.58
331.671	6.6
332.043	6.36
332.415	6.59
332.787	6.61
333.159	6.73
333.532	6.45
333.904	6.56
334.276	6.48
334.648	6.16
335.02	6.26
335.391	6.12
335.763	6.31
336.135	6.12
336.507	5.88
336.879	6.73
337.25	6.02
337.622	6.47
337.993	6.08
338.365	6.74
338.736	6.37
339.108	6.36
339.479	6.53
339.851	6.34
340.222	6.15
340.593	6.65
340.964	6.29
341.336	6.1
341.707	5.9
342.078	6.1
342.449	6.21
342.82	6.32
343.191	6.21
343.562	6.4
343.933	6.41
344.303	6.3
344.674	6.4
345.045	6.47
345.416	6.76
345.786	6.28
346.157	6.51
346.527	6.33
346.898	6.36
347.268	6.23
347.639	6.27
348.009	6.64
348.38	6.74
348.75	5.82
349.12	6.74
349.49	6.34
349.861	6.65
350.231	6.22
350.601	6.53
350.971	6.17
351.341	6.81
351.711	6.64
352.081	6.37
352.45	6.49
352.82	6.41
353.19	6.62
353.56	6.55
353.929	6.26
354.299	6.74
354.669	6.42
355.038	6.39
355.408	6.14
355.777	6.85
356.147	6.55
356.516	6.16
356.885	6.53
357.254	6.65
357.624	6.37
357.993	6.37
358.362	6.63
358.731	6.6
359.1	6.31
359.469	6.57
359.838	6.34
360.207	6.68
360.576	6.22
360.945	6.65
361.314	6.58
361.682	6.39
362.051	6.43
362.42	6.32
362.788	6.4
363.157	6.38
363.525	6.28
363.894	6.48
364.262	6.44
364.631	6.28
364.999	6.21
365.367	6.69
365.735	6.57
366.104	6.26
366.472	6.44
366.84	6.52
367.208	6.45
367.576	6.69
367.944	6.68
368.312	6.41
368.68	6.54
369.048	6.51
369.416	6.54
369.783	6.66
370.151	6.85
370.519	6.6
370.886	6.69
371.254	6.99
371.621	6.36
371.989	6.37
372.356	6.42
372.724	6.56
373.091	6.67
373.458	6.25
373.826	6.41
374.193	6.8
374.56	6.21
374.927	6.31
375.294	6.53
375.661	6.96
376.028	6.37
376.395	7.06
376.762	6.47
377.129	6.29
377.496	6.28
377.863	6.69
378.229	6.57
378.596	6.65
378.963	6.65
379.329	6.71
379.696	6.47
380.062	6.7
380.429	6.92
380.795	6.52
381.161	6.54
381.528	6.76
381.894	6.53
382.26	6.67
382.626	6.75
382.993	6.31
383.359	6.69
383.725	6.45
384.091	6.66
384.457	6.6
384.823	6.65
385.188	6.51
385.554	6.52
385.92	6.7
386.286	6.52
386.651	6.39
387.017	6.48
387.383	6.77
387.748	6.91
388.114	6.82
388.479	6.65
388.845	6.68
389.21	6.72
389.575	6.46
389.94	6.87
390.306	6.87
390.671	6.62
391.036	6.65
391.401	6.68
391.766	6.83
392.131	6.63
392.496	6.72
392.861	6.47
393.226	6.67
393.591	6.81
393.956	6.67
394.32	6.67
394.685	6.74
395.05	6.5
395.414	6.72
395.779	6.83
396.143	6.59
396.508	6.6
396.872	6.88
397.236	6.52
397.601	6.76
397.965	6.85
398.329	6.72
398.694	6.91
399.058	6.44
399.422	6.98
399.786	6.84
400.15	6.65
400.514	6.89
400.878	6.52
401.242	6.62
401.605	6.92
401.969	6.78
402.333	6.64
402.697	7.05
403.06	6.8
403.424	7.02
403.787	6.99
404.151	6.88
404.514	6.62
404.878	6.68
405.241	6.77
405.604	7.01
405.968	6.92
406.331	6.74
406.694	6.78
407.057	6.77
407.42	6.63
407.783	6.7
408.146	6.9
408.509	6.73
408.872	6.77
409.235	6.64
409.598	6.86
409.961	6.81
410.323	7.15
410.686	6.75
411.049	6.88
411.411	6.73
411.774	6.87
412.136	6.75
412.499	6.84
412.861	6.84
413.223	6.94
413.586	6.82
413.948	7
414.31	6.73
414.672	7
415.035	6.71
415.397	6.66
415.759	6.97
416.121	6.94
416.483	6.77
416.845	6.93
417.206	6.79
417.568	6.99
417.93	6.75
418.292	6.87
418.653	6.86
419.015	6.84
419.377	6.78
419.738	6.81
420.1	6.74
420.461	6.8
420.822	6.71
421.184	6.72
421.545	6.82
421.906	6.66
422.267	6.74
422.629	6.63
422.99	6.68
423.351	6.73
423.712	6.68
424.073	6.65
424.434	6.78
424.795	6.76
425.155	6.73
425.516	6.71
425.877	6.68
426.238	6.61
426.598	6.8
426.959	6.73
427.32	6.81
427.68	6.77
428.041	6.78
428.401	6.83
428.761	6.7
429.122	6.83
429.482	6.86
429.842	6.96
430.202	6.94
430.563	7.09
430.923	7.11
431.283	6.77
431.643	6.76
432.003	6.92
432.363	6.93
432.722	7.07
433.082	6.94
433.442	6.94
433.802	6.84
434.161	7.03
434.521	6.87
434.881	6.97
435.24	6.81
435.6	6.89
435.959	7.03
436.319	7.06
436.678	6.89
437.037	6.92
437.396	7.01
437.756	6.9
438.115	7.05
438.474	6.86
438.833	7.03
439.192	6.94
439.551	6.89
439.91	7.05
440.269	6.9
440.628	6.97
440.987	6.9
441.345	6.95
441.704	6.89
442.063	6.99
442.421	6.9
442.78	6.92
443.138	6.9
443.497	6.84
443.855	6.82
444.214	6.98
444.572	7.16
444.93	6.99
445.288	6.96
445.647	7.05
446.005	6.99
446.363	6.97
446.721	6.89
447.079	7.01
447.437	6.87
447.795	6.86
448.153	6.88
448.51	6.87
448.868	6.96
449.226	6.93
449.584	6.9
449.941	7.03
450.299	7.13
450.656	7.04
451.014	7.04
451.371	7.08
451.729	7.07
452.086	7.27
452.443	7.02
452.801	7.09
453.158	7.22
453.515	7.07
453.872	7
454.229	7.05
454.586	7.13
454.943	7.06
455.3	7.07
455.657	7.02
456.014	7.18
456.371	7.04
456.727	7.1
457.084	7.02
457.441	7.16
457.797	7.18
458.154	7.19
458.51	7.09
458.867	7.11
459.223	7.38
459.58	7.16
459.936	7.23
460.292	7.18
460.648	7.04
461.005	6.97
461.361	7.05
461.717	7.04
462.073	7.11
462.429	7.02
462.785	7.12
463.141	7.11
463.496	7.21
463.852	7.19
464.208	7.35
464.564	7.33
464.919	7.32
465.275	7.32
465.631	7.15
465.986	7.3
466.342	7.14
466.697	7.23
467.052	7.25
467.408	7.2
467.763	7.29
468.118	7.29
468.473	7.37
468.829	7.27
469.184	7
469.539	7.19
469.894	7.2
470.249	7.29
470.603	7.26
470.958	7.41
471.313	7.24
471.668	7.22
472.023	7.23
472.377	7.36
472.732	7.45
473.086	7.26
473.441	7.31
473.795	7.46
474.15	7.31
474.504	7.24
474.859	7.37
475.213	7.38
475.567	7.49
475.921	7.22
476.275	7.55
476.63	7.51
476.984	7.39
477.338	7.33
477.692	7.42
478.045	7.29
478.399	7.39
478.753	7.36
479.107	7.34
479.461	7.31
479.814	7.26
480.168	7.38
480.521	7.28
480.875	7.34
481.228	7.43
481.582	7.26
481.935	7.44
482.289	7.32
482.642	7.17
482.995	7.41
483.348	7.41
483.701	7.24
484.055	7.22
484.408	7.24
484.761	7.22
485.114	7.11
485.466	7.01
485.819	6.94
486.172	6.87
486.525	6.91
486.878	6.98
487.23	7.09
487.583	7.13
487.936	7.22
488.288	7.2
488.641	7.19
488.993	7.18
489.345	7.13
489.698	7.06
490.05	7.07
490.402	7.17
490.754	7.18
491.107	7.14
491.459	7.25
491.811	7.25
492.163	7.34
492.515	7.31
492.866	7.32
493.218	7.25
493.57	7.16
493.922	7.09
494.274	7.1
494.625	7.22
494.977	7.31
495.328	7.36
495.68	7.39
496.031	7.62
496.383	7.43
496.734	7.46
497.086	7.45
497.437	7.56
497.788	7.56
498.139	7.56
498.49	7.5
498.842	7.35
499.193	7.38
499.544	7.47
499.894	7.45
500.245	7.44
500.596	7.55
500.947	7.59
501.298	7.65
501.648	7.41
501.999	7.57
502.35	7.61
502.7	7.5
503.051	7.59
503.401	7.58
503.752	7.62
504.102	7.69
504.452	7.67
504.803	7.53
505.153	7.65
505.503	7.77
505.853	7.78
506.203	7.69
506.553	7.77
506.903	7.6
507.253	7.64
507.603	7.71
507.953	7.8
508.303	7.79
508.652	7.71
509.002	7.59
509.352	7.65
509.701	7.75
510.051	7.65
510.4	7.59
510.75	7.59
511.099	7.65
511.449	7.79
511.798	7.7
512.147	7.77
512.496	7.78
512.846	7.85
513.195	7.81
513.544	7.65
513.893	7.76
514.242	7.72
514.591	7.87
514.939	7.76
515.288	7.92
515.637	7.78
515.986	7.78
516.334	7.92
516.683	7.92
517.032	7.76
517.38	7.83
517.729	7.9
518.077	7.82
518.426	7.89
518.774	7.95
519.122	7.9
519.47	7.94
519.819	7.77
520.167	7.76
520.515	7.76
520.863	7.78
521.211	7.82
521.559	7.86
521.907	7.78
522.255	7.86
522.602	7.96
522.95	8.08
523.298	8.02
523.645	8.01
523.993	7.94
524.341	8.14
524.688	8.1
525.036	8.2
525.383	8.25
525.73	8.03
526.078	8.19
526.425	8.14
526.772	8.11
527.119	8.02
527.466	8.1
527.814	8.07
528.161	7.98
528.508	8.07
528.854	8.11
529.201	8.14
529.548	8.08
529.895	8
530.242	7.94
530.588	7.85
530.935	7.81
531.282	7.77
531.628	7.84
531.975	7.99
532.321	8.04
532.667	8.01
533.014	8.22
533.36	8.17
533.706	8.18
534.052	8.24
534.399	8.32
534.745	8.21
535.091	8.13
535.437	8.08
535.783	8.06
536.129	8.07
536.474	8.16
536.82	8.28
537.166	8.29
537.512	8.27
537.857	8.32
538.203	8.44
538.549	8.31
538.894	8.33
539.239	8.35
539.585	8.38
539.93	8.3
540.276	8.5
540.621	8.49
540.966	8.52
541.311	8.59
541.656	8.61
542.001	8.54
542.346	8.55
542.691	8.46
543.036	8.33
543.381	8.34
543.726	8.26
544.071	8.33
544.415	8.43
544.76	8.33
545.105	8.52
545.449	8.46
545.794	8.5
546.138	8.54
546.483	8.65
546.827	8.69
547.171	8.63
547.516	8.71
547.86	8.67
548.204	8.78
548.548	8.71
548.892	8.74
549.236	8.83
549.58	8.61
549.924	8.86
550.268	8.72
550.612	8.89
550.956	8.77
551.3	9.05
551.643	8.97
551.987	9.06
552.33	8.93
552.674	8.98
553.017	9.07
553.361	9.22
553.704	9.24
554.048	9.12
554.391	9.01
554.734	9.09
555.077	8.95
555.42	9.08
555.764	9.16
556.107	9.05
556.45	9.32
556.793	9.21
557.135	9.2
557.478	9.31
557.821	9.27
558.164	9.18
558.507	9.35
558.849	9.33
559.192	9.52
559.534	9.33
559.877	9.49
560.219	9.51
560.562	9.44
560.904	9.35
561.246	9.45
561.589	9.71
561.931	9.47
562.273	9.61
562.615	9.51
562.957	9.36
563.299	9.51
563.641	9.51
563.983	9.67
564.325	9.58
564.667	9.45
565.008	9.74
565.35	9.58
565.692	9.66
566.033	9.52
566.375	9.63
566.716	9.7
567.058	9.71
567.399	9.68
567.741	9.73
568.082	9.64
568.423	9.78
568.764	9.61
569.105	9.72
569.447	9.98
569.788	9.94
570.129	10.06
570.47	9.84
570.811	9.68
571.151	9.91
571.492	9.8
571.833	10.01
572.174	10.09
572.514	10.15
572.855	9.96
573.195	10.04
573.536	10.12
573.876	9.95
574.217	9.99
574.557	10.2
574.898	10.07
575.238	10.14
575.578	10.12
575.918	10.02
576.258	10.28
576.598	10.32
576.938	10.19
577.278	10.22
577.618	10.33
577.958	10.4
578.298	10.36
578.638	10.24
578.977	10.52
579.317	10.38
579.657	10.2
579.996	10.42
580.336	10.55
580.675	10.85
581.014	10.43
581.354	10.61
581.693	10.49
582.032	10.54
582.372	10.65
582.711	10.58
583.05	10.57
583.389	10.73
583.728	10.62
584.067	10.72
584.406	10.93
584.745	10.84
585.083	10.58
585.422	11
585.761	11.1
586.1	10.84
586.438	11.12
586.777	10.84
587.115	10.88
587.454	11.22
587.792	11.04
588.13	11.2
588.469	11.39
588.807	11.2
589.145	11.05
589.483	11.34
589.821	11.08
590.159	11.08
590.497	11.05
590.835	11.05
591.173	11.21
591.511	11.45
591.849	11.35
592.187	11.1
592.524	11.47
592.862	11.24
593.2	11.31
593.537	11.45
593.875	11.46
594.212	11.58
594.55	11.57
594.887	11.34
595.224	11.61
595.561	11.6
595.899	11.67
596.236	11.74
596.573	11.93
596.91	11.57
597.247	11.55
597.584	11.56
597.921	11.52
598.258	11.74
598.594	11.63
598.931	11.72
599.268	11.65
599.604	11.77
599.941	11.66
600.277	11.77
600.614	11.64
600.95	12.04
601.287	11.57
601.623	11.89
601.959	11.85
602.296	12.03
602.632	11.88
602.968	12.36
603.304	12.02
603.64	12.22
603.976	11.97
604.312	12.37
604.648	12.16
604.984	12.14
605.319	12.13
605.655	12.23
605.991	12.16
606.326	12.2
606.662	12.1
606.998	12.34
607.333	12.02
607.668	11.95
608.004	12.18
608.339	12.33
608.674	12.28
609.01	12.4
609.345	12.4
609.68	12.43
610.015	12.59
610.35	12.34
610.685	12.64
611.02	12.66
611.355	12.5
611.689	12.62
612.024	12.5
612.359	12.4
612.694	12.26
613.028	12.83
613.363	12.73
613.697	12.86
614.032	12.92
614.366	13.18
614.7	12.64
615.035	12.64
615.369	12.77
615.703	12.95
616.037	12.92
616.371	13.11
616.705	13.02
617.039	13.18
617.373	13.08
617.707	13.15
618.041	13.25
618.375	12.98
618.709	13.03
619.042	13.23
619.376	13.45
619.71	13.32
620.043	13.22
620.377	13.44
620.71	13.53
621.043	13.4
621.377	13.58
621.71	13.33
622.043	13.27
622.376	13.87
622.709	13.65
623.043	13.49
623.376	13.86
623.709	13.48
624.041	13.6
624.374	14.19
624.707	13.64
625.04	14.17
625.373	13.89
625.705	13.74
626.038	14.23
626.37	13.82
626.703	13.85
627.035	14.01
627.368	14.21
627.7	14.21
628.032	14.25
628.365	13.95
628.697	14.2
629.029	14.09
629.361	14.2
629.693	14.22
630.025	14.17
630.357	14.24
630.689	14.04
631.021	14.22
631.353	14.29
631.684	14.36
632.016	14.24
632.348	14.45
632.679	14.33
633.011	14.86
633.342	14.6
633.674	14.51
634.005	14.25
634.336	14.98
634.668	14.58
634.999	14.62
635.33	14.83
635.661	14.93
635.992	14.79
636.323	15
636.654	14.63
636.985	14.89
637.316	14.78
637.647	14.93
637.977	15.25
638.308	14.65
638.639	15.05
638.969	15.23
639.3	15.08
639.63	15.16
639.961	14.76
640.291	14.86
640.622	15.35
640.952	15.34
641.282	15.49
641.612	15.3
641.943	15.41
642.273	15.4
642.603	14.74
642.933	15.31
643.263	15.55
643.592	15.44
643.922	15.52
644.252	15.35
644.582	15.5
644.911	15.58
645.241	15.76
645.571	15.48
645.9	15.67
646.23	15.33
646.559	15.59
646.888	15.72
647.218	15.34
647.547	15.32
647.876	15.39
648.205	15.92
648.534	15.85
648.863	15.68
649.192	15.97
649.521	15.96
649.85	16.26
650.179	15.97
650.508	16.44
650.837	16
651.165	15.7
651.494	16.33
651.822	16.21
652.151	16.08
652.479	16.24
652.808	15.92
653.136	16.16
653.465	16.49
653.793	16.39
654.121	16.57
654.449	16.56
654.777	16.23
655.105	16.77
655.433	16.33
655.761	16.85
656.089	16.29
656.417	16.28
656.745	16.43
657.073	16.47
657.4	16.09
657.728	16.89
658.056	17
658.383	16.7
658.711	16.78
659.038	16.9
659.365	17.04
659.693	17.11
660.02	16.88
660.347	16.91
660.674	17.12
661.001	16.95
661.329	17.1
661.656	16.72
661.982	17.16
662.309	16.6
662.636	17.38
662.963	16.77
663.29	17.13
663.616	17.1
663.943	17.49
664.27	17.66
664.596	17.27
664.923	17.3
665.249	17.51
665.576	17.82
665.902	17.01
666.228	17.05
666.554	17.7
666.881	17.69
667.207	18.04
667.533	17.19
667.859	17.21
668.185	17.62
668.511	17.73
668.837	17.65
669.162	17.72
669.488	18.15
669.814	18.01
670.139	17.91
670.465	17.67
670.791	18.54
671.116	17.98
671.442	18.01
671.767	18.31
672.092	17.95
672.418	17.69
672.743	18.23
673.068	17.68
673.393	18.14
673.718	17.99
674.043	17.66
674.368	18.2
674.693	18.9
675.018	19.06
675.343	18.39
675.667	18.79
675.992	18.71
676.317	18.57
676.641	19.04
676.966	18.49
677.29	18.6
677.615	18.88
677.939	18.7
678.264	19.33
678.588	19.04
678.912	18.77
679.236	19.19
679.56	18.19
679.885	18.31
680.209	18.69
680.532	19.12
680.856	19.16
681.18	19.29
681.504	18.63
681.828	19.17
682.152	19.73
682.475	19.03
682.799	19.22
683.122	19.23
683.446	19.22
683.769	19.2
684.093	18.89
684.416	18.97
684.739	19.33
685.062	18.53
