Data from 0027_forehead_Reflection__3__104.txt Node

Date: Thu Oct 20 21:44:40 CDT 2022
User: ToomeyLab
Spectrometer: FLMS14357
Trigger mode: 0
Integration Time (sec): 1.000000E-2
Scans to average: 100
Electric dark correction enabled: true
Nonlinearity correction enabled: false
Boxcar width: 0
XAxis mode: Wavelengths
Number of Pixels in Spectrum: 2048
>>>>>Begin Spectral Data<<<<<
189.047	112.89
189.435	112.89
189.823	112.89
190.211	-123.93
190.599	-153.6
190.987	-1359.17
191.375	11.92
191.763	134.44
192.151	139.35
192.538	280.31
192.926	84.28
193.314	90.69
193.702	-57.97
194.089	17.89
194.477	195.71
194.864	-128.08
195.252	81.12
195.639	-699.08
196.027	33.53
196.414	118.81
196.801	-95.96
197.189	124.82
197.576	417.74
197.963	-115.98
198.351	21.49
198.738	27.08
199.125	23.03
199.512	14.47
199.899	36.92
200.286	22.5
200.673	34.25
201.06	22.54
201.447	41.86
201.833	13.05
202.22	5.1
202.607	16.94
202.994	57.79
203.38	17.63
203.767	23.91
204.154	19.4
204.54	-1.03
204.927	36.22
205.313	49.91
205.699	49.39
206.086	27.25
206.472	33.09
206.858	22.25
207.245	32.97
207.631	2.12
208.017	32.12
208.403	-53.78
208.789	1.54
209.175	34.21
209.561	22.62
209.947	12.54
210.333	37.36
210.719	31.55
211.105	21.68
211.491	-14.37
211.876	63.42
212.262	23.92
212.648	5.63
213.034	12.71
213.419	-23.37
213.805	26.43
214.19	14.67
214.576	-29.36
214.961	11.74
215.346	23.4
215.732	31.34
216.117	-13.77
216.502	21.38
216.888	6.51
217.273	3.89
217.658	21.92
218.043	18.04
218.428	16.42
218.813	18.65
219.198	5.42
219.583	15.48
219.968	16.21
220.353	16.25
220.738	10.98
221.122	24.63
221.507	27.08
221.892	14.18
222.276	3.33
222.661	10.09
223.046	24.61
223.43	4.54
223.815	12.97
224.199	-0.03
224.583	6.82
224.968	14.12
225.352	13.16
225.736	6.81
226.121	5.19
226.505	9.39
226.889	6.91
227.273	1.25
227.657	6.03
228.041	9.07
228.425	8.64
228.809	9.76
229.193	5.28
229.577	4.24
229.961	6.1
230.344	5.29
230.728	4.7
231.112	5.16
231.495	6.08
231.879	5.66
232.263	6.67
232.646	6.74
233.03	5.58
233.413	3.27
233.797	5.95
234.18	5.64
234.563	7.87
234.946	6.16
235.33	5.23
235.713	5.12
236.096	4.98
236.479	7.38
236.862	6.54
237.245	4.35
237.628	5.98
238.011	5.63
238.394	7.3
238.777	5.41
239.16	4.65
239.543	4.68
239.925	5.56
240.308	4.81
240.691	7.03
241.073	4.35
241.456	6.52
241.838	4.27
242.221	5.34
242.603	5.53
242.986	5.31
243.368	5.11
243.75	4.99
244.133	5.26
244.515	4.81
244.897	4.66
245.279	4.72
245.661	6.69
246.043	5.61
246.425	5.42
246.807	5.46
247.189	5.7
247.571	5.61
247.953	5.32
248.335	5.01
248.717	4.91
249.098	5
249.48	5.12
249.862	5.34
250.243	5
250.625	5.77
251.006	5.59
251.388	5.34
251.769	5.94
252.151	5.9
252.532	5.27
252.913	5.9
253.295	5.13
253.676	5.57
254.057	4.6
254.438	5.58
254.819	5.83
255.2	5.36
255.581	6.46
255.962	5.44
256.343	4.03
256.724	5.39
257.105	5.09
257.486	5.45
257.867	5.66
258.247	6.3
258.628	5.49
259.009	4.64
259.389	5.67
259.77	6.16
260.15	5.48
260.531	5.53
260.911	5.16
261.292	5.51
261.672	5.04
262.052	5.13
262.432	5.56
262.813	5.17
263.193	5.95
263.573	5.21
263.953	5.43
264.333	5.35
264.713	5.09
265.093	4.95
265.473	5.11
265.853	5.86
266.233	5.2
266.612	5.5
266.992	5.06
267.372	5.27
267.752	5.18
268.131	5.52
268.511	5.71
268.89	5.16
269.27	5.47
269.649	4.71
270.029	5.04
270.408	4.91
270.787	5.18
271.167	5.08
271.546	5.3
271.925	5.13
272.304	5.56
272.683	5.24
273.062	4.99
273.441	5.14
273.82	5.19
274.199	4.68
274.578	4.56
274.957	5.05
275.336	5.15
275.715	5.14
276.093	5.65
276.472	5.7
276.851	5.85
277.229	5.13
277.608	5.27
277.986	5.12
278.365	5.18
278.743	4.97
279.122	5.1
279.5	5.43
279.878	5.49
280.257	5.38
280.635	5.36
281.013	5.05
281.391	5.31
281.769	5.54
282.147	4.73
282.525	4.69
282.903	5.04
283.281	5.02
283.659	4.95
284.037	4.66
284.415	4.75
284.792	5.1
285.17	5.22
285.548	5.43
285.925	5.15
286.303	5
286.68	5.48
287.058	5.33
287.435	5.19
287.813	5.1
288.19	5.11
288.567	5.18
288.945	5.14
289.322	5.49
289.699	4.89
290.076	5.42
290.453	5.16
290.83	5.44
291.207	5.44
291.584	5.22
291.961	5.29
292.338	5.1
292.715	5.46
293.092	5.85
293.469	5.6
293.845	5.59
294.222	5.79
294.599	6.77
294.975	5.88
295.352	6.2
295.728	5.73
296.105	6.4
296.481	5.72
296.858	6.1
297.234	6.81
297.61	6.14
297.986	6.18
298.363	6.17
298.739	6.08
299.115	6.06
299.491	6.1
299.867	6.23
300.243	6.34
300.619	6.85
300.995	6.22
301.371	6.32
301.746	6.49
302.122	7.16
302.498	6.68
302.874	7.31
303.249	7.24
303.625	7.02
304	7.35
304.376	6.66
304.751	7.52
305.127	6.94
305.502	7.21
305.878	7.4
306.253	6.59
306.628	7.42
307.003	7.36
307.378	7.27
307.754	7.8
308.129	7.48
308.504	7.85
308.879	7.85
309.254	7.76
309.629	7.9
310.003	7.72
310.378	7.91
310.753	7.83
311.128	8.15
311.502	8.08
311.877	8.22
312.252	8.24
312.626	8.11
313.001	8.16
313.375	8.31
313.75	8.09
314.124	8.39
314.498	8.28
314.873	8.37
315.247	8.34
315.621	8.56
315.995	8.87
316.369	8.83
316.743	8.52
317.117	9.06
317.491	8.83
317.865	9.01
318.239	9.32
318.613	10
318.987	8.86
319.361	9.37
319.734	9.01
320.108	9.68
320.482	9.86
320.855	9.9
321.229	9.71
321.602	9.19
321.976	9.78
322.349	9.76
322.723	10.18
323.096	10.05
323.469	10.06
323.843	10.67
324.216	10.04
324.589	11.05
324.962	10.16
325.335	10.11
325.708	10.68
326.081	10.67
326.454	10.76
326.827	10.86
327.2	10.99
327.573	11.03
327.945	10.94
328.318	11.03
328.691	11.4
329.063	10.99
329.436	11.22
329.809	11.55
330.181	11.21
330.553	11.26
330.926	11.21
331.298	11.25
331.671	12.07
332.043	11.7
332.415	11.95
332.787	12
333.159	12.1
333.532	11.89
333.904	12.12
334.276	12.1
334.648	12.4
335.02	12.22
335.391	11.9
335.763	12.46
336.135	12.33
336.507	11.91
336.879	13.14
337.25	12.56
337.622	12.89
337.993	12.47
338.365	12.96
338.736	12.43
339.108	12.72
339.479	12.68
339.851	12.6
340.222	12.86
340.593	12.8
340.964	13.24
341.336	13.02
341.707	13.59
342.078	13.39
342.449	13.32
342.82	13.59
343.191	13.56
343.562	13.59
343.933	13.13
344.303	13.75
344.674	13.52
345.045	14.11
345.416	13.79
345.786	13.86
346.157	14.1
346.527	14.1
346.898	14.23
347.268	13.71
347.639	14.4
348.009	14.28
348.38	14.45
348.75	13.89
349.12	14.85
349.49	14.76
349.861	14.93
350.231	14.76
350.601	14.6
350.971	14.49
351.341	15.38
351.711	15.05
352.081	14.89
352.45	15.27
352.82	14.96
353.19	15.23
353.56	15.19
353.929	15.36
354.299	15.5
354.669	15.43
355.038	15.43
355.408	15.28
355.777	15.55
356.147	15.73
356.516	15.87
356.885	15.41
357.254	16.13
357.624	15.81
357.993	15.66
358.362	16.24
358.731	16.59
359.1	15.75
359.469	16.28
359.838	16.13
360.207	16.95
360.576	16.38
360.945	16.63
361.314	16.5
361.682	16.48
362.051	16.48
362.42	16.56
362.788	16.9
363.157	16.88
363.525	16.63
363.894	16.9
364.262	16.91
364.631	17.14
364.999	16.76
365.367	17.48
365.735	17.24
366.104	17.12
366.472	17.07
366.84	17.81
367.208	17.44
367.576	17.81
367.944	17.93
368.312	17.79
368.68	17.7
369.048	17.59
369.416	17.73
369.783	18.21
370.151	18.47
370.519	18.16
370.886	18.11
371.254	18.35
371.621	18.35
371.989	18.62
372.356	18.65
372.724	18.69
373.091	18.5
373.458	18.17
373.826	18.8
374.193	18.75
374.56	18.85
374.927	18.92
375.294	19.04
375.661	19.25
376.028	18.89
376.395	19.37
376.762	19.33
377.129	19.25
377.496	19.34
377.863	19.48
378.229	19.38
378.596	19.5
378.963	19.93
379.329	19.89
379.696	19.61
380.062	19.63
380.429	20.29
380.795	20.03
381.161	20
381.528	20.27
381.894	20.13
382.26	20.48
382.626	20.2
382.993	20.29
383.359	20.52
383.725	20.7
384.091	21
384.457	20.64
384.823	20.57
385.188	20.86
385.554	20.72
385.92	20.66
386.286	20.82
386.651	20.88
387.017	20.88
387.383	21.4
387.748	21.08
388.114	21.39
388.479	21.39
388.845	21.7
389.21	21.74
389.575	21.35
389.94	21.81
390.306	21.59
390.671	21.82
391.036	21.9
391.401	22.02
391.766	22.26
392.131	22.17
392.496	21.9
392.861	21.93
393.226	22.07
393.591	22.25
393.956	22.24
394.32	22.49
394.685	22.51
395.05	22.6
395.414	22.62
395.779	22.68
396.143	23.04
396.508	22.83
396.872	22.83
397.236	22.79
397.601	23.16
397.965	23.28
398.329	23.34
398.694	23.41
399.058	23.31
399.422	23.8
399.786	23.7
400.15	23.6
400.514	23.86
400.878	23.61
401.242	23.64
401.605	23.95
401.969	23.66
402.333	24.28
402.697	24.33
403.06	23.87
403.424	24.15
403.787	24.23
404.151	24.33
404.514	24.55
404.878	24.48
405.241	24.36
405.604	24.58
405.968	24.63
406.331	24.62
406.694	24.51
407.057	24.88
407.42	24.86
407.783	25
408.146	25.11
408.509	25.13
408.872	25.2
409.235	24.99
409.598	25.62
409.961	25.19
410.323	25.73
410.686	25.63
411.049	25.78
411.411	25.46
411.774	25.46
412.136	25.54
412.499	25.95
412.861	25.78
413.223	26.03
413.586	25.78
413.948	26.15
414.31	26.12
414.672	26.28
415.035	26.4
415.397	26.38
415.759	26.55
416.121	26.45
416.483	26.46
416.845	26.64
417.206	26.26
417.568	26.84
417.93	26.7
418.292	26.79
418.653	26.73
419.015	26.79
419.377	26.82
419.738	26.88
420.1	26.84
420.461	26.98
420.822	26.89
421.184	26.84
421.545	26.94
421.906	27.09
422.267	27.02
422.629	26.88
422.99	27.03
423.351	27
423.712	27.18
424.073	27.38
424.434	27.37
424.795	27.63
425.155	27.47
425.516	27.47
425.877	27.51
426.238	27.65
426.598	27.71
426.959	27.74
427.32	28.02
427.68	28.13
428.041	28.24
428.401	28.37
428.761	28.14
429.122	28.54
429.482	28.8
429.842	28.84
430.202	29.06
430.563	29.19
430.923	29.11
431.283	29.22
431.643	29.33
432.003	29.38
432.363	29.36
432.722	29.5
433.082	29.57
433.442	29.73
433.802	29.62
434.161	29.7
434.521	29.56
434.881	29.4
435.24	29.73
435.6	29.6
435.959	29.67
436.319	29.87
436.678	29.94
437.037	30.13
437.396	30.13
437.756	30.29
438.115	30.52
438.474	30.35
438.833	30.39
439.192	30.5
439.551	30.37
439.91	30.73
440.269	30.66
440.628	30.49
440.987	30.51
441.345	30.69
441.704	30.52
442.063	30.76
442.421	30.64
442.78	30.56
443.138	31
443.497	31.06
443.855	30.99
444.214	31.23
444.572	31.37
444.93	31.53
445.288	31.58
445.647	31.6
446.005	31.49
446.363	31.57
446.721	31.42
447.079	31.65
447.437	31.36
447.795	31.5
448.153	31.29
448.51	31.53
448.868	31.62
449.226	31.63
449.584	31.87
449.941	32.32
450.299	32.39
450.656	32.26
451.014	32.31
451.371	32.52
451.729	32.55
452.086	32.7
452.443	32.8
452.801	32.77
453.158	33.05
453.515	33
453.872	33.01
454.229	33.1
454.586	33.14
454.943	33.01
455.3	32.93
455.657	33.31
456.014	33.4
456.371	33.55
456.727	33.53
457.084	33.55
457.441	33.74
457.797	33.78
458.154	33.83
458.51	33.96
458.867	33.9
459.223	34.14
459.58	33.99
459.936	33.9
460.292	34.08
460.648	33.99
461.005	33.74
461.361	33.56
461.717	33.64
462.073	33.75
462.429	33.92
462.785	34.25
463.141	34.51
463.496	34.75
463.852	34.61
464.208	34.85
464.564	35
464.919	34.99
465.275	35.05
465.631	35.04
465.986	35.31
466.342	35.15
466.697	35.18
467.052	35.23
467.408	35.32
467.763	35.68
468.118	35.47
468.473	35.56
468.829	35.55
469.184	35.56
469.539	35.62
469.894	35.55
470.249	35.67
470.603	35.74
470.958	36.12
471.313	35.8
471.668	36.17
472.023	36.3
472.377	36.16
472.732	36.45
473.086	36.47
473.441	36.73
473.795	36.61
474.15	36.58
474.504	36.68
474.859	36.67
475.213	36.81
475.567	36.9
475.921	37.12
476.275	37.13
476.63	37.1
476.984	36.9
477.338	37.26
477.692	37.4
478.045	37.19
478.399	37.26
478.753	37.34
479.107	37.32
479.461	37.36
479.814	37.39
480.168	37.59
480.521	37.45
480.875	37.46
481.228	37.54
481.582	37.64
481.935	37.67
482.289	37.5
482.642	37.54
482.995	37.8
483.348	37.74
483.701	37.54
484.055	37.68
484.408	37.6
484.761	37.33
485.114	37.41
485.466	37.42
485.819	37.1
486.172	36.98
486.525	36.94
486.878	37.12
487.23	37.6
487.583	37.74
487.936	38.01
488.288	38.01
488.641	37.91
488.993	37.89
489.345	37.9
489.698	37.79
490.05	37.81
490.402	37.82
490.754	38.12
491.107	38.4
491.459	38.68
491.811	38.92
492.163	38.99
492.515	38.8
492.866	38.69
493.218	38.56
493.57	38.4
493.922	38.44
494.274	38.76
494.625	38.95
494.977	39.15
495.328	39.66
495.68	39.77
496.031	39.99
496.383	40.23
496.734	40.11
497.086	40.26
497.437	40.49
497.788	40.24
498.139	40.29
498.49	40.2
498.842	40.09
499.193	40.12
499.544	40.26
499.894	40.36
500.245	40.3
500.596	40.56
500.947	40.75
501.298	41
501.648	40.75
501.999	41.16
502.35	41.12
502.7	41.35
503.051	41.19
503.401	41.48
503.752	41.52
504.102	41.49
504.452	41.52
504.803	41.38
505.153	41.56
505.503	41.68
505.853	41.58
506.203	41.75
506.553	41.84
506.903	41.72
507.253	41.9
507.603	41.96
507.953	42.08
508.303	42.3
508.652	42.11
509.002	42.25
509.352	42.16
509.701	42.14
510.051	42.33
510.4	42.24
510.75	42.23
511.099	42.2
511.449	42.38
511.798	42.47
512.147	42.47
512.496	42.73
512.846	42.64
513.195	42.81
513.544	42.72
513.893	42.76
514.242	42.83
514.591	42.91
514.939	43.02
515.288	43.16
515.637	43.33
515.986	43.27
516.334	43.57
516.683	43.54
517.032	43.55
517.38	43.49
517.729	43.67
518.077	43.8
518.426	43.78
518.774	43.67
519.122	43.73
519.47	43.66
519.819	43.5
520.167	43.46
520.515	43.48
520.863	43.47
521.211	43.57
521.559	43.78
521.907	43.89
522.255	43.98
522.602	44.14
522.95	44.27
523.298	44.48
523.645	44.66
523.993	44.69
524.341	44.74
524.688	44.85
525.036	44.73
525.383	44.78
525.73	44.85
526.078	45
526.425	44.73
526.772	44.79
527.119	44.71
527.466	44.72
527.814	44.67
528.161	44.72
528.508	44.76
528.854	45.04
529.201	44.95
529.548	44.87
529.895	45.1
530.242	44.9
530.588	44.64
530.935	44.48
531.282	44.26
531.628	44.56
531.975	44.72
532.321	45.04
532.667	45.33
533.014	45.41
533.36	45.56
533.706	45.67
534.052	45.79
534.399	45.81
534.745	45.65
535.091	45.49
535.437	45.34
535.783	45.4
536.129	45.59
536.474	45.91
536.82	46.29
537.166	46.5
537.512	46.64
537.857	46.61
538.203	46.51
538.549	46.35
538.894	46.45
539.239	46.32
539.585	46.54
539.93	46.81
540.276	46.85
540.621	47.06
540.966	47.29
541.311	47.57
541.656	47.47
542.001	47.37
542.346	47.11
542.691	46.88
543.036	46.76
543.381	46.64
543.726	46.64
544.071	46.66
544.415	46.72
544.76	47.1
545.105	47.13
545.449	47.4
545.794	47.71
546.138	47.7
546.483	47.79
546.827	48.1
547.171	48.07
547.516	48.07
547.86	48.11
548.204	48.22
548.548	48.23
548.892	48.08
549.236	48.07
549.58	48.29
549.924	48.66
550.268	48.57
550.612	48.98
550.956	48.95
551.3	49.35
551.643	49.37
551.987	49.42
552.33	49.49
552.674	49.6
553.017	49.66
553.361	49.59
553.704	49.61
554.048	49.74
554.391	49.36
554.734	49.47
555.077	49.47
555.42	49.47
555.764	49.78
556.107	49.67
556.45	50.05
556.793	49.86
557.135	50.13
557.478	50.22
557.821	50.22
558.164	50.34
558.507	50.23
558.849	50.38
559.192	50.64
559.534	50.65
559.877	50.99
560.219	50.69
560.562	50.5
560.904	50.84
561.246	50.9
561.589	51.08
561.931	50.7
562.273	50.92
562.615	50.81
562.957	50.98
563.299	50.79
563.641	50.85
563.983	51.03
564.325	50.91
564.667	51.24
565.008	51.61
565.35	51.64
565.692	51.64
566.033	51.26
566.375	51.4
566.716	51.67
567.058	51.45
567.399	51.67
567.741	51.64
568.082	51.63
568.423	51.42
568.764	51.36
569.105	51.75
569.447	51.79
569.788	51.77
570.129	52.05
570.47	52.04
570.811	52.05
571.151	52.17
571.492	52.22
571.833	52.15
572.174	52.43
572.514	52.58
572.855	52.26
573.195	52.38
573.536	52.42
573.876	52.27
574.217	52.14
574.557	52.39
574.898	52.34
575.238	52.46
575.578	52.7
575.918	52.56
576.258	52.62
576.598	52.77
576.938	52.74
577.278	52.88
577.618	53.06
577.958	53.06
578.298	52.78
578.638	53
578.977	53.46
579.317	53.26
579.657	53.06
579.996	53.35
580.336	53.45
580.675	53.96
581.014	53.75
581.354	53.85
581.693	53.58
582.032	54.01
582.372	54.05
582.711	54.04
583.05	54.11
583.389	53.97
583.728	53.84
584.067	54.05
584.406	54.26
584.745	54.45
585.083	54.4
585.422	54.59
585.761	54.85
586.1	54.23
586.438	54.62
586.777	54.55
587.115	54.5
587.454	54.57
587.792	54.83
588.13	54.65
588.469	55.17
588.807	55.12
589.145	54.87
589.483	55.01
589.821	54.75
590.159	55.31
590.497	54.71
590.835	55.37
591.173	55.18
591.511	55.21
591.849	55.2
592.187	55.46
592.524	55.25
592.862	55.38
593.2	55.43
593.537	55.33
593.875	55.4
594.212	55.82
594.55	55.82
594.887	55.6
595.224	56
595.561	55.73
595.899	55.86
596.236	55.87
596.573	55.82
596.91	55.72
597.247	55.92
597.584	55.64
597.921	55.9
598.258	55.95
598.594	55.57
598.931	55.8
599.268	55.69
599.604	55.81
599.941	55.71
600.277	55.88
600.614	56.33
600.95	56.21
601.287	56.45
601.623	56.49
601.959	56.89
602.296	56.75
602.632	56.86
602.968	56.77
603.304	56.93
603.64	56.82
603.976	57.05
604.312	57.13
604.648	56.83
604.984	56.66
605.319	56.64
605.655	57.09
605.991	56.76
606.326	56.73
606.662	56.59
606.998	56.54
607.333	56.36
607.668	56.9
608.004	56.89
608.339	57.02
608.674	57.51
609.01	57.74
609.345	57.39
609.68	57.35
610.015	57.39
610.35	57.56
610.685	57.47
611.02	57.41
611.355	57.28
611.689	57.47
612.024	57.09
612.359	57.29
612.694	57.36
613.028	57.78
613.363	57.63
613.697	58.01
614.032	57.92
614.366	58.29
614.7	58.21
615.035	58.12
615.369	58.2
615.703	58.34
616.037	58.51
616.371	58.41
616.705	58.35
617.039	58.52
617.373	58.57
617.707	58.45
618.041	58.47
618.375	58.79
618.709	58.54
619.042	59.29
619.376	58.91
619.71	59.13
620.043	58.5
620.377	59.28
620.71	59.31
621.043	58.88
621.377	59.24
621.71	59.05
622.043	58.85
622.376	59.48
622.709	59.27
623.043	59.12
623.376	59.62
623.709	59.28
624.041	59.07
624.374	59.39
624.707	59.15
625.04	59.85
625.373	59.51
625.705	59.8
626.038	60.04
626.37	59.65
626.703	59.39
627.035	60.18
627.368	59.94
627.7	59.9
628.032	60.04
628.365	59.84
628.697	59.87
629.029	59.74
629.361	59.6
629.693	60.05
630.025	59.87
630.357	60.1
630.689	59.97
631.021	59.8
631.353	60.04
631.684	59.61
632.016	60.03
632.348	60.1
632.679	60.5
633.011	60.53
633.342	60.72
633.674	60.62
634.005	60.02
634.336	60.64
634.668	60.81
634.999	60.29
635.33	60.71
635.661	60.8
635.992	60.67
636.323	61
636.654	60.42
636.985	60.3
637.316	60.73
637.647	60.57
637.977	61
638.308	60.41
638.639	60.9
638.969	60.65
639.3	61.16
639.63	61.21
639.961	61.36
640.291	61.5
640.622	61.6
640.952	61.52
641.282	61.11
641.612	61.61
641.943	61.56
642.273	61.41
642.603	60.67
642.933	62.04
643.263	61.88
643.592	61.69
643.922	61.17
644.252	62.01
644.582	61.57
644.911	61.66
645.241	61.67
645.571	61.97
645.9	61.44
646.23	61.91
646.559	62.08
646.888	63.22
647.218	61.72
647.547	61.69
647.876	62.1
648.205	61.54
648.534	62.34
648.863	62.37
649.192	62.14
649.521	62.74
649.85	62.5
650.179	62.39
650.508	62.06
650.837	62.28
651.165	62.19
651.494	62.72
651.822	62.64
652.151	62.52
652.479	62.45
652.808	62.43
653.136	62.27
653.465	62.62
653.793	63.03
654.121	62.82
654.449	62.15
654.777	62.58
655.105	63.6
655.433	62.61
655.761	62.74
656.089	62.75
656.417	63
656.745	63.08
657.073	62.61
657.4	62.93
657.728	63.14
658.056	62.82
658.383	63.21
658.711	63.22
659.038	63.15
659.365	63.48
659.693	63.02
660.02	63.29
660.347	63.73
660.674	63.26
661.001	63.14
661.329	63.27
661.656	62.92
661.982	63.03
662.309	62.7
662.636	63.41
662.963	63.06
663.29	63.78
663.616	63.66
663.943	63.21
664.27	64.34
664.596	63.32
664.923	63.14
665.249	63.79
665.576	64.1
665.902	63.65
666.228	63.07
666.554	64.03
666.881	64.27
667.207	63.59
667.533	63.71
667.859	63.98
668.185	63.99
668.511	64.1
668.837	64.04
669.162	64.4
669.488	63.94
669.814	64.48
670.139	63.95
670.465	64.49
