Data from 0027_forehead_Reflection__2__103.txt Node

Date: Thu Oct 20 21:44:30 CDT 2022
User: ToomeyLab
Spectrometer: FLMS14357
Trigger mode: 0
Integration Time (sec): 1.000000E-2
Scans to average: 100
Electric dark correction enabled: true
Nonlinearity correction enabled: false
Boxcar width: 0
XAxis mode: Wavelengths
Number of Pixels in Spectrum: 2048
>>>>>Begin Spectral Data<<<<<
189.047	24.5
189.435	24.5
189.823	24.5
190.211	48.89
190.599	-79.43
190.987	-1218.35
191.375	82.32
191.763	107.9
192.151	199.96
192.538	109.88
192.926	226.98
193.314	87.59
193.702	-41.32
194.089	31.28
194.477	-0.71
194.864	-71.96
195.252	153.8
195.639	294.69
196.027	-176.73
196.414	51.75
196.801	68.45
197.189	48.17
197.576	490.16
197.963	-123.67
198.351	19.75
198.738	21.76
199.125	15.66
199.512	16.88
199.899	23.18
200.286	-2.63
200.673	23.22
201.06	18.19
201.447	38.01
201.833	58.21
202.22	16.26
202.607	-6.61
202.994	55.63
203.38	-4.01
203.767	32.49
204.154	-5.69
204.54	-23.33
204.927	13.44
205.313	24.86
205.699	32.53
206.086	42.56
206.472	18.94
206.858	6.22
207.245	29.98
207.631	16.99
208.017	51.48
208.403	2.29
208.789	8.93
209.175	29.68
209.561	3.4
209.947	41.8
210.333	35.19
210.719	1.08
211.105	38.82
211.491	-33.7
211.876	-10.25
212.262	21.89
212.648	21.54
213.034	12.27
213.419	-2.31
213.805	24.83
214.19	5.47
214.576	-3.2
214.961	7.6
215.346	-0.77
215.732	51.14
216.117	12.99
216.502	24.7
216.888	13.97
217.273	13.99
217.658	39.16
218.043	21.1
218.428	0.41
218.813	24.97
219.198	14.07
219.583	12.38
219.968	25.86
220.353	30.17
220.738	22.06
221.122	12.08
221.507	14.33
221.892	8.06
222.276	16.19
222.661	15.51
223.046	1.19
223.43	2.29
223.815	15.79
224.199	-3.2
224.583	4.9
224.968	6.64
225.352	13.19
225.736	14.67
226.121	7.81
226.505	2.57
226.889	4.46
227.273	2.78
227.657	9
228.041	7.26
228.425	6.22
228.809	8.49
229.193	5.66
229.577	4.74
229.961	6.25
230.344	5.34
230.728	5.91
231.112	6.9
231.495	6.06
231.879	8.38
232.263	7.09
232.646	7.69
233.03	5.19
233.413	5.5
233.797	5.53
234.18	6.24
234.563	5.43
234.946	5.67
235.33	7.01
235.713	6.56
236.096	5.83
236.479	5.54
236.862	6.97
237.245	5.68
237.628	7.63
238.011	7.09
238.394	7.36
238.777	6.48
239.16	6.58
239.543	5.18
239.925	6.55
240.308	5.97
240.691	7.92
241.073	5.06
241.456	6.7
241.838	5.15
242.221	5.7
242.603	6.38
242.986	6.27
243.368	6.3
243.75	6.17
244.133	6.56
244.515	6.18
244.897	5.66
245.279	4.97
245.661	5.94
246.043	7.47
246.425	7.02
246.807	7.38
247.189	6.84
247.571	6.35
247.953	5.98
248.335	6.06
248.717	5.82
249.098	5.97
249.48	6.31
249.862	6.13
250.243	5.84
250.625	6.61
251.006	6.52
251.388	6.61
251.769	5.88
252.151	6.77
252.532	5.76
252.913	5.9
253.295	6.56
253.676	6.23
254.057	5.57
254.438	6.19
254.819	6.53
255.2	6.93
255.581	5.86
255.962	8.3
256.343	5.85
256.724	6.68
257.105	7.06
257.486	6.03
257.867	6.66
258.247	7.47
258.628	6.42
259.009	5.81
259.389	6.25
259.77	6.53
260.15	6.42
260.531	6.4
260.911	6.2
261.292	6.21
261.672	5.87
262.052	5.98
262.432	5.88
262.813	6.17
263.193	6.83
263.573	6.3
263.953	5.99
264.333	5.96
264.713	6.6
265.093	6.22
265.473	6.05
265.853	6.93
266.233	6.74
266.612	6.93
266.992	5.54
267.372	6.51
267.752	5.84
268.131	6.76
268.511	6.42
268.89	6.23
269.27	6.1
269.649	6.09
270.029	6.24
270.408	6.11
270.787	5.74
271.167	6.11
271.546	6.21
271.925	6.5
272.304	6.12
272.683	5.92
273.062	5.59
273.441	6.06
273.82	6.24
274.199	5.55
274.578	5.68
274.957	6.15
275.336	6.24
275.715	6.28
276.093	6.35
276.472	6.44
276.851	6.16
277.229	5.64
277.608	5.82
277.986	6.31
278.365	5.81
278.743	5.94
279.122	6.35
279.5	6.12
279.878	6.31
280.257	6.41
280.635	5.98
281.013	6.2
281.391	5.97
281.769	6.22
282.147	5.81
282.525	6.08
282.903	6.01
283.281	5.84
283.659	5.58
284.037	5.22
284.415	6.31
284.792	6.02
285.17	6.3
285.548	6.04
285.925	6.03
286.303	5.89
286.68	6.4
287.058	5.95
287.435	6.05
287.813	5.93
288.19	6.34
288.567	6.48
288.945	6.14
289.322	6.17
289.699	5.64
290.076	6.27
290.453	6.02
290.83	6.55
291.207	6.69
291.584	6.72
291.961	6.27
292.338	5.96
292.715	6.57
293.092	6.9
293.469	6.55
293.845	6.84
294.222	7.04
294.599	7.49
294.975	6.68
295.352	6.77
295.728	6.93
296.105	7.58
296.481	6.63
296.858	7.5
297.234	7.36
297.61	7.07
297.986	7
298.363	7.11
298.739	7.29
299.115	6.89
299.491	7.46
299.867	7.12
300.243	7.35
300.619	7.46
300.995	7.66
301.371	7.96
301.746	7.46
302.122	8.17
302.498	7.99
302.874	7.96
303.249	8.18
303.625	8.42
304	8.11
304.376	7.97
304.751	8.74
305.127	8.15
305.502	8.51
305.878	8.47
306.253	8.12
306.628	9.12
307.003	8.48
307.378	8.24
307.754	8.82
308.129	8.85
308.504	9.34
308.879	9.1
309.254	9.31
309.629	9.17
310.003	9.31
310.378	9.47
310.753	9.5
311.128	9.5
311.502	9.65
311.877	9.52
312.252	9.72
312.626	9.75
313.001	10.14
313.375	10.31
313.75	9.83
314.124	9.76
314.498	9.94
314.873	10.39
315.247	9.96
315.621	10.46
315.995	10.5
316.369	11.11
316.743	10.74
317.117	10.84
317.491	10.87
317.865	11.36
318.239	11.57
318.613	12
318.987	11.29
319.361	11.37
319.734	11.31
320.108	11.82
320.482	11.35
320.855	11.86
321.229	12.12
321.602	11.51
321.976	12.08
322.349	12.31
322.723	12.27
323.096	11.99
323.469	12.55
323.843	12.23
324.216	11.96
324.589	12.66
324.962	12.5
325.335	12.72
325.708	12.76
326.081	13.33
326.454	12.99
326.827	12.74
327.2	13.66
327.573	13.3
327.945	13.25
328.318	13.19
328.691	13.64
329.063	13.55
329.436	13.36
329.809	13.67
330.181	13.92
330.553	13.82
330.926	14
331.298	13.97
331.671	14.11
332.043	14.16
332.415	14.27
332.787	14.37
333.159	14.59
333.532	14.52
333.904	14.62
334.276	14.79
334.648	13.98
335.02	14.55
335.391	14.23
335.763	14.89
336.135	15.47
336.507	14.86
336.879	15.91
337.25	14.55
337.622	14.8
337.993	15.07
338.365	15.79
338.736	15.81
339.108	15.51
339.479	15.67
339.851	15.41
340.222	15.64
340.593	15.79
340.964	16
341.336	15.83
341.707	15.98
342.078	15.71
342.449	15.89
342.82	16.49
343.191	16.46
343.562	16.76
343.933	16.32
344.303	16.79
344.674	16.7
345.045	16.85
345.416	16.77
345.786	16.59
346.157	16.99
346.527	16.89
346.898	16.94
347.268	17.12
347.639	17.36
348.009	17.16
348.38	17.7
348.75	16.55
349.12	17.22
349.49	17.64
349.861	17.74
350.231	17.63
350.601	18.08
350.971	18.19
351.341	18.25
351.711	18.04
352.081	17.5
352.45	18.03
352.82	18.21
353.19	18.19
353.56	18.36
353.929	18.18
354.299	18.46
354.669	18.27
355.038	18.85
355.408	18.05
355.777	19.23
356.147	19.02
356.516	18.94
356.885	18.86
357.254	19.22
357.624	19.3
357.993	19.18
358.362	19.8
358.731	19.56
359.1	19.16
359.469	19.24
359.838	19.37
360.207	20.12
360.576	19.26
360.945	20.43
361.314	20.16
361.682	19.93
362.051	20.22
362.42	20.07
362.788	20.1
363.157	20.27
363.525	20.2
363.894	20.02
364.262	20.39
364.631	20.4
364.999	20.49
365.367	20.64
365.735	20.79
366.104	20.77
366.472	20.67
366.84	21.31
367.208	21.12
367.576	21.1
367.944	21.58
368.312	20.99
368.68	21.5
369.048	21.44
369.416	21.49
369.783	21.61
370.151	21.86
370.519	21.99
370.886	21.77
371.254	22.25
371.621	22.2
371.989	22.44
372.356	21.84
372.724	22.43
373.091	22.19
373.458	22.3
373.826	22.44
374.193	22.62
374.56	22.49
374.927	22.31
375.294	22.74
375.661	23.19
376.028	22.99
376.395	23.2
376.762	23.09
377.129	22.98
377.496	23.03
377.863	23.3
378.229	23.43
378.596	23.61
378.963	23.83
379.329	23.43
379.696	23.44
380.062	23.71
380.429	24.24
380.795	23.95
381.161	24.47
381.528	24.13
381.894	24.23
382.26	24.1
382.626	24.69
382.993	24.28
383.359	24.71
383.725	24.79
384.091	24.7
384.457	24.83
384.823	24.81
385.188	25.5
385.554	24.73
385.92	25.28
386.286	24.83
386.651	25.02
387.017	25.22
387.383	25.28
387.748	25.53
388.114	25.64
388.479	25.61
388.845	25.59
389.21	25.85
389.575	25.81
389.94	26.13
390.306	26.32
390.671	26.19
391.036	25.88
391.401	26.21
391.766	26.5
392.131	26.36
392.496	26.47
392.861	26.32
393.226	26.77
393.591	26.85
393.956	26.86
394.32	26.9
394.685	26.85
395.05	26.94
395.414	27.1
395.779	27.28
396.143	27.37
396.508	27.34
396.872	27.51
397.236	27.24
397.601	27.75
397.965	28.01
398.329	27.67
398.694	27.75
399.058	27.87
399.422	28.09
399.786	28.08
400.15	28.05
400.514	28.27
400.878	28.15
401.242	28.45
401.605	28.4
401.969	28.6
402.333	28.8
402.697	28.92
403.06	28.51
403.424	28.9
403.787	29.04
404.151	29.16
404.514	29.07
404.878	29.16
405.241	29.08
405.604	29.22
405.968	29.31
406.331	29.3
406.694	29.43
407.057	29.46
407.42	29.36
407.783	29.52
408.146	29.82
408.509	29.73
408.872	30.09
409.235	29.98
409.598	30.24
409.961	30.37
410.323	30.76
410.686	30.67
411.049	30.42
411.411	30.36
411.774	30.64
412.136	30.58
412.499	30.83
412.861	30.66
413.223	30.92
413.586	30.66
413.948	31.13
414.31	30.96
414.672	31.21
415.035	31.1
415.397	31.23
415.759	31.6
416.121	31.4
416.483	31.34
416.845	31.62
417.206	31.63
417.568	31.65
417.93	31.37
418.292	31.82
418.653	31.5
419.015	31.91
419.377	31.65
419.738	31.95
420.1	31.79
420.461	31.86
420.822	31.73
421.184	31.81
421.545	31.89
421.906	31.93
422.267	32.08
422.629	31.84
422.99	31.96
423.351	32
423.712	31.91
424.073	32.27
424.434	32.37
424.795	32.4
425.155	32.59
425.516	32.45
425.877	32.43
426.238	32.51
426.598	32.72
426.959	32.74
427.32	32.89
427.68	33.05
428.041	33.25
428.401	33.53
428.761	33.43
429.122	33.44
429.482	33.83
429.842	33.74
430.202	34.04
430.563	34.1
430.923	34.31
431.283	34.12
431.643	34.3
432.003	34.24
432.363	34.53
432.722	34.63
433.082	34.76
433.442	34.59
433.802	34.77
434.161	34.83
434.521	34.65
434.881	34.81
435.24	34.72
435.6	34.71
435.959	34.77
436.319	34.94
436.678	34.9
437.037	35.35
437.396	35.55
437.756	35.45
438.115	35.32
438.474	35.68
438.833	35.66
439.192	35.74
439.551	35.76
439.91	35.83
440.269	35.76
440.628	35.81
440.987	35.87
441.345	36
441.704	35.76
442.063	36.02
442.421	35.88
442.78	35.78
443.138	35.84
443.497	36.13
443.855	36.14
444.214	36.24
444.572	36.71
444.93	36.48
445.288	36.53
445.647	36.78
446.005	36.72
446.363	36.84
446.721	36.76
447.079	36.96
447.437	36.79
447.795	36.77
448.153	36.63
448.51	36.68
448.868	36.8
449.226	36.85
449.584	36.87
449.941	37.46
450.299	37.36
450.656	37.53
451.014	37.65
451.371	37.48
451.729	37.73
452.086	37.94
452.443	38.08
452.801	38.08
453.158	38.24
453.515	38.32
453.872	38.31
454.229	38.41
454.586	38.4
454.943	38.14
455.3	38.2
455.657	38.55
456.014	38.51
456.371	38.65
456.727	38.71
457.084	38.83
457.441	38.82
457.797	38.76
458.154	38.97
458.51	39.3
458.867	39.28
459.223	39.39
459.58	39.26
459.936	39.21
460.292	39.3
460.648	39.4
461.005	39.11
461.361	39.06
461.717	38.96
462.073	38.9
462.429	39.09
462.785	39.27
463.141	39.63
463.496	39.82
463.852	39.96
464.208	40.12
464.564	40.2
464.919	40.23
465.275	40.44
465.631	40.37
465.986	40.52
466.342	40.55
466.697	40.49
467.052	40.68
467.408	40.66
467.763	40.84
468.118	40.84
468.473	40.95
468.829	40.91
469.184	40.83
469.539	40.83
469.894	41.03
470.249	41.01
470.603	41.36
470.958	41.4
471.313	41.39
471.668	41.73
472.023	41.46
472.377	41.61
472.732	41.81
473.086	41.77
473.441	41.86
473.795	42.07
474.15	41.87
474.504	41.87
474.859	42.1
475.213	41.83
475.567	42.03
475.921	42.16
476.275	42.52
476.63	42.55
476.984	42.25
477.338	42.52
477.692	42.73
478.045	42.65
478.399	42.54
478.753	42.41
479.107	42.64
479.461	42.62
479.814	42.75
480.168	42.85
480.521	42.65
480.875	42.71
481.228	42.96
481.582	42.96
481.935	42.94
482.289	42.97
482.642	42.99
482.995	42.98
483.348	42.91
483.701	42.79
484.055	42.93
484.408	42.9
484.761	42.83
485.114	43.01
485.466	43.07
485.819	42.52
486.172	42.14
486.525	42.09
486.878	42.02
487.23	42.54
487.583	42.71
487.936	43.21
488.288	43.22
488.641	43.17
488.993	43.32
489.345	43.27
489.698	43.16
490.05	42.91
490.402	42.94
490.754	43.18
491.107	43.4
491.459	43.73
491.811	44.01
492.163	44.19
492.515	44.16
492.866	44.14
493.218	44.05
493.57	43.68
493.922	43.37
494.274	43.47
494.625	43.9
494.977	44.17
495.328	44.6
495.68	44.74
496.031	45.18
496.383	45.13
496.734	45.33
497.086	45.51
497.437	45.71
497.788	45.54
498.139	45.68
498.49	45.49
498.842	45.36
499.193	45.51
499.544	45.46
499.894	45.57
500.245	45.54
500.596	45.82
500.947	45.92
501.298	46.16
501.648	46.16
501.999	46.41
502.35	46.41
502.7	46.44
503.051	46.53
503.401	46.69
503.752	46.55
504.102	46.68
504.452	46.62
504.803	46.57
505.153	46.85
505.503	46.89
505.853	46.9
506.203	46.82
506.553	46.95
506.903	47.03
507.253	46.93
507.603	46.99
507.953	47.12
508.303	47.3
508.652	47.39
509.002	47.32
509.352	47.28
509.701	47.09
510.051	47.17
510.4	47.19
510.75	47.29
511.099	47.23
511.449	47.62
511.798	47.46
512.147	47.51
512.496	48.02
512.846	47.85
513.195	47.89
513.544	47.74
513.893	47.98
514.242	47.83
514.591	47.9
514.939	47.91
515.288	48.11
515.637	48.34
515.986	48.32
516.334	48.44
516.683	48.46
517.032	48.43
517.38	48.67
517.729	48.68
518.077	48.66
518.426	48.7
518.774	48.74
519.122	48.78
519.47	48.68
519.819	48.65
520.167	48.46
520.515	48.53
520.863	48.26
521.211	48.48
521.559	48.7
521.907	48.68
522.255	48.86
522.602	49.2
522.95	49.13
523.298	49.14
523.645	49.43
523.993	49.54
524.341	49.7
524.688	49.68
525.036	49.62
525.383	49.54
525.73	49.89
526.078	49.77
526.425	49.72
526.772	49.55
527.119	49.48
527.466	49.44
527.814	49.25
528.161	49.27
528.508	49.55
528.854	49.54
529.201	49.72
529.548	49.76
529.895	50.02
530.242	49.92
530.588	49.46
530.935	49.05
531.282	48.78
531.628	48.99
531.975	49.12
532.321	49.62
532.667	49.93
533.014	50.1
533.36	50.21
533.706	50.27
534.052	50.54
534.399	50.46
534.745	50.51
535.091	50.26
535.437	50.01
535.783	49.84
536.129	50.04
536.474	50.56
536.82	50.72
537.166	50.91
537.512	51.07
537.857	51.16
538.203	51.12
538.549	50.85
538.894	51.03
539.239	50.83
539.585	51.18
539.93	51.39
540.276	51.56
540.621	51.55
540.966	51.86
541.311	52.05
541.656	52.05
542.001	51.66
542.346	51.87
542.691	51.79
543.036	51.35
543.381	51.37
543.726	51.14
544.071	50.97
544.415	51.04
544.76	51.42
545.105	51.62
545.449	51.68
545.794	51.88
546.138	51.98
546.483	52.22
546.827	52.32
547.171	52.51
547.516	52.72
547.86	52.59
548.204	52.61
548.548	52.5
548.892	52.53
549.236	52.34
549.58	52.87
549.924	52.89
550.268	52.8
550.612	52.94
550.956	53.19
551.3	53.45
551.643	53.53
551.987	53.36
552.33	53.57
552.674	53.79
553.017	53.82
553.361	53.72
553.704	53.89
554.048	54.18
554.391	53.89
554.734	53.91
555.077	53.59
555.42	53.82
555.764	54.08
556.107	54.11
556.45	54.19
556.793	54.15
557.135	54.34
557.478	54.13
557.821	54.55
558.164	54.45
558.507	54.34
558.849	54.7
559.192	54.93
559.534	54.56
559.877	54.84
560.219	55.15
560.562	54.67
560.904	54.82
561.246	54.9
561.589	55.12
561.931	54.89
562.273	55.06
562.615	55.06
562.957	54.97
563.299	54.81
563.641	54.86
563.983	55.19
564.325	54.91
564.667	55.41
565.008	55.37
565.35	55.28
565.692	55.46
566.033	55.67
566.375	55.38
566.716	55.95
567.058	55.35
567.399	55.41
567.741	55.27
568.082	55.69
568.423	55.32
568.764	55.09
569.105	55.63
569.447	55.58
569.788	55.67
570.129	55.85
570.47	55.73
570.811	55.78
571.151	56.09
571.492	55.92
571.833	55.95
572.174	55.98
572.514	56.12
572.855	56.13
573.195	56.32
573.536	56.33
573.876	56.07
574.217	55.95
574.557	56.26
574.898	56.16
575.238	56.26
575.578	56.42
575.918	56.49
576.258	56.88
576.598	56.54
576.938	56.64
577.278	56.47
577.618	56.58
577.958	56.63
578.298	56.69
578.638	56.73
578.977	56.97
579.317	56.87
579.657	56.77
579.996	56.9
580.336	57.15
580.675	57.2
581.014	57.07
581.354	57.68
581.693	57.17
582.032	57.47
582.372	57.85
582.711	57.6
583.05	57.66
583.389	57.59
583.728	57.19
584.067	57.53
584.406	58.43
584.745	57.87
585.083	57.73
585.422	57.95
585.761	58.07
586.1	57.95
586.438	58.16
586.777	58.08
587.115	58.03
587.454	57.92
587.792	58.22
588.13	58.34
588.469	58.56
588.807	58.3
589.145	58.64
589.483	58.52
589.821	58.48
590.159	58.95
590.497	58.55
590.835	58.4
591.173	58.56
591.511	58.62
591.849	58.64
592.187	58.6
592.524	58.76
592.862	58.64
593.2	58.82
593.537	58.57
593.875	58.75
594.212	58.66
594.55	59.12
594.887	58.99
595.224	59.17
595.561	58.93
595.899	58.8
596.236	58.93
596.573	58.89
596.91	59.09
597.247	59.41
597.584	58.64
597.921	59.03
598.258	59.36
598.594	58.97
598.931	59.05
599.268	58.9
599.604	58.58
599.941	58.95
600.277	58.61
600.614	59.38
600.95	59.38
601.287	59.48
601.623	59.01
601.959	59.13
602.296	59.71
602.632	59.63
602.968	59.94
603.304	60.03
603.64	59.73
603.976	59.94
604.312	60.18
604.648	59.65
604.984	59.72
605.319	59.72
605.655	59.85
605.991	59.63
606.326	59.66
606.662	59.61
606.998	59.56
607.333	59.55
607.668	59.51
608.004	59.12
608.339	59.72
608.674	60.06
609.01	60.32
609.345	60.11
609.68	59.98
610.015	60.57
610.35	60.27
610.685	60.42
611.02	60.16
611.355	60.37
611.689	60.17
612.024	60.16
612.359	60.48
612.694	60.37
613.028	60.3
613.363	60.13
613.697	60.77
614.032	60.82
614.366	61.06
614.7	60.83
615.035	60.5
615.369	61.06
615.703	60.85
616.037	60.59
616.371	61.03
616.705	61.07
617.039	61.14
617.373	60.89
617.707	61.35
618.041	61.45
618.375	61.18
618.709	61.34
619.042	61.19
619.376	61.28
619.71	61.55
620.043	61.25
620.377	62.11
620.71	61.5
621.043	61.65
621.377	60.98
621.71	61.75
622.043	61.53
622.376	61.53
622.709	61.92
623.043	62.14
623.376	62.11
623.709	61.45
624.041	61.62
624.374	62.25
624.707	62.18
625.04	62.22
625.373	61.78
625.705	61.68
626.038	62.18
626.37	61.94
626.703	61.86
627.035	62.28
627.368	62.03
627.7	62.15
628.032	62.1
628.365	62.16
628.697	62.5
629.029	61.94
629.361	61.76
629.693	61.96
630.025	62.14
630.357	62.37
630.689	61.99
631.021	62.43
631.353	62.13
631.684	62.65
632.016	62.31
632.348	62.48
632.679	62.24
633.011	62.6
633.342	62.35
633.674	62.9
634.005	62.25
634.336	62.94
634.668	63.21
634.999	62.42
635.33	62.98
635.661	62.89
635.992	63.3
636.323	63.29
636.654	62.65
636.985	62.88
637.316	62.76
637.647	62.54
637.977	63.19
638.308	62.56
638.639	62.61
638.969	63.2
639.3	63
639.63	62.97
639.961	63.45
640.291	63.31
640.622	63.42
640.952	63.27
641.282	63.51
641.612	63.44
641.943	63.16
642.273	63.82
642.603	62.79
642.933	63.77
643.263	63.61
643.592	63.62
643.922	63.14
644.252	63.27
644.582	63.37
644.911	63.87
645.241	63.83
645.571	64.23
645.9	63.74
646.23	63.75
646.559	64.03
646.888	64.16
647.218	63.6
647.547	63.9
647.876	64.17
648.205	64.01
648.534	63.71
648.863	64.18
649.192	64.05
649.521	64.23
649.85	63.82
650.179	63.89
650.508	64.06
650.837	64.29
651.165	63.88
651.494	64.76
651.822	64.91
652.151	64.24
652.479	64.71
652.808	63.67
653.136	64.37
653.465	64.28
653.793	64.72
654.121	64.75
654.449	65.12
654.777	64
655.105	64.88
655.433	63.99
655.761	64.41
656.089	64.96
656.417	64.79
656.745	64.82
657.073	64.52
657.4	64.51
657.728	64.46
658.056	65.07
658.383	64.61
658.711	64.62
659.038	64.76
659.365	65.28
659.693	64.75
660.02	64.99
660.347	65
660.674	64.91
661.001	64.79
661.329	64.84
661.656	64.99
661.982	64.49
662.309	64.76
662.636	65.17
662.963	64.96
663.29	65.04
663.616	64.92
663.943	64.97
664.27	65.66
664.596	65.1
664.923	64.58
665.249	65.08
665.576	65.26
665.902	65.17
666.228	65.29
666.554	64.77
666.881	65.77
667.207	65.77
667.533	65.01
667.859	65.64
668.185	65.21
668.511	65.53
668.837	65.43
669.162	65.71
