Data from 0027_forehead_Reflection__4__105.txt Node

Date: Thu Oct 20 21:44:50 CDT 2022
User: ToomeyLab
Spectrometer: FLMS14357
Trigger mode: 0
Integration Time (sec): 1.000000E-2
Scans to average: 100
Electric dark correction enabled: true
Nonlinearity correction enabled: false
Boxcar width: 0
XAxis mode: Wavelengths
Number of Pixels in Spectrum: 2048
>>>>>Begin Spectral Data<<<<<
189.047	-23.73
189.435	-23.73
189.823	-23.73
190.211	-169.34
190.599	-26.7
190.987	-260.72
191.375	75.29
191.763	-11.16
192.151	215.18
192.538	32.36
192.926	403.14
193.314	16.92
193.702	-41.83
194.089	89.29
194.477	-117.54
194.864	-72.25
195.252	221.29
195.639	40.76
196.027	-6.51
196.414	72.79
196.801	230.01
197.189	-61.11
197.576	449.08
197.963	-191.98
198.351	37.22
198.738	-7.93
199.125	7.25
199.512	-3.74
199.899	17.3
200.286	22.63
200.673	56.39
201.06	18.25
201.447	57.88
201.833	32.55
202.22	29.24
202.607	23.82
202.994	-35.22
203.38	19.24
203.767	-4.02
204.154	2.04
204.54	39.42
204.927	58.02
205.313	44.03
205.699	24.9
206.086	30.23
206.472	-3.69
206.858	-0.11
207.245	13.43
207.631	6.59
208.017	17.47
208.403	-25.1
208.789	0.94
209.175	11.15
209.561	35.93
209.947	43.07
210.333	28.31
210.719	43.22
211.105	17.65
211.491	-24.29
211.876	10.64
212.262	23.3
212.648	20.88
213.034	10.21
213.419	-5.94
213.805	-9.42
214.19	-5.9
214.576	-13.08
214.961	-17.63
215.346	-3.8
215.732	13.45
216.117	14.25
216.502	20.95
216.888	1.83
217.273	-1.46
217.658	9.7
218.043	15.09
218.428	6.25
218.813	22.12
219.198	16.1
219.583	14.57
219.968	43.83
220.353	3.49
220.738	9.04
221.122	15.18
221.507	5.71
221.892	16.54
222.276	1.79
222.661	10.78
223.046	19
223.43	-4.43
223.815	17.04
224.199	7.22
224.583	1.05
224.968	9.84
225.352	16.17
225.736	13.88
226.121	11.88
226.505	8.93
226.889	9.48
227.273	1.82
227.657	8.59
228.041	7.76
228.425	6.41
228.809	8.44
229.193	7.74
229.577	6.38
229.961	6.34
230.344	6.39
230.728	6.84
231.112	6.79
231.495	6.75
231.879	7.63
232.263	7.43
232.646	6.81
233.03	7.06
233.413	6.12
233.797	3.59
234.18	6.23
234.563	7.25
234.946	6.38
235.33	6.22
235.713	6.66
236.096	5.03
236.479	6.86
236.862	7.57
237.245	6.46
237.628	6.43
238.011	6.48
238.394	8.61
238.777	6.42
239.16	6.66
239.543	5.04
239.925	6.92
240.308	8.18
240.691	8.13
241.073	5.61
241.456	6.52
241.838	5.84
242.221	6.4
242.603	6.62
242.986	7.04
243.368	6.19
243.75	6.43
244.133	6.51
244.515	6.42
244.897	6.21
245.279	5.49
245.661	7.3
246.043	7.1
246.425	6.82
246.807	6.74
247.189	6.99
247.571	6.86
247.953	6.61
248.335	6.51
248.717	6.38
249.098	6.44
249.48	6.24
249.862	6.59
250.243	6.54
250.625	6.79
251.006	7.1
251.388	7.18
251.769	6.25
252.151	7.21
252.532	5.95
252.913	6.29
253.295	7.02
253.676	6.87
254.057	5.8
254.438	6.28
254.819	7.11
255.2	8.16
255.581	7.19
255.962	7.35
256.343	6.26
256.724	6.82
257.105	7.02
257.486	6.52
257.867	7.76
258.247	7.09
258.628	7.08
259.009	6.04
259.389	6.39
259.77	6.45
260.15	6.74
260.531	6.81
260.911	6.43
261.292	6.46
261.672	6.24
262.052	6.33
262.432	6.48
262.813	6.07
263.193	6.65
263.573	6.72
263.953	6.8
264.333	6.46
264.713	6.45
265.093	6.63
265.473	6.77
265.853	7.13
266.233	6.71
266.612	7.36
266.992	6.55
267.372	6.75
267.752	6.34
268.131	7.2
268.511	6.94
268.89	6.23
269.27	6.54
269.649	6.31
270.029	6.04
270.408	5.72
270.787	6.21
271.167	6.06
271.546	5.99
271.925	6.92
272.304	6.86
272.683	6.23
273.062	5.93
273.441	6.5
273.82	6.54
274.199	6
274.578	5.98
274.957	6.21
275.336	6.14
275.715	6.46
276.093	6.99
276.472	6.47
276.851	6.69
277.229	6.24
277.608	5.57
277.986	6.03
278.365	5.75
278.743	6.52
279.122	6.33
279.5	6.15
279.878	6.8
280.257	6.53
280.635	5.74
281.013	6.03
281.391	7
281.769	6.31
282.147	6.34
282.525	6.25
282.903	5.94
283.281	5.96
283.659	6.03
284.037	5.62
284.415	6.27
284.792	5.95
285.17	6.47
285.548	6.08
285.925	6.28
286.303	6.35
286.68	6.72
287.058	6.45
287.435	6.25
287.813	6.32
288.19	6.14
288.567	6.2
288.945	6.76
289.322	6.72
289.699	6.02
290.076	6.52
290.453	6.63
290.83	6.76
291.207	6.88
291.584	6.5
291.961	6.76
292.338	6.93
292.715	6.56
293.092	7.44
293.469	7.32
293.845	7.06
294.222	7.51
294.599	7.72
294.975	7.21
295.352	7.52
295.728	6.97
296.105	7.07
296.481	6.97
296.858	7.24
297.234	7.64
297.61	7.36
297.986	7.14
298.363	7.43
298.739	7.29
299.115	7.34
299.491	7.36
299.867	7.24
300.243	7.42
300.619	7.69
300.995	7.34
301.371	7.72
301.746	7.88
302.122	8.2
302.498	7.93
302.874	8.48
303.249	8.54
303.625	8.02
304	8.26
304.376	8.06
304.751	8.31
305.127	8.17
305.502	8.59
305.878	8.55
306.253	8.35
306.628	9.04
307.003	9.17
307.378	8.06
307.754	9.23
308.129	9.33
308.504	9.11
308.879	9.2
309.254	9.37
309.629	9.62
310.003	8.99
310.378	9.19
310.753	9.62
311.128	9.28
311.502	9.6
311.877	9.65
312.252	8.89
312.626	9.57
313.001	9.67
313.375	9.96
313.75	9.98
314.124	9.32
314.498	9.96
314.873	9.69
315.247	9.97
315.621	10.55
315.995	10.61
316.369	10.95
316.743	10.5
317.117	10.81
317.491	10.69
317.865	10.99
318.239	10.82
318.613	11.52
318.987	11.47
319.361	12.04
319.734	10.89
320.108	10.96
320.482	11.42
320.855	11.74
321.229	11.36
321.602	10.75
321.976	11.51
322.349	11.34
322.723	12.22
323.096	11.9
323.469	11.76
323.843	12.49
324.216	11.96
324.589	12.11
324.962	11.78
325.335	12.23
325.708	12.26
326.081	12.45
326.454	12.45
326.827	12.35
327.2	13.1
327.573	13.01
327.945	12.64
328.318	12.96
328.691	12.83
329.063	13.08
329.436	12.96
329.809	13.09
330.181	13.27
330.553	13.1
330.926	13.41
331.298	13.31
331.671	14.03
332.043	13.64
332.415	13.82
332.787	14.05
333.159	13.59
333.532	13.85
333.904	13.99
334.276	14.16
334.648	13.68
335.02	13.95
335.391	13.77
335.763	14.38
336.135	14.2
336.507	14.37
336.879	14.82
337.25	14.27
337.622	14.54
337.993	14.74
338.365	14.67
338.736	14.57
339.108	14.74
339.479	14.45
339.851	14.68
340.222	14.66
340.593	15.19
340.964	15.4
341.336	14.9
341.707	14.69
342.078	15.29
342.449	15.48
342.82	15.47
343.191	15.63
343.562	15.98
343.933	15.51
344.303	15.33
344.674	15.79
345.045	16.03
345.416	16.17
345.786	15.84
346.157	15.82
346.527	15.71
346.898	16.09
347.268	15.98
347.639	16.22
348.009	16.3
348.38	16.91
348.75	16.04
349.12	16.98
349.49	16.55
349.861	16.84
350.231	16.44
350.601	16.96
350.971	16.83
351.341	17.43
351.711	16.78
352.081	17
352.45	16.72
352.82	17.04
353.19	16.87
353.56	17.25
353.929	17.53
354.299	17.68
354.669	17.17
355.038	17.61
355.408	17.5
355.777	17.34
356.147	17.81
356.516	17.74
356.885	17.73
357.254	18.17
357.624	17.87
357.993	17.64
358.362	18.48
358.731	18.44
359.1	17.88
359.469	18.03
359.838	17.95
360.207	18.67
360.576	18.55
360.945	19.03
361.314	18.43
361.682	18.61
362.051	18.66
362.42	18.75
362.788	18.85
363.157	18.62
363.525	18.9
363.894	18.7
364.262	18.71
364.631	18.83
364.999	18.84
365.367	19.33
365.735	19.35
366.104	19.5
366.472	19.33
366.84	19.63
367.208	19.47
367.576	20.22
367.944	19.6
368.312	19.71
368.68	20.18
369.048	19.91
369.416	19.87
369.783	19.97
370.151	20.41
370.519	20.37
370.886	20.26
371.254	20.49
371.621	20.21
371.989	20.71
372.356	20.3
372.724	20.82
373.091	20.59
373.458	20.36
373.826	20.84
374.193	20.75
374.56	20.86
374.927	21.08
375.294	20.87
375.661	21.4
376.028	21.27
376.395	21.56
376.762	21.51
377.129	21.47
377.496	21.31
377.863	21.63
378.229	21.63
378.596	21.61
378.963	21.83
379.329	21.65
379.696	21.63
380.062	21.99
380.429	22.27
380.795	22.27
381.161	22.76
381.528	22.65
381.894	22.57
382.26	22.31
382.626	22.63
382.993	22.41
383.359	22.62
383.725	22.73
384.091	22.63
384.457	22.66
384.823	22.98
385.188	23.02
385.554	22.78
385.92	23.1
386.286	23.18
386.651	23.11
387.017	23.22
387.383	23.26
387.748	23.61
388.114	23.43
388.479	23.9
388.845	23.86
389.21	23.66
389.575	23.68
389.94	24.19
390.306	24.29
390.671	23.85
391.036	24.07
391.401	23.85
391.766	24.46
392.131	24.42
392.496	24.28
392.861	24.11
393.226	24.39
393.591	24.6
393.956	24.59
394.32	24.75
394.685	24.69
395.05	25
395.414	24.95
395.779	24.82
396.143	25.04
396.508	25.16
396.872	25.08
397.236	24.87
397.601	25.29
397.965	25.33
398.329	25.56
398.694	25.38
399.058	25.43
399.422	25.86
399.786	25.78
400.15	25.85
400.514	26
400.878	25.79
401.242	26.03
401.605	26.18
401.969	26.08
402.333	26.3
402.697	26.14
403.06	26.29
403.424	26.22
403.787	26.8
404.151	26.36
404.514	26.63
404.878	26.69
405.241	26.6
405.604	26.76
405.968	26.79
406.331	26.89
406.694	27.06
407.057	26.83
407.42	26.97
407.783	27.16
408.146	27.13
408.509	27.29
408.872	27.31
409.235	27.16
409.598	27.68
409.961	27.66
410.323	27.73
410.686	27.95
411.049	27.93
411.411	27.74
411.774	27.62
412.136	27.88
412.499	28.14
412.861	27.96
413.223	28.31
413.586	28.24
413.948	28.27
414.31	28.31
414.672	28.55
415.035	29.02
415.397	28.48
415.759	28.91
416.121	28.79
416.483	28.68
416.845	28.87
417.206	28.67
417.568	28.85
417.93	29.13
418.292	28.71
418.653	28.94
419.015	29.1
419.377	29
419.738	29.01
420.1	29.21
420.461	29.1
420.822	29.04
421.184	29.21
421.545	29.36
421.906	29.23
422.267	29.29
422.629	29.17
422.99	29.11
423.351	29.24
423.712	29.21
424.073	29.49
424.434	29.51
424.795	29.82
425.155	29.7
425.516	29.91
425.877	29.68
426.238	29.74
426.598	29.9
426.959	29.91
427.32	30.24
427.68	30.28
428.041	30.75
428.401	30.53
428.761	30.56
429.122	30.77
429.482	31.06
429.842	30.83
430.202	31.21
430.563	31.25
430.923	31.3
431.283	31.46
431.643	31.24
432.003	31.3
432.363	31.58
432.722	31.91
433.082	31.44
433.442	31.87
433.802	31.73
434.161	32.06
434.521	31.94
434.881	31.76
435.24	31.83
435.6	31.82
435.959	32.03
436.319	32.16
436.678	32.19
437.037	32.16
437.396	32.44
437.756	32.46
438.115	32.67
438.474	32.51
438.833	32.74
439.192	32.8
439.551	32.72
439.91	32.99
440.269	32.84
440.628	32.81
440.987	32.92
441.345	33.02
441.704	32.89
442.063	33.03
442.421	32.94
442.78	32.86
443.138	32.95
443.497	33.22
443.855	33.27
444.214	33.36
444.572	33.61
444.93	33.46
445.288	33.68
445.647	33.85
446.005	33.83
446.363	33.76
446.721	33.84
447.079	33.83
447.437	33.76
447.795	33.62
448.153	33.64
448.51	33.76
448.868	33.68
449.226	33.89
449.584	34.07
449.941	34.3
450.299	34.42
450.656	34.46
451.014	34.44
451.371	34.66
451.729	34.67
452.086	34.77
452.443	35.03
452.801	35.24
453.158	35.2
453.515	35.17
453.872	35.01
454.229	35.24
454.586	35.38
454.943	35.35
455.3	35.39
455.657	35.54
456.014	35.6
456.371	35.48
456.727	35.7
457.084	35.71
457.441	35.98
457.797	36.05
458.154	35.96
458.51	36.16
458.867	36.36
459.223	36.43
459.58	36.14
459.936	36.27
460.292	36.27
460.648	36.4
461.005	35.92
461.361	36.13
461.717	35.97
462.073	36.14
462.429	36.06
462.785	36.3
463.141	36.43
463.496	36.83
463.852	36.99
464.208	37.24
464.564	37.08
464.919	36.91
465.275	37.18
465.631	37.22
465.986	37.56
466.342	37.23
466.697	37.37
467.052	37.58
467.408	37.35
467.763	37.68
468.118	37.63
468.473	37.82
468.829	37.62
469.184	37.5
469.539	37.78
469.894	37.7
470.249	37.99
470.603	37.94
470.958	38.38
471.313	38.32
471.668	38.42
472.023	38.25
472.377	38.44
472.732	38.45
473.086	38.42
473.441	38.59
473.795	38.58
474.15	38.88
474.504	38.63
474.859	38.75
475.213	38.81
475.567	38.94
475.921	39.11
476.275	39.24
476.63	39.17
476.984	39.29
477.338	39.28
477.692	39.43
478.045	39.31
478.399	39.23
478.753	39.21
479.107	39.35
479.461	39.37
479.814	39.62
480.168	39.6
480.521	39.55
480.875	39.44
481.228	39.7
481.582	39.76
481.935	39.74
482.289	39.74
482.642	39.91
482.995	39.84
483.348	39.71
483.701	39.54
484.055	39.84
484.408	39.79
484.761	39.56
485.114	39.83
485.466	39.75
485.819	39.26
486.172	38.96
486.525	38.87
486.878	38.82
487.23	39.47
487.583	39.61
487.936	39.97
488.288	40
488.641	39.98
488.993	39.97
489.345	40.02
489.698	39.8
490.05	39.81
490.402	39.76
490.754	39.97
491.107	40.27
491.459	40.63
491.811	40.72
492.163	40.93
492.515	40.97
492.866	40.91
493.218	40.86
493.57	40.49
493.922	40.31
494.274	40.46
494.625	40.75
494.977	40.98
495.328	41.34
495.68	41.69
496.031	41.88
496.383	42.07
496.734	42.11
497.086	42.13
497.437	42.32
497.788	42.22
498.139	42.23
498.49	42.12
498.842	42.14
499.193	42.21
499.544	42.17
499.894	42.41
500.245	42.38
500.596	42.35
500.947	42.57
501.298	42.9
501.648	42.66
501.999	43
502.35	43.02
502.7	43.14
503.051	43.34
503.401	43.27
503.752	43.3
504.102	43.52
504.452	43.44
504.803	43.38
505.153	43.54
505.503	43.62
505.853	43.72
506.203	43.75
506.553	43.71
506.903	43.63
507.253	43.53
507.603	43.75
507.953	43.88
508.303	44.07
508.652	44.11
509.002	43.96
509.352	43.96
509.701	44
510.051	44.08
510.4	43.87
510.75	44
511.099	43.98
511.449	44.2
511.798	44.1
512.147	44.1
512.496	44.31
512.846	44.45
513.195	44.52
513.544	44.31
513.893	44.57
514.242	44.42
514.591	44.78
514.939	44.58
515.288	44.76
515.637	44.84
515.986	44.83
516.334	44.92
516.683	45.06
517.032	45.09
517.38	45.08
517.729	45.34
518.077	45.15
518.426	45.31
518.774	45.29
519.122	45.4
519.47	45.32
519.819	45.21
520.167	45.24
520.515	45.17
520.863	45.22
521.211	45.09
521.559	45.3
521.907	45.27
522.255	45.36
522.602	45.74
522.95	45.84
523.298	45.84
523.645	46.29
523.993	46.23
524.341	46.41
524.688	46.27
525.036	46.44
525.383	46.34
525.73	46.47
526.078	46.45
526.425	46.38
526.772	46.5
527.119	46.4
527.466	46.35
527.814	46.13
528.161	46.09
528.508	46.39
528.854	46.34
529.201	46.43
529.548	46.67
529.895	46.82
530.242	46.74
530.588	46.28
530.935	45.89
531.282	45.64
531.628	45.8
531.975	45.94
532.321	46.44
532.667	46.57
533.014	46.99
533.36	47.08
533.706	47.23
534.052	47.16
534.399	47.3
534.745	47.28
535.091	46.97
535.437	46.78
535.783	46.69
536.129	46.87
536.474	47.23
536.82	47.4
537.166	47.81
537.512	47.83
537.857	47.97
538.203	47.95
538.549	47.66
538.894	47.73
539.239	47.62
539.585	47.9
539.93	47.88
540.276	47.86
540.621	48.25
540.966	48.75
541.311	48.77
541.656	48.72
542.001	48.74
542.346	48.59
542.691	48.42
543.036	48.39
543.381	48.06
543.726	47.8
544.071	47.84
544.415	47.92
544.76	48.21
545.105	48.48
545.449	48.4
545.794	48.4
546.138	48.84
546.483	48.82
546.827	49.16
547.171	49.33
547.516	49.37
547.86	49.38
548.204	49.38
548.548	49.35
548.892	49.04
549.236	49.26
549.58	49.32
549.924	49.51
550.268	49.47
550.612	49.72
550.956	49.88
551.3	50.23
551.643	49.9
551.987	50.16
552.33	50.31
552.674	50.37
553.017	50.37
553.361	50.63
553.704	50.56
554.048	50.78
554.391	50.51
554.734	50.42
555.077	50.49
555.42	50.31
555.764	50.8
556.107	50.55
556.45	50.89
556.793	50.88
557.135	51.13
557.478	51.09
557.821	51
558.164	51.22
558.507	50.94
558.849	51.09
559.192	51.39
559.534	51.28
559.877	51.41
560.219	51.66
560.562	51.71
560.904	51.64
561.246	51.72
561.589	51.83
561.931	51.4
562.273	51.8
562.615	51.58
562.957	51.95
563.299	51.77
563.641	51.48
563.983	52.01
564.325	51.8
564.667	52.04
565.008	52.48
565.35	52.39
565.692	52.18
566.033	52.41
566.375	52.4
566.716	52.46
567.058	52.08
567.399	52.53
567.741	52.42
568.082	52.63
568.423	52.27
568.764	52.15
569.105	52.52
569.447	52.37
569.788	52.61
570.129	52.67
570.47	52.65
570.811	52.68
571.151	52.84
571.492	52.9
571.833	52.94
572.174	53.02
572.514	53.21
572.855	53.18
573.195	53.27
573.536	53.16
573.876	53.12
574.217	53.08
574.557	52.86
574.898	52.79
575.238	52.97
575.578	53.28
575.918	53.36
576.258	53.47
576.598	53.12
576.938	53.53
577.278	53.43
577.618	53.45
577.958	53.46
578.298	53.46
578.638	53.75
578.977	53.66
579.317	53.7
579.657	53.53
579.996	54.18
580.336	54.01
580.675	54.17
581.014	54.34
581.354	54.31
581.693	54.48
582.032	54.58
582.372	54.48
582.711	54.35
583.05	54.61
583.389	54.48
583.728	54.28
584.067	54.41
584.406	54.89
584.745	54.83
585.083	54.41
585.422	54.87
585.761	54.96
586.1	54.97
586.438	55.03
586.777	55.04
587.115	54.8
587.454	55.24
587.792	55.04
588.13	55.28
588.469	55.52
588.807	55.43
589.145	55.32
589.483	55.26
589.821	55.39
590.159	55.31
590.497	55.47
590.835	55.67
591.173	55.45
591.511	55.66
591.849	55.42
592.187	55.67
592.524	55.71
592.862	55.25
593.2	55.98
593.537	55.55
593.875	55.88
594.212	55.76
594.55	56.02
594.887	55.89
595.224	56.24
595.561	56.05
595.899	56.1
596.236	55.79
596.573	55.93
596.91	56.15
597.247	55.88
597.584	55.76
597.921	56.16
598.258	56.32
598.594	55.86
598.931	56.14
599.268	55.8
599.604	55.84
599.941	55.69
600.277	55.83
600.614	56.49
600.95	55.98
601.287	56.55
601.623	56.27
601.959	56.09
602.296	56.51
602.632	57.02
602.968	56.51
603.304	56.83
603.64	56.81
603.976	56.81
604.312	57.16
604.648	56.88
604.984	56.82
605.319	56.85
605.655	57.01
605.991	56.75
606.326	56.63
606.662	56.68
606.998	56.43
607.333	56.56
607.668	56.52
608.004	56.38
608.339	56.63
608.674	56.9
609.01	57.54
609.345	57.14
609.68	57.37
610.015	57.25
610.35	57.42
610.685	57.68
611.02	57.32
611.355	57.44
611.689	57.37
612.024	56.92
612.359	57.33
612.694	57.71
613.028	57.45
613.363	57.34
613.697	58.1
614.032	57.44
614.366	57.92
614.7	57.5
615.035	57.79
615.369	58.28
615.703	57.99
616.037	58.16
616.371	57.83
616.705	57.69
617.039	58.08
617.373	58.26
617.707	58.31
618.041	58.69
618.375	58.3
618.709	58.4
619.042	58.58
619.376	58.65
619.71	58.63
620.043	58.23
620.377	58.7
620.71	58.48
621.043	58.5
621.377	58.6
621.71	58.49
622.043	58.66
622.376	58.84
622.709	59.17
623.043	58.75
623.376	59.36
623.709	58.62
624.041	59.05
624.374	59.38
624.707	58.89
625.04	59.23
625.373	59.43
625.705	58.64
626.038	59.19
626.37	59.15
626.703	59.22
627.035	59.4
627.368	59.46
627.7	59.59
628.032	59.06
628.365	59.28
628.697	59.67
629.029	59.32
629.361	59.17
629.693	59.33
630.025	59
630.357	59.41
630.689	58.98
631.021	59.53
631.353	59.6
631.684	59.1
632.016	59.35
632.348	59.47
632.679	59.67
633.011	59.67
633.342	59.85
633.674	59.6
634.005	59.63
634.336	60.06
634.668	60.33
634.999	59.54
635.33	60.09
635.661	60.05
635.992	60.03
636.323	60.42
636.654	60.2
636.985	59.9
637.316	59.73
637.647	60.07
637.977	59.91
638.308	59.96
638.639	59.63
638.969	59.83
639.3	59.91
639.63	60.37
639.961	60.76
640.291	60.3
640.622	60.71
640.952	60.58
641.282	60.45
641.612	60.55
641.943	60.59
642.273	60.31
642.603	60.29
642.933	60.8
643.263	60.62
643.592	60.49
643.922	60.33
644.252	60.99
644.582	60.6
644.911	60.79
645.241	60.2
645.571	60.69
645.9	61.16
646.23	60.6
646.559	61.16
646.888	61.59
647.218	60.9
647.547	61.58
647.876	61.33
648.205	61.22
648.534	61.33
648.863	61.57
649.192	61.08
649.521	60.95
649.85	61.55
650.179	61.37
650.508	61.3
650.837	61.3
651.165	61.41
651.494	61.64
651.822	62.21
652.151	61.24
652.479	61.6
652.808	61.79
653.136	61.18
653.465	61.65
653.793	61.79
654.121	61.23
654.449	61.77
654.777	61.74
655.105	62.1
655.433	61.46
655.761	61.61
656.089	62.06
656.417	61.07
656.745	62.67
657.073	62.05
657.4	61.58
657.728	62.06
658.056	61.89
658.383	62.36
658.711	62.06
659.038	62.17
659.365	62.87
659.693	62.21
660.02	61.81
660.347	62.54
660.674	62.31
661.001	62.18
661.329	62.21
661.656	61.9
661.982	61.92
662.309	61.73
662.636	62.44
662.963	62.26
663.29	62.67
663.616	62.6
663.943	62.56
664.27	62.75
664.596	62.65
664.923	61.87
665.249	62.62
665.576	62.62
665.902	62.58
666.228	62.31
666.554	62.8
666.881	62.64
667.207	63.28
667.533	62.46
667.859	62.97
668.185	63.18
668.511	62.55
668.837	62.46
669.162	63.12
