Data from 0027_crown_Reflection__4__100.txt Node

Date: Thu Oct 20 21:43:42 CDT 2022
User: ToomeyLab
Spectrometer: FLMS14357
Trigger mode: 0
Integration Time (sec): 1.000000E-2
Scans to average: 100
Electric dark correction enabled: true
Nonlinearity correction enabled: false
Boxcar width: 0
XAxis mode: Wavelengths
Number of Pixels in Spectrum: 2048
>>>>>Begin Spectral Data<<<<<
189.047	25.64
189.435	25.64
189.823	25.64
190.211	-103.58
190.599	-56.2
190.987	-203.88
191.375	5.34
191.763	12.96
192.151	53.28
192.538	5.92
192.926	164.2
193.314	6.12
193.702	80.33
194.089	12.28
194.477	-223.85
194.864	-45.56
195.252	68.36
195.639	-270.17
196.027	-21.8
196.414	93.08
196.801	367.06
197.189	27.76
197.576	1083.61
197.963	-591.55
198.351	13.3
198.738	-29
199.125	9.68
199.512	2.61
199.899	-12.67
200.286	-22.89
200.673	-9.51
201.06	1.82
201.447	41.38
201.833	-25.87
202.22	-17.58
202.607	-18.55
202.994	-10.07
203.38	-18.38
203.767	0.4
204.154	-62.1
204.54	-31.11
204.927	29.44
205.313	0.53
205.699	48.2
206.086	-15.7
206.472	-6.53
206.858	-9.07
207.245	-4.64
207.631	-30.29
208.017	-82.2
208.403	-69.87
208.789	-27.01
209.175	14.43
209.561	21.35
209.947	-9
210.333	-3.03
210.719	-14.7
211.105	-4.33
211.491	-89.4
211.876	-53.47
212.262	7.67
212.648	-13.95
213.034	0.58
213.419	-31.85
213.805	-32.52
214.19	-20.95
214.576	-36.02
214.961	-41.07
215.346	-18.61
215.732	30.4
216.117	-5.31
216.502	-6.66
216.888	-10.19
217.273	-20.12
217.658	16.34
218.043	18.52
218.428	-21.37
218.813	31.67
219.198	-3.04
219.583	-7.18
219.968	23.97
220.353	-4.96
220.738	2.13
221.122	15.66
221.507	-16.21
221.892	-4.46
222.276	-4.59
222.661	9.24
223.046	16.99
223.43	2.24
223.815	-1.44
224.199	-20.26
224.583	-3.51
224.968	10.7
225.352	10.13
225.736	2.29
226.121	-4.71
226.505	0.22
226.889	1.97
227.273	0.5
227.657	-1.95
228.041	4.46
228.425	3.85
228.809	5.77
229.193	4.83
229.577	3.25
229.961	5.17
230.344	4.15
230.728	5.44
231.112	4.9
231.495	5.09
231.879	5.7
232.263	5.2
232.646	4.13
233.03	4.01
233.413	1.77
233.797	3.61
234.18	2.97
234.563	3.47
234.946	4.91
235.33	5.16
235.713	4.91
236.096	3.58
236.479	5.14
236.862	4.89
237.245	2.21
237.628	3.33
238.011	4.99
238.394	5.73
238.777	1.53
239.16	2.94
239.543	2.97
239.925	4.44
240.308	3.09
240.691	6.13
241.073	1.87
241.456	4.32
241.838	3.93
242.221	4.35
242.603	4.56
242.986	4.79
243.368	4.48
243.75	4.37
244.133	5
244.515	4
244.897	4.19
245.279	3.28
245.661	5.16
246.043	4.28
246.425	4.89
246.807	4
247.189	4.47
247.571	4.76
247.953	4.25
248.335	4.41
248.717	4.4
249.098	4.28
249.48	4.25
249.862	4.19
250.243	4.05
250.625	4.39
251.006	4.73
251.388	4.46
251.769	2.84
252.151	4.74
252.532	4.16
252.913	3.86
253.295	4.34
253.676	4.43
254.057	3.85
254.438	4.15
254.819	4.29
255.2	4.44
255.581	4.53
255.962	4.91
256.343	3.67
256.724	4.56
257.105	3.56
257.486	3.71
257.867	4.21
258.247	4.24
258.628	3.37
259.009	3.7
259.389	3.92
259.77	3.78
260.15	4.22
260.531	3.81
260.911	4.07
261.292	4.27
261.672	4.08
262.052	4
262.432	4.25
262.813	3.74
263.193	4.13
263.573	4.32
263.953	3.8
264.333	3.72
264.713	4.56
265.093	3.94
265.473	3.74
265.853	5.2
266.233	3.96
266.612	4.24
266.992	3.4
267.372	4.19
267.752	3.87
268.131	4.07
268.511	3.99
268.89	3.25
269.27	3.94
269.649	3.15
270.029	3.41
270.408	3.19
270.787	3.35
271.167	3.35
271.546	3.27
271.925	4.19
272.304	3.87
272.683	3.62
273.062	3.22
273.441	3.58
273.82	3.99
274.199	3.21
274.578	3.58
274.957	3.58
275.336	3.63
275.715	3.97
276.093	3.76
276.472	4.01
276.851	3.89
277.229	3.47
277.608	3.19
277.986	3.63
278.365	3.77
278.743	3.42
279.122	3.6
279.5	3.84
279.878	4.27
280.257	3.45
280.635	3.79
281.013	3.32
281.391	4.11
281.769	3.46
282.147	3.19
282.525	3.34
282.903	3.44
283.281	3.16
283.659	3.28
284.037	3.13
284.415	3.24
284.792	3.25
285.17	3.79
285.548	3.19
285.925	3.32
286.303	3.22
286.68	4.05
287.058	3.65
287.435	3.4
287.813	3.6
288.19	3.27
288.567	3.24
288.945	3.56
289.322	3.3
289.699	2.88
290.076	3.67
290.453	3.13
290.83	3.46
291.207	3.52
291.584	3.54
291.961	3.46
292.338	3.11
292.715	3.31
293.092	3.75
293.469	3.4
293.845	3.51
294.222	3.76
294.599	4.07
294.975	3.42
295.352	3.84
295.728	3.37
296.105	3.46
296.481	3.27
296.858	3.51
297.234	3.36
297.61	3.25
297.986	3.41
298.363	3.09
298.739	3.5
299.115	3.28
299.491	3.35
299.867	2.87
300.243	3.28
300.619	3.77
300.995	3.1
301.371	3.32
301.746	3.56
302.122	3.72
302.498	3.36
302.874	3.84
303.249	3.91
303.625	3.12
304	3.64
304.376	3.39
304.751	3.47
305.127	2.93
305.502	3.47
305.878	3.75
306.253	2.81
306.628	3.29
307.003	3.19
307.378	3.12
307.754	3.96
308.129	3.23
308.504	3.14
308.879	3.63
309.254	3.06
309.629	3.11
310.003	3.35
310.378	3.4
310.753	3.55
311.128	2.88
311.502	3.44
311.877	3.44
312.252	3.26
312.626	3.37
313.001	3.39
313.375	3.6
313.75	3.17
314.124	3.2
314.498	3.01
314.873	3.12
315.247	3.04
315.621	3.34
315.995	3.01
316.369	3.64
316.743	3.25
317.117	3.05
317.491	3.6
317.865	3.22
318.239	3.78
318.613	3.55
318.987	3.06
319.361	3.57
319.734	2.67
320.108	3.51
320.482	3.17
320.855	3.6
321.229	3.35
321.602	3
321.976	3.06
322.349	3.51
322.723	3.64
323.096	3.47
323.469	3.28
323.843	3.06
324.216	3.13
324.589	4.09
324.962	3.05
325.335	3.18
325.708	3.47
326.081	3.55
326.454	2.98
326.827	3.13
327.2	3.3
327.573	3.16
327.945	3.49
328.318	3.27
328.691	3.99
329.063	3.85
329.436	3.42
329.809	3.68
330.181	3.15
330.553	3.75
330.926	3.32
331.298	3.1
331.671	3.61
332.043	3.77
332.415	3.22
332.787	3.28
333.159	3.33
333.532	4.08
333.904	3.41
334.276	3.78
334.648	3.67
335.02	3.84
335.391	3.65
335.763	3.7
336.135	3.44
336.507	2.99
336.879	4.13
337.25	2.88
337.622	3.7
337.993	3.39
338.365	3.76
338.736	3.48
339.108	3.52
339.479	3.68
339.851	3.52
340.222	3.19
340.593	3.59
340.964	3.68
341.336	3.39
341.707	3.55
342.078	3.37
342.449	3.13
342.82	3.52
343.191	3.43
343.562	3.9
343.933	3.45
344.303	3.31
344.674	3.54
345.045	4.12
345.416	3.7
345.786	3.32
346.157	3.48
346.527	3.27
346.898	3.6
347.268	3.48
347.639	3.74
348.009	3.7
348.38	3.61
348.75	3.28
349.12	3.48
349.49	3.61
349.861	3.95
350.231	3.7
350.601	4.09
350.971	3.68
351.341	3.76
351.711	4.05
352.081	3.22
352.45	3.58
352.82	3.32
353.19	3.49
353.56	3.86
353.929	3.48
354.299	3.92
354.669	3.65
355.038	3.69
355.408	3.64
355.777	3.81
356.147	4.06
356.516	3.69
356.885	3.5
357.254	3.97
357.624	3.82
357.993	3.48
358.362	3.77
358.731	3.88
359.1	3.72
359.469	3.97
359.838	3.34
360.207	4.24
360.576	3.55
360.945	4.03
361.314	3.7
361.682	3.69
362.051	3.6
362.42	3.65
362.788	3.77
363.157	3.62
363.525	3.57
363.894	3.53
364.262	3.84
364.631	3.92
364.999	3.68
365.367	3.89
365.735	3.88
366.104	3.7
366.472	3.72
366.84	4.04
367.208	3.82
367.576	3.73
367.944	4.22
368.312	3.81
368.68	4.23
369.048	3.6
369.416	3.86
369.783	3.91
370.151	4.2
370.519	4.03
370.886	3.8
371.254	4.14
371.621	3.8
371.989	4.03
372.356	3.74
372.724	3.85
373.091	3.73
373.458	3.71
373.826	3.88
374.193	3.73
374.56	3.66
374.927	3.76
375.294	3.92
375.661	4.12
376.028	3.85
376.395	4.01
376.762	3.83
377.129	3.6
377.496	3.66
377.863	3.79
378.229	3.92
378.596	3.76
378.963	4.09
379.329	4.07
379.696	4.04
380.062	3.94
380.429	4.09
380.795	4.01
381.161	4.17
381.528	4.04
381.894	3.96
382.26	3.8
382.626	3.93
382.993	3.64
383.359	3.7
383.725	3.86
384.091	4.07
384.457	3.87
384.823	3.8
385.188	4.06
385.554	3.71
385.92	3.91
386.286	4
386.651	3.56
387.017	4
387.383	3.95
387.748	4.19
388.114	4.06
388.479	3.98
388.845	4.05
389.21	4.13
389.575	3.94
389.94	4.24
390.306	4.14
390.671	4.14
391.036	3.93
391.401	3.86
391.766	4.35
392.131	4.04
392.496	3.98
392.861	3.86
393.226	4.12
393.591	4.03
393.956	4.08
394.32	4.13
394.685	4.34
395.05	4.09
395.414	4.16
395.779	3.99
396.143	4.14
396.508	4.1
396.872	4.06
397.236	4
397.601	4.12
397.965	4.15
398.329	4.22
398.694	4.27
399.058	4.01
399.422	4.21
399.786	4.15
400.15	4
400.514	4.2
400.878	4.11
401.242	4.27
401.605	4.57
401.969	4.16
402.333	4.26
402.697	4.47
403.06	4.03
403.424	4.04
403.787	4.08
404.151	4.23
404.514	4.13
404.878	4.03
405.241	4.18
405.604	4.3
405.968	4.14
406.331	4.19
406.694	4.15
407.057	4.21
407.42	4.35
407.783	4.18
408.146	4.09
408.509	4.1
408.872	4.01
409.235	3.98
409.598	3.98
409.961	4.02
410.323	4.39
410.686	4.14
411.049	4.15
411.411	3.92
411.774	4.13
412.136	4.15
412.499	4.36
412.861	4.16
413.223	4.15
413.586	4.05
413.948	4.2
414.31	4.15
414.672	4.36
415.035	4.33
415.397	4.07
415.759	4.37
416.121	4.2
416.483	4.12
416.845	4.21
417.206	4.21
417.568	4.27
417.93	4.15
418.292	4.29
418.653	4.24
419.015	4.19
419.377	4.12
419.738	4.18
420.1	4.28
420.461	4.28
420.822	4.19
421.184	4.17
421.545	4.35
421.906	4.16
422.267	4.18
422.629	4.11
422.99	4.2
423.351	4.13
423.712	4.21
424.073	4.18
424.434	4.17
424.795	4.14
425.155	4.12
425.516	4.13
425.877	4.15
426.238	4.25
426.598	4.21
426.959	4.14
427.32	4.13
427.68	4.23
428.041	4.23
428.401	4.37
428.761	4.2
429.122	4.13
429.482	4.15
429.842	4.27
430.202	4.39
430.563	4.25
430.923	4.39
431.283	4.4
431.643	4.3
432.003	4.26
432.363	4.5
432.722	4.46
433.082	4.38
433.442	4.25
433.802	4.36
434.161	4.26
434.521	4.27
434.881	4.22
435.24	4.25
435.6	4.24
435.959	4.31
436.319	4.28
436.678	4.23
437.037	4.32
437.396	4.45
437.756	4.33
438.115	4.44
438.474	4.3
438.833	4.44
439.192	4.29
439.551	4.19
439.91	4.4
440.269	4.26
440.628	4.27
440.987	4.22
441.345	4.38
441.704	4.31
442.063	4.4
442.421	4.22
442.78	4.27
443.138	4.22
443.497	4.21
443.855	4.21
444.214	4.24
444.572	4.32
444.93	4.23
445.288	4.25
445.647	4.37
446.005	4.31
446.363	4.25
446.721	4.22
447.079	4.32
447.437	4.25
447.795	4.21
448.153	4.25
448.51	4.24
448.868	4.25
449.226	4.27
449.584	4.25
449.941	4.38
450.299	4.34
450.656	4.35
451.014	4.41
451.371	4.25
451.729	4.26
452.086	4.5
452.443	4.35
452.801	4.46
453.158	4.32
453.515	4.3
453.872	4.35
454.229	4.35
454.586	4.47
454.943	4.26
455.3	4.48
455.657	4.41
456.014	4.34
456.371	4.35
456.727	4.35
457.084	4.24
457.441	4.33
457.797	4.38
458.154	4.25
458.51	4.22
458.867	4.36
459.223	4.52
459.58	4.3
459.936	4.44
460.292	4.26
460.648	4.26
461.005	4.22
461.361	4.29
461.717	4.42
462.073	4.49
462.429	4.36
462.785	4.38
463.141	4.62
463.496	4.48
463.852	4.38
464.208	4.38
464.564	4.5
464.919	4.53
465.275	4.49
465.631	4.52
465.986	4.62
466.342	4.38
466.697	4.45
467.052	4.31
467.408	4.49
467.763	4.25
468.118	4.61
468.473	4.57
468.829	4.25
469.184	4.53
469.539	4.41
469.894	4.4
470.249	4.54
470.603	4.41
470.958	4.47
471.313	4.34
471.668	4.28
472.023	4.55
472.377	4.38
472.732	4.4
473.086	4.58
473.441	4.43
473.795	4.39
474.15	4.5
474.504	4.4
474.859	4.48
475.213	4.66
475.567	4.68
475.921	4.34
476.275	4.44
476.63	4.53
476.984	4.59
477.338	4.4
477.692	4.56
478.045	4.48
478.399	4.54
478.753	4.41
479.107	4.35
479.461	4.5
479.814	4.45
480.168	4.5
480.521	4.54
480.875	4.58
481.228	4.42
481.582	4.45
481.935	4.39
482.289	4.29
482.642	4.24
482.995	4.5
483.348	4.48
483.701	4.26
484.055	4.35
484.408	4.25
484.761	4.23
485.114	4.13
485.466	4.11
485.819	4.2
486.172	4.26
486.525	4.32
486.878	4.37
487.23	4.39
487.583	4.36
487.936	4.37
488.288	4.26
488.641	4.24
488.993	4.26
489.345	4.29
489.698	4.26
490.05	4.3
490.402	4.34
490.754	4.38
491.107	4.29
491.459	4.48
491.811	4.39
492.163	4.47
492.515	4.31
492.866	4.29
493.218	4.29
493.57	4.34
493.922	4.3
494.274	4.34
494.625	4.43
494.977	4.46
495.328	4.42
495.68	4.53
496.031	4.58
496.383	4.57
496.734	4.42
497.086	4.38
497.437	4.54
497.788	4.51
498.139	4.39
498.49	4.55
498.842	4.35
499.193	4.47
499.544	4.43
499.894	4.51
500.245	4.49
500.596	4.6
500.947	4.44
501.298	4.56
501.648	4.4
501.999	4.51
502.35	4.59
502.7	4.53
503.051	4.57
503.401	4.54
503.752	4.53
504.102	4.5
504.452	4.58
504.803	4.4
505.153	4.42
505.503	4.64
505.853	4.53
506.203	4.52
506.553	4.6
506.903	4.5
507.253	4.61
507.603	4.61
507.953	4.6
508.303	4.59
508.652	4.51
509.002	4.57
509.352	4.46
509.701	4.5
510.051	4.43
510.4	4.48
510.75	4.43
511.099	4.46
511.449	4.53
511.798	4.53
512.147	4.52
512.496	4.7
512.846	4.6
513.195	4.64
513.544	4.53
513.893	4.5
514.242	4.46
514.591	4.61
514.939	4.53
515.288	4.61
515.637	4.56
515.986	4.43
516.334	4.47
516.683	4.6
517.032	4.57
517.38	4.54
517.729	4.65
518.077	4.46
518.426	4.57
518.774	4.54
519.122	4.6
519.47	4.54
519.819	4.48
520.167	4.45
520.515	4.5
520.863	4.5
521.211	4.52
521.559	4.55
521.907	4.49
522.255	4.46
522.602	4.55
522.95	4.59
523.298	4.59
523.645	4.66
523.993	4.6
524.341	4.66
524.688	4.6
525.036	4.61
525.383	4.63
525.73	4.52
526.078	4.54
526.425	4.57
526.772	4.55
527.119	4.43
527.466	4.6
527.814	4.52
528.161	4.49
528.508	4.52
528.854	4.58
529.201	4.42
529.548	4.41
529.895	4.31
530.242	4.29
530.588	4.38
530.935	4.41
531.282	4.43
531.628	4.49
531.975	4.51
532.321	4.57
532.667	4.59
533.014	4.53
533.36	4.48
533.706	4.44
534.052	4.49
534.399	4.48
534.745	4.42
535.091	4.39
535.437	4.48
535.783	4.49
536.129	4.5
536.474	4.58
536.82	4.54
537.166	4.52
537.512	4.55
537.857	4.48
538.203	4.51
538.549	4.47
538.894	4.59
539.239	4.49
539.585	4.62
539.93	4.52
540.276	4.6
540.621	4.63
540.966	4.56
541.311	4.58
541.656	4.63
542.001	4.45
542.346	4.41
542.691	4.34
543.036	4.37
543.381	4.46
543.726	4.44
544.071	4.44
544.415	4.55
544.76	4.49
545.105	4.57
545.449	4.56
545.794	4.56
546.138	4.63
546.483	4.6
546.827	4.59
547.171	4.53
547.516	4.56
547.86	4.58
548.204	4.61
548.548	4.49
548.892	4.57
549.236	4.65
549.58	4.69
549.924	4.71
550.268	4.64
550.612	4.82
550.956	4.65
551.3	4.64
551.643	4.55
551.987	4.77
552.33	4.74
552.674	4.78
553.017	4.64
553.361	4.81
553.704	4.69
554.048	4.76
554.391	4.61
554.734	4.64
555.077	4.62
555.42	4.75
555.764	4.64
556.107	4.67
556.45	4.56
556.793	4.66
557.135	4.69
557.478	4.64
557.821	4.75
558.164	4.76
558.507	4.63
558.849	4.79
559.192	4.69
559.534	4.81
559.877	4.92
560.219	4.87
560.562	4.53
560.904	4.59
561.246	4.53
561.589	4.61
561.931	4.6
562.273	4.72
562.615	4.72
562.957	4.52
563.299	4.65
563.641	4.59
563.983	4.76
564.325	4.74
564.667	4.78
565.008	4.74
565.35	4.8
565.692	4.7
566.033	4.51
566.375	4.63
566.716	4.76
567.058	4.53
567.399	4.74
567.741	4.6
568.082	4.62
568.423	4.73
568.764	4.52
569.105	4.67
569.447	4.88
569.788	4.76
570.129	4.79
570.47	4.7
570.811	4.46
571.151	4.83
571.492	4.47
571.833	4.66
572.174	4.72
572.514	4.57
572.855	4.64
573.195	4.56
573.536	4.62
573.876	4.47
574.217	4.49
574.557	4.63
574.898	4.73
575.238	4.8
575.578	4.64
575.918	4.71
576.258	4.71
576.598	4.64
576.938	4.73
577.278	4.66
577.618	4.89
577.958	4.68
578.298	4.66
578.638	4.78
578.977	4.74
579.317	4.72
579.657	4.65
579.996	4.75
580.336	4.82
580.675	4.86
581.014	4.7
581.354	4.63
581.693	4.86
582.032	4.81
582.372	4.93
582.711	4.58
583.05	4.72
583.389	4.57
583.728	4.56
584.067	4.71
584.406	4.57
584.745	4.68
585.083	4.61
585.422	4.84
585.761	4.64
586.1	4.72
586.438	5.12
586.777	4.6
587.115	4.64
587.454	4.89
587.792	4.66
588.13	4.79
588.469	5.03
588.807	4.58
589.145	4.83
589.483	4.79
589.821	4.65
590.159	4.72
590.497	4.74
590.835	4.64
591.173	4.76
591.511	4.88
591.849	4.65
592.187	4.58
592.524	4.74
592.862	4.73
593.2	4.78
593.537	4.71
593.875	4.68
594.212	4.66
594.55	4.71
594.887	4.58
595.224	4.8
595.561	4.76
595.899	4.87
596.236	4.79
596.573	4.96
596.91	4.74
597.247	4.82
597.584	4.77
597.921	4.79
598.258	4.72
598.594	4.67
598.931	4.76
599.268	4.7
599.604	4.7
599.941	4.84
600.277	4.77
600.614	4.8
600.95	4.8
601.287	4.72
601.623	4.7
601.959	4.66
602.296	4.46
602.632	4.78
602.968	4.83
603.304	4.49
603.64	4.75
603.976	4.63
604.312	4.59
604.648	4.68
604.984	4.84
605.319	4.72
605.655	4.87
605.991	4.58
606.326	4.95
606.662	4.77
606.998	4.84
607.333	4.81
607.668	4.6
608.004	4.57
608.339	4.8
608.674	4.81
609.01	4.87
609.345	4.71
609.68	4.7
610.015	4.82
610.35	5.04
610.685	4.62
611.02	4.63
611.355	4.75
611.689	4.76
612.024	4.57
612.359	4.7
612.694	4.73
613.028	4.64
613.363	4.77
613.697	4.73
614.032	4.81
614.366	4.89
614.7	4.58
615.035	4.75
615.369	4.8
615.703	4.71
616.037	4.98
616.371	4.72
616.705	4.47
617.039	4.86
617.373	4.63
617.707	4.85
618.041	4.95
618.375	4.67
618.709	4.8
619.042	4.63
619.376	4.84
619.71	4.71
620.043	4.88
620.377	4.79
620.71	4.93
621.043	4.99
621.377	4.28
621.71	4.9
622.043	4.5
622.376	5.03
622.709	4.72
623.043	4.83
623.376	4.95
623.709	4.91
624.041	4.75
624.374	4.64
624.707	4.82
625.04	5.09
625.373	4.91
625.705	4.6
626.038	5.11
626.37	4.92
626.703	4.81
627.035	4.99
627.368	4.69
627.7	4.64
628.032	4.8
628.365	4.74
628.697	5.03
629.029	4.91
629.361	4.95
629.693	5.07
630.025	4.98
630.357	4.77
630.689	5.11
631.021	4.84
631.353	4.85
631.684	4.77
632.016	4.53
632.348	4.78
632.679	4.72
633.011	5.13
633.342	5.01
633.674	4.67
634.005	4.98
634.336	4.84
634.668	5.05
634.999	4.89
635.33	5.2
635.661	4.8
635.992	4.78
636.323	5.09
636.654	4.83
636.985	4.9
637.316	5.04
637.647	5.13
637.977	5.25
638.308	4.73
638.639	5.05
638.969	4.7
639.3	4.66
639.63	4.99
639.961	4.81
640.291	4.59
640.622	4.91
640.952	4.92
641.282	5.05
641.612	5.25
641.943	5.07
642.273	5.12
642.603	4.67
642.933	4.88
643.263	4.99
643.592	4.6
643.922	4.94
644.252	4.99
644.582	4.76
644.911	5
645.241	4.88
645.571	4.99
645.9	5.05
646.23	4.84
646.559	4.9
646.888	5.07
647.218	4.9
647.547	4.83
647.876	4.69
648.205	4.93
648.534	4.99
648.863	4.97
649.192	4.56
649.521	5.1
649.85	5.04
650.179	5.03
650.508	5.27
650.837	4.72
651.165	5.08
651.494	4.91
651.822	5.21
652.151	4.92
652.479	4.9
652.808	4.7
653.136	4.64
653.465	5.37
653.793	4.98
654.121	5.13
654.449	5.33
654.777	4.54
655.105	5.4
655.433	4.73
655.761	5.2
656.089	5.22
656.417	5.39
656.745	5.23
657.073	5.26
657.4	4.43
657.728	4.91
658.056	5.11
658.383	5.01
658.711	5.28
659.038	4.9
659.365	4.56
659.693	5
660.02	5.04
660.347	5.22
660.674	5.28
661.001	4.9
661.329	5.03
661.656	5.1
661.982	5.25
662.309	5.28
662.636	5.25
662.963	4.9
663.29	4.95
663.616	5.1
663.943	5.07
664.27	5.24
664.596	5.12
664.923	4.97
665.249	5.01
665.576	5.19
665.902	5.13
666.228	5.09
666.554	5.01
666.881	5.49
667.207	5.57
667.533	5.52
667.859	4.82
668.185	5.66
668.511	4.91
668.837	5.21
669.162	5.29
669.488	4.87
669.814	5.48
670.139	5.17
670.465	4.86
670.791	5.22
671.116	5.05
671.442	4.97
671.767	5.45
672.092	5.39
672.418	4.95
672.743	5.05
673.068	5.2
673.393	4.46
673.718	5.27
674.043	4.93
674.368	4.67
674.693	5.54
675.018	5.37
675.343	4.73
675.667	4.77
675.992	5.04
676.317	4.98
676.641	5.11
676.966	5.43
677.29	5.25
677.615	5.51
677.939	5.35
678.264	5.38
678.588	5.4
678.912	5.5
679.236	5.15
679.56	5.02
679.885	5.67
680.209	5.07
680.532	5.33
680.856	5.51
681.18	5.57
681.504	5.03
681.828	5.15
682.152	5.85
682.475	5.59
682.799	5.19
683.122	5.48
683.446	4.91
683.769	5.05
684.093	5.18
684.416	5.34
684.739	5.09
685.062	5.5
685.386	5.26
685.709	4.99
686.032	5.32
686.355	5.12
686.678	5.37
687.001	5.65
687.324	5.67
687.646	5.1
687.969	5.28
688.292	5.45
688.614	5.24
688.937	5.47
689.26	5.14
689.582	4.85
689.904	5.71
690.227	4.56
690.549	5.52
690.871	4.94
691.194	5.49
691.516	5.12
691.838	4.97
692.16	5.42
692.482	5.89
692.804	5.18
693.126	5.11
