Data from 0027_forehead_Reflection__1__102.txt Node

Date: Thu Oct 20 21:44:21 CDT 2022
User: ToomeyLab
Spectrometer: FLMS14357
Trigger mode: 0
Integration Time (sec): 1.000000E-2
Scans to average: 100
Electric dark correction enabled: true
Nonlinearity correction enabled: false
Boxcar width: 0
XAxis mode: Wavelengths
Number of Pixels in Spectrum: 2048
>>>>>Begin Spectral Data<<<<<
189.047	25.3
189.435	25.3
189.823	25.3
190.211	77.86
190.599	-184.6
190.987	-336.18
191.375	41.46
191.763	294.59
192.151	79.7
192.538	185.18
192.926	176.96
193.314	8.54
193.702	-39.23
194.089	107.78
194.477	-53.35
194.864	-112.39
195.252	20.79
195.639	35.44
196.027	44.74
196.414	60.2
196.801	91.2
197.189	307.98
197.576	580.62
197.963	-162.08
198.351	29.54
198.738	-4.55
199.125	32.8
199.512	27.87
199.899	-22.37
200.286	54.05
200.673	37.75
201.06	68.73
201.447	82.01
201.833	20.24
202.22	48.19
202.607	-11.22
202.994	42
203.38	16.05
203.767	17.99
204.154	51.1
204.54	25.18
204.927	26.36
205.313	42.43
205.699	45.05
206.086	21.76
206.472	12.96
206.858	22.6
207.245	35.52
207.631	-15.84
208.017	13.02
208.403	-64.61
208.789	29.98
209.175	27.55
209.561	27.25
209.947	25.39
210.333	33.22
210.719	38.13
211.105	17.78
211.491	-12.39
211.876	-17.23
212.262	28.78
212.648	10.91
213.034	22.74
213.419	16.93
213.805	37.27
214.19	21.17
214.576	-4.66
214.961	34.31
215.346	5.46
215.732	28.06
216.117	-13.08
216.502	13.73
216.888	29.97
217.273	-17.29
217.658	3.34
218.043	33.09
218.428	17.88
218.813	19.64
219.198	3.23
219.583	27.23
219.968	33.19
220.353	-3.92
220.738	27.47
221.122	20.31
221.507	18.12
221.892	5.07
222.276	7.69
222.661	10.36
223.046	17.49
223.43	1.13
223.815	18.73
224.199	6.06
224.583	0.45
224.968	9.41
225.352	16.16
225.736	13.32
226.121	1.34
226.505	13.11
226.889	5.79
227.273	2.15
227.657	6.4
228.041	8.99
228.425	6.96
228.809	7.44
229.193	8.72
229.577	6.55
229.961	6.61
230.344	5.55
230.728	6.36
231.112	6.07
231.495	5.89
231.879	7.65
232.263	7.31
232.646	6.29
233.03	5.59
233.413	4.65
233.797	5.61
234.18	5.09
234.563	7.07
234.946	5.6
235.33	5.42
235.713	5.19
236.096	5.39
236.479	7.52
236.862	7.37
237.245	7.78
237.628	7.11
238.011	7.35
238.394	6.76
238.777	7.94
239.16	5.06
239.543	4.64
239.925	5.61
240.308	6.91
240.691	9.44
241.073	4.94
241.456	5.71
241.838	5.74
242.221	6.4
242.603	6.91
242.986	6.41
243.368	6.24
243.75	6.43
244.133	6.19
244.515	6.16
244.897	5.91
245.279	5.4
245.661	6.62
246.043	7.03
246.425	7.75
246.807	7.22
247.189	6.94
247.571	6.32
247.953	6.31
248.335	6.16
248.717	5.94
249.098	5.77
249.48	5.95
249.862	6.24
250.243	6.17
250.625	6.68
251.006	7.17
251.388	6.2
251.769	6.21
252.151	6.04
252.532	5.83
252.913	6.19
253.295	6.56
253.676	6.72
254.057	5.11
254.438	5.86
254.819	5.89
255.2	6.85
255.581	6.23
255.962	6.34
256.343	6.53
256.724	6.21
257.105	6.64
257.486	6.91
257.867	6.84
258.247	7.14
258.628	6.14
259.009	5.34
259.389	7
259.77	6.47
260.15	6.22
260.531	6.08
260.911	6.14
261.292	6.1
261.672	5.82
262.052	5.82
262.432	6.14
262.813	6.21
263.193	6.86
263.573	6.16
263.953	6.81
264.333	6.41
264.713	6.01
265.093	6.43
265.473	6.34
265.853	6.51
266.233	7.04
266.612	6.8
266.992	5.62
267.372	6.58
267.752	6.44
268.131	6.4
268.511	6.32
268.89	5.74
269.27	6.13
269.649	5.86
270.029	5.83
270.408	5.96
270.787	5.45
271.167	6.18
271.546	5.89
271.925	6.68
272.304	6.27
272.683	5.86
273.062	5.51
273.441	5.77
273.82	6.5
274.199	5.54
274.578	5.44
274.957	5.78
275.336	6.29
275.715	5.89
276.093	6.2
276.472	6.2
276.851	5.91
277.229	6.05
277.608	5.77
277.986	5.76
278.365	5.9
278.743	5.55
279.122	6.19
279.5	5.43
279.878	6.1
280.257	5.91
280.635	6.49
281.013	5.75
281.391	6.58
281.769	6.04
282.147	5.3
282.525	5.98
282.903	5.25
283.281	5.56
283.659	5.62
284.037	5.2
284.415	6.09
284.792	5.61
285.17	6.72
285.548	5.91
285.925	5.79
286.303	5.9
286.68	6.24
287.058	6.05
287.435	5.78
287.813	5.63
288.19	6.02
288.567	5.69
288.945	6.22
289.322	6.13
289.699	6.02
290.076	6.05
290.453	6.43
290.83	6.24
291.207	6.36
291.584	6.09
291.961	6.04
292.338	6.14
292.715	6.19
293.092	6.85
293.469	6.72
293.845	6.66
294.222	6.78
294.599	7.59
294.975	6.7
295.352	7.42
295.728	7.01
296.105	7.12
296.481	6.26
296.858	7.22
297.234	7.04
297.61	7.05
297.986	6.65
298.363	6.88
298.739	7.1
299.115	7.09
299.491	6.83
299.867	6.8
300.243	7.16
300.619	7.19
300.995	7.06
301.371	7.41
301.746	7.18
302.122	7.49
302.498	7.38
302.874	8
303.249	7.86
303.625	7.84
304	8.17
304.376	7.4
304.751	8.14
305.127	7.45
305.502	8.1
305.878	8.34
306.253	8.09
306.628	8.38
307.003	8.41
307.378	8.15
307.754	8.31
308.129	8.37
308.504	8.8
308.879	8.72
309.254	9.11
309.629	8.51
310.003	8.8
310.378	8.65
310.753	9.01
311.128	8.8
311.502	9.03
311.877	9.18
312.252	8.59
312.626	9.12
313.001	9.38
313.375	9.13
313.75	9.08
314.124	9.62
314.498	9.2
314.873	9.25
315.247	9.37
315.621	9.76
315.995	9.65
316.369	9.84
316.743	9.32
317.117	9.97
317.491	10.22
317.865	9.92
318.239	10.43
318.613	10.62
318.987	10.33
319.361	10.45
319.734	9.81
320.108	10.83
320.482	10.59
320.855	10.54
321.229	10.9
321.602	10.22
321.976	11.15
322.349	10.83
322.723	11.51
323.096	11.43
323.469	11.02
323.843	11.3
324.216	11.42
324.589	11.97
324.962	10.82
325.335	11.58
325.708	11.5
326.081	11.69
326.454	11.77
326.827	11.76
327.2	11.91
327.573	11.56
327.945	11.65
328.318	11.77
328.691	12.23
329.063	12.02
329.436	11.8
329.809	12.12
330.181	12.25
330.553	11.74
330.926	12.47
331.298	11.93
331.671	12.66
332.043	12.01
332.415	12.67
332.787	12.75
333.159	13.04
333.532	12.37
333.904	12.58
334.276	12.44
334.648	12.83
335.02	13.13
335.391	12.4
335.763	12.64
336.135	12.76
336.507	12.76
336.879	13.83
337.25	12.99
337.622	13.42
337.993	12.9
338.365	13.55
338.736	13.03
339.108	13.51
339.479	13.82
339.851	13.71
340.222	13.55
340.593	13.79
340.964	13.67
341.336	13.73
341.707	13.59
342.078	13.41
342.449	14.04
342.82	14.33
343.191	14.19
343.562	14.36
343.933	14.23
344.303	14.28
344.674	14.24
345.045	14.47
345.416	14.47
345.786	14.37
346.157	14.38
346.527	14.53
346.898	14.4
347.268	14.52
347.639	14.78
348.009	14.85
348.38	14.78
348.75	14.58
349.12	15.32
349.49	15.54
349.861	15.72
350.231	14.96
350.601	15.45
350.971	15.44
351.341	15.67
351.711	15.59
352.081	15.3
352.45	15.43
352.82	15.91
353.19	15.62
353.56	15.86
353.929	15.6
354.299	16.03
354.669	15.79
355.038	16.16
355.408	15.97
355.777	16.19
356.147	16.32
356.516	16.21
356.885	16.24
357.254	16.71
357.624	16.26
357.993	15.98
358.362	16.55
358.731	16.89
359.1	16.34
359.469	16.68
359.838	16.44
360.207	17.39
360.576	16.64
360.945	17.31
361.314	17.05
361.682	16.91
362.051	17.15
362.42	17.15
362.788	17.14
363.157	17.21
363.525	17.4
363.894	17.31
364.262	17.23
364.631	17.27
364.999	17.51
365.367	17.83
365.735	17.91
366.104	17.36
366.472	17.61
366.84	18.07
367.208	17.73
367.576	18.28
367.944	18.65
368.312	17.99
368.68	18.27
369.048	18.3
369.416	18.38
369.783	18.55
370.151	18.85
370.519	18.7
370.886	18.73
371.254	18.94
371.621	19.06
371.989	18.97
372.356	18.87
372.724	19.47
373.091	19.22
373.458	18.95
373.826	18.94
374.193	19.3
374.56	19.45
374.927	19.2
375.294	19.44
375.661	19.74
376.028	19.33
376.395	20.02
376.762	19.71
377.129	19.85
377.496	20.01
377.863	19.88
378.229	19.76
378.596	19.79
378.963	20.17
379.329	20.32
379.696	19.93
380.062	20.31
380.429	20.72
380.795	20.66
381.161	20.94
381.528	20.9
381.894	20.51
382.26	20.34
382.626	21.14
382.993	20.69
383.359	21.03
383.725	21.09
384.091	21.35
384.457	20.85
384.823	21.24
385.188	21.22
385.554	21.17
385.92	21.03
386.286	21.18
386.651	21.08
387.017	21.39
387.383	21.84
387.748	21.82
388.114	21.81
388.479	21.9
388.845	21.87
389.21	21.78
389.575	21.96
389.94	22.41
390.306	22.25
390.671	22.29
391.036	22.34
391.401	21.99
391.766	22.31
392.131	22.47
392.496	22.46
392.861	22.59
393.226	22.67
393.591	22.55
393.956	22.71
394.32	22.88
394.685	23.05
395.05	22.85
395.414	23.25
395.779	23.19
396.143	23.27
396.508	23.44
396.872	23.38
397.236	23.19
397.601	23.59
397.965	23.68
398.329	23.61
398.694	23.68
399.058	23.61
399.422	23.81
399.786	23.91
400.15	24.03
400.514	24.16
400.878	23.96
401.242	23.89
401.605	24.58
401.969	24.37
402.333	24.32
402.697	24.66
403.06	24.49
403.424	24.63
403.787	24.58
404.151	24.77
404.514	24.88
404.878	24.61
405.241	24.89
405.604	25.11
405.968	24.97
406.331	25
406.694	24.94
407.057	25.24
407.42	25.24
407.783	25.42
408.146	25.51
408.509	25.45
408.872	25.54
409.235	25.61
409.598	25.73
409.961	25.75
410.323	25.92
410.686	25.86
411.049	25.86
411.411	25.91
411.774	25.86
412.136	26.05
412.499	26.35
412.861	26.07
413.223	26.51
413.586	26.23
413.948	26.48
414.31	26.47
414.672	26.46
415.035	26.66
415.397	26.78
415.759	26.95
416.121	26.95
416.483	26.62
416.845	27
417.206	26.72
417.568	27.05
417.93	26.75
418.292	26.8
418.653	26.99
419.015	27.1
419.377	27
419.738	27.07
420.1	26.95
420.461	27.17
420.822	27.17
421.184	27.17
421.545	27.18
421.906	27.24
422.267	27.26
422.629	27.13
422.99	27.17
423.351	27.38
423.712	27.44
424.073	27.6
424.434	27.53
424.795	27.74
425.155	27.71
425.516	27.8
425.877	27.49
426.238	27.78
426.598	27.84
426.959	27.95
427.32	28.09
427.68	28.18
428.041	28.47
428.401	28.43
428.761	28.67
429.122	28.76
429.482	28.65
429.842	28.92
430.202	29.09
430.563	29.21
430.923	29.39
431.283	29.26
431.643	29.37
432.003	29.23
432.363	29.38
432.722	29.71
433.082	29.6
433.442	29.53
433.802	29.65
434.161	29.62
434.521	29.69
434.881	29.48
435.24	29.46
435.6	29.75
435.959	29.88
436.319	30.14
436.678	29.97
437.037	30.12
437.396	30.29
437.756	30.14
438.115	30.52
438.474	30.42
438.833	30.34
439.192	30.46
439.551	30.45
439.91	30.78
440.269	30.79
440.628	30.56
440.987	30.54
441.345	30.72
441.704	30.57
442.063	30.68
442.421	30.76
442.78	30.57
443.138	30.72
443.497	31.03
443.855	30.88
444.214	31.05
444.572	31.4
444.93	31.49
445.288	31.38
445.647	31.42
446.005	31.34
446.363	31.54
446.721	31.39
447.079	31.54
447.437	31.25
447.795	31.39
448.153	31.32
448.51	31.42
448.868	31.62
449.226	31.65
449.584	31.67
449.941	31.97
450.299	32.24
450.656	32.18
451.014	32.17
451.371	32.43
451.729	32.51
452.086	32.63
452.443	32.82
452.801	32.7
453.158	32.93
453.515	32.9
453.872	33.05
454.229	32.94
454.586	33.25
454.943	33.01
455.3	33.26
455.657	33.31
456.014	33.27
456.371	33.34
456.727	33.66
457.084	33.41
457.441	33.58
457.797	33.68
458.154	33.73
458.51	33.97
458.867	33.85
459.223	33.91
459.58	33.82
459.936	33.97
460.292	33.75
460.648	33.69
461.005	33.63
461.361	33.44
461.717	33.5
462.073	33.96
462.429	33.92
462.785	34.17
463.141	34.36
463.496	34.47
463.852	34.71
464.208	34.63
464.564	34.74
464.919	34.88
465.275	35.13
465.631	34.87
465.986	35.14
466.342	34.88
466.697	35.05
467.052	35.2
467.408	35.11
467.763	35.35
468.118	35.14
468.473	35.49
468.829	35.33
469.184	35.27
469.539	35.38
469.894	35.55
470.249	35.74
470.603	35.81
470.958	35.88
471.313	35.88
471.668	36.11
472.023	35.67
472.377	36.1
472.732	36.39
473.086	36.24
473.441	36.35
473.795	36.56
474.15	36.33
474.504	36.56
474.859	36.55
475.213	36.55
475.567	36.54
475.921	36.64
476.275	36.91
476.63	36.97
476.984	36.77
477.338	37.02
477.692	37.07
478.045	36.93
478.399	37.09
478.753	36.98
479.107	37.09
479.461	37.12
479.814	37.19
480.168	37.26
480.521	37.38
480.875	37.43
481.228	37.36
481.582	37.28
481.935	37.53
482.289	37.35
482.642	37.24
482.995	37.36
483.348	37.51
483.701	37.37
484.055	37.36
484.408	37.09
484.761	36.81
485.114	36.75
485.466	36.94
485.819	36.89
486.172	36.99
486.525	36.99
486.878	37.11
487.23	37.42
487.583	37.62
487.936	37.55
488.288	37.53
488.641	37.44
488.993	37.33
489.345	37.45
489.698	37.5
490.05	37.64
490.402	37.7
490.754	37.99
491.107	38.23
491.459	38.52
491.811	38.55
492.163	38.59
492.515	38.22
492.866	38.06
493.218	38.08
493.57	38.01
493.922	38.31
494.274	38.5
494.625	38.8
494.977	39.07
495.328	39.27
495.68	39.46
496.031	39.8
496.383	39.63
496.734	39.7
497.086	39.93
497.437	39.9
497.788	39.82
498.139	39.74
498.49	39.76
498.842	39.84
499.193	39.87
499.544	40.06
499.894	40.06
500.245	40.13
500.596	40.36
500.947	40.37
501.298	40.62
501.648	40.47
501.999	40.75
502.35	40.78
502.7	40.8
503.051	40.89
503.401	41.06
503.752	41.13
504.102	41
504.452	41.08
504.803	41.07
505.153	41.17
505.503	41.06
505.853	41.47
506.203	41.38
506.553	41.53
506.903	41.34
507.253	41.65
507.603	41.58
507.953	41.75
508.303	41.88
508.652	41.77
509.002	41.64
509.352	41.63
509.701	41.52
510.051	41.68
510.4	41.57
510.75	41.75
511.099	41.64
511.449	41.84
511.798	42.05
512.147	42.03
512.496	42.18
512.846	42.28
513.195	42.17
513.544	42.2
513.893	42.17
514.242	42.37
514.591	42.47
514.939	42.47
515.288	42.61
515.637	42.57
515.986	42.78
516.334	42.8
516.683	42.99
517.032	42.91
517.38	43.01
517.729	43.15
518.077	43.19
518.426	43.34
518.774	42.98
519.122	42.99
519.47	42.89
519.819	42.77
520.167	42.76
520.515	42.9
520.863	43.01
521.211	43.07
521.559	43.19
521.907	43.13
522.255	43.48
522.602	43.66
522.95	43.63
523.298	43.72
523.645	44
523.993	44.07
524.341	44.23
524.688	44.27
525.036	44.1
525.383	44.07
525.73	44.12
526.078	43.99
526.425	43.92
526.772	43.84
527.119	43.8
527.466	43.89
527.814	43.94
528.161	44.07
528.508	44.16
528.854	44.23
529.201	43.98
529.548	43.77
529.895	43.88
530.242	43.93
530.588	43.89
530.935	43.95
531.282	43.96
531.628	44.05
531.975	44.2
532.321	44.54
532.667	44.73
533.014	44.86
533.36	44.9
533.706	44.95
534.052	44.77
534.399	44.72
534.745	44.55
535.091	44.7
535.437	44.71
535.783	44.85
536.129	45.11
536.474	45.35
536.82	45.49
537.166	45.52
537.512	45.47
537.857	45.42
538.203	45.48
538.549	45.54
538.894	45.73
539.239	45.94
539.585	46.15
539.93	46.05
540.276	46.21
540.621	46.64
540.966	46.52
541.311	46.5
541.656	46.17
542.001	46.07
542.346	45.83
542.691	45.59
543.036	45.55
543.381	45.69
543.726	45.96
544.071	45.93
544.415	46.08
544.76	46.21
545.105	46.53
545.449	46.55
545.794	46.63
546.138	46.9
546.483	46.94
546.827	47.22
547.171	47.02
547.516	47.04
547.86	47.13
548.204	47.19
548.548	47.18
548.892	47.18
549.236	47.28
549.58	47.51
549.924	47.81
550.268	47.86
550.612	47.88
550.956	47.97
551.3	48.31
551.643	48.18
551.987	48.13
552.33	48.44
552.674	48.36
553.017	48.37
553.361	48.54
553.704	48.43
554.048	48.47
554.391	48.31
554.734	48.41
555.077	48.64
555.42	48.55
555.764	48.68
556.107	48.55
556.45	48.93
556.793	48.89
557.135	49.23
557.478	48.96
557.821	49.32
558.164	49.21
558.507	49.09
558.849	49.33
559.192	49.44
559.534	49.43
559.877	49.6
560.219	49.78
560.562	49.73
560.904	49.57
561.246	49.61
561.589	49.8
561.931	49.66
562.273	49.77
562.615	49.76
562.957	49.92
563.299	49.68
563.641	49.95
563.983	50.15
564.325	49.79
564.667	50.06
565.008	50.46
565.35	50.54
565.692	50.6
566.033	50.21
566.375	50.45
566.716	50.63
567.058	50.11
567.399	50.04
567.741	50.13
568.082	50.37
568.423	50.23
568.764	50.29
569.105	50.65
569.447	50.65
569.788	50.64
570.129	50.93
570.47	50.93
570.811	50.49
571.151	50.77
571.492	50.9
571.833	50.92
572.174	50.87
572.514	50.96
572.855	50.84
573.195	50.96
573.536	51
573.876	50.98
574.217	50.78
574.557	50.97
574.898	51.26
575.238	51.38
575.578	51.31
575.918	51.63
576.258	51.74
576.598	51.45
576.938	51.41
577.278	51.65
577.618	51.88
577.958	51.96
578.298	51.88
578.638	51.87
578.977	52.17
579.317	51.82
579.657	52.24
579.996	52.1
580.336	52.37
580.675	52.29
581.014	52.61
581.354	52.58
581.693	52.57
582.032	52.34
582.372	52.94
582.711	52.44
583.05	52.89
583.389	52.57
583.728	52.75
584.067	53.01
584.406	53.08
584.745	53.03
585.083	53.02
585.422	53.14
585.761	53.26
586.1	53.07
586.438	53.23
586.777	53.38
587.115	53.08
587.454	53.26
587.792	53.45
588.13	53.27
588.469	53.71
588.807	53.66
589.145	53.42
589.483	53.45
589.821	53.22
590.159	53.54
590.497	53.6
590.835	53.37
591.173	53.86
591.511	54.01
591.849	53.8
592.187	53.42
592.524	53.81
592.862	54.05
593.2	54.23
593.537	54.3
593.875	53.89
594.212	54.22
594.55	54.24
594.887	54.15
595.224	54.21
595.561	54.15
595.899	53.98
596.236	54.38
596.573	54.1
596.91	53.92
597.247	54.41
597.584	53.99
597.921	54.14
598.258	54.37
598.594	53.92
598.931	54.18
599.268	54.28
599.604	54.54
599.941	54.5
600.277	54.57
600.614	54.61
600.95	54.72
601.287	54.7
601.623	54.75
601.959	55.01
602.296	55.16
602.632	54.76
602.968	55.01
603.304	55
603.64	55.07
603.976	55.12
604.312	55.15
604.648	54.87
604.984	54.54
605.319	54.86
605.655	55
605.991	54.93
606.326	54.84
606.662	55.15
606.998	54.94
607.333	55.17
607.668	55.31
608.004	55.26
608.339	55.37
608.674	55.26
609.01	55.73
609.345	55.66
609.68	55.5
610.015	55.86
610.35	55.19
610.685	55.81
611.02	55.42
611.355	55.36
611.689	55.87
612.024	55.68
612.359	55.77
612.694	55.82
613.028	56.08
613.363	56.05
613.697	55.86
614.032	56.27
614.366	56.63
614.7	56.15
615.035	56.56
615.369	56.6
615.703	56.72
616.037	56.33
616.371	56.52
616.705	56.53
617.039	56.54
617.373	56.44
617.707	56.91
618.041	56.92
618.375	56.53
618.709	57.06
619.042	57.15
619.376	57.05
619.71	57.2
620.043	56.72
620.377	57.21
620.71	57.37
621.043	57.1
621.377	56.84
621.71	56.94
622.043	57.26
622.376	57.87
622.709	57.48
623.043	57.49
623.376	57.64
623.709	57.39
624.041	57.74
624.374	57.19
624.707	57.41
625.04	57.43
625.373	57.71
625.705	57.47
626.038	58.06
626.37	57.84
626.703	57.85
627.035	57.87
627.368	57.56
627.7	57.78
628.032	57.77
628.365	57.65
628.697	57.9
629.029	57.78
629.361	57.68
629.693	57.78
630.025	57.96
630.357	58.2
630.689	57.55
631.021	58.13
631.353	58.14
631.684	58.16
632.016	58.1
632.348	58.04
632.679	58.48
633.011	58.15
633.342	58.01
633.674	58.24
634.005	57.91
634.336	58.47
634.668	58.78
634.999	58.42
635.33	58.12
635.661	58.54
635.992	58.85
636.323	58.74
636.654	58.86
636.985	58.68
637.316	58.6
637.647	58.54
637.977	59.02
638.308	58.77
638.639	58.58
638.969	59.05
639.3	58.9
639.63	58.99
639.961	59.38
640.291	58.87
640.622	59.5
640.952	59.55
641.282	59.18
641.612	59.19
641.943	59.06
642.273	59.78
642.603	58.74
642.933	59.99
643.263	59.65
643.592	59.25
643.922	59.12
644.252	59.15
644.582	59.63
644.911	60.09
645.241	59.56
645.571	59.57
645.9	60.08
646.23	59.97
646.559	59.47
646.888	60.32
647.218	59.91
647.547	59.55
647.876	59.94
648.205	59.65
648.534	60.19
648.863	60.25
649.192	60.09
649.521	59.81
649.85	60.25
650.179	60.16
650.508	59.95
650.837	59.6
651.165	59.75
651.494	60.48
651.822	60.44
652.151	60.47
652.479	60.07
652.808	59.68
653.136	60.32
653.465	60.42
653.793	60.46
654.121	60.37
654.449	59.79
654.777	60.14
655.105	61.02
655.433	59.98
655.761	60.62
656.089	60.64
656.417	60.92
656.745	60.89
657.073	61.04
657.4	60.92
657.728	60.52
658.056	61.1
658.383	61.32
658.711	60.59
659.038	60.72
659.365	61.04
659.693	61.06
660.02	61.14
660.347	60.98
660.674	60.47
661.001	60.74
661.329	60.69
661.656	60.86
661.982	61
662.309	60.82
662.636	60.93
662.963	60.93
663.29	61.25
663.616	61.84
663.943	61.21
664.27	61.63
664.596	61.54
664.923	60.95
665.249	61.33
665.576	61.39
665.902	61.56
666.228	61.29
666.554	61.25
666.881	61.19
667.207	62.15
667.533	61.43
667.859	61.62
668.185	61.02
668.511	60.95
668.837	61.73
