Data from 0027_chest_Reflection__0__91.txt Node

Date: Thu Oct 20 21:40:54 CDT 2022
User: ToomeyLab
Spectrometer: FLMS14357
Trigger mode: 0
Integration Time (sec): 1.000000E-2
Scans to average: 100
Electric dark correction enabled: true
Nonlinearity correction enabled: false
Boxcar width: 0
XAxis mode: Wavelengths
Number of Pixels in Spectrum: 2048
>>>>>Begin Spectral Data<<<<<
189.047	93.8
189.435	93.8
189.823	93.8
190.211	-57.41
190.599	-12.72
190.987	-910.08
191.375	49.94
191.763	-107.69
192.151	237.7
192.538	233.96
192.926	211.64
193.314	77.07
193.702	-15.69
194.089	60.82
194.477	32.1
194.864	-25.44
195.252	179.58
195.639	351.17
196.027	-70.96
196.414	111.4
196.801	-81.14
197.189	-77.19
197.576	367.41
197.963	-132.65
198.351	31.88
198.738	7.77
199.125	-27.07
199.512	-38.88
199.899	-15.23
200.286	-20.55
200.673	11.47
201.06	39.46
201.447	19.5
201.833	-2.74
202.22	-15.68
202.607	0.78
202.994	14.67
203.38	-11.32
203.767	0.2
204.154	-25.39
204.54	31.98
204.927	-19.45
205.313	2.68
205.699	26.31
206.086	19.14
206.472	-12.13
206.858	-30.67
207.245	-2.03
207.631	-30.79
208.017	-27.18
208.403	-44.34
208.789	-13.74
209.175	-0.01
209.561	15.77
209.947	-25.24
210.333	21.96
210.719	0.86
211.105	0.51
211.491	-91.07
211.876	-39.01
212.262	0.44
212.648	-16.1
213.034	-22.85
213.419	-21.98
213.805	13.76
214.19	-16.6
214.576	-50.7
214.961	-6.39
215.346	-14.1
215.732	-11.13
216.117	-23.99
216.502	8.24
216.888	-36.99
217.273	-25.11
217.658	28.36
218.043	4.48
218.428	-12.05
218.813	24.7
219.198	9.35
219.583	3.48
219.968	20.22
220.353	-21.57
220.738	-5.63
221.122	15.79
221.507	-3.17
221.892	-17.04
222.276	-7.09
222.661	9.66
223.046	10.01
223.43	-1.15
223.815	9.55
224.199	-14.72
224.583	-10.77
224.968	-1.21
225.352	3.43
225.736	3.69
226.121	-2.33
226.505	1.06
226.889	-4.19
227.273	-3.63
227.657	0.7
228.041	-3.23
228.425	-2.39
228.809	1.82
229.193	3.29
229.577	0.31
229.961	1.5
230.344	0.76
230.728	1.67
231.112	1.85
231.495	0.22
231.879	1.3
232.263	1.2
232.646	1.22
233.03	2.24
233.413	0.96
233.797	0.78
234.18	1.48
234.563	1.68
234.946	0.92
235.33	1.12
235.713	0.39
236.096	-0.26
236.479	2.52
236.862	1.39
237.245	0.52
237.628	1.25
238.011	1.89
238.394	2.94
238.777	1.86
239.16	-0.01
239.543	-0.68
239.925	1.76
240.308	2.56
240.691	2.07
241.073	0.13
241.456	1.62
241.838	1.42
242.221	1.08
242.603	0.74
242.986	1.27
243.368	1.15
243.75	1.75
244.133	1.65
244.515	1.31
244.897	1.1
245.279	0.23
245.661	2.78
246.043	2.4
246.425	1.95
246.807	2.59
247.189	1.56
247.571	1.69
247.953	1.35
248.335	1.48
248.717	1.37
249.098	1.63
249.48	1.08
249.862	1.29
250.243	1.23
250.625	2.03
251.006	1.92
251.388	1.3
251.769	1.4
252.151	1.39
252.532	1.49
252.913	0.87
253.295	1.58
253.676	1.61
254.057	0.64
254.438	1.74
254.819	1.75
255.2	2.02
255.581	0.28
255.962	1.49
256.343	0.59
256.724	1.05
257.105	1.76
257.486	1.34
257.867	1.21
258.247	1.46
258.628	1.85
259.009	1.22
259.389	1.08
259.77	1.07
260.15	1.89
260.531	1.53
260.911	1.24
261.292	1.71
261.672	1.52
262.052	1.6
262.432	1.88
262.813	1.45
263.193	2.42
263.573	1.37
263.953	1.23
264.333	1.74
264.713	1.54
265.093	1.25
265.473	1.02
265.853	1.47
266.233	1.2
266.612	1.27
266.992	0.55
267.372	1.93
267.752	1.4
268.131	1.59
268.511	1.63
268.89	1.13
269.27	1.31
269.649	1.43
270.029	0.74
270.408	1.31
270.787	1.02
271.167	1.28
271.546	0.99
271.925	1.29
272.304	1.52
272.683	1.4
273.062	0.78
273.441	1.49
273.82	1.59
274.199	0.99
274.578	0.73
274.957	1.05
275.336	1.1
275.715	1.5
276.093	1.72
276.472	1.73
276.851	1.62
277.229	1.49
277.608	1.46
277.986	1.29
278.365	0.99
278.743	0.87
279.122	1.45
279.5	1.72
279.878	1.09
280.257	1.21
280.635	1.27
281.013	1.32
281.391	1.76
281.769	1.05
282.147	0.75
282.525	1.06
282.903	1.14
283.281	0.98
283.659	1.02
284.037	0.63
284.415	1.03
284.792	1.45
285.17	1.54
285.548	1.07
285.925	1.38
286.303	1.03
286.68	1.62
287.058	1.16
287.435	1.38
287.813	1.33
288.19	1.59
288.567	1.43
288.945	1.33
289.322	1.07
289.699	1.08
290.076	1.42
290.453	1.23
290.83	1.71
291.207	1.55
291.584	1.41
291.961	1.36
292.338	1.18
292.715	1.04
293.092	1.74
293.469	1.38
293.845	1.14
294.222	1.51
294.599	2.24
294.975	1.4
295.352	1.85
295.728	1.66
296.105	1.92
296.481	1.11
296.858	1.55
297.234	1.68
297.61	1.43
297.986	1.28
298.363	1.56
298.739	1.65
299.115	1.36
299.491	1.58
299.867	1.34
300.243	1.47
300.619	1.45
300.995	1.21
301.371	2.02
301.746	1.58
302.122	1.69
302.498	1.65
302.874	2.06
303.249	1.68
303.625	1.33
304	1.77
304.376	1.44
304.751	1.58
305.127	1.2
305.502	1.85
305.878	1.41
306.253	1.8
306.628	1.51
307.003	1.34
307.378	1.15
307.754	2.3
308.129	1.83
308.504	1.66
308.879	1.52
309.254	1.99
309.629	1.84
310.003	1.34
310.378	1.58
310.753	1.63
311.128	1.31
311.502	1.49
311.877	1.99
312.252	1.69
312.626	1.77
313.001	1.5
313.375	1.58
313.75	1.64
314.124	1.94
314.498	1.44
314.873	1.8
315.247	1.75
315.621	1.91
315.995	1.45
316.369	2.1
316.743	1.44
317.117	2.22
317.491	1.95
317.865	1.64
318.239	1.79
318.613	2.19
318.987	1.89
319.361	2.51
319.734	1.88
320.108	2.06
320.482	2.19
320.855	2.14
321.229	1.59
321.602	2.02
321.976	1.94
322.349	1.85
322.723	2.33
323.096	2.1
323.469	1.81
323.843	2.23
324.216	2.08
324.589	2.23
324.962	1.74
325.335	2.21
325.708	1.97
326.081	2.49
326.454	1.94
326.827	1.83
327.2	2.05
327.573	2.17
327.945	1.89
328.318	1.71
328.691	2.22
329.063	2.35
329.436	1.68
329.809	2.36
330.181	2.14
330.553	2.07
330.926	1.76
331.298	2.1
331.671	2.47
332.043	2.08
332.415	1.81
332.787	2.46
333.159	2.21
333.532	2.01
333.904	1.95
334.276	1.85
334.648	1.82
335.02	2.28
335.391	2.21
335.763	1.94
336.135	2.59
336.507	1.44
336.879	2.75
337.25	1.76
337.622	2.25
337.993	1.88
338.365	2.43
338.736	1.94
339.108	2.17
339.479	2.12
339.851	1.73
340.222	2.19
340.593	2.34
340.964	2.54
341.336	2.32
341.707	1.71
342.078	1.66
342.449	1.78
342.82	2.09
343.191	1.96
343.562	2.07
343.933	2.12
344.303	1.72
344.674	2.14
345.045	2
345.416	1.87
345.786	1.93
346.157	1.92
346.527	1.86
346.898	2.05
347.268	1.83
347.639	2.13
348.009	2.11
348.38	2.43
348.75	1.89
349.12	2.42
349.49	2.13
349.861	2.21
350.231	2.05
350.601	2.46
350.971	2.38
351.341	2.05
351.711	2.44
352.081	2
352.45	1.99
352.82	1.98
353.19	2.09
353.56	1.99
353.929	2.18
354.299	2.24
354.669	2.1
355.038	2.25
355.408	1.47
355.777	2.57
356.147	2.39
356.516	2.1
356.885	2.02
357.254	2.21
357.624	2.3
357.993	1.99
358.362	2.39
358.731	2.42
359.1	1.82
359.469	2.44
359.838	1.95
360.207	2.86
360.576	2.06
360.945	2.6
361.314	2.03
361.682	2.04
362.051	2.13
362.42	2.22
362.788	2.3
363.157	2.24
363.525	2.27
363.894	2.19
364.262	2.17
364.631	2.22
364.999	2.1
365.367	2.4
365.735	2.53
366.104	2.18
366.472	2.33
366.84	2.54
367.208	2.11
367.576	2.33
367.944	2.62
368.312	2.43
368.68	2.55
369.048	2.38
369.416	2.2
369.783	2.56
370.151	2.82
370.519	2.58
370.886	2.51
371.254	2.59
371.621	2.25
371.989	2.51
372.356	2.25
372.724	2.33
373.091	2.37
373.458	2.24
373.826	2.07
374.193	2.5
374.56	2.27
374.927	2.24
375.294	2.17
375.661	2.69
376.028	2.25
376.395	2.53
376.762	2.35
377.129	2.36
377.496	2.14
377.863	2.36
378.229	2.29
378.596	2.29
378.963	2.58
379.329	2.7
379.696	2.37
380.062	2.19
380.429	2.76
380.795	2.48
381.161	2.43
381.528	2.51
381.894	2.45
382.26	2.33
382.626	2.65
382.993	2.19
383.359	2.64
383.725	2.62
384.091	2.62
384.457	2.22
384.823	2.36
385.188	2.71
385.554	2.11
385.92	2.44
386.286	2.28
386.651	2.09
387.017	2.44
387.383	2.4
387.748	2.57
388.114	2.41
388.479	2.46
388.845	2.41
389.21	2.61
389.575	2.48
389.94	2.6
390.306	2.51
390.671	2.46
391.036	2.6
391.401	2.35
391.766	2.58
392.131	2.55
392.496	2.12
392.861	2.29
393.226	2.48
393.591	2.71
393.956	2.68
394.32	2.54
394.685	2.73
395.05	2.24
395.414	2.67
395.779	2.41
396.143	2.56
396.508	2.52
396.872	2.5
397.236	2.34
397.601	2.54
397.965	2.5
398.329	2.54
398.694	2.48
399.058	2.36
399.422	2.63
399.786	2.55
400.15	2.45
400.514	2.66
400.878	2.32
401.242	2.59
401.605	3.03
401.969	2.74
402.333	2.59
402.697	2.63
403.06	2.56
403.424	2.49
403.787	2.79
404.151	2.3
404.514	2.5
404.878	2.39
405.241	2.61
405.604	2.55
405.968	2.71
406.331	2.45
406.694	2.51
407.057	2.53
407.42	2.62
407.783	2.37
408.146	2.71
408.509	2.56
408.872	2.59
409.235	2.47
409.598	2.7
409.961	2.6
410.323	2.87
410.686	2.71
411.049	2.66
411.411	2.6
411.774	2.75
412.136	2.57
412.499	2.69
412.861	2.6
413.223	2.54
413.586	2.5
413.948	2.51
414.31	2.57
414.672	2.76
415.035	2.65
415.397	2.57
415.759	2.58
416.121	2.66
416.483	2.61
416.845	2.67
417.206	2.61
417.568	2.73
417.93	2.42
418.292	2.54
418.653	2.72
419.015	2.57
419.377	2.62
419.738	2.63
420.1	2.68
420.461	2.63
420.822	2.56
421.184	2.5
421.545	2.61
421.906	2.56
422.267	2.6
422.629	2.5
422.99	2.57
423.351	2.57
423.712	2.57
424.073	2.68
424.434	2.62
424.795	2.61
425.155	2.65
425.516	2.55
425.877	2.59
426.238	2.69
426.598	2.64
426.959	2.59
427.32	2.69
427.68	2.57
428.041	2.7
428.401	2.63
428.761	2.64
429.122	2.67
429.482	2.6
429.842	2.76
430.202	2.89
430.563	2.67
430.923	2.89
431.283	2.67
431.643	2.75
432.003	2.65
432.363	2.84
432.722	3.04
433.082	2.7
433.442	2.77
433.802	2.62
434.161	2.83
434.521	2.61
434.881	2.76
435.24	2.69
435.6	2.76
435.959	2.75
436.319	2.79
436.678	2.67
437.037	2.7
437.396	2.84
437.756	2.81
438.115	2.8
438.474	2.71
438.833	2.9
439.192	2.67
439.551	2.84
439.91	2.84
440.269	2.86
440.628	2.76
440.987	2.75
441.345	2.79
441.704	2.75
442.063	2.81
442.421	2.67
442.78	2.81
443.138	2.78
443.497	2.72
443.855	2.72
444.214	2.78
444.572	2.91
444.93	2.68
445.288	2.7
445.647	2.72
446.005	2.71
446.363	2.81
446.721	2.67
447.079	2.71
447.437	2.71
447.795	2.71
448.153	2.67
448.51	2.67
448.868	2.69
449.226	2.78
449.584	2.71
449.941	2.83
450.299	2.79
450.656	2.8
451.014	2.8
451.371	2.9
451.729	2.79
452.086	2.95
452.443	2.88
452.801	2.88
453.158	2.81
453.515	2.93
453.872	2.84
454.229	2.86
454.586	2.81
454.943	2.78
455.3	2.79
455.657	2.81
456.014	2.99
456.371	2.86
456.727	2.78
457.084	2.72
457.441	2.89
457.797	2.78
458.154	2.94
458.51	2.69
458.867	2.79
459.223	3.06
459.58	2.83
459.936	2.95
460.292	2.91
460.648	2.73
461.005	2.72
461.361	2.77
461.717	2.83
462.073	2.94
462.429	2.92
462.785	2.92
463.141	2.92
463.496	3.15
463.852	2.97
464.208	3.11
464.564	3.06
464.919	3.02
465.275	2.99
465.631	2.85
465.986	2.92
466.342	2.85
466.697	2.98
467.052	2.93
467.408	3.04
467.763	3.03
468.118	3.11
468.473	3.12
468.829	3.09
469.184	3.01
469.539	2.96
469.894	2.91
470.249	3.09
470.603	2.99
470.958	3.06
471.313	2.97
471.668	2.83
472.023	2.9
472.377	2.91
472.732	3.11
473.086	3.01
473.441	2.94
473.795	3
474.15	2.93
474.504	3.02
474.859	3.14
475.213	3.15
475.567	3.14
475.921	2.93
476.275	3.23
476.63	3.07
476.984	3.06
477.338	3
477.692	3.11
478.045	3.01
478.399	3.07
478.753	2.98
479.107	3.03
479.461	3.1
479.814	2.93
480.168	3.07
480.521	3.03
480.875	3.13
481.228	2.98
481.582	3.1
481.935	3.06
482.289	2.89
482.642	2.9
482.995	3.1
483.348	3.19
483.701	3.02
484.055	3.01
484.408	2.98
484.761	2.88
485.114	2.76
485.466	2.75
485.819	2.85
486.172	2.89
486.525	2.97
486.878	2.98
487.23	2.98
487.583	3
487.936	3.01
488.288	2.94
488.641	2.92
488.993	2.92
489.345	2.9
489.698	2.93
490.05	2.96
490.402	3.02
490.754	3.06
491.107	3.12
491.459	3.13
491.811	3.1
492.163	3.07
492.515	3
492.866	2.95
493.218	2.96
493.57	2.99
493.922	3.02
494.274	3.03
494.625	3.14
494.977	3.13
495.328	3.11
495.68	3.1
496.031	3.21
496.383	3.23
496.734	3.18
497.086	3.12
497.437	3.27
497.788	3.23
498.139	3.03
498.49	3.27
498.842	3.07
499.193	3.17
499.544	3.18
499.894	3.24
500.245	3.26
500.596	3.29
500.947	3.24
501.298	3.28
501.648	3.23
501.999	3.3
502.35	3.35
502.7	3.36
503.051	3.33
503.401	3.36
503.752	3.31
504.102	3.31
504.452	3.3
504.803	3.15
505.153	3.27
505.503	3.47
505.853	3.23
506.203	3.37
506.553	3.35
506.903	3.24
507.253	3.36
507.603	3.43
507.953	3.53
508.303	3.39
508.652	3.28
509.002	3.28
509.352	3.31
509.701	3.39
510.051	3.32
510.4	3.29
510.75	3.25
511.099	3.29
511.449	3.35
511.798	3.32
512.147	3.38
512.496	3.44
512.846	3.45
513.195	3.43
513.544	3.36
513.893	3.43
514.242	3.38
514.591	3.48
514.939	3.42
515.288	3.42
515.637	3.42
515.986	3.43
516.334	3.44
516.683	3.39
517.032	3.46
517.38	3.44
517.729	3.56
518.077	3.33
518.426	3.53
518.774	3.37
519.122	3.5
519.47	3.37
519.819	3.34
520.167	3.36
520.515	3.46
520.863	3.45
521.211	3.51
521.559	3.5
521.907	3.46
522.255	3.49
522.602	3.56
522.95	3.54
523.298	3.59
523.645	3.62
523.993	3.54
524.341	3.73
524.688	3.59
525.036	3.66
525.383	3.65
525.73	3.5
526.078	3.62
526.425	3.59
526.772	3.55
527.119	3.43
527.466	3.52
527.814	3.51
528.161	3.55
528.508	3.56
528.854	3.63
529.201	3.49
529.548	3.43
529.895	3.39
530.242	3.36
530.588	3.39
530.935	3.46
531.282	3.46
531.628	3.54
531.975	3.58
532.321	3.62
532.667	3.53
533.014	3.7
533.36	3.61
533.706	3.57
534.052	3.58
534.399	3.62
534.745	3.55
535.091	3.58
535.437	3.62
535.783	3.61
536.129	3.61
536.474	3.78
536.82	3.68
537.166	3.72
537.512	3.76
537.857	3.67
538.203	3.71
538.549	3.71
538.894	3.74
539.239	3.76
539.585	3.91
539.93	3.91
540.276	4.06
540.621	3.91
540.966	3.97
541.311	3.91
541.656	3.82
542.001	3.74
542.346	3.68
542.691	3.66
543.036	3.67
543.381	3.73
543.726	3.77
544.071	3.79
544.415	3.82
544.76	3.78
545.105	3.88
545.449	3.87
545.794	3.83
546.138	4
546.483	3.9
546.827	4.02
547.171	3.95
547.516	3.99
547.86	4.01
548.204	4
548.548	3.97
548.892	4.03
549.236	3.99
549.58	4.14
549.924	4.1
550.268	4.13
550.612	4.17
550.956	4.12
551.3	4.21
551.643	4.23
551.987	4.2
552.33	4.12
552.674	4.1
553.017	4.24
553.361	4.26
553.704	4.4
554.048	4.33
554.391	4.24
554.734	4.27
555.077	4.21
555.42	4.26
555.764	4.22
556.107	4.23
556.45	4.25
556.793	4.32
557.135	4.4
557.478	4.34
557.821	4.47
558.164	4.35
558.507	4.49
558.849	4.5
559.192	4.53
559.534	4.52
559.877	4.48
560.219	4.6
560.562	4.59
560.904	4.5
561.246	4.52
561.589	4.67
561.931	4.3
562.273	4.58
562.615	4.54
562.957	4.26
563.299	4.57
563.641	4.45
563.983	4.81
564.325	4.53
564.667	4.61
565.008	4.52
565.35	4.63
565.692	4.71
566.033	4.47
566.375	4.66
566.716	4.76
567.058	4.61
567.399	4.71
567.741	4.53
568.082	4.71
568.423	4.72
568.764	4.71
569.105	4.71
569.447	4.93
569.788	4.6
570.129	4.85
570.47	4.88
570.811	4.58
571.151	4.81
571.492	4.78
571.833	4.78
572.174	4.78
572.514	4.75
572.855	4.93
573.195	4.81
573.536	4.78
573.876	4.78
574.217	4.78
574.557	4.8
574.898	5
575.238	5.11
575.578	4.93
575.918	4.97
576.258	5.08
576.598	4.9
576.938	4.94
577.278	5.02
577.618	5.21
577.958	5.12
578.298	5.27
578.638	5.13
578.977	5.24
579.317	5.14
579.657	5.12
579.996	5.36
580.336	5.4
580.675	5.44
581.014	5.39
581.354	5.39
581.693	5.21
582.032	5.16
582.372	5.37
582.711	5.16
583.05	5.47
583.389	5.22
583.728	5.41
584.067	5.5
584.406	5.47
584.745	5.4
585.083	5.44
585.422	5.66
585.761	5.55
586.1	5.53
586.438	5.76
586.777	5.67
587.115	5.46
587.454	5.71
587.792	5.69
588.13	5.61
588.469	5.77
588.807	5.51
589.145	5.54
589.483	5.78
589.821	5.57
590.159	5.58
590.497	5.46
590.835	5.39
591.173	5.57
591.511	5.62
591.849	5.91
592.187	5.6
592.524	5.74
592.862	5.84
593.2	5.82
593.537	5.7
593.875	5.92
594.212	5.78
594.55	6.12
594.887	5.78
595.224	6.1
595.561	5.94
595.899	5.94
596.236	6.01
596.573	5.91
596.91	6.21
597.247	6.11
597.584	5.87
597.921	5.94
598.258	5.87
598.594	5.8
598.931	6.1
599.268	5.82
599.604	6.04
599.941	6.2
600.277	6.06
600.614	6.07
600.95	6.19
601.287	6.25
601.623	6.01
601.959	6.1
602.296	6.41
602.632	6.14
602.968	6.38
603.304	6.16
603.64	6.45
603.976	6.36
604.312	6.42
604.648	6.33
604.984	6.27
605.319	6.31
605.655	6.35
605.991	6.18
606.326	6.37
606.662	6.51
606.998	6.65
607.333	6.42
607.668	6.41
608.004	6.51
608.339	6.62
608.674	6.46
609.01	6.69
609.345	6.62
609.68	6.58
610.015	6.56
610.35	6.62
610.685	6.58
611.02	6.59
611.355	6.58
611.689	6.79
612.024	6.66
612.359	6.56
612.694	6.76
613.028	6.79
613.363	6.74
613.697	6.8
614.032	6.85
614.366	6.93
614.7	6.75
615.035	6.78
615.369	7.08
615.703	7.09
616.037	7.17
616.371	6.97
616.705	7.07
617.039	6.88
617.373	6.79
617.707	7.32
618.041	7.05
618.375	6.98
618.709	6.82
619.042	7.03
619.376	7.01
619.71	7.16
620.043	7.22
620.377	7.34
620.71	7.18
621.043	7.49
621.377	6.92
621.71	7.33
622.043	7.12
622.376	7.48
622.709	7.39
623.043	7.16
623.376	7.64
623.709	7.42
624.041	7.37
624.374	7.57
624.707	7.44
625.04	7.83
625.373	7.79
625.705	7.49
626.038	7.85
626.37	7.12
626.703	7.68
627.035	7.73
627.368	7.69
627.7	7.66
628.032	7.8
628.365	7.57
628.697	7.55
629.029	7.83
629.361	7.84
629.693	8.02
630.025	7.97
630.357	7.75
630.689	7.77
631.021	7.86
631.353	8.11
631.684	7.99
632.016	7.7
632.348	7.96
632.679	7.72
633.011	8.27
633.342	8.16
633.674	8.03
634.005	8.21
634.336	8.13
634.668	8.09
634.999	8.18
635.33	8.33
635.661	7.99
635.992	7.98
636.323	8.15
636.654	8.2
636.985	8.19
637.316	8.3
637.647	8.18
637.977	8.66
638.308	8.07
638.639	8.75
638.969	7.98
639.3	8.27
639.63	8.42
639.961	8.2
640.291	8.08
640.622	8.73
640.952	8.44
641.282	8.74
641.612	8.78
641.943	8.51
642.273	8.73
642.603	8.52
642.933	8.88
643.263	8.83
643.592	8.83
643.922	8.56
644.252	8.9
644.582	8.42
644.911	9.11
645.241	9.31
645.571	8.92
645.9	9.28
646.23	8.64
646.559	8.58
646.888	9
647.218	8.82
647.547	8.85
647.876	8.45
648.205	8.98
648.534	8.81
648.863	9
649.192	8.88
649.521	9.2
649.85	9.26
650.179	9.08
650.508	9.6
650.837	9.06
651.165	8.95
651.494	9.5
651.822	9.82
652.151	9.29
652.479	8.99
652.808	8.78
653.136	8.61
653.465	9.44
653.793	9.25
654.121	9.52
654.449	9.56
654.777	9.54
655.105	9.67
655.433	9.79
655.761	9.4
656.089	9.51
656.417	9.73
656.745	9.81
657.073	9.67
657.4	9.47
657.728	9.62
658.056	9.43
658.383	9.65
658.711	9.77
659.038	10.12
659.365	9.6
659.693	9.74
660.02	10.1
660.347	9.65
660.674	9.82
661.001	9.69
661.329	9.55
661.656	9.57
661.982	9.68
662.309	9.73
662.636	10.26
662.963	9.47
663.29	9.78
663.616	10.06
663.943	10.23
664.27	10.32
664.596	10.24
664.923	9.54
665.249	10.53
665.576	10.5
665.902	10.01
666.228	10.36
666.554	9.79
666.881	10.05
667.207	10.26
667.533	9.97
667.859	9.78
668.185	10.98
668.511	10.15
668.837	10.62
669.162	10.93
669.488	10.26
669.814	10.63
670.139	10.54
670.465	10.08
670.791	10.82
671.116	10.91
671.442	10.27
671.767	10.21
672.092	10.62
672.418	10.57
672.743	10.75
673.068	10.05
673.393	10.5
673.718	10.53
674.043	10.39
674.368	10.26
674.693	10.58
675.018	11.25
675.343	10.67
675.667	10.76
675.992	11.25
676.317	10.84
676.641	11.13
676.966	10.47
677.29	10.57
677.615	11.37
677.939	11.19
678.264	10.88
678.588	11.09
678.912	10.92
679.236	11.43
679.56	11.11
679.885	10.86
680.209	11.27
680.532	10.85
680.856	11.64
681.18	11.19
681.504	11.09
681.828	11.31
682.152	11.76
682.475	11.55
682.799	11.37
683.122	11.19
683.446	11.15
683.769	11.63
684.093	11.37
684.416	11.52
684.739	11.2
685.062	11.46
685.386	11.87
685.709	11.48
686.032	11.26
686.355	11.44
686.678	11.9
687.001	11.41
687.324	11.3
687.646	11.37
687.969	11.11
688.292	11.95
688.614	12.27
688.937	12.15
689.26	11.67
689.582	11.19
689.904	11.92
690.227	11.01
