Data from 0027_crown_Reflection__3__99.txt Node

Date: Thu Oct 20 21:43:29 CDT 2022
User: ToomeyLab
Spectrometer: FLMS14357
Trigger mode: 0
Integration Time (sec): 1.000000E-2
Scans to average: 100
Electric dark correction enabled: true
Nonlinearity correction enabled: false
Boxcar width: 0
XAxis mode: Wavelengths
Number of Pixels in Spectrum: 2048
>>>>>Begin Spectral Data<<<<<
189.047	87.25
189.435	87.25
189.823	87.25
190.211	-2.98
190.599	-118.65
190.987	-518.6
191.375	51.83
191.763	-265.49
192.151	305.8
192.538	-34.03
192.926	37.96
193.314	66.24
193.702	19.33
194.089	100.15
194.477	87.91
194.864	145.61
195.252	77.39
195.639	-263.84
196.027	98.26
196.414	90.96
196.801	-32.21
197.189	-14.49
197.576	213.6
197.963	-181.12
198.351	-1.67
198.738	-37.76
199.125	-2.88
199.512	6.32
199.899	-46.5
200.286	-16.97
200.673	18.56
201.06	15.43
201.447	-6.56
201.833	-13.28
202.22	12.2
202.607	34.82
202.994	-65.49
203.38	-23.78
203.767	0.71
204.154	18.9
204.54	3.79
204.927	-41.6
205.313	12.87
205.699	-2.12
206.086	-8
206.472	-0.04
206.858	-30.8
207.245	12.03
207.631	-24.54
208.017	-49.97
208.403	-85.48
208.789	-2.12
209.175	11.42
209.561	31.61
209.947	-4.71
210.333	17.17
210.719	28.34
211.105	17.32
211.491	-127.36
211.876	-14.5
212.262	9.32
212.648	-18.66
213.034	12.89
213.419	-26.6
213.805	-20.83
214.19	-17.27
214.576	-31.87
214.961	-20.21
215.346	-41.69
215.732	-29.7
216.117	-12.35
216.502	11.13
216.888	-25.21
217.273	10.37
217.658	7.31
218.043	4
218.428	-6.08
218.813	5.51
219.198	10.68
219.583	-0.72
219.968	25.82
220.353	2.99
220.738	2.58
221.122	14.67
221.507	-7.07
221.892	10.2
222.276	-1.72
222.661	14.11
223.046	12.6
223.43	-0.85
223.815	5.67
224.199	-4.87
224.583	-4.78
224.968	2.18
225.352	17.59
225.736	5.48
226.121	-3.93
226.505	-0.2
226.889	1.6
227.273	0.44
227.657	7.43
228.041	5.08
228.425	5.08
228.809	8.15
229.193	6.49
229.577	4.9
229.961	5.86
230.344	5.46
230.728	5.49
231.112	5.31
231.495	5.17
231.879	6.95
232.263	5.63
232.646	5.55
233.03	4.75
233.413	3.85
233.797	5.02
234.18	4.37
234.563	5.04
234.946	5.16
235.33	5.49
235.713	4.62
236.096	5.13
236.479	6.55
236.862	6.01
237.245	3.98
237.628	6.11
238.011	4.63
238.394	6.57
238.777	4.76
239.16	4.59
239.543	3.35
239.925	4.97
240.308	5.06
240.691	5.02
241.073	4.69
241.456	5.68
241.838	5.93
242.221	5.27
242.603	5.41
242.986	5.61
243.368	5.32
243.75	5.55
244.133	5.61
244.515	4.64
244.897	4.96
245.279	4.33
245.661	5.65
246.043	4.54
246.425	5.82
246.807	5.2
247.189	5.13
247.571	5.19
247.953	4.87
248.335	5.03
248.717	5.22
249.098	5.23
249.48	5.32
249.862	5
250.243	4.98
250.625	5.84
251.006	5.97
251.388	4.98
251.769	4.97
252.151	4.67
252.532	4.59
252.913	4.57
253.295	4.93
253.676	5.18
254.057	4.95
254.438	5.15
254.819	4.95
255.2	4.93
255.581	4.33
255.962	5.32
256.343	4.49
256.724	4.94
257.105	4.78
257.486	4.09
257.867	5.42
258.247	4.41
258.628	5.06
259.009	4.58
259.389	4.32
259.77	4.71
260.15	4.73
260.531	4.95
260.911	4.61
261.292	4.93
261.672	4.81
262.052	4.99
262.432	5.15
262.813	4.37
263.193	4.91
263.573	4.9
263.953	4.96
264.333	4.3
264.713	4.67
265.093	5.09
265.473	4.28
265.853	5.47
266.233	4.11
266.612	4.89
266.992	3.96
267.372	4.81
267.752	4.8
268.131	4.94
268.511	4.75
268.89	4.79
269.27	4.35
269.649	4.4
270.029	4.25
270.408	4.14
270.787	4.39
271.167	4.29
271.546	4.02
271.925	4.98
272.304	4.47
272.683	4.58
273.062	4.04
273.441	4.34
273.82	5.02
274.199	4.27
274.578	4.42
274.957	4.37
275.336	4.44
275.715	4.34
276.093	4.44
276.472	4.82
276.851	4.94
277.229	4.44
277.608	3.94
277.986	4.34
278.365	4.24
278.743	4.51
279.122	4.3
279.5	4.37
279.878	4.75
280.257	4.06
280.635	4.71
281.013	4.5
281.391	4.54
281.769	4.44
282.147	4.06
282.525	3.74
282.903	4.54
283.281	3.7
283.659	4.16
284.037	3.77
284.415	4.38
284.792	4.16
285.17	4.82
285.548	4.03
285.925	3.93
286.303	4.02
286.68	4.34
287.058	4.5
287.435	4.01
287.813	4.3
288.19	3.84
288.567	4.15
288.945	4.5
289.322	4.24
289.699	3.67
290.076	4.37
290.453	4.1
290.83	4.34
291.207	4.39
291.584	4.02
291.961	4.14
292.338	3.97
292.715	3.94
293.092	4.55
293.469	4.18
293.845	4.48
294.222	3.87
294.599	5.14
294.975	3.99
295.352	4
295.728	4.01
296.105	4.28
296.481	3.8
296.858	4.11
297.234	4.08
297.61	4.22
297.986	3.89
298.363	3.91
298.739	3.93
299.115	4.27
299.491	4.1
299.867	3.89
300.243	4.02
300.619	4.19
300.995	3.73
301.371	3.92
301.746	3.51
302.122	4.12
302.498	3.68
302.874	4.6
303.249	4.44
303.625	4.12
304	4.05
304.376	4.23
304.751	4.51
305.127	3.77
305.502	3.98
305.878	4.29
306.253	3.95
306.628	3.58
307.003	4.01
307.378	3.65
307.754	4.18
308.129	4.23
308.504	3.75
308.879	3.8
309.254	3.75
309.629	3.69
310.003	3.85
310.378	3.85
310.753	3.88
311.128	3.87
311.502	4.16
311.877	4.27
312.252	3.82
312.626	3.83
313.001	4.08
313.375	4.08
313.75	3.86
314.124	3.72
314.498	3.69
314.873	4.18
315.247	3.69
315.621	4.16
315.995	3.82
316.369	3.84
316.743	3.43
317.117	4.22
317.491	4.09
317.865	4
318.239	4.29
318.613	4.82
318.987	3.93
319.361	3.62
319.734	3.69
320.108	4.09
320.482	4.11
320.855	3.84
321.229	4.23
321.602	3.64
321.976	3.32
322.349	3.35
322.723	4.22
323.096	4.15
323.469	3.91
323.843	3.89
324.216	3.31
324.589	4.22
324.962	3.56
325.335	3.88
325.708	4.1
326.081	4.29
326.454	4.07
326.827	3.66
327.2	4.01
327.573	3.92
327.945	4.15
328.318	3.58
328.691	4.35
329.063	4.04
329.436	3.8
329.809	4.4
330.181	4.17
330.553	3.81
330.926	3.82
331.298	3.53
331.671	4.02
332.043	4.59
332.415	3.74
332.787	4.24
333.159	4.39
333.532	4.13
333.904	4.13
334.276	4.61
334.648	3.86
335.02	4.04
335.391	3.84
335.763	3.63
336.135	4.4
336.507	3.67
336.879	4.36
337.25	3.67
337.622	4.43
337.993	3.89
338.365	4.44
338.736	4.04
339.108	3.92
339.479	4.4
339.851	4.29
340.222	3.79
340.593	4.14
340.964	4.18
341.336	4.22
341.707	3.46
342.078	3.95
342.449	3.95
342.82	4.14
343.191	3.83
343.562	4.07
343.933	4.42
344.303	3.56
344.674	4.42
345.045	4.21
345.416	4.09
345.786	3.94
346.157	4.12
346.527	3.85
346.898	4.14
347.268	3.89
347.639	3.93
348.009	4.15
348.38	4.47
348.75	3.84
349.12	4.11
349.49	4.07
349.861	4.15
350.231	4.22
350.601	4.1
350.971	4.27
351.341	4.41
351.711	4.57
352.081	3.56
352.45	3.79
352.82	4.05
353.19	3.93
353.56	4.18
353.929	3.7
354.299	4.7
354.669	4.22
355.038	3.94
355.408	3.56
355.777	3.9
356.147	4.62
356.516	3.92
356.885	4.42
357.254	3.92
357.624	3.92
357.993	3.79
358.362	4.33
358.731	4.14
359.1	3.6
359.469	4.22
359.838	3.98
360.207	4.41
360.576	4
360.945	4.36
361.314	4.17
361.682	4.02
362.051	3.99
362.42	4.03
362.788	4.06
363.157	4.12
363.525	4.22
363.894	4.12
364.262	4.42
364.631	4.09
364.999	4.18
365.367	4.18
365.735	4.23
366.104	4.07
366.472	4.07
366.84	4.31
367.208	4.26
367.576	4.31
367.944	4.46
368.312	4.07
368.68	4.51
369.048	3.95
369.416	3.89
369.783	4.21
370.151	4.66
370.519	4.04
370.886	4.27
371.254	4.65
371.621	4.16
371.989	4.28
372.356	4.13
372.724	4.37
373.091	4.14
373.458	4.19
373.826	4.11
374.193	4.52
374.56	4.11
374.927	4.07
375.294	4.3
375.661	4.53
376.028	4.48
376.395	4.5
376.762	4.18
377.129	4.17
377.496	4.07
377.863	4.13
378.229	4.39
378.596	4.34
378.963	4.22
379.329	4.57
379.696	4.41
380.062	4.45
380.429	4.71
380.795	4.34
381.161	4.57
381.528	4.35
381.894	4.42
382.26	4.33
382.626	4.45
382.993	4.51
383.359	4.41
383.725	4.56
384.091	4.52
384.457	4.19
384.823	4.42
385.188	4.42
385.554	4.17
385.92	4.34
386.286	4.38
386.651	4.16
387.017	4.14
387.383	4.46
387.748	4.55
388.114	4.42
388.479	4.24
388.845	4.55
389.21	4.66
389.575	4.33
389.94	4.45
390.306	4.61
390.671	4.34
391.036	4.53
391.401	4.1
391.766	4.56
392.131	4.49
392.496	4.29
392.861	4.25
393.226	4.49
393.591	4.6
393.956	4.62
394.32	4.66
394.685	4.56
395.05	4.5
395.414	4.42
395.779	4.52
396.143	4.52
396.508	4.42
396.872	4.65
397.236	4.48
397.601	4.76
397.965	4.55
398.329	4.57
398.694	4.41
399.058	4.45
399.422	4.73
399.786	4.56
400.15	4.36
400.514	4.77
400.878	4.41
401.242	4.42
401.605	4.55
401.969	4.57
402.333	4.46
402.697	4.79
403.06	4.5
403.424	4.6
403.787	4.53
404.151	4.6
404.514	4.45
404.878	4.44
405.241	4.58
405.604	4.54
405.968	4.5
406.331	4.64
406.694	4.55
407.057	4.62
407.42	4.65
407.783	4.44
408.146	4.65
408.509	4.68
408.872	4.62
409.235	4.57
409.598	4.6
409.961	4.75
410.323	4.77
410.686	4.77
411.049	4.7
411.411	4.47
411.774	4.54
412.136	4.58
412.499	4.69
412.861	4.74
413.223	4.63
413.586	4.46
413.948	4.81
414.31	4.44
414.672	4.71
415.035	4.58
415.397	4.65
415.759	4.81
416.121	4.74
416.483	4.58
416.845	4.62
417.206	4.58
417.568	4.76
417.93	4.55
418.292	4.61
418.653	4.64
419.015	4.67
419.377	4.49
419.738	4.62
420.1	4.66
420.461	4.66
420.822	4.56
421.184	4.47
421.545	4.5
421.906	4.66
422.267	4.53
422.629	4.53
422.99	4.56
423.351	4.54
423.712	4.59
424.073	4.63
424.434	4.55
424.795	4.6
425.155	4.54
425.516	4.53
425.877	4.6
426.238	4.7
426.598	4.74
426.959	4.59
427.32	4.72
427.68	4.67
428.041	4.65
428.401	4.7
428.761	4.69
429.122	4.68
429.482	4.79
429.842	4.84
430.202	4.81
430.563	4.69
430.923	5
431.283	4.79
431.643	4.64
432.003	4.69
432.363	4.99
432.722	5.08
433.082	4.79
433.442	4.89
433.802	4.74
434.161	4.8
434.521	4.72
434.881	4.68
435.24	4.87
435.6	4.72
435.959	4.92
436.319	4.92
436.678	4.65
437.037	4.82
437.396	4.99
437.756	4.8
438.115	4.98
438.474	4.72
438.833	4.73
439.192	4.67
439.551	4.67
439.91	4.9
440.269	4.69
440.628	4.65
440.987	4.7
441.345	4.88
441.704	4.73
442.063	4.8
442.421	4.7
442.78	4.77
443.138	4.81
443.497	4.74
443.855	4.8
444.214	4.92
444.572	4.86
444.93	4.79
445.288	4.64
445.647	4.79
446.005	4.7
446.363	4.72
446.721	4.75
447.079	4.78
447.437	4.74
447.795	4.64
448.153	4.79
448.51	4.74
448.868	4.76
449.226	4.76
449.584	4.72
449.941	4.87
450.299	4.88
450.656	4.94
451.014	4.86
451.371	4.99
451.729	4.89
452.086	4.98
452.443	4.85
452.801	4.94
453.158	4.88
453.515	4.88
453.872	4.79
454.229	4.78
454.586	4.87
454.943	4.84
455.3	4.93
455.657	5
456.014	4.95
456.371	4.95
456.727	4.88
457.084	4.85
457.441	4.96
457.797	4.95
458.154	4.92
458.51	4.85
458.867	5
459.223	5.13
459.58	4.87
459.936	4.96
460.292	4.85
460.648	4.75
461.005	4.78
461.361	4.77
461.717	4.89
462.073	5.04
462.429	4.99
462.785	5.05
463.141	5.06
463.496	5.04
463.852	4.98
464.208	5.02
464.564	5.01
464.919	5.02
465.275	4.93
465.631	4.76
465.986	5.01
466.342	4.86
466.697	4.98
467.052	5.06
467.408	5.03
467.763	5.01
468.118	5.1
468.473	5.09
468.829	5.06
469.184	5.01
469.539	4.99
469.894	4.98
470.249	5.18
470.603	4.94
470.958	5.14
471.313	5
471.668	5.14
472.023	4.99
472.377	4.96
472.732	5.25
473.086	5.09
473.441	5.07
473.795	5.11
474.15	5.02
474.504	4.98
474.859	5.1
475.213	5.16
475.567	5.2
475.921	4.94
476.275	5.32
476.63	5.21
476.984	5.13
477.338	5.01
477.692	5.05
478.045	5.11
478.399	5.21
478.753	5.07
479.107	4.97
479.461	5.07
479.814	5.15
480.168	5.15
480.521	5.07
480.875	5.11
481.228	5.03
481.582	5.05
481.935	5.07
482.289	5.03
482.642	4.88
482.995	5.02
483.348	5.09
483.701	4.99
484.055	4.93
484.408	4.82
484.761	4.77
485.114	4.63
485.466	4.63
485.819	4.81
486.172	4.91
486.525	4.98
486.878	5.01
487.23	5.06
487.583	4.94
487.936	4.98
488.288	4.87
488.641	4.82
488.993	4.81
489.345	4.88
489.698	4.9
490.05	5.02
490.402	5.15
490.754	5.07
491.107	5.06
491.459	5.16
491.811	5.11
492.163	5.03
492.515	4.94
492.866	4.91
493.218	4.88
493.57	4.97
493.922	5.05
494.274	5.11
494.625	5.1
494.977	5.2
495.328	5.1
495.68	5.08
496.031	5.17
496.383	5.28
496.734	5.16
497.086	5.17
497.437	5.2
497.788	5.22
498.139	5.12
498.49	5.18
498.842	5.1
499.193	5.16
499.544	5.18
499.894	5.19
500.245	5.19
500.596	5.13
500.947	5.28
501.298	5.33
501.648	5.24
501.999	5.27
502.35	5.22
502.7	5.31
503.051	5.34
503.401	5.29
503.752	5.25
504.102	5.2
504.452	5.29
504.803	5.19
505.153	5.21
505.503	5.33
505.853	5.18
506.203	5.29
506.553	5.37
506.903	5.27
507.253	5.3
507.603	5.28
507.953	5.4
508.303	5.4
508.652	5.23
509.002	5.28
509.352	5.29
509.701	5.23
510.051	5.23
510.4	5.19
510.75	5.18
511.099	5.2
511.449	5.26
511.798	5.3
512.147	5.31
512.496	5.48
512.846	5.34
513.195	5.33
513.544	5.23
513.893	5.23
514.242	5.27
514.591	5.36
514.939	5.37
515.288	5.33
515.637	5.32
515.986	5.34
516.334	5.36
516.683	5.32
517.032	5.32
517.38	5.32
517.729	5.39
518.077	5.28
518.426	5.33
518.774	5.28
519.122	5.35
519.47	5.28
519.819	5.16
520.167	5.16
520.515	5.25
520.863	5.27
521.211	5.3
521.559	5.33
521.907	5.33
522.255	5.29
522.602	5.37
522.95	5.46
523.298	5.28
523.645	5.38
523.993	5.27
524.341	5.38
524.688	5.43
525.036	5.43
525.383	5.34
525.73	5.35
526.078	5.37
526.425	5.27
526.772	5.23
527.119	5.23
527.466	5.35
527.814	5.33
528.161	5.31
528.508	5.3
528.854	5.29
529.201	5.21
529.548	5.05
529.895	5
530.242	5.03
530.588	5.11
530.935	5.22
531.282	5.23
531.628	5.32
531.975	5.38
532.321	5.36
532.667	5.29
533.014	5.45
533.36	5.33
533.706	5.18
534.052	5.25
534.399	5.26
534.745	5.19
535.091	5.24
535.437	5.24
535.783	5.3
536.129	5.35
536.474	5.51
536.82	5.32
537.166	5.36
537.512	5.36
537.857	5.27
538.203	5.34
538.549	5.28
538.894	5.38
539.239	5.35
539.585	5.56
539.93	5.47
540.276	5.57
540.621	5.43
540.966	5.39
541.311	5.42
541.656	5.39
542.001	5.31
542.346	5.23
542.691	5.14
543.036	5.16
543.381	5.24
543.726	5.34
544.071	5.39
544.415	5.38
544.76	5.31
545.105	5.4
545.449	5.41
545.794	5.42
546.138	5.5
546.483	5.43
546.827	5.45
547.171	5.34
547.516	5.46
547.86	5.46
548.204	5.37
548.548	5.46
548.892	5.47
549.236	5.48
549.58	5.48
549.924	5.53
550.268	5.47
550.612	5.59
550.956	5.57
551.3	5.65
551.643	5.59
551.987	5.63
552.33	5.56
552.674	5.6
553.017	5.54
553.361	5.56
553.704	5.64
554.048	5.63
554.391	5.59
554.734	5.5
555.077	5.48
555.42	5.63
555.764	5.59
556.107	5.49
556.45	5.56
556.793	5.6
557.135	5.63
557.478	5.47
557.821	5.6
558.164	5.65
558.507	5.59
558.849	5.76
559.192	5.78
559.534	5.64
559.877	5.75
560.219	5.68
560.562	5.65
560.904	5.63
561.246	5.46
561.589	5.72
561.931	5.38
562.273	5.61
562.615	5.58
562.957	5.45
563.299	5.51
563.641	5.45
563.983	5.72
564.325	5.67
564.667	5.65
565.008	5.77
565.35	5.84
565.692	5.6
566.033	5.4
566.375	5.59
566.716	5.71
567.058	5.63
567.399	5.68
567.741	5.57
568.082	5.47
568.423	5.49
568.764	5.55
569.105	5.65
569.447	5.69
569.788	5.74
570.129	5.67
570.47	5.78
570.811	5.53
571.151	5.58
571.492	5.44
571.833	5.51
572.174	5.72
572.514	5.59
572.855	5.64
573.195	5.58
573.536	5.61
573.876	5.44
574.217	5.58
574.557	5.65
574.898	5.57
575.238	5.85
575.578	5.62
575.918	5.6
576.258	5.72
576.598	5.68
576.938	5.73
577.278	5.62
577.618	5.9
577.958	5.55
578.298	5.63
578.638	5.6
578.977	5.87
579.317	5.77
579.657	5.58
579.996	5.66
580.336	5.84
580.675	5.86
581.014	5.68
581.354	5.75
581.693	5.76
582.032	5.86
582.372	5.8
582.711	5.52
583.05	5.68
583.389	5.73
583.728	5.72
584.067	5.78
584.406	5.78
584.745	5.89
585.083	5.61
585.422	5.78
585.761	5.94
586.1	5.95
586.438	5.79
586.777	5.78
587.115	5.81
587.454	5.9
587.792	5.67
588.13	5.76
588.469	6.02
588.807	5.66
589.145	5.92
589.483	5.74
589.821	5.5
590.159	5.72
590.497	5.71
590.835	5.66
591.173	5.77
591.511	5.65
591.849	5.77
592.187	5.65
592.524	5.92
592.862	5.62
593.2	5.88
593.537	5.87
593.875	5.6
594.212	5.63
594.55	5.6
594.887	5.56
595.224	5.86
595.561	5.71
595.899	5.95
596.236	5.82
596.573	5.9
596.91	5.69
597.247	5.77
597.584	5.66
597.921	5.77
598.258	5.66
598.594	5.79
598.931	5.78
599.268	5.77
599.604	5.73
599.941	5.68
600.277	5.86
600.614	5.71
600.95	5.73
601.287	5.87
601.623	5.76
601.959	5.83
602.296	5.74
602.632	5.54
602.968	6
603.304	5.58
603.64	6
603.976	5.67
604.312	5.84
604.648	5.6
604.984	5.73
605.319	5.76
605.655	5.72
605.991	5.55
606.326	5.7
606.662	5.88
606.998	6.08
607.333	5.67
607.668	5.71
608.004	5.82
608.339	5.75
608.674	5.77
609.01	5.91
609.345	6.02
609.68	5.51
610.015	5.95
610.35	5.8
610.685	5.66
611.02	5.71
611.355	5.68
611.689	5.91
612.024	5.69
612.359	5.6
612.694	5.62
613.028	5.78
613.363	5.81
613.697	5.87
614.032	5.94
614.366	6.06
614.7	5.6
615.035	5.81
615.369	5.74
615.703	5.85
616.037	5.99
616.371	5.81
616.705	5.73
617.039	5.88
617.373	5.66
617.707	5.93
618.041	5.56
618.375	5.8
618.709	5.88
619.042	5.7
619.376	5.81
619.71	5.95
620.043	5.83
620.377	5.81
620.71	5.75
621.043	5.87
621.377	5.45
621.71	5.76
622.043	5.58
622.376	6.07
622.709	6.03
623.043	6.01
623.376	6.26
623.709	5.92
624.041	5.79
624.374	6.07
624.707	5.91
625.04	5.89
625.373	6
625.705	5.84
626.038	6.01
626.37	5.84
626.703	5.98
627.035	5.79
627.368	6.06
627.7	5.83
628.032	5.89
628.365	5.51
628.697	5.99
629.029	6.13
629.361	5.9
629.693	6.08
630.025	6.16
630.357	6.03
630.689	6.03
631.021	6
631.353	6.04
631.684	6
632.016	5.74
632.348	5.86
632.679	5.83
633.011	6.16
633.342	6.03
633.674	5.86
634.005	5.84
634.336	5.9
634.668	5.78
634.999	5.66
635.33	6.34
635.661	5.83
635.992	6.04
636.323	6.28
636.654	5.85
636.985	5.93
637.316	5.95
637.647	6.13
637.977	6.41
638.308	5.74
638.639	6.23
638.969	5.76
639.3	5.73
639.63	6.39
639.961	6.2
640.291	5.68
640.622	6.24
640.952	5.83
641.282	6.17
641.612	6.46
641.943	6.11
642.273	6.2
642.603	5.83
642.933	6.55
643.263	6
643.592	6.08
643.922	5.88
644.252	5.96
644.582	6.06
644.911	6.04
645.241	6.09
645.571	6
645.9	6.16
646.23	5.87
646.559	6.5
646.888	6.49
647.218	5.97
647.547	5.97
647.876	5.74
648.205	6.21
648.534	5.92
648.863	6.31
649.192	6.25
649.521	6.15
649.85	6.3
650.179	5.76
650.508	6.27
650.837	5.86
651.165	6.05
651.494	6.4
651.822	6.13
652.151	6.16
652.479	5.95
652.808	6.21
653.136	5.67
653.465	6.64
653.793	6.35
654.121	6.42
654.449	6.11
654.777	5.84
655.105	6.34
655.433	5.89
655.761	6.42
656.089	6.05
656.417	6.51
656.745	6.32
657.073	6.37
657.4	6.07
657.728	6.13
658.056	6.4
658.383	6.24
658.711	6.45
659.038	6.5
659.365	6.16
659.693	6.29
660.02	6.2
660.347	6.36
660.674	6.6
661.001	6.1
661.329	5.83
661.656	5.91
661.982	6.16
662.309	6.05
662.636	6.56
662.963	5.91
663.29	6.22
663.616	6.11
663.943	6.58
664.27	6.66
664.596	6.39
664.923	6.24
665.249	6.69
665.576	6.32
665.902	6.11
666.228	6.38
666.554	6.44
666.881	6.21
667.207	7
667.533	6.4
667.859	5.72
668.185	6.26
668.511	6.35
668.837	6.56
669.162	6.54
669.488	5.77
669.814	6.48
670.139	6.27
670.465	6.46
670.791	6.94
671.116	6.17
671.442	6.5
671.767	6.64
672.092	5.99
672.418	6.36
672.743	6.41
673.068	5.78
673.393	6.21
673.718	6.1
674.043	5.82
674.368	5.7
674.693	7.14
675.018	6.69
675.343	6.5
675.667	6.48
675.992	6.46
676.317	6.76
676.641	6.25
676.966	6.74
677.29	6.6
677.615	6.17
677.939	6.5
678.264	6.56
678.588	6.63
678.912	6.32
679.236	6.61
679.56	6.5
679.885	6.4
680.209	6.46
680.532	6.4
680.856	6.72
681.18	6.48
681.504	6.45
681.828	6.4
682.152	6.59
682.475	6.5
682.799	6.79
683.122	6.46
683.446	6.06
683.769	6.73
684.093	6.51
684.416	6.64
684.739	6.59
685.062	6.6
685.386	6.63
685.709	6.31
686.032	6.35
686.355	6.51
686.678	6.26
687.001	6.48
687.324	6.73
687.646	5.72
687.969	6.27
688.292	6.51
688.614	6.23
688.937	6.45
689.26	6.11
689.582	6.41
689.904	6.35
690.227	6.41
690.549	7.05
690.871	5.96
691.194	6.61
691.516	5.95
691.838	6.47
692.16	6.92
692.482	6.88
692.804	6.22
693.126	6.91
