Data from 0027_crown_Reflection__2__98.txt Node

Date: Thu Oct 20 21:43:20 CDT 2022
User: ToomeyLab
Spectrometer: FLMS14357
Trigger mode: 0
Integration Time (sec): 1.000000E-2
Scans to average: 100
Electric dark correction enabled: true
Nonlinearity correction enabled: false
Boxcar width: 0
XAxis mode: Wavelengths
Number of Pixels in Spectrum: 2048
>>>>>Begin Spectral Data<<<<<
189.047	91.13
189.435	91.13
189.823	91.13
190.211	-109.39
190.599	-72.79
190.987	-268.73
191.375	64.53
191.763	-125.29
192.151	155.3
192.538	-53.44
192.926	161.43
193.314	34.93
193.702	10.38
194.089	72.52
194.477	168.42
194.864	-5.38
195.252	199.72
195.639	134.01
196.027	-218.91
196.414	114.57
196.801	234.78
197.189	-16.8
197.576	277.72
197.963	-167.83
198.351	20.76
198.738	17.48
199.125	-12.67
199.512	17.57
199.899	-17.63
200.286	20.53
200.673	7.69
201.06	28.08
201.447	16.07
201.833	6.62
202.22	8.17
202.607	0.93
202.994	-22.7
203.38	-30.92
203.767	-0.11
204.154	-11.87
204.54	-28.68
204.927	-7.64
205.313	16.29
205.699	-16.71
206.086	11.08
206.472	21.33
206.858	-12.48
207.245	9.31
207.631	19.16
208.017	3.39
208.403	-62.32
208.789	-12.02
209.175	-6.82
209.561	10.96
209.947	-13.74
210.333	40.85
210.719	-5.24
211.105	-3.19
211.491	0.38
211.876	-36.76
212.262	5.81
212.648	-12.11
213.034	4.21
213.419	-23.64
213.805	-6.31
214.19	-12.62
214.576	-19.44
214.961	-13.63
215.346	-28.37
215.732	4.68
216.117	-29.81
216.502	9.71
216.888	10.07
217.273	-27.2
217.658	5.04
218.043	12.75
218.428	1.5
218.813	25.85
219.198	-10.95
219.583	28.32
219.968	11.67
220.353	-1.99
220.738	1.45
221.122	5.45
221.507	9.48
221.892	-6.27
222.276	0.81
222.661	5.62
223.046	12.26
223.43	-5.95
223.815	7.89
224.199	5.3
224.583	5.73
224.968	10.82
225.352	18.33
225.736	3.64
226.121	0.97
226.505	5.9
226.889	3.2
227.273	5.36
227.657	4.03
228.041	2.35
228.425	3.39
228.809	6.59
229.193	5.05
229.577	4.65
229.961	6.3
230.344	4.97
230.728	4.69
231.112	5.67
231.495	5.06
231.879	5.3
232.263	5.89
232.646	4.62
233.03	4.62
233.413	3.81
233.797	4.44
234.18	4.9
234.563	3.39
234.946	3.99
235.33	5
235.713	5.77
236.096	4.63
236.479	4.87
236.862	4.79
237.245	4
237.628	6.16
238.011	6.15
238.394	6.2
238.777	5.03
239.16	3.6
239.543	3.82
239.925	3.91
240.308	3.99
240.691	5.35
241.073	4.2
241.456	3.96
241.838	5.04
242.221	5.02
242.603	5.04
242.986	6.05
243.368	4.86
243.75	5.37
244.133	5.37
244.515	5.25
244.897	4.36
245.279	4.8
245.661	4.87
246.043	5.25
246.425	5.62
246.807	4.71
247.189	5.36
247.571	5.18
247.953	5
248.335	4.94
248.717	4.72
249.098	4.75
249.48	4.72
249.862	4.74
250.243	4.88
250.625	5.21
251.006	5.21
251.388	4.46
251.769	4.59
252.151	4.59
252.532	3.98
252.913	4.58
253.295	4.62
253.676	4.67
254.057	4.08
254.438	5.45
254.819	4.62
255.2	4.93
255.581	4.71
255.962	5.19
256.343	3.43
256.724	4.26
257.105	3.93
257.486	4.42
257.867	4.47
258.247	4.4
258.628	4.76
259.009	3.98
259.389	5.01
259.77	5.09
260.15	4.6
260.531	4.55
260.911	4.21
261.292	4.61
261.672	4.4
262.052	4.39
262.432	4.68
262.813	4.66
263.193	5.08
263.573	4.43
263.953	4.08
264.333	4.41
264.713	4.61
265.093	4.31
265.473	4.32
265.853	4.79
266.233	4.08
266.612	4.27
266.992	3.65
267.372	4.77
267.752	4.47
268.131	4.59
268.511	4.65
268.89	4.35
269.27	4.24
269.649	4.18
270.029	3.88
270.408	4.02
270.787	4.17
271.167	3.81
271.546	3.7
271.925	4.34
272.304	4.27
272.683	3.93
273.062	4.03
273.441	4.36
273.82	4.51
274.199	3.92
274.578	3.86
274.957	3.87
275.336	4.41
275.715	4.25
276.093	4.84
276.472	4.82
276.851	4.41
277.229	4.02
277.608	3.85
277.986	4.03
278.365	3.8
278.743	4.15
279.122	4.09
279.5	4.1
279.878	4.47
280.257	4.09
280.635	4.42
281.013	3.78
281.391	4.34
281.769	3.81
282.147	3.85
282.525	3.87
282.903	3.96
283.281	3.72
283.659	3.52
284.037	3.53
284.415	3.82
284.792	3.63
285.17	4.24
285.548	3.81
285.925	3.72
286.303	4.05
286.68	4.26
287.058	4
287.435	4.03
287.813	3.88
288.19	3.8
288.567	4.07
288.945	4.27
289.322	3.83
289.699	3.64
290.076	3.67
290.453	3.59
290.83	4.18
291.207	3.98
291.584	3.52
291.961	3.55
292.338	3.71
292.715	3.91
293.092	4.01
293.469	3.9
293.845	3.84
294.222	3.37
294.599	4.27
294.975	3.5
295.352	4.25
295.728	3.68
296.105	4.03
296.481	3.45
296.858	3.97
297.234	3.69
297.61	3.75
297.986	3.78
298.363	3.67
298.739	3.72
299.115	3.85
299.491	3.74
299.867	3.89
300.243	3.48
300.619	3.99
300.995	3.19
301.371	3.59
301.746	3.94
302.122	4.15
302.498	3.59
302.874	3.96
303.249	4.03
303.625	3.12
304	4.18
304.376	3.64
304.751	3.86
305.127	3.13
305.502	4.02
305.878	3.97
306.253	3.49
306.628	3.66
307.003	3.65
307.378	3.03
307.754	4.01
308.129	3.76
308.504	3.55
308.879	3.54
309.254	3.91
309.629	3.3
310.003	3.42
310.378	3.77
310.753	3.84
311.128	3.71
311.502	3.39
311.877	3.82
312.252	3.32
312.626	3.55
313.001	3.97
313.375	3.95
313.75	3.56
314.124	3.46
314.498	3.06
314.873	3.46
315.247	3.93
315.621	3.59
315.995	3.68
316.369	3.99
316.743	3.45
317.117	3.31
317.491	3.79
317.865	3.68
318.239	3.81
318.613	4.47
318.987	3.61
319.361	3.71
319.734	3.36
320.108	3.65
320.482	3.57
320.855	4.08
321.229	3.89
321.602	3.15
321.976	3.3
322.349	3.44
322.723	4
323.096	3.26
323.469	3.73
323.843	4.4
324.216	3.58
324.589	3.84
324.962	3.38
325.335	3.84
325.708	3.81
326.081	3.72
326.454	3.56
326.827	3.73
327.2	3.6
327.573	3.49
327.945	3.7
328.318	3.21
328.691	3.72
329.063	3.8
329.436	3.46
329.809	3.61
330.181	3.95
330.553	3.38
330.926	3.57
331.298	3.05
331.671	3.82
332.043	3.88
332.415	3.88
332.787	4.03
333.159	3.64
333.532	3.48
333.904	3.82
334.276	3.57
334.648	3
335.02	3.58
335.391	3.29
335.763	3.35
336.135	4.03
336.507	3.71
336.879	3.89
337.25	3.23
337.622	3.82
337.993	3.63
338.365	4.3
338.736	3.66
339.108	3.28
339.479	3.71
339.851	3.51
340.222	3.87
340.593	3.94
340.964	4.25
341.336	3.51
341.707	3.39
342.078	3.36
342.449	3.69
342.82	3.58
343.191	3.49
343.562	3.95
343.933	3.5
344.303	3.43
344.674	3.92
345.045	3.78
345.416	3.75
345.786	3.72
346.157	3.76
346.527	3.67
346.898	3.74
347.268	3.52
347.639	3.77
348.009	3.85
348.38	4.04
348.75	3.5
349.12	3.81
349.49	4.01
349.861	3.9
350.231	3.69
350.601	3.89
350.971	4.01
351.341	4.04
351.711	3.95
352.081	3.78
352.45	3.5
352.82	3.61
353.19	3.83
353.56	3.71
353.929	3.55
354.299	4.08
354.669	3.82
355.038	3.77
355.408	3.51
355.777	3.89
356.147	4.09
356.516	3.7
356.885	3.69
357.254	3.85
357.624	3.73
357.993	3.4
358.362	3.76
358.731	3.99
359.1	3.55
359.469	3.84
359.838	3.75
360.207	4.11
360.576	3.68
360.945	3.96
361.314	3.7
361.682	3.97
362.051	3.83
362.42	3.52
362.788	3.66
363.157	3.62
363.525	3.81
363.894	3.97
364.262	3.99
364.631	3.65
364.999	3.63
365.367	3.92
365.735	3.96
366.104	3.78
366.472	3.62
366.84	4.14
367.208	3.88
367.576	3.87
367.944	4.11
368.312	3.73
368.68	4.15
369.048	3.54
369.416	3.74
369.783	3.68
370.151	4.22
370.519	3.94
370.886	3.94
371.254	4.02
371.621	4.03
371.989	3.94
372.356	3.79
372.724	3.99
373.091	3.85
373.458	3.53
373.826	3.52
374.193	3.58
374.56	3.59
374.927	3.82
375.294	3.84
375.661	3.91
376.028	3.95
376.395	4.19
376.762	3.75
377.129	3.65
377.496	3.75
377.863	3.79
378.229	3.82
378.596	3.91
378.963	3.89
379.329	4.2
379.696	3.84
380.062	3.76
380.429	4.4
380.795	3.95
381.161	4.21
381.528	3.89
381.894	3.72
382.26	4.01
382.626	4.15
382.993	4.02
383.359	4.03
383.725	3.89
384.091	4.05
384.457	4.17
384.823	3.99
385.188	4.22
385.554	3.71
385.92	3.99
386.286	4.09
386.651	3.78
387.017	3.85
387.383	4.03
387.748	3.99
388.114	3.88
388.479	4.01
388.845	4.02
389.21	4.17
389.575	4.14
389.94	4.09
390.306	4.13
390.671	3.9
391.036	4.15
391.401	3.78
391.766	4.06
392.131	4.26
392.496	3.82
392.861	3.91
393.226	3.97
393.591	4.17
393.956	4.16
394.32	4.17
394.685	3.99
395.05	3.93
395.414	4.07
395.779	3.92
396.143	4.08
396.508	4.22
396.872	4.15
397.236	3.92
397.601	4.17
397.965	4.08
398.329	4.13
398.694	4.07
399.058	4.13
399.422	3.98
399.786	3.91
400.15	4.05
400.514	4.34
400.878	4.17
401.242	4.03
401.605	4.29
401.969	4.11
402.333	4.2
402.697	4.33
403.06	3.79
403.424	4.12
403.787	4.03
404.151	4.07
404.514	4.17
404.878	4.03
405.241	4.11
405.604	4.19
405.968	4.07
406.331	4.22
406.694	4.04
407.057	4.06
407.42	4.16
407.783	4.25
408.146	4.15
408.509	4.14
408.872	4.13
409.235	3.97
409.598	4.31
409.961	4.07
410.323	4.44
410.686	4.24
411.049	4.17
411.411	3.93
411.774	4.19
412.136	4.22
412.499	4.23
412.861	4.12
413.223	4.19
413.586	4.17
413.948	4.38
414.31	3.89
414.672	4.21
415.035	4.2
415.397	4.16
415.759	4.32
416.121	4.15
416.483	4.06
416.845	4.24
417.206	4.05
417.568	4.18
417.93	3.95
418.292	4.24
418.653	4.19
419.015	4.23
419.377	4.1
419.738	4.12
420.1	4.1
420.461	4.19
420.822	4.16
421.184	4.08
421.545	4.14
421.906	4.12
422.267	4.08
422.629	4.06
422.99	4.11
423.351	4.08
423.712	4.13
424.073	4.08
424.434	4.09
424.795	4.11
425.155	4.12
425.516	4.07
425.877	4.01
426.238	4.1
426.598	4.16
426.959	4.13
427.32	4.26
427.68	4.15
428.041	4.13
428.401	4.2
428.761	4.1
429.122	4.06
429.482	4.12
429.842	4.19
430.202	4.33
430.563	4.15
430.923	4.46
431.283	4.38
431.643	4.34
432.003	4.14
432.363	4.32
432.722	4.49
433.082	4.13
433.442	4.22
433.802	4.31
434.161	4.31
434.521	4.27
434.881	4.18
435.24	4.17
435.6	4.2
435.959	4.27
436.319	4.27
436.678	4.12
437.037	4.33
437.396	4.36
437.756	4.19
438.115	4.23
438.474	4.06
438.833	4.32
439.192	4.17
439.551	4.22
439.91	4.28
440.269	4.35
440.628	4.17
440.987	4.18
441.345	4.32
441.704	4.15
442.063	4.33
442.421	4.17
442.78	4.18
443.138	4.35
443.497	4.23
443.855	4.19
444.214	4.38
444.572	4.39
444.93	4.07
445.288	4.29
445.647	4.21
446.005	4.11
446.363	4.17
446.721	4.13
447.079	4.27
447.437	4.19
447.795	4.21
448.153	4.14
448.51	4.23
448.868	4.27
449.226	4.25
449.584	4.19
449.941	4.28
450.299	4.3
450.656	4.39
451.014	4.28
451.371	4.32
451.729	4.3
452.086	4.4
452.443	4.21
452.801	4.3
453.158	4.28
453.515	4.25
453.872	4.25
454.229	4.3
454.586	4.38
454.943	4.35
455.3	4.46
455.657	4.31
456.014	4.45
456.371	4.17
456.727	4.43
457.084	4.28
457.441	4.36
457.797	4.29
458.154	4.38
458.51	4.14
458.867	4.39
459.223	4.48
459.58	4.21
459.936	4.43
460.292	4.23
460.648	4.16
461.005	4.17
461.361	4.24
461.717	4.3
462.073	4.42
462.429	4.46
462.785	4.48
463.141	4.44
463.496	4.51
463.852	4.36
464.208	4.47
464.564	4.49
464.919	4.45
465.275	4.44
465.631	4.35
465.986	4.3
466.342	4.39
466.697	4.48
467.052	4.4
467.408	4.36
467.763	4.53
468.118	4.54
468.473	4.53
468.829	4.6
469.184	4.3
469.539	4.39
469.894	4.35
470.249	4.54
470.603	4.43
470.958	4.46
471.313	4.43
471.668	4.4
472.023	4.33
472.377	4.35
472.732	4.47
473.086	4.6
473.441	4.53
473.795	4.5
474.15	4.41
474.504	4.24
474.859	4.53
475.213	4.58
475.567	4.48
475.921	4.42
476.275	4.61
476.63	4.46
476.984	4.41
477.338	4.28
477.692	4.4
478.045	4.44
478.399	4.52
478.753	4.32
479.107	4.39
479.461	4.47
479.814	4.41
480.168	4.51
480.521	4.58
480.875	4.38
481.228	4.45
481.582	4.33
481.935	4.46
482.289	4.37
482.642	4.28
482.995	4.43
483.348	4.42
483.701	4.37
484.055	4.32
484.408	4.22
484.761	4.12
485.114	4.02
485.466	4.02
485.819	4.15
486.172	4.25
486.525	4.33
486.878	4.37
487.23	4.41
487.583	4.32
487.936	4.35
488.288	4.28
488.641	4.19
488.993	4.15
489.345	4.24
489.698	4.24
490.05	4.31
490.402	4.43
490.754	4.44
491.107	4.42
491.459	4.42
491.811	4.45
492.163	4.35
492.515	4.31
492.866	4.23
493.218	4.21
493.57	4.3
493.922	4.39
494.274	4.49
494.625	4.52
494.977	4.53
495.328	4.44
495.68	4.43
496.031	4.53
496.383	4.59
496.734	4.48
497.086	4.47
497.437	4.53
497.788	4.52
498.139	4.3
498.49	4.43
498.842	4.45
499.193	4.51
499.544	4.51
499.894	4.52
500.245	4.48
500.596	4.56
500.947	4.38
501.298	4.47
501.648	4.42
501.999	4.6
502.35	4.53
502.7	4.61
503.051	4.69
503.401	4.59
503.752	4.68
504.102	4.52
504.452	4.58
504.803	4.37
505.153	4.52
505.503	4.6
505.853	4.51
506.203	4.6
506.553	4.54
506.903	4.59
507.253	4.64
507.603	4.7
507.953	4.65
508.303	4.59
508.652	4.41
509.002	4.5
509.352	4.53
509.701	4.47
510.051	4.58
510.4	4.46
510.75	4.43
511.099	4.39
511.449	4.57
511.798	4.56
512.147	4.53
512.496	4.65
512.846	4.62
513.195	4.57
513.544	4.47
513.893	4.6
514.242	4.61
514.591	4.73
514.939	4.53
515.288	4.66
515.637	4.62
515.986	4.61
516.334	4.63
516.683	4.49
517.032	4.48
517.38	4.47
517.729	4.6
518.077	4.51
518.426	4.5
518.774	4.57
519.122	4.63
519.47	4.44
519.819	4.43
520.167	4.42
520.515	4.44
520.863	4.44
521.211	4.54
521.559	4.57
521.907	4.51
522.255	4.56
522.602	4.6
522.95	4.58
523.298	4.59
523.645	4.73
523.993	4.58
524.341	4.67
524.688	4.51
525.036	4.55
525.383	4.62
525.73	4.4
526.078	4.55
526.425	4.52
526.772	4.47
527.119	4.35
527.466	4.44
527.814	4.59
528.161	4.5
528.508	4.49
528.854	4.55
529.201	4.47
529.548	4.29
529.895	4.24
530.242	4.23
530.588	4.37
530.935	4.43
531.282	4.43
531.628	4.54
531.975	4.59
532.321	4.55
532.667	4.53
533.014	4.61
533.36	4.48
533.706	4.43
534.052	4.48
534.399	4.42
534.745	4.36
535.091	4.42
535.437	4.42
535.783	4.43
536.129	4.5
536.474	4.61
536.82	4.54
537.166	4.57
537.512	4.55
537.857	4.51
538.203	4.46
538.549	4.45
538.894	4.62
539.239	4.59
539.585	4.62
539.93	4.75
540.276	4.69
540.621	4.53
540.966	4.56
541.311	4.53
541.656	4.6
542.001	4.43
542.346	4.41
542.691	4.29
543.036	4.34
543.381	4.43
543.726	4.45
544.071	4.51
544.415	4.59
544.76	4.44
545.105	4.61
545.449	4.51
545.794	4.68
546.138	4.66
546.483	4.62
546.827	4.62
547.171	4.62
547.516	4.59
547.86	4.51
548.204	4.56
548.548	4.56
548.892	4.61
549.236	4.77
549.58	4.68
549.924	4.72
550.268	4.65
550.612	4.76
550.956	4.6
551.3	4.84
551.643	4.64
551.987	4.81
552.33	4.68
552.674	4.51
553.017	4.6
553.361	4.9
553.704	4.6
554.048	4.71
554.391	4.7
554.734	4.73
555.077	4.6
555.42	4.72
555.764	4.81
556.107	4.6
556.45	4.8
556.793	4.6
557.135	4.76
557.478	4.64
557.821	4.68
558.164	4.72
558.507	4.74
558.849	4.88
559.192	4.61
559.534	4.8
559.877	4.85
560.219	4.82
560.562	4.83
560.904	4.62
561.246	4.79
561.589	4.92
561.931	4.53
562.273	4.75
562.615	4.72
562.957	4.59
563.299	4.69
563.641	4.67
563.983	4.88
564.325	4.6
564.667	4.66
565.008	4.79
565.35	4.92
565.692	4.67
566.033	4.52
566.375	4.71
566.716	4.68
567.058	4.55
567.399	4.72
567.741	4.51
568.082	4.78
568.423	4.69
568.764	4.57
569.105	4.73
569.447	4.74
569.788	4.78
570.129	4.98
570.47	4.77
570.811	4.47
571.151	4.62
571.492	4.72
571.833	4.56
572.174	4.74
572.514	4.61
572.855	4.77
573.195	4.7
573.536	4.64
573.876	4.63
574.217	4.54
574.557	4.69
574.898	4.61
575.238	4.93
575.578	4.69
575.918	4.74
576.258	4.68
576.598	4.72
576.938	4.7
577.278	4.6
577.618	4.89
577.958	4.82
578.298	4.68
578.638	4.65
578.977	4.93
579.317	4.66
579.657	4.79
579.996	4.95
580.336	4.87
580.675	5.1
581.014	4.8
581.354	4.58
581.693	4.75
582.032	4.89
582.372	4.75
582.711	4.57
583.05	4.9
583.389	4.72
583.728	4.93
584.067	4.81
584.406	4.71
584.745	4.68
585.083	4.58
585.422	4.92
585.761	4.93
586.1	4.83
586.438	4.82
586.777	4.88
587.115	4.9
587.454	4.88
587.792	4.71
588.13	4.77
588.469	4.95
588.807	4.68
589.145	4.91
589.483	4.75
589.821	4.77
590.159	4.64
590.497	4.92
590.835	4.75
591.173	4.75
591.511	4.91
591.849	4.75
592.187	4.65
592.524	4.86
592.862	4.86
593.2	4.94
593.537	4.85
593.875	4.76
594.212	4.57
594.55	4.77
594.887	4.68
595.224	4.8
595.561	4.74
595.899	4.83
596.236	4.81
596.573	4.91
596.91	4.79
597.247	4.72
597.584	4.64
597.921	4.64
598.258	4.68
598.594	4.65
598.931	4.78
599.268	4.65
599.604	4.83
599.941	4.9
600.277	4.77
600.614	4.83
600.95	4.75
601.287	4.77
601.623	4.79
601.959	4.88
602.296	4.66
602.632	4.58
602.968	4.88
603.304	4.55
603.64	5.04
603.976	4.77
604.312	4.83
604.648	4.71
604.984	4.45
605.319	4.48
605.655	4.84
605.991	4.6
606.326	4.77
606.662	4.7
606.998	4.86
607.333	4.82
607.668	4.67
608.004	4.65
608.339	4.79
608.674	4.89
609.01	4.9
609.345	4.75
609.68	4.44
610.015	4.95
610.35	4.84
610.685	4.79
611.02	4.53
611.355	4.67
611.689	4.73
612.024	4.78
612.359	4.78
612.694	4.69
613.028	4.71
613.363	4.94
613.697	4.74
614.032	5.22
614.366	4.99
614.7	4.72
615.035	4.72
615.369	4.77
615.703	4.87
616.037	4.73
616.371	4.66
616.705	4.43
617.039	4.8
617.373	4.69
617.707	4.97
618.041	4.49
618.375	4.72
618.709	4.61
619.042	4.64
619.376	4.88
619.71	4.93
620.043	4.71
620.377	4.79
620.71	4.77
621.043	4.83
621.377	4.26
621.71	4.55
622.043	4.69
622.376	5.18
622.709	5.13
623.043	4.96
623.376	5.16
623.709	4.69
624.041	4.81
624.374	4.97
624.707	4.83
625.04	5.2
625.373	4.67
625.705	4.8
626.038	4.94
626.37	4.48
626.703	4.91
627.035	5
627.368	4.78
627.7	4.79
628.032	4.76
628.365	5.01
628.697	4.92
629.029	4.87
629.361	4.73
629.693	5.04
630.025	5.06
630.357	4.97
630.689	4.83
631.021	4.86
631.353	4.83
631.684	4.78
632.016	4.57
632.348	4.76
632.679	4.77
633.011	5.06
633.342	4.89
633.674	4.81
634.005	4.78
634.336	4.84
634.668	4.65
634.999	4.64
635.33	4.77
635.661	4.58
635.992	5.13
636.323	5.24
636.654	4.98
636.985	5.22
637.316	4.77
637.647	4.93
637.977	5.21
638.308	4.9
638.639	5.19
638.969	4.84
639.3	4.82
639.63	4.95
639.961	4.77
640.291	4.63
640.622	5.09
640.952	5.13
641.282	5.11
641.612	5.33
641.943	4.89
642.273	5.28
642.603	4.83
642.933	4.76
643.263	5.07
643.592	5.15
643.922	5.1
644.252	5.06
644.582	4.96
644.911	5.21
645.241	5.11
645.571	4.66
645.9	5.31
646.23	4.78
646.559	4.81
646.888	4.92
647.218	4.84
647.547	4.85
647.876	4.84
648.205	4.86
648.534	5
648.863	4.95
649.192	5.16
649.521	5.09
649.85	5.33
650.179	4.64
650.508	5.28
650.837	5.19
651.165	4.65
651.494	5.21
651.822	5.2
652.151	5.35
652.479	4.89
652.808	5.14
653.136	4.97
653.465	5
653.793	5.1
654.121	5.22
654.449	5.44
654.777	4.77
655.105	5.26
655.433	4.89
655.761	5.13
656.089	4.8
656.417	5.46
656.745	5.31
657.073	4.9
657.4	5.19
657.728	4.93
658.056	5.34
658.383	5.03
658.711	5.19
659.038	5.2
659.365	4.7
659.693	5.18
660.02	4.95
660.347	5.01
660.674	5.03
661.001	4.89
661.329	4.85
661.656	4.71
661.982	5.29
662.309	4.99
662.636	5.07
662.963	5.1
663.29	5.01
663.616	5.08
663.943	5.55
664.27	5.14
664.596	4.94
664.923	4.73
665.249	5.2
665.576	5.69
665.902	5.43
666.228	4.89
666.554	4.85
666.881	5.42
667.207	5.39
667.533	5.27
667.859	5.08
668.185	5.59
668.511	5.24
668.837	4.88
669.162	4.85
669.488	4.89
669.814	5.47
670.139	5.37
670.465	4.69
670.791	5.63
671.116	5.54
671.442	4.94
671.767	5.21
672.092	5.06
672.418	4.91
672.743	4.71
673.068	4.95
673.393	5.11
673.718	5.13
674.043	5.08
674.368	5.15
674.693	5.09
675.018	5.41
675.343	5.25
675.667	5.4
675.992	5.26
676.317	5.37
676.641	5.59
676.966	5.1
677.29	5.27
677.615	5.17
677.939	5.4
678.264	5.42
678.588	5.55
678.912	5.69
679.236	5.54
679.56	5.34
679.885	4.81
680.209	5.1
680.532	5.37
680.856	5.51
681.18	5.35
681.504	5.15
681.828	5.29
682.152	5.68
682.475	4.86
682.799	5.37
683.122	5.44
683.446	5.29
683.769	5.55
684.093	5.33
684.416	4.92
684.739	5.24
685.062	5.04
685.386	5.47
685.709	5.03
686.032	5.04
686.355	5.29
686.678	5.04
687.001	5.17
687.324	5.13
687.646	5.29
687.969	4.63
688.292	5.05
688.614	5.15
688.937	4.96
689.26	4.97
689.582	5.37
689.904	5.21
690.227	5.15
690.549	5.69
690.871	4.46
691.194	5.22
691.516	4.68
691.838	5.06
692.16	5.6
692.482	5.76
