Data from 21-10_forehead_Reflection__1__56.txt Node

Date: Thu Dec 15 16:52:47 CST 2022
User: ToomeyLab
Spectrometer: FLMS14357
Trigger mode: 0
Integration Time (sec): 1.000000E-2
Scans to average: 100
Electric dark correction enabled: true
Nonlinearity correction enabled: false
Boxcar width: 0
XAxis mode: Wavelengths
Number of Pixels in Spectrum: 2048
>>>>>Begin Spectral Data<<<<<
189.047	85.75
189.435	85.75
189.823	85.75
190.211	-145.88
190.599	13.57
190.987	329.86
191.375	313.88
191.763	55.38
192.151	148.61
192.538	140.43
192.926	323.99
193.314	252.62
193.702	145.79
194.089	-83.87
194.477	7.38
194.864	64.25
195.252	91.06
195.639	30.81
196.027	6393.75
196.414	342.69
196.801	-6.64
197.189	233.1
197.576	-1610.63
197.963	-103.44
198.351	30.86
198.738	26.32
199.125	-15.56
199.512	19.35
199.899	30.81
200.286	-40.17
200.673	57.04
201.06	11.24
201.447	40.78
201.833	33.82
202.22	49.93
202.607	59.29
202.994	60.01
203.38	13.67
203.767	38.7
204.154	37.2
204.54	39.41
204.927	32.85
205.313	65.96
205.699	38.35
206.086	46.59
206.472	31.73
206.858	36.19
207.245	26.8
207.631	26.51
208.017	44.91
208.403	37.41
208.789	24.35
209.175	14.43
209.561	-42.77
209.947	60.15
210.333	-2.91
210.719	31.19
211.105	83.59
211.491	35.16
211.876	1.91
212.262	9.01
212.648	30.16
213.034	15.55
213.419	17.24
213.805	51.22
214.19	16.51
214.576	5.45
214.961	44.51
215.346	2.68
215.732	23.03
216.117	34.57
216.502	56.07
216.888	28.39
217.273	31.19
217.658	-7.59
218.043	14.58
218.428	11.17
218.813	45.37
219.198	2.01
219.583	24.09
219.968	30.43
220.353	-7.41
220.738	16.14
221.122	9.41
221.507	-1.61
221.892	2.69
222.276	-7.9
222.661	7.8
223.046	6.82
223.43	9.71
223.815	15.71
224.199	8.2
224.583	4.89
224.968	4.91
225.352	6.13
225.736	15.75
226.121	4.91
226.505	2.91
226.889	9.2
227.273	3.07
227.657	6.28
228.041	5.95
228.425	5.42
228.809	6.45
229.193	6.98
229.577	6.93
229.961	3.97
230.344	5.31
230.728	5.31
231.112	5.08
231.495	3.59
231.879	4.96
232.263	6.12
232.646	3.97
233.03	5.69
233.413	4.91
233.797	5.08
234.18	7.97
234.563	6.47
234.946	3.69
235.33	5.18
235.713	5.48
236.096	6.1
236.479	5.42
236.862	4.09
237.245	4.99
237.628	5.83
238.011	5.72
238.394	5.29
238.777	4.87
239.16	5.11
239.543	5.6
239.925	5.78
240.308	5.32
240.691	6.68
241.073	3.88
241.456	4.19
241.838	4.23
242.221	5.28
242.603	5.08
242.986	4.86
243.368	4.69
243.75	4.59
244.133	4.97
244.515	4.81
244.897	5.02
245.279	4.41
245.661	5.02
246.043	5.73
246.425	5.9
246.807	5.36
247.189	5.38
247.571	4.81
247.953	4.69
248.335	4.61
248.717	4.89
249.098	4.65
249.48	4.67
249.862	5.03
250.243	4.94
250.625	5.19
251.006	5.11
251.388	4.78
251.769	4.79
252.151	6.14
252.532	5.23
252.913	4.76
253.295	4.75
253.676	5.22
254.057	5.04
254.438	5.16
254.819	4.95
255.2	6.27
255.581	5.94
255.962	5.71
256.343	6.41
256.724	6.27
257.105	4.3
257.486	5.29
257.867	4.77
258.247	4.97
258.628	5.62
259.009	5.4
259.389	4.7
259.77	5.1
260.15	5.64
260.531	5.24
260.911	4.9
261.292	4.93
261.672	4.85
262.052	5.01
262.432	4.6
262.813	4.83
263.193	5.67
263.573	4.94
263.953	4.72
264.333	5.15
264.713	5.29
265.093	5.8
265.473	5.03
265.853	5.03
266.233	5.5
266.612	5.2
266.992	5.24
267.372	6
267.752	5.83
268.131	5.28
268.511	4.91
268.89	5.45
269.27	4.61
269.649	4.78
270.029	4.94
270.408	4.53
270.787	5.2
271.167	5.21
271.546	5.48
271.925	5.11
272.304	5.21
272.683	4.72
273.062	4.82
273.441	4.66
273.82	5.04
274.199	4.9
274.578	5.24
274.957	4.82
275.336	5.3
275.715	5.28
276.093	4.98
276.472	4.63
276.851	4.95
277.229	4.99
277.608	4.58
277.986	5.01
278.365	5.66
278.743	5.1
279.122	4.77
279.5	4.97
279.878	4.33
280.257	4.99
280.635	5.72
281.013	4.84
281.391	4.94
281.769	5.53
282.147	5.4
282.525	4.77
282.903	4.36
283.281	4.96
283.659	5.27
284.037	4.69
284.415	4.69
284.792	5.13
285.17	4.54
285.548	5.1
285.925	5.1
286.303	5.43
286.68	4.81
287.058	4.88
287.435	4.88
287.813	5.14
288.19	4.75
288.567	4.9
288.945	5.2
289.322	5.26
289.699	5.29
290.076	5.13
290.453	5.17
290.83	5.31
291.207	5.72
291.584	5.59
291.961	5.44
292.338	5.42
292.715	5.66
293.092	5.68
293.469	5.76
293.845	5.92
294.222	6.53
294.599	5.87
294.975	5.47
295.352	6.47
295.728	6.02
296.105	6.1
296.481	6.39
296.858	6.18
297.234	6.22
297.61	6.33
297.986	6.48
298.363	6.58
298.739	6.49
299.115	6.47
299.491	6.68
299.867	6.43
300.243	6.5
300.619	6.69
300.995	6.97
301.371	6.96
301.746	6.81
302.122	6.6
302.498	7.56
302.874	6.96
303.249	7.43
303.625	7.06
304	7.63
304.376	8.26
304.751	8.13
305.127	7.94
305.502	7.79
305.878	7.74
306.253	8.05
306.628	8.12
307.003	8.33
307.378	8.62
307.754	8.69
308.129	8.66
308.504	9.11
308.879	8.77
309.254	8.46
309.629	9.08
310.003	9.11
310.378	9.61
310.753	9.69
311.128	8.7
311.502	9.36
311.877	9.88
312.252	9.96
312.626	10.16
313.001	10.09
313.375	10.38
313.75	10.32
314.124	10.34
314.498	10.8
314.873	10.5
315.247	10.73
315.621	10.44
315.995	10.89
316.369	10.9
316.743	11.59
317.117	11.68
317.491	11.28
317.865	10.98
318.239	12.32
318.613	12.04
318.987	11.27
319.361	12.21
319.734	12.34
320.108	12.2
320.482	12.76
320.855	12.76
321.229	12.41
321.602	12.92
321.976	12.4
322.349	13.52
322.723	13.44
323.096	13.58
323.469	13.38
323.843	13.2
324.216	13.6
324.589	13.25
324.962	13.52
325.335	13.73
325.708	13.88
326.081	14.33
326.454	14.26
326.827	14.21
327.2	13.98
327.573	14.14
327.945	14.6
328.318	14.7
328.691	14.49
329.063	14.74
329.436	14.68
329.809	15.65
330.181	15.97
330.553	15.43
330.926	15.84
331.298	15.7
331.671	15.85
332.043	15.59
332.415	15.79
332.787	15.62
333.159	16.38
333.532	16
333.904	16.06
334.276	16.48
334.648	16.54
335.02	15.99
335.391	16.01
335.763	16.8
336.135	16.96
336.507	16.65
336.879	16.96
337.25	16.87
337.622	16.94
337.993	17.09
338.365	17.22
338.736	17.03
339.108	16.98
339.479	17.74
339.851	17.64
340.222	17.69
340.593	17.81
340.964	17.71
341.336	17.92
341.707	17.66
342.078	17.79
342.449	18.04
342.82	18.62
343.191	18.22
343.562	18.29
343.933	18.13
344.303	18.43
344.674	18.64
345.045	18.63
345.416	19.24
345.786	18.79
346.157	18.75
346.527	18.86
346.898	18.91
347.268	18.69
347.639	19.04
348.009	19.44
348.38	18.96
348.75	19.6
349.12	19.63
349.49	19.59
349.861	20.04
350.231	19.54
350.601	19.64
350.971	19.57
351.341	20.01
351.711	20.01
352.081	20.14
352.45	20.18
352.82	20.21
353.19	20.48
353.56	20.42
353.929	20.86
354.299	20.7
354.669	20.76
355.038	20.97
355.408	20.81
355.777	21.14
356.147	20.75
356.516	20.95
356.885	20.78
357.254	20.72
357.624	21.02
357.993	21.14
358.362	21.15
358.731	21.38
359.1	21.14
359.469	21.69
359.838	21.65
360.207	21.52
360.576	22.02
360.945	21.95
361.314	21.82
361.682	22.19
362.051	22.13
362.42	22.25
362.788	22.32
363.157	22.14
363.525	22.22
363.894	22.17
364.262	22.6
364.631	22.93
364.999	22.77
365.367	22.59
365.735	22.46
366.104	23.02
366.472	22.79
366.84	23.03
367.208	22.99
367.576	23.37
367.944	23.38
368.312	23.31
368.68	23.41
369.048	23.45
369.416	23.42
369.783	23.38
370.151	23.91
370.519	23.81
370.886	24.16
371.254	23.79
371.621	24.19
371.989	24.31
372.356	24.19
372.724	24.02
373.091	24.07
373.458	24.45
373.826	24.59
374.193	24.51
374.56	24.69
374.927	24.7
375.294	24.85
375.661	24.67
376.028	25.14
376.395	25.04
376.762	24.96
377.129	24.89
377.496	25.23
377.863	25.35
378.229	25.63
378.596	25.32
378.963	25.44
379.329	25.4
379.696	25.64
380.062	25.7
380.429	25.27
380.795	26.06
381.161	25.61
381.528	25.41
381.894	25.66
382.26	26.07
382.626	26.13
382.993	26.3
383.359	26.33
383.725	26.16
384.091	26.13
384.457	26.33
384.823	26.14
385.188	26.59
385.554	26.67
385.92	26.59
386.286	26.72
386.651	26.9
387.017	27.16
387.383	27.11
387.748	27.12
388.114	27.22
388.479	26.88
388.845	26.83
389.21	27.34
389.575	27.55
389.94	27.79
390.306	27.44
390.671	27.7
391.036	27.57
391.401	27.44
391.766	27.63
392.131	27.58
392.496	27.58
392.861	27.65
393.226	27.5
393.591	27.88
393.956	27.92
394.32	27.98
394.685	28.06
395.05	28.07
395.414	28.22
395.779	28.3
396.143	28.24
396.508	28.37
396.872	28.21
397.236	28.52
397.601	28.64
397.965	28.48
398.329	28.85
398.694	28.82
399.058	28.79
399.422	28.71
399.786	28.91
400.15	28.96
400.514	29.05
400.878	29.11
401.242	29.1
401.605	29.08
401.969	29.08
402.333	29.16
402.697	29.25
403.06	29.14
403.424	29.38
403.787	29.68
404.151	29.36
404.514	29.68
404.878	29.56
405.241	29.49
405.604	29.21
405.968	29.4
406.331	29.62
406.694	29.48
407.057	29.58
407.42	29.72
407.783	29.79
408.146	29.65
408.509	29.94
408.872	30.02
409.235	30.23
409.598	30.1
409.961	30.21
410.323	29.87
410.686	30.12
411.049	30.23
411.411	30.32
411.774	30.36
412.136	30.12
412.499	30.57
412.861	30.37
413.223	30.39
413.586	30.77
413.948	30.82
414.31	30.8
414.672	30.98
415.035	31.06
415.397	30.95
415.759	30.88
416.121	31.06
416.483	30.96
416.845	30.95
417.206	31.07
417.568	31.05
417.93	31.04
418.292	31.1
418.653	30.95
419.015	31.14
419.377	30.93
419.738	31.11
420.1	31.06
420.461	31.05
420.822	31.2
421.184	31.27
421.545	31.26
421.906	31.25
422.267	31.13
422.629	31.18
422.99	31.23
423.351	31.3
423.712	31.53
424.073	31.68
424.434	31.99
424.795	31.67
425.155	31.78
425.516	31.6
425.877	31.65
426.238	31.89
426.598	32.05
426.959	32.1
427.32	32.3
427.68	32.6
428.041	32.75
428.401	32.77
428.761	32.85
429.122	33.17
429.482	33.12
429.842	33.32
430.202	33.22
430.563	33.36
430.923	33.34
431.283	33.61
431.643	33.43
432.003	33.56
432.363	33.54
432.722	33.83
433.082	33.69
433.442	33.8
433.802	33.91
434.161	33.79
434.521	33.69
434.881	33.93
435.24	33.8
435.6	34.07
435.959	34.05
436.319	34.24
436.678	34.49
437.037	34.35
437.396	34.66
437.756	34.56
438.115	34.44
438.474	34.84
438.833	34.72
439.192	34.51
439.551	34.66
439.91	34.82
440.269	34.78
440.628	34.73
440.987	34.92
441.345	34.82
441.704	34.79
442.063	34.77
442.421	34.98
442.78	34.98
443.138	35.16
443.497	35.18
443.855	35.53
444.214	35.35
444.572	35.7
444.93	35.64
445.288	35.57
445.647	35.75
446.005	35.75
446.363	35.5
446.721	35.57
447.079	35.46
447.437	35.42
447.795	35.42
448.153	35.34
448.51	35.79
448.868	35.77
449.226	35.94
449.584	35.95
449.941	36.37
450.299	36.33
450.656	36.42
451.014	36.6
451.371	36.68
451.729	36.75
452.086	36.92
452.443	36.85
452.801	36.89
453.158	37.07
453.515	36.71
453.872	36.94
454.229	37.03
454.586	37
454.943	37.04
455.3	37.4
455.657	37.23
456.014	37.36
456.371	37.52
456.727	37.55
457.084	37.91
457.441	37.54
457.797	37.86
458.154	37.9
458.51	37.88
458.867	37.79
459.223	37.87
459.58	37.84
459.936	37.85
460.292	37.73
460.648	37.68
461.005	37.52
461.361	37.44
461.717	37.47
462.073	37.64
462.429	37.85
462.785	38.14
463.141	38.28
463.496	38.61
463.852	38.58
464.208	38.55
464.564	38.8
464.919	38.9
465.275	39.17
465.631	39.17
465.986	39.17
466.342	38.98
466.697	39.12
467.052	39.25
467.408	39.03
467.763	39.2
468.118	38.84
468.473	39.1
468.829	39.25
469.184	39.4
469.539	39.28
469.894	39.42
470.249	39.65
470.603	39.53
470.958	39.52
471.313	39.78
471.668	39.61
472.023	40.01
472.377	39.89
472.732	39.99
473.086	39.87
473.441	39.82
473.795	40.3
474.15	40.03
474.504	40.23
474.859	39.94
475.213	40.26
475.567	40.13
475.921	40.53
476.275	40.58
476.63	40.61
476.984	40.4
477.338	40.7
477.692	40.52
478.045	40.46
478.399	40.43
478.753	40.61
479.107	40.82
479.461	40.64
479.814	40.72
480.168	40.88
480.521	40.85
480.875	40.82
481.228	40.84
481.582	40.91
481.935	40.99
482.289	41.01
482.642	41.1
482.995	40.91
483.348	40.82
483.701	40.6
484.055	40.78
484.408	40.63
484.761	40.28
485.114	40.27
485.466	40.25
485.819	40.39
486.172	40.56
486.525	40.82
486.878	40.75
487.23	40.9
487.583	41.04
487.936	41.06
488.288	40.9
488.641	40.65
488.993	40.75
489.345	40.84
489.698	40.9
490.05	41
490.402	41.22
490.754	41.33
491.107	41.78
491.459	41.77
491.811	41.87
492.163	41.86
492.515	41.56
492.866	41.35
493.218	41.18
493.57	41.48
493.922	41.61
494.274	41.83
494.625	42.18
494.977	42.41
495.328	42.58
495.68	42.82
496.031	43.02
496.383	42.9
496.734	42.91
497.086	43.07
497.437	43.12
497.788	42.98
498.139	42.75
498.49	42.81
498.842	42.94
499.193	42.93
499.544	42.97
499.894	43.01
500.245	43.2
500.596	43.41
500.947	43.23
501.298	43.35
501.648	43.57
501.999	43.75
502.35	43.8
502.7	43.64
503.051	43.7
503.401	43.82
503.752	43.82
504.102	43.9
504.452	44.21
504.803	44.02
505.153	44.01
505.503	44.2
505.853	44.04
506.203	44.33
506.553	44.08
506.903	44.26
507.253	44.37
507.603	44.52
507.953	44.6
508.303	44.58
508.652	44.46
509.002	44.38
509.352	44.59
509.701	44.27
510.051	44.27
510.4	44.25
510.75	44.17
511.099	44.24
511.449	44.53
511.798	44.39
512.147	44.64
512.496	44.73
512.846	44.69
513.195	44.73
513.544	44.73
513.893	44.73
514.242	44.77
514.591	44.81
514.939	45.14
515.288	45.08
515.637	45.28
515.986	45.21
516.334	45.26
516.683	45.4
517.032	45.48
517.38	45.28
517.729	45.43
518.077	45.62
518.426	45.32
518.774	45.36
519.122	45.31
519.47	45.38
519.819	45.25
520.167	45.1
520.515	45.18
520.863	45.18
521.211	45.39
521.559	45.48
521.907	45.78
522.255	45.67
522.602	45.75
522.95	46.1
523.298	45.64
523.645	45.98
523.993	46.15
524.341	46.21
524.688	46.11
525.036	46.24
525.383	46.24
525.73	46.18
526.078	46.15
526.425	46.11
526.772	46.02
527.119	45.86
527.466	45.84
527.814	45.99
528.161	45.96
528.508	46.15
528.854	46.06
529.201	45.9
529.548	45.71
529.895	45.56
530.242	45.69
530.588	45.84
530.935	45.84
531.282	45.93
531.628	46.07
531.975	46.12
532.321	46.54
532.667	46.51
533.014	46.57
533.36	46.55
533.706	46.79
534.052	46.63
534.399	46.43
534.745	46.33
535.091	46.19
535.437	46.34
535.783	46.63
536.129	46.67
536.474	47.03
536.82	47.07
537.166	47.1
537.512	47.36
537.857	47.02
538.203	46.82
538.549	47.14
538.894	47.31
539.239	47.39
539.585	47.68
539.93	47.56
540.276	47.84
540.621	47.93
540.966	47.93
541.311	48.02
541.656	47.77
542.001	47.58
542.346	47.13
542.691	47.07
543.036	47.01
543.381	47.22
543.726	47.25
544.071	47.39
544.415	47.66
544.76	47.77
545.105	47.91
545.449	47.87
545.794	48.19
546.138	48.31
546.483	48.18
546.827	48.16
547.171	48.28
547.516	48.44
547.86	48.39
548.204	48.22
548.548	48.31
548.892	48.52
549.236	48.65
549.58	48.79
549.924	48.93
550.268	48.93
550.612	49.14
550.956	49.26
551.3	49.45
551.643	49.09
551.987	49.38
552.33	49.57
552.674	49.7
553.017	49.66
553.361	49.45
553.704	49.31
554.048	49.44
554.391	49.33
554.734	49.23
555.077	49.48
555.42	49.63
555.764	49.69
556.107	49.79
556.45	49.96
556.793	49.96
557.135	49.93
557.478	49.81
557.821	50.16
558.164	49.79
558.507	50.02
558.849	50.16
559.192	50.2
559.534	50.12
559.877	50.25
560.219	50.24
560.562	50.36
560.904	50.62
561.246	50.51
561.589	50.53
561.931	50.46
562.273	50.67
562.615	50.5
562.957	50.13
563.299	50.34
563.641	50.83
563.983	50.77
564.325	50.45
564.667	50.56
565.008	50.91
565.35	50.77
565.692	50.82
566.033	50.72
566.375	50.84
566.716	50.82
567.058	50.65
567.399	50.94
567.741	50.8
568.082	50.77
568.423	50.86
568.764	51.06
569.105	51.1
569.447	51.26
569.788	50.94
570.129	51.05
570.47	51.26
570.811	51.3
571.151	51.1
571.492	51.44
571.833	51.4
572.174	51.39
572.514	51.46
572.855	51.28
573.195	51.26
573.536	51.3
573.876	51.23
574.217	51.23
574.557	51.4
574.898	51.42
575.238	51.32
575.578	51.46
575.918	51.89
576.258	51.82
576.598	51.65
576.938	51.69
577.278	51.89
577.618	51.96
577.958	52.07
578.298	52.19
578.638	51.87
578.977	52.12
579.317	52.26
579.657	52.14
579.996	52.56
580.336	52.42
580.675	52.68
581.014	52.45
581.354	52.38
581.693	52.44
582.032	52.93
582.372	52.24
582.711	52.81
583.05	52.44
583.389	52.93
583.728	52.77
584.067	52.78
584.406	52.93
584.745	52.88
585.083	52.88
585.422	53.07
585.761	52.79
586.1	53.02
586.438	53.1
586.777	53.18
587.115	53.43
587.454	53.11
587.792	53.09
588.13	53.08
588.469	53.06
588.807	53.46
589.145	53.19
589.483	53.31
589.821	53.15
590.159	53.45
590.497	53.43
590.835	53.26
591.173	53.43
591.511	53.51
591.849	53.53
592.187	53.21
592.524	53.54
592.862	53.35
593.2	53.3
593.537	53.42
593.875	53.31
594.212	53.82
594.55	53.79
594.887	54.11
595.224	54.04
595.561	54.08
595.899	53.78
596.236	53.69
596.573	53.84
596.91	53.93
597.247	54.19
597.584	54.15
597.921	54.01
598.258	53.92
598.594	53.69
598.931	53.68
599.268	53.97
599.604	53.85
599.941	54.1
600.277	54.56
600.614	54.15
600.95	54.38
601.287	54.5
601.623	54.19
601.959	54.77
602.296	54.46
602.632	54.81
602.968	54.52
603.304	54.53
603.64	54.51
603.976	54.65
604.312	54.46
604.648	54.79
604.984	54.22
605.319	54.43
605.655	54.42
605.991	54.33
606.326	54.19
606.662	54.74
606.998	54.78
607.333	54.63
607.668	54.7
608.004	54.76
608.339	54.78
608.674	55.2
609.01	55.24
609.345	55.27
609.68	55.12
610.015	55.25
610.35	55.13
610.685	54.77
611.02	54.97
611.355	54.99
611.689	55.35
612.024	55.13
612.359	55.21
612.694	55.16
613.028	55.42
613.363	55.56
613.697	55.58
614.032	55.41
614.366	55.29
614.7	55.76
615.035	55.62
615.369	55.83
615.703	55.82
616.037	55.98
616.371	55.57
616.705	55.25
617.039	55.51
617.373	56.03
617.707	55.92
618.041	55.88
618.375	55.17
618.709	56.23
619.042	56.2
619.376	56.06
619.71	55.87
620.043	56.03
620.377	56.26
620.71	56.04
621.043	56.32
621.377	55.87
621.71	56.62
622.043	56.3
622.376	56.16
622.709	56.88
623.043	56.1
623.376	56.39
623.709	56.32
624.041	55.87
624.374	56.94
624.707	56.62
625.04	56.48
625.373	56.7
625.705	56.44
626.038	56.5
626.37	57.07
626.703	56.4
627.035	56.89
627.368	56.41
627.7	56.78
628.032	56.88
628.365	56.82
628.697	56.73
629.029	56.73
629.361	56.55
629.693	56.5
630.025	57.01
630.357	56.91
630.689	56.84
631.021	57.09
631.353	57.22
631.684	56.7
632.016	57.01
632.348	56.75
632.679	57.22
633.011	57.47
633.342	57.09
633.674	57.61
634.005	57.33
634.336	57.44
634.668	57.43
634.999	57.46
635.33	57.4
635.661	57.33
635.992	57.19
636.323	57.42
636.654	57.45
636.985	57.29
637.316	57.7
637.647	57.32
637.977	57.6
638.308	57.34
638.639	57.57
638.969	57.61
639.3	57.91
639.63	58.23
639.961	57.38
640.291	57.48
640.622	57.39
640.952	57.88
641.282	57.66
641.612	57.86
641.943	57.2
642.273	57.57
642.603	57.47
642.933	58.09
643.263	58.16
643.592	58.58
643.922	57.89
644.252	58.26
644.582	57.96
644.911	57.99
645.241	57.73
645.571	58.44
645.9	57.8
646.23	57.9
646.559	58.07
646.888	58.16
647.218	58.34
647.547	58.75
647.876	58.55
648.205	58.33
648.534	58.57
648.863	58.52
649.192	58.79
649.521	58.43
649.85	58.62
650.179	58.19
650.508	58.25
650.837	58.5
651.165	58.76
651.494	58.51
651.822	58.25
652.151	58.74
652.479	58.33
652.808	57.93
653.136	58.02
653.465	57.94
653.793	58.03
654.121	58.63
654.449	58.46
654.777	58.63
655.105	58.41
655.433	59.28
655.761	58.42
656.089	58.66
656.417	58.75
656.745	58.99
657.073	58.51
657.4	59.11
657.728	58.71
658.056	58.23
658.383	58.77
658.711	58.78
659.038	58.99
659.365	58.63
659.693	58.65
660.02	59.3
660.347	59.44
660.674	59.06
661.001	58.73
661.329	58.9
661.656	58.48
661.982	58.57
662.309	58.97
662.636	59.65
662.963	59.64
663.29	59
663.616	59.6
663.943	59.07
664.27	59.32
664.596	59.06
664.923	59.57
665.249	59.23
665.576	59.66
665.902	59.71
666.228	59.46
666.554	59.83
666.881	59.02
667.207	59.81
667.533	59.76
667.859	59.4
668.185	59.53
668.511	59.58
668.837	59.38
