Data from 21-10_forehead_Reflection__2__57.txt Node

Date: Thu Dec 15 16:53:00 CST 2022
User: ToomeyLab
Spectrometer: FLMS14357
Trigger mode: 0
Integration Time (sec): 1.000000E-2
Scans to average: 100
Electric dark correction enabled: true
Nonlinearity correction enabled: false
Boxcar width: 0
XAxis mode: Wavelengths
Number of Pixels in Spectrum: 2048
>>>>>Begin Spectral Data<<<<<
189.047	80.67
189.435	80.67
189.823	80.67
190.211	55.63
190.599	40.27
190.987	-315.51
191.375	-219.63
191.763	75.12
192.151	56.86
192.538	296.44
192.926	249.41
193.314	25.33
193.702	-233.02
194.089	31.76
194.477	59.81
194.864	125.78
195.252	206.81
195.639	81.53
196.027	27618.75
196.414	427.26
196.801	-60.09
197.189	237.32
197.576	-128.13
197.963	-144.67
198.351	23.79
198.738	21.76
199.125	-25.43
199.512	47.96
199.899	-60.17
200.286	42.06
200.673	63.9
201.06	-6.86
201.447	46.42
201.833	16.88
202.22	18.39
202.607	8.75
202.994	5.55
203.38	16.45
203.767	20.41
204.154	33.44
204.54	27.41
204.927	40.74
205.313	28.71
205.699	22.53
206.086	36.61
206.472	39.21
206.858	-16.24
207.245	46.82
207.631	11.35
208.017	35.32
208.403	8.93
208.789	15.64
209.175	4.63
209.561	-17.52
209.947	31.64
210.333	12.12
210.719	23.91
211.105	47.65
211.491	31.68
211.876	28.02
212.262	40.72
212.648	4.34
213.034	1.18
213.419	5.32
213.805	0.64
214.19	-8.93
214.576	3.64
214.961	15.14
215.346	-7.96
215.732	9.59
216.117	29.07
216.502	20.42
216.888	10.76
217.273	8.12
217.658	29.27
218.043	4.82
218.428	13.96
218.813	15.66
219.198	-15.55
219.583	8.82
219.968	15.5
220.353	-23.76
220.738	8.39
221.122	8.32
221.507	-2.73
221.892	-13
222.276	-12.3
222.661	3.87
223.046	6.47
223.43	12.56
223.815	14.03
224.199	6.71
224.583	0.51
224.968	2.48
225.352	1.02
225.736	9.75
226.121	-0.55
226.505	3.91
226.889	9.08
227.273	1.14
227.657	6.42
228.041	3.64
228.425	3.53
228.809	3.17
229.193	3.71
229.577	2.97
229.961	3.29
230.344	4.02
230.728	4.08
231.112	3.57
231.495	1.87
231.879	4.49
232.263	5.19
232.646	3.14
233.03	5.4
233.413	3.8
233.797	3.47
234.18	3.48
234.563	3.93
234.946	3.51
235.33	3.91
235.713	4.4
236.096	3.9
236.479	3.99
236.862	3.99
237.245	4.54
237.628	3.87
238.011	3.28
238.394	3.63
238.777	3.84
239.16	4.53
239.543	4.97
239.925	4.14
240.308	3.06
240.691	1.6
241.073	3.23
241.456	3.62
241.838	3.58
242.221	3.09
242.603	3.95
242.986	4.03
243.368	3.49
243.75	3.36
244.133	3.6
244.515	3.33
244.897	3.56
245.279	3.88
245.661	3.25
246.043	3.57
246.425	4.22
246.807	3.61
247.189	3.54
247.571	3.92
247.953	3.31
248.335	3.68
248.717	3.54
249.098	3.5
249.48	3.55
249.862	3.74
250.243	3.67
250.625	3.94
251.006	4.29
251.388	4
251.769	3.32
252.151	4.3
252.532	4.19
252.913	3.69
253.295	3.94
253.676	4.01
254.057	3.68
254.438	3.75
254.819	3.92
255.2	5.31
255.581	5.38
255.962	4.66
256.343	5.5
256.724	4.14
257.105	4.76
257.486	1.93
257.867	4.01
258.247	4.22
258.628	4.54
259.009	3.62
259.389	3.89
259.77	3.63
260.15	4.73
260.531	3.85
260.911	3.58
261.292	3.77
261.672	3.78
262.052	3.87
262.432	3.74
262.813	4.28
263.193	4.12
263.573	4.75
263.953	4.28
264.333	3.8
264.713	4.44
265.093	4.17
265.473	3.37
265.853	4.68
266.233	3.77
266.612	3.18
266.992	4.9
267.372	4.74
267.752	3.89
268.131	3.68
268.511	3.81
268.89	4.75
269.27	3.58
269.649	3.45
270.029	3.96
270.408	3.82
270.787	4.03
271.167	4.02
271.546	4.5
271.925	4.29
272.304	3.73
272.683	3.71
273.062	3.65
273.441	3.58
273.82	3.62
274.199	3.67
274.578	3.99
274.957	4.03
275.336	3.87
275.715	4.07
276.093	3.1
276.472	3.14
276.851	3.47
277.229	4.36
277.608	3.34
277.986	3.84
278.365	4.1
278.743	4.01
279.122	4.11
279.5	4.12
279.878	3.7
280.257	3.65
280.635	3.73
281.013	3.43
281.391	4.03
281.769	4.29
282.147	3.53
282.525	3.47
282.903	3.89
283.281	4.61
283.659	4.11
284.037	4.1
284.415	4.04
284.792	3.99
285.17	3.88
285.548	3.63
285.925	3.75
286.303	4.21
286.68	4.21
287.058	4
287.435	3.77
287.813	3.78
288.19	3.58
288.567	3.58
288.945	4.04
289.322	4.45
289.699	4.36
290.076	4.25
290.453	3.79
290.83	4.3
291.207	4.13
291.584	4.44
291.961	4.04
292.338	4.33
292.715	4.23
293.092	5.27
293.469	4.64
293.845	5.02
294.222	5.14
294.599	5.02
294.975	3.82
295.352	4.91
295.728	4.69
296.105	4.86
296.481	5.37
296.858	4.81
297.234	4.86
297.61	4.79
297.986	5.52
298.363	5.11
298.739	5.34
299.115	5.23
299.491	5.69
299.867	5.48
300.243	5.59
300.619	5.5
300.995	5.93
301.371	5.99
301.746	5.9
302.122	5.14
302.498	6.02
302.874	6.12
303.249	6.31
303.625	5.77
304	6.53
304.376	7.12
304.751	6.67
305.127	6.29
305.502	6.84
305.878	6.43
306.253	6.58
306.628	6.75
307.003	7.09
307.378	6.55
307.754	7.29
308.129	6.87
308.504	7.24
308.879	7.64
309.254	7.76
309.629	7.77
310.003	7.48
310.378	8.11
310.753	7.59
311.128	7.75
311.502	7.89
311.877	8.21
312.252	8.41
312.626	8.48
313.001	8.32
313.375	8.77
313.75	8.68
314.124	9.13
314.498	8.84
314.873	8.87
315.247	9.23
315.621	9.5
315.995	9.2
316.369	9.37
316.743	9.46
317.117	9.33
317.491	10.32
317.865	9.46
318.239	10.14
318.613	9.89
318.987	9.79
319.361	10.25
319.734	10.5
320.108	10.78
320.482	10.65
320.855	10.38
321.229	10.63
321.602	11.03
321.976	10.47
322.349	11.35
322.723	11.18
323.096	11.6
323.469	11.27
323.843	10.92
324.216	11.54
324.589	11.64
324.962	11.43
325.335	11.48
325.708	11.52
326.081	11.84
326.454	12.22
326.827	12.1
327.2	11.62
327.573	12.6
327.945	12.21
328.318	12.32
328.691	12.86
329.063	12.42
329.436	12.56
329.809	13.18
330.181	13.3
330.553	12.89
330.926	12.88
331.298	13.01
331.671	13.45
332.043	13.37
332.415	13.92
332.787	13.66
333.159	13.54
333.532	14.02
333.904	14.06
334.276	14
334.648	14.27
335.02	14.16
335.391	13.73
335.763	14.26
336.135	14.46
336.507	14.67
336.879	14.58
337.25	14.51
337.622	15.07
337.993	14.56
338.365	14.77
338.736	14.77
339.108	15.43
339.479	15.05
339.851	15.1
340.222	15.46
340.593	15.05
340.964	15.64
341.336	15.32
341.707	15.29
342.078	15.45
342.449	15.55
342.82	15.79
343.191	15.85
343.562	15.7
343.933	15.9
344.303	16.09
344.674	15.9
345.045	16.19
345.416	15.8
345.786	16.26
346.157	16.72
346.527	16.43
346.898	16.4
347.268	16.43
347.639	16.74
348.009	16.62
348.38	16.91
348.75	16.81
349.12	17.03
349.49	16.72
349.861	16.84
350.231	16.8
350.601	17.37
350.971	17.19
351.341	17.27
351.711	17.21
352.081	17.07
352.45	17.09
352.82	17.44
353.19	17.55
353.56	17.37
353.929	17.93
354.299	17.89
354.669	17.91
355.038	18.06
355.408	18
355.777	17.86
356.147	18.08
356.516	18.16
356.885	17.99
357.254	17.96
357.624	18.05
357.993	18.7
358.362	18.43
358.731	18.84
359.1	18.52
359.469	18.54
359.838	18.72
360.207	18.63
360.576	19.07
360.945	18.71
361.314	18.86
361.682	18.86
362.051	18.98
362.42	19.2
362.788	19.39
363.157	19.08
363.525	19.03
363.894	18.93
364.262	19.49
364.631	19.79
364.999	19.58
365.367	19.9
365.735	19.74
366.104	19.71
366.472	19.88
366.84	19.94
367.208	19.99
367.576	20.19
367.944	20.27
368.312	20.09
368.68	20.38
369.048	20.19
369.416	20.21
369.783	20.22
370.151	20.75
370.519	21.12
370.886	20.58
371.254	20.67
371.621	20.92
371.989	21.02
372.356	20.93
372.724	20.91
373.091	20.71
373.458	20.75
373.826	21.52
374.193	21
374.56	21.1
374.927	21.27
375.294	21.6
375.661	21.46
376.028	21.44
376.395	22.01
376.762	21.4
377.129	21.56
377.496	21.58
377.863	21.75
378.229	21.88
378.596	21.92
378.963	21.9
379.329	21.89
379.696	21.87
380.062	22.29
380.429	21.83
380.795	22.3
381.161	21.81
381.528	21.87
381.894	22.19
382.26	22.32
382.626	22.43
382.993	22.68
383.359	22.67
383.725	22.25
384.091	22.72
384.457	22.54
384.823	22.72
385.188	22.74
385.554	23.1
385.92	22.68
386.286	23.13
386.651	23.19
387.017	23.25
387.383	23.06
387.748	23.12
388.114	23.13
388.479	22.99
388.845	23.14
389.21	23.54
389.575	23.38
389.94	23.7
390.306	23.47
390.671	23.69
391.036	23.7
391.401	23.76
391.766	23.68
392.131	23.96
392.496	23.72
392.861	23.72
393.226	23.63
393.591	23.81
393.956	23.92
394.32	24.19
394.685	24.21
395.05	24.11
395.414	24.31
395.779	24.09
396.143	23.97
396.508	24.2
396.872	24.38
397.236	24.74
397.601	24.67
397.965	24.35
398.329	24.83
398.694	24.7
399.058	24.88
399.422	24.55
399.786	24.64
400.15	24.72
400.514	24.98
400.878	24.75
401.242	24.99
401.605	25.02
401.969	25.05
402.333	25.05
402.697	25.46
403.06	25.01
403.424	25.14
403.787	25.04
404.151	25.21
404.514	25.26
404.878	25.39
405.241	25.29
405.604	25.23
405.968	25.33
406.331	25.41
406.694	25.51
407.057	25.3
407.42	25.48
407.783	25.45
408.146	25.84
408.509	25.74
408.872	25.82
409.235	26.21
409.598	25.8
409.961	25.81
410.323	25.94
410.686	25.99
411.049	26.04
411.411	26.13
411.774	26.07
412.136	26.07
412.499	26.37
412.861	26.13
413.223	26.27
413.586	26.23
413.948	26.51
414.31	26.55
414.672	26.34
415.035	26.77
415.397	26.56
415.759	26.23
416.121	26.83
416.483	26.51
416.845	26.56
417.206	26.35
417.568	26.53
417.93	26.85
418.292	26.49
418.653	26.52
419.015	26.51
419.377	26.52
419.738	26.5
420.1	26.48
420.461	26.57
420.822	26.82
421.184	26.71
421.545	26.62
421.906	26.65
422.267	26.61
422.629	26.51
422.99	26.6
423.351	26.72
423.712	26.75
424.073	27.02
424.434	27.32
424.795	27.04
425.155	26.86
425.516	26.92
425.877	26.93
426.238	26.93
426.598	27.29
426.959	27.26
427.32	27.58
427.68	27.64
428.041	27.66
428.401	27.54
428.761	27.89
429.122	27.87
429.482	28.04
429.842	28.19
430.202	28.23
430.563	27.93
430.923	28.36
431.283	28.63
431.643	28.24
432.003	28.49
432.363	28.4
432.722	28.44
433.082	28.49
433.442	28.52
433.802	28.52
434.161	28.44
434.521	28.39
434.881	28.54
435.24	28.46
435.6	28.52
435.959	28.63
436.319	28.85
436.678	29.01
437.037	29.02
437.396	28.91
437.756	29.02
438.115	29.05
438.474	29.07
438.833	28.97
439.192	28.97
439.551	29.25
439.91	29.18
440.269	29.2
440.628	29.01
440.987	29.21
441.345	29.14
441.704	29.25
442.063	29.23
442.421	29.17
442.78	29.52
443.138	29.39
443.497	29.37
443.855	29.6
444.214	29.72
444.572	29.85
444.93	29.91
445.288	29.81
445.647	29.84
446.005	30
446.363	29.75
446.721	29.77
447.079	29.61
447.437	29.53
447.795	29.6
448.153	29.53
448.51	29.55
448.868	29.74
449.226	30.04
449.584	30.09
449.941	30.17
450.299	30.19
450.656	30.44
451.014	30.74
451.371	30.68
451.729	30.65
452.086	30.83
452.443	30.92
452.801	30.89
453.158	30.85
453.515	30.58
453.872	30.55
454.229	30.62
454.586	30.71
454.943	30.93
455.3	30.96
455.657	30.87
456.014	31.25
456.371	31.18
456.727	31.15
457.084	31.2
457.441	31.38
457.797	31.31
458.154	31.45
458.51	31.29
458.867	31.61
459.223	31.46
459.58	31.52
459.936	31.37
460.292	31.22
460.648	31.28
461.005	30.99
461.361	30.78
461.717	30.96
462.073	31.33
462.429	31.51
462.785	31.69
463.141	31.71
463.496	31.91
463.852	32.09
464.208	32.08
464.564	32.14
464.919	32.24
465.275	32.15
465.631	32.23
465.986	32.56
466.342	32.07
466.697	32.24
467.052	32.56
467.408	32.32
467.763	32.32
468.118	32.18
468.473	32.4
468.829	32.27
469.184	32.56
469.539	32.41
469.894	32.64
470.249	32.87
470.603	32.59
470.958	32.65
471.313	32.7
471.668	32.63
472.023	32.8
472.377	32.76
472.732	32.86
473.086	32.97
473.441	32.86
473.795	33.03
474.15	33.13
474.504	32.89
474.859	32.88
475.213	33.31
475.567	33.02
475.921	33.53
476.275	33.31
476.63	33.5
476.984	33.28
477.338	33.44
477.692	33.36
478.045	33.41
478.399	33.16
478.753	33.32
479.107	33.6
479.461	33.37
479.814	33.38
480.168	33.6
480.521	33.63
480.875	33.72
481.228	33.55
481.582	33.54
481.935	33.63
482.289	33.54
482.642	33.71
482.995	33.43
483.348	33.36
483.701	33.42
484.055	33.37
484.408	33.21
484.761	32.91
485.114	32.56
485.466	32.55
485.819	32.74
486.172	33.08
486.525	33.41
486.878	33.44
487.23	33.74
487.583	33.78
487.936	33.62
488.288	33.36
488.641	33.01
488.993	32.99
489.345	33.24
489.698	33.29
490.05	33.5
490.402	33.76
490.754	33.97
491.107	34.19
491.459	34.39
491.811	34.3
492.163	34.1
492.515	33.94
492.866	33.61
493.218	33.26
493.57	33.68
493.922	33.88
494.274	34.36
494.625	34.63
494.977	34.84
495.328	34.83
495.68	35.12
496.031	35.2
496.383	35.14
496.734	35.2
497.086	35.39
497.437	35.15
497.788	35.02
498.139	34.75
498.49	34.93
498.842	34.97
499.193	35.1
499.544	35.19
499.894	35.32
500.245	35.19
500.596	35.26
500.947	35.48
501.298	35.44
501.648	35.52
501.999	35.76
502.35	35.63
502.7	35.84
503.051	35.7
503.401	35.83
503.752	35.71
504.102	35.8
504.452	35.99
504.803	35.84
505.153	35.98
505.503	35.91
505.853	35.97
506.203	36.09
506.553	35.9
506.903	35.97
507.253	36.11
507.603	36.34
507.953	36.24
508.303	36.24
508.652	36.2
509.002	36.27
509.352	36.36
509.701	36.12
510.051	36.15
510.4	35.91
510.75	35.89
511.099	36.08
511.449	36.21
511.798	36.11
512.147	36.39
512.496	36.41
512.846	36.46
513.195	36.47
513.544	36.4
513.893	36.25
514.242	36.36
514.591	36.66
514.939	36.7
515.288	36.71
515.637	36.79
515.986	36.9
516.334	36.95
516.683	37.13
517.032	36.89
517.38	36.85
517.729	37.05
518.077	37.23
518.426	37
518.774	36.8
519.122	36.75
519.47	36.66
519.819	36.61
520.167	36.61
520.515	36.59
520.863	36.54
521.211	36.79
521.559	37.13
521.907	37.19
522.255	37.11
522.602	37.14
522.95	37.49
523.298	37.5
523.645	37.47
523.993	37.61
524.341	37.53
524.688	37.45
525.036	37.68
525.383	37.63
525.73	37.67
526.078	37.34
526.425	37.57
526.772	37.22
527.119	37.09
527.466	37.1
527.814	37.16
528.161	37.41
528.508	37.52
528.854	37.4
529.201	37.21
529.548	36.79
529.895	36.6
530.242	36.63
530.588	36.8
530.935	37.03
531.282	37.31
531.628	37.49
531.975	37.57
532.321	37.82
532.667	37.87
533.014	37.89
533.36	37.76
533.706	37.91
534.052	37.77
534.399	37.38
534.745	37.28
535.091	37.3
535.437	37.55
535.783	37.82
536.129	38.21
536.474	38.4
536.82	38.34
537.166	38.35
537.512	38.41
537.857	38.11
538.203	37.78
538.549	38.06
538.894	38.24
539.239	38.49
539.585	38.67
539.93	38.68
540.276	38.96
540.621	38.95
540.966	39.11
541.311	38.95
541.656	38.57
542.001	38.37
542.346	38.01
542.691	37.7
543.036	37.69
543.381	37.88
543.726	38.17
544.071	38.7
544.415	38.57
544.76	38.74
545.105	38.65
545.449	38.78
545.794	39.05
546.138	39.16
546.483	39.12
546.827	39.11
547.171	39.12
547.516	39.06
547.86	39.1
548.204	39.12
548.548	38.97
548.892	39.08
549.236	39.34
549.58	39.78
549.924	39.6
550.268	39.75
550.612	40.08
550.956	39.89
551.3	40.3
551.643	40.01
551.987	40.13
552.33	40.13
552.674	40.06
553.017	40.27
553.361	40.12
553.704	39.97
554.048	39.98
554.391	39.86
554.734	39.76
555.077	39.96
555.42	40.28
555.764	40.34
556.107	40.47
556.45	40.47
556.793	40.45
557.135	40.61
557.478	40.24
557.821	40.6
558.164	40.3
558.507	40.6
558.849	40.77
559.192	40.57
559.534	40.72
559.877	40.8
560.219	40.9
560.562	40.8
560.904	41
561.246	40.87
561.589	40.87
561.931	40.69
562.273	40.81
562.615	40.73
562.957	40.9
563.299	40.89
563.641	41.12
563.983	40.6
564.325	41.05
564.667	41.11
565.008	41.37
565.35	41.06
565.692	41.35
566.033	41.29
566.375	40.97
566.716	41.06
567.058	40.78
567.399	41.15
567.741	40.84
568.082	40.75
568.423	40.99
568.764	41.02
569.105	41.15
569.447	41.29
569.788	41.33
570.129	41.24
570.47	41.46
570.811	41.43
571.151	41.41
571.492	41.63
571.833	41.52
572.174	41.45
572.514	41.36
572.855	41.57
573.195	41.47
573.536	41.32
573.876	41.23
574.217	41.57
574.557	41.37
574.898	41.66
575.238	41.94
575.578	41.9
575.918	41.64
576.258	41.76
576.598	41.64
576.938	41.57
577.278	41.8
577.618	41.96
577.958	42.13
578.298	42.27
578.638	42.08
578.977	42.33
579.317	42.18
579.657	42.1
579.996	42.56
580.336	42.23
580.675	42.42
581.014	42.38
581.354	42.43
581.693	42.52
582.032	42.4
582.372	42.3
582.711	42.66
583.05	42.53
583.389	43.01
583.728	42.73
584.067	42.72
584.406	42.8
584.745	42.63
585.083	42.67
585.422	42.87
585.761	43.32
586.1	42.85
586.438	42.64
586.777	42.89
587.115	43.06
587.454	42.78
587.792	42.94
588.13	42.64
588.469	43.1
588.807	43.19
589.145	43.02
589.483	42.87
589.821	43
590.159	42.98
590.497	43.06
590.835	43.02
591.173	43.33
591.511	43.19
591.849	43
592.187	43.12
592.524	43.26
592.862	42.78
593.2	43.31
593.537	43.04
593.875	43.44
594.212	43.17
594.55	43.59
594.887	43.24
595.224	43.73
595.561	43.16
595.899	43.37
596.236	43.24
596.573	43.12
596.91	43.44
597.247	43.4
597.584	43.28
597.921	43.61
598.258	43.22
598.594	42.91
598.931	43.11
599.268	43.29
599.604	43.55
599.941	43.74
600.277	44.1
600.614	44.01
600.95	43.68
601.287	43.71
601.623	44.02
601.959	43.83
602.296	43.88
602.632	44.25
602.968	43.99
603.304	44.14
603.64	44.06
603.976	44.06
604.312	44.02
604.648	43.96
604.984	43.53
605.319	43.69
605.655	43.95
605.991	43.53
606.326	43.44
606.662	43.5
606.998	43.81
607.333	43.98
607.668	43.95
608.004	44.31
608.339	44.15
608.674	44.38
609.01	44.43
609.345	44.22
609.68	44.39
610.015	44.32
610.35	44.36
610.685	43.95
611.02	43.79
611.355	43.79
611.689	44.22
612.024	44.16
612.359	44.23
612.694	44.53
613.028	44.95
613.363	44.83
613.697	45.07
614.032	44.67
614.366	44.64
614.7	44.96
615.035	44.87
615.369	44.83
615.703	45.05
616.037	45.08
616.371	44.77
616.705	44.89
617.039	44.68
617.373	45.07
617.707	44.9
618.041	44.9
618.375	44.6
618.709	44.97
619.042	44.89
619.376	45.23
619.71	45
620.043	45.56
620.377	45.13
620.71	45.54
621.043	45.42
621.377	44.96
621.71	45.61
622.043	44.92
622.376	45.33
622.709	45.47
623.043	45.26
623.376	44.86
623.709	45.42
624.041	45.02
624.374	45.17
624.707	45.64
625.04	45.11
625.373	45.28
625.705	45.41
626.038	45.12
626.37	45.69
626.703	45.72
627.035	45.22
627.368	45.4
627.7	45.35
628.032	45.31
628.365	45.43
628.697	45.69
629.029	45.47
629.361	45.38
629.693	45.53
630.025	45.86
630.357	45.71
630.689	45.66
631.021	45.78
631.353	46.08
631.684	45.82
632.016	45.78
632.348	45.65
632.679	45.83
633.011	46.03
633.342	45.95
633.674	45.91
634.005	46
634.336	46.23
634.668	46.22
634.999	45.77
635.33	46.12
635.661	45.66
635.992	45.65
636.323	46.25
636.654	46.27
636.985	46.14
637.316	46.17
637.647	46.22
637.977	46.5
638.308	46.38
638.639	46.03
638.969	46.01
639.3	46.22
639.63	46.3
639.961	46.49
640.291	46.08
640.622	46.06
640.952	46.39
641.282	46.11
641.612	46.39
641.943	46.41
642.273	45.76
642.603	46.19
642.933	46.37
643.263	46.93
643.592	46.96
643.922	46.62
644.252	46.99
644.582	47.1
644.911	46.32
645.241	46.15
645.571	46.51
645.9	46.59
646.23	46.19
646.559	46.45
646.888	47.05
647.218	46.76
647.547	46.62
647.876	46.54
648.205	46.35
648.534	46.38
648.863	46.49
649.192	47.08
649.521	46.72
649.85	46.98
650.179	46.38
650.508	46.75
650.837	46.83
651.165	46.95
651.494	46.84
651.822	46.48
652.151	46.6
652.479	46.74
652.808	46.98
653.136	46.13
653.465	46.78
653.793	47.16
654.121	46.67
654.449	46.93
654.777	46.74
655.105	46.33
655.433	47.42
655.761	46.98
656.089	46.92
656.417	47.21
656.745	46.95
657.073	46.64
657.4	47.42
657.728	46.68
658.056	47.12
658.383	46.99
658.711	47.13
659.038	47.04
659.365	46.93
659.693	46.76
660.02	47.25
660.347	46.99
660.674	47
661.001	46.83
661.329	47.07
661.656	46.68
661.982	47.34
662.309	47.38
662.636	47.18
662.963	47.93
663.29	47.47
663.616	47.7
663.943	47.59
664.27	47.51
664.596	47.23
664.923	47.35
665.249	47.05
665.576	47.72
665.902	47.38
666.228	46.74
666.554	47.94
666.881	46.57
667.207	47.45
667.533	47.48
667.859	47.87
668.185	47.25
668.511	48.45
668.837	47.11
669.162	47.39
669.488	47.02
