Data from 21-10_crown_Reflection__4__54.txt Node

Date: Thu Dec 15 16:51:56 CST 2022
User: ToomeyLab
Spectrometer: FLMS14357
Trigger mode: 0
Integration Time (sec): 1.000000E-2
Scans to average: 100
Electric dark correction enabled: true
Nonlinearity correction enabled: false
Boxcar width: 0
XAxis mode: Wavelengths
Number of Pixels in Spectrum: 2048
>>>>>Begin Spectral Data<<<<<
189.047	183.17
189.435	183.17
189.823	183.17
190.211	-3.25
190.599	-7.65
190.987	-361.57
191.375	-154.75
191.763	-13.95
192.151	252.23
192.538	140.03
192.926	236.22
193.314	90.55
193.702	42.12
194.089	-92.92
194.477	63.25
194.864	93.7
195.252	64.37
195.639	68.52
196.027	20262.5
196.414	64.63
196.801	4.94
197.189	194.55
197.576	506.25
197.963	-13.69
198.351	34.29
198.738	-21.95
199.125	-37.98
199.512	28.24
199.899	-55.41
200.286	-66.97
200.673	22.98
201.06	5.82
201.447	-5.74
201.833	31.59
202.22	42.27
202.607	-2.72
202.994	1.14
203.38	-0.32
203.767	-22.06
204.154	29.19
204.54	11.49
204.927	39.33
205.313	13.54
205.699	22.11
206.086	30.85
206.472	55.08
206.858	17.95
207.245	31.41
207.631	12.38
208.017	39.62
208.403	-17.01
208.789	52.31
209.175	8.75
209.561	-45.61
209.947	-36.74
210.333	0.33
210.719	36.33
211.105	19.22
211.491	7.66
211.876	-13.16
212.262	15.13
212.648	4
213.034	-4.58
213.419	-15.02
213.805	0.59
214.19	-18.3
214.576	-2.79
214.961	39.86
215.346	-4.61
215.732	7.74
216.117	14.67
216.502	31.12
216.888	11.85
217.273	13
217.658	-3.07
218.043	7.72
218.428	-2.46
218.813	3.48
219.198	-18.26
219.583	12.33
219.968	17.69
220.353	-2.86
220.738	-11.21
221.122	15.51
221.507	5.58
221.892	-20.96
222.276	-16.01
222.661	-4.87
223.046	-3.67
223.43	17.64
223.815	10.17
224.199	2.72
224.583	-2.59
224.968	0.43
225.352	-4.42
225.736	6.7
226.121	2.61
226.505	1.12
226.889	-2.08
227.273	-2.23
227.657	5.61
228.041	2.13
228.425	-2.44
228.809	2.69
229.193	4.42
229.577	2.35
229.961	3.05
230.344	2.92
230.728	3.09
231.112	3.12
231.495	1.71
231.879	2.62
232.263	2.31
232.646	2.22
233.03	3.09
233.413	1.85
233.797	-0.2
234.18	2.2
234.563	4.47
234.946	2.39
235.33	3.21
235.713	3.31
236.096	4.59
236.479	4.32
236.862	1.67
237.245	1.55
237.628	4.47
238.011	3.03
238.394	1.18
238.777	3.12
239.16	3.27
239.543	2.53
239.925	3.92
240.308	1.87
240.691	0.28
241.073	2.4
241.456	2.31
241.838	2.35
242.221	2.76
242.603	2.86
242.986	2.53
243.368	2.43
243.75	2.55
244.133	2.85
244.515	2.53
244.897	1.83
245.279	2.4
245.661	3.23
246.043	2.43
246.425	2.58
246.807	2.1
247.189	2.13
247.571	2.29
247.953	2.39
248.335	2.23
248.717	2.52
249.098	2.51
249.48	2.41
249.862	2.22
250.243	2.36
250.625	2.43
251.006	3.25
251.388	2.43
251.769	1.78
252.151	3.52
252.532	1.4
252.913	2.69
253.295	2.07
253.676	2.38
254.057	2.34
254.438	2.43
254.819	3.39
255.2	2.58
255.581	3.72
255.962	3.49
256.343	3.13
256.724	2.05
257.105	3.01
257.486	1.03
257.867	1.97
258.247	2.19
258.628	3.11
259.009	1.91
259.389	1.68
259.77	2.23
260.15	2.68
260.531	2.28
260.911	2.18
261.292	2.44
261.672	2.23
262.052	2.36
262.432	2.13
262.813	2.41
263.193	2.74
263.573	2.25
263.953	2.17
264.333	2.5
264.713	2.55
265.093	2.57
265.473	1.95
265.853	2.67
266.233	2.83
266.612	2.38
266.992	2.18
267.372	2.54
267.752	2.76
268.131	2.2
268.511	1.98
268.89	2.67
269.27	1.85
269.649	2.48
270.029	2.35
270.408	1.68
270.787	2.23
271.167	2.81
271.546	2.61
271.925	2.5
272.304	2.22
272.683	2.07
273.062	2.25
273.441	2.12
273.82	2.46
274.199	2.18
274.578	2.16
274.957	2.14
275.336	2.47
275.715	2.1
276.093	2.11
276.472	2.01
276.851	2.98
277.229	2.52
277.608	2.35
277.986	3.03
278.365	2.72
278.743	2.19
279.122	2.16
279.5	2.31
279.878	1.81
280.257	2.08
280.635	2.46
281.013	1.73
281.391	2.36
281.769	2.42
282.147	2.17
282.525	2.09
282.903	2.07
283.281	2.2
283.659	2.52
284.037	1.94
284.415	2.34
284.792	2.17
285.17	1.98
285.548	2.38
285.925	1.88
286.303	2.89
286.68	2.42
287.058	2.47
287.435	1.98
287.813	2.37
288.19	1.98
288.567	1.85
288.945	1.71
289.322	2.34
289.699	2.54
290.076	2.24
290.453	1.74
290.83	2.24
291.207	2.14
291.584	2.58
291.961	2.4
292.338	2.57
292.715	1.84
293.092	2.19
293.469	2.16
293.845	2.26
294.222	2.39
294.599	1.75
294.975	1.8
295.352	2.29
295.728	2.4
296.105	2.2
296.481	2.81
296.858	2.34
297.234	1.96
297.61	2.34
297.986	2.8
298.363	2.63
298.739	2.64
299.115	2.38
299.491	2.56
299.867	2.26
300.243	2.46
300.619	2.17
300.995	2.26
301.371	2.05
301.746	2.47
302.122	1.97
302.498	2.14
302.874	2.52
303.249	2.5
303.625	1.93
304	2.56
304.376	2.97
304.751	2.55
305.127	2.25
305.502	2.6
305.878	2.76
306.253	2.51
306.628	2.58
307.003	2.43
307.378	2.66
307.754	2.43
308.129	2.52
308.504	2.55
308.879	2.35
309.254	3.03
309.629	2.47
310.003	2.17
310.378	2.54
310.753	2.56
311.128	2.13
311.502	2.31
311.877	2.27
312.252	2.43
312.626	3.11
313.001	2.65
313.375	2.62
313.75	2.58
314.124	2.94
314.498	2.81
314.873	2.39
315.247	2.1
315.621	2.18
315.995	2.17
316.369	2.11
316.743	2.35
317.117	2.48
317.491	2.73
317.865	2.21
318.239	3.1
318.613	2.78
318.987	1.89
319.361	2.35
319.734	2.55
320.108	2.66
320.482	2.53
320.855	2.5
321.229	2.29
321.602	2.57
321.976	1.75
322.349	3.02
322.723	2.27
323.096	2.53
323.469	2.2
323.843	1.98
324.216	2.62
324.589	2.85
324.962	2.33
325.335	2.63
325.708	2.82
326.081	2.46
326.454	2.67
326.827	2.48
327.2	2.01
327.573	2.73
327.945	2.26
328.318	2.29
328.691	2.63
329.063	2.42
329.436	2.62
329.809	2.77
330.181	3.02
330.553	3.19
330.926	2.81
331.298	2.47
331.671	3.17
332.043	2.88
332.415	2.37
332.787	2.33
333.159	2.24
333.532	2.91
333.904	2.67
334.276	2.63
334.648	2.52
335.02	2.68
335.391	2.34
335.763	2.79
336.135	2.54
336.507	2.15
336.879	2.6
337.25	2.6
337.622	2.62
337.993	2.34
338.365	2.87
338.736	2.55
339.108	2.58
339.479	2.36
339.851	2.55
340.222	2.89
340.593	2.27
340.964	2.58
341.336	2.68
341.707	2.55
342.078	2.34
342.449	2.62
342.82	3.47
343.191	2.75
343.562	2.63
343.933	2.43
344.303	2.96
344.674	2.48
345.045	2.67
345.416	3.13
345.786	2.49
346.157	3.06
346.527	2.89
346.898	2.24
347.268	2.59
347.639	2.25
348.009	2.75
348.38	2.58
348.75	2.88
349.12	2.55
349.49	2.78
349.861	2.81
350.231	2.46
350.601	2.69
350.971	2.63
351.341	2.66
351.711	2.84
352.081	2.28
352.45	2.54
352.82	2.51
353.19	2.58
353.56	2.54
353.929	2.67
354.299	3
354.669	2.59
355.038	3.02
355.408	2.59
355.777	2.69
356.147	2.71
356.516	2.56
356.885	2.64
357.254	2.29
357.624	2.33
357.993	2.72
358.362	2.56
358.731	2.59
359.1	2.24
359.469	2.8
359.838	2.67
360.207	2.68
360.576	2.76
360.945	2.62
361.314	2.63
361.682	2.38
362.051	2.38
362.42	2.7
362.788	2.66
363.157	2.47
363.525	2.51
363.894	2.25
364.262	2.68
364.631	2.8
364.999	2.57
365.367	2.67
365.735	2.56
366.104	2.71
366.472	2.54
366.84	2.44
367.208	2.94
367.576	2.57
367.944	2.42
368.312	2.54
368.68	2.9
369.048	2.45
369.416	2.29
369.783	2.55
370.151	2.88
370.519	3.01
370.886	3.18
371.254	2.86
371.621	2.8
371.989	2.72
372.356	2.68
372.724	2.5
373.091	2.65
373.458	2.64
373.826	2.78
374.193	2.62
374.56	2.61
374.927	2.73
375.294	2.75
375.661	2.73
376.028	2.6
376.395	2.77
376.762	2.5
377.129	2.74
377.496	2.86
377.863	2.81
378.229	2.97
378.596	2.91
378.963	2.71
379.329	2.63
379.696	2.66
380.062	2.85
380.429	2.43
380.795	3.11
381.161	2.71
381.528	2.35
381.894	2.74
382.26	2.76
382.626	2.66
382.993	2.92
383.359	2.57
383.725	2.63
384.091	2.99
384.457	2.7
384.823	2.73
385.188	2.81
385.554	2.5
385.92	2.61
386.286	2.86
386.651	2.72
387.017	2.97
387.383	2.91
387.748	2.87
388.114	2.89
388.479	2.83
388.845	2.73
389.21	3
389.575	2.94
389.94	2.91
390.306	2.95
390.671	2.95
391.036	2.76
391.401	2.92
391.766	2.88
392.131	2.91
392.496	2.81
392.861	2.78
393.226	2.6
393.591	2.81
393.956	2.75
394.32	2.96
394.685	2.54
395.05	2.95
395.414	2.81
395.779	3.13
396.143	2.62
396.508	2.74
396.872	2.87
397.236	3.08
397.601	2.9
397.965	2.72
398.329	2.58
398.694	2.63
399.058	2.84
399.422	2.75
399.786	2.8
400.15	2.82
400.514	2.81
400.878	2.68
401.242	2.78
401.605	2.82
401.969	2.57
402.333	2.69
402.697	2.96
403.06	2.86
403.424	2.88
403.787	2.8
404.151	2.93
404.514	2.77
404.878	2.63
405.241	2.9
405.604	2.64
405.968	2.82
406.331	2.92
406.694	2.82
407.057	2.75
407.42	2.88
407.783	2.93
408.146	2.76
408.509	2.85
408.872	2.84
409.235	2.98
409.598	2.95
409.961	2.9
410.323	2.77
410.686	2.95
411.049	2.8
411.411	2.78
411.774	2.87
412.136	2.89
412.499	3.06
412.861	2.39
413.223	2.94
413.586	2.89
413.948	2.99
414.31	2.84
414.672	2.73
415.035	3.07
415.397	2.75
415.759	2.85
416.121	3.02
416.483	2.9
416.845	2.86
417.206	2.93
417.568	2.68
417.93	2.84
418.292	2.74
418.653	2.62
419.015	2.68
419.377	2.74
419.738	2.9
420.1	2.86
420.461	2.82
420.822	2.9
421.184	2.76
421.545	2.86
421.906	2.83
422.267	2.81
422.629	2.79
422.99	2.81
423.351	2.76
423.712	2.8
424.073	2.86
424.434	2.93
424.795	2.76
425.155	2.69
425.516	2.74
425.877	2.8
426.238	2.78
426.598	2.82
426.959	2.85
427.32	2.74
427.68	2.88
428.041	2.84
428.401	2.81
428.761	2.98
429.122	2.98
429.482	2.94
429.842	2.91
430.202	3.07
430.563	2.88
430.923	2.86
431.283	2.94
431.643	2.96
432.003	2.92
432.363	3.11
432.722	2.94
433.082	2.69
433.442	2.88
433.802	2.94
434.161	2.82
434.521	2.84
434.881	2.84
435.24	2.89
435.6	2.96
435.959	3.03
436.319	2.9
436.678	2.98
437.037	2.81
437.396	3.08
437.756	2.76
438.115	2.89
438.474	2.87
438.833	2.99
439.192	2.94
439.551	2.89
439.91	2.93
440.269	2.99
440.628	3
440.987	2.95
441.345	2.95
441.704	2.91
442.063	2.85
442.421	2.95
442.78	2.85
443.138	2.96
443.497	2.96
443.855	3.08
444.214	2.82
444.572	2.96
444.93	3.03
445.288	3.07
445.647	2.84
446.005	2.92
446.363	2.9
446.721	2.9
447.079	2.82
447.437	2.95
447.795	2.92
448.153	2.86
448.51	2.97
448.868	2.87
449.226	3.03
449.584	2.88
449.941	2.93
450.299	2.96
450.656	2.88
451.014	3.05
451.371	2.94
451.729	2.99
452.086	2.99
452.443	3.07
452.801	3.06
453.158	3.21
453.515	2.94
453.872	2.94
454.229	2.95
454.586	2.99
454.943	3.01
455.3	3.05
455.657	2.92
456.014	3.09
456.371	3.05
456.727	3.01
457.084	3.01
457.441	3.03
457.797	3.01
458.154	3.24
458.51	2.91
458.867	2.95
459.223	2.92
459.58	3.12
459.936	2.99
460.292	2.94
460.648	2.86
461.005	2.91
461.361	2.92
461.717	2.95
462.073	3.14
462.429	3.09
462.785	3.1
463.141	3.07
463.496	3.07
463.852	3.1
464.208	3.1
464.564	2.98
464.919	3.09
465.275	3.01
465.631	3.26
465.986	3.17
466.342	2.94
466.697	3.06
467.052	3.11
467.408	3.3
467.763	3.02
468.118	2.92
468.473	3.05
468.829	3.03
469.184	3.21
469.539	2.95
469.894	2.99
470.249	3.09
470.603	3.32
470.958	3.22
471.313	3.3
471.668	3.19
472.023	3.22
472.377	2.99
472.732	3.09
473.086	3.1
473.441	3.06
473.795	3.23
474.15	3.08
474.504	3.15
474.859	2.94
475.213	3.17
475.567	3.11
475.921	3.16
476.275	3.27
476.63	3.11
476.984	3.15
477.338	3.21
477.692	3.05
478.045	3.18
478.399	3.2
478.753	3.11
479.107	3.23
479.461	3
479.814	3.09
480.168	3.08
480.521	3.12
480.875	3.28
481.228	3.06
481.582	3.02
481.935	3.3
482.289	3.16
482.642	3.22
482.995	3.03
483.348	3.08
483.701	3.15
484.055	3.06
484.408	3.07
484.761	2.96
485.114	2.88
485.466	2.86
485.819	2.88
486.172	2.94
486.525	2.99
486.878	3.06
487.23	3.04
487.583	3.15
487.936	3.03
488.288	3.04
488.641	2.97
488.993	2.97
489.345	2.97
489.698	2.96
490.05	2.98
490.402	3.03
490.754	3.03
491.107	3.13
491.459	3.21
491.811	3.09
492.163	3.16
492.515	3.02
492.866	3.01
493.218	2.98
493.57	3.03
493.922	3.07
494.274	3.18
494.625	3.19
494.977	3.26
495.328	3.21
495.68	3.22
496.031	3.15
496.383	3.15
496.734	3.24
497.086	3.27
497.437	3.23
497.788	3.37
498.139	3.13
498.49	3.17
498.842	3.31
499.193	3.22
499.544	3.27
499.894	3.16
500.245	3.25
500.596	3.24
500.947	3.16
501.298	3.25
501.648	3.35
501.999	3.3
502.35	3.23
502.7	3.36
503.051	3.18
503.401	3.34
503.752	3.24
504.102	3.21
504.452	3.09
504.803	3.24
505.153	3.27
505.503	3.22
505.853	3.37
506.203	3.36
506.553	3.26
506.903	3.31
507.253	3.31
507.603	3.34
507.953	3.23
508.303	3.31
508.652	3.23
509.002	3.3
509.352	3.32
509.701	3.15
510.051	3.25
510.4	3.41
510.75	3.27
511.099	3.18
511.449	3.28
511.798	3.27
512.147	3.27
512.496	3.3
512.846	3.28
513.195	3.29
513.544	3.43
513.893	3.3
514.242	3.26
514.591	3.24
514.939	3.39
515.288	3.35
515.637	3.35
515.986	3.31
516.334	3.37
516.683	3.4
517.032	3.39
517.38	3.25
517.729	3.4
518.077	3.43
518.426	3.37
518.774	3.36
519.122	3.37
519.47	3.2
519.819	3.3
520.167	3.23
520.515	3.3
520.863	3.27
521.211	3.26
521.559	3.31
521.907	3.41
522.255	3.32
522.602	3.39
522.95	3.46
523.298	3.4
523.645	3.42
523.993	3.41
524.341	3.4
524.688	3.26
525.036	3.3
525.383	3.45
525.73	3.31
526.078	3.5
526.425	3.34
526.772	3.27
527.119	3.3
527.466	3.33
527.814	3.3
528.161	3.36
528.508	3.36
528.854	3.26
529.201	3.2
529.548	3.23
529.895	3.13
530.242	3.13
530.588	3.14
530.935	3.18
531.282	3.22
531.628	3.28
531.975	3.3
532.321	3.35
532.667	3.36
533.014	3.35
533.36	3.35
533.706	3.34
534.052	3.35
534.399	3.29
534.745	3.23
535.091	3.23
535.437	3.26
535.783	3.36
536.129	3.33
536.474	3.48
536.82	3.4
537.166	3.3
537.512	3.36
537.857	3.33
538.203	3.24
538.549	3.28
538.894	3.37
539.239	3.51
539.585	3.54
539.93	3.57
540.276	3.51
540.621	3.53
540.966	3.42
541.311	3.49
541.656	3.41
542.001	3.41
542.346	3.35
542.691	3.24
543.036	3.28
543.381	3.29
543.726	3.4
544.071	3.41
544.415	3.4
544.76	3.39
545.105	3.37
545.449	3.32
545.794	3.4
546.138	3.49
546.483	3.55
546.827	3.47
547.171	3.5
547.516	3.45
547.86	3.53
548.204	3.46
548.548	3.47
548.892	3.47
549.236	3.45
549.58	3.53
549.924	3.66
550.268	3.65
550.612	3.62
550.956	3.68
551.3	3.71
551.643	3.5
551.987	3.76
552.33	3.73
552.674	3.59
553.017	3.61
553.361	3.63
553.704	3.65
554.048	3.53
554.391	3.54
554.734	3.54
555.077	3.71
555.42	3.66
555.764	3.67
556.107	3.74
556.45	3.77
556.793	3.74
557.135	3.69
557.478	3.69
557.821	3.63
558.164	3.72
558.507	3.55
558.849	3.77
559.192	3.67
559.534	3.7
559.877	3.66
560.219	3.62
560.562	3.71
560.904	3.73
561.246	3.69
561.589	3.85
561.931	3.6
562.273	3.54
562.615	3.64
562.957	3.47
563.299	3.59
563.641	3.71
563.983	3.67
564.325	3.78
564.667	3.57
565.008	3.53
565.35	3.59
565.692	3.71
566.033	3.59
566.375	3.7
566.716	3.61
567.058	3.66
567.399	3.61
567.741	3.62
568.082	3.52
568.423	3.56
568.764	3.65
569.105	3.78
569.447	3.74
569.788	3.67
570.129	3.64
570.47	3.77
570.811	3.54
571.151	3.74
571.492	3.75
571.833	3.7
572.174	3.81
572.514	3.69
572.855	3.82
573.195	3.66
573.536	3.68
573.876	3.66
574.217	3.62
574.557	3.62
574.898	3.69
575.238	3.86
575.578	3.9
575.918	3.81
576.258	3.97
576.598	3.66
576.938	3.68
577.278	3.85
577.618	3.72
577.958	3.73
578.298	3.8
578.638	3.69
578.977	3.89
579.317	3.85
579.657	3.8
579.996	3.84
580.336	3.71
580.675	3.85
581.014	3.8
581.354	3.79
581.693	3.98
582.032	3.92
582.372	3.9
582.711	3.9
583.05	3.81
583.389	3.98
583.728	4.05
584.067	3.66
584.406	3.82
584.745	3.85
585.083	3.94
585.422	3.81
585.761	3.92
586.1	3.99
586.438	3.73
586.777	3.91
587.115	4.03
587.454	3.92
587.792	3.73
588.13	3.83
588.469	4.1
588.807	3.92
589.145	3.95
589.483	3.77
589.821	3.85
590.159	4.02
590.497	3.92
590.835	4.05
591.173	4.1
591.511	4.02
591.849	3.84
592.187	3.72
592.524	4
592.862	3.91
593.2	3.86
593.537	4.08
593.875	3.73
594.212	4
594.55	4
594.887	4.04
595.224	4.09
595.561	4.12
595.899	3.96
596.236	4.04
596.573	3.83
596.91	4.02
597.247	3.95
597.584	4.1
597.921	3.9
598.258	4.11
598.594	3.8
598.931	3.85
599.268	3.76
599.604	4.05
599.941	4.06
600.277	3.8
600.614	3.98
600.95	3.79
601.287	3.66
601.623	3.75
601.959	4.3
602.296	4.19
602.632	4.02
602.968	4.37
603.304	4.09
603.64	3.97
603.976	3.79
604.312	3.96
604.648	4.1
604.984	4.08
605.319	4.03
605.655	4.03
605.991	3.82
606.326	3.97
606.662	3.82
606.998	4.02
607.333	3.94
607.668	3.95
608.004	4.02
608.339	3.88
608.674	4.13
609.01	4.57
609.345	4.11
609.68	3.93
610.015	4.27
610.35	4.12
610.685	3.84
611.02	3.71
611.355	3.98
611.689	4.1
612.024	4.13
612.359	4.15
612.694	4.28
613.028	3.97
613.363	4.02
613.697	4.1
614.032	4.06
614.366	4.16
614.7	4.24
615.035	4.19
615.369	4.34
615.703	4.36
616.037	4.33
616.371	3.9
616.705	3.91
617.039	3.95
617.373	4.27
617.707	4.03
618.041	4.02
618.375	3.84
618.709	4.31
619.042	4.29
619.376	4.17
619.71	3.98
620.043	4.48
620.377	4.27
620.71	4.24
621.043	4.24
621.377	4.17
621.71	4.57
622.043	4.55
622.376	4.23
622.709	4.49
623.043	4.07
623.376	4.23
623.709	4.3
624.041	4.23
624.374	4.4
624.707	4.31
625.04	3.97
625.373	4.26
625.705	4.29
626.038	4.49
626.37	4.09
626.703	4.25
627.035	4.1
627.368	4.6
627.7	4.55
628.032	4.07
628.365	4.31
628.697	4.47
629.029	4.28
629.361	4.33
629.693	4.45
630.025	4.2
630.357	4.34
630.689	4.27
631.021	4.44
631.353	4.58
631.684	4.1
632.016	4.21
632.348	4.27
632.679	4.31
633.011	4.47
633.342	4.45
633.674	4.04
634.005	4.45
634.336	4.57
634.668	4.36
634.999	4.05
635.33	4.55
635.661	3.96
635.992	4.24
636.323	4.41
636.654	4.59
636.985	4.47
637.316	4.55
637.647	4.55
637.977	4.15
638.308	4.48
638.639	4.36
638.969	4.57
639.3	4.36
639.63	4.65
639.961	4.41
640.291	4.09
640.622	4.46
640.952	4.49
641.282	4.17
641.612	4.26
641.943	4.14
642.273	4.44
642.603	4.57
642.933	4.51
643.263	4.55
643.592	4.61
643.922	5.15
644.252	4.52
644.582	4.35
644.911	4.47
645.241	4.32
645.571	4.26
645.9	4.91
646.23	4.51
646.559	3.93
646.888	4.94
647.218	4.38
647.547	4.58
647.876	4.64
648.205	4.28
648.534	4.41
648.863	4.39
649.192	4.53
649.521	4.77
649.85	4.31
650.179	4.44
650.508	4.41
650.837	4.53
651.165	4.8
651.494	4.66
651.822	4.48
652.151	4.53
652.479	4.49
652.808	4.55
653.136	4.1
653.465	4.19
653.793	4.93
654.121	4.61
654.449	4.24
654.777	4.25
655.105	3.97
655.433	4.86
655.761	4.6
656.089	4.54
656.417	5.05
656.745	5.01
657.073	4.75
657.4	4.91
657.728	4.1
658.056	4.9
658.383	4.34
658.711	4.55
659.038	4.93
659.365	4.5
659.693	4.37
660.02	4.24
660.347	4.67
660.674	4.55
661.001	4.6
661.329	4.4
661.656	4.37
661.982	4.49
662.309	4.53
662.636	4.57
662.963	4.37
663.29	4.87
663.616	4.6
663.943	4.27
664.27	4.73
664.596	4.39
664.923	4.84
665.249	4.89
665.576	4.51
665.902	4.43
666.228	4.82
666.554	5.34
666.881	4.94
667.207	5.17
667.533	5
667.859	4.94
668.185	4.63
668.511	4.96
668.837	4.79
669.162	4.46
669.488	4.19
669.814	4.49
670.139	4.61
670.465	5.17
670.791	4.63
671.116	4.51
671.442	4.14
671.767	4.81
672.092	4.85
672.418	4.79
672.743	4.58
673.068	4.45
673.393	4.88
673.718	4.55
674.043	4.44
674.368	4.72
674.693	5.07
675.018	5.32
675.343	4.71
675.667	5.01
675.992	4.82
676.317	4.64
676.641	4.94
676.966	4.69
677.29	4.19
677.615	5.09
677.939	5.4
678.264	5.09
678.588	5.21
678.912	4.89
679.236	4.43
679.56	4.53
679.885	4.77
680.209	5.14
680.532	4.94
680.856	4.99
681.18	5.72
681.504	5.14
681.828	4.17
682.152	4.75
682.475	4.84
682.799	4.57
683.122	4.61
683.446	4.54
683.769	5.47
684.093	4.99
684.416	4.79
684.739	5.15
685.062	4.88
685.386	4.47
685.709	4.89
686.032	4.83
686.355	5.26
686.678	4.84
687.001	5.32
687.324	5.18
687.646	5.07
687.969	5.14
688.292	4.72
688.614	5.18
688.937	5.41
689.26	5.25
689.582	5.18
689.904	5.14
690.227	5.59
690.549	5.64
690.871	4.82
691.194	4.53
691.516	4.87
691.838	5.01
692.16	5
692.482	4.9
