Data from 21-10_chest_Reflection__2__47.txt Node

Date: Thu Dec 15 16:49:32 CST 2022
User: ToomeyLab
Spectrometer: FLMS14357
Trigger mode: 0
Integration Time (sec): 1.000000E-2
Scans to average: 100
Electric dark correction enabled: true
Nonlinearity correction enabled: false
Boxcar width: 0
XAxis mode: Wavelengths
Number of Pixels in Spectrum: 2048
>>>>>Begin Spectral Data<<<<<
189.047	76.68
189.435	76.68
189.823	76.68
190.211	-84.88
190.599	36.45
190.987	-464.58
191.375	222.88
191.763	19.23
192.151	27.8
192.538	67.64
192.926	-50.8
193.314	121.71
193.702	-29.21
194.089	146.65
194.477	54.37
194.864	104.12
195.252	456.56
195.639	132.78
196.027	22743.75
196.414	275.66
196.801	-68.78
197.189	43.28
197.576	-2065.63
197.963	25.35
198.351	-0.74
198.738	55.11
199.125	0.23
199.512	44.54
199.899	-37.65
200.286	-45.31
200.673	55.99
201.06	15.56
201.447	0.73
201.833	26.22
202.22	10.81
202.607	-25.84
202.994	30.82
203.38	21.33
203.767	29.12
204.154	26.44
204.54	36.35
204.927	22.83
205.313	19.59
205.699	41.06
206.086	25.38
206.472	39.28
206.858	5.91
207.245	2.89
207.631	39.65
208.017	41.73
208.403	-26.59
208.789	24.4
209.175	-10.79
209.561	-8.22
209.947	13.68
210.333	-3.63
210.719	38.5
211.105	48.26
211.491	34.2
211.876	3.3
212.262	-0.72
212.648	28.4
213.034	7.28
213.419	11.34
213.805	-10.16
214.19	-1.12
214.576	-2.66
214.961	11.3
215.346	12.01
215.732	1.59
216.117	7.42
216.502	11.86
216.888	6.5
217.273	8.02
217.658	13.68
218.043	20.26
218.428	1.73
218.813	0.23
219.198	2.3
219.583	-1.11
219.968	-2.38
220.353	-2.64
220.738	12.14
221.122	7.58
221.507	14.96
221.892	-1.69
222.276	0.52
222.661	8.45
223.046	-10.69
223.43	25.83
223.815	2.92
224.199	5.48
224.583	2.59
224.968	2.89
225.352	3.34
225.736	15.56
226.121	5.44
226.505	-0.19
226.889	8.05
227.273	-0.19
227.657	5.92
228.041	5.53
228.425	2.45
228.809	5.05
229.193	5.31
229.577	5.48
229.961	4.98
230.344	5.21
230.728	5.76
231.112	4.96
231.495	5.92
231.879	5.06
232.263	5.79
232.646	4.67
233.03	6.53
233.413	5.66
233.797	1.49
234.18	3.24
234.563	5.52
234.946	4.2
235.33	5.4
235.713	4.32
236.096	5.98
236.479	6.31
236.862	6.34
237.245	2.86
237.628	5.19
238.011	5.14
238.394	4.26
238.777	5.58
239.16	5.63
239.543	5.84
239.925	4.69
240.308	3.29
240.691	4.42
241.073	5.18
241.456	5.21
241.838	4.89
242.221	4.58
242.603	4.73
242.986	4.54
243.368	4.78
243.75	4.73
244.133	5.22
244.515	4.66
244.897	4.53
245.279	4.29
245.661	4.07
246.043	4.51
246.425	4.93
246.807	5.17
247.189	4.54
247.571	4.8
247.953	4.37
248.335	4.55
248.717	4.49
249.098	4.45
249.48	4.22
249.862	4.54
250.243	4.35
250.625	4.48
251.006	4.77
251.388	5.08
251.769	3.52
252.151	4.81
252.532	4.38
252.913	4.73
253.295	4.4
253.676	4.27
254.057	4.33
254.438	4.71
254.819	4.98
255.2	4.36
255.581	5.38
255.962	4.8
256.343	4.64
256.724	4.47
257.105	4.21
257.486	3.04
257.867	5.14
258.247	4.29
258.628	4.98
259.009	3.89
259.389	3.85
259.77	4.16
260.15	5.12
260.531	3.86
260.911	4.12
261.292	4.25
261.672	4.08
262.052	4.06
262.432	3.98
262.813	4.35
263.193	4.73
263.573	4.15
263.953	3.85
264.333	3.95
264.713	4.66
265.093	4.06
265.473	3.9
265.853	4.27
266.233	4.92
266.612	3.85
266.992	4.69
267.372	4.22
267.752	4.05
268.131	3.81
268.511	4.22
268.89	4.79
269.27	3.64
269.649	3.69
270.029	3.9
270.408	3.99
270.787	3.74
271.167	4.22
271.546	4.77
271.925	4.09
272.304	3.59
272.683	3.81
273.062	4.29
273.441	3.88
273.82	4.48
274.199	3.77
274.578	4.08
274.957	3.98
275.336	4.33
275.715	3.97
276.093	3.9
276.472	3.86
276.851	4.17
277.229	4.22
277.608	3.31
277.986	3.94
278.365	4.03
278.743	3.89
279.122	4.07
279.5	4.24
279.878	3.85
280.257	4.18
280.635	3.98
281.013	3.27
281.391	3.43
281.769	4.65
282.147	3.73
282.525	3.73
282.903	3.56
283.281	4.05
283.659	3.77
284.037	3.5
284.415	3.77
284.792	3.91
285.17	3.82
285.548	3.96
285.925	3.9
286.303	4.21
286.68	4.04
287.058	3.94
287.435	3.66
287.813	3.84
288.19	3.58
288.567	3.75
288.945	3.45
289.322	3.85
289.699	4.03
290.076	3.73
290.453	3.62
290.83	3.86
291.207	3.8
291.584	4.16
291.961	3.7
292.338	3.88
292.715	3.63
293.092	3.93
293.469	3.6
293.845	4.1
294.222	4.27
294.599	3.55
294.975	3.73
295.352	3.89
295.728	4.19
296.105	3.79
296.481	3.78
296.858	3.86
297.234	3.31
297.61	3.8
297.986	4.3
298.363	3.67
298.739	3.89
299.115	3.81
299.491	3.78
299.867	3.65
300.243	3.5
300.619	3.63
300.995	3.34
301.371	4.07
301.746	4.21
302.122	3.54
302.498	3.68
302.874	3.63
303.249	3.75
303.625	3.8
304	3.82
304.376	4.24
304.751	4.26
305.127	3.51
305.502	3.93
305.878	3.81
306.253	3.19
306.628	3.91
307.003	3.87
307.378	3.7
307.754	4.18
308.129	3.67
308.504	3.91
308.879	3.82
309.254	4.15
309.629	4.04
310.003	3.45
310.378	4.23
310.753	3.6
311.128	3.48
311.502	3.91
311.877	3.73
312.252	3.8
312.626	3.71
313.001	3.79
313.375	3.72
313.75	3.68
314.124	4.24
314.498	3.88
314.873	3.61
315.247	3.75
315.621	3.02
315.995	3.89
316.369	3.46
316.743	3.29
317.117	3.53
317.491	4.15
317.865	3.11
318.239	4.07
318.613	3.51
318.987	3.47
319.361	4.02
319.734	3.57
320.108	3.84
320.482	4.01
320.855	3.76
321.229	3.56
321.602	4.01
321.976	3.45
322.349	4.33
322.723	3.66
323.096	3.38
323.469	3.54
323.843	3.51
324.216	3.75
324.589	3.51
324.962	3.81
325.335	3.33
325.708	3.72
326.081	4.23
326.454	4.14
326.827	3.76
327.2	3.29
327.573	4.12
327.945	3.55
328.318	3.75
328.691	3.82
329.063	3.52
329.436	3.6
329.809	4.01
330.181	4.68
330.553	3.88
330.926	4.27
331.298	3.35
331.671	3.66
332.043	3.11
332.415	3.6
332.787	3.91
333.159	3.77
333.532	4.05
333.904	3.79
334.276	3.86
334.648	3.81
335.02	3.71
335.391	3.38
335.763	3.47
336.135	4.25
336.507	3.59
336.879	3.56
337.25	3.4
337.622	3.9
337.993	3.52
338.365	3.7
338.736	3.72
339.108	4.22
339.479	3.69
339.851	3.91
340.222	4.25
340.593	3.92
340.964	3.86
341.336	3.38
341.707	3.68
342.078	3.65
342.449	3.64
342.82	4.14
343.191	3.92
343.562	3.79
343.933	3.58
344.303	4.13
344.674	3.98
345.045	3.75
345.416	4.11
345.786	3.69
346.157	3.79
346.527	3.77
346.898	3.23
347.268	3.88
347.639	3.33
348.009	3.91
348.38	3.49
348.75	3.84
349.12	3.94
349.49	3.53
349.861	3.83
350.231	3.75
350.601	3.64
350.971	3.52
351.341	3.98
351.711	4.08
352.081	3.58
352.45	3.61
352.82	3.55
353.19	3.71
353.56	3.99
353.929	3.82
354.299	4.06
354.669	3.79
355.038	3.81
355.408	3.91
355.777	4.03
356.147	3.85
356.516	3.65
356.885	3.71
357.254	3.76
357.624	3.45
357.993	3.96
358.362	3.81
358.731	3.78
359.1	3.66
359.469	3.83
359.838	3.84
360.207	3.69
360.576	3.81
360.945	3.59
361.314	3.73
361.682	3.38
362.051	3.85
362.42	3.58
362.788	3.66
363.157	3.71
363.525	3.83
363.894	3.43
364.262	3.61
364.631	3.9
364.999	3.81
365.367	3.37
365.735	3.63
366.104	3.72
366.472	3.59
366.84	3.95
367.208	3.96
367.576	3.53
367.944	3.84
368.312	3.43
368.68	3.97
369.048	3.68
369.416	3.46
369.783	3.9
370.151	4.07
370.519	4.02
370.886	3.87
371.254	4.38
371.621	3.81
371.989	3.99
372.356	3.96
372.724	3.7
373.091	3.55
373.458	3.83
373.826	3.95
374.193	3.75
374.56	3.76
374.927	3.58
375.294	3.89
375.661	4.06
376.028	3.65
376.395	4.06
376.762	3.77
377.129	3.88
377.496	3.8
377.863	4.04
378.229	3.85
378.596	3.89
378.963	3.89
379.329	4.1
379.696	3.84
380.062	4.01
380.429	3.52
380.795	4.02
381.161	3.63
381.528	3.49
381.894	3.71
382.26	3.87
382.626	4.03
382.993	4.22
383.359	3.78
383.725	3.48
384.091	4.07
384.457	3.66
384.823	4.01
385.188	3.94
385.554	3.97
385.92	3.75
386.286	3.85
386.651	3.87
387.017	3.99
387.383	3.73
387.748	3.82
388.114	4.14
388.479	4.02
388.845	3.76
389.21	4.11
389.575	4.09
389.94	4.24
390.306	3.93
390.671	4.05
391.036	3.99
391.401	3.78
391.766	3.88
392.131	4.11
392.496	3.87
392.861	3.95
393.226	3.74
393.591	3.91
393.956	4.02
394.32	3.94
394.685	3.75
395.05	3.79
395.414	4.01
395.779	4.05
396.143	3.78
396.508	3.8
396.872	3.9
397.236	4.1
397.601	4.21
397.965	3.98
398.329	3.92
398.694	3.51
399.058	4.03
399.422	4.01
399.786	3.88
400.15	3.93
400.514	4.05
400.878	3.82
401.242	4.07
401.605	3.89
401.969	3.89
402.333	3.88
402.697	3.9
403.06	4.02
403.424	4.09
403.787	3.93
404.151	3.89
404.514	3.82
404.878	3.81
405.241	3.78
405.604	3.82
405.968	3.96
406.331	3.83
406.694	3.82
407.057	3.8
407.42	3.74
407.783	4.09
408.146	3.89
408.509	4.05
408.872	4.02
409.235	4.05
409.598	3.95
409.961	4.01
410.323	3.88
410.686	3.86
411.049	3.82
411.411	3.91
411.774	4.13
412.136	3.93
412.499	4.12
412.861	3.79
413.223	3.94
413.586	4.18
413.948	4.21
414.31	4.01
414.672	4.01
415.035	4.13
415.397	4
415.759	3.74
416.121	3.91
416.483	3.88
416.845	4.11
417.206	4.06
417.568	3.93
417.93	3.99
418.292	3.91
418.653	3.69
419.015	3.89
419.377	3.79
419.738	4.02
420.1	3.85
420.461	3.79
420.822	3.9
421.184	3.86
421.545	3.91
421.906	3.87
422.267	3.85
422.629	3.87
422.99	3.88
423.351	3.81
423.712	3.94
424.073	3.95
424.434	3.98
424.795	3.88
425.155	3.86
425.516	3.89
425.877	3.97
426.238	3.87
426.598	3.95
426.959	3.93
427.32	3.84
427.68	3.93
428.041	4.05
428.401	3.8
428.761	4.04
429.122	3.89
429.482	4.1
429.842	3.96
430.202	4.04
430.563	3.98
430.923	4.05
431.283	4.1
431.643	4.14
432.003	4.1
432.363	4.02
432.722	4.07
433.082	4.01
433.442	4.13
433.802	4.01
434.161	4.09
434.521	4.02
434.881	4.04
435.24	4.11
435.6	4.1
435.959	4.1
436.319	4.03
436.678	4.11
437.037	4.11
437.396	4.07
437.756	4.03
438.115	4.06
438.474	4.15
438.833	4.07
439.192	3.93
439.551	3.97
439.91	4.01
440.269	4
440.628	3.88
440.987	4.13
441.345	3.9
441.704	3.91
442.063	4
442.421	4.07
442.78	3.98
443.138	4
443.497	3.95
443.855	4.11
444.214	3.94
444.572	4.18
444.93	4.1
445.288	4.03
445.647	3.92
446.005	4.03
446.363	4.07
446.721	4.02
447.079	3.91
447.437	3.96
447.795	4.02
448.153	4
448.51	4.08
448.868	3.97
449.226	4.07
449.584	3.97
449.941	4.04
450.299	4.01
450.656	4.11
451.014	4.15
451.371	4.11
451.729	4.09
452.086	4.03
452.443	4.09
452.801	4.08
453.158	4.14
453.515	4.06
453.872	3.97
454.229	3.96
454.586	3.97
454.943	4.07
455.3	4.11
455.657	4.05
456.014	4.08
456.371	4.07
456.727	4.33
457.084	4.34
457.441	4.13
457.797	4.12
458.154	4.18
458.51	4.07
458.867	4.08
459.223	4.22
459.58	4.09
459.936	4.13
460.292	4.12
460.648	3.97
461.005	4.05
461.361	4.04
461.717	4.05
462.073	4.07
462.429	4.12
462.785	4.19
463.141	4
463.496	4.14
463.852	4.29
464.208	4.17
464.564	4.08
464.919	4.25
465.275	4.24
465.631	4.35
465.986	4.12
466.342	4.08
466.697	4.17
467.052	4.28
467.408	4.31
467.763	4.22
468.118	3.93
468.473	4.11
468.829	4.18
469.184	4.3
469.539	4.14
469.894	4.26
470.249	4.25
470.603	4.21
470.958	4.4
471.313	4.27
471.668	4.23
472.023	4.19
472.377	4.24
472.732	4.39
473.086	4.16
473.441	4.27
473.795	4.37
474.15	4.08
474.504	4.15
474.859	3.98
475.213	4.4
475.567	4.14
475.921	4.28
476.275	4.29
476.63	4.2
476.984	4.19
477.338	4.41
477.692	4.18
478.045	4.25
478.399	4.33
478.753	4.3
479.107	4.32
479.461	4.13
479.814	4.22
480.168	4.26
480.521	4.34
480.875	4.38
481.228	4.23
481.582	4.08
481.935	4.22
482.289	4.31
482.642	4.36
482.995	4.15
483.348	4.15
483.701	4.25
484.055	4.12
484.408	4.11
484.761	4.03
485.114	3.95
485.466	3.94
485.819	3.95
486.172	3.98
486.525	4.03
486.878	4.13
487.23	4.12
487.583	4.15
487.936	4.12
488.288	4.12
488.641	4.1
488.993	4.02
489.345	4.06
489.698	4.11
490.05	4.04
490.402	4.15
490.754	4.14
491.107	4.14
491.459	4.2
491.811	4.23
492.163	4.13
492.515	4.1
492.866	4.11
493.218	4.09
493.57	4.16
493.922	4.15
494.274	4.22
494.625	4.28
494.977	4.24
495.328	4.32
495.68	4.3
496.031	4.3
496.383	4.28
496.734	4.22
497.086	4.53
497.437	4.43
497.788	4.33
498.139	4.31
498.49	4.34
498.842	4.35
499.193	4.27
499.544	4.33
499.894	4.34
500.245	4.4
500.596	4.47
500.947	4.34
501.298	4.36
501.648	4.38
501.999	4.46
502.35	4.27
502.7	4.59
503.051	4.37
503.401	4.48
503.752	4.28
504.102	4.31
504.452	4.33
504.803	4.39
505.153	4.51
505.503	4.5
505.853	4.53
506.203	4.59
506.553	4.44
506.903	4.56
507.253	4.37
507.603	4.55
507.953	4.48
508.303	4.43
508.652	4.34
509.002	4.56
509.352	4.57
509.701	4.48
510.051	4.45
510.4	4.48
510.75	4.38
511.099	4.37
511.449	4.49
511.798	4.42
512.147	4.48
512.496	4.57
512.846	4.42
513.195	4.56
513.544	4.53
513.893	4.44
514.242	4.47
514.591	4.49
514.939	4.61
515.288	4.55
515.637	4.63
515.986	4.57
516.334	4.67
516.683	4.62
517.032	4.52
517.38	4.49
517.729	4.56
518.077	4.54
518.426	4.64
518.774	4.56
519.122	4.57
519.47	4.57
519.819	4.52
520.167	4.44
520.515	4.51
520.863	4.51
521.211	4.58
521.559	4.48
521.907	4.59
522.255	4.54
522.602	4.68
522.95	4.61
523.298	4.61
523.645	4.65
523.993	4.61
524.341	4.67
524.688	4.77
525.036	4.71
525.383	4.74
525.73	4.6
526.078	4.82
526.425	4.59
526.772	4.6
527.119	4.6
527.466	4.61
527.814	4.58
528.161	4.66
528.508	4.68
528.854	4.58
529.201	4.61
529.548	4.55
529.895	4.47
530.242	4.45
530.588	4.44
530.935	4.53
531.282	4.53
531.628	4.64
531.975	4.6
532.321	4.64
532.667	4.66
533.014	4.78
533.36	4.74
533.706	4.77
534.052	4.77
534.399	4.71
534.745	4.62
535.091	4.6
535.437	4.71
535.783	4.72
536.129	4.78
536.474	4.82
536.82	4.92
537.166	4.72
537.512	4.83
537.857	4.85
538.203	4.82
538.549	4.84
538.894	4.82
539.239	4.86
539.585	4.85
539.93	4.91
540.276	4.95
540.621	4.93
540.966	4.98
541.311	5.08
541.656	4.86
542.001	4.88
542.346	4.82
542.691	4.73
543.036	4.77
543.381	4.82
543.726	4.9
544.071	4.89
544.415	4.88
544.76	4.95
545.105	4.97
545.449	4.94
545.794	5
546.138	5.04
546.483	5.03
546.827	5.02
547.171	5.07
547.516	5.22
547.86	5.14
548.204	5.21
548.548	5.15
548.892	5.1
549.236	5.13
549.58	5.2
549.924	5.32
550.268	5.23
550.612	5.29
550.956	5.36
551.3	5.47
551.643	5.39
551.987	5.41
552.33	5.55
552.674	5.26
553.017	5.58
553.361	5.47
553.704	5.47
554.048	5.55
554.391	5.53
554.734	5.33
555.077	5.42
555.42	5.4
555.764	5.36
556.107	5.53
556.45	5.66
556.793	5.58
557.135	5.4
557.478	5.6
557.821	5.64
558.164	5.64
558.507	5.62
558.849	5.7
559.192	5.53
559.534	5.59
559.877	5.6
560.219	5.66
560.562	5.63
560.904	5.75
561.246	5.65
561.589	5.91
561.931	5.67
562.273	5.66
562.615	5.71
562.957	5.72
563.299	5.67
563.641	5.85
563.983	5.76
564.325	5.88
564.667	5.96
565.008	5.66
565.35	5.61
565.692	5.77
566.033	5.75
566.375	5.92
566.716	5.88
567.058	5.98
567.399	5.95
567.741	5.94
568.082	5.88
568.423	5.87
568.764	5.97
569.105	6.08
569.447	5.92
569.788	5.9
570.129	5.9
570.47	5.99
570.811	6.11
571.151	6.11
571.492	6.13
571.833	6.11
572.174	6.08
572.514	6.21
572.855	6.2
573.195	6.21
573.536	6.23
573.876	6.13
574.217	6.18
574.557	6.11
574.898	6.2
575.238	6.4
575.578	6.42
575.918	6.3
576.258	6.58
576.598	6.32
576.938	6.3
577.278	6.39
577.618	6.28
577.958	6.36
578.298	6.41
578.638	6.33
578.977	6.54
579.317	6.52
579.657	6.6
579.996	6.73
580.336	6.61
580.675	6.52
581.014	6.68
581.354	6.41
581.693	6.88
582.032	6.95
582.372	6.67
582.711	6.77
583.05	6.95
583.389	6.97
583.728	7.02
584.067	6.76
584.406	6.99
584.745	6.85
585.083	7.05
585.422	7.06
585.761	6.82
586.1	7.02
586.438	7.01
586.777	7.09
587.115	7.02
587.454	6.97
587.792	7.01
588.13	6.93
588.469	7.02
588.807	7.18
589.145	7.09
589.483	6.98
589.821	7.27
590.159	7.2
590.497	7.15
590.835	7.4
591.173	7.49
591.511	7.3
591.849	7.46
592.187	7.27
592.524	7.47
592.862	7.29
593.2	7.52
593.537	7.35
593.875	7.33
594.212	7.53
594.55	7.41
594.887	7.58
595.224	7.67
595.561	7.62
595.899	7.61
596.236	7.77
596.573	7.52
596.91	7.77
597.247	7.89
597.584	7.62
597.921	7.75
598.258	7.71
598.594	7.61
598.931	7.56
599.268	7.43
599.604	7.85
599.941	7.68
600.277	7.8
600.614	7.66
600.95	7.68
601.287	7.78
601.623	7.87
601.959	8.24
602.296	8.14
602.632	8.33
602.968	8.08
603.304	8
603.64	7.82
603.976	8.01
604.312	8.08
604.648	8.2
604.984	8.18
605.319	8.17
605.655	8.04
605.991	8.05
606.326	8.27
606.662	7.98
606.998	8.24
607.333	8.31
607.668	8.17
608.004	8.21
608.339	8.28
608.674	8.25
609.01	8.51
609.345	8.59
609.68	8.4
610.015	8.69
610.35	8.55
610.685	8.33
611.02	8.42
611.355	8.46
611.689	8.43
612.024	8.75
612.359	8.82
612.694	8.92
613.028	8.55
613.363	8.61
613.697	9.04
614.032	8.72
614.366	8.77
614.7	9.01
615.035	8.98
615.369	9.14
615.703	9.24
616.037	8.97
616.371	8.97
616.705	8.77
617.039	9.13
617.373	9.49
617.707	9.21
618.041	9.09
618.375	8.97
618.709	9.11
619.042	9.2
619.376	9.28
619.71	9.61
620.043	9.51
620.377	9.46
620.71	9.21
621.043	9.57
621.377	9.41
621.71	9.75
622.043	9.66
622.376	9.52
622.709	10.02
623.043	9.67
623.376	9.45
623.709	9.85
624.041	9.61
624.374	9.69
624.707	9.81
625.04	9.83
625.373	9.91
625.705	9.92
626.038	9.65
626.37	9.76
626.703	9.68
627.035	9.63
627.368	10.19
627.7	10.07
628.032	9.94
628.365	10.12
628.697	10.16
629.029	10.09
629.361	10.18
629.693	10.03
630.025	10.17
630.357	10.21
630.689	10.34
631.021	10.32
631.353	10.43
631.684	10.03
632.016	10.04
632.348	10.41
632.679	10.51
633.011	10.66
633.342	10.54
633.674	10.24
634.005	10.33
634.336	10.47
634.668	10.59
634.999	10.6
635.33	10.78
635.661	10.54
635.992	10.98
636.323	10.57
636.654	10.66
636.985	10.82
637.316	10.6
637.647	10.97
637.977	10.75
638.308	10.99
638.639	10.76
638.969	10.95
639.3	11.06
639.63	10.82
639.961	10.69
640.291	11.09
640.622	11.19
640.952	11.06
641.282	10.79
641.612	11.27
641.943	10.92
642.273	10.83
642.603	11.3
642.933	11.45
643.263	11.57
643.592	11.91
643.922	11.77
644.252	11.79
644.582	11.67
644.911	11.28
645.241	11.46
645.571	11.57
645.9	11.84
646.23	11.6
646.559	11.2
646.888	11.78
647.218	11.79
647.547	11.8
647.876	11.62
648.205	11.35
648.534	11.93
648.863	11.87
649.192	12.27
649.521	12.02
649.85	11.92
650.179	11.82
650.508	11.98
650.837	11.88
651.165	12.08
651.494	11.85
651.822	12.24
652.151	12.3
652.479	12.23
652.808	12.17
653.136	11.56
653.465	11.78
653.793	12.38
654.121	12.37
654.449	12.19
654.777	12.07
655.105	12.16
655.433	12.99
655.761	12.43
656.089	12.17
656.417	12.8
656.745	12.76
657.073	12.4
657.4	12.59
657.728	12.35
658.056	13.04
658.383	12.81
658.711	12.85
659.038	12.81
659.365	12.71
659.693	12.81
660.02	12.76
660.347	12.93
660.674	12.52
661.001	12.76
661.329	12.52
661.656	12.47
661.982	12.5
662.309	12.7
662.636	13.05
662.963	12.7
663.29	13.11
663.616	13.22
663.943	13.27
664.27	13.08
664.596	12.97
664.923	13.28
665.249	13.35
665.576	13.08
665.902	13.1
666.228	13.39
666.554	13.58
666.881	12.73
667.207	13.34
667.533	13.46
667.859	13.46
668.185	13.23
668.511	13.98
668.837	13.33
669.162	13.61
669.488	13.14
669.814	13.6
670.139	12.94
670.465	13.68
670.791	13.49
671.116	13.58
671.442	13.75
671.767	13.49
672.092	13.54
672.418	13.45
672.743	14.18
673.068	13.51
673.393	14.09
673.718	13.46
674.043	13.95
674.368	14.18
674.693	14.79
675.018	14.23
675.343	14.35
675.667	14.3
675.992	14.68
676.317	13.96
676.641	14.55
676.966	14.95
677.29	13.57
677.615	14.23
677.939	14.91
678.264	14.43
678.588	15.11
678.912	14.07
679.236	14.76
679.56	13.52
679.885	14.77
680.209	15.09
680.532	15.33
680.856	15.19
681.18	15.54
681.504	14.99
681.828	14.71
682.152	14.66
682.475	15.37
682.799	14.29
683.122	14.65
683.446	14.29
683.769	15.16
684.093	15.32
684.416	14.5
684.739	14.85
685.062	15.58
685.386	15.22
685.709	15.54
686.032	15.3
686.355	15.68
686.678	15.95
687.001	15.47
687.324	16.05
687.646	15.02
687.969	15.27
