Data from 21-10_chest_Reflection__4__49.txt Node

Date: Thu Dec 15 16:49:58 CST 2022
User: ToomeyLab
Spectrometer: FLMS14357
Trigger mode: 0
Integration Time (sec): 1.000000E-2
Scans to average: 100
Electric dark correction enabled: true
Nonlinearity correction enabled: false
Boxcar width: 0
XAxis mode: Wavelengths
Number of Pixels in Spectrum: 2048
>>>>>Begin Spectral Data<<<<<
189.047	-38.7
189.435	-38.7
189.823	-38.7
190.211	133.13
190.599	10.46
190.987	-1175.69
191.375	-275.13
191.763	38.07
192.151	119.16
192.538	104.35
192.926	137.23
193.314	97.28
193.702	-33.56
194.089	45.91
194.477	160.39
194.864	286.02
195.252	10.56
195.639	93.83
196.027	30343.75
196.414	773.54
196.801	-37.83
197.189	136.88
197.576	-1715.63
197.963	23.62
198.351	14.42
198.738	10.32
199.125	-45.29
199.512	51.65
199.899	-48.19
200.286	-31.59
200.673	46.49
201.06	-4.47
201.447	34.06
201.833	-33.02
202.22	19.69
202.607	-33.62
202.994	44.29
203.38	8.37
203.767	5.6
204.154	36.29
204.54	12.69
204.927	30.06
205.313	63.86
205.699	37.92
206.086	23.42
206.472	21.68
206.858	31.46
207.245	36.66
207.631	22.91
208.017	24.34
208.403	-59.28
208.789	2.6
209.175	18.71
209.561	-72.74
209.947	25.57
210.333	4.13
210.719	20.76
211.105	35.49
211.491	26.57
211.876	1.16
212.262	14.08
212.648	16.55
213.034	9.08
213.419	27.52
213.805	7.86
214.19	-4.54
214.576	19.62
214.961	12.17
215.346	20.05
215.732	21.08
216.117	17.71
216.502	8.28
216.888	-8.22
217.273	37.35
217.658	24.91
218.043	5.1
218.428	24.38
218.813	18.14
219.198	-20.17
219.583	6.28
219.968	-1.17
220.353	2.99
220.738	7.17
221.122	15.01
221.507	5.2
221.892	-11.05
222.276	-10.09
222.661	-3.05
223.046	-3.92
223.43	11.74
223.815	12.04
224.199	5.99
224.583	5.78
224.968	6.68
225.352	-1.31
225.736	16.2
226.121	5.18
226.505	6.27
226.889	10.72
227.273	-4.47
227.657	7.54
228.041	5.79
228.425	6.65
228.809	4.92
229.193	3.31
229.577	4.82
229.961	5.12
230.344	5.76
230.728	5.15
231.112	5.42
231.495	4.27
231.879	6.48
232.263	5.53
232.646	3.77
233.03	5.24
233.413	6.17
233.797	3.67
234.18	4.37
234.563	7.06
234.946	4.5
235.33	5.41
235.713	5.73
236.096	5.3
236.479	5.62
236.862	5.26
237.245	4.68
237.628	5.22
238.011	5.22
238.394	3.47
238.777	3.97
239.16	6.04
239.543	4.79
239.925	4.38
240.308	4.51
240.691	4.83
241.073	3.4
241.456	5.51
241.838	3.66
242.221	4.12
242.603	5.24
242.986	4.14
243.368	4.81
243.75	4.93
244.133	4.72
244.515	4.34
244.897	4.6
245.279	3.71
245.661	4.51
246.043	4.23
246.425	4.63
246.807	4.38
247.189	4.92
247.571	4.29
247.953	3.88
248.335	4.37
248.717	4.51
249.098	4.54
249.48	4.54
249.862	4.45
250.243	4.53
250.625	4.39
251.006	5.29
251.388	4.59
251.769	3.7
252.151	5.19
252.532	4.47
252.913	4.38
253.295	3.76
253.676	4.43
254.057	4.15
254.438	4.41
254.819	4.32
255.2	4.87
255.581	6.28
255.962	5.1
256.343	6.44
256.724	4.87
257.105	4.79
257.486	3.38
257.867	3.97
258.247	4.77
258.628	4.72
259.009	4.39
259.389	3.81
259.77	3.14
260.15	4.73
260.531	4.18
260.911	4.02
261.292	4.31
261.672	4.08
262.052	4.27
262.432	3.82
262.813	4.37
263.193	4.34
263.573	4.23
263.953	3.99
264.333	4.32
264.713	4.84
265.093	4.29
265.473	4.31
265.853	4.71
266.233	4.14
266.612	4.1
266.992	3.88
267.372	4.58
267.752	4.31
268.131	3.51
268.511	4.43
268.89	4.74
269.27	3.94
269.649	3.52
270.029	3.87
270.408	3.89
270.787	4.12
271.167	4.28
271.546	4.75
271.925	4.34
272.304	3.62
272.683	3.47
273.062	3.9
273.441	3.7
273.82	3.79
274.199	3.76
274.578	3.88
274.957	4.03
275.336	4.47
275.715	3.99
276.093	3.47
276.472	3.61
276.851	3.41
277.229	3.68
277.608	3.33
277.986	3.9
278.365	4.24
278.743	4.14
279.122	3.73
279.5	4.26
279.878	3.68
280.257	3.64
280.635	4.01
281.013	3.77
281.391	3.72
281.769	4.07
282.147	3.64
282.525	3.87
282.903	3.41
283.281	4.45
283.659	4.42
284.037	3.78
284.415	4.03
284.792	3.76
285.17	3.65
285.548	3.57
285.925	3.78
286.303	3.96
286.68	3.64
287.058	3.91
287.435	3.63
287.813	3.86
288.19	3.69
288.567	3.56
288.945	3.98
289.322	3.79
289.699	3.66
290.076	3.92
290.453	3.26
290.83	3.79
291.207	3.59
291.584	4.04
291.961	3.83
292.338	3.66
292.715	3.74
293.092	3.96
293.469	3.98
293.845	4.37
294.222	4.44
294.599	3.21
294.975	3.25
295.352	3.96
295.728	3.74
296.105	3.89
296.481	3.97
296.858	3.91
297.234	3.38
297.61	4.08
297.986	4.14
298.363	4.04
298.739	3.97
299.115	3.91
299.491	3.74
299.867	3.82
300.243	3.64
300.619	3.19
300.995	3.8
301.371	4.16
301.746	3.85
302.122	3.32
302.498	3.45
302.874	4.09
303.249	3.74
303.625	3.75
304	4.1
304.376	4
304.751	3.46
305.127	3.76
305.502	3.63
305.878	4.06
306.253	3.61
306.628	3.66
307.003	3.32
307.378	3.79
307.754	3.69
308.129	3.46
308.504	4
308.879	4.22
309.254	3.83
309.629	3.78
310.003	3.88
310.378	3.86
310.753	4.22
311.128	3.93
311.502	3.73
311.877	3.96
312.252	3.76
312.626	4.09
313.001	3.86
313.375	4.38
313.75	4.01
314.124	4.09
314.498	4.2
314.873	3.51
315.247	3.51
315.621	3.59
315.995	3.7
316.369	3.45
316.743	4.17
317.117	3.39
317.491	3.76
317.865	3.7
318.239	4.46
318.613	3.43
318.987	3.28
319.361	4.02
319.734	3.74
320.108	3.73
320.482	3.49
320.855	3.99
321.229	4.03
321.602	4.38
321.976	3.29
322.349	4.45
322.723	4.51
323.096	3.63
323.469	3.98
323.843	3.73
324.216	3.55
324.589	3.87
324.962	3.59
325.335	3.65
325.708	4.08
326.081	3.91
326.454	4.01
326.827	3.99
327.2	3.92
327.573	3.77
327.945	3.76
328.318	3.78
328.691	3.59
329.063	3.75
329.436	3.47
329.809	4.18
330.181	4.45
330.553	4.37
330.926	4.13
331.298	4.06
331.671	4.02
332.043	3.86
332.415	4.07
332.787	3.6
333.159	3.94
333.532	4.2
333.904	4.34
334.276	3.97
334.648	4.1
335.02	3.28
335.391	3.88
335.763	3.81
336.135	4.2
336.507	3.8
336.879	3.38
337.25	4.08
337.622	4.28
337.993	4.08
338.365	3.93
338.736	3.33
339.108	3.98
339.479	4.25
339.851	3.97
340.222	3.95
340.593	3.87
340.964	4.13
341.336	3.81
341.707	4.12
342.078	3.79
342.449	4.12
342.82	3.97
343.191	3.78
343.562	3.74
343.933	3.57
344.303	3.84
344.674	3.87
345.045	4.22
345.416	4.03
345.786	4.02
346.157	3.99
346.527	3.7
346.898	3.7
347.268	4.22
347.639	3.94
348.009	3.93
348.38	3.79
348.75	3.97
349.12	3.76
349.49	3.84
349.861	4.06
350.231	3.79
350.601	3.67
350.971	3.79
351.341	3.77
351.711	4.01
352.081	3.4
352.45	3.52
352.82	3.18
353.19	3.91
353.56	3.83
353.929	4.02
354.299	4.46
354.669	4.38
355.038	4
355.408	3.81
355.777	3.82
356.147	4.21
356.516	3.63
356.885	3.92
357.254	3.73
357.624	3.51
357.993	4.26
358.362	4.19
358.731	3.92
359.1	4.16
359.469	3.91
359.838	4.03
360.207	4.11
360.576	4.05
360.945	4
361.314	3.97
361.682	3.75
362.051	3.89
362.42	3.91
362.788	3.93
363.157	3.95
363.525	3.87
363.894	3.68
364.262	4.02
364.631	4.09
364.999	3.98
365.367	3.87
365.735	3.87
366.104	3.89
366.472	3.98
366.84	4.08
367.208	4.14
367.576	3.78
367.944	3.94
368.312	3.8
368.68	4.17
369.048	3.96
369.416	3.85
369.783	3.78
370.151	4.24
370.519	4.2
370.886	4.08
371.254	4.13
371.621	4.07
371.989	4.01
372.356	4.12
372.724	4.09
373.091	3.85
373.458	3.82
373.826	4.06
374.193	3.99
374.56	4.18
374.927	4.24
375.294	3.83
375.661	3.94
376.028	3.85
376.395	4.37
376.762	3.7
377.129	3.9
377.496	4.01
377.863	4.16
378.229	4.28
378.596	4.13
378.963	4.21
379.329	4.28
379.696	3.93
380.062	4.01
380.429	3.9
380.795	4.44
381.161	4.01
381.528	3.55
381.894	4
382.26	4.15
382.626	4.11
382.993	4.33
383.359	4.08
383.725	3.93
384.091	4.13
384.457	3.99
384.823	4.03
385.188	4.27
385.554	4.08
385.92	3.88
386.286	3.99
386.651	3.76
387.017	4.32
387.383	3.6
387.748	4.17
388.114	4.33
388.479	3.73
388.845	4.05
389.21	4.27
389.575	4.27
389.94	4.42
390.306	4.03
390.671	4.05
391.036	3.93
391.401	4.28
391.766	4.06
392.131	4.18
392.496	4.29
392.861	4.02
393.226	3.94
393.591	4.2
393.956	4.26
394.32	4.25
394.685	4.14
395.05	3.99
395.414	4.1
395.779	4.22
396.143	4.08
396.508	4.13
396.872	4.19
397.236	4.48
397.601	4.3
397.965	4.18
398.329	4.43
398.694	4.02
399.058	4.01
399.422	4.04
399.786	4.03
400.15	4.21
400.514	4.07
400.878	4.09
401.242	4.3
401.605	4.13
401.969	3.96
402.333	4.12
402.697	4.38
403.06	4.19
403.424	4.47
403.787	4.31
404.151	4.19
404.514	4.34
404.878	4.07
405.241	4.33
405.604	4.24
405.968	4.36
406.331	4.18
406.694	4.16
407.057	3.95
407.42	4.17
407.783	4.34
408.146	4.14
408.509	4.29
408.872	4.1
409.235	4.3
409.598	4.22
409.961	4.25
410.323	4.26
410.686	4.14
411.049	4.46
411.411	4.27
411.774	4.13
412.136	4.16
412.499	4.2
412.861	4.03
413.223	4.08
413.586	4.44
413.948	4.41
414.31	4.24
414.672	4.16
415.035	4.35
415.397	4.04
415.759	3.9
416.121	4.21
416.483	4.18
416.845	4.11
417.206	4.2
417.568	4.14
417.93	4.24
418.292	4.08
418.653	4.13
419.015	4.11
419.377	4.06
419.738	4.21
420.1	4.17
420.461	4.09
420.822	4.25
421.184	4.14
421.545	4.15
421.906	4.12
422.267	4.07
422.629	4.11
422.99	4.03
423.351	4.07
423.712	4.13
424.073	4.15
424.434	4.2
424.795	4.02
425.155	4.07
425.516	4.01
425.877	4.15
426.238	4.1
426.598	4.13
426.959	4.23
427.32	4.22
427.68	4.26
428.041	4.18
428.401	4.22
428.761	4.24
429.122	4.31
429.482	4.28
429.842	4.17
430.202	4.34
430.563	4.36
430.923	4.22
431.283	4.22
431.643	4.3
432.003	4.36
432.363	4.35
432.722	4.42
433.082	4.24
433.442	4.29
433.802	4.24
434.161	4.32
434.521	4.33
434.881	4.21
435.24	4.22
435.6	4.21
435.959	4.34
436.319	4.25
436.678	4.28
437.037	4.33
437.396	4.34
437.756	4.19
438.115	4.33
438.474	4.31
438.833	4.38
439.192	4.14
439.551	4.26
439.91	4.35
440.269	4.36
440.628	4.21
440.987	4.22
441.345	4.32
441.704	4.41
442.063	4.24
442.421	4.25
442.78	4.28
443.138	4.35
443.497	4.11
443.855	4.26
444.214	4.25
444.572	4.44
444.93	4.37
445.288	4.34
445.647	4.22
446.005	4.36
446.363	4.22
446.721	4.29
447.079	4.24
447.437	4.29
447.795	4.33
448.153	4.22
448.51	4.3
448.868	4.25
449.226	4.29
449.584	4.22
449.941	4.25
450.299	4.34
450.656	4.34
451.014	4.42
451.371	4.4
451.729	4.36
452.086	4.39
452.443	4.55
452.801	4.42
453.158	4.46
453.515	4.26
453.872	4.39
454.229	4.27
454.586	4.24
454.943	4.45
455.3	4.43
455.657	4.39
456.014	4.31
456.371	4.57
456.727	4.55
457.084	4.45
457.441	4.38
457.797	4.42
458.154	4.51
458.51	4.37
458.867	4.48
459.223	4.45
459.58	4.59
459.936	4.29
460.292	4.34
460.648	4.41
461.005	4.29
461.361	4.38
461.717	4.35
462.073	4.42
462.429	4.4
462.785	4.53
463.141	4.56
463.496	4.44
463.852	4.61
464.208	4.6
464.564	4.36
464.919	4.44
465.275	4.39
465.631	4.68
465.986	4.61
466.342	4.34
466.697	4.46
467.052	4.68
467.408	4.67
467.763	4.53
468.118	4.39
468.473	4.55
468.829	4.37
469.184	4.46
469.539	4.57
469.894	4.52
470.249	4.54
470.603	4.6
470.958	4.67
471.313	4.52
471.668	4.55
472.023	4.59
472.377	4.58
472.732	4.8
473.086	4.43
473.441	4.58
473.795	4.81
474.15	4.58
474.504	4.57
474.859	4.42
475.213	4.81
475.567	4.53
475.921	4.69
476.275	4.65
476.63	4.54
476.984	4.45
477.338	4.54
477.692	4.62
478.045	4.63
478.399	4.5
478.753	4.61
479.107	4.63
479.461	4.4
479.814	4.6
480.168	4.65
480.521	4.67
480.875	4.65
481.228	4.7
481.582	4.45
481.935	4.45
482.289	4.76
482.642	4.68
482.995	4.59
483.348	4.56
483.701	4.62
484.055	4.53
484.408	4.53
484.761	4.42
485.114	4.3
485.466	4.26
485.819	4.29
486.172	4.37
486.525	4.4
486.878	4.55
487.23	4.46
487.583	4.57
487.936	4.5
488.288	4.45
488.641	4.43
488.993	4.38
489.345	4.41
489.698	4.43
490.05	4.46
490.402	4.47
490.754	4.54
491.107	4.56
491.459	4.63
491.811	4.6
492.163	4.66
492.515	4.51
492.866	4.45
493.218	4.42
493.57	4.5
493.922	4.51
494.274	4.67
494.625	4.67
494.977	4.67
495.328	4.74
495.68	4.7
496.031	4.74
496.383	4.66
496.734	4.63
497.086	4.87
497.437	4.82
497.788	4.88
498.139	4.67
498.49	4.68
498.842	4.73
499.193	4.63
499.544	4.77
499.894	4.71
500.245	4.83
500.596	4.8
500.947	4.75
501.298	4.74
501.648	4.88
501.999	4.88
502.35	4.66
502.7	4.88
503.051	4.81
503.401	4.95
503.752	4.84
504.102	4.86
504.452	4.71
504.803	4.92
505.153	5.03
505.503	4.92
505.853	5.02
506.203	4.92
506.553	4.93
506.903	4.9
507.253	4.93
507.603	4.96
507.953	4.88
508.303	4.86
508.652	4.74
509.002	4.99
509.352	4.92
509.701	4.76
510.051	4.86
510.4	4.89
510.75	4.85
511.099	4.86
511.449	4.99
511.798	4.84
512.147	4.91
512.496	4.92
512.846	4.88
513.195	5.01
513.544	4.98
513.893	5.06
514.242	4.88
514.591	4.99
514.939	5
515.288	5
515.637	5.02
515.986	4.99
516.334	5.07
516.683	5.07
517.032	5.05
517.38	4.93
517.729	4.89
518.077	5.04
518.426	5.04
518.774	4.97
519.122	5.05
519.47	4.97
519.819	5.07
520.167	4.96
520.515	4.95
520.863	5.06
521.211	4.95
521.559	5.08
521.907	5.08
522.255	5.11
522.602	5.13
522.95	5.29
523.298	5.21
523.645	5.13
523.993	5.15
524.341	5.09
524.688	5.14
525.036	5.19
525.383	5.23
525.73	5.11
526.078	5.24
526.425	5.26
526.772	5.12
527.119	5.13
527.466	5.17
527.814	5.14
528.161	5.22
528.508	5.3
528.854	5.16
529.201	5.13
529.548	5.09
529.895	5.01
530.242	4.99
530.588	4.98
530.935	5.06
531.282	5.1
531.628	5.2
531.975	5.19
532.321	5.21
532.667	5.33
533.014	5.38
533.36	5.28
533.706	5.44
534.052	5.39
534.399	5.32
534.745	5.22
535.091	5.19
535.437	5.17
535.783	5.32
536.129	5.36
536.474	5.43
536.82	5.47
537.166	5.37
537.512	5.45
537.857	5.46
538.203	5.4
538.549	5.4
538.894	5.47
539.239	5.55
539.585	5.56
539.93	5.65
540.276	5.63
540.621	5.61
540.966	5.71
541.311	5.59
541.656	5.58
542.001	5.49
542.346	5.44
542.691	5.36
543.036	5.42
543.381	5.44
543.726	5.52
544.071	5.55
544.415	5.64
544.76	5.61
545.105	5.62
545.449	5.61
545.794	5.67
546.138	5.73
546.483	5.8
546.827	5.79
547.171	5.81
547.516	5.92
547.86	5.87
548.204	5.84
548.548	5.86
548.892	5.81
549.236	5.85
549.58	5.95
549.924	6.05
550.268	5.97
550.612	5.97
550.956	6.14
551.3	6.14
551.643	5.97
551.987	6.16
552.33	6.16
552.674	6.04
553.017	6.15
553.361	6
553.704	6.11
554.048	6.05
554.391	6.21
554.734	5.98
555.077	6.06
555.42	6.14
555.764	6.1
556.107	6.43
556.45	6.33
556.793	6.41
557.135	6.46
557.478	6.38
557.821	6.42
558.164	6.31
558.507	6.45
558.849	6.7
559.192	6.43
559.534	6.31
559.877	6.35
560.219	6.45
560.562	6.44
560.904	6.6
561.246	6.45
561.589	6.66
561.931	6.68
562.273	6.55
562.615	6.42
562.957	6.53
563.299	6.53
563.641	6.71
563.983	6.57
564.325	6.57
564.667	6.72
565.008	6.59
565.35	6.7
565.692	6.78
566.033	6.58
566.375	6.89
566.716	6.76
567.058	6.85
567.399	6.71
567.741	6.74
568.082	6.8
568.423	6.72
568.764	6.95
569.105	6.9
569.447	6.9
569.788	6.92
570.129	7.01
570.47	6.94
570.811	6.92
571.151	7.13
571.492	7.03
571.833	6.99
572.174	7.2
572.514	7.09
572.855	7.15
573.195	7.05
573.536	7.28
573.876	6.9
574.217	7.25
574.557	7.18
574.898	7.16
575.238	7.36
575.578	7.37
575.918	7.33
576.258	7.53
576.598	7.39
576.938	7.27
577.278	7.44
577.618	7.37
577.958	7.41
578.298	7.41
578.638	7.51
578.977	7.63
579.317	7.53
579.657	7.49
579.996	7.88
580.336	7.74
580.675	7.45
581.014	7.64
581.354	7.67
581.693	7.76
582.032	7.97
582.372	7.79
582.711	7.78
583.05	7.92
583.389	7.94
583.728	8.15
584.067	7.85
584.406	7.93
584.745	7.94
585.083	8
585.422	8.08
585.761	8.03
586.1	8.05
586.438	8.11
586.777	8.15
587.115	8.2
587.454	8.14
587.792	8.15
588.13	8.19
588.469	8.2
588.807	8.39
589.145	8.39
589.483	8.21
589.821	8.28
590.159	8.29
590.497	8.43
590.835	8.52
591.173	8.54
591.511	8.48
591.849	8.62
592.187	8.32
592.524	8.6
592.862	8.52
593.2	8.62
593.537	8.67
593.875	8.79
594.212	8.66
594.55	8.59
594.887	8.85
595.224	9.05
595.561	8.93
595.899	8.76
596.236	8.82
596.573	8.76
596.91	8.7
597.247	9.09
597.584	8.93
597.921	8.85
598.258	8.97
598.594	8.93
598.931	8.74
599.268	8.87
599.604	9.07
599.941	8.99
600.277	9.18
600.614	9.14
600.95	9.27
601.287	9.1
601.623	8.99
601.959	9.63
602.296	9.44
602.632	9.61
602.968	9.31
603.304	9.36
603.64	9.28
603.976	9.22
604.312	9.67
604.648	9.53
604.984	9.26
605.319	9.38
605.655	9.45
605.991	9.52
606.326	9.48
606.662	9.49
606.998	9.78
607.333	9.62
607.668	9.66
608.004	9.63
608.339	9.78
608.674	10.03
609.01	10.22
609.345	9.99
609.68	9.81
610.015	9.96
610.35	9.88
610.685	9.77
611.02	9.81
611.355	10.03
611.689	9.9
612.024	10.14
612.359	10.23
612.694	10.32
613.028	10.12
613.363	10.34
613.697	10.31
614.032	9.95
614.366	10.05
614.7	10.67
615.035	10.24
615.369	10.61
615.703	10.58
616.037	10.9
616.371	10.42
616.705	10.47
617.039	10.56
617.373	10.79
617.707	10.47
618.041	10.59
618.375	10.3
618.709	10.48
619.042	10.64
619.376	11.16
619.71	10.92
620.043	11.32
620.377	11.02
620.71	11.03
621.043	11.06
621.377	10.98
621.71	11.45
622.043	11.15
622.376	10.85
622.709	11.5
623.043	10.98
623.376	11.22
623.709	11.45
624.041	11.16
624.374	11.47
624.707	11.35
625.04	11.42
625.373	11.48
625.705	11.6
626.038	11.79
626.37	11.4
626.703	11.68
627.035	11.74
627.368	11.83
627.7	11.7
628.032	11.83
628.365	11.81
628.697	12
629.029	11.64
629.361	11.79
629.693	11.66
630.025	11.87
630.357	12.06
630.689	12.1
631.021	12.17
631.353	12.19
631.684	12.26
632.016	11.78
632.348	12.05
632.679	12.58
633.011	12.68
633.342	12.22
633.674	12.14
634.005	12.37
634.336	12.71
634.668	12.35
634.999	12.51
635.33	12.43
635.661	12.51
635.992	12.64
636.323	12.48
636.654	12.57
636.985	12.45
637.316	12.57
637.647	12.69
637.977	12.88
638.308	12.87
638.639	12.83
638.969	12.89
639.3	12.93
639.63	13.04
639.961	13.11
640.291	12.78
640.622	13.23
640.952	13.09
641.282	12.97
641.612	13.16
641.943	12.85
642.273	13.18
642.603	13.4
642.933	13.3
643.263	13.39
643.592	13.37
643.922	13.75
644.252	13.13
644.582	13.61
644.911	13.76
645.241	13.53
645.571	13.69
645.9	13.51
646.23	13.89
646.559	13.48
646.888	14.09
647.218	13.97
647.547	13.63
647.876	13.9
648.205	13.57
648.534	13.99
648.863	13.47
649.192	14.09
649.521	14.3
649.85	14.27
650.179	14.3
650.508	14.13
650.837	14.37
651.165	14.23
651.494	14.39
651.822	13.84
652.151	14.22
652.479	14.15
652.808	14.1
653.136	13.64
653.465	14.27
653.793	14.45
654.121	14.5
654.449	14.33
654.777	14.21
655.105	14.2
655.433	14.67
655.761	14.74
656.089	14.39
656.417	15.28
656.745	15.2
657.073	14.63
657.4	14.65
657.728	14.61
658.056	14.39
658.383	14.93
658.711	15
659.038	15.29
659.365	15.37
659.693	15.21
660.02	15.44
660.347	15.13
660.674	14.81
661.001	14.5
661.329	14.71
661.656	15.1
661.982	15.39
662.309	15.2
662.636	14.93
662.963	15.09
663.29	15.5
663.616	15.39
663.943	15.45
664.27	15.85
664.596	15.24
664.923	15.58
665.249	15.87
665.576	15.53
665.902	15.18
666.228	16.44
666.554	16.7
666.881	15.31
667.207	15.78
667.533	16.24
667.859	15.82
668.185	15.96
668.511	16.34
668.837	16.22
669.162	16.3
669.488	15.8
669.814	16.36
670.139	15.76
670.465	15.99
670.791	15.79
671.116	15.65
671.442	15.4
671.767	16.38
672.092	16.53
672.418	16.01
672.743	16.56
673.068	16.21
673.393	16.44
673.718	16.77
674.043	16.8
674.368	16.45
674.693	16.86
675.018	17.34
675.343	17.3
675.667	16.8
675.992	16.61
676.317	16.18
676.641	17.27
676.966	17.24
677.29	16.83
677.615	17.08
677.939	17.09
678.264	17.03
678.588	16.65
678.912	17.13
679.236	17.11
679.56	16.63
679.885	17.68
680.209	17.91
680.532	17.99
680.856	17.64
681.18	17.98
681.504	17.25
681.828	17.03
682.152	17.18
682.475	17.15
682.799	16.75
683.122	17.65
683.446	16.94
683.769	17.32
684.093	17.86
684.416	17.06
684.739	17.82
685.062	17.88
685.386	18.09
685.709	18.09
686.032	17.85
686.355	17.88
686.678	18.08
687.001	18.27
