Data from 21-10_crown_Reflection__1__51.txt Node

Date: Thu Dec 15 16:51:16 CST 2022
User: ToomeyLab
Spectrometer: FLMS14357
Trigger mode: 0
Integration Time (sec): 1.000000E-2
Scans to average: 100
Electric dark correction enabled: true
Nonlinearity correction enabled: false
Boxcar width: 0
XAxis mode: Wavelengths
Number of Pixels in Spectrum: 2048
>>>>>Begin Spectral Data<<<<<
189.047	40.18
189.435	40.18
189.823	40.18
190.211	244.25
190.599	13.58
190.987	-884.72
191.375	1.75
191.763	54.54
192.151	89.12
192.538	330.22
192.926	106.09
193.314	148.76
193.702	352.45
194.089	160.94
194.477	-31.54
194.864	119.45
195.252	285.13
195.639	56.88
196.027	7787.5
196.414	961.97
196.801	-109.94
197.189	96.44
197.576	-121.25
197.963	8.71
198.351	28.84
198.738	33.92
199.125	1.19
199.512	36.3
199.899	-45.75
200.286	-183.76
200.673	55.96
201.06	27.03
201.447	6.12
201.833	-1.4
202.22	14.93
202.607	-2.17
202.994	3.69
203.38	38.45
203.767	38.58
204.154	28.5
204.54	20.95
204.927	40.58
205.313	26.9
205.699	25.32
206.086	33.26
206.472	26.02
206.858	-8.41
207.245	2.08
207.631	31.34
208.017	27.03
208.403	-44.42
208.789	-12.37
209.175	-7.65
209.561	-31.73
209.947	11.49
210.333	12.63
210.719	25.67
211.105	33.32
211.491	13.73
211.876	0.49
212.262	16.1
212.648	42.55
213.034	11.05
213.419	-15.12
213.805	-14.38
214.19	11.26
214.576	8.28
214.961	9.71
215.346	-25.79
215.732	10.8
216.117	0.67
216.502	-9.68
216.888	34.31
217.273	40.7
217.658	-9.21
218.043	-5.49
218.428	1.7
218.813	6.92
219.198	-12.86
219.583	11.42
219.968	20.89
220.353	-13.92
220.738	3.01
221.122	-4.61
221.507	8.66
221.892	-21.09
222.276	-9.74
222.661	-3.41
223.046	-9.48
223.43	16.23
223.815	-4.29
224.199	-3.61
224.583	-2.73
224.968	5.11
225.352	-1.02
225.736	13.63
226.121	2.98
226.505	1.96
226.889	1.16
227.273	-0.49
227.657	4.75
228.041	5.17
228.425	4.32
228.809	2.79
229.193	4.67
229.577	4.47
229.961	3.14
230.344	3.45
230.728	4.75
231.112	4.45
231.495	3.38
231.879	4.24
232.263	4.56
232.646	3.84
233.03	6.64
233.413	4.07
233.797	3.48
234.18	2.2
234.563	4.59
234.946	3.01
235.33	4.74
235.713	3.68
236.096	5.45
236.479	5.33
236.862	3.52
237.245	2.88
237.628	4.48
238.011	4.05
238.394	4.68
238.777	3.89
239.16	5.61
239.543	5.04
239.925	3.83
240.308	2.9
240.691	3.37
241.073	4.18
241.456	3.9
241.838	3.46
242.221	4.52
242.603	4.09
242.986	4.65
243.368	4.25
243.75	4.07
244.133	3.98
244.515	3.41
244.897	3.61
245.279	3.16
245.661	2.87
246.043	3.69
246.425	4.23
246.807	3.05
247.189	3.48
247.571	3.75
247.953	3.5
248.335	3.8
248.717	3.56
249.098	3.57
249.48	3.24
249.862	3.92
250.243	3.65
250.625	4.34
251.006	3.98
251.388	3.72
251.769	2.47
252.151	4.41
252.532	3.27
252.913	3.75
253.295	3.3
253.676	3.83
254.057	3.46
254.438	3.51
254.819	3.09
255.2	4.25
255.581	3.66
255.962	3.86
256.343	4.48
256.724	3.66
257.105	3.62
257.486	2.78
257.867	3.54
258.247	3.97
258.628	4.26
259.009	3.29
259.389	2.98
259.77	3.38
260.15	3.77
260.531	3.63
260.911	2.99
261.292	3.28
261.672	3.19
262.052	3.26
262.432	3.02
262.813	3.6
263.193	3.1
263.573	2.99
263.953	2.81
264.333	3.54
264.713	3.28
265.093	3.34
265.473	2.23
265.853	3.38
266.233	3.31
266.612	2.88
266.992	3.41
267.372	3.64
267.752	3.58
268.131	3.3
268.511	3.38
268.89	3.19
269.27	2.69
269.649	3.14
270.029	2.94
270.408	3.01
270.787	3.07
271.167	3.55
271.546	3.54
271.925	3.17
272.304	2.86
272.683	3.17
273.062	3.07
273.441	2.89
273.82	3.23
274.199	3.13
274.578	3.05
274.957	2.99
275.336	3.26
275.715	3.5
276.093	2.53
276.472	2.56
276.851	3.06
277.229	3.39
277.608	2.67
277.986	3.01
278.365	3.72
278.743	3.41
279.122	3.05
279.5	3.43
279.878	2.87
280.257	3.08
280.635	3.09
281.013	2.55
281.391	3.15
281.769	3.47
282.147	2.86
282.525	2.17
282.903	2.77
283.281	2.99
283.659	3.47
284.037	2.84
284.415	2.34
284.792	2.93
285.17	2.76
285.548	3.04
285.925	2.92
286.303	3.42
286.68	2.96
287.058	2.98
287.435	2.58
287.813	2.66
288.19	2.97
288.567	2.72
288.945	2.89
289.322	2.95
289.699	3.26
290.076	2.81
290.453	2.65
290.83	3.05
291.207	2.91
291.584	2.66
291.961	2.63
292.338	2.84
292.715	2.38
293.092	3.1
293.469	2.86
293.845	3.08
294.222	3.16
294.599	2.71
294.975	2.26
295.352	2.87
295.728	2.79
296.105	2.32
296.481	2.23
296.858	2.86
297.234	2.45
297.61	2.44
297.986	2.98
298.363	2.91
298.739	2.95
299.115	2.71
299.491	3.02
299.867	2.61
300.243	2.59
300.619	2.4
300.995	2.87
301.371	3.33
301.746	2.82
302.122	2.68
302.498	2.72
302.874	2.82
303.249	2.46
303.625	2.23
304	3.37
304.376	3.12
304.751	2.78
305.127	2.38
305.502	2.77
305.878	2.86
306.253	2.76
306.628	3.01
307.003	2.6
307.378	2.16
307.754	2.61
308.129	2.45
308.504	3.32
308.879	2.96
309.254	3.09
309.629	2.73
310.003	2.85
310.378	2.7
310.753	2.94
311.128	2.3
311.502	2.87
311.877	2.66
312.252	2.87
312.626	3.13
313.001	2.79
313.375	2.76
313.75	2.73
314.124	2.9
314.498	2.91
314.873	2.5
315.247	2.84
315.621	2.72
315.995	2.62
316.369	2.55
316.743	2.69
317.117	2.4
317.491	2.77
317.865	2.26
318.239	3.17
318.613	2.45
318.987	2.29
319.361	3.11
319.734	2.85
320.108	2.98
320.482	2.63
320.855	2.6
321.229	2.88
321.602	2.82
321.976	1.94
322.349	3.01
322.723	3.28
323.096	2.84
323.469	2.36
323.843	2.58
324.216	2.74
324.589	2.81
324.962	2.58
325.335	2.4
325.708	2.9
326.081	2.99
326.454	2.67
326.827	2.69
327.2	2.63
327.573	2.68
327.945	2.52
328.318	2.38
328.691	2.83
329.063	2.48
329.436	2.58
329.809	3.05
330.181	3.3
330.553	2.42
330.926	2.88
331.298	2.69
331.671	3.26
332.043	2.6
332.415	3.25
332.787	3.21
333.159	2.67
333.532	3.11
333.904	2.85
334.276	3.16
334.648	2.88
335.02	2.86
335.391	2.68
335.763	2.81
336.135	3.13
336.507	3.22
336.879	2.39
337.25	2.75
337.622	3.01
337.993	2.98
338.365	2.87
338.736	2.88
339.108	2.72
339.479	2.71
339.851	3.22
340.222	3.24
340.593	2.9
340.964	2.96
341.336	2.94
341.707	2.6
342.078	2.7
342.449	2.69
342.82	2.85
343.191	2.62
343.562	3.11
343.933	2.45
344.303	3.2
344.674	2.47
345.045	2.95
345.416	3.11
345.786	3.01
346.157	3.15
346.527	2.75
346.898	2.55
347.268	3.13
347.639	2.86
348.009	3.02
348.38	2.66
348.75	3.09
349.12	3.02
349.49	3
349.861	2.91
350.231	2.9
350.601	3.22
350.971	2.77
351.341	2.98
351.711	2.77
352.081	2.59
352.45	2.73
352.82	2.61
353.19	2.75
353.56	2.92
353.929	2.67
354.299	2.92
354.669	2.73
355.038	3.23
355.408	2.99
355.777	3.23
356.147	2.81
356.516	2.98
356.885	2.98
357.254	2.63
357.624	2.46
357.993	2.87
358.362	3.02
358.731	3.26
359.1	3.03
359.469	2.89
359.838	2.84
360.207	2.95
360.576	3.09
360.945	3.2
361.314	2.81
361.682	2.86
362.051	2.79
362.42	2.99
362.788	2.96
363.157	2.9
363.525	3.06
363.894	2.72
364.262	2.91
364.631	3.18
364.999	2.98
365.367	2.73
365.735	2.91
366.104	2.97
366.472	3.14
366.84	3.11
367.208	3.11
367.576	2.94
367.944	3.04
368.312	2.95
368.68	3.13
369.048	3.12
369.416	2.7
369.783	2.97
370.151	3.5
370.519	3.37
370.886	3
371.254	3.14
371.621	3.12
371.989	2.88
372.356	3.03
372.724	3.02
373.091	2.84
373.458	2.86
373.826	3.24
374.193	3.06
374.56	2.95
374.927	3.19
375.294	3.23
375.661	3.32
376.028	2.98
376.395	3.11
376.762	3
377.129	3
377.496	3.2
377.863	3.23
378.229	3.44
378.596	3.5
378.963	3.1
379.329	3.25
379.696	2.9
380.062	3.25
380.429	2.74
380.795	3.33
381.161	2.87
381.528	2.67
381.894	3.22
382.26	3.02
382.626	3.2
382.993	3.48
383.359	3.04
383.725	3.04
384.091	3.19
384.457	3.11
384.823	3.37
385.188	3.32
385.554	3.15
385.92	2.97
386.286	3.29
386.651	2.98
387.017	3.46
387.383	3.25
387.748	3.39
388.114	3.52
388.479	3.19
388.845	3.04
389.21	3.52
389.575	3.53
389.94	3.35
390.306	3.23
390.671	3.34
391.036	3.09
391.401	3.19
391.766	3.11
392.131	3.39
392.496	3.18
392.861	3.17
393.226	3.06
393.591	3.27
393.956	3.29
394.32	3.34
394.685	3.25
395.05	3.44
395.414	3.16
395.779	3.36
396.143	3.01
396.508	3.11
396.872	3.14
397.236	3.5
397.601	3.48
397.965	3.24
398.329	3.45
398.694	3.07
399.058	3.27
399.422	3.03
399.786	3.13
400.15	3.1
400.514	3.36
400.878	3.14
401.242	3.5
401.605	3.33
401.969	3.33
402.333	2.91
402.697	3.43
403.06	3.31
403.424	3.48
403.787	3.22
404.151	3.45
404.514	3.47
404.878	3.01
405.241	3.32
405.604	3.14
405.968	3.26
406.331	3.33
406.694	3.31
407.057	3.28
407.42	3.25
407.783	3.58
408.146	3.26
408.509	3.19
408.872	3.35
409.235	3.22
409.598	3.31
409.961	3.68
410.323	3.29
410.686	3.4
411.049	3.05
411.411	3.34
411.774	3.36
412.136	3.38
412.499	3.5
412.861	3.05
413.223	3.18
413.586	3.34
413.948	3.47
414.31	3.43
414.672	3.31
415.035	3.44
415.397	3.3
415.759	3.02
416.121	3.43
416.483	3.25
416.845	3.52
417.206	3.27
417.568	3.15
417.93	3.35
418.292	3.1
418.653	3.06
419.015	3.3
419.377	3.24
419.738	3.33
420.1	3.24
420.461	3.18
420.822	3.27
421.184	3.15
421.545	3.26
421.906	3.24
422.267	3.19
422.629	3.12
422.99	3.18
423.351	3.17
423.712	3.24
424.073	3.29
424.434	3.31
424.795	3.09
425.155	3.22
425.516	3.25
425.877	3.18
426.238	3.16
426.598	3.34
426.959	3.27
427.32	3.23
427.68	3.31
428.041	3.27
428.401	3.15
428.761	3.4
429.122	3.37
429.482	3.3
429.842	3.3
430.202	3.42
430.563	3.31
430.923	3.26
431.283	3.38
431.643	3.52
432.003	3.3
432.363	3.41
432.722	3.28
433.082	3.25
433.442	3.43
433.802	3.27
434.161	3.27
434.521	3.3
434.881	3.34
435.24	3.2
435.6	3.22
435.959	3.35
436.319	3.3
436.678	3.31
437.037	3.25
437.396	3.29
437.756	3.22
438.115	3.37
438.474	3.29
438.833	3.26
439.192	3.2
439.551	3.2
439.91	3.31
440.269	3.23
440.628	3.18
440.987	3.26
441.345	3.24
441.704	3.28
442.063	3.31
442.421	3.39
442.78	3.32
443.138	3.25
443.497	3.24
443.855	3.36
444.214	3.1
444.572	3.44
444.93	3.26
445.288	3.25
445.647	3.14
446.005	3.29
446.363	3.27
446.721	3.28
447.079	3.2
447.437	3.2
447.795	3.2
448.153	3.17
448.51	3.25
448.868	3.23
449.226	3.34
449.584	3.31
449.941	3.37
450.299	3.28
450.656	3.31
451.014	3.36
451.371	3.46
451.729	3.29
452.086	3.34
452.443	3.49
452.801	3.2
453.158	3.48
453.515	3.34
453.872	3.27
454.229	3.06
454.586	3.27
454.943	3.27
455.3	3.33
455.657	3.29
456.014	3.32
456.371	3.31
456.727	3.43
457.084	3.55
457.441	3.31
457.797	3.33
458.154	3.41
458.51	3.24
458.867	3.26
459.223	3.39
459.58	3.36
459.936	3.32
460.292	3.24
460.648	3.23
461.005	3.23
461.361	3.16
461.717	3.19
462.073	3.36
462.429	3.32
462.785	3.46
463.141	3.44
463.496	3.39
463.852	3.48
464.208	3.35
464.564	3.25
464.919	3.34
465.275	3.39
465.631	3.58
465.986	3.52
466.342	3.33
466.697	3.36
467.052	3.47
467.408	3.4
467.763	3.28
468.118	3.27
468.473	3.51
468.829	3.27
469.184	3.31
469.539	3.31
469.894	3.28
470.249	3.44
470.603	3.37
470.958	3.42
471.313	3.37
471.668	3.28
472.023	3.39
472.377	3.29
472.732	3.51
473.086	3.37
473.441	3.35
473.795	3.48
474.15	3.38
474.504	3.33
474.859	3.1
475.213	3.49
475.567	3.27
475.921	3.49
476.275	3.42
476.63	3.36
476.984	3.15
477.338	3.46
477.692	3.4
478.045	3.37
478.399	3.35
478.753	3.34
479.107	3.43
479.461	3.37
479.814	3.39
480.168	3.35
480.521	3.42
480.875	3.5
481.228	3.38
481.582	3.34
481.935	3.32
482.289	3.4
482.642	3.5
482.995	3.38
483.348	3.23
483.701	3.31
484.055	3.23
484.408	3.21
484.761	3.16
485.114	3.05
485.466	3
485.819	3.06
486.172	3.13
486.525	3.18
486.878	3.27
487.23	3.27
487.583	3.27
487.936	3.25
488.288	3.19
488.641	3.1
488.993	3.13
489.345	3.09
489.698	3.12
490.05	3.14
490.402	3.18
490.754	3.2
491.107	3.27
491.459	3.29
491.811	3.25
492.163	3.24
492.515	3.13
492.866	3.13
493.218	3.18
493.57	3.18
493.922	3.22
494.274	3.33
494.625	3.4
494.977	3.34
495.328	3.4
495.68	3.3
496.031	3.27
496.383	3.27
496.734	3.27
497.086	3.38
497.437	3.36
497.788	3.4
498.139	3.24
498.49	3.36
498.842	3.42
499.193	3.27
499.544	3.31
499.894	3.24
500.245	3.5
500.596	3.31
500.947	3.33
501.298	3.25
501.648	3.31
501.999	3.36
502.35	3.24
502.7	3.41
503.051	3.27
503.401	3.26
503.752	3.41
504.102	3.31
504.452	3.32
504.803	3.26
505.153	3.37
505.503	3.32
505.853	3.35
506.203	3.3
506.553	3.26
506.903	3.49
507.253	3.34
507.603	3.44
507.953	3.24
508.303	3.38
508.652	3.2
509.002	3.54
509.352	3.27
509.701	3.26
510.051	3.33
510.4	3.35
510.75	3.28
511.099	3.22
511.449	3.32
511.798	3.25
512.147	3.24
512.496	3.24
512.846	3.35
513.195	3.29
513.544	3.42
513.893	3.29
514.242	3.26
514.591	3.27
514.939	3.42
515.288	3.38
515.637	3.33
515.986	3.35
516.334	3.4
516.683	3.33
517.032	3.25
517.38	3.29
517.729	3.19
518.077	3.33
518.426	3.34
518.774	3.29
519.122	3.25
519.47	3.21
519.819	3.26
520.167	3.18
520.515	3.22
520.863	3.2
521.211	3.22
521.559	3.29
521.907	3.27
522.255	3.25
522.602	3.31
522.95	3.38
523.298	3.33
523.645	3.33
523.993	3.28
524.341	3.33
524.688	3.28
525.036	3.27
525.383	3.29
525.73	3.21
526.078	3.24
526.425	3.28
526.772	3.24
527.119	3.28
527.466	3.24
527.814	3.23
528.161	3.2
528.508	3.25
528.854	3.22
529.201	3.16
529.548	3.15
529.895	3.08
530.242	3.03
530.588	3.02
530.935	3.11
531.282	3.11
531.628	3.18
531.975	3.19
532.321	3.2
532.667	3.26
533.014	3.29
533.36	3.26
533.706	3.26
534.052	3.19
534.399	3.19
534.745	3.09
535.091	3.06
535.437	3.11
535.783	3.17
536.129	3.15
536.474	3.29
536.82	3.31
537.166	3.21
537.512	3.2
537.857	3.23
538.203	3.18
538.549	3.15
538.894	3.25
539.239	3.28
539.585	3.31
539.93	3.32
540.276	3.2
540.621	3.37
540.966	3.21
541.311	3.3
541.656	3.18
542.001	3.26
542.346	3.12
542.691	3.03
543.036	3.11
543.381	3.09
543.726	3.19
544.071	3.18
544.415	3.19
544.76	3.16
545.105	3.18
545.449	3.24
545.794	3.17
546.138	3.19
546.483	3.25
546.827	3.28
547.171	3.21
547.516	3.2
547.86	3.25
548.204	3.26
548.548	3.2
548.892	3.28
549.236	3.25
549.58	3.29
549.924	3.39
550.268	3.39
550.612	3.37
550.956	3.36
551.3	3.49
551.643	3.29
551.987	3.38
552.33	3.39
552.674	3.32
553.017	3.46
553.361	3.39
553.704	3.38
554.048	3.22
554.391	3.28
554.734	3.2
555.077	3.15
555.42	3.19
555.764	3.23
556.107	3.34
556.45	3.35
556.793	3.39
557.135	3.35
557.478	3.36
557.821	3.27
558.164	3.43
558.507	3.12
558.849	3.44
559.192	3.25
559.534	3.33
559.877	3.36
560.219	3.33
560.562	3.19
560.904	3.41
561.246	3.34
561.589	3.51
561.931	3.23
562.273	3.12
562.615	3.29
562.957	3.05
563.299	3.25
563.641	3.26
563.983	3.17
564.325	3.39
564.667	3.28
565.008	3.09
565.35	3.15
565.692	3.38
566.033	3.25
566.375	3.38
566.716	3.06
567.058	3.13
567.399	3.26
567.741	3.18
568.082	3.26
568.423	3.12
568.764	3.26
569.105	3.31
569.447	3.21
569.788	3.31
570.129	3.21
570.47	3.22
570.811	3.31
571.151	3.34
571.492	3.35
571.833	3.25
572.174	3.4
572.514	3.23
572.855	3.31
573.195	3.05
573.536	3.33
573.876	3.15
574.217	3.11
574.557	3.19
574.898	3.2
575.238	3.32
575.578	3.27
575.918	3.26
576.258	3.28
576.598	3.22
576.938	3.19
577.278	3.27
577.618	3.2
577.958	3.29
578.298	3.24
578.638	3.25
578.977	3.21
579.317	3.31
579.657	3.13
579.996	3.43
580.336	3.4
580.675	3.31
581.014	3.29
581.354	3.14
581.693	3.49
582.032	3.52
582.372	3.36
582.711	3.36
583.05	3.09
583.389	3.35
583.728	3.47
584.067	3.25
584.406	3.35
584.745	3.28
585.083	3.11
585.422	3.47
585.761	3.44
586.1	3.29
586.438	3.26
586.777	3.26
587.115	3.26
587.454	3.1
587.792	3.01
588.13	3.23
588.469	3.13
588.807	3.24
589.145	3.21
589.483	3.24
589.821	3.26
590.159	3.25
590.497	3.45
590.835	3.31
591.173	3.57
591.511	3.34
591.849	3.12
592.187	3.26
592.524	3.45
592.862	3.23
593.2	3.28
593.537	3.28
593.875	3.28
594.212	3.29
594.55	3.43
594.887	3.3
595.224	3.4
595.561	3.42
595.899	3.4
596.236	3.34
596.573	3.05
596.91	3.21
597.247	3.35
597.584	3.46
597.921	3.42
598.258	3.31
598.594	3.28
598.931	2.98
599.268	3.1
599.604	3.44
599.941	3.26
600.277	3.46
600.614	3.35
600.95	3.23
601.287	3.05
601.623	3.15
601.959	3.42
602.296	3.38
602.632	3.18
602.968	3.34
603.304	3.28
603.64	3.3
603.976	3.32
604.312	3.11
604.648	3.38
604.984	3.41
605.319	3.22
605.655	3.1
605.991	3.07
606.326	3.11
606.662	3.08
606.998	3.24
607.333	3.25
607.668	3.09
608.004	3.23
608.339	3
608.674	3.2
609.01	3.54
609.345	3.34
609.68	3.13
610.015	3.41
610.35	3.24
610.685	3
611.02	3.05
611.355	3.19
611.689	3.11
612.024	3.17
612.359	3.25
612.694	3.5
613.028	3.07
613.363	3.13
613.697	3.32
614.032	3.14
614.366	3.37
614.7	3.23
615.035	3.3
615.369	3.36
615.703	3.49
616.037	3.1
616.371	3.1
616.705	3.19
617.039	3.27
617.373	3.54
617.707	3.11
618.041	3.09
618.375	2.64
618.709	3.22
619.042	3.32
619.376	3.34
619.71	2.88
620.043	3.58
620.377	3.37
620.71	3.42
621.043	3.73
621.377	3.37
621.71	3.51
622.043	3.48
622.376	3.37
622.709	3.62
623.043	3.13
623.376	3.08
623.709	3.7
624.041	3.24
624.374	3.26
624.707	3.35
625.04	3.37
625.373	3.39
625.705	3.62
626.038	3.21
626.37	3.14
626.703	3.59
627.035	3.21
627.368	3.48
627.7	3.07
628.032	3.4
628.365	3.26
628.697	3.6
629.029	3.43
629.361	3.51
629.693	3.34
630.025	3.47
630.357	3.56
630.689	3.41
631.021	3.24
631.353	3.81
631.684	3.32
632.016	2.95
632.348	3.17
632.679	3.5
633.011	3.19
633.342	3.21
633.674	3.23
634.005	3.44
634.336	3.85
634.668	3.49
634.999	3.11
635.33	3.53
635.661	3.22
635.992	3.58
636.323	3.14
636.654	3.13
636.985	3.29
637.316	3.59
637.647	3.6
637.977	3.46
638.308	3.59
638.639	3.29
638.969	3.23
639.3	3.26
639.63	3.52
639.961	3.55
640.291	3.36
640.622	3.52
640.952	3.51
641.282	2.98
641.612	3.57
641.943	3.11
642.273	3.17
642.603	3.43
642.933	3.79
643.263	3.52
643.592	3.63
643.922	3.98
644.252	3.38
644.582	3.68
644.911	3.36
645.241	3.18
645.571	3.58
645.9	3.45
646.23	3.8
646.559	3.27
646.888	3.66
647.218	3.59
647.547	3.52
647.876	3.5
648.205	3.39
648.534	3.3
648.863	3.3
649.192	3.24
649.521	3.72
649.85	3.87
650.179	3.56
650.508	3.03
650.837	3.79
651.165	3.78
651.494	3.5
651.822	3.18
652.151	3.02
652.479	3.52
652.808	3.1
653.136	3.03
653.465	3.39
653.793	3.77
654.121	3.33
654.449	3.38
654.777	3.19
655.105	3.07
655.433	3.36
655.761	3.45
656.089	3.15
656.417	3.95
656.745	3.78
657.073	3.12
657.4	3.57
657.728	2.81
658.056	3.12
658.383	3.6
658.711	3.69
659.038	3.86
659.365	3.09
659.693	3.4
660.02	3.17
660.347	3.32
660.674	3.19
661.001	3.5
661.329	3.23
661.656	2.96
661.982	3.33
662.309	3.3
662.636	3.28
662.963	3.55
663.29	3.53
663.616	3.3
663.943	3.68
664.27	3.29
664.596	3.44
664.923	3.47
665.249	3.21
665.576	3.27
665.902	3.03
666.228	3.63
666.554	3.7
666.881	2.89
667.207	3.4
667.533	3.47
667.859	3.43
668.185	3.43
668.511	3.71
668.837	3.52
669.162	3.61
669.488	2.77
669.814	3.15
670.139	2.97
670.465	3.83
670.791	3.21
671.116	3.59
671.442	2.82
671.767	3.85
672.092	3.46
672.418	3.29
672.743	3.34
673.068	3.4
673.393	3.74
673.718	3.23
674.043	3.22
674.368	3.27
674.693	3.82
675.018	3.59
675.343	3.42
675.667	3.44
675.992	3.83
676.317	2.59
676.641	3.95
676.966	3.44
677.29	3.09
677.615	3.4
677.939	3.96
678.264	3.52
678.588	3.84
678.912	3.22
679.236	3.14
679.56	3
679.885	3.35
680.209	3.95
680.532	3.75
680.856	3.66
681.18	4.07
681.504	3.48
681.828	2.9
682.152	3.35
682.475	3.8
682.799	3.41
683.122	3.66
683.446	3.32
683.769	4.01
684.093	4.01
684.416	3.53
684.739	3.02
685.062	3.88
685.386	3.98
685.709	3.94
686.032	3.38
686.355	3.33
686.678	4.02
687.001	3.49
687.324	3.76
687.646	3.49
687.969	4.07
688.292	3.53
688.614	3.89
688.937	3.66
689.26	3.76
689.582	2.91
689.904	3.67
690.227	3.68
690.549	3.68
690.871	2.95
691.194	2.97
691.516	3.68
691.838	3.64
692.16	3.36
692.482	3.7
692.804	3.68
