Data from 21-10_chest_Reflection__1__46.txt Node

Date: Thu Dec 15 16:49:17 CST 2022
User: ToomeyLab
Spectrometer: FLMS14357
Trigger mode: 0
Integration Time (sec): 1.000000E-2
Scans to average: 100
Electric dark correction enabled: true
Nonlinearity correction enabled: false
Boxcar width: 0
XAxis mode: Wavelengths
Number of Pixels in Spectrum: 2048
>>>>>Begin Spectral Data<<<<<
189.047	44.2
189.435	44.2
189.823	44.2
190.211	130.87
190.599	50.36
190.987	-746.53
191.375	109.13
191.763	101.26
192.151	-14.29
192.538	245.02
192.926	450.8
193.314	150.05
193.702	542.26
194.089	116.59
194.477	172.02
194.864	95.45
195.252	136.44
195.639	119.33
196.027	3056.25
196.414	-48.01
196.801	-9.32
197.189	18.93
197.576	-934.38
197.963	-8.9
198.351	13.32
198.738	16.93
199.125	-0.52
199.512	35.02
199.899	11.91
200.286	-50.28
200.673	31.1
201.06	-4.03
201.447	1.05
201.833	11.85
202.22	37.43
202.607	-41.03
202.994	16.79
203.38	26.48
203.767	7.13
204.154	32.83
204.54	12.54
204.927	24.19
205.313	43.91
205.699	38.29
206.086	44.74
206.472	20.86
206.858	12.38
207.245	7.67
207.631	24.19
208.017	37.46
208.403	-4.82
208.789	16.66
209.175	2.48
209.561	-47.63
209.947	28.53
210.333	6.35
210.719	26.11
211.105	59.27
211.491	44
211.876	6.79
212.262	25.89
212.648	15.79
213.034	3.65
213.419	8.96
213.805	3.56
214.19	-15.96
214.576	29.44
214.961	17.18
215.346	-33.98
215.732	19.62
216.117	7.97
216.502	2.26
216.888	20.9
217.273	10.03
217.658	24.05
218.043	10.43
218.428	7.51
218.813	8.92
219.198	-2.22
219.583	18.83
219.968	-9.44
220.353	-15.55
220.738	6.68
221.122	-6.17
221.507	-1.2
221.892	-9.93
222.276	-25.75
222.661	8.03
223.046	10.14
223.43	13.75
223.815	2.19
224.199	1.4
224.583	-0.82
224.968	4.64
225.352	10.12
225.736	10.07
226.121	5.18
226.505	2.26
226.889	4.82
227.273	4.69
227.657	10.35
228.041	2.18
228.425	4.56
228.809	5.77
229.193	6.51
229.577	5.33
229.961	4.11
230.344	5.88
230.728	5.97
231.112	5.59
231.495	3.11
231.879	5.64
232.263	5.74
232.646	4.29
233.03	7.5
233.413	4.87
233.797	5.18
234.18	4.3
234.563	7.95
234.946	3.03
235.33	4.27
235.713	5.74
236.096	6.57
236.479	6.04
236.862	4.6
237.245	4.4
237.628	4.99
238.011	4.05
238.394	4.8
238.777	5.36
239.16	6.38
239.543	6.07
239.925	5.88
240.308	5.47
240.691	3.31
241.073	3.92
241.456	5.38
241.838	5.13
242.221	5.29
242.603	5.63
242.986	4.13
243.368	5.03
243.75	5.26
244.133	4.91
244.515	4.92
244.897	5.23
245.279	5.01
245.661	5.56
246.043	4.89
246.425	5.02
246.807	5.06
247.189	4.98
247.571	4.4
247.953	4.75
248.335	4.74
248.717	4.7
249.098	4.84
249.48	4.92
249.862	4.31
250.243	4.96
250.625	5.23
251.006	5.48
251.388	4.27
251.769	3.83
252.151	5.36
252.532	4.58
252.913	4.49
253.295	4.74
253.676	4.75
254.057	4.24
254.438	4.44
254.819	5.31
255.2	4.11
255.581	6.38
255.962	6.24
256.343	6.54
256.724	4.19
257.105	4.75
257.486	4.01
257.867	4.05
258.247	4.8
258.628	4.4
259.009	4.36
259.389	4.14
259.77	4.61
260.15	5
260.531	4.26
260.911	4.42
261.292	4.37
261.672	4.33
262.052	4.33
262.432	4.21
262.813	4.47
263.193	4.67
263.573	4.48
263.953	4.03
264.333	4.95
264.713	4.97
265.093	4.18
265.473	3.54
265.853	4.78
266.233	4.52
266.612	4.34
266.992	4.11
267.372	5.08
267.752	4.58
268.131	4.21
268.511	4.29
268.89	4.71
269.27	4.08
269.649	4.52
270.029	4.4
270.408	3.47
270.787	4.54
271.167	4.91
271.546	4.61
271.925	4.5
272.304	4.29
272.683	4.26
273.062	4.1
273.441	3.65
273.82	4.18
274.199	3.85
274.578	4.38
274.957	4.35
275.336	4.34
275.715	4.15
276.093	4.38
276.472	4.15
276.851	4.45
277.229	4.23
277.608	4.19
277.986	4.45
278.365	4.34
278.743	4.37
279.122	4.2
279.5	4.83
279.878	4.43
280.257	4.02
280.635	4.55
281.013	3.38
281.391	3.64
281.769	4.57
282.147	4.26
282.525	3.86
282.903	4.09
283.281	4.35
283.659	3.8
284.037	3.94
284.415	3.77
284.792	4.15
285.17	3.81
285.548	3.74
285.925	4.01
286.303	4.48
286.68	4.04
287.058	3.95
287.435	3.79
287.813	4.11
288.19	3.78
288.567	4.05
288.945	4.04
289.322	3.84
289.699	4.6
290.076	4.34
290.453	3.68
290.83	4
291.207	4.08
291.584	4.15
291.961	4.03
292.338	3.9
292.715	3.91
293.092	4.28
293.469	4.1
293.845	4.24
294.222	4.56
294.599	3.86
294.975	3.63
295.352	4.27
295.728	3.87
296.105	3.66
296.481	4.24
296.858	3.84
297.234	3.59
297.61	3.99
297.986	4.23
298.363	4.01
298.739	4.33
299.115	3.82
299.491	4.37
299.867	3.94
300.243	3.96
300.619	3.76
300.995	3.96
301.371	4.28
301.746	4.33
302.122	3.8
302.498	4.25
302.874	3.91
303.249	3.82
303.625	3.71
304	4.38
304.376	4.47
304.751	4.06
305.127	3.78
305.502	4.14
305.878	4.24
306.253	4.18
306.628	3.82
307.003	3.96
307.378	4.1
307.754	4.25
308.129	3.43
308.504	3.82
308.879	3.92
309.254	4.33
309.629	4.11
310.003	4.18
310.378	4.34
310.753	4.37
311.128	3.6
311.502	4.07
311.877	3.73
312.252	3.92
312.626	4.11
313.001	4.09
313.375	4.27
313.75	4.14
314.124	3.9
314.498	4.15
314.873	3.75
315.247	3.92
315.621	3.43
315.995	3.93
316.369	3.53
316.743	3.81
317.117	3.71
317.491	4.15
317.865	4.11
318.239	4.38
318.613	3.61
318.987	3.59
319.361	4.06
319.734	4.18
320.108	4.04
320.482	3.72
320.855	3.62
321.229	3.57
321.602	3.96
321.976	3.35
322.349	4.28
322.723	3.8
323.096	3.82
323.469	3.48
323.843	3.48
324.216	3.73
324.589	3.78
324.962	3.58
325.335	4.05
325.708	3.89
326.081	3.86
326.454	3.85
326.827	3.97
327.2	3.62
327.573	4.19
327.945	4.01
328.318	3.5
328.691	3.78
329.063	3.99
329.436	3.85
329.809	4.53
330.181	4.77
330.553	4.17
330.926	4.25
331.298	4.26
331.671	3.86
332.043	3.96
332.415	4.48
332.787	4.2
333.159	3.65
333.532	3.79
333.904	3.96
334.276	4.52
334.648	4.1
335.02	3.66
335.391	3.66
335.763	3.81
336.135	3.94
336.507	4.18
336.879	3.84
337.25	4.03
337.622	3.91
337.993	4.25
338.365	4.21
338.736	4.51
339.108	4.02
339.479	3.7
339.851	3.75
340.222	4.11
340.593	4
340.964	3.62
341.336	3.79
341.707	4.13
342.078	3.82
342.449	4.03
342.82	3.96
343.191	4.22
343.562	4.42
343.933	4.01
344.303	3.94
344.674	3.77
345.045	4.24
345.416	4.44
345.786	4
346.157	4.05
346.527	3.89
346.898	3.63
347.268	4.09
347.639	4.22
348.009	4.2
348.38	3.75
348.75	4.04
349.12	4.1
349.49	3.67
349.861	4.16
350.231	4.05
350.601	4.19
350.971	3.73
351.341	4.22
351.711	3.92
352.081	3.63
352.45	3.4
352.82	3.66
353.19	4.08
353.56	3.83
353.929	3.96
354.299	4.15
354.669	4.16
355.038	3.9
355.408	3.92
355.777	3.95
356.147	3.78
356.516	3.76
356.885	3.74
357.254	3.85
357.624	3.36
357.993	3.84
358.362	4.05
358.731	4.13
359.1	3.85
359.469	3.82
359.838	4.11
360.207	4.09
360.576	4.08
360.945	4.06
361.314	3.82
361.682	3.71
362.051	4.03
362.42	3.85
362.788	3.83
363.157	3.8
363.525	3.9
363.894	3.66
364.262	3.95
364.631	4.06
364.999	3.81
365.367	3.72
365.735	4.08
366.104	3.75
366.472	3.59
366.84	4.07
367.208	4.17
367.576	3.59
367.944	4.06
368.312	3.81
368.68	3.97
369.048	4.05
369.416	3.86
369.783	3.84
370.151	4.3
370.519	4.08
370.886	4.19
371.254	4.37
371.621	3.95
371.989	4.37
372.356	3.94
372.724	3.76
373.091	3.79
373.458	3.59
373.826	4.04
374.193	3.92
374.56	4.35
374.927	4.07
375.294	3.96
375.661	3.98
376.028	3.89
376.395	4
376.762	4.04
377.129	3.89
377.496	4.31
377.863	4.2
378.229	4.29
378.596	4.24
378.963	4.09
379.329	4.06
379.696	3.96
380.062	4.14
380.429	3.82
380.795	4.08
381.161	3.9
381.528	3.87
381.894	4.02
382.26	4.09
382.626	4.27
382.993	4.42
383.359	4.13
383.725	3.88
384.091	4.07
384.457	3.56
384.823	3.95
385.188	4.01
385.554	4.14
385.92	3.94
386.286	3.92
386.651	4.19
387.017	3.96
387.383	3.94
387.748	4.21
388.114	4.11
388.479	3.88
388.845	4.03
389.21	4.41
389.575	4.35
389.94	4.14
390.306	4.16
390.671	4.18
391.036	4.24
391.401	4.07
391.766	3.94
392.131	4.26
392.496	4.12
392.861	3.98
393.226	3.93
393.591	4.05
393.956	4.07
394.32	4.2
394.685	4.31
395.05	4.18
395.414	4.06
395.779	4.33
396.143	3.98
396.508	4.04
396.872	4.06
397.236	4.32
397.601	4.29
397.965	4.31
398.329	4.09
398.694	3.93
399.058	4.16
399.422	4.08
399.786	3.87
400.15	3.98
400.514	4.38
400.878	4.19
401.242	4.44
401.605	4.03
401.969	4
402.333	4.09
402.697	4.39
403.06	4.39
403.424	4.14
403.787	4.14
404.151	4.09
404.514	4.23
404.878	3.97
405.241	4.18
405.604	4.17
405.968	4.22
406.331	4.02
406.694	4.04
407.057	4.04
407.42	4.19
407.783	4.23
408.146	4.09
408.509	4.25
408.872	4.17
409.235	4.44
409.598	4.34
409.961	4.25
410.323	4.05
410.686	4.18
411.049	4.22
411.411	4.09
411.774	4.19
412.136	4.2
412.499	4.4
412.861	3.93
413.223	4.23
413.586	4.26
413.948	4.25
414.31	4.41
414.672	4.14
415.035	4.38
415.397	4.22
415.759	4.05
416.121	4.21
416.483	4.24
416.845	4.28
417.206	4.21
417.568	4.15
417.93	4.21
418.292	4
418.653	3.97
419.015	4.19
419.377	4.16
419.738	4.14
420.1	4.22
420.461	4.07
420.822	4.13
421.184	4.03
421.545	4.18
421.906	4.19
422.267	4.06
422.629	4.02
422.99	4.05
423.351	4.15
423.712	4.15
424.073	4.18
424.434	4.28
424.795	4.13
425.155	4.02
425.516	4.08
425.877	4.13
426.238	4.07
426.598	4.08
426.959	4.12
427.32	4.12
427.68	4.18
428.041	4.15
428.401	4.09
428.761	4.3
429.122	4.31
429.482	4.24
429.842	4.1
430.202	4.28
430.563	4.2
430.923	4.17
431.283	4.25
431.643	4.33
432.003	4.29
432.363	4.39
432.722	4.18
433.082	4.27
433.442	4.39
433.802	4.18
434.161	4.21
434.521	4.22
434.881	4.35
435.24	4.17
435.6	4.34
435.959	4.22
436.319	4.24
436.678	4.34
437.037	4.29
437.396	4.17
437.756	4.24
438.115	4.34
438.474	4.22
438.833	4.23
439.192	4.27
439.551	4.24
439.91	4.3
440.269	4.26
440.628	4.27
440.987	4.21
441.345	4.35
441.704	4.37
442.063	4.22
442.421	4.26
442.78	4.13
443.138	4.33
443.497	4.23
443.855	4.3
444.214	4.14
444.572	4.32
444.93	4.28
445.288	4.3
445.647	4.23
446.005	4.3
446.363	4.21
446.721	4.17
447.079	4.18
447.437	4.2
447.795	4.33
448.153	4.18
448.51	4.29
448.868	4.21
449.226	4.32
449.584	4.3
449.941	4.28
450.299	4.31
450.656	4.42
451.014	4.31
451.371	4.32
451.729	4.29
452.086	4.29
452.443	4.5
452.801	4.3
453.158	4.58
453.515	4.26
453.872	4.39
454.229	4.15
454.586	4.29
454.943	4.36
455.3	4.51
455.657	4.4
456.014	4.35
456.371	4.48
456.727	4.45
457.084	4.62
457.441	4.5
457.797	4.43
458.154	4.48
458.51	4.35
458.867	4.39
459.223	4.24
459.58	4.45
459.936	4.4
460.292	4.37
460.648	4.23
461.005	4.36
461.361	4.24
461.717	4.28
462.073	4.4
462.429	4.39
462.785	4.48
463.141	4.45
463.496	4.47
463.852	4.59
464.208	4.36
464.564	4.29
464.919	4.5
465.275	4.48
465.631	4.63
465.986	4.57
466.342	4.29
466.697	4.47
467.052	4.59
467.408	4.52
467.763	4.41
468.118	4.27
468.473	4.4
468.829	4.41
469.184	4.54
469.539	4.43
469.894	4.5
470.249	4.47
470.603	4.56
470.958	4.67
471.313	4.57
471.668	4.56
472.023	4.52
472.377	4.51
472.732	4.54
473.086	4.6
473.441	4.56
473.795	4.76
474.15	4.63
474.504	4.54
474.859	4.34
475.213	4.54
475.567	4.35
475.921	4.46
476.275	4.53
476.63	4.65
476.984	4.4
477.338	4.51
477.692	4.49
478.045	4.46
478.399	4.51
478.753	4.59
479.107	4.55
479.461	4.48
479.814	4.52
480.168	4.52
480.521	4.62
480.875	4.58
481.228	4.53
481.582	4.42
481.935	4.62
482.289	4.57
482.642	4.74
482.995	4.49
483.348	4.41
483.701	4.52
484.055	4.41
484.408	4.45
484.761	4.38
485.114	4.24
485.466	4.23
485.819	4.24
486.172	4.28
486.525	4.31
486.878	4.4
487.23	4.42
487.583	4.48
487.936	4.44
488.288	4.44
488.641	4.37
488.993	4.33
489.345	4.31
489.698	4.34
490.05	4.37
490.402	4.39
490.754	4.47
491.107	4.52
491.459	4.57
491.811	4.54
492.163	4.53
492.515	4.44
492.866	4.42
493.218	4.4
493.57	4.43
493.922	4.43
494.274	4.54
494.625	4.61
494.977	4.63
495.328	4.58
495.68	4.57
496.031	4.64
496.383	4.66
496.734	4.52
497.086	4.71
497.437	4.65
497.788	4.7
498.139	4.66
498.49	4.69
498.842	4.76
499.193	4.57
499.544	4.69
499.894	4.68
500.245	4.72
500.596	4.69
500.947	4.58
501.298	4.68
501.648	4.72
501.999	4.75
502.35	4.56
502.7	4.94
503.051	4.71
503.401	4.8
503.752	4.68
504.102	4.75
504.452	4.65
504.803	4.61
505.153	4.79
505.503	4.82
505.853	4.9
506.203	4.85
506.553	4.76
506.903	4.78
507.253	4.76
507.603	4.83
507.953	4.84
508.303	4.76
508.652	4.75
509.002	4.98
509.352	4.75
509.701	4.67
510.051	4.73
510.4	4.76
510.75	4.76
511.099	4.71
511.449	4.84
511.798	4.72
512.147	4.76
512.496	4.8
512.846	4.84
513.195	4.84
513.544	4.87
513.893	4.76
514.242	4.71
514.591	4.79
514.939	4.92
515.288	5
515.637	4.82
515.986	4.9
516.334	4.84
516.683	4.88
517.032	4.88
517.38	4.89
517.729	4.94
518.077	4.97
518.426	5.05
518.774	4.73
519.122	4.89
519.47	4.85
519.819	4.87
520.167	4.79
520.515	4.85
520.863	4.84
521.211	4.86
521.559	4.9
521.907	5.01
522.255	4.81
522.602	4.99
522.95	5.02
523.298	5
523.645	5.03
523.993	4.96
524.341	5
524.688	4.96
525.036	5.03
525.383	5.07
525.73	4.9
526.078	5.1
526.425	4.97
526.772	5.02
527.119	4.97
527.466	4.99
527.814	4.96
528.161	5.01
528.508	5.05
528.854	4.94
529.201	4.9
529.548	4.93
529.895	4.84
530.242	4.81
530.588	4.82
530.935	4.83
531.282	4.93
531.628	4.9
531.975	4.94
532.321	4.96
532.667	5.09
533.014	5.14
533.36	5.11
533.706	5.13
534.052	5.11
534.399	5.06
534.745	5.05
535.091	5.02
535.437	5.06
535.783	5.05
536.129	5.05
536.474	5.23
536.82	5.2
537.166	5.15
537.512	5.18
537.857	5.24
538.203	5.18
538.549	5.15
538.894	5.22
539.239	5.27
539.585	5.35
539.93	5.4
540.276	5.37
540.621	5.41
540.966	5.37
541.311	5.52
541.656	5.26
542.001	5.29
542.346	5.27
542.691	5.2
543.036	5.21
543.381	5.27
543.726	5.31
544.071	5.36
544.415	5.36
544.76	5.38
545.105	5.5
545.449	5.39
545.794	5.44
546.138	5.52
546.483	5.54
546.827	5.47
547.171	5.57
547.516	5.58
547.86	5.58
548.204	5.51
548.548	5.57
548.892	5.62
549.236	5.67
549.58	5.7
549.924	5.71
550.268	5.73
550.612	5.79
550.956	5.83
551.3	6
551.643	5.86
551.987	5.82
552.33	5.92
552.674	5.82
553.017	5.84
553.361	5.98
553.704	5.98
554.048	5.8
554.391	5.88
554.734	5.78
555.077	5.85
555.42	5.89
555.764	5.88
556.107	5.99
556.45	6.09
556.793	6.22
557.135	5.91
557.478	6.04
557.821	6.06
558.164	6.2
558.507	6.01
558.849	6.2
559.192	6.08
559.534	5.95
559.877	6.2
560.219	6.04
560.562	6.19
560.904	6.36
561.246	6.1
561.589	6.32
561.931	6.37
562.273	6.16
562.615	6.23
562.957	6.08
563.299	6.3
563.641	6.34
563.983	6.24
564.325	6.36
564.667	6.26
565.008	6.22
565.35	6.37
565.692	6.45
566.033	6.38
566.375	6.38
566.716	6.3
567.058	6.35
567.399	6.47
567.741	6.49
568.082	6.4
568.423	6.4
568.764	6.5
569.105	6.6
569.447	6.62
569.788	6.55
570.129	6.67
570.47	6.68
570.811	6.7
571.151	6.67
571.492	6.62
571.833	6.74
572.174	6.91
572.514	6.87
572.855	6.8
573.195	6.64
573.536	6.83
573.876	6.72
574.217	6.92
574.557	6.7
574.898	6.85
575.238	6.95
575.578	7.03
575.918	6.86
576.258	7.13
576.598	6.95
576.938	6.85
577.278	7.05
577.618	7.07
577.958	7.14
578.298	7.06
578.638	6.86
578.977	7.21
579.317	7.13
579.657	7.08
579.996	7.34
580.336	7.5
580.675	7.19
581.014	7.37
581.354	7.14
581.693	7.39
582.032	7.51
582.372	7.35
582.711	7.57
583.05	7.38
583.389	7.73
583.728	7.47
584.067	7.38
584.406	7.58
584.745	7.5
585.083	7.45
585.422	7.75
585.761	7.73
586.1	7.75
586.438	7.51
586.777	7.64
587.115	7.68
587.454	7.57
587.792	7.55
588.13	7.69
588.469	7.63
588.807	7.93
589.145	8.06
589.483	7.47
589.821	7.94
590.159	7.93
590.497	7.88
590.835	8.07
591.173	8.05
591.511	8.24
591.849	8.24
592.187	7.94
592.524	8.05
592.862	7.86
593.2	8.17
593.537	8.02
593.875	8.13
594.212	8.29
594.55	8.03
594.887	8.35
595.224	8.05
595.561	8.3
595.899	8.36
596.236	8.32
596.573	8.18
596.91	8.28
597.247	8.45
597.584	8.4
597.921	8.54
598.258	8.51
598.594	8.39
598.931	8.11
599.268	8.33
599.604	8.29
599.941	8.43
600.277	8.47
600.614	8.52
600.95	8.65
601.287	8.43
601.623	8.58
601.959	9
602.296	8.89
602.632	8.71
602.968	8.76
603.304	9.02
603.64	8.89
603.976	8.87
604.312	8.98
604.648	8.98
604.984	9.06
605.319	8.99
605.655	8.9
605.991	8.86
606.326	8.95
606.662	8.86
606.998	9.06
607.333	9.02
607.668	8.87
608.004	9.16
608.339	9.11
608.674	9.24
609.01	9.4
609.345	9.27
609.68	9.44
610.015	9.29
610.35	9.37
610.685	9.04
611.02	9.31
611.355	9.26
611.689	9.46
612.024	9.51
612.359	9.52
612.694	9.5
613.028	9.35
613.363	9.54
613.697	9.65
614.032	9.52
614.366	9.52
614.7	9.82
615.035	9.94
615.369	9.92
615.703	9.76
616.037	9.75
616.371	9.56
616.705	9.79
617.039	10.04
617.373	9.95
617.707	9.93
618.041	9.9
618.375	9.64
618.709	10.12
619.042	10.11
619.376	9.98
619.71	10.58
620.043	10.35
620.377	10.21
620.71	10.33
621.043	10.43
621.377	10.5
621.71	10.43
622.043	10.2
622.376	10.32
622.709	10.78
623.043	10.49
623.376	10.31
623.709	10.77
624.041	10.45
624.374	10.55
624.707	10.66
625.04	10.75
625.373	10.71
625.705	10.78
626.038	11.24
626.37	10.82
626.703	11.14
627.035	10.85
627.368	11.12
627.7	10.76
628.032	10.8
628.365	11.08
628.697	11.16
629.029	10.84
629.361	11.27
629.693	10.89
630.025	11.05
630.357	11.1
630.689	11.12
631.021	11.27
631.353	11.25
631.684	10.87
632.016	10.89
632.348	11.31
632.679	11.4
633.011	11.49
633.342	11.09
633.674	11.15
634.005	11.56
634.336	11.58
634.668	11.41
634.999	11.16
635.33	11.49
635.661	11.22
635.992	11.63
636.323	11.57
636.654	11.82
636.985	11.6
637.316	11.56
637.647	11.77
637.977	11.69
638.308	11.65
638.639	11.81
638.969	11.86
639.3	12.01
639.63	11.65
639.961	12.25
640.291	12.09
640.622	12.35
640.952	12.28
641.282	11.81
641.612	11.79
641.943	12.04
642.273	12.02
642.603	12.74
642.933	12.52
643.263	12.74
643.592	12.69
643.922	12.72
644.252	12.36
644.582	12.97
644.911	12.74
645.241	12.41
645.571	12.9
645.9	12.64
646.23	12.75
646.559	12.53
646.888	13.12
647.218	12.82
647.547	12.8
647.876	12.65
648.205	12.71
648.534	12.93
648.863	12.49
649.192	12.79
649.521	12.73
649.85	13.15
650.179	13.04
650.508	12.85
650.837	13.09
651.165	13.03
651.494	12.97
651.822	13.06
652.151	13.07
652.479	13.17
652.808	13.54
653.136	13.04
653.465	12.94
653.793	13.46
654.121	13.5
654.449	12.81
654.777	12.75
655.105	13.1
655.433	13.48
655.761	13.56
656.089	13.52
656.417	13.89
656.745	14.01
657.073	13.65
657.4	13.92
657.728	13.6
658.056	13.88
658.383	13.82
658.711	13.98
659.038	14.29
659.365	14.05
659.693	13.67
660.02	13.97
660.347	13.89
660.674	13.79
661.001	13.85
661.329	14.01
661.656	13.59
661.982	13.69
662.309	14.02
662.636	13.86
662.963	14.32
663.29	14.22
663.616	14.46
663.943	14.24
664.27	14.15
664.596	14.51
664.923	14.26
665.249	14.79
665.576	14.17
665.902	14.18
666.228	14.41
666.554	14.77
666.881	14.57
667.207	14.84
667.533	14.7
667.859	14.49
668.185	14.77
668.511	14.99
668.837	14.74
669.162	14.87
669.488	14.69
669.814	14.81
670.139	14.24
670.465	15.31
670.791	14.99
671.116	14.71
671.442	14.42
671.767	14.93
672.092	14.94
672.418	15.14
672.743	15.06
673.068	15.21
673.393	15.16
673.718	15.48
674.043	14.91
674.368	15.39
674.693	15.56
675.018	15.74
675.343	15.87
675.667	15.36
675.992	15.19
676.317	14.94
676.641	15.52
676.966	15.69
677.29	15.44
677.615	15.75
677.939	15.82
678.264	15.47
678.588	15.4
678.912	16.16
679.236	15.62
679.56	15.71
679.885	16.11
680.209	16.07
680.532	16.39
680.856	16.12
681.18	16.54
681.504	16.34
681.828	15.6
682.152	15.85
682.475	16.05
682.799	15.9
683.122	16.12
683.446	15.67
683.769	15.86
684.093	16.62
684.416	15.89
684.739	15.97
685.062	16.82
685.386	16.54
685.709	16.28
686.032	16.54
686.355	16.33
686.678	16.7
687.001	16.18
687.324	16.93
687.646	16.39
687.969	16.42
