Data from 21-10_crown_Reflection__0__50.txt Node

Date: Thu Dec 15 16:51:05 CST 2022
User: ToomeyLab
Spectrometer: FLMS14357
Trigger mode: 0
Integration Time (sec): 1.000000E-2
Scans to average: 100
Electric dark correction enabled: true
Nonlinearity correction enabled: false
Boxcar width: 0
XAxis mode: Wavelengths
Number of Pixels in Spectrum: 2048
>>>>>Begin Spectral Data<<<<<
189.047	57.28
189.435	57.28
189.823	57.28
190.211	-511.5
190.599	16.05
190.987	-473.15
191.375	-240.5
191.763	33.73
192.151	-43.92
192.538	193.35
192.926	46.37
193.314	89.12
193.702	-123.37
194.089	-34.01
194.477	36.46
194.864	83.3
195.252	-7.75
195.639	53.75
196.027	11775
196.414	202.66
196.801	-7.02
197.189	105.67
197.576	-1202.5
197.963	-74.35
198.351	51.73
198.738	-49.23
199.125	-33.59
199.512	-2.38
199.899	-29.06
200.286	-37.62
200.673	30.7
201.06	-27.43
201.447	-7.31
201.833	-12.46
202.22	-2.3
202.607	-17.91
202.994	-2.14
203.38	32.95
203.767	65.33
204.154	13.7
204.54	13.17
204.927	-3.98
205.313	36.12
205.699	17.15
206.086	-5.55
206.472	2.26
206.858	9.11
207.245	-5.42
207.631	-27.76
208.017	19.01
208.403	0.48
208.789	15.05
209.175	7.6
209.561	-28.99
209.947	-13.81
210.333	9.64
210.719	3.57
211.105	23.97
211.491	-1.07
211.876	-26.67
212.262	6.43
212.648	19
213.034	-17.53
213.419	-20.71
213.805	1.79
214.19	-26.23
214.576	-8.76
214.961	-10.37
215.346	-22.48
215.732	-19.65
216.117	-21.88
216.502	-7.56
216.888	-6.51
217.273	12.19
217.658	3.04
218.043	-1.23
218.428	-46.16
218.813	3.6
219.198	-20.2
219.583	-14.34
219.968	-12.54
220.353	-12.41
220.738	1.76
221.122	-9.5
221.507	-10.38
221.892	-31.03
222.276	-10.87
222.661	-1.59
223.046	-15.7
223.43	3.81
223.815	-4.19
224.199	-1.06
224.583	-8.94
224.968	-1.8
225.352	-15.95
225.736	6.31
226.121	-6.83
226.505	-5.93
226.889	1.74
227.273	0.21
227.657	1.34
228.041	-0.32
228.425	-1.33
228.809	-2.17
229.193	0.63
229.577	0.68
229.961	0.66
230.344	1.53
230.728	1.44
231.112	1.19
231.495	-0.96
231.879	2.38
232.263	0.77
232.646	1.32
233.03	1.44
233.413	1.08
233.797	0.99
234.18	1.03
234.563	0.75
234.946	-1.14
235.33	0.68
235.713	2.18
236.096	3.49
236.479	1.72
236.862	0.75
237.245	0.09
237.628	1.76
238.011	1.66
238.394	0.63
238.777	0.19
239.16	1.34
239.543	4.21
239.925	1.57
240.308	0.16
240.691	0.78
241.073	-0.75
241.456	1.71
241.838	1.36
242.221	1.64
242.603	1.68
242.986	1.85
243.368	1.61
243.75	1.52
244.133	1.93
244.515	1.21
244.897	1.3
245.279	1.45
245.661	1.37
246.043	1.92
246.425	2.14
246.807	1.73
247.189	1.22
247.571	1.83
247.953	1.6
248.335	1.4
248.717	1.71
249.098	1.56
249.48	1.23
249.862	1.7
250.243	1.31
250.625	1.67
251.006	2.7
251.388	2.02
251.769	0.98
252.151	2.28
252.532	1.52
252.913	1.17
253.295	1.55
253.676	1.76
254.057	1.29
254.438	1.42
254.819	1.14
255.2	1.58
255.581	2.98
255.962	2.75
256.343	2.47
256.724	1.92
257.105	1.08
257.486	0.93
257.867	0.98
258.247	2.37
258.628	2
259.009	1.84
259.389	0.88
259.77	1.1
260.15	2.06
260.531	1.49
260.911	1.28
261.292	1.53
261.672	1.33
262.052	1.55
262.432	1.31
262.813	1.69
263.193	1.63
263.573	1.66
263.953	1.05
264.333	1.83
264.713	1.77
265.093	1.67
265.473	1.42
265.853	1.46
266.233	2.13
266.612	1.41
266.992	1.14
267.372	1.95
267.752	2
268.131	1.19
268.511	1.24
268.89	2.05
269.27	1.42
269.649	1.13
270.029	0.83
270.408	1.26
270.787	1.78
271.167	1.97
271.546	2.02
271.925	1.32
272.304	1.2
272.683	1.52
273.062	1.31
273.441	1.07
273.82	1.6
274.199	1.19
274.578	1.63
274.957	1.45
275.336	1.9
275.715	1.42
276.093	0.89
276.472	0.85
276.851	1.27
277.229	1.26
277.608	0.87
277.986	1.97
278.365	1.84
278.743	1.81
279.122	1.07
279.5	1.17
279.878	0.79
280.257	1.73
280.635	1.34
281.013	1.13
281.391	1.1
281.769	1.86
282.147	1.4
282.525	1.21
282.903	1.03
283.281	1.73
283.659	1.33
284.037	1.52
284.415	1.16
284.792	1.67
285.17	1.24
285.548	1.22
285.925	1.28
286.303	1.84
286.68	1.6
287.058	1.53
287.435	1.11
287.813	1.41
288.19	1.15
288.567	1.34
288.945	1.16
289.322	1.56
289.699	1.63
290.076	1.31
290.453	1.19
290.83	1.58
291.207	1.42
291.584	1.84
291.961	1.86
292.338	1.25
292.715	1.3
293.092	1.85
293.469	1.42
293.845	1.78
294.222	1.85
294.599	1.68
294.975	0.91
295.352	1.64
295.728	1.44
296.105	1.68
296.481	1.96
296.858	1.78
297.234	1.36
297.61	1.6
297.986	2
298.363	1.97
298.739	2
299.115	1.86
299.491	2.08
299.867	1.36
300.243	1.67
300.619	1.51
300.995	2.08
301.371	2.18
301.746	2.22
302.122	1.27
302.498	1.9
302.874	1.99
303.249	1.93
303.625	1.78
304	1.78
304.376	2.25
304.751	1.82
305.127	1.74
305.502	1.89
305.878	1.93
306.253	1.49
306.628	2.05
307.003	2.05
307.378	2.06
307.754	2.3
308.129	1.4
308.504	2.06
308.879	2.36
309.254	2.17
309.629	1.68
310.003	1.86
310.378	1.94
310.753	2.39
311.128	1.71
311.502	1.93
311.877	1.99
312.252	1.93
312.626	2.35
313.001	2
313.375	1.9
313.75	2.01
314.124	2.52
314.498	2.55
314.873	1.86
315.247	1.99
315.621	1.95
315.995	1.9
316.369	1.87
316.743	2.04
317.117	1.79
317.491	2.47
317.865	1.96
318.239	2.48
318.613	1.97
318.987	2.27
319.361	2.17
319.734	2.22
320.108	1.97
320.482	2.47
320.855	2.4
321.229	1.58
321.602	2.36
321.976	2.02
322.349	2.59
322.723	2.12
323.096	2.38
323.469	2.26
323.843	1.92
324.216	2.54
324.589	2.4
324.962	1.89
325.335	1.96
325.708	2.12
326.081	2.34
326.454	2.11
326.827	1.94
327.2	1.83
327.573	2.95
327.945	2.02
328.318	2.11
328.691	2.35
329.063	2.08
329.436	2.05
329.809	2.78
330.181	3.19
330.553	2.58
330.926	2.69
331.298	2.21
331.671	2.41
332.043	2.4
332.415	2.29
332.787	2.79
333.159	1.86
333.532	2.27
333.904	2.12
334.276	2.57
334.648	1.95
335.02	2.39
335.391	2
335.763	2.39
336.135	2.5
336.507	2.25
336.879	2.48
337.25	2.07
337.622	2.44
337.993	2.34
338.365	2.33
338.736	2.78
339.108	2.5
339.479	2.37
339.851	2.43
340.222	2.49
340.593	2.37
340.964	1.89
341.336	2.08
341.707	2.01
342.078	2.02
342.449	2.37
342.82	2.66
343.191	2.43
343.562	2.29
343.933	2.44
344.303	2.19
344.674	2.35
345.045	2.63
345.416	2.85
345.786	2.56
346.157	2.18
346.527	2.08
346.898	1.96
347.268	2.39
347.639	2.25
348.009	2.25
348.38	2.18
348.75	2.43
349.12	2.05
349.49	2.54
349.861	2.15
350.231	2.44
350.601	2.24
350.971	1.92
351.341	2.29
351.711	2.51
352.081	2.12
352.45	1.84
352.82	1.78
353.19	2.23
353.56	2.36
353.929	2.44
354.299	2.51
354.669	2.63
355.038	2.63
355.408	2.24
355.777	2.63
356.147	2.22
356.516	2.28
356.885	2.17
357.254	2.3
357.624	1.83
357.993	2.19
358.362	2.25
358.731	2.39
359.1	2.4
359.469	2.26
359.838	2.43
360.207	2.4
360.576	2.6
360.945	2.56
361.314	2.13
361.682	2.07
362.051	2.48
362.42	2.42
362.788	2.19
363.157	2.29
363.525	2.39
363.894	2.14
364.262	2.37
364.631	2.83
364.999	2.23
365.367	2.54
365.735	2.15
366.104	2.47
366.472	2.19
366.84	2.37
367.208	2.66
367.576	2.28
367.944	2.27
368.312	2.15
368.68	2.63
369.048	2.38
369.416	2.41
369.783	2.35
370.151	2.75
370.519	2.79
370.886	2.29
371.254	2.53
371.621	2.64
371.989	2.71
372.356	2.32
372.724	2.55
373.091	2.27
373.458	2.47
373.826	2.43
374.193	2.37
374.56	2.51
374.927	2.34
375.294	2.48
375.661	2.4
376.028	2.38
376.395	2.59
376.762	2.24
377.129	2.54
377.496	2.6
377.863	2.47
378.229	2.66
378.596	2.77
378.963	2.46
379.329	2.54
379.696	2.47
380.062	2.69
380.429	2.21
380.795	2.63
381.161	2.18
381.528	2.1
381.894	2.4
382.26	2.6
382.626	2.51
382.993	2.65
383.359	2.54
383.725	2.37
384.091	2.51
384.457	2.39
384.823	2.44
385.188	2.44
385.554	2.5
385.92	2.5
386.286	2.48
386.651	2.56
387.017	2.72
387.383	2.47
387.748	2.62
388.114	2.52
388.479	2.4
388.845	2.26
389.21	2.62
389.575	2.74
389.94	2.66
390.306	2.65
390.671	2.55
391.036	2.65
391.401	2.51
391.766	2.43
392.131	2.66
392.496	2.45
392.861	2.54
393.226	2.3
393.591	2.62
393.956	2.49
394.32	2.72
394.685	2.46
395.05	2.45
395.414	2.36
395.779	2.75
396.143	2.39
396.508	2.44
396.872	2.32
397.236	2.77
397.601	2.75
397.965	2.46
398.329	2.75
398.694	2.33
399.058	2.59
399.422	2.45
399.786	2.51
400.15	2.52
400.514	2.73
400.878	2.47
401.242	2.62
401.605	2.48
401.969	2.38
402.333	2.31
402.697	2.71
403.06	2.54
403.424	2.45
403.787	2.45
404.151	2.62
404.514	2.68
404.878	2.48
405.241	2.58
405.604	2.48
405.968	2.59
406.331	2.61
406.694	2.56
407.057	2.39
407.42	2.57
407.783	2.63
408.146	2.66
408.509	2.73
408.872	2.74
409.235	2.78
409.598	2.71
409.961	2.93
410.323	2.73
410.686	2.57
411.049	2.61
411.411	2.58
411.774	2.57
412.136	2.55
412.499	2.77
412.861	2.41
413.223	2.52
413.586	2.59
413.948	2.71
414.31	2.56
414.672	2.52
415.035	2.93
415.397	2.61
415.759	2.29
416.121	2.76
416.483	2.59
416.845	2.67
417.206	2.62
417.568	2.52
417.93	2.68
418.292	2.49
418.653	2.52
419.015	2.63
419.377	2.53
419.738	2.7
420.1	2.57
420.461	2.5
420.822	2.64
421.184	2.62
421.545	2.64
421.906	2.59
422.267	2.61
422.629	2.53
422.99	2.56
423.351	2.6
423.712	2.64
424.073	2.68
424.434	2.8
424.795	2.55
425.155	2.5
425.516	2.54
425.877	2.56
426.238	2.55
426.598	2.61
426.959	2.56
427.32	2.59
427.68	2.59
428.041	2.69
428.401	2.69
428.761	2.75
429.122	2.64
429.482	2.63
429.842	2.53
430.202	2.71
430.563	2.64
430.923	2.39
431.283	2.74
431.643	2.76
432.003	2.7
432.363	2.76
432.722	2.73
433.082	2.64
433.442	2.71
433.802	2.8
434.161	2.66
434.521	2.62
434.881	2.8
435.24	2.68
435.6	2.79
435.959	2.7
436.319	2.72
436.678	2.78
437.037	2.73
437.396	2.67
437.756	2.58
438.115	2.59
438.474	2.72
438.833	2.79
439.192	2.73
439.551	2.73
439.91	2.76
440.269	2.89
440.628	2.72
440.987	2.8
441.345	2.72
441.704	2.73
442.063	2.67
442.421	2.66
442.78	2.74
443.138	2.71
443.497	2.64
443.855	2.78
444.214	2.69
444.572	2.85
444.93	2.66
445.288	2.68
445.647	2.64
446.005	2.68
446.363	2.63
446.721	2.71
447.079	2.66
447.437	2.72
447.795	2.78
448.153	2.73
448.51	2.74
448.868	2.7
449.226	2.75
449.584	2.71
449.941	2.74
450.299	2.72
450.656	2.82
451.014	2.83
451.371	2.91
451.729	2.77
452.086	2.81
452.443	2.86
452.801	2.81
453.158	2.96
453.515	2.7
453.872	2.82
454.229	2.75
454.586	2.71
454.943	2.9
455.3	2.9
455.657	2.87
456.014	2.85
456.371	2.89
456.727	2.97
457.084	2.98
457.441	2.84
457.797	2.87
458.154	2.89
458.51	2.83
458.867	2.91
459.223	2.74
459.58	2.84
459.936	2.81
460.292	2.79
460.648	2.63
461.005	2.83
461.361	2.76
461.717	2.76
462.073	2.83
462.429	2.94
462.785	2.92
463.141	2.88
463.496	2.85
463.852	2.96
464.208	2.85
464.564	2.83
464.919	2.94
465.275	2.95
465.631	3.09
465.986	3.06
466.342	2.91
466.697	2.9
467.052	3.02
467.408	2.94
467.763	2.75
468.118	2.78
468.473	2.9
468.829	2.85
469.184	2.99
469.539	2.85
469.894	2.76
470.249	3.02
470.603	3.09
470.958	3
471.313	3.04
471.668	2.99
472.023	3.06
472.377	2.95
472.732	3.08
473.086	2.88
473.441	3
473.795	3.22
474.15	2.93
474.504	2.98
474.859	2.79
475.213	3.05
475.567	2.93
475.921	3.01
476.275	2.99
476.63	2.99
476.984	2.84
477.338	3.05
477.692	2.98
478.045	2.94
478.399	2.88
478.753	2.94
479.107	3
479.461	3.03
479.814	3
480.168	3.05
480.521	3.2
480.875	3.08
481.228	2.99
481.582	2.99
481.935	3.12
482.289	2.99
482.642	3.07
482.995	2.93
483.348	2.93
483.701	3.03
484.055	2.9
484.408	2.94
484.761	2.86
485.114	2.82
485.466	2.76
485.819	2.78
486.172	2.85
486.525	2.87
486.878	2.95
487.23	2.89
487.583	2.98
487.936	2.89
488.288	2.91
488.641	2.86
488.993	2.83
489.345	2.83
489.698	2.85
490.05	2.85
490.402	2.91
490.754	2.92
491.107	2.93
491.459	3.02
491.811	2.98
492.163	2.98
492.515	2.91
492.866	2.85
493.218	2.9
493.57	2.99
493.922	2.95
494.274	3.03
494.625	3.05
494.977	3.03
495.328	3.15
495.68	3.08
496.031	3.05
496.383	3.03
496.734	3.02
497.086	3.18
497.437	3.13
497.788	3.17
498.139	3.14
498.49	3.14
498.842	3.14
499.193	3.02
499.544	3.08
499.894	3.15
500.245	3.17
500.596	3.22
500.947	3.17
501.298	3.1
501.648	3.16
501.999	3.19
502.35	3.09
502.7	3.19
503.051	3.11
503.401	3.12
503.752	3.06
504.102	3.06
504.452	2.97
504.803	3.09
505.153	3.17
505.503	3.22
505.853	3.23
506.203	3.2
506.553	3.12
506.903	3.21
507.253	3.2
507.603	3.24
507.953	3.14
508.303	3.28
508.652	3.09
509.002	3.27
509.352	3.14
509.701	3.08
510.051	3.14
510.4	3.13
510.75	3.14
511.099	3.1
511.449	3.11
511.798	3.13
512.147	3.13
512.496	3.16
512.846	3.21
513.195	3.25
513.544	3.19
513.893	3.31
514.242	3.1
514.591	3.15
514.939	3.31
515.288	3.33
515.637	3.25
515.986	3.19
516.334	3.26
516.683	3.28
517.032	3.12
517.38	3.24
517.729	3.31
518.077	3.23
518.426	3.33
518.774	3.19
519.122	3.2
519.47	3.09
519.819	3.18
520.167	3.18
520.515	3.19
520.863	3.11
521.211	3.18
521.559	3.18
521.907	3.23
522.255	3.2
522.602	3.32
522.95	3.34
523.298	3.35
523.645	3.33
523.993	3.26
524.341	3.2
524.688	3.2
525.036	3.24
525.383	3.39
525.73	3.22
526.078	3.31
526.425	3.23
526.772	3.16
527.119	3.21
527.466	3.22
527.814	3.23
528.161	3.2
528.508	3.33
528.854	3.24
529.201	3.14
529.548	3.17
529.895	3.1
530.242	3.11
530.588	3.12
530.935	3.14
531.282	3.15
531.628	3.21
531.975	3.2
532.321	3.27
532.667	3.28
533.014	3.27
533.36	3.28
533.706	3.32
534.052	3.26
534.399	3.26
534.745	3.21
535.091	3.19
535.437	3.23
535.783	3.25
536.129	3.19
536.474	3.28
536.82	3.33
537.166	3.28
537.512	3.35
537.857	3.32
538.203	3.23
538.549	3.26
538.894	3.28
539.239	3.39
539.585	3.37
539.93	3.41
540.276	3.27
540.621	3.44
540.966	3.39
541.311	3.43
541.656	3.26
542.001	3.25
542.346	3.29
542.691	3.25
543.036	3.25
543.381	3.27
543.726	3.34
544.071	3.29
544.415	3.36
544.76	3.34
545.105	3.3
545.449	3.42
545.794	3.43
546.138	3.4
546.483	3.51
546.827	3.41
547.171	3.57
547.516	3.47
547.86	3.39
548.204	3.49
548.548	3.4
548.892	3.48
549.236	3.41
549.58	3.51
549.924	3.49
550.268	3.61
550.612	3.56
550.956	3.5
551.3	3.77
551.643	3.4
551.987	3.59
552.33	3.57
552.674	3.6
553.017	3.56
553.361	3.52
553.704	3.6
554.048	3.52
554.391	3.65
554.734	3.4
555.077	3.57
555.42	3.46
555.764	3.51
556.107	3.72
556.45	3.61
556.793	3.76
557.135	3.62
557.478	3.54
557.821	3.68
558.164	3.69
558.507	3.61
558.849	3.62
559.192	3.57
559.534	3.59
559.877	3.59
560.219	3.58
560.562	3.72
560.904	3.86
561.246	3.62
561.589	3.87
561.931	3.77
562.273	3.54
562.615	3.49
562.957	3.61
563.299	3.64
563.641	3.65
563.983	3.53
564.325	3.64
564.667	3.74
565.008	3.64
565.35	3.59
565.692	3.6
566.033	3.6
566.375	3.55
566.716	3.48
567.058	3.51
567.399	3.67
567.741	3.58
568.082	3.78
568.423	3.67
568.764	3.62
569.105	3.74
569.447	3.64
569.788	3.7
570.129	3.67
570.47	3.75
570.811	3.71
571.151	3.64
571.492	3.84
571.833	3.67
572.174	3.86
572.514	3.74
572.855	3.77
573.195	3.74
573.536	3.67
573.876	3.62
574.217	3.59
574.557	3.64
574.898	3.69
575.238	3.9
575.578	3.71
575.918	3.8
576.258	3.95
576.598	3.68
576.938	3.72
577.278	3.68
577.618	3.82
577.958	3.73
578.298	3.97
578.638	3.66
578.977	3.99
579.317	3.75
579.657	3.79
579.996	3.96
580.336	3.69
580.675	3.82
581.014	3.93
581.354	3.58
581.693	3.91
582.032	4.06
582.372	4.02
582.711	3.77
583.05	4.13
583.389	4.01
583.728	4.02
584.067	3.5
584.406	3.92
584.745	3.88
585.083	3.92
585.422	4.04
585.761	3.93
586.1	3.93
586.438	3.79
586.777	4
587.115	3.9
587.454	3.76
587.792	3.93
588.13	3.97
588.469	3.83
588.807	4.12
589.145	3.97
589.483	3.62
589.821	4
590.159	3.93
590.497	3.87
590.835	4
591.173	4.22
591.511	4.16
591.849	3.99
592.187	3.86
592.524	4.01
592.862	3.93
593.2	4.02
593.537	4.05
593.875	3.99
594.212	3.9
594.55	3.96
594.887	4.06
595.224	3.79
595.561	3.88
595.899	3.88
596.236	4.03
596.573	3.81
596.91	3.97
597.247	4.04
597.584	3.89
597.921	4.11
598.258	4.03
598.594	3.95
598.931	3.76
599.268	4.04
599.604	3.95
599.941	4.08
600.277	3.97
600.614	4
600.95	3.96
601.287	3.77
601.623	3.7
601.959	4.48
602.296	4.06
602.632	4.02
602.968	4
603.304	4.19
603.64	4.04
603.976	4.01
604.312	4.02
604.648	4.15
604.984	4.12
605.319	3.94
605.655	3.97
605.991	4.1
606.326	4.02
606.662	3.96
606.998	4.12
607.333	3.92
607.668	3.89
608.004	3.99
608.339	4.07
608.674	4.15
609.01	4.32
609.345	4.1
609.68	3.95
610.015	4.2
610.35	4.06
610.685	3.93
611.02	4.03
611.355	4.17
611.689	4.11
612.024	4.17
612.359	4.17
612.694	4.21
613.028	4.27
613.363	4.18
613.697	4.16
614.032	3.99
614.366	4.13
614.7	4.27
615.035	4.27
615.369	4.43
615.703	4.44
616.037	4.02
616.371	4.04
616.705	3.96
617.039	4.05
617.373	4.45
617.707	4.39
618.041	4.02
618.375	3.74
618.709	4.17
619.042	4.3
619.376	4.32
619.71	4.32
620.043	4.45
620.377	4.09
620.71	4.12
621.043	4.2
621.377	4.55
621.71	4.66
622.043	4.29
622.376	4.15
622.709	4.73
623.043	4.12
623.376	4.18
623.709	4.58
624.041	4.13
624.374	4.49
624.707	4.46
625.04	4.27
625.373	4.48
625.705	4.34
626.038	4.41
626.37	3.99
626.703	4.34
627.035	4.16
627.368	4.5
627.7	4.38
628.032	4.39
628.365	4.52
628.697	4.4
629.029	4.42
629.361	4.7
629.693	4.21
630.025	4.38
630.357	4.63
630.689	4.57
631.021	4.3
631.353	4.26
631.684	4.64
632.016	4.3
632.348	4.23
632.679	4.52
633.011	4.29
633.342	4.4
633.674	4.55
634.005	4.25
634.336	4.47
634.668	4.46
634.999	4.42
635.33	4.53
635.661	4.33
635.992	4.25
636.323	4.48
636.654	4.32
636.985	4.37
637.316	4.33
637.647	4.29
637.977	4.39
638.308	4.64
638.639	4.59
638.969	4.09
639.3	4.68
639.63	4.51
639.961	4.66
640.291	4.32
640.622	4.72
640.952	4.72
641.282	4.2
641.612	4.44
641.943	4.28
642.273	4.58
642.603	4.51
642.933	4.83
643.263	4.29
643.592	5.01
643.922	4.78
644.252	4.42
644.582	4.9
644.911	4.76
645.241	4.33
645.571	4.78
645.9	4.56
646.23	4.53
646.559	4.33
646.888	4.83
647.218	4.69
647.547	4.44
647.876	4.51
648.205	4.58
648.534	4.79
648.863	4.38
649.192	4.77
649.521	4.72
649.85	4.84
650.179	4.78
650.508	4.66
650.837	4.93
651.165	4.52
651.494	4.7
651.822	4.62
652.151	4.84
652.479	4.72
652.808	4.86
653.136	4.34
653.465	4.22
653.793	4.5
654.121	4.45
654.449	4.28
654.777	4.5
655.105	4.55
655.433	4.87
655.761	4.35
656.089	4.64
656.417	5.1
656.745	4.9
657.073	4.53
657.4	4.35
657.728	4.63
658.056	4.67
658.383	4.68
658.711	4.95
659.038	4.89
659.365	4.94
659.693	4.48
660.02	4.81
660.347	4.58
660.674	4.45
661.001	4.59
661.329	4.25
661.656	4.61
661.982	4.63
662.309	4.65
662.636	4.94
662.963	4.59
663.29	4.85
663.616	4.54
663.943	4.66
664.27	4.87
664.596	4.57
664.923	4.91
665.249	4.65
665.576	4.69
665.902	4.63
666.228	4.54
666.554	5.07
666.881	4.23
667.207	5.17
667.533	4.79
667.859	4.54
668.185	4.65
668.511	4.98
668.837	5.2
669.162	5.32
669.488	4.57
669.814	5
670.139	4.4
670.465	5
670.791	4
671.116	4.69
671.442	4.3
671.767	4.63
672.092	4.47
672.418	4.66
672.743	4.52
673.068	4.81
673.393	4.54
673.718	4.5
674.043	5.1
674.368	4.72
674.693	5.28
675.018	5.14
675.343	5.09
675.667	4.98
675.992	4.28
676.317	3.9
676.641	5.32
676.966	4.95
677.29	4.97
677.615	4.6
677.939	4.55
678.264	4.98
678.588	5.08
678.912	5.04
679.236	5.05
679.56	4.39
679.885	4.99
680.209	4.95
680.532	5.47
680.856	5.03
681.18	5.36
681.504	5.36
681.828	4.71
682.152	4.81
682.475	5.03
682.799	4.65
683.122	5.04
683.446	4.39
683.769	5.13
684.093	5.22
684.416	4.67
684.739	4.86
685.062	5.25
685.386	5.16
685.709	5.04
686.032	4.89
686.355	4.93
686.678	5.98
687.001	4.94
687.324	5.51
687.646	4.73
687.969	5.32
688.292	5.03
688.614	5.27
688.937	5.24
689.26	5.33
689.582	5.18
689.904	5.49
690.227	5.22
690.549	5.09
690.871	5.14
691.194	4.77
691.516	5.32
691.838	5.38
692.16	4.47
692.482	4.74
692.804	5.09
