Data from 21-10_chest_Reflection__3__48.txt Node

Date: Thu Dec 15 16:49:48 CST 2022
User: ToomeyLab
Spectrometer: FLMS14357
Trigger mode: 0
Integration Time (sec): 1.000000E-2
Scans to average: 100
Electric dark correction enabled: true
Nonlinearity correction enabled: false
Boxcar width: 0
XAxis mode: Wavelengths
Number of Pixels in Spectrum: 2048
>>>>>Begin Spectral Data<<<<<
189.047	81.08
189.435	81.08
189.823	81.08
190.211	-64.88
190.599	22.89
190.987	-149.77
191.375	96.87
191.763	0.4
192.151	86.72
192.538	180.3
192.926	199.63
193.314	130.87
193.702	314.27
194.089	226.79
194.477	2.52
194.864	120.93
195.252	8.56
195.639	138.57
196.027	44343.75
196.414	605.45
196.801	-74.49
197.189	157.81
197.576	-2405.63
197.963	-144.35
198.351	42.02
198.738	18.14
199.125	-15.19
199.512	29.79
199.899	-55.58
200.286	128.22
200.673	29.41
201.06	1.91
201.447	3.28
201.833	16.42
202.22	43.81
202.607	-30.23
202.994	20.76
203.38	10.56
203.767	-10.08
204.154	22.62
204.54	11.26
204.927	4.94
205.313	48.63
205.699	17.18
206.086	22.32
206.472	32.49
206.858	2.67
207.245	-3.21
207.631	-7.88
208.017	37.89
208.403	-31.5
208.789	28.95
209.175	5.26
209.561	-74.61
209.947	0.06
210.333	-0.43
210.719	36.27
211.105	25.66
211.491	33.02
211.876	7.91
212.262	39.48
212.648	19.85
213.034	-2.95
213.419	23.06
213.805	-1.81
214.19	-0.45
214.576	-19.61
214.961	15.29
215.346	-4.06
215.732	8.39
216.117	36.97
216.502	-0.15
216.888	8.41
217.273	12.54
217.658	5.62
218.043	3.41
218.428	4.46
218.813	5.86
219.198	-11.57
219.583	-6.75
219.968	16.16
220.353	1.41
220.738	19.66
221.122	11.01
221.507	-0.93
221.892	-16.89
222.276	-0.13
222.661	-1.58
223.046	1.76
223.43	17.23
223.815	10.93
224.199	8.61
224.583	4.49
224.968	1.54
225.352	-3.96
225.736	7.31
226.121	8.02
226.505	4.29
226.889	10.45
227.273	2.6
227.657	7.36
228.041	1.89
228.425	3.01
228.809	3.22
229.193	4.12
229.577	3.84
229.961	2.82
230.344	4.31
230.728	4.36
231.112	5.22
231.495	4.14
231.879	6.39
232.263	6.43
232.646	5.47
233.03	4.97
233.413	6.4
233.797	5.06
234.18	6.11
234.563	4.18
234.946	4.05
235.33	5.92
235.713	5.2
236.096	4.77
236.479	4.97
236.862	4.26
237.245	3.59
237.628	5.8
238.011	5.45
238.394	4.39
238.777	4.51
239.16	6.25
239.543	5.43
239.925	4.52
240.308	4.52
240.691	4.64
241.073	3.91
241.456	5.02
241.838	4.7
242.221	4.04
242.603	4.85
242.986	4.7
243.368	4.81
243.75	4.37
244.133	4.92
244.515	4.49
244.897	4.56
245.279	4.65
245.661	4.05
246.043	4.51
246.425	5.13
246.807	4.39
247.189	4.12
247.571	4.01
247.953	4.43
248.335	4.43
248.717	4.46
249.098	4.4
249.48	4.33
249.862	4.61
250.243	4.57
250.625	4.89
251.006	5.14
251.388	4.04
251.769	4.63
252.151	5.69
252.532	3.47
252.913	4.01
253.295	4.53
253.676	4.2
254.057	4.57
254.438	4.47
254.819	4.61
255.2	4.3
255.581	4.97
255.962	4.6
256.343	5.11
256.724	4.25
257.105	4.13
257.486	3.46
257.867	5.09
258.247	4.55
258.628	4.12
259.009	4.24
259.389	3.37
259.77	4.29
260.15	4.68
260.531	4.17
260.911	4.08
261.292	4.1
261.672	3.99
262.052	4.1
262.432	3.72
262.813	4.23
263.193	4.09
263.573	4.23
263.953	3.94
264.333	4.36
264.713	4.4
265.093	4.45
265.473	3.76
265.853	4.3
266.233	4.21
266.612	4.08
266.992	4.91
267.372	4.6
267.752	5.26
268.131	3.54
268.511	4.15
268.89	4.6
269.27	3.13
269.649	3.79
270.029	4.43
270.408	3.42
270.787	3.84
271.167	4.12
271.546	4.57
271.925	4.18
272.304	3.79
272.683	3.99
273.062	3.74
273.441	3.59
273.82	3.46
274.199	3.55
274.578	3.97
274.957	4.13
275.336	3.65
275.715	4.32
276.093	3.78
276.472	3.14
276.851	3.86
277.229	3.78
277.608	3.76
277.986	3.88
278.365	4.37
278.743	3.93
279.122	3.3
279.5	4.18
279.878	3.44
280.257	3.93
280.635	3.94
281.013	3.6
281.391	3.88
281.769	4.3
282.147	3.58
282.525	3.65
282.903	3.8
283.281	4.37
283.659	3.93
284.037	3.69
284.415	3.57
284.792	3.92
285.17	3.77
285.548	3.92
285.925	3.92
286.303	4.25
286.68	3.64
287.058	3.85
287.435	3.84
287.813	3.66
288.19	3.66
288.567	3.86
288.945	3.11
289.322	4.03
289.699	3.82
290.076	3.57
290.453	3.46
290.83	4.11
291.207	3.75
291.584	3.91
291.961	4
292.338	3.77
292.715	3.6
293.092	3.87
293.469	3.8
293.845	3.39
294.222	4.15
294.599	3.67
294.975	3.24
295.352	3.86
295.728	3.87
296.105	3.82
296.481	3.76
296.858	4.07
297.234	3.58
297.61	3.74
297.986	4.4
298.363	3.88
298.739	4.17
299.115	3.72
299.491	4.19
299.867	3.77
300.243	3.9
300.619	3.73
300.995	3.76
301.371	3.73
301.746	3.82
302.122	3.31
302.498	3.83
302.874	4.05
303.249	3.97
303.625	3.66
304	4.21
304.376	4.49
304.751	4.04
305.127	3.95
305.502	4.05
305.878	4.39
306.253	3.78
306.628	3.74
307.003	3.98
307.378	3.74
307.754	4.25
308.129	3.97
308.504	3.89
308.879	3.94
309.254	4.15
309.629	3.71
310.003	4.03
310.378	4.02
310.753	4.52
311.128	3.55
311.502	4.01
311.877	3.98
312.252	4.08
312.626	4.23
313.001	4.07
313.375	3.98
313.75	3.93
314.124	3.99
314.498	4.44
314.873	3.7
315.247	3.85
315.621	4.05
315.995	3.52
316.369	3.81
316.743	3.84
317.117	4.11
317.491	4.24
317.865	3.55
318.239	3.91
318.613	3.69
318.987	4.27
319.361	4.34
319.734	4.04
320.108	4.09
320.482	4.13
320.855	3.59
321.229	3.84
321.602	3.89
321.976	3.31
322.349	4.35
322.723	3.65
323.096	4.28
323.469	3.58
323.843	3.41
324.216	3.78
324.589	4.05
324.962	3.8
325.335	3.6
325.708	3.97
326.081	3.95
326.454	4.13
326.827	4.11
327.2	3.72
327.573	4.15
327.945	3.9
328.318	4.09
328.691	3.93
329.063	3.55
329.436	3.75
329.809	4.53
330.181	4.49
330.553	4.24
330.926	4.49
331.298	3.96
331.671	4.14
332.043	3.62
332.415	4.23
332.787	4.42
333.159	3.85
333.532	4.39
333.904	4.16
334.276	3.99
334.648	3.39
335.02	4.05
335.391	3.95
335.763	3.93
336.135	4.28
336.507	3.91
336.879	4.3
337.25	4.39
337.622	4.05
337.993	4.21
338.365	3.82
338.736	4.09
339.108	4.14
339.479	3.75
339.851	4.03
340.222	4.43
340.593	3.87
340.964	4.02
341.336	4.19
341.707	3.91
342.078	3.94
342.449	4.07
342.82	4.06
343.191	4.02
343.562	4.06
343.933	3.76
344.303	4.21
344.674	4.5
345.045	4.18
345.416	4.23
345.786	3.99
346.157	3.96
346.527	3.93
346.898	3.65
347.268	4.1
347.639	3.94
348.009	4.15
348.38	3.87
348.75	4.38
349.12	4.3
349.49	4.17
349.861	4.25
350.231	4
350.601	4.18
350.971	3.79
351.341	4.09
351.711	4.14
352.081	4
352.45	3.56
352.82	3.67
353.19	3.62
353.56	3.96
353.929	4.27
354.299	4.13
354.669	4.13
355.038	4.38
355.408	4.05
355.777	4.18
356.147	4.24
356.516	4.08
356.885	3.96
357.254	3.89
357.624	3.58
357.993	4.18
358.362	4.49
358.731	4.22
359.1	4
359.469	4.18
359.838	4.06
360.207	3.72
360.576	4.27
360.945	4.15
361.314	3.99
361.682	3.44
362.051	3.97
362.42	4.29
362.788	4.01
363.157	3.82
363.525	4.09
363.894	3.87
364.262	4.1
364.631	4.32
364.999	4.13
365.367	3.97
365.735	3.78
366.104	3.82
366.472	3.88
366.84	4.11
367.208	4.39
367.576	3.81
367.944	3.9
368.312	3.91
368.68	4.33
369.048	3.99
369.416	3.99
369.783	4.23
370.151	4.28
370.519	4.12
370.886	4.17
371.254	4.43
371.621	4.29
371.989	4.31
372.356	4.26
372.724	4.03
373.091	4.17
373.458	3.98
373.826	4.43
374.193	4.35
374.56	4.13
374.927	4.02
375.294	4.19
375.661	4.1
376.028	4.07
376.395	4.23
376.762	4.11
377.129	3.94
377.496	4.07
377.863	4.2
378.229	4.32
378.596	4.4
378.963	4.33
379.329	4.35
379.696	4.1
380.062	3.98
380.429	3.78
380.795	4.39
381.161	3.71
381.528	3.71
381.894	4.01
382.26	4.26
382.626	4.2
382.993	4.31
383.359	4.05
383.725	3.95
384.091	4.29
384.457	4.07
384.823	4.11
385.188	4.18
385.554	4.29
385.92	4.32
386.286	4.37
386.651	4.33
387.017	4.37
387.383	3.95
387.748	4.22
388.114	4.35
388.479	4.06
388.845	4
389.21	4.52
389.575	4.58
389.94	4.36
390.306	4.06
390.671	4.37
391.036	4.25
391.401	4.37
391.766	4.25
392.131	4.22
392.496	4.32
392.861	4.18
393.226	4.28
393.591	4.34
393.956	4.42
394.32	4.33
394.685	4.26
395.05	4.33
395.414	4.14
395.779	4.42
396.143	4.24
396.508	4.29
396.872	4.23
397.236	4.42
397.601	4.43
397.965	4.37
398.329	4.35
398.694	4.13
399.058	4.47
399.422	4.38
399.786	4.15
400.15	4.38
400.514	4.3
400.878	4.07
401.242	4.25
401.605	4.26
401.969	4.11
402.333	4.29
402.697	4.35
403.06	4.24
403.424	4.31
403.787	4.24
404.151	4.29
404.514	4.28
404.878	4.37
405.241	4.22
405.604	4.16
405.968	4.4
406.331	4.29
406.694	4.37
407.057	4.11
407.42	4.2
407.783	4.35
408.146	4.47
408.509	4.64
408.872	4.3
409.235	4.51
409.598	4.26
409.961	4.41
410.323	4.42
410.686	4.46
411.049	4.55
411.411	4.22
411.774	4.37
412.136	4.27
412.499	4.39
412.861	4.16
413.223	4.1
413.586	4.42
413.948	4.53
414.31	4.38
414.672	4.36
415.035	4.57
415.397	4.24
415.759	4.16
416.121	4.7
416.483	4.25
416.845	4.39
417.206	4.35
417.568	4.23
417.93	4.33
418.292	4.21
418.653	4.34
419.015	4.29
419.377	4.22
419.738	4.34
420.1	4.27
420.461	4.24
420.822	4.39
421.184	4.31
421.545	4.32
421.906	4.3
422.267	4.19
422.629	4.28
422.99	4.23
423.351	4.18
423.712	4.24
424.073	4.32
424.434	4.41
424.795	4.15
425.155	4.31
425.516	4.21
425.877	4.31
426.238	4.22
426.598	4.3
426.959	4.38
427.32	4.32
427.68	4.38
428.041	4.56
428.401	4.3
428.761	4.46
429.122	4.49
429.482	4.47
429.842	4.36
430.202	4.53
430.563	4.23
430.923	4.54
431.283	4.49
431.643	4.51
432.003	4.58
432.363	4.5
432.722	4.42
433.082	4.48
433.442	4.58
433.802	4.44
434.161	4.51
434.521	4.45
434.881	4.43
435.24	4.53
435.6	4.4
435.959	4.65
436.319	4.55
436.678	4.57
437.037	4.44
437.396	4.57
437.756	4.34
438.115	4.45
438.474	4.53
438.833	4.56
439.192	4.5
439.551	4.47
439.91	4.42
440.269	4.42
440.628	4.41
440.987	4.49
441.345	4.4
441.704	4.41
442.063	4.43
442.421	4.39
442.78	4.48
443.138	4.52
443.497	4.4
443.855	4.55
444.214	4.45
444.572	4.52
444.93	4.5
445.288	4.48
445.647	4.26
446.005	4.6
446.363	4.48
446.721	4.47
447.079	4.42
447.437	4.42
447.795	4.49
448.153	4.39
448.51	4.49
448.868	4.47
449.226	4.5
449.584	4.42
449.941	4.52
450.299	4.58
450.656	4.56
451.014	4.59
451.371	4.68
451.729	4.64
452.086	4.54
452.443	4.68
452.801	4.56
453.158	4.71
453.515	4.5
453.872	4.64
454.229	4.45
454.586	4.43
454.943	4.48
455.3	4.53
455.657	4.64
456.014	4.59
456.371	4.66
456.727	4.78
457.084	4.68
457.441	4.7
457.797	4.46
458.154	4.66
458.51	4.61
458.867	4.6
459.223	4.67
459.58	4.73
459.936	4.66
460.292	4.59
460.648	4.54
461.005	4.57
461.361	4.52
461.717	4.58
462.073	4.68
462.429	4.56
462.785	4.7
463.141	4.65
463.496	4.74
463.852	4.77
464.208	4.76
464.564	4.54
464.919	4.7
465.275	4.65
465.631	4.74
465.986	4.77
466.342	4.52
466.697	4.63
467.052	4.82
467.408	4.81
467.763	4.78
468.118	4.62
468.473	4.84
468.829	4.64
469.184	4.81
469.539	4.54
469.894	4.88
470.249	4.88
470.603	4.92
470.958	4.89
471.313	4.92
471.668	4.77
472.023	4.86
472.377	4.8
472.732	4.89
473.086	4.74
473.441	4.86
473.795	5.03
474.15	4.62
474.504	4.79
474.859	4.75
475.213	4.86
475.567	4.68
475.921	4.78
476.275	4.85
476.63	4.83
476.984	4.85
477.338	4.93
477.692	4.96
478.045	4.83
478.399	4.95
478.753	4.65
479.107	4.92
479.461	4.76
479.814	4.85
480.168	4.82
480.521	4.9
480.875	4.75
481.228	4.78
481.582	4.8
481.935	5
482.289	4.87
482.642	5
482.995	4.77
483.348	4.79
483.701	4.83
484.055	4.81
484.408	4.79
484.761	4.68
485.114	4.54
485.466	4.55
485.819	4.56
486.172	4.61
486.525	4.63
486.878	4.74
487.23	4.72
487.583	4.82
487.936	4.72
488.288	4.69
488.641	4.63
488.993	4.64
489.345	4.68
489.698	4.68
490.05	4.69
490.402	4.73
490.754	4.76
491.107	4.78
491.459	4.9
491.811	4.87
492.163	4.9
492.515	4.77
492.866	4.71
493.218	4.72
493.57	4.82
493.922	4.81
494.274	4.86
494.625	4.98
494.977	4.95
495.328	5
495.68	4.97
496.031	5.12
496.383	4.95
496.734	5.03
497.086	5.08
497.437	4.95
497.788	5.1
498.139	4.91
498.49	4.99
498.842	4.97
499.193	4.92
499.544	5.06
499.894	5.06
500.245	5.18
500.596	5.05
500.947	5
501.298	5.09
501.648	5.13
501.999	5.14
502.35	5.06
502.7	5.23
503.051	5.18
503.401	5.23
503.752	5.03
504.102	5.18
504.452	5.22
504.803	5.14
505.153	5.25
505.503	5.18
505.853	5.22
506.203	5.2
506.553	5.2
506.903	5.14
507.253	5.21
507.603	5.2
507.953	5.22
508.303	5.35
508.652	5.17
509.002	5.28
509.352	5.22
509.701	5.15
510.051	5.32
510.4	5.28
510.75	5.19
511.099	5.16
511.449	5.27
511.798	5.16
512.147	5.21
512.496	5.32
512.846	5.25
513.195	5.26
513.544	5.44
513.893	5.29
514.242	5.33
514.591	5.22
514.939	5.3
515.288	5.35
515.637	5.24
515.986	5.31
516.334	5.43
516.683	5.46
517.032	5.44
517.38	5.24
517.729	5.37
518.077	5.46
518.426	5.41
518.774	5.41
519.122	5.42
519.47	5.36
519.819	5.35
520.167	5.31
520.515	5.29
520.863	5.31
521.211	5.33
521.559	5.42
521.907	5.45
522.255	5.4
522.602	5.46
522.95	5.54
523.298	5.53
523.645	5.51
523.993	5.57
524.341	5.59
524.688	5.42
525.036	5.59
525.383	5.49
525.73	5.44
526.078	5.59
526.425	5.52
526.772	5.49
527.119	5.56
527.466	5.58
527.814	5.52
528.161	5.57
528.508	5.65
528.854	5.55
529.201	5.44
529.548	5.4
529.895	5.41
530.242	5.37
530.588	5.37
530.935	5.4
531.282	5.51
531.628	5.52
531.975	5.56
532.321	5.6
532.667	5.59
533.014	5.7
533.36	5.75
533.706	5.73
534.052	5.73
534.399	5.67
534.745	5.59
535.091	5.58
535.437	5.64
535.783	5.71
536.129	5.75
536.474	5.81
536.82	5.82
537.166	5.84
537.512	5.8
537.857	5.82
538.203	5.84
538.549	5.72
538.894	5.88
539.239	5.87
539.585	5.92
539.93	6.02
540.276	5.96
540.621	6.03
540.966	6.03
541.311	6.01
541.656	5.9
542.001	5.94
542.346	5.84
542.691	5.81
543.036	5.82
543.381	5.85
543.726	5.97
544.071	5.95
544.415	6.01
544.76	6.04
545.105	6.05
545.449	6.1
545.794	6.16
546.138	6.06
546.483	6.2
546.827	6.15
547.171	6.2
547.516	6.3
547.86	6.26
548.204	6.26
548.548	6.2
548.892	6.24
549.236	6.25
549.58	6.41
549.924	6.42
550.268	6.53
550.612	6.56
550.956	6.63
551.3	6.54
551.643	6.54
551.987	6.65
552.33	6.75
552.674	6.58
553.017	6.63
553.361	6.65
553.704	6.59
554.048	6.57
554.391	6.47
554.734	6.41
555.077	6.72
555.42	6.58
555.764	6.73
556.107	6.82
556.45	6.78
556.793	6.78
557.135	6.82
557.478	6.65
557.821	6.88
558.164	6.91
558.507	6.86
558.849	6.99
559.192	6.82
559.534	7.07
559.877	6.89
560.219	6.82
560.562	6.96
560.904	7.15
561.246	6.9
561.589	7.16
561.931	6.95
562.273	6.87
562.615	7.06
562.957	6.99
563.299	7.15
563.641	7.1
563.983	7.03
564.325	7.11
564.667	7.29
565.008	7.23
565.35	7.14
565.692	7.23
566.033	7.18
566.375	7.41
566.716	7.25
567.058	7.25
567.399	7.28
567.741	7.19
568.082	7.18
568.423	7.27
568.764	7.28
569.105	7.35
569.447	7.43
569.788	7.33
570.129	7.38
570.47	7.4
570.811	7.48
571.151	7.53
571.492	7.54
571.833	7.55
572.174	7.65
572.514	7.69
572.855	7.77
573.195	7.53
573.536	7.62
573.876	7.56
574.217	7.52
574.557	7.66
574.898	7.71
575.238	7.8
575.578	7.85
575.918	7.83
576.258	8.05
576.598	7.7
576.938	7.8
577.278	7.86
577.618	7.9
577.958	8.04
578.298	7.91
578.638	7.75
578.977	8.02
579.317	8.2
579.657	8.03
579.996	8.34
580.336	8.32
580.675	8.16
581.014	8.32
581.354	8.18
581.693	8.04
582.032	8.51
582.372	8.53
582.711	8.39
583.05	8.26
583.389	8.53
583.728	8.55
584.067	8.22
584.406	8.65
584.745	8.32
585.083	8.44
585.422	8.72
585.761	8.58
586.1	8.68
586.438	8.65
586.777	8.65
587.115	8.71
587.454	8.47
587.792	8.64
588.13	8.56
588.469	8.57
588.807	8.79
589.145	8.89
589.483	8.8
589.821	8.89
590.159	8.89
590.497	8.78
590.835	8.87
591.173	9.04
591.511	9.17
591.849	9
592.187	8.93
592.524	9.04
592.862	8.99
593.2	9.33
593.537	9.13
593.875	9.28
594.212	9.36
594.55	9.06
594.887	9.25
595.224	9.25
595.561	9.26
595.899	9.56
596.236	9.48
596.573	9.3
596.91	9.31
597.247	9.52
597.584	9.56
597.921	9.53
598.258	9.81
598.594	9.3
598.931	9.25
599.268	9.53
599.604	9.52
599.941	9.67
600.277	9.75
600.614	9.77
600.95	9.8
601.287	9.49
601.623	9.46
601.959	9.9
602.296	9.59
602.632	9.95
602.968	9.93
603.304	10.04
603.64	9.84
603.976	9.87
604.312	9.89
604.648	10.05
604.984	9.93
605.319	10.04
605.655	9.96
605.991	10.06
606.326	10.01
606.662	9.89
606.998	10.1
607.333	10
607.668	10.14
608.004	10.24
608.339	10.11
608.674	10.53
609.01	10.56
609.345	10.36
609.68	10.3
610.015	10.53
610.35	10.45
610.685	10.04
611.02	10.25
611.355	10.57
611.689	10.53
612.024	10.63
612.359	10.65
612.694	10.68
613.028	10.84
613.363	10.88
613.697	11.01
614.032	10.95
614.366	10.97
614.7	11.17
615.035	10.88
615.369	11.06
615.703	11.24
616.037	11.16
616.371	10.92
616.705	10.99
617.039	11.11
617.373	11.24
617.707	11.12
618.041	11.12
618.375	10.89
618.709	11.44
619.042	11.61
619.376	11.35
619.71	11.21
620.043	11.71
620.377	11.61
620.71	11.36
621.043	11.63
621.377	11.27
621.71	11.93
622.043	11.81
622.376	11.62
622.709	12.01
623.043	11.41
623.376	11.33
623.709	11.89
624.041	11.62
624.374	11.55
624.707	11.96
625.04	11.42
625.373	11.87
625.705	12.2
626.038	11.9
626.37	12.1
626.703	11.9
627.035	12.01
627.368	12.37
627.7	12.05
628.032	12.09
628.365	12.32
628.697	12.44
629.029	12.21
629.361	12.57
629.693	12.08
630.025	12.36
630.357	12.63
630.689	12.66
631.021	12.13
631.353	12.75
631.684	12.62
632.016	12.18
632.348	11.92
632.679	12.56
633.011	12.73
633.342	12.7
633.674	12.78
634.005	12.68
634.336	12.89
634.668	12.7
634.999	12.64
635.33	12.96
635.661	12.94
635.992	12.87
636.323	12.67
636.654	12.91
636.985	13.06
637.316	13.18
637.647	13.17
637.977	13.03
638.308	13.24
638.639	13.09
638.969	12.81
639.3	13.39
639.63	13.25
639.961	13.06
640.291	13.05
640.622	13.38
640.952	13.28
641.282	13.2
641.612	13.63
641.943	13.36
642.273	13.32
642.603	13.48
642.933	13.65
643.263	14.23
643.592	14.03
643.922	14.04
644.252	13.78
644.582	13.85
644.911	13.86
645.241	13.72
645.571	14.37
645.9	14.31
646.23	14.44
646.559	13.92
646.888	14.51
647.218	13.92
647.547	14.39
647.876	14.5
648.205	13.97
648.534	14.11
648.863	14.08
649.192	14.35
649.521	14
649.85	14.09
650.179	14.46
650.508	14.32
650.837	14.3
651.165	15.09
651.494	14.55
651.822	14.69
652.151	14.46
652.479	14.37
652.808	14.79
653.136	14.05
653.465	14.51
653.793	14.64
654.121	15
654.449	14.39
654.777	14.51
655.105	14.72
655.433	14.96
655.761	14.6
656.089	14.53
656.417	14.97
656.745	15.31
657.073	14.93
657.4	15.14
657.728	15.04
658.056	14.98
658.383	15.14
658.711	15.23
659.038	15.4
659.365	15.13
659.693	14.82
660.02	15.5
660.347	15.66
660.674	14.97
661.001	15.31
661.329	15.28
661.656	15.06
661.982	15.24
662.309	15.61
662.636	15.49
662.963	15.71
663.29	15.74
663.616	15.8
663.943	15.68
664.27	15.71
664.596	15.92
664.923	16.02
665.249	15.92
665.576	15.99
665.902	15.36
666.228	16.14
666.554	16.08
666.881	15.59
667.207	15.89
667.533	16.31
667.859	16.11
668.185	15.96
668.511	16.62
668.837	16.31
669.162	16.36
669.488	15.45
669.814	16.02
670.139	15.77
670.465	16.68
670.791	16.21
671.116	16.2
671.442	16.31
671.767	16.68
672.092	16.45
672.418	16.68
672.743	16.49
673.068	16.4
673.393	16.81
673.718	16.55
674.043	16.73
674.368	16.55
674.693	17.16
675.018	17.72
675.343	16.72
675.667	17
675.992	17.27
676.317	16.86
676.641	17.1
676.966	17.26
677.29	16.82
677.615	17.39
677.939	17.15
678.264	17.18
678.588	17.62
678.912	17.75
679.236	17.12
679.56	16.98
679.885	17.61
680.209	17.58
680.532	18
680.856	17.57
681.18	17.95
681.504	17.27
681.828	17.11
682.152	17.66
682.475	17.66
682.799	17.84
683.122	17.61
683.446	17.15
683.769	17.85
684.093	17.98
684.416	17.93
684.739	17.53
685.062	18.01
685.386	18.04
685.709	17.97
686.032	18.47
686.355	17.73
686.678	18.66
687.001	17.8
