Data from 21-10_crown_Reflection__3__53.txt Node

Date: Thu Dec 15 16:51:43 CST 2022
User: ToomeyLab
Spectrometer: FLMS14357
Trigger mode: 0
Integration Time (sec): 1.000000E-2
Scans to average: 100
Electric dark correction enabled: true
Nonlinearity correction enabled: false
Boxcar width: 0
XAxis mode: Wavelengths
Number of Pixels in Spectrum: 2048
>>>>>Begin Spectral Data<<<<<
189.047	99.28
189.435	99.28
189.823	99.28
190.211	-124.63
190.599	25.36
190.987	-371.53
191.375	-497.38
191.763	-26.23
192.151	119.09
192.538	129.51
192.926	274.95
193.314	402.53
193.702	103.67
194.089	9.05
194.477	166.35
194.864	125.3
195.252	140.69
195.639	107.29
196.027	13331.25
196.414	26.99
196.801	-52.05
197.189	119.95
197.576	-1056.88
197.963	33.2
198.351	8.89
198.738	-21.88
199.125	-42.63
199.512	43.14
199.899	-99.22
200.286	-4.56
200.673	24.16
201.06	-31.61
201.447	5.3
201.833	24.67
202.22	31.61
202.607	32.87
202.994	-8.89
203.38	21.69
203.767	8.96
204.154	40.7
204.54	34.42
204.927	-2.67
205.313	39.85
205.699	48.5
206.086	19.43
206.472	22.05
206.858	24.99
207.245	7.05
207.631	-10.33
208.017	41.88
208.403	-36.18
208.789	25.79
209.175	13.58
209.561	-48.78
209.947	-0.24
210.333	-0.61
210.719	30.17
211.105	21.55
211.491	36.12
211.876	-16.39
212.262	19.96
212.648	8.53
213.034	19.03
213.419	0.32
213.805	-33.11
214.19	-7.36
214.576	17.96
214.961	25.08
215.346	-17.17
215.732	3.78
216.117	9.41
216.502	8.19
216.888	16.91
217.273	-10.42
217.658	4.93
218.043	-23.69
218.428	-21.63
218.813	11.37
219.198	-13.39
219.583	-2.12
219.968	12
220.353	-6.27
220.738	6.14
221.122	10.62
221.507	-15.98
221.892	-29.04
222.276	-16.48
222.661	-4.1
223.046	-4.29
223.43	15.95
223.815	4.94
224.199	-4.3
224.583	0.41
224.968	-2.63
225.352	-2.78
225.736	6.42
226.121	2.68
226.505	-4.4
226.889	2.76
227.273	-4.03
227.657	1.79
228.041	5.93
228.425	-1.95
228.809	0.15
229.193	4.83
229.577	3.43
229.961	1.77
230.344	2.51
230.728	2.88
231.112	2.41
231.495	1.28
231.879	1.11
232.263	2.28
232.646	3.09
233.03	3.75
233.413	2.18
233.797	1.19
234.18	6.42
234.563	6.12
234.946	1.71
235.33	3.2
235.713	2.05
236.096	3.46
236.479	2.23
236.862	2.07
237.245	1.38
237.628	2.58
238.011	1.75
238.394	2.83
238.777	1.96
239.16	2.8
239.543	2.36
239.925	0.85
240.308	1.48
240.691	1.71
241.073	2.28
241.456	1.73
241.838	3.2
242.221	2.81
242.603	2.64
242.986	2.1
243.368	2.47
243.75	2.39
244.133	2.29
244.515	2.41
244.897	2.15
245.279	1.39
245.661	2.53
246.043	2.16
246.425	1.91
246.807	3.52
247.189	2.61
247.571	2.37
247.953	2
248.335	2.36
248.717	2.45
249.098	2.27
249.48	2.27
249.862	2.26
250.243	2.07
250.625	2.27
251.006	2.92
251.388	2.67
251.769	1.8
252.151	2.55
252.532	2.01
252.913	2.2
253.295	2.04
253.676	2.48
254.057	2.17
254.438	2.2
254.819	2.89
255.2	2.74
255.581	3.63
255.962	2.98
256.343	2.95
256.724	1.98
257.105	2.83
257.486	1.92
257.867	2.01
258.247	2.74
258.628	2.31
259.009	2.02
259.389	1.65
259.77	2.31
260.15	2.93
260.531	2.3
260.911	1.95
261.292	2.23
261.672	2.1
262.052	2.14
262.432	2.15
262.813	2.23
263.193	2.53
263.573	1.88
263.953	1.51
264.333	2.26
264.713	2.38
265.093	2.27
265.473	1.82
265.853	2.83
266.233	2.42
266.612	2.05
266.992	1.79
267.372	2.29
267.752	2.28
268.131	1.71
268.511	2.2
268.89	2.38
269.27	1.59
269.649	1.89
270.029	2.59
270.408	2.37
270.787	2.04
271.167	2.57
271.546	3.38
271.925	1.74
272.304	2.4
272.683	1.99
273.062	1.93
273.441	1.91
273.82	2.22
274.199	1.74
274.578	2.47
274.957	2.3
275.336	2.29
275.715	1.94
276.093	1.78
276.472	1.3
276.851	2.16
277.229	1.88
277.608	1.5
277.986	2.28
278.365	2.08
278.743	2.13
279.122	2.03
279.5	2.09
279.878	2.11
280.257	2
280.635	1.58
281.013	1.76
281.391	2.2
281.769	2.14
282.147	2.03
282.525	1.48
282.903	1.8
283.281	2.49
283.659	2.25
284.037	1.55
284.415	1.79
284.792	1.81
285.17	1.95
285.548	2.18
285.925	1.68
286.303	2.67
286.68	2.16
287.058	2.1
287.435	2.02
287.813	2.04
288.19	1.51
288.567	1.9
288.945	1.81
289.322	2.22
289.699	2.39
290.076	2.46
290.453	2.14
290.83	1.85
291.207	2.16
291.584	2.23
291.961	2.3
292.338	2.21
292.715	1.73
293.092	2.02
293.469	1.91
293.845	2.25
294.222	2.49
294.599	2.21
294.975	1.63
295.352	2.47
295.728	2.2
296.105	1.96
296.481	1.92
296.858	1.74
297.234	1.59
297.61	2.11
297.986	2.6
298.363	2.04
298.739	2.39
299.115	2.31
299.491	2.45
299.867	1.9
300.243	1.61
300.619	2.41
300.995	2.15
301.371	2.78
301.746	2.3
302.122	1.75
302.498	2.12
302.874	2.42
303.249	2.19
303.625	1.6
304	2.8
304.376	2.91
304.751	1.85
305.127	1.74
305.502	2.15
305.878	2.3
306.253	1.94
306.628	2.11
307.003	2.26
307.378	1.92
307.754	2.28
308.129	1.97
308.504	2.52
308.879	2.4
309.254	2.55
309.629	2.68
310.003	1.62
310.378	2.37
310.753	2.29
311.128	2.22
311.502	2.4
311.877	2.05
312.252	2.29
312.626	2.45
313.001	2.09
313.375	2.52
313.75	2.24
314.124	2.5
314.498	2.39
314.873	2.06
315.247	1.94
315.621	1.72
315.995	2.35
316.369	1.82
316.743	2.07
317.117	1.92
317.491	2.4
317.865	1.49
318.239	2.71
318.613	2.1
318.987	1.95
319.361	2.16
319.734	2.62
320.108	2.29
320.482	2.39
320.855	2.29
321.229	1.95
321.602	2.17
321.976	1.69
322.349	2.86
322.723	2.31
323.096	2.52
323.469	2.03
323.843	1.98
324.216	2.12
324.589	2.02
324.962	2.07
325.335	2.22
325.708	2.34
326.081	2
326.454	2.42
326.827	2.18
327.2	2.1
327.573	2.65
327.945	1.97
328.318	2.1
328.691	2.38
329.063	2.05
329.436	2.06
329.809	3.07
330.181	3.26
330.553	2.36
330.926	2.92
331.298	2
331.671	2.87
332.043	2.27
332.415	2.55
332.787	2.4
333.159	1.73
333.532	2.49
333.904	2.79
334.276	2.1
334.648	2.29
335.02	2.33
335.391	1.84
335.763	2.43
336.135	2.53
336.507	2.05
336.879	2.16
337.25	2.29
337.622	2.53
337.993	1.94
338.365	2.44
338.736	2.32
339.108	2.46
339.479	2.19
339.851	2.36
340.222	2.55
340.593	2.14
340.964	2.35
341.336	2.29
341.707	2.09
342.078	2.07
342.449	2.03
342.82	2.81
343.191	2.48
343.562	2.29
343.933	2
344.303	2.32
344.674	2.16
345.045	2.69
345.416	2.28
345.786	2.68
346.157	2.43
346.527	2.23
346.898	1.67
347.268	2.31
347.639	1.92
348.009	2.37
348.38	2.19
348.75	2.63
349.12	2.58
349.49	2.8
349.861	2.26
350.231	2.27
350.601	2.45
350.971	2.01
351.341	2.51
351.711	2.19
352.081	2.04
352.45	2.51
352.82	1.82
353.19	2.17
353.56	2.39
353.929	2.92
354.299	2.4
354.669	2.25
355.038	2.57
355.408	2.45
355.777	2.77
356.147	2.25
356.516	2.08
356.885	2.35
357.254	2.08
357.624	2.21
357.993	2.48
358.362	2.49
358.731	2.53
359.1	2.3
359.469	2.26
359.838	2.43
360.207	2.07
360.576	2.33
360.945	2.56
361.314	2.32
361.682	2.13
362.051	2.37
362.42	2.41
362.788	2.39
363.157	2.18
363.525	2.2
363.894	2
364.262	2.17
364.631	2.5
364.999	2.35
365.367	2.28
365.735	2.15
366.104	2.3
366.472	2.2
366.84	2.5
367.208	2.7
367.576	2.42
367.944	2.22
368.312	2.34
368.68	2.76
369.048	2.39
369.416	2.15
369.783	2.29
370.151	2.68
370.519	2.49
370.886	2.55
371.254	2.45
371.621	2.84
371.989	2.68
372.356	2.53
372.724	2.37
373.091	2.18
373.458	2.2
373.826	2.5
374.193	2.58
374.56	2.33
374.927	2.23
375.294	2.56
375.661	2.61
376.028	2.29
376.395	2.5
376.762	2.45
377.129	2.5
377.496	2.23
377.863	2.46
378.229	2.77
378.596	2.55
378.963	2.45
379.329	2.66
379.696	2.42
380.062	2.38
380.429	2.09
380.795	2.9
381.161	2.12
381.528	2.03
381.894	2.4
382.26	2.51
382.626	2.44
382.993	2.74
383.359	2.36
383.725	2.26
384.091	2.52
384.457	2.32
384.823	2.43
385.188	2.38
385.554	2.73
385.92	2.26
386.286	2.53
386.651	2.17
387.017	2.52
387.383	2.4
387.748	2.67
388.114	2.55
388.479	2.2
388.845	2.24
389.21	2.69
389.575	2.72
389.94	2.6
390.306	2.52
390.671	2.54
391.036	2.29
391.401	2.59
391.766	2.55
392.131	2.65
392.496	2.63
392.861	2.55
393.226	2.24
393.591	2.66
393.956	2.63
394.32	2.71
394.685	2.43
395.05	2.51
395.414	2.62
395.779	2.62
396.143	2.56
396.508	2.4
396.872	2.43
397.236	2.82
397.601	2.57
397.965	2.28
398.329	2.53
398.694	2.69
399.058	2.67
399.422	2.63
399.786	2.54
400.15	2.59
400.514	2.56
400.878	2.48
401.242	2.52
401.605	2.66
401.969	2.52
402.333	2.42
402.697	2.68
403.06	2.44
403.424	2.45
403.787	2.55
404.151	2.77
404.514	2.65
404.878	2.51
405.241	2.45
405.604	2.35
405.968	2.48
406.331	2.66
406.694	2.62
407.057	2.47
407.42	2.44
407.783	2.71
408.146	2.54
408.509	2.61
408.872	2.54
409.235	2.8
409.598	2.44
409.961	2.6
410.323	2.57
410.686	2.52
411.049	2.67
411.411	2.4
411.774	2.45
412.136	2.51
412.499	2.82
412.861	2.38
413.223	2.52
413.586	2.56
413.948	2.55
414.31	2.58
414.672	2.43
415.035	2.63
415.397	2.68
415.759	2.21
416.121	2.81
416.483	2.59
416.845	2.55
417.206	2.54
417.568	2.48
417.93	2.62
418.292	2.48
418.653	2.37
419.015	2.51
419.377	2.47
419.738	2.47
420.1	2.58
420.461	2.4
420.822	2.57
421.184	2.66
421.545	2.47
421.906	2.48
422.267	2.44
422.629	2.49
422.99	2.41
423.351	2.5
423.712	2.58
424.073	2.55
424.434	2.7
424.795	2.48
425.155	2.55
425.516	2.49
425.877	2.55
426.238	2.43
426.598	2.57
426.959	2.57
427.32	2.49
427.68	2.63
428.041	2.61
428.401	2.58
428.761	2.69
429.122	2.58
429.482	2.64
429.842	2.47
430.202	2.63
430.563	2.5
430.923	2.71
431.283	2.78
431.643	2.71
432.003	2.73
432.363	2.72
432.722	2.49
433.082	2.52
433.442	2.6
433.802	2.62
434.161	2.63
434.521	2.59
434.881	2.57
435.24	2.61
435.6	2.68
435.959	2.62
436.319	2.66
436.678	2.74
437.037	2.61
437.396	2.53
437.756	2.68
438.115	2.62
438.474	2.57
438.833	2.62
439.192	2.65
439.551	2.48
439.91	2.49
440.269	2.59
440.628	2.64
440.987	2.65
441.345	2.69
441.704	2.65
442.063	2.56
442.421	2.63
442.78	2.65
443.138	2.63
443.497	2.59
443.855	2.76
444.214	2.57
444.572	2.69
444.93	2.6
445.288	2.76
445.647	2.51
446.005	2.63
446.363	2.67
446.721	2.6
447.079	2.52
447.437	2.58
447.795	2.67
448.153	2.56
448.51	2.58
448.868	2.61
449.226	2.6
449.584	2.66
449.941	2.62
450.299	2.72
450.656	2.6
451.014	2.65
451.371	2.79
451.729	2.71
452.086	2.6
452.443	2.79
452.801	2.55
453.158	2.86
453.515	2.66
453.872	2.71
454.229	2.59
454.586	2.56
454.943	2.62
455.3	2.73
455.657	2.6
456.014	2.76
456.371	2.58
456.727	2.74
457.084	2.7
457.441	2.79
457.797	2.73
458.154	2.66
458.51	2.73
458.867	2.64
459.223	2.7
459.58	2.8
459.936	2.74
460.292	2.69
460.648	2.59
461.005	2.57
461.361	2.54
461.717	2.57
462.073	2.76
462.429	2.66
462.785	2.77
463.141	2.74
463.496	2.74
463.852	2.77
464.208	2.59
464.564	2.75
464.919	2.75
465.275	2.72
465.631	2.92
465.986	2.94
466.342	2.75
466.697	2.53
467.052	2.83
467.408	2.68
467.763	2.64
468.118	2.47
468.473	2.7
468.829	2.56
469.184	2.9
469.539	2.73
469.894	2.82
470.249	2.86
470.603	2.87
470.958	2.88
471.313	2.84
471.668	2.81
472.023	2.81
472.377	2.74
472.732	2.84
473.086	2.8
473.441	2.73
473.795	3
474.15	2.78
474.504	2.87
474.859	2.53
475.213	2.97
475.567	2.76
475.921	2.68
476.275	2.8
476.63	2.81
476.984	2.7
477.338	2.94
477.692	2.84
478.045	2.77
478.399	2.74
478.753	2.77
479.107	2.8
479.461	2.71
479.814	2.77
480.168	2.82
480.521	2.75
480.875	2.82
481.228	2.84
481.582	2.82
481.935	2.88
482.289	2.71
482.642	2.92
482.995	2.7
483.348	2.7
483.701	2.76
484.055	2.72
484.408	2.72
484.761	2.66
485.114	2.55
485.466	2.52
485.819	2.52
486.172	2.6
486.525	2.7
486.878	2.73
487.23	2.71
487.583	2.73
487.936	2.67
488.288	2.64
488.641	2.62
488.993	2.62
489.345	2.61
489.698	2.64
490.05	2.64
490.402	2.69
490.754	2.73
491.107	2.73
491.459	2.81
491.811	2.81
492.163	2.67
492.515	2.7
492.866	2.61
493.218	2.66
493.57	2.68
493.922	2.69
494.274	2.88
494.625	2.89
494.977	2.84
495.328	2.95
495.68	2.83
496.031	2.85
496.383	2.77
496.734	2.8
497.086	2.95
497.437	2.82
497.788	2.94
498.139	2.89
498.49	2.8
498.842	2.83
499.193	2.79
499.544	2.9
499.894	2.75
500.245	2.93
500.596	2.92
500.947	2.88
501.298	2.91
501.648	2.85
501.999	2.88
502.35	2.77
502.7	3.05
503.051	2.93
503.401	2.87
503.752	2.74
504.102	2.85
504.452	2.81
504.803	2.83
505.153	2.95
505.503	2.86
505.853	2.88
506.203	2.88
506.553	2.89
506.903	2.89
507.253	2.86
507.603	2.9
507.953	2.92
508.303	2.91
508.652	2.74
509.002	2.9
509.352	2.86
509.701	2.88
510.051	2.99
510.4	2.89
510.75	2.76
511.099	2.77
511.449	2.87
511.798	2.85
512.147	2.87
512.496	2.91
512.846	2.83
513.195	2.87
513.544	2.97
513.893	2.94
514.242	2.78
514.591	2.81
514.939	2.91
515.288	2.97
515.637	2.8
515.986	2.81
516.334	2.89
516.683	2.9
517.032	2.9
517.38	2.79
517.729	2.95
518.077	2.94
518.426	2.95
518.774	2.88
519.122	2.94
519.47	2.81
519.819	2.89
520.167	2.84
520.515	2.86
520.863	2.88
521.211	2.87
521.559	2.89
521.907	3
522.255	2.93
522.602	2.92
522.95	2.97
523.298	3
523.645	2.93
523.993	2.98
524.341	2.89
524.688	2.99
525.036	2.95
525.383	2.89
525.73	2.9
526.078	2.97
526.425	2.95
526.772	2.8
527.119	2.83
527.466	2.93
527.814	2.89
528.161	2.98
528.508	2.94
528.854	2.9
529.201	2.76
529.548	2.84
529.895	2.73
530.242	2.71
530.588	2.72
530.935	2.8
531.282	2.83
531.628	2.94
531.975	2.89
532.321	2.96
532.667	2.96
533.014	2.94
533.36	2.87
533.706	2.9
534.052	2.92
534.399	2.87
534.745	2.84
535.091	2.75
535.437	2.84
535.783	2.92
536.129	2.87
536.474	3.02
536.82	3.06
537.166	2.92
537.512	2.91
537.857	2.93
538.203	2.87
538.549	2.9
538.894	3.01
539.239	3.04
539.585	3.08
539.93	3.1
540.276	3.04
540.621	3.08
540.966	2.94
541.311	2.96
541.656	2.92
542.001	2.92
542.346	2.9
542.691	2.8
543.036	2.82
543.381	2.87
543.726	2.89
544.071	2.91
544.415	2.93
544.76	2.97
545.105	2.97
545.449	2.97
545.794	3.07
546.138	3.01
546.483	3.02
546.827	2.96
547.171	3.08
547.516	3.04
547.86	3.08
548.204	3.05
548.548	2.92
548.892	3.04
549.236	2.94
549.58	3.06
549.924	3.11
550.268	3.18
550.612	3.06
550.956	3.29
551.3	3.3
551.643	3.16
551.987	3.25
552.33	3.23
552.674	3.12
553.017	3.17
553.361	3.28
553.704	3.21
554.048	3.08
554.391	3.1
554.734	3.04
555.077	3.18
555.42	3.03
555.764	3.11
556.107	3.23
556.45	3.22
556.793	3.21
557.135	3.29
557.478	3.08
557.821	3.24
558.164	3.25
558.507	3.13
558.849	3.28
559.192	3.3
559.534	3.3
559.877	3.13
560.219	3.12
560.562	3.12
560.904	3.34
561.246	3.3
561.589	3.24
561.931	3.22
562.273	3.19
562.615	3.06
562.957	3.1
563.299	3.27
563.641	3.17
563.983	3.13
564.325	3.24
564.667	3.12
565.008	3.08
565.35	3.12
565.692	3.1
566.033	3.09
566.375	3.27
566.716	3.04
567.058	3.11
567.399	3.17
567.741	3.24
568.082	3.11
568.423	3.05
568.764	3.16
569.105	3.16
569.447	3.08
569.788	3.09
570.129	3.42
570.47	3.2
570.811	3.1
571.151	3.2
571.492	3.12
571.833	3.09
572.174	3.24
572.514	3.19
572.855	3.37
573.195	3.08
573.536	3.2
573.876	3.18
574.217	3.12
574.557	3.12
574.898	3.22
575.238	3.28
575.578	3.25
575.918	3.26
576.258	3.36
576.598	3.22
576.938	3.11
577.278	3.18
577.618	3.19
577.958	3.22
578.298	3.24
578.638	3.24
578.977	3.21
579.317	3.28
579.657	3.31
579.996	3.4
580.336	3.37
580.675	3.43
581.014	3.39
581.354	3.19
581.693	3.37
582.032	3.36
582.372	3.25
582.711	3.46
583.05	3.43
583.389	3.25
583.728	3.45
584.067	3.3
584.406	3.54
584.745	3.29
585.083	3.4
585.422	3.63
585.761	3.47
586.1	3.5
586.438	3.32
586.777	3.34
587.115	3.43
587.454	3.07
587.792	3.28
588.13	3.32
588.469	3.37
588.807	3.37
589.145	3.43
589.483	3
589.821	3.44
590.159	3.4
590.497	3.4
590.835	3.33
591.173	3.4
591.511	3.47
591.849	3.19
592.187	3.1
592.524	3.31
592.862	3.31
593.2	3.41
593.537	3.5
593.875	3.36
594.212	3.33
594.55	3.48
594.887	3.45
595.224	3.65
595.561	3.54
595.899	3.43
596.236	3.54
596.573	3.38
596.91	3.47
597.247	3.59
597.584	3.6
597.921	3.33
598.258	3.57
598.594	3.34
598.931	3.21
599.268	3.24
599.604	3.49
599.941	3.57
600.277	3.36
600.614	3.49
600.95	3.22
601.287	3.32
601.623	3.27
601.959	3.55
602.296	3.59
602.632	3.36
602.968	3.32
603.304	3.58
603.64	3.28
603.976	3.28
604.312	3.2
604.648	3.6
604.984	3.45
605.319	3.46
605.655	3.47
605.991	3.31
606.326	3.52
606.662	3.35
606.998	3.49
607.333	3.25
607.668	3.41
608.004	3.4
608.339	3.46
608.674	3.46
609.01	3.66
609.345	3.34
609.68	3.39
610.015	3.58
610.35	3.57
610.685	3.33
611.02	3.3
611.355	3.26
611.689	3.52
612.024	3.38
612.359	3.48
612.694	3.52
613.028	3.32
613.363	3.51
613.697	3.5
614.032	3.6
614.366	3.45
614.7	3.55
615.035	3.76
615.369	3.54
615.703	3.68
616.037	3.52
616.371	3.39
616.705	3.74
617.039	3.31
617.373	3.89
617.707	3.62
618.041	3.37
618.375	3.41
618.709	3.82
619.042	3.51
619.376	3.52
619.71	3.8
620.043	3.84
620.377	3.5
620.71	3.43
621.043	3.51
621.377	3.54
621.71	4.12
622.043	3.46
622.376	3.88
622.709	4.04
623.043	3.48
623.376	3.55
623.709	3.65
624.041	3.7
624.374	3.67
624.707	3.51
625.04	3.44
625.373	3.75
625.705	3.7
626.038	3.68
626.37	3.28
626.703	3.74
627.035	3.68
627.368	3.79
627.7	3.35
628.032	3.52
628.365	3.74
628.697	3.8
629.029	3.46
629.361	3.73
629.693	3.55
630.025	3.49
630.357	3.86
630.689	3.69
631.021	3.83
631.353	3.68
631.684	3.71
632.016	3.48
632.348	3.48
632.679	3.82
633.011	3.76
633.342	3.5
633.674	3.44
634.005	3.44
634.336	4.02
634.668	3.96
634.999	3.48
635.33	3.96
635.661	3.76
635.992	3.82
636.323	3.93
636.654	3.71
636.985	3.5
637.316	3.47
637.647	3.77
637.977	3.74
638.308	4.08
638.639	3.57
638.969	3.57
639.3	3.83
639.63	3.67
639.961	3.73
640.291	3.58
640.622	3.74
640.952	3.67
641.282	3.34
641.612	3.66
641.943	3.7
642.273	3.67
642.603	4.1
642.933	4.14
643.263	4.22
643.592	4.1
643.922	4.12
644.252	3.87
644.582	4.06
644.911	3.79
645.241	3.51
645.571	4.13
645.9	3.94
646.23	3.92
646.559	3.88
646.888	3.87
647.218	3.77
647.547	3.44
647.876	3.9
648.205	3.4
648.534	4.19
648.863	3.68
649.192	3.78
649.521	4.02
649.85	4.07
650.179	3.87
650.508	4.05
650.837	4.51
651.165	3.92
651.494	3.81
651.822	4.11
652.151	3.56
652.479	4.12
652.808	3.92
653.136	3.58
653.465	4.28
653.793	3.68
654.121	3.67
654.449	3.7
654.777	3.64
655.105	3.8
655.433	4.3
655.761	3.6
656.089	3.77
656.417	4.32
656.745	3.91
657.073	3.82
657.4	3.77
657.728	3.61
658.056	3.91
658.383	3.93
658.711	3.81
659.038	4.63
659.365	4
659.693	3.88
660.02	3.86
660.347	3.54
660.674	3.76
661.001	3.78
661.329	3.51
661.656	3.42
661.982	3.56
662.309	3.88
662.636	3.86
662.963	3.78
663.29	4.07
663.616	3.82
663.943	3.82
664.27	3.96
664.596	3.7
664.923	4.48
665.249	3.97
665.576	3.59
665.902	3.84
666.228	4.31
666.554	4.81
666.881	4.13
667.207	3.93
667.533	4.15
667.859	3.92
668.185	3.86
668.511	3.94
668.837	3.95
669.162	3.9
669.488	3.64
669.814	4.24
670.139	3.41
670.465	4.12
670.791	3.84
671.116	4.03
671.442	3.71
671.767	4.32
672.092	4.06
672.418	3.88
672.743	4.23
673.068	3.8
673.393	4.03
673.718	3.84
674.043	4.31
674.368	3.71
674.693	4.06
675.018	4.12
675.343	4.33
675.667	3.77
675.992	3.88
676.317	3.59
676.641	4.51
676.966	3.78
677.29	3.69
677.615	3.77
677.939	3.86
678.264	3.41
678.588	3.67
678.912	3.59
679.236	3.86
679.56	3.53
679.885	3.98
680.209	4.44
680.532	4.44
680.856	4.03
681.18	4.65
681.504	4.25
681.828	3.44
682.152	4.18
682.475	4.29
682.799	3.82
683.122	4.3
683.446	3.42
683.769	4.36
684.093	4.31
684.416	3.76
684.739	4.17
685.062	4.64
685.386	4.19
685.709	4.11
686.032	4.52
686.355	3.86
686.678	4.58
687.001	4.49
687.324	3.99
687.646	3.76
687.969	4.3
688.292	3.83
688.614	4.58
688.937	4.44
689.26	4.48
689.582	3.64
689.904	4.61
690.227	4.1
690.549	4.04
690.871	4.21
691.194	3.66
691.516	4.1
691.838	4.36
692.16	4.26
692.482	3.49
692.804	4.53
693.126	3.86
