Data from 21-10_forehead_Reflection__0__55.txt Node

Date: Thu Dec 15 16:52:33 CST 2022
User: ToomeyLab
Spectrometer: FLMS14357
Trigger mode: 0
Integration Time (sec): 1.000000E-2
Scans to average: 100
Electric dark correction enabled: true
Nonlinearity correction enabled: false
Boxcar width: 0
XAxis mode: Wavelengths
Number of Pixels in Spectrum: 2048
>>>>>Begin Spectral Data<<<<<
189.047	39.01
189.435	39.01
189.823	39.01
190.211	-42
190.599	19.21
190.987	-488.89
191.375	104
191.763	-11.63
192.151	-12.97
192.538	258.23
192.926	10.26
193.314	80.92
193.702	-447.83
194.089	14.71
194.477	54.17
194.864	149.14
195.252	-10
195.639	126.58
196.027	19000
196.414	491.49
196.801	-47.14
197.189	122.67
197.576	-340
197.963	-200
198.351	-0.41
198.738	5.69
199.125	-33.77
199.512	40.66
199.899	-50.84
200.286	-30.39
200.673	26.74
201.06	-1.82
201.447	6.22
201.833	59.94
202.22	33.5
202.607	-46.71
202.994	-12.93
203.38	-0.88
203.767	16.2
204.154	10.9
204.54	4.94
204.927	9.29
205.313	44.17
205.699	26.93
206.086	29.1
206.472	63
206.858	30.09
207.245	6.1
207.631	-16.95
208.017	30.52
208.403	1.5
208.789	32.59
209.175	6.85
209.561	-39.9
209.947	19.26
210.333	-6.41
210.719	31.85
211.105	26.01
211.491	2.63
211.876	-18.59
212.262	13.73
212.648	4.13
213.034	6.82
213.419	34.03
213.805	-2.86
214.19	-22.42
214.576	18.83
214.961	25.37
215.346	-7.41
215.732	5.35
216.117	16.71
216.502	-37.83
216.888	4.5
217.273	-5.16
217.658	-9.06
218.043	-6.45
218.428	-1.29
218.813	-1.54
219.198	-21.14
219.583	-11.53
219.968	0.07
220.353	-10.02
220.738	3.05
221.122	3.49
221.507	-10.98
221.892	-9.95
222.276	-15.43
222.661	0.21
223.046	2.08
223.43	8.16
223.815	2.78
224.199	-2.81
224.583	-2.12
224.968	-4.18
225.352	-0.6
225.736	11.72
226.121	-3.95
226.505	-7.16
226.889	2.55
227.273	-4.13
227.657	5.5
228.041	1.17
228.425	-5.23
228.809	-2.58
229.193	1.12
229.577	0.74
229.961	0.91
230.344	1.28
230.728	1.37
231.112	1.43
231.495	-1.26
231.879	1.68
232.263	1.29
232.646	0.82
233.03	2.14
233.413	2.33
233.797	-0.05
234.18	0.5
234.563	-0.7
234.946	-0.48
235.33	0.46
235.713	1.24
236.096	0.57
236.479	0.71
236.862	0.93
237.245	1.02
237.628	1.08
238.011	1.1
238.394	-0.44
238.777	1.18
239.16	3.04
239.543	2.5
239.925	-0.45
240.308	0.72
240.691	0.21
241.073	0.3
241.456	0.66
241.838	1.04
242.221	0.31
242.603	1.08
242.986	1.3
243.368	1.13
243.75	1
244.133	1.23
244.515	0.93
244.897	0.83
245.279	0.37
245.661	1.26
246.043	0.8
246.425	1.13
246.807	0.57
247.189	1.17
247.571	0.5
247.953	0.93
248.335	1.24
248.717	1.04
249.098	0.83
249.48	0.76
249.862	0.83
250.243	0.94
250.625	0.76
251.006	1.56
251.388	1.57
251.769	0.06
252.151	2.04
252.532	0.49
252.913	1.11
253.295	0.97
253.676	0.97
254.057	1.04
254.438	0.88
254.819	0.8
255.2	1.37
255.581	2.36
255.962	1.26
256.343	0.33
256.724	1.49
257.105	2.37
257.486	0.58
257.867	1.07
258.247	2.06
258.628	0.99
259.009	1.22
259.389	0.6
259.77	0.75
260.15	1.73
260.531	1.06
260.911	0.96
261.292	1.08
261.672	0.95
262.052	1
262.432	0.86
262.813	1.21
263.193	1.21
263.573	1.22
263.953	0.96
264.333	0.63
264.713	1.46
265.093	1.23
265.473	1.08
265.853	1.07
266.233	0.62
266.612	0.24
266.992	0.68
267.372	1.35
267.752	1.23
268.131	1.01
268.511	1.1
268.89	1.74
269.27	0.41
269.649	1.16
270.029	0.51
270.408	0.56
270.787	1.23
271.167	1.25
271.546	1.71
271.925	1.44
272.304	0.84
272.683	0.8
273.062	1.01
273.441	0.85
273.82	1.04
274.199	0.66
274.578	1.08
274.957	0.84
275.336	1.3
275.715	1.25
276.093	0.77
276.472	0.37
276.851	1.3
277.229	0.58
277.608	0.78
277.986	0.88
278.365	1.1
278.743	0.93
279.122	0.75
279.5	1.13
279.878	0.71
280.257	0.71
280.635	1.23
281.013	0.35
281.391	0.13
281.769	1.11
282.147	0.86
282.525	0.43
282.903	0.68
283.281	1.27
283.659	1.03
284.037	0.65
284.415	0.68
284.792	1
285.17	0.83
285.548	0.85
285.925	0.58
286.303	1.6
286.68	1.05
287.058	1.03
287.435	0.92
287.813	1.17
288.19	1.05
288.567	0.99
288.945	0.81
289.322	1.15
289.699	1.58
290.076	0.7
290.453	0.78
290.83	1.38
291.207	1.25
291.584	1.38
291.961	1.21
292.338	1.07
292.715	0.98
293.092	1.24
293.469	1.25
293.845	1.19
294.222	1.7
294.599	1.4
294.975	0.8
295.352	1.43
295.728	1.43
296.105	1.6
296.481	1.13
296.858	1.59
297.234	1.13
297.61	1.36
297.986	1.99
298.363	1.58
298.739	1.87
299.115	1.37
299.491	1.7
299.867	1.44
300.243	1.42
300.619	1.48
300.995	1.63
301.371	1.74
301.746	2.02
302.122	1.47
302.498	1.36
302.874	2.17
303.249	2.12
303.625	1.68
304	2.16
304.376	2.57
304.751	2.09
305.127	1.87
305.502	1.84
305.878	2.16
306.253	1.85
306.628	2.21
307.003	1.99
307.378	2.13
307.754	2.51
308.129	1.99
308.504	2.61
308.879	2.17
309.254	2.54
309.629	2.71
310.003	2.29
310.378	2.91
310.753	2.93
311.128	2.44
311.502	2.44
311.877	2.56
312.252	2.86
312.626	2.77
313.001	2.46
313.375	2.92
313.75	2.9
314.124	3.18
314.498	3.19
314.873	3.02
315.247	2.81
315.621	3.13
315.995	3.05
316.369	2.67
316.743	3.32
317.117	3.03
317.491	3.36
317.865	3.27
318.239	3.76
318.613	3.13
318.987	3.04
319.361	3.87
319.734	3.49
320.108	3.7
320.482	3.56
320.855	3.37
321.229	3.46
321.602	3.69
321.976	3.45
322.349	4.02
322.723	3.63
323.096	3.57
323.469	3.51
323.843	4.13
324.216	3.58
324.589	4.06
324.962	3.7
325.335	4.28
325.708	3.91
326.081	4.22
326.454	4.57
326.827	3.75
327.2	4.01
327.573	4.32
327.945	4.18
328.318	4.41
328.691	4.43
329.063	3.96
329.436	4.04
329.809	4.65
330.181	5.04
330.553	4.92
330.926	4.94
331.298	4.73
331.671	4.61
332.043	4.69
332.415	5.24
332.787	4.89
333.159	4.32
333.532	4.61
333.904	4.73
334.276	5.16
334.648	5.08
335.02	4.86
335.391	4.77
335.763	5
336.135	5.06
336.507	4.57
336.879	4.8
337.25	5
337.622	5.4
337.993	5.45
338.365	5.31
338.736	5.44
339.108	5.29
339.479	5.32
339.851	5.32
340.222	5.17
340.593	5.01
340.964	5.41
341.336	5.11
341.707	5.18
342.078	4.72
342.449	5.55
342.82	5.55
343.191	5.3
343.562	5.39
343.933	5.47
344.303	5.68
344.674	5.54
345.045	5.73
345.416	5.94
345.786	5.45
346.157	5.74
346.527	5.55
346.898	5.29
347.268	5.67
347.639	5.99
348.009	5.74
348.38	5.78
348.75	5.89
349.12	5.83
349.49	5.96
349.861	6.2
350.231	6.03
350.601	5.97
350.971	5.76
351.341	6.24
351.711	5.92
352.081	5.87
352.45	5.45
352.82	5.84
353.19	6.2
353.56	6.05
353.929	6.4
354.299	6.51
354.669	6.35
355.038	6.28
355.408	6.5
355.777	6.43
356.147	6.17
356.516	6.38
356.885	6.45
357.254	5.93
357.624	6.06
357.993	6.23
358.362	6.53
358.731	6.53
359.1	6.35
359.469	6.47
359.838	6.2
360.207	6.5
360.576	6.67
360.945	6.27
361.314	6.46
361.682	6.23
362.051	6.3
362.42	6.56
362.788	6.64
363.157	6.46
363.525	6.58
363.894	6.42
364.262	6.65
364.631	6.68
364.999	6.63
365.367	6.75
365.735	6.76
366.104	6.96
366.472	6.75
366.84	6.67
367.208	7.05
367.576	6.98
367.944	7.01
368.312	6.93
368.68	6.95
369.048	6.95
369.416	6.82
369.783	7.14
370.151	7.4
370.519	7.16
370.886	7.09
371.254	7.52
371.621	7.34
371.989	7.22
372.356	6.9
372.724	7.04
373.091	7.12
373.458	7.1
373.826	7.29
374.193	7.12
374.56	7.33
374.927	7.24
375.294	7.69
375.661	7.46
376.028	7.23
376.395	7.31
376.762	7.39
377.129	7.25
377.496	7.53
377.863	7.69
378.229	7.67
378.596	7.56
378.963	7.41
379.329	7.69
379.696	7.46
380.062	7.58
380.429	7.63
380.795	7.68
381.161	7.44
381.528	7.5
381.894	7.57
382.26	7.6
382.626	7.54
382.993	7.79
383.359	7.81
383.725	7.46
384.091	7.95
384.457	7.79
384.823	8.05
385.188	7.78
385.554	7.85
385.92	7.56
386.286	7.83
386.651	7.67
387.017	8.18
387.383	7.78
387.748	8.08
388.114	8.1
388.479	7.89
388.845	8.08
389.21	8.59
389.575	8.25
389.94	8.24
390.306	8.29
390.671	8.28
391.036	8.12
391.401	8.38
391.766	8.32
392.131	8.34
392.496	8.38
392.861	8.23
393.226	8.06
393.591	8.3
393.956	8.38
394.32	8.48
394.685	8.68
395.05	8.31
395.414	8.25
395.779	8.46
396.143	8.33
396.508	8.24
396.872	8.27
397.236	8.55
397.601	8.82
397.965	8.53
398.329	8.68
398.694	8.37
399.058	8.47
399.422	8.72
399.786	8.66
400.15	8.38
400.514	8.78
400.878	8.61
401.242	8.79
401.605	8.66
401.969	8.58
402.333	8.62
402.697	8.83
403.06	8.56
403.424	8.73
403.787	8.64
404.151	8.96
404.514	8.72
404.878	8.77
405.241	8.59
405.604	8.61
405.968	8.6
406.331	8.76
406.694	8.8
407.057	8.6
407.42	8.92
407.783	8.94
408.146	9.15
408.509	8.98
408.872	8.79
409.235	9.29
409.598	9.02
409.961	9.36
410.323	9.08
410.686	8.95
411.049	9.08
411.411	9.09
411.774	9.05
412.136	9.13
412.499	9.24
412.861	9.08
413.223	9.08
413.586	9.12
413.948	9.42
414.31	9.27
414.672	9.33
415.035	9.4
415.397	9.07
415.759	9.1
416.121	9.32
416.483	9.17
416.845	9.39
417.206	9.18
417.568	9.18
417.93	9.26
418.292	9.07
418.653	9.04
419.015	9.24
419.377	9.14
419.738	9.3
420.1	9.1
420.461	9.12
420.822	9.39
421.184	9.25
421.545	9.25
421.906	9.24
422.267	9.19
422.629	9.12
422.99	9.14
423.351	9.2
423.712	9.33
424.073	9.36
424.434	9.47
424.795	9.26
425.155	9.32
425.516	9.16
425.877	9.27
426.238	9.29
426.598	9.39
426.959	9.41
427.32	9.49
427.68	9.56
428.041	9.71
428.401	9.58
428.761	9.77
429.122	9.69
429.482	9.62
429.842	9.84
430.202	9.87
430.563	9.84
430.923	9.74
431.283	9.92
431.643	9.86
432.003	9.8
432.363	9.98
432.722	9.87
433.082	9.72
433.442	9.96
433.802	9.81
434.161	9.74
434.521	9.85
434.881	9.88
435.24	9.93
435.6	9.93
435.959	9.89
436.319	10.1
436.678	10.11
437.037	9.99
437.396	10.13
437.756	9.81
438.115	10.09
438.474	9.84
438.833	10.26
439.192	10.3
439.551	10.06
439.91	10.13
440.269	10.14
440.628	10.08
440.987	10.1
441.345	10.04
441.704	10.06
442.063	10.07
442.421	10.1
442.78	10.09
443.138	10.14
443.497	10.24
443.855	10.36
444.214	10.28
444.572	10.45
444.93	10.37
445.288	10.36
445.647	10.36
446.005	10.32
446.363	10.36
446.721	10.23
447.079	10.12
447.437	10.27
447.795	10.29
448.153	10.08
448.51	10.3
448.868	10.28
449.226	10.37
449.584	10.31
449.941	10.37
450.299	10.47
450.656	10.56
451.014	10.63
451.371	10.53
451.729	10.63
452.086	10.65
452.443	10.81
452.801	10.69
453.158	10.84
453.515	10.64
453.872	10.73
454.229	10.44
454.586	10.56
454.943	10.74
455.3	10.81
455.657	10.76
456.014	10.8
456.371	10.88
456.727	10.9
457.084	11.11
457.441	11.19
457.797	11.02
458.154	11.06
458.51	10.87
458.867	11.09
459.223	11.01
459.58	10.88
459.936	10.83
460.292	10.85
460.648	10.76
461.005	10.69
461.361	10.62
461.717	10.68
462.073	10.78
462.429	11.03
462.785	11.04
463.141	11.11
463.496	11.14
463.852	11.38
464.208	11.22
464.564	11.3
464.919	11.19
465.275	11.45
465.631	11.37
465.986	11.49
466.342	11.17
466.697	11.17
467.052	11.49
467.408	11.39
467.763	11.44
468.118	11.17
468.473	11.27
468.829	11.28
469.184	11.38
469.539	11.42
469.894	11.49
470.249	11.44
470.603	11.53
470.958	11.41
471.313	11.7
471.668	11.52
472.023	11.66
472.377	11.53
472.732	11.85
473.086	11.72
473.441	11.47
473.795	11.89
474.15	11.6
474.504	11.62
474.859	11.57
475.213	11.66
475.567	11.77
475.921	11.86
476.275	11.71
476.63	11.71
476.984	11.71
477.338	11.81
477.692	11.75
478.045	11.67
478.399	11.71
478.753	11.7
479.107	11.81
479.461	11.59
479.814	11.74
480.168	11.63
480.521	11.79
480.875	11.89
481.228	11.98
481.582	11.8
481.935	11.92
482.289	11.83
482.642	11.96
482.995	11.77
483.348	11.68
483.701	11.65
484.055	11.6
484.408	11.45
484.761	11.3
485.114	11.06
485.466	10.9
485.819	11.02
486.172	11.29
486.525	11.54
486.878	11.7
487.23	11.75
487.583	11.87
487.936	11.68
488.288	11.57
488.641	11.35
488.993	11.3
489.345	11.37
489.698	11.42
490.05	11.54
490.402	11.76
490.754	11.92
491.107	12.04
491.459	12.11
491.811	12.05
492.163	12.04
492.515	11.77
492.866	11.56
493.218	11.48
493.57	11.65
493.922	11.85
494.274	12.08
494.625	12.33
494.977	12.29
495.328	12.46
495.68	12.37
496.031	12.47
496.383	12.46
496.734	12.42
497.086	12.54
497.437	12.55
497.788	12.39
498.139	12.29
498.49	12.43
498.842	12.49
499.193	12.38
499.544	12.43
499.894	12.51
500.245	12.55
500.596	12.69
500.947	12.65
501.298	12.74
501.648	12.74
501.999	12.79
502.35	12.76
502.7	12.87
503.051	12.69
503.401	12.86
503.752	12.73
504.102	12.86
504.452	12.74
504.803	12.66
505.153	12.89
505.503	12.75
505.853	12.9
506.203	12.81
506.553	12.83
506.903	12.97
507.253	12.83
507.603	13.03
507.953	12.96
508.303	12.9
508.652	12.75
509.002	12.96
509.352	13.05
509.701	12.87
510.051	12.93
510.4	12.78
510.75	12.85
511.099	12.79
511.449	13.01
511.798	12.95
512.147	13.03
512.496	13.06
512.846	13.06
513.195	13.07
513.544	13.17
513.893	13.02
514.242	13.04
514.591	13.04
514.939	13.16
515.288	13.27
515.637	13.29
515.986	13.28
516.334	13.41
516.683	13.34
517.032	13.24
517.38	13.13
517.729	13.34
518.077	13.24
518.426	13.38
518.774	13.23
519.122	13.2
519.47	13.18
519.819	13.15
520.167	12.96
520.515	13.04
520.863	13.09
521.211	13.14
521.559	13.25
521.907	13.36
522.255	13.4
522.602	13.49
522.95	13.62
523.298	13.63
523.645	13.58
523.993	13.62
524.341	13.52
524.688	13.46
525.036	13.51
525.383	13.52
525.73	13.48
526.078	13.57
526.425	13.59
526.772	13.28
527.119	13.22
527.466	13.18
527.814	13.31
528.161	13.4
528.508	13.52
528.854	13.5
529.201	13.25
529.548	13.09
529.895	12.77
530.242	12.78
530.588	12.87
530.935	13.07
531.282	13.34
531.628	13.52
531.975	13.6
532.321	13.69
532.667	13.65
533.014	13.81
533.36	13.73
533.706	13.69
534.052	13.65
534.399	13.4
534.745	13.18
535.091	13.18
535.437	13.39
535.783	13.64
536.129	13.77
536.474	13.96
536.82	14.01
537.166	13.9
537.512	13.91
537.857	13.73
538.203	13.62
538.549	13.63
538.894	13.9
539.239	14.03
539.585	14.16
539.93	14.11
540.276	14.16
540.621	14.36
540.966	14.21
541.311	14.16
541.656	13.97
542.001	13.92
542.346	13.63
542.691	13.38
543.036	13.39
543.381	13.47
543.726	13.81
544.071	14.03
544.415	14.06
544.76	14.02
545.105	14.03
545.449	14.15
545.794	14.28
546.138	14.36
546.483	14.35
546.827	14.41
547.171	14.4
547.516	14.3
547.86	14.39
548.204	14.25
548.548	14.26
548.892	14.38
549.236	14.6
549.58	14.64
549.924	14.81
550.268	14.81
550.612	14.9
550.956	14.92
551.3	15.02
551.643	14.77
551.987	14.9
552.33	14.87
552.674	14.76
553.017	15.09
553.361	14.93
553.704	14.96
554.048	14.81
554.391	14.8
554.734	14.67
555.077	14.88
555.42	14.99
555.764	14.98
556.107	15.08
556.45	15.17
556.793	15.08
557.135	15.22
557.478	15.05
557.821	15.23
558.164	15.18
558.507	15.01
558.849	15.33
559.192	15.32
559.534	15.34
559.877	15.11
560.219	15.26
560.562	15.27
560.904	15.48
561.246	15.27
561.589	15.34
561.931	15.1
562.273	15.12
562.615	15.16
562.957	15.18
563.299	15.41
563.641	15.53
563.983	15.29
564.325	15.3
564.667	15.51
565.008	15.55
565.35	15.39
565.692	15.47
566.033	15.37
566.375	15.45
566.716	15.29
567.058	15.22
567.399	15.17
567.741	15.2
568.082	15.28
568.423	15.21
568.764	15.37
569.105	15.52
569.447	15.45
569.788	15.58
570.129	15.48
570.47	15.72
570.811	15.57
571.151	15.63
571.492	15.54
571.833	15.58
572.174	15.55
572.514	15.69
572.855	15.55
573.195	15.33
573.536	15.49
573.876	15.5
574.217	15.47
574.557	15.7
574.898	15.58
575.238	15.75
575.578	15.82
575.918	15.68
576.258	15.93
576.598	15.7
576.938	15.57
577.278	15.75
577.618	15.75
577.958	16.02
578.298	16.09
578.638	15.86
578.977	15.9
579.317	16.11
579.657	16.01
579.996	16.26
580.336	16.14
580.675	16.2
581.014	16.24
581.354	16
581.693	16.19
582.032	16.18
582.372	16.43
582.711	16.4
583.05	16.11
583.389	16.23
583.728	16.17
584.067	16.21
584.406	16.34
584.745	16.19
585.083	16.2
585.422	16.2
585.761	16.36
586.1	16.43
586.438	16.31
586.777	16.57
587.115	16.66
587.454	16.33
587.792	16.46
588.13	16.42
588.469	16.32
588.807	16.66
589.145	16.59
589.483	16.17
589.821	16.44
590.159	16.49
590.497	16.58
590.835	16.56
591.173	16.58
591.511	16.49
591.849	16.75
592.187	16.63
592.524	16.7
592.862	16.53
593.2	16.69
593.537	16.62
593.875	16.54
594.212	16.93
594.55	16.84
594.887	16.71
595.224	16.88
595.561	16.58
595.899	16.56
596.236	16.59
596.573	16.27
596.91	16.65
597.247	16.87
597.584	16.83
597.921	16.7
598.258	16.62
598.594	16.36
598.931	16.29
599.268	16.31
599.604	16.69
599.941	16.92
600.277	16.94
600.614	16.93
600.95	17.01
601.287	16.69
601.623	16.7
601.959	17.21
602.296	17.05
602.632	16.96
602.968	16.96
603.304	17.01
603.64	16.91
603.976	17.03
604.312	16.96
604.648	16.87
604.984	16.74
605.319	16.84
605.655	17
605.991	16.85
606.326	16.71
606.662	16.77
606.998	17.12
607.333	17
607.668	17
608.004	17.26
608.339	17.06
608.674	17.07
609.01	17.43
609.345	17.38
609.68	17.2
610.015	17.45
610.35	17.18
610.685	16.7
611.02	17.04
611.355	16.88
611.689	17.19
612.024	16.91
612.359	17.2
612.694	17.34
613.028	17.27
613.363	17.58
613.697	17.78
614.032	17.59
614.366	17.21
614.7	17.9
615.035	17.53
615.369	17.86
615.703	17.6
616.037	17.73
616.371	17.68
616.705	17.42
617.039	17.47
617.373	17.69
617.707	17.66
618.041	17.29
618.375	16.98
618.709	17.68
619.042	17.53
619.376	17.6
619.71	17.68
620.043	17.9
620.377	17.64
620.71	17.78
621.043	17.91
621.377	17.78
621.71	18.19
622.043	17.97
622.376	17.67
622.709	18.27
623.043	17.84
623.376	17.54
623.709	18.01
624.041	17.72
624.374	18.15
624.707	17.59
625.04	17.49
625.373	17.96
625.705	18.26
626.038	17.85
626.37	18.02
626.703	17.89
627.035	17.86
627.368	17.81
627.7	17.57
628.032	17.81
628.365	17.72
628.697	17.95
629.029	17.88
629.361	18.04
629.693	17.94
630.025	18.26
630.357	18.14
630.689	18.21
631.021	18.24
631.353	18
631.684	18
632.016	18.06
632.348	18.03
632.679	18.05
633.011	18.29
633.342	18.17
633.674	17.95
634.005	18.42
634.336	18.41
634.668	18.27
634.999	18.17
635.33	18.4
635.661	18.37
635.992	17.98
636.323	18.08
636.654	18.44
636.985	18.39
637.316	18.56
637.647	18.32
637.977	18.34
638.308	18.75
638.639	18.27
638.969	18.64
639.3	18.45
639.63	18.2
639.961	18.36
640.291	18.12
640.622	18.72
640.952	18.89
641.282	17.92
641.612	18.85
641.943	18.53
642.273	18.51
642.603	18.84
642.933	18.8
643.263	18.73
643.592	18.92
643.922	18.67
644.252	18.78
644.582	18.74
644.911	18.41
645.241	18.49
645.571	18.52
645.9	19
646.23	18.76
646.559	18.63
646.888	18.38
647.218	18.41
647.547	18.89
647.876	18.46
648.205	18.54
648.534	18.6
648.863	18.69
649.192	19.08
649.521	18.58
649.85	18.86
650.179	18.93
650.508	18.79
650.837	18.94
651.165	18.91
651.494	19.09
651.822	19.07
652.151	18.33
652.479	19
652.808	18.94
653.136	18.58
653.465	18.52
653.793	18.72
654.121	18.98
654.449	18.95
654.777	18.55
655.105	18.56
655.433	18.96
655.761	18.71
656.089	18.71
656.417	19.34
656.745	19.82
657.073	18.98
657.4	18.96
657.728	18.87
658.056	18.92
658.383	18.85
658.711	19.19
659.038	18.93
659.365	19.31
659.693	18.81
660.02	19.3
660.347	18.81
660.674	18.83
661.001	18.62
661.329	18.77
661.656	18.79
661.982	18.7
662.309	18.95
662.636	19.02
662.963	19.21
663.29	19.28
663.616	19
663.943	19.08
664.27	19.39
664.596	19.79
664.923	19.45
665.249	19.51
665.576	19.15
665.902	19.3
666.228	19.25
666.554	19.71
666.881	18.92
667.207	19.13
667.533	19.42
667.859	19.46
668.185	19.09
668.511	19.63
668.837	19.22
669.162	19.21
669.488	18.67
669.814	19.77
670.139	18.95
670.465	19.86
670.791	18.65
671.116	19.25
671.442	18.92
671.767	19.51
672.092	19.37
672.418	19.68
672.743	19.71
673.068	19.18
673.393	19.32
673.718	19.13
674.043	19.53
674.368	19.07
674.693	19.54
675.018	19.94
675.343	19.46
675.667	19.05
675.992	19.59
676.317	19.19
676.641	19.49
