Data from 434_forehead_Reflection__3__260.txt Node

Date: Fri Dec 15 18:37:30 CST 2023
User: ToomeyLab
Spectrometer: FLMS14357
Trigger mode: 0
Integration Time (sec): 1.000000E-2
Scans to average: 100
Electric dark correction enabled: true
Nonlinearity correction enabled: false
Boxcar width: 0
XAxis mode: Wavelengths
Number of Pixels in Spectrum: 2048
>>>>>Begin Spectral Data<<<<<
189.047	83.54
189.435	83.54
189.823	83.54
190.211	257.18
190.599	74.39
190.987	93.98
191.375	1.32
191.763	-245.67
192.151	120.73
192.538	138.46
192.926	-2019.55
193.314	137.44
193.702	-286.27
194.089	196.19
194.477	98.48
194.864	7.71
195.252	143.92
195.639	93.77
196.027	-1222.43
196.414	187.13
196.801	-775.82
197.189	78.86
197.576	521.71
197.963	-40.12
198.351	-100.62
198.738	-35.31
199.125	-17.97
199.512	-36.57
199.899	26.12
200.286	15.62
200.673	-40.4
201.06	4.45
201.447	-28.17
201.833	-10.84
202.22	13.33
202.607	41.58
202.994	21.14
203.38	-10.39
203.767	4.2
204.154	20.98
204.54	51.2
204.927	-137.55
205.313	-33.39
205.699	8.62
206.086	24
206.472	19.2
206.858	5.02
207.245	-63.09
207.631	-16.37
208.017	-24.68
208.403	14.76
208.789	-0.67
209.175	41.35
209.561	-44.33
209.947	1.11
210.333	-84.66
210.719	1.25
211.105	35.36
211.491	-44.85
211.876	19.55
212.262	15.85
212.648	3.12
213.034	32.04
213.419	1.65
213.805	-34.44
214.19	18.79
214.576	4.73
214.961	-37.11
215.346	-46.06
215.732	-10.58
216.117	26.28
216.502	4.98
216.888	21.81
217.273	17.95
217.658	9.08
218.043	1.56
218.428	-10.24
218.813	-24
219.198	-70.7
219.583	13.76
219.968	41.27
220.353	14.65
220.738	21.54
221.122	17.28
221.507	-27.84
221.892	-14.99
222.276	-11.5
222.661	-10.85
223.046	-1.17
223.43	14.47
223.815	2.85
224.199	-19.94
224.583	-2.01
224.968	13.09
225.352	9.35
225.736	-3.35
226.121	-10.93
226.505	-2.19
226.889	8.2
227.273	9.33
227.657	9.46
228.041	2.01
228.425	0.07
228.809	6.77
229.193	7.23
229.577	5.74
229.961	5.89
230.344	5.1
230.728	5.54
231.112	5.07
231.495	5.61
231.879	4.71
232.263	7.01
232.646	6.23
233.03	5.91
233.413	4.82
233.797	7.8
234.18	3.92
234.563	5.06
234.946	3.77
235.33	7.43
235.713	6.52
236.096	3.77
236.479	5.56
236.862	2.52
237.245	6.42
237.628	4.06
238.011	6.96
238.394	6
238.777	4.98
239.16	2.56
239.543	4.67
239.925	6.31
240.308	5.93
240.691	6.91
241.073	5.43
241.456	5.56
241.838	5.88
242.221	7
242.603	5.27
242.986	6.3
243.368	6.29
243.75	6.07
244.133	6.14
244.515	5.99
244.897	5.61
245.279	5.78
245.661	5.69
246.043	5.58
246.425	3.92
246.807	7.64
247.189	5.27
247.571	5.77
247.953	6.41
248.335	5.98
248.717	6.12
249.098	5.84
249.48	5.95
249.862	5.57
250.243	6.05
250.625	5.86
251.006	6.68
251.388	5
251.769	5.38
252.151	6.77
252.532	5.05
252.913	4.94
253.295	5.04
253.676	6.26
254.057	6.21
254.438	5.63
254.819	5.32
255.2	4.59
255.581	5.25
255.962	4.93
256.343	6.02
256.724	5.4
257.105	6.67
257.486	5.2
257.867	5.82
258.247	6.35
258.628	5.46
259.009	4.84
259.389	6.02
259.77	5.82
260.15	5.01
260.531	5.37
260.911	6.12
261.292	6.1
261.672	6.08
262.052	5.86
262.432	5.89
262.813	5.71
263.193	5.53
263.573	5.71
263.953	5.57
264.333	5.78
264.713	5.7
265.093	5.58
265.473	5.92
265.853	4.52
266.233	5.75
266.612	3.05
266.992	3.7
267.372	6.25
267.752	5.26
268.131	5.36
268.511	6.13
268.89	5.44
269.27	5.59
269.649	5.35
270.029	4.98
270.408	6.19
270.787	6.12
271.167	5.63
271.546	6.06
271.925	5.18
272.304	4.86
272.683	5.64
273.062	5.45
273.441	5.21
273.82	5.12
274.199	5.73
274.578	5.67
274.957	5.21
275.336	5.34
275.715	5.09
276.093	5.03
276.472	5.62
276.851	5.14
277.229	4.8
277.608	5.17
277.986	5.82
278.365	5.38
278.743	5.07
279.122	5.4
279.5	5.12
279.878	6.05
280.257	4.92
280.635	5.19
281.013	5.3
281.391	5.16
281.769	5.55
282.147	5.29
282.525	5.76
282.903	5.37
283.281	5.63
283.659	5.82
284.037	5.44
284.415	5.88
284.792	6.15
285.17	4.97
285.548	5.57
285.925	6.18
286.303	6
286.68	5.2
287.058	5.64
287.435	5.66
287.813	5.51
288.19	5.51
288.567	5.24
288.945	5.97
289.322	5.31
289.699	5.36
290.076	5.59
290.453	5.29
290.83	5.37
291.207	5.44
291.584	5.62
291.961	6.25
292.338	5.42
292.715	5.88
293.092	5.85
293.469	6.32
293.845	6.07
294.222	5.68
294.599	5.99
294.975	5.54
295.352	6.44
295.728	5.39
296.105	5.34
296.481	6.48
296.858	6
297.234	5.39
297.61	5.79
297.986	5.79
298.363	6.07
298.739	6.02
299.115	5.77
299.491	5.88
299.867	5.89
300.243	5.96
300.619	5.69
300.995	5.84
301.371	6.56
301.746	5.96
302.122	6.69
302.498	5.94
302.874	6.35
303.249	6.17
303.625	6.21
304	6.29
304.376	5.87
304.751	5.73
305.127	6.86
305.502	5.66
305.878	5.78
306.253	6.27
306.628	7.08
307.003	6.43
307.378	6.7
307.754	6.93
308.129	5.48
308.504	7.01
308.879	6.26
309.254	8.03
309.629	7.4
310.003	6.96
310.378	7.27
310.753	6.95
311.128	6.89
311.502	6.9
311.877	6.76
312.252	6.3
312.626	6.91
313.001	6.98
313.375	7.2
313.75	6.77
314.124	7.36
314.498	7.39
314.873	7.08
315.247	7.49
315.621	7.2
315.995	6.36
316.369	7.5
316.743	7.27
317.117	7.5
317.491	7.55
317.865	6.56
318.239	7.06
318.613	7.27
318.987	7.75
319.361	6.92
319.734	8.01
320.108	7.72
320.482	7.87
320.855	8.12
321.229	7.84
321.602	7.89
321.976	7.95
322.349	7.49
322.723	6.95
323.096	8
323.469	7.02
323.843	7.61
324.216	8.08
324.589	7.39
324.962	7.71
325.335	7.69
325.708	7.83
326.081	7.64
326.454	7.78
326.827	7.54
327.2	8.03
327.573	8.42
327.945	7.36
328.318	7.61
328.691	7.44
329.063	7.75
329.436	8.07
329.809	8.22
330.181	7.47
330.553	8.26
330.926	7.95
331.298	8.24
331.671	7.74
332.043	8.58
332.415	8.06
332.787	7.91
333.159	8.79
333.532	8.16
333.904	8.74
334.276	7.59
334.648	8.05
335.02	7.96
335.391	8.02
335.763	7.75
336.135	8.38
336.507	8.97
336.879	8.27
337.25	7.49
337.622	8.22
337.993	8.33
338.365	8.63
338.736	8.32
339.108	8
339.479	8.37
339.851	8.42
340.222	8.43
340.593	8.14
340.964	8.09
341.336	9.01
341.707	8.02
342.078	9.17
342.449	8.66
342.82	8.76
343.191	8.55
343.562	8.3
343.933	8.64
344.303	8.44
344.674	8.27
345.045	8.7
345.416	8.63
345.786	8.31
346.157	9.21
346.527	8.71
346.898	8.3
347.268	9.1
347.639	8.69
348.009	8.63
348.38	8.23
348.75	8.37
349.12	8.63
349.49	8.99
349.861	9.22
350.231	8.51
350.601	8.85
350.971	9.11
351.341	9.29
351.711	8.95
352.081	8.9
352.45	8.76
352.82	9.08
353.19	8.98
353.56	8.45
353.929	8.69
354.299	8.67
354.669	8.55
355.038	9.18
355.408	8.78
355.777	8.88
356.147	8.82
356.516	9.34
356.885	9.18
357.254	9.01
357.624	9.38
357.993	9.5
358.362	8.81
358.731	9.09
359.1	9.22
359.469	9.54
359.838	9.31
360.207	9.08
360.576	9.31
360.945	8.97
361.314	9.77
361.682	9.09
362.051	9.21
362.42	9.37
362.788	9.26
363.157	9.38
363.525	9.73
363.894	9.48
364.262	9.61
364.631	9.68
364.999	9.53
365.367	9.3
365.735	10.34
366.104	9.59
366.472	9.33
366.84	9.52
367.208	9.78
367.576	9.63
367.944	9.78
368.312	9.86
368.68	9.26
369.048	9.99
369.416	10.13
369.783	9.47
370.151	9.82
370.519	10
370.886	10.26
371.254	9.59
371.621	9.96
371.989	10.27
372.356	9.5
372.724	9.58
373.091	9.74
373.458	9.88
373.826	9.9
374.193	9.87
374.56	9.94
374.927	10.1
375.294	10.28
375.661	9.77
376.028	9.63
376.395	9.65
376.762	9.81
377.129	10.02
377.496	10.2
377.863	10.28
378.229	9.9
378.596	10.31
378.963	10.11
379.329	9.87
379.696	10.27
380.062	10.1
380.429	9.93
380.795	9.94
381.161	10.36
381.528	10.47
381.894	10.19
382.26	10.11
382.626	10.58
382.993	10.28
383.359	10.74
383.725	10.23
384.091	10.33
384.457	10.66
384.823	10.39
385.188	10.49
385.554	10.59
385.92	10.57
386.286	10.57
386.651	10.74
387.017	10.86
387.383	10.41
387.748	10.55
388.114	11.08
388.479	10.78
388.845	10.84
389.21	10.58
389.575	10.83
389.94	10.47
390.306	10.59
390.671	10.5
391.036	10.35
391.401	10.45
391.766	10.95
392.131	10.47
392.496	10.88
392.861	10.74
393.226	11.31
393.591	10.95
393.956	10.91
394.32	10.87
394.685	10.59
395.05	11.21
395.414	10.8
395.779	10.66
396.143	11.09
396.508	11.01
396.872	11.11
397.236	11.18
397.601	10.85
397.965	11.02
398.329	11.19
398.694	11.18
399.058	11.23
399.422	11.01
399.786	11.5
400.15	11.08
400.514	11.22
400.878	11.21
401.242	11.53
401.605	11.35
401.969	11.48
402.333	11.25
402.697	11
403.06	11.42
403.424	11.5
403.787	10.92
404.151	11.37
404.514	11.34
404.878	11.56
405.241	11.5
405.604	11.3
405.968	11.51
406.331	11.15
406.694	11.56
407.057	11.56
407.42	11.4
407.783	11.24
408.146	11.41
408.509	11.24
408.872	11.41
409.235	11.63
409.598	11.88
409.961	11.79
410.323	11.61
410.686	11.57
411.049	11.51
411.411	11.81
411.774	11.73
412.136	12.08
412.499	11.78
412.861	11.72
413.223	11.64
413.586	11.8
413.948	11.74
414.31	11.77
414.672	11.95
415.035	11.45
415.397	11.95
415.759	11.47
416.121	12.01
416.483	11.81
416.845	11.88
417.206	11.8
417.568	12.04
417.93	11.73
418.292	11.91
418.653	11.94
419.015	12.05
419.377	12.09
419.738	12.03
420.1	11.93
420.461	12.03
420.822	12.13
421.184	11.86
421.545	12.03
421.906	11.86
422.267	12.01
422.629	11.95
422.99	11.97
423.351	11.92
423.712	11.98
424.073	11.95
424.434	11.97
424.795	12.1
425.155	12.04
425.516	12.09
425.877	12.02
426.238	12.04
426.598	12.25
426.959	12.1
427.32	12.12
427.68	12.34
428.041	12.24
428.401	12.28
428.761	12.28
429.122	12.29
429.482	12.23
429.842	12.63
430.202	12.45
430.563	12.64
430.923	12.44
431.283	12.73
431.643	12.47
432.003	12.5
432.363	12.7
432.722	12.74
433.082	12.93
433.442	12.83
433.802	12.63
434.161	12.59
434.521	12.87
434.881	12.91
435.24	12.86
435.6	12.86
435.959	12.72
436.319	12.75
436.678	12.77
437.037	12.81
437.396	13.13
437.756	13.02
438.115	13.09
438.474	13.21
438.833	12.88
439.192	13.13
439.551	13.36
439.91	13.3
440.269	13.27
440.628	13.17
440.987	13.23
441.345	13.06
441.704	13.09
442.063	12.99
442.421	13.16
442.78	13.18
443.138	13.13
443.497	13.24
443.855	13.36
444.214	13.37
444.572	13.45
444.93	13.31
445.288	13.55
445.647	13.52
446.005	13.69
446.363	13.71
446.721	13.6
447.079	13.56
447.437	13.43
447.795	13.62
448.153	13.37
448.51	13.45
448.868	13.54
449.226	13.44
449.584	13.52
449.941	13.66
450.299	13.55
450.656	13.75
451.014	13.7
451.371	13.73
451.729	13.69
452.086	13.91
452.443	14.11
452.801	14.07
453.158	13.73
453.515	13.99
453.872	14.2
454.229	13.94
454.586	13.93
454.943	13.94
455.3	14.04
455.657	14.03
456.014	14.16
456.371	14.25
456.727	14.28
457.084	14.22
457.441	14.17
457.797	14.27
458.154	14.53
458.51	14.25
458.867	14.56
459.223	14.35
459.58	14.42
459.936	14.51
460.292	14.41
460.648	14.38
461.005	14.46
461.361	14.41
461.717	14.55
462.073	14.24
462.429	14.29
462.785	14.32
463.141	14.35
463.496	14.49
463.852	14.52
464.208	14.61
464.564	14.61
464.919	14.7
465.275	14.67
465.631	14.96
465.986	14.91
466.342	14.78
466.697	14.75
467.052	14.93
467.408	15.12
467.763	15.12
468.118	14.92
468.473	14.84
468.829	15.14
469.184	14.91
469.539	15.09
469.894	15.05
470.249	15.31
470.603	15.17
470.958	15.29
471.313	15.28
471.668	15.22
472.023	15.3
472.377	15.2
472.732	15.29
473.086	15.29
473.441	15.27
473.795	15.48
474.15	15.52
474.504	15.47
474.859	15.59
475.213	15.29
475.567	15.3
475.921	15.45
476.275	15.64
476.63	15.56
476.984	15.75
477.338	15.6
477.692	15.65
478.045	15.67
478.399	15.92
478.753	15.71
479.107	15.87
479.461	15.59
479.814	15.78
480.168	15.81
480.521	15.8
480.875	15.74
481.228	15.89
481.582	15.79
481.935	15.88
482.289	15.86
482.642	16.01
482.995	15.74
483.348	15.89
483.701	16.02
484.055	16.02
484.408	15.99
484.761	15.76
485.114	15.76
485.466	15.51
485.819	15.5
486.172	15.42
486.525	15.31
486.878	15.38
487.23	15.46
487.583	15.68
487.936	15.77
488.288	15.95
488.641	16.06
488.993	15.86
489.345	15.85
489.698	15.85
490.05	15.78
490.402	15.95
490.754	15.83
491.107	16.06
491.459	16.15
491.811	16.28
492.163	16.47
492.515	16.34
492.866	16.56
493.218	16.41
493.57	16.29
493.922	16.22
494.274	16.32
494.625	16.34
494.977	16.52
495.328	16.52
495.68	16.68
496.031	16.89
496.383	17
496.734	17.19
497.086	17.14
497.437	17.18
497.788	16.98
498.139	17.06
498.49	17.22
498.842	17.12
499.193	17.22
499.544	17.35
499.894	17.21
500.245	17.36
500.596	17.31
500.947	17.4
501.298	17.36
501.648	17.49
501.999	17.5
502.35	17.54
502.7	17.57
503.051	17.58
503.401	17.64
503.752	17.77
504.102	17.79
504.452	17.98
504.803	17.89
505.153	17.93
505.503	17.9
505.853	17.87
506.203	17.77
506.553	17.86
506.903	17.98
507.253	17.84
507.603	17.98
507.953	18.08
508.303	18.21
508.652	17.99
509.002	18.14
509.352	18.11
509.701	18.13
510.051	18.1
510.4	18.17
510.75	18.18
511.099	18.18
511.449	18.24
511.798	18.19
512.147	18.23
512.496	18.31
512.846	18.55
513.195	18.32
513.544	18.41
513.893	18.51
514.242	18.53
514.591	18.59
514.939	18.73
515.288	18.72
515.637	18.7
515.986	18.77
516.334	18.87
516.683	18.94
517.032	18.84
517.38	19.05
517.729	18.88
518.077	18.92
518.426	19.12
518.774	19.03
519.122	18.94
519.47	19.04
519.819	18.93
520.167	19.06
520.515	19.04
520.863	18.92
521.211	19.05
521.559	19.16
521.907	18.88
522.255	19.19
522.602	19.21
522.95	19.24
523.298	19.38
523.645	19.49
523.993	19.51
524.341	19.65
524.688	19.62
525.036	19.55
525.383	19.54
525.73	19.8
526.078	19.77
526.425	19.68
526.772	19.89
527.119	19.68
527.466	19.62
527.814	19.49
528.161	19.56
528.508	19.55
528.854	19.59
529.201	19.66
529.548	19.55
529.895	19.62
530.242	19.47
530.588	19.42
530.935	19.36
531.282	19.34
531.628	19.35
531.975	19.56
532.321	19.61
532.667	19.79
533.014	20.01
533.36	20.19
533.706	20.16
534.052	20.4
534.399	20.18
534.745	20.26
535.091	20.26
535.437	20.26
535.783	20.16
536.129	20.27
536.474	20.27
536.82	20.37
537.166	20.45
537.512	20.7
537.857	20.68
538.203	20.76
538.549	20.67
538.894	20.67
539.239	20.8
539.585	20.88
539.93	20.67
540.276	21.04
540.621	21.11
540.966	21.31
541.311	21.33
541.656	21.33
542.001	21.32
542.346	21.35
542.691	21.24
543.036	21.14
543.381	20.92
543.726	21.03
544.071	21.12
544.415	21.12
544.76	21.09
545.105	21.29
545.449	21.46
545.794	21.63
546.138	21.55
546.483	21.77
546.827	21.66
547.171	21.79
547.516	21.99
547.86	21.98
548.204	22.04
548.548	21.99
548.892	22.13
549.236	22.04
549.58	21.95
549.924	22.27
550.268	22.29
550.612	22.38
550.956	22.62
551.3	22.53
551.643	22.58
551.987	22.87
552.33	22.76
552.674	22.96
553.017	22.85
553.361	22.76
553.704	22.96
554.048	22.89
554.391	23.06
554.734	23.14
555.077	23.06
555.42	23.01
555.764	23.01
556.107	23.02
556.45	23.1
556.793	23.23
557.135	23.11
557.478	23.33
557.821	23.44
558.164	23.5
558.507	23.47
558.849	23.51
559.192	23.73
559.534	23.72
559.877	23.69
560.219	23.58
560.562	23.92
560.904	23.78
561.246	23.74
561.589	24.03
561.931	23.95
562.273	24.14
562.615	24.27
562.957	24.21
563.299	24.09
563.641	24.02
563.983	24.27
564.325	24.39
564.667	24.13
565.008	24.45
565.35	24.45
565.692	24.14
566.033	24.57
566.375	24.56
566.716	24.74
567.058	24.62
567.399	24.83
567.741	24.92
568.082	24.68
568.423	24.86
568.764	24.7
569.105	24.6
569.447	24.91
569.788	24.7
570.129	25.11
570.47	25.08
570.811	25.28
571.151	25.16
571.492	25.38
571.833	25.33
572.174	25.23
572.514	25.39
572.855	25.45
573.195	25.14
573.536	25.52
573.876	25.38
574.217	25.18
574.557	25.46
574.898	25.73
575.238	25.6
575.578	25.5
575.918	25.93
576.258	25.75
576.598	25.88
576.938	25.85
577.278	25.89
577.618	26.05
577.958	25.91
578.298	25.99
578.638	26.03
578.977	26.11
579.317	26.09
579.657	26.15
579.996	26.44
580.336	26.69
580.675	26.64
581.014	26.33
581.354	26.62
581.693	26.74
582.032	26.7
582.372	26.53
582.711	26.8
583.05	26.9
583.389	26.87
583.728	26.84
584.067	27.06
584.406	27.09
584.745	27.15
585.083	27.29
585.422	27.48
585.761	27.13
586.1	27.51
586.438	27.39
586.777	27.78
587.115	27.36
587.454	27.48
587.792	27.46
588.13	27.42
588.469	27.49
588.807	27.61
589.145	27.76
589.483	27.73
589.821	27.67
590.159	27.65
590.497	27.84
590.835	28.12
591.173	27.58
591.511	28.09
591.849	28.17
592.187	28.08
592.524	27.84
592.862	28.09
593.2	28.42
593.537	28.14
593.875	28.29
594.212	28.28
594.55	27.96
594.887	28.81
595.224	28.37
595.561	28.45
595.899	28.49
596.236	28.65
596.573	29.12
596.91	28.39
597.247	28.54
597.584	28.79
597.921	28.72
598.258	28.75
598.594	29.01
598.931	29.06
599.268	28.98
599.604	29.02
599.941	28.93
600.277	29.28
600.614	28.78
600.95	28.92
601.287	29.63
601.623	29.26
601.959	29.49
602.296	29.58
602.632	29.39
602.968	29.48
603.304	29.57
603.64	29.66
603.976	30.06
604.312	29.52
604.648	29.5
604.984	29.89
605.319	29.81
605.655	29.91
605.991	30.02
606.326	30.21
606.662	30.15
606.998	29.85
607.333	30.35
607.668	29.8
608.004	30.21
608.339	30.22
608.674	30.4
609.01	29.95
609.345	30.53
609.68	30.4
610.015	30.53
610.35	30.57
610.685	30.67
611.02	30.88
611.355	30.81
611.689	31.12
612.024	31
612.359	30.86
612.694	30.62
613.028	31
613.363	30.84
613.697	30.69
614.032	30.97
614.366	31.07
614.7	31.06
615.035	31.18
615.369	31.13
615.703	31.53
616.037	31.39
616.371	31.17
616.705	31.55
617.039	31.33
617.373	31.47
617.707	31.86
618.041	31.57
618.375	32.04
618.709	32.16
619.042	32.32
619.376	32.06
619.71	32.37
620.043	32.53
620.377	32.2
620.71	32.57
621.043	32.29
621.377	32.21
621.71	32.61
622.043	32.44
622.376	32.87
622.709	32.34
623.043	32.94
623.376	33.18
623.709	32.45
624.041	32.81
624.374	32.82
624.707	33.28
625.04	33.28
625.373	32.61
625.705	33.23
626.038	33.05
626.37	33.31
626.703	33
627.035	33.08
627.368	33.6
627.7	33.38
628.032	33.46
628.365	33.68
628.697	33.37
629.029	33.25
629.361	33.62
629.693	33.69
630.025	33.91
630.357	33.71
630.689	33.79
631.021	33.77
631.353	33.47
631.684	33.64
632.016	33.69
632.348	34.48
632.679	34.13
633.011	34.76
633.342	34.5
633.674	34.02
634.005	34.43
634.336	34.43
634.668	34.51
634.999	34.57
635.33	34.83
635.661	35.01
635.992	34.62
636.323	34.48
636.654	35.16
636.985	34.71
637.316	34.48
637.647	34.71
637.977	34.53
638.308	35.48
638.639	34.36
638.969	34.55
639.3	35
639.63	35.22
639.961	35.15
640.291	35.01
640.622	35.47
640.952	35.44
641.282	35.53
641.612	35.6
641.943	35.41
642.273	36
642.603	36.23
642.933	35.99
643.263	35.25
643.592	36.06
643.922	35.53
644.252	35.94
644.582	35.98
644.911	34.85
645.241	36.35
645.571	35.93
645.9	36.08
646.23	36.15
646.559	36.34
646.888	36.32
647.218	35.52
647.547	36.38
647.876	35.79
648.205	36.65
648.534	36.09
648.863	36.48
649.192	37.13
649.521	36.74
649.85	36.97
650.179	36.93
650.508	36.38
650.837	36.74
651.165	36.93
651.494	36.89
651.822	37.16
652.151	37.28
652.479	36.8
652.808	36.64
653.136	37.01
653.465	36.9
653.793	36.96
654.121	37.07
654.449	37.28
654.777	37.28
655.105	37.34
655.433	37.91
655.761	36.95
656.089	37.44
656.417	38.02
656.745	37.53
657.073	37.7
657.4	37.88
657.728	37.52
658.056	37.73
658.383	37.5
658.711	38.16
659.038	37.56
659.365	38.35
659.693	38.21
660.02	38.04
660.347	37.78
660.674	38.25
661.001	38.57
661.329	38.25
661.656	38.03
661.982	38.51
662.309	38.84
662.636	37.85
662.963	38.91
663.29	38.5
663.616	38.07
663.943	38.46
664.27	38.58
664.596	38.73
664.923	39.02
665.249	38.48
665.576	38.52
665.902	39.69
666.228	39.14
666.554	38.86
666.881	38.68
667.207	39.28
667.533	38.56
667.859	39.36
668.185	38.96
668.511	38.71
668.837	38.85
669.162	39.41
669.488	39.94
669.814	39.4
670.139	39.74
670.465	39.71
670.791	40.29
671.116	39.86
671.442	39.59
671.767	40.46
672.092	39.72
