Data from 434_crown_Reflection__4__256.txt Node

Date: Fri Dec 15 18:36:34 CST 2023
User: ToomeyLab
Spectrometer: FLMS14357
Trigger mode: 0
Integration Time (sec): 1.000000E-2
Scans to average: 100
Electric dark correction enabled: true
Nonlinearity correction enabled: false
Boxcar width: 0
XAxis mode: Wavelengths
Number of Pixels in Spectrum: 2048
>>>>>Begin Spectral Data<<<<<
189.047	8.16
189.435	8.16
189.823	8.16
190.211	95.94
190.599	87.41
190.987	58.07
191.375	-142.48
191.763	-81.47
192.151	315.75
192.538	125.91
192.926	-85.71
193.314	87.9
193.702	164.27
194.089	-100.29
194.477	51.19
194.864	73.43
195.252	99.24
195.639	114.17
196.027	-798.63
196.414	447.37
196.801	1637.36
197.189	5.81
197.576	144.48
197.963	55.49
198.351	-53.26
198.738	-28.65
199.125	14.7
199.512	-23.31
199.899	3.88
200.286	43.94
200.673	-10.81
201.06	46.89
201.447	6
201.833	8.9
202.22	36.48
202.607	-5.5
202.994	-2.52
203.38	17.89
203.767	29.27
204.154	8.37
204.54	-6.49
204.927	-119.83
205.313	-3.79
205.699	10.84
206.086	18.02
206.472	28.55
206.858	44.96
207.245	-9.09
207.631	37.79
208.017	15.42
208.403	-30.44
208.789	13.86
209.175	-2.78
209.561	-182.04
209.947	37.21
210.333	-22.36
210.719	-12.7
211.105	23.54
211.491	-0.37
211.876	69.01
212.262	16.06
212.648	-44.1
213.034	15.82
213.419	-33.29
213.805	3.92
214.19	-22.85
214.576	-5.73
214.961	-72.16
215.346	-165.66
215.732	6.34
216.117	-1.58
216.502	-39.83
216.888	5.56
217.273	13.59
217.658	-36.58
218.043	-4.37
218.428	-15.69
218.813	-11.67
219.198	-17.88
219.583	7.92
219.968	-16.66
220.353	-35.67
220.738	18.99
221.122	22.34
221.507	-23.69
221.892	-54.45
222.276	-10.92
222.661	12.94
223.046	-1.19
223.43	-11.36
223.815	14.45
224.199	-5.9
224.583	-2.15
224.968	-9.24
225.352	13.92
225.736	-12.07
226.121	-13.1
226.505	0.63
226.889	8.07
227.273	-2.16
227.657	6.14
228.041	-3.03
228.425	2.28
228.809	3.09
229.193	3.82
229.577	0.41
229.961	3.18
230.344	2.65
230.728	2.95
231.112	3.98
231.495	2.19
231.879	1.88
232.263	4.23
232.646	3.56
233.03	3.25
233.413	4.66
233.797	2.41
234.18	3.28
234.563	0.91
234.946	1.4
235.33	5.17
235.713	3.76
236.096	4.13
236.479	3.46
236.862	-0.19
237.245	5.23
237.628	5.92
238.011	3.21
238.394	4.61
238.777	4.81
239.16	1.44
239.543	3.64
239.925	5.35
240.308	2.68
240.691	4.4
241.073	2.92
241.456	3.54
241.838	2.96
242.221	3.07
242.603	3.59
242.986	3.37
243.368	4.3
243.75	3.92
244.133	3.42
244.515	3.89
244.897	3.72
245.279	3.57
245.661	2.92
246.043	2.47
246.425	1.29
246.807	4.39
247.189	3.34
247.571	3.97
247.953	4.38
248.335	3.03
248.717	3.73
249.098	3.29
249.48	3.34
249.862	3.3
250.243	3.42
250.625	3.29
251.006	3.24
251.388	2.18
251.769	2.78
252.151	3.12
252.532	2.17
252.913	2.12
253.295	2.2
253.676	3.13
254.057	3.28
254.438	3.4
254.819	2.64
255.2	1.83
255.581	3.03
255.962	2.74
256.343	2.7
256.724	2.13
257.105	2.54
257.486	2.31
257.867	4.03
258.247	2.84
258.628	2
259.009	2.45
259.389	3.11
259.77	2.72
260.15	2.33
260.531	2.78
260.911	3.89
261.292	3.1
261.672	3.33
262.052	3.02
262.432	3.41
262.813	3.25
263.193	2.77
263.573	2.12
263.953	2.91
264.333	3.54
264.713	3.38
265.093	2.3
265.473	2.86
265.853	2.01
266.233	3.27
266.612	1.39
266.992	2.71
267.372	3.69
267.752	2.86
268.131	3.52
268.511	3.29
268.89	3.12
269.27	3.04
269.649	2.37
270.029	2.4
270.408	3.83
270.787	3.8
271.167	3.55
271.546	2.86
271.925	2.07
272.304	3.16
272.683	3.5
273.062	3.06
273.441	3.34
273.82	2.3
274.199	2.78
274.578	3.29
274.957	2.84
275.336	3.4
275.715	2.7
276.093	2.45
276.472	3.26
276.851	2.82
277.229	2.08
277.608	2.93
277.986	3.07
278.365	3.02
278.743	2.44
279.122	2.51
279.5	2.96
279.878	3.09
280.257	2.86
280.635	2.33
281.013	2.42
281.391	2.78
281.769	2.9
282.147	3.05
282.525	2.97
282.903	2.86
283.281	2.99
283.659	3.01
284.037	3.14
284.415	2.92
284.792	3.02
285.17	1.82
285.548	2.01
285.925	2.59
286.303	2.94
286.68	2.63
287.058	2.89
287.435	3.11
287.813	2.98
288.19	2.55
288.567	2.69
288.945	3.28
289.322	2.71
289.699	3.07
290.076	2.39
290.453	2.76
290.83	2.93
291.207	2.54
291.584	3.25
291.961	2.72
292.338	2.97
292.715	3.23
293.092	2.94
293.469	3.13
293.845	3.07
294.222	2.3
294.599	2.59
294.975	2.68
295.352	3.43
295.728	2.49
296.105	2.27
296.481	3.18
296.858	3.3
297.234	2.66
297.61	2.62
297.986	2.69
298.363	3.07
298.739	3.21
299.115	2.61
299.491	2.58
299.867	2.62
300.243	2.99
300.619	2.47
300.995	2.89
301.371	3.18
301.746	2.52
302.122	3.25
302.498	2.6
302.874	3.2
303.249	3.26
303.625	2.57
304	3.14
304.376	2.73
304.751	2.71
305.127	3.72
305.502	2.05
305.878	2.54
306.253	2.39
306.628	3.4
307.003	2.64
307.378	2.36
307.754	3.13
308.129	2.37
308.504	2.73
308.879	2.91
309.254	3.61
309.629	3.75
310.003	2.57
310.378	2.93
310.753	3.02
311.128	2.79
311.502	2.74
311.877	3.02
312.252	2.67
312.626	3.05
313.001	2.81
313.375	3.06
313.75	2.4
314.124	2.98
314.498	3.03
314.873	2.98
315.247	2.68
315.621	2.77
315.995	1.96
316.369	2.57
316.743	2.75
317.117	2.77
317.491	2.85
317.865	2.51
318.239	2.73
318.613	2.85
318.987	2.78
319.361	2.28
319.734	3.05
320.108	2.78
320.482	2.67
320.855	3.65
321.229	2.5
321.602	2.96
321.976	2.69
322.349	2.48
322.723	2.81
323.096	2.69
323.469	2.08
323.843	2.6
324.216	3.41
324.589	2.54
324.962	2.5
325.335	2.56
325.708	3.08
326.081	2.48
326.454	3.08
326.827	2.75
327.2	2.83
327.573	3.2
327.945	3.15
328.318	2.04
328.691	2.17
329.063	2.84
329.436	2.78
329.809	3.38
330.181	2.62
330.553	2.62
330.926	3.5
331.298	2.94
331.671	2.75
332.043	3.39
332.415	3.5
332.787	2.4
333.159	3
333.532	2.6
333.904	2.81
334.276	3.17
334.648	3.06
335.02	2.87
335.391	2.85
335.763	2.04
336.135	3.15
336.507	3.41
336.879	2.97
337.25	2.68
337.622	2.83
337.993	2.78
338.365	3.62
338.736	3.23
339.108	2.91
339.479	2.74
339.851	2.97
340.222	2.93
340.593	2.69
340.964	2.9
341.336	3.99
341.707	2.45
342.078	2.94
342.449	3.14
342.82	2.86
343.191	2.54
343.562	2.88
343.933	3.16
344.303	2.68
344.674	3
345.045	3.06
345.416	2.81
345.786	2.91
346.157	3.22
346.527	2.66
346.898	2.63
347.268	3.14
347.639	3.07
348.009	3.31
348.38	3.15
348.75	2.92
349.12	2.69
349.49	3.51
349.861	2.66
350.231	2.62
350.601	2.99
350.971	2.96
351.341	3.41
351.711	2.78
352.081	3.51
352.45	3.14
352.82	3.26
353.19	3.12
353.56	3.09
353.929	2.84
354.299	3.04
354.669	2.56
355.038	2.87
355.408	2.87
355.777	3.59
356.147	2.99
356.516	3.08
356.885	3.22
357.254	2.94
357.624	3.17
357.993	3.02
358.362	2.84
358.731	2.96
359.1	3.49
359.469	3.22
359.838	3.14
360.207	3.02
360.576	2.79
360.945	2.48
361.314	3.29
361.682	2.54
362.051	2.97
362.42	3.15
362.788	3.03
363.157	2.98
363.525	3.19
363.894	3.17
364.262	3.13
364.631	3.02
364.999	3.18
365.367	2.69
365.735	3.59
366.104	3.27
366.472	3.21
366.84	3.05
367.208	3.04
367.576	3.1
367.944	3.59
368.312	3.12
368.68	3.08
369.048	3.27
369.416	3.08
369.783	2.91
370.151	3.4
370.519	3.73
370.886	3.3
371.254	2.62
371.621	3.23
371.989	3.32
372.356	3.05
372.724	3.43
373.091	2.78
373.458	3.11
373.826	2.9
374.193	3.2
374.56	3.19
374.927	3.6
375.294	3.1
375.661	3.37
376.028	2.84
376.395	3.24
376.762	3.61
377.129	2.96
377.496	2.81
377.863	3.13
378.229	2.92
378.596	3.07
378.963	3.02
379.329	3.1
379.696	3.43
380.062	3.34
380.429	3.44
380.795	3.15
381.161	3.34
381.528	3.63
381.894	3.46
382.26	3.38
382.626	3.31
382.993	2.99
383.359	3.47
383.725	3.01
384.091	3.03
384.457	3.26
384.823	3.27
385.188	3.2
385.554	3.22
385.92	3.39
386.286	3.15
386.651	3.55
387.017	3.49
387.383	3.33
387.748	2.92
388.114	3.23
388.479	3.27
388.845	3.75
389.21	3.38
389.575	3.45
389.94	3.06
390.306	3.13
390.671	3.53
391.036	2.91
391.401	2.77
391.766	3.28
392.131	3.06
392.496	3.16
392.861	3.33
393.226	3.47
393.591	3.27
393.956	3.3
394.32	3.47
394.685	3.11
395.05	3.25
395.414	3.26
395.779	3.29
396.143	3.38
396.508	3.48
396.872	3.3
397.236	3.56
397.601	3.1
397.965	3.44
398.329	3.32
398.694	3.1
399.058	3.45
399.422	3.04
399.786	3.3
400.15	3.62
400.514	3.32
400.878	3.65
401.242	3.71
401.605	3.45
401.969	3.35
402.333	3.4
402.697	3.2
403.06	3.69
403.424	3.44
403.787	3.27
404.151	3.75
404.514	3.41
404.878	3.5
405.241	3.79
405.604	3.63
405.968	3.4
406.331	3.46
406.694	3.57
407.057	3.19
407.42	3.58
407.783	3.43
408.146	3.35
408.509	3.17
408.872	3.26
409.235	3.51
409.598	3.59
409.961	3.33
410.323	3.42
410.686	3.21
411.049	3.07
411.411	3.29
411.774	3.41
412.136	3.29
412.499	3.22
412.861	3.54
413.223	3.39
413.586	3.4
413.948	3.46
414.31	3.19
414.672	2.96
415.035	3.18
415.397	3.43
415.759	3.25
416.121	3.46
416.483	3.35
416.845	3.31
417.206	3.45
417.568	3.43
417.93	3.27
418.292	3.45
418.653	3.51
419.015	3.46
419.377	3.26
419.738	3.47
420.1	3.14
420.461	3.51
420.822	3.38
421.184	3.38
421.545	3.51
421.906	3.2
422.267	3.33
422.629	3.34
422.99	3.27
423.351	3.26
423.712	3.3
424.073	3.28
424.434	3.26
424.795	3.29
425.155	3.31
425.516	3.26
425.877	3.3
426.238	3.19
426.598	3.31
426.959	3.31
427.32	3.35
427.68	3.35
428.041	3.3
428.401	3.37
428.761	3.29
429.122	3.33
429.482	3.18
429.842	3.38
430.202	3.37
430.563	3.19
430.923	3.32
431.283	3.47
431.643	3.21
432.003	3.32
432.363	3.56
432.722	3.2
433.082	3.48
433.442	3.24
433.802	3.33
434.161	3.27
434.521	3.62
434.881	3.43
435.24	3.31
435.6	3.34
435.959	3.34
436.319	3.34
436.678	3.25
437.037	3.23
437.396	3.41
437.756	3.22
438.115	3.31
438.474	3.6
438.833	3.42
439.192	3.35
439.551	3.33
439.91	3.38
440.269	3.39
440.628	3.22
440.987	3.36
441.345	3.31
441.704	3.31
442.063	3.34
442.421	3.22
442.78	3.27
443.138	3.27
443.497	3.2
443.855	3.29
444.214	3.4
444.572	3.45
444.93	3.31
445.288	3.45
445.647	3.55
446.005	3.41
446.363	3.53
446.721	3.34
447.079	3.24
447.437	3.29
447.795	3.36
448.153	3.22
448.51	3.4
448.868	3.39
449.226	3.3
449.584	3.29
449.941	3.45
450.299	3.34
450.656	3.2
451.014	3.4
451.371	3.34
451.729	3.44
452.086	3.58
452.443	3.37
452.801	3.43
453.158	3.46
453.515	3.38
453.872	3.57
454.229	3.27
454.586	3.21
454.943	3.37
455.3	3.49
455.657	3.28
456.014	3.3
456.371	3.34
456.727	3.48
457.084	3.52
457.441	3.31
457.797	3.31
458.154	3.5
458.51	3.62
458.867	3.4
459.223	3.4
459.58	3.37
459.936	3.56
460.292	3.25
460.648	3.23
461.005	3.35
461.361	3.4
461.717	3.36
462.073	3.23
462.429	3.34
462.785	3.29
463.141	3.44
463.496	3.37
463.852	3.66
464.208	3.54
464.564	3.4
464.919	3.37
465.275	3.44
465.631	3.79
465.986	3.31
466.342	3.16
466.697	3.08
467.052	3.23
467.408	3.5
467.763	3.51
468.118	3.25
468.473	3.3
468.829	3.33
469.184	3.12
469.539	3.22
469.894	3.31
470.249	3.32
470.603	3.56
470.958	3.53
471.313	3.52
471.668	3.49
472.023	3.42
472.377	3.24
472.732	3.32
473.086	3.28
473.441	3.39
473.795	3.62
474.15	3.38
474.504	3.23
474.859	3.41
475.213	3.29
475.567	3.47
475.921	3.35
476.275	3.27
476.63	3.38
476.984	3.47
477.338	3.43
477.692	3.23
478.045	3.37
478.399	3.49
478.753	3.55
479.107	3.41
479.461	3.3
479.814	3.48
480.168	3.15
480.521	3.28
480.875	3.41
481.228	3.38
481.582	3.52
481.935	3.33
482.289	3.45
482.642	3.43
482.995	3.26
483.348	3.22
483.701	3.48
484.055	3.3
484.408	3.33
484.761	3.28
485.114	3.3
485.466	3.21
485.819	3.14
486.172	3.12
486.525	3.16
486.878	3.2
487.23	3.23
487.583	3.29
487.936	3.29
488.288	3.33
488.641	3.28
488.993	3.2
489.345	3.18
489.698	3.14
490.05	3.16
490.402	3.25
490.754	3.17
491.107	3.29
491.459	3.23
491.811	3.28
492.163	3.32
492.515	3.33
492.866	3.32
493.218	3.34
493.57	3.22
493.922	3.22
494.274	3.3
494.625	3.35
494.977	3.35
495.328	3.36
495.68	3.41
496.031	3.41
496.383	3.27
496.734	3.41
497.086	3.51
497.437	3.4
497.788	3.46
498.139	3.37
498.49	3.53
498.842	3.32
499.193	3.27
499.544	3.31
499.894	3.4
500.245	3.34
500.596	3.25
500.947	3.54
501.298	3.25
501.648	3.42
501.999	3.48
502.35	3.22
502.7	3.32
503.051	3.37
503.401	3.28
503.752	3.46
504.102	3.23
504.452	3.53
504.803	3.42
505.153	3.38
505.503	3.42
505.853	3.31
506.203	3.23
506.553	3.33
506.903	3.45
507.253	3.34
507.603	3.27
507.953	3.27
508.303	3.43
508.652	3.17
509.002	3.51
509.352	3.46
509.701	3.27
510.051	3.39
510.4	3.37
510.75	3.36
511.099	3.32
511.449	3.37
511.798	3.39
512.147	3.41
512.496	3.16
512.846	3.33
513.195	3.34
513.544	3.43
513.893	3.48
514.242	3.29
514.591	3.43
514.939	3.33
515.288	3.39
515.637	3.48
515.986	3.35
516.334	3.38
516.683	3.38
517.032	3.33
517.38	3.37
517.729	3.51
518.077	3.19
518.426	3.38
518.774	3.44
519.122	3.28
519.47	3.36
519.819	3.22
520.167	3.21
520.515	3.3
520.863	3.44
521.211	3.44
521.559	3.37
521.907	3.36
522.255	3.35
522.602	3.35
522.95	3.39
523.298	3.3
523.645	3.45
523.993	3.29
524.341	3.41
524.688	3.33
525.036	3.25
525.383	3.44
525.73	3.39
526.078	3.38
526.425	3.2
526.772	3.49
527.119	3.25
527.466	3.28
527.814	3.37
528.161	3.27
528.508	3.39
528.854	3.31
529.201	3.27
529.548	3.28
529.895	3.23
530.242	3.2
530.588	3.18
530.935	3.2
531.282	3.26
531.628	3.23
531.975	3.29
532.321	3.27
532.667	3.33
533.014	3.3
533.36	3.33
533.706	3.45
534.052	3.34
534.399	3.22
534.745	3.3
535.091	3.25
535.437	3.3
535.783	3.3
536.129	3.3
536.474	3.3
536.82	3.37
537.166	3.4
537.512	3.41
537.857	3.3
538.203	3.33
538.549	3.28
538.894	3.26
539.239	3.33
539.585	3.33
539.93	3.26
540.276	3.44
540.621	3.43
540.966	3.34
541.311	3.31
541.656	3.25
542.001	3.27
542.346	3.43
542.691	3.23
543.036	3.24
543.381	3.15
543.726	3.19
544.071	3.35
544.415	3.33
544.76	3.26
545.105	3.36
545.449	3.28
545.794	3.38
546.138	3.29
546.483	3.3
546.827	3.39
547.171	3.3
547.516	3.4
547.86	3.31
548.204	3.34
548.548	3.24
548.892	3.38
549.236	3.41
549.58	3.31
549.924	3.49
550.268	3.43
550.612	3.39
550.956	3.5
551.3	3.32
551.643	3.38
551.987	3.55
552.33	3.35
552.674	3.51
553.017	3.35
553.361	3.4
553.704	3.61
554.048	3.31
554.391	3.36
554.734	3.4
555.077	3.44
555.42	3.27
555.764	3.34
556.107	3.35
556.45	3.03
556.793	3.22
557.135	3.2
557.478	3.43
557.821	3.65
558.164	3.32
558.507	3.38
558.849	3.19
559.192	3.47
559.534	3.31
559.877	3.42
560.219	3.31
560.562	3.58
560.904	3.56
561.246	3.45
561.589	3.55
561.931	3.49
562.273	3.2
562.615	3.38
562.957	3.58
563.299	3.13
563.641	3.41
563.983	3.39
564.325	3.35
564.667	3.39
565.008	3.38
565.35	3.56
565.692	3.39
566.033	3.17
566.375	3.5
566.716	3.64
567.058	3.36
567.399	3.26
567.741	3.41
568.082	3.37
568.423	3.4
568.764	3.39
569.105	3.46
569.447	3.56
569.788	3.43
570.129	3.38
570.47	3.38
570.811	3.57
571.151	3.47
571.492	3.45
571.833	3.41
572.174	3.61
572.514	3.52
572.855	3.47
573.195	3.31
573.536	3.42
573.876	3.21
574.217	3.19
574.557	3.42
574.898	3.44
575.238	3.47
575.578	3.28
575.918	3.58
576.258	3.52
576.598	3.51
576.938	3.33
577.278	3.43
577.618	3.38
577.958	3.43
578.298	3.37
578.638	3.26
578.977	3.25
579.317	3.24
579.657	3.4
579.996	3.48
580.336	3.42
580.675	3.48
581.014	3.45
581.354	3.36
581.693	3.34
582.032	3.52
582.372	3.23
582.711	3.54
583.05	3.13
583.389	3.47
583.728	3.02
584.067	3.49
584.406	3.25
584.745	3.56
585.083	3.48
585.422	3.47
585.761	3.53
586.1	3.55
586.438	3.37
586.777	3.64
587.115	3.65
587.454	3.15
587.792	3.5
588.13	3.62
588.469	3.31
588.807	3.51
589.145	3.19
589.483	3.62
589.821	3.41
590.159	3.53
590.497	3.71
590.835	3.87
591.173	3.13
591.511	3.54
591.849	3.46
592.187	3.34
592.524	3.6
592.862	3.59
593.2	3.45
593.537	3.35
593.875	3.25
594.212	3.32
594.55	3.33
594.887	3.63
595.224	3.59
595.561	3.44
595.899	3.41
596.236	3.64
596.573	3.63
596.91	3.18
597.247	3.27
597.584	3.71
597.921	3.52
598.258	3.33
598.594	3.55
598.931	3.43
599.268	3.48
599.604	3.35
599.941	3.49
600.277	3.21
600.614	3.33
600.95	3.29
601.287	3.8
601.623	3.28
601.959	3.34
602.296	3.52
602.632	3.38
602.968	3.7
603.304	3.12
603.64	3.49
603.976	3.68
604.312	3.59
604.648	3.41
604.984	3.57
605.319	3.52
605.655	3.48
605.991	3.34
606.326	3.52
606.662	3.52
606.998	3.25
607.333	3.58
607.668	3.45
608.004	3.54
608.339	3.74
608.674	3.53
609.01	3.32
609.345	3.38
609.68	3.47
610.015	3.19
610.35	3.44
610.685	3.6
611.02	3.54
611.355	3.53
611.689	3.32
612.024	3.4
612.359	3.42
612.694	3.27
613.028	3.36
613.363	3.72
613.697	3.66
614.032	3.51
614.366	3.34
614.7	3.65
615.035	3.7
615.369	3.41
615.703	3.66
616.037	3.42
616.371	3.25
616.705	3.5
617.039	3.17
617.373	3.57
617.707	3.21
618.041	3.48
618.375	3.42
618.709	3.61
619.042	3.08
619.376	3.75
619.71	3.69
620.043	3.3
620.377	3.32
620.71	3.56
621.043	3.11
621.377	3.37
621.71	3.56
622.043	3.2
622.376	2.96
622.709	3.73
623.043	3.38
623.376	3.44
623.709	3.49
624.041	4.14
624.374	3.74
624.707	3.35
625.04	3.79
625.373	2.95
625.705	3.61
626.038	3.65
626.37	3.55
626.703	3.29
627.035	3.47
627.368	3.62
627.7	3.48
628.032	3.42
628.365	3.91
628.697	3.46
629.029	3.37
629.361	3.37
629.693	3.58
630.025	3.18
630.357	3.52
630.689	3.82
631.021	3.48
631.353	3.5
631.684	3.38
632.016	3.29
632.348	3.88
632.679	3.15
633.011	3.76
633.342	3.98
633.674	3.72
634.005	3.8
634.336	3.67
634.668	4.32
634.999	3.14
635.33	3.58
635.661	3.4
635.992	3.48
636.323	3.63
636.654	3.81
636.985	3.4
637.316	3.43
637.647	3.5
637.977	3.42
638.308	3.6
638.639	3.46
638.969	3.44
639.3	3.4
639.63	3.19
639.961	3.54
640.291	3.45
640.622	3.79
640.952	3.51
641.282	3.99
641.612	3.86
641.943	3.27
642.273	3.56
642.603	3.81
642.933	3.93
643.263	3.6
643.592	3.38
643.922	3.52
644.252	3.86
644.582	3.63
644.911	3.02
645.241	3.63
645.571	3.55
645.9	3.07
646.23	3.67
646.559	3.98
646.888	2.86
647.218	3.7
647.547	4.24
647.876	3.38
648.205	3.01
648.534	3.31
648.863	3.14
649.192	3.73
649.521	3.59
649.85	3.36
650.179	3.67
650.508	3.46
650.837	3.38
651.165	3.24
651.494	3.25
651.822	3.78
652.151	3.14
652.479	3.5
652.808	2.77
653.136	3.47
653.465	2.8
653.793	2.97
654.121	3.26
654.449	3.94
654.777	3.81
655.105	3.54
655.433	3.18
655.761	3.19
656.089	3.62
656.417	3.64
656.745	3.63
657.073	3.21
657.4	3.95
657.728	3.43
658.056	3.21
658.383	3.22
658.711	3.66
659.038	3.82
659.365	3.87
659.693	3.39
660.02	3.52
660.347	3.69
660.674	3.35
661.001	3.66
661.329	3.13
661.656	3.44
661.982	3.46
662.309	3.31
662.636	3.62
662.963	3.96
663.29	3.84
663.616	3.71
663.943	3.08
664.27	3.4
664.596	3.75
664.923	3.66
665.249	3.3
665.576	2.8
665.902	3.98
666.228	3.89
666.554	3.72
666.881	3.33
667.207	3.69
667.533	3.58
667.859	3.69
668.185	3.61
668.511	3.12
668.837	3.13
669.162	3.42
669.488	2.73
669.814	3.84
670.139	4.34
670.465	3.68
670.791	3.87
671.116	4.5
671.442	3.2
671.767	3.9
672.092	3.72
672.418	4.04
672.743	4.05
673.068	2.96
673.393	3.39
673.718	3.76
674.043	3.26
674.368	3.14
674.693	4.63
675.018	3.71
675.343	3.16
675.667	3.28
675.992	4.37
676.317	4.04
676.641	3.75
676.966	3.89
677.29	3.49
677.615	3.48
677.939	3.87
678.264	3.89
678.588	3.77
678.912	3.85
679.236	4.44
679.56	3.43
679.885	4.14
680.209	3.4
680.532	3.59
680.856	4.57
681.18	3.6
681.504	3.6
681.828	4.23
682.152	3.4
682.475	3.76
682.799	4.02
683.122	4.1
683.446	3.16
683.769	3.62
684.093	3.18
684.416	4.12
684.739	3.46
685.062	3.32
685.386	4.79
685.709	3.96
686.032	3.89
686.355	4.33
686.678	3.63
687.001	3.48
687.324	4.12
687.646	3.07
687.969	3.61
688.292	3.85
688.614	3.15
688.937	4.67
689.26	3.35
689.582	4.07
689.904	3.58
690.227	4.25
690.549	3.39
690.871	3.81
691.194	3.4
691.516	3.7
691.838	3.91
692.16	3.69
