Data from 434_chest_Reflection__3__250.txt Node

Date: Fri Dec 15 18:34:42 CST 2023
User: ToomeyLab
Spectrometer: FLMS14357
Trigger mode: 0
Integration Time (sec): 1.000000E-2
Scans to average: 100
Electric dark correction enabled: true
Nonlinearity correction enabled: false
Boxcar width: 0
XAxis mode: Wavelengths
Number of Pixels in Spectrum: 2048
>>>>>Begin Spectral Data<<<<<
189.047	-10.73
189.435	-10.73
189.823	-10.73
190.211	-101.32
190.599	-45.45
190.987	103.24
191.375	-58.76
191.763	205.42
192.151	-26.37
192.538	111.17
192.926	1603.01
193.314	82.2
193.702	-879.3
194.089	-167.84
194.477	25.81
194.864	-38.67
195.252	76.9
195.639	104.71
196.027	-409.15
196.414	176.37
196.801	1296.7
197.189	64.37
197.576	229.18
197.963	38.08
198.351	-73.73
198.738	-32.18
199.125	-27.93
199.512	-31.26
199.899	36.09
200.286	17.36
200.673	-10.73
201.06	-3.24
201.447	-26.98
201.833	-49.24
202.22	3
202.607	6.58
202.994	-34.53
203.38	20.31
203.767	0.34
204.154	12.34
204.54	-5.05
204.927	-207.66
205.313	-53.09
205.699	4.53
206.086	10.65
206.472	1.12
206.858	-0.11
207.245	-9.21
207.631	0.15
208.017	-55.87
208.403	-39.54
208.789	27.54
209.175	15.88
209.561	-32.52
209.947	-31.87
210.333	-39.78
210.719	26.19
211.105	-21.37
211.491	-100.78
211.876	29.51
212.262	-19.45
212.648	-5.24
213.034	8.91
213.419	-65.29
213.805	-27.52
214.19	-42.57
214.576	-23.81
214.961	40.49
215.346	-77.74
215.732	-11.93
216.117	-23.01
216.502	18.05
216.888	-3.45
217.273	10.8
217.658	-26.47
218.043	18.51
218.428	-57.58
218.813	-25.05
219.198	-46.77
219.583	-5.38
219.968	8.07
220.353	-55.23
220.738	19.95
221.122	-5.2
221.507	-34.63
221.892	-42.04
222.276	-37.34
222.661	-29.06
223.046	0.24
223.43	10
223.815	11.74
224.199	-1.93
224.583	-2.36
224.968	-5.88
225.352	2.62
225.736	2.46
226.121	-4.47
226.505	-2.61
226.889	6.93
227.273	-9.12
227.657	6.55
228.041	-3.86
228.425	-1.74
228.809	3.47
229.193	-0.7
229.577	-0.91
229.961	1.71
230.344	0.77
230.728	0.7
231.112	2.44
231.495	1.08
231.879	1.17
232.263	3.74
232.646	1.51
233.03	2.23
233.413	-0.32
233.797	-1.14
234.18	-0.12
234.563	-0.5
234.946	0.98
235.33	3.49
235.713	1.13
236.096	2.29
236.479	2.26
236.862	0.65
237.245	1.49
237.628	-0.74
238.011	3.19
238.394	3.48
238.777	0.46
239.16	-0.15
239.543	0.45
239.925	2.41
240.308	2.42
240.691	3.07
241.073	1.1
241.456	0.4
241.838	1.17
242.221	0.11
242.603	1.63
242.986	2.18
243.368	1.86
243.75	2.06
244.133	1.65
244.515	1.82
244.897	2.12
245.279	2.23
245.661	1.31
246.043	0.34
246.425	1.03
246.807	2.64
247.189	2.04
247.571	1.45
247.953	1.82
248.335	2.08
248.717	2.24
249.098	2.03
249.48	2.03
249.862	1.89
250.243	2.36
250.625	1.67
251.006	2.27
251.388	1
251.769	2.49
252.151	1.68
252.532	2.23
252.913	1.3
253.295	0.52
253.676	1.81
254.057	2.05
254.438	1.75
254.819	1.86
255.2	1.19
255.581	2.57
255.962	1.84
256.343	2.71
256.724	0.74
257.105	1.5
257.486	1.07
257.867	1.09
258.247	1.88
258.628	2.12
259.009	2.02
259.389	1.64
259.77	1.61
260.15	1.69
260.531	1.2
260.911	2.13
261.292	2.02
261.672	2.06
262.052	2.23
262.432	2.13
262.813	1.68
263.193	2.1
263.573	1.76
263.953	1.89
264.333	2.49
264.713	2.18
265.093	1.52
265.473	2.41
265.853	0.87
266.233	1.73
266.612	0.83
266.992	0.08
267.372	1.16
267.752	1.6
268.131	1.89
268.511	2.21
268.89	2.26
269.27	1.95
269.649	1.48
270.029	1.48
270.408	2.69
270.787	2.22
271.167	2.66
271.546	1.82
271.925	1.4
272.304	1.45
272.683	2.8
273.062	1.61
273.441	2
273.82	1.52
274.199	1.44
274.578	1.96
274.957	2.03
275.336	1.67
275.715	1.1
276.093	1.45
276.472	1.45
276.851	1.08
277.229	1.68
277.608	1.23
277.986	1.7
278.365	1.98
278.743	1.71
279.122	1.67
279.5	1.67
279.878	1.97
280.257	2.01
280.635	0.49
281.013	1.33
281.391	2.28
281.769	1.13
282.147	2
282.525	2.37
282.903	1.72
283.281	1.83
283.659	2.67
284.037	2.56
284.415	2.28
284.792	2.05
285.17	1.07
285.548	1.23
285.925	1.88
286.303	1.96
286.68	1.5
287.058	2.1
287.435	2.02
287.813	1.95
288.19	1.43
288.567	1.57
288.945	2.18
289.322	2.37
289.699	1.87
290.076	2.1
290.453	1.58
290.83	1.21
291.207	1.56
291.584	2.41
291.961	1.96
292.338	1.68
292.715	2.7
293.092	1.84
293.469	2.02
293.845	2.08
294.222	2.42
294.599	1.97
294.975	1.62
295.352	2.51
295.728	2.07
296.105	2.09
296.481	2.62
296.858	1.81
297.234	2.09
297.61	2
297.986	2.12
298.363	2.63
298.739	2.44
299.115	2.33
299.491	2.21
299.867	2.5
300.243	2.52
300.619	2.31
300.995	2.45
301.371	2.96
301.746	1.88
302.122	2.62
302.498	2.25
302.874	2.1
303.249	2.81
303.625	2.73
304	2.81
304.376	2.56
304.751	2.01
305.127	3.63
305.502	1.96
305.878	1.76
306.253	2.68
306.628	2.89
307.003	2.3
307.378	2.5
307.754	2.62
308.129	2.55
308.504	2.17
308.879	2.31
309.254	3.08
309.629	2.91
310.003	2.65
310.378	2.81
310.753	2.67
311.128	2.77
311.502	2.64
311.877	3.27
312.252	2.77
312.626	2.62
313.001	2.24
313.375	2.96
313.75	2.5
314.124	2.56
314.498	2.6
314.873	2.91
315.247	2.45
315.621	2.82
315.995	2.63
316.369	2.88
316.743	2.14
317.117	2.83
317.491	2.57
317.865	2.43
318.239	3.71
318.613	2.65
318.987	2.94
319.361	2.46
319.734	2.77
320.108	2.99
320.482	2.88
320.855	3.67
321.229	2.82
321.602	3.11
321.976	3.33
322.349	2.93
322.723	2.88
323.096	3.97
323.469	2.62
323.843	2.89
324.216	2.95
324.589	3.14
324.962	3.52
325.335	2.62
325.708	2.83
326.081	2.87
326.454	3.19
326.827	3.01
327.2	3.24
327.573	3.25
327.945	3.29
328.318	2.92
328.691	2.44
329.063	3.3
329.436	2.6
329.809	3.44
330.181	2.97
330.553	3.29
330.926	3.12
331.298	3.6
331.671	3.55
332.043	3.72
332.415	3.33
332.787	3.44
333.159	4.01
333.532	2.94
333.904	3.21
334.276	3.13
334.648	3.38
335.02	3.89
335.391	2.94
335.763	2.75
336.135	3.57
336.507	3.92
336.879	3.6
337.25	2.68
337.622	3.1
337.993	3.01
338.365	3.47
338.736	3.2
339.108	4.13
339.479	3.21
339.851	3.14
340.222	3.24
340.593	3.4
340.964	2.98
341.336	3.88
341.707	3.46
342.078	3.11
342.449	3.51
342.82	3.04
343.191	3.26
343.562	3.34
343.933	3.23
344.303	3.45
344.674	3.26
345.045	3.44
345.416	4.14
345.786	3.32
346.157	3.89
346.527	3.03
346.898	2.96
347.268	3.73
347.639	3.59
348.009	3.2
348.38	3.3
348.75	3.72
349.12	3.41
349.49	4
349.861	3.21
350.231	3.39
350.601	3.84
350.971	4.17
351.341	3.62
351.711	3.4
352.081	3.29
352.45	3.36
352.82	3.77
353.19	3.34
353.56	3.83
353.929	3.66
354.299	3.68
354.669	3.36
355.038	3.79
355.408	3.59
355.777	3.65
356.147	3.48
356.516	3.27
356.885	3.9
357.254	3.7
357.624	3.84
357.993	3.55
358.362	3.21
358.731	3.23
359.1	3.89
359.469	3.27
359.838	3.68
360.207	3.27
360.576	3.72
360.945	3.87
361.314	4.53
361.682	3.35
362.051	3.51
362.42	3.76
362.788	3.47
363.157	3.41
363.525	3.92
363.894	3.85
364.262	3.86
364.631	3.7
364.999	3.71
365.367	3.69
365.735	4.47
366.104	3.97
366.472	3.53
366.84	3.56
367.208	3.77
367.576	3.93
367.944	4.21
368.312	3.33
368.68	3.65
369.048	4.09
369.416	3.54
369.783	3.58
370.151	3.9
370.519	4.5
370.886	3.99
371.254	3.42
371.621	3.91
371.989	4.23
372.356	3.37
372.724	3.72
373.091	3.85
373.458	3.96
373.826	3.97
374.193	3.86
374.56	3.92
374.927	4.03
375.294	3.78
375.661	3.64
376.028	3.64
376.395	3.43
376.762	4.07
377.129	3.58
377.496	3.52
377.863	3.58
378.229	3.49
378.596	3.94
378.963	3.99
379.329	3.75
379.696	4.25
380.062	4.27
380.429	3.75
380.795	3.64
381.161	3.9
381.528	4.12
381.894	4.23
382.26	3.98
382.626	4.12
382.993	3.69
383.359	4.28
383.725	3.93
384.091	4.21
384.457	4.19
384.823	3.84
385.188	4.09
385.554	3.58
385.92	3.97
386.286	4.39
386.651	4.32
387.017	4.26
387.383	4.07
387.748	3.73
388.114	4.12
388.479	3.95
388.845	4.17
389.21	4.1
389.575	4.09
389.94	3.96
390.306	4.11
390.671	4.38
391.036	3.92
391.401	3.81
391.766	4.06
392.131	4.04
392.496	4.52
392.861	3.95
393.226	4.13
393.591	4.13
393.956	3.89
394.32	4.21
394.685	4.26
395.05	3.91
395.414	4.08
395.779	4.02
396.143	4.23
396.508	4.14
396.872	4.1
397.236	4.12
397.601	4.03
397.965	4.01
398.329	4.09
398.694	4.17
399.058	4.25
399.422	4.28
399.786	4.54
400.15	4.2
400.514	4.2
400.878	4.26
401.242	4.65
401.605	4.27
401.969	4.27
402.333	4.23
402.697	4.31
403.06	4.56
403.424	4.29
403.787	4.33
404.151	4.43
404.514	4.28
404.878	4.31
405.241	4.5
405.604	4.14
405.968	4.2
406.331	4
406.694	4.18
407.057	4.2
407.42	4.49
407.783	4.26
408.146	4.31
408.509	4.4
408.872	4.27
409.235	4.23
409.598	4.7
409.961	4.33
410.323	4.48
410.686	4.38
411.049	4.06
411.411	4.23
411.774	4.49
412.136	4.09
412.499	4.16
412.861	4.2
413.223	4.35
413.586	4.5
413.948	4.35
414.31	4.45
414.672	4.07
415.035	4.24
415.397	4.41
415.759	4.05
416.121	4.66
416.483	4.24
416.845	4.14
417.206	4.29
417.568	4.45
417.93	4.09
418.292	4.25
418.653	4.53
419.015	4.62
419.377	4.33
419.738	4.48
420.1	4.2
420.461	4.47
420.822	4.46
421.184	4.32
421.545	4.5
421.906	4.28
422.267	4.34
422.629	4.32
422.99	4.27
423.351	4.34
423.712	4.36
424.073	4.36
424.434	4.38
424.795	4.32
425.155	4.42
425.516	4.34
425.877	4.36
426.238	4.25
426.598	4.5
426.959	4.42
427.32	4.43
427.68	4.37
428.041	4.51
428.401	4.56
428.761	4.5
429.122	4.6
429.482	4.5
429.842	4.57
430.202	4.58
430.563	4.48
430.923	4.43
431.283	4.46
431.643	4.36
432.003	4.58
432.363	4.66
432.722	4.44
433.082	4.65
433.442	4.43
433.802	4.48
434.161	4.5
434.521	4.91
434.881	4.64
435.24	4.52
435.6	4.7
435.959	4.68
436.319	4.59
436.678	4.62
437.037	4.81
437.396	4.63
437.756	4.67
438.115	4.52
438.474	5
438.833	4.59
439.192	4.78
439.551	4.82
439.91	4.67
440.269	4.61
440.628	4.56
440.987	4.73
441.345	4.4
441.704	4.64
442.063	4.54
442.421	4.71
442.78	4.6
443.138	4.69
443.497	4.77
443.855	4.65
444.214	4.84
444.572	4.77
444.93	4.73
445.288	4.77
445.647	4.85
446.005	4.66
446.363	4.81
446.721	4.76
447.079	4.71
447.437	4.66
447.795	4.81
448.153	4.78
448.51	4.75
448.868	4.76
449.226	4.8
449.584	4.66
449.941	4.87
450.299	4.75
450.656	4.8
451.014	4.83
451.371	4.73
451.729	4.79
452.086	5.07
452.443	4.96
452.801	4.94
453.158	4.82
453.515	4.81
453.872	5
454.229	4.89
454.586	4.9
454.943	4.95
455.3	5.04
455.657	4.87
456.014	4.83
456.371	4.89
456.727	5.04
457.084	5.24
457.441	4.92
457.797	4.91
458.154	5.08
458.51	5.05
458.867	5.09
459.223	4.98
459.58	4.92
459.936	4.99
460.292	5.02
460.648	4.88
461.005	4.99
461.361	4.96
461.717	4.93
462.073	4.92
462.429	4.96
462.785	5.06
463.141	5.14
463.496	5.08
463.852	5.24
464.208	5.1
464.564	5.18
464.919	5.21
465.275	5.2
465.631	5.16
465.986	5.11
466.342	5.32
466.697	5.24
467.052	5.09
467.408	5.1
467.763	5.17
468.118	5.17
468.473	5.18
468.829	5.25
469.184	4.98
469.539	5.2
469.894	5.09
470.249	5.32
470.603	5.37
470.958	5.33
471.313	5.36
471.668	5.39
472.023	5.35
472.377	5.12
472.732	5.19
473.086	5.2
473.441	5.26
473.795	5.33
474.15	5.42
474.504	5.4
474.859	5.5
475.213	5.23
475.567	5.12
475.921	5.35
476.275	5.43
476.63	5.69
476.984	5.44
477.338	5.39
477.692	5.27
478.045	5.3
478.399	5.48
478.753	5.5
479.107	5.32
479.461	5.35
479.814	5.45
480.168	5.42
480.521	5.51
480.875	5.21
481.228	5.33
481.582	5.5
481.935	5.37
482.289	5.46
482.642	5.46
482.995	5.43
483.348	5.37
483.701	5.37
484.055	5.46
484.408	5.54
484.761	5.24
485.114	5.29
485.466	5.05
485.819	5.1
486.172	5.09
486.525	5.19
486.878	5.3
487.23	5.3
487.583	5.44
487.936	5.32
488.288	5.36
488.641	5.45
488.993	5.29
489.345	5.29
489.698	5.26
490.05	5.24
490.402	5.34
490.754	5.32
491.107	5.51
491.459	5.53
491.811	5.59
492.163	5.58
492.515	5.46
492.866	5.57
493.218	5.45
493.57	5.4
493.922	5.42
494.274	5.55
494.625	5.65
494.977	5.62
495.328	5.73
495.68	5.56
496.031	5.81
496.383	5.63
496.734	5.94
497.086	5.8
497.437	5.79
497.788	5.7
498.139	5.71
498.49	5.79
498.842	5.64
499.193	5.72
499.544	5.66
499.894	5.85
500.245	5.83
500.596	5.78
500.947	5.97
501.298	5.82
501.648	5.9
501.999	6.06
502.35	5.82
502.7	5.78
503.051	5.73
503.401	5.85
503.752	6
504.102	6.04
504.452	5.88
504.803	5.85
505.153	5.9
505.503	5.96
505.853	5.87
506.203	5.91
506.553	5.98
506.903	6.01
507.253	6.04
507.603	5.96
507.953	6.05
508.303	6.19
508.652	5.93
509.002	6.18
509.352	6.06
509.701	6.1
510.051	6.1
510.4	5.95
510.75	6.14
511.099	6.15
511.449	6.01
511.798	6.21
512.147	6.21
512.496	6.07
512.846	6.17
513.195	6.19
513.544	6.08
513.893	6.23
514.242	6.2
514.591	6.36
514.939	6.26
515.288	6.17
515.637	6.4
515.986	6.33
516.334	6.38
516.683	6.39
517.032	6.29
517.38	6.26
517.729	6.36
518.077	6.3
518.426	6.49
518.774	6.36
519.122	6.47
519.47	6.41
519.819	6.14
520.167	6.27
520.515	6.42
520.863	6.39
521.211	6.51
521.559	6.53
521.907	6.42
522.255	6.47
522.602	6.45
522.95	6.47
523.298	6.43
523.645	6.65
523.993	6.49
524.341	6.69
524.688	6.65
525.036	6.55
525.383	6.59
525.73	6.88
526.078	6.71
526.425	6.55
526.772	6.68
527.119	6.6
527.466	6.49
527.814	6.61
528.161	6.56
528.508	6.64
528.854	6.67
529.201	6.55
529.548	6.63
529.895	6.46
530.242	6.44
530.588	6.4
530.935	6.47
531.282	6.56
531.628	6.55
531.975	6.72
532.321	6.76
532.667	6.77
533.014	6.94
533.36	6.88
533.706	6.85
534.052	6.91
534.399	6.8
534.745	6.8
535.091	6.79
535.437	6.86
535.783	6.95
536.129	6.97
536.474	7
536.82	7
537.166	7.16
537.512	7.12
537.857	7.18
538.203	7.06
538.549	7.05
538.894	7.02
539.239	7.25
539.585	7.22
539.93	7.07
540.276	7.38
540.621	7.36
540.966	7.33
541.311	7.23
541.656	7.24
542.001	7.36
542.346	7.49
542.691	7.21
543.036	7.16
543.381	7.09
543.726	7.13
544.071	7.3
544.415	7.43
544.76	7.31
545.105	7.35
545.449	7.44
545.794	7.51
546.138	7.5
546.483	7.56
546.827	7.64
547.171	7.6
547.516	7.75
547.86	7.56
548.204	7.65
548.548	7.72
548.892	7.66
549.236	7.76
549.58	7.68
549.924	7.83
550.268	7.85
550.612	7.87
550.956	8.11
551.3	7.91
551.643	8.08
551.987	8.07
552.33	7.89
552.674	8.21
553.017	7.88
553.361	7.83
553.704	8.18
554.048	8.16
554.391	8.17
554.734	8.06
555.077	8.19
555.42	8.07
555.764	7.91
556.107	8.09
556.45	8.09
556.793	8.21
557.135	8.33
557.478	8.51
557.821	8.37
558.164	8.45
558.507	8.41
558.849	8.49
559.192	8.67
559.534	8.52
559.877	8.52
560.219	8.47
560.562	8.61
560.904	8.55
561.246	8.51
561.589	8.69
561.931	8.51
562.273	8.49
562.615	8.6
562.957	8.83
563.299	8.42
563.641	8.73
563.983	8.7
564.325	8.51
564.667	8.69
565.008	8.67
565.35	8.73
565.692	8.69
566.033	8.78
566.375	8.87
566.716	9.19
567.058	8.85
567.399	9.14
567.741	9.02
568.082	8.99
568.423	8.88
568.764	8.93
569.105	9.14
569.447	8.99
569.788	9.05
570.129	9.24
570.47	9.13
570.811	9.24
571.151	9.18
571.492	9.23
571.833	9.32
572.174	9.35
572.514	9.42
572.855	9.36
573.195	9.48
573.536	9.33
573.876	9.19
574.217	9.25
574.557	9.36
574.898	9.42
575.238	9.61
575.578	9.46
575.918	9.65
576.258	9.71
576.598	9.63
576.938	9.53
577.278	9.73
577.618	9.42
577.958	9.54
578.298	9.7
578.638	9.9
578.977	9.77
579.317	9.71
579.657	9.77
579.996	9.91
580.336	9.99
580.675	9.69
581.014	10.03
581.354	9.97
581.693	10.28
582.032	9.75
582.372	10.12
582.711	10.01
583.05	10.01
583.389	10.24
583.728	10.12
584.067	10.23
584.406	10.44
584.745	10.37
585.083	10.34
585.422	10.46
585.761	10.31
586.1	10.72
586.438	10.6
586.777	10.71
587.115	10.44
587.454	10.68
587.792	10.53
588.13	10.98
588.469	10.52
588.807	10.44
589.145	10.63
589.483	10.77
589.821	10.63
590.159	10.62
590.497	10.84
590.835	10.9
591.173	10.86
591.511	10.96
591.849	10.86
592.187	10.78
592.524	10.63
592.862	10.97
593.2	11.02
593.537	11.02
593.875	10.92
594.212	10.75
594.55	10.82
594.887	11.2
595.224	11.17
595.561	11.4
595.899	11.15
596.236	11.14
596.573	11.37
596.91	11
597.247	11.21
597.584	11.3
597.921	11.47
598.258	11.24
598.594	11.3
598.931	11.27
599.268	11.42
599.604	11.44
599.941	11.42
600.277	11.47
600.614	11.7
600.95	11.62
601.287	11.58
601.623	11.82
601.959	11.55
602.296	11.77
602.632	11.75
602.968	11.75
603.304	11.74
603.64	11.83
603.976	12.21
604.312	11.7
604.648	11.81
604.984	11.96
605.319	11.78
605.655	11.99
605.991	11.89
606.326	12.05
606.662	12.15
606.998	11.82
607.333	12.04
607.668	12.28
608.004	12.47
608.339	12.5
608.674	12.48
609.01	12.3
609.345	11.99
609.68	12.7
610.015	12.26
610.35	12.57
610.685	12.36
611.02	12.38
611.355	12.6
611.689	12.62
612.024	12.49
612.359	12.54
612.694	12.38
613.028	12.69
613.363	12.68
613.697	13.01
614.032	12.95
614.366	12.76
614.7	13.2
615.035	12.73
615.369	12.8
615.703	12.72
616.037	13.02
616.371	12.85
616.705	12.78
617.039	13.15
617.373	12.99
617.707	12.83
618.041	12.87
618.375	13.12
618.709	13.11
619.042	13.32
619.376	13.42
619.71	13.32
620.043	13.45
620.377	13.54
620.71	13.45
621.043	13.39
621.377	13.13
621.71	13.89
622.043	13.49
622.376	13.38
622.709	13.38
623.043	13.68
623.376	13.79
623.709	13.53
624.041	13.51
624.374	13.51
624.707	13.84
625.04	13.9
625.373	13.42
625.705	14.22
626.038	13.82
626.37	13.69
626.703	13.98
627.035	14.09
627.368	14.32
627.7	14.32
628.032	13.9
628.365	14.43
628.697	14.12
629.029	13.73
629.361	14.14
629.693	14.22
630.025	14.17
630.357	14.55
630.689	14.48
631.021	14.48
631.353	14.26
631.684	14.27
632.016	14.37
632.348	14.48
632.679	14.79
633.011	14.54
633.342	15
633.674	14.46
634.005	15.27
634.336	14.8
634.668	15.21
634.999	14.81
635.33	15.2
635.661	15.06
635.992	14.79
636.323	14.88
636.654	15.28
636.985	15
637.316	15.16
637.647	14.65
637.977	15.26
638.308	15.14
638.639	15.03
638.969	15.12
639.3	15.2
639.63	14.77
639.961	15.69
640.291	15.1
640.622	15.25
640.952	15.36
641.282	15.99
641.612	15.4
641.943	15.23
642.273	15.62
642.603	16.04
642.933	15.74
643.263	15.77
643.592	15.64
643.922	15.55
644.252	15.62
644.582	15.89
644.911	15.65
645.241	15.84
645.571	15.81
645.9	15.92
646.23	15.94
646.559	15.9
646.888	15.66
647.218	16.07
647.547	16.24
647.876	15.7
648.205	15.87
648.534	15.75
648.863	15.64
649.192	16.3
649.521	15.99
649.85	15.46
650.179	16.61
650.508	15.78
650.837	16.17
651.165	16.03
651.494	16.44
651.822	16.38
652.151	16.14
652.479	16.69
652.808	15.89
653.136	16.5
653.465	16.1
653.793	15.8
654.121	16.19
654.449	16.73
654.777	16.47
655.105	16.68
655.433	16.36
655.761	16.55
656.089	16.92
656.417	16.6
656.745	16.21
657.073	16.03
657.4	17.89
657.728	17.02
658.056	16.78
658.383	17.25
658.711	16.81
659.038	16.65
659.365	17.29
659.693	17.04
660.02	17.58
660.347	17.13
660.674	17.33
661.001	16.92
661.329	16.95
661.656	17.21
661.982	17.41
662.309	17.74
662.636	17.1
662.963	17.92
663.29	17.71
663.616	17.57
663.943	16.9
664.27	17.27
664.596	18.01
664.923	18.26
665.249	17.22
665.576	17.21
665.902	18.32
666.228	18.29
666.554	17.86
666.881	17.54
667.207	17.45
667.533	17.58
667.859	18.05
668.185	18.34
668.511	17.63
668.837	17.53
669.162	17.47
669.488	17.68
669.814	17.94
670.139	18.87
670.465	18.41
670.791	17.97
671.116	19.4
671.442	18.39
671.767	18.44
672.092	18.68
672.418	18.11
672.743	19.17
673.068	17.69
673.393	18.29
673.718	18.7
674.043	18.97
674.368	18.86
674.693	19.26
675.018	18.37
675.343	18.22
675.667	18.79
675.992	18.91
676.317	18.61
676.641	19.29
676.966	19.56
677.29	18.62
677.615	18.84
677.939	19.32
678.264	18.99
678.588	19.71
678.912	18.99
679.236	19.59
679.56	19.24
679.885	19.36
680.209	18.49
680.532	19.65
680.856	19.68
681.18	18.94
681.504	19.14
681.828	19.54
682.152	19.21
682.475	19.59
682.799	19.65
683.122	19.4
683.446	19.15
683.769	19.54
684.093	19.74
684.416	19.59
684.739	19.47
685.062	19.53
