Data from 434_crown_Reflection__0__252.txt Node

Date: Fri Dec 15 18:35:49 CST 2023
User: ToomeyLab
Spectrometer: FLMS14357
Trigger mode: 0
Integration Time (sec): 1.000000E-2
Scans to average: 100
Electric dark correction enabled: true
Nonlinearity correction enabled: false
Boxcar width: 0
XAxis mode: Wavelengths
Number of Pixels in Spectrum: 2048
>>>>>Begin Spectral Data<<<<<
189.047	24.78
189.435	24.78
189.823	24.78
190.211	192.51
190.599	10.62
190.987	49.8
191.375	-114.64
191.763	-15.67
192.151	46.39
192.538	67.51
192.926	1424.81
193.314	85.49
193.702	-461.66
194.089	-64.61
194.477	8.62
194.864	93.34
195.252	86.83
195.639	62.91
196.027	-423.11
196.414	232.11
196.801	4036.26
197.189	28.51
197.576	490.75
197.963	-3.93
198.351	-50.46
198.738	7.11
199.125	18.88
199.512	29.92
199.899	36.27
200.286	27.48
200.673	6.52
201.06	10.61
201.447	-44.83
201.833	45.88
202.22	-22.77
202.607	22.64
202.994	-18.86
203.38	-2.44
203.767	40.93
204.154	-10.36
204.54	41.59
204.927	-70.58
205.313	-21.05
205.699	-9.89
206.086	10.34
206.472	12.15
206.858	-9.34
207.245	-24.16
207.631	43.83
208.017	42.65
208.403	-38.58
208.789	40.06
209.175	21.55
209.561	-42.73
209.947	-30.43
210.333	-44.21
210.719	13.26
211.105	35.59
211.491	-20.69
211.876	29.65
212.262	1.58
212.648	-1.02
213.034	20.87
213.419	7.83
213.805	-8.57
214.19	-28.17
214.576	-1.93
214.961	-32
215.346	-104.39
215.732	-8.67
216.117	18.81
216.502	-54.94
216.888	8.68
217.273	14.36
217.658	6.82
218.043	31.01
218.428	-74.29
218.813	-19.85
219.198	-32.49
219.583	-14.22
219.968	-5.12
220.353	-21.14
220.738	9.07
221.122	6.94
221.507	-26.94
221.892	-16.21
222.276	-26.5
222.661	2.38
223.046	13.81
223.43	-2.21
223.815	20.68
224.199	-21.41
224.583	-9.01
224.968	-5.88
225.352	-3.92
225.736	-8.69
226.121	-8.75
226.505	4.33
226.889	5.21
227.273	-2.25
227.657	7.57
228.041	-3.56
228.425	-3.32
228.809	-2.01
229.193	4.04
229.577	-0.85
229.961	2.04
230.344	2.35
230.728	1.03
231.112	2.15
231.495	2.46
231.879	1.83
232.263	2.79
232.646	1.55
233.03	1.05
233.413	0.9
233.797	2.18
234.18	-1.78
234.563	3.35
234.946	-1.21
235.33	2.8
235.713	1.04
236.096	1.83
236.479	2.51
236.862	0.73
237.245	2.6
237.628	0.2
238.011	1.29
238.394	3.49
238.777	2.11
239.16	0.72
239.543	0.92
239.925	3.1
240.308	3.03
240.691	2.65
241.073	0.68
241.456	2.36
241.838	1.68
242.221	0.9
242.603	2.25
242.986	2.45
243.368	1.73
243.75	2.76
244.133	1.9
244.515	2.91
244.897	2.18
245.279	1.78
245.661	1.8
246.043	1.82
246.425	0.85
246.807	2.66
247.189	2.54
247.571	2.47
247.953	2.77
248.335	2.08
248.717	2.31
249.098	2.02
249.48	2.14
249.862	2.18
250.243	2.02
250.625	1.84
251.006	1.88
251.388	0.89
251.769	1.48
252.151	3.06
252.532	1.33
252.913	1.93
253.295	1.43
253.676	1.76
254.057	2.34
254.438	1.46
254.819	1.51
255.2	1.72
255.581	2.59
255.962	2.61
256.343	1.56
256.724	0.69
257.105	2.13
257.486	1.36
257.867	1.81
258.247	1.24
258.628	2.16
259.009	1.83
259.389	1.84
259.77	2.2
260.15	1.34
260.531	1.17
260.911	1.77
261.292	1.81
261.672	2.1
262.052	2.07
262.432	2.41
262.813	2.23
263.193	2.1
263.573	1.94
263.953	1.5
264.333	2.22
264.713	2.4
265.093	1.05
265.473	0.9
265.853	1.97
266.233	1.63
266.612	0.37
266.992	0.65
267.372	2.56
267.752	1.81
268.131	1.55
268.511	1.9
268.89	2.34
269.27	2.21
269.649	1.31
270.029	1.87
270.408	2.59
270.787	2.22
271.167	2.48
271.546	1.69
271.925	1.03
272.304	2.27
272.683	1.88
273.062	1.83
273.441	1.98
273.82	1.08
274.199	1.58
274.578	1.69
274.957	1.8
275.336	2.21
275.715	1.32
276.093	2.16
276.472	2.38
276.851	1.56
277.229	1.14
277.608	0.69
277.986	1.31
278.365	1.91
278.743	1.38
279.122	2.16
279.5	1.54
279.878	2.09
280.257	1.82
280.635	1.72
281.013	2.1
281.391	2.1
281.769	1.77
282.147	2.66
282.525	2.74
282.903	1.66
283.281	1.89
283.659	2.49
284.037	2.32
284.415	2.1
284.792	2.45
285.17	1.62
285.548	2.31
285.925	1.59
286.303	1.67
286.68	1.73
287.058	1.57
287.435	1.8
287.813	2.01
288.19	1.76
288.567	1.61
288.945	2.61
289.322	1.41
289.699	1.62
290.076	1.75
290.453	1.72
290.83	1.01
291.207	1.63
291.584	1.89
291.961	2.09
292.338	2.06
292.715	2.14
293.092	1.71
293.469	1.54
293.845	1.97
294.222	1.31
294.599	1.97
294.975	1.46
295.352	2.01
295.728	1.62
296.105	1.91
296.481	1.94
296.858	2.06
297.234	2.1
297.61	1.64
297.986	1.64
298.363	2.39
298.739	1.85
299.115	1.79
299.491	1.74
299.867	1.86
300.243	2.5
300.619	1.59
300.995	1.96
301.371	2.08
301.746	1.97
302.122	2.15
302.498	1.75
302.874	1.8
303.249	2.13
303.625	1.59
304	1.76
304.376	2.67
304.751	1.37
305.127	2.51
305.502	1.6
305.878	1.49
306.253	1.58
306.628	2.65
307.003	1.83
307.378	2.39
307.754	2.46
308.129	1.2
308.504	1.97
308.879	1.97
309.254	3.1
309.629	2.29
310.003	1.46
310.378	2.27
310.753	2.32
311.128	1.57
311.502	1.68
311.877	2.03
312.252	1.35
312.626	1.71
313.001	1.47
313.375	1.88
313.75	1.78
314.124	2.15
314.498	1.79
314.873	1.96
315.247	2.71
315.621	2.55
315.995	1.03
316.369	1.92
316.743	1.71
317.117	2.32
317.491	2.14
317.865	1.73
318.239	1.86
318.613	1.9
318.987	2.21
319.361	1.69
319.734	2.3
320.108	1.99
320.482	1.52
320.855	2.04
321.229	1.47
321.602	1.02
321.976	1.79
322.349	2.02
322.723	2.11
323.096	2.16
323.469	1.84
323.843	1.81
324.216	2.27
324.589	1.63
324.962	1.68
325.335	2.08
325.708	1.9
326.081	2.33
326.454	1.54
326.827	1.91
327.2	2.14
327.573	2.26
327.945	1.54
328.318	2.02
328.691	1.79
329.063	2.07
329.436	1.71
329.809	2.1
330.181	2.24
330.553	1.68
330.926	1.92
331.298	2.37
331.671	1.74
332.043	2.75
332.415	2.5
332.787	1.81
333.159	2.68
333.532	2.54
333.904	1.95
334.276	2.28
334.648	1.85
335.02	2.14
335.391	1.63
335.763	1.44
336.135	2.47
336.507	2.44
336.879	2.56
337.25	1.93
337.622	1.83
337.993	1.97
338.365	2.23
338.736	1.89
339.108	1.9
339.479	2.17
339.851	1.86
340.222	1.72
340.593	1.9
340.964	1.58
341.336	2.62
341.707	1.56
342.078	1.99
342.449	2.37
342.82	1.45
343.191	1.97
343.562	1.93
343.933	2.06
344.303	2.2
344.674	2.02
345.045	1.7
345.416	2.45
345.786	1.51
346.157	2.43
346.527	1.6
346.898	1.68
347.268	2.01
347.639	2.06
348.009	1.81
348.38	1.9
348.75	2.02
349.12	1.73
349.49	2.4
349.861	2.31
350.231	1.78
350.601	1.91
350.971	2.35
351.341	2.11
351.711	1.79
352.081	2.25
352.45	1.94
352.82	2.3
353.19	1.95
353.56	1.47
353.929	1.85
354.299	2.12
354.669	1.57
355.038	2.01
355.408	2.14
355.777	2.07
356.147	1.43
356.516	1.92
356.885	2
357.254	1.86
357.624	2.24
357.993	1.95
358.362	1.86
358.731	2.09
359.1	2.19
359.469	2.05
359.838	2.32
360.207	1.92
360.576	1.85
360.945	2.24
361.314	2.59
361.682	2.25
362.051	2.16
362.42	2.3
362.788	1.89
363.157	2.17
363.525	2.36
363.894	2.33
364.262	2.1
364.631	2.01
364.999	2.09
365.367	1.79
365.735	2.48
366.104	2.37
366.472	2.25
366.84	2.13
367.208	2.25
367.576	2.25
367.944	2.47
368.312	2.01
368.68	1.88
369.048	2.1
369.416	2.12
369.783	1.79
370.151	2.18
370.519	2.51
370.886	2.19
371.254	1.99
371.621	2.05
371.989	2.59
372.356	1.7
372.724	2.35
373.091	2.17
373.458	2.26
373.826	2.04
374.193	2.28
374.56	2.19
374.927	2.63
375.294	2.17
375.661	2.24
376.028	2.14
376.395	2.19
376.762	2.19
377.129	2.26
377.496	1.67
377.863	2.17
378.229	1.63
378.596	2.2
378.963	2.26
379.329	1.98
379.696	2.42
380.062	2.21
380.429	2.27
380.795	2.14
381.161	2.3
381.528	2.74
381.894	1.99
382.26	2.07
382.626	2.16
382.993	2.19
383.359	2.28
383.725	2.16
384.091	1.88
384.457	2.31
384.823	2.06
385.188	2.21
385.554	2.07
385.92	2.16
386.286	2.27
386.651	2.11
387.017	2.55
387.383	2.46
387.748	1.96
388.114	2.56
388.479	2.24
388.845	2.54
389.21	1.95
389.575	2.3
389.94	2.3
390.306	2.2
390.671	2.31
391.036	1.9
391.401	1.93
391.766	2.34
392.131	1.91
392.496	2.33
392.861	2.23
393.226	2.4
393.591	2.13
393.956	2.29
394.32	2.31
394.685	2.06
395.05	2.21
395.414	2.54
395.779	1.92
396.143	2.2
396.508	2.18
396.872	2.07
397.236	2.2
397.601	2.22
397.965	2.1
398.329	2.26
398.694	2.21
399.058	2.35
399.422	2.01
399.786	2.53
400.15	2.23
400.514	2.19
400.878	2.31
401.242	2.62
401.605	2.42
401.969	2.44
402.333	2.28
402.697	2.28
403.06	2.08
403.424	2.31
403.787	2.18
404.151	2.43
404.514	2.29
404.878	2.26
405.241	2.65
405.604	2.29
405.968	2.29
406.331	2.42
406.694	2.67
407.057	2.16
407.42	2.6
407.783	1.97
408.146	2.37
408.509	2.35
408.872	2.09
409.235	2.25
409.598	2.4
409.961	2.23
410.323	2.51
410.686	2.07
411.049	2.31
411.411	2.16
411.774	2.35
412.136	2.23
412.499	2.23
412.861	2.45
413.223	2.19
413.586	2.26
413.948	2.11
414.31	2.48
414.672	2.16
415.035	2.25
415.397	2.7
415.759	2.16
416.121	2.29
416.483	2.06
416.845	2.33
417.206	2.15
417.568	2.25
417.93	2.14
418.292	2.43
418.653	2.23
419.015	2.22
419.377	2.21
419.738	2.36
420.1	2.26
420.461	2.33
420.822	2.42
421.184	2.2
421.545	2.18
421.906	2.21
422.267	2.25
422.629	2.21
422.99	2.31
423.351	2.16
423.712	2.23
424.073	2.25
424.434	2.24
424.795	2.19
425.155	2.35
425.516	2.22
425.877	2.24
426.238	2.09
426.598	2.21
426.959	2.33
427.32	2.2
427.68	2.24
428.041	2.22
428.401	2.22
428.761	2.25
429.122	2.35
429.482	2.11
429.842	2.25
430.202	2.29
430.563	2.26
430.923	2.02
431.283	2.46
431.643	2.29
432.003	2.28
432.363	2.28
432.722	2.26
433.082	2.37
433.442	2.44
433.802	2.16
434.161	2.19
434.521	2.4
434.881	2.32
435.24	2.23
435.6	2.4
435.959	2.44
436.319	2.21
436.678	2.21
437.037	2.22
437.396	2.45
437.756	2.23
438.115	2.16
438.474	2.53
438.833	2.11
439.192	2.17
439.551	2.39
439.91	2.34
440.269	2.21
440.628	2.29
440.987	2.42
441.345	2.19
441.704	2.31
442.063	2.27
442.421	2.26
442.78	2.33
443.138	2.3
443.497	2.18
443.855	2.29
444.214	2.3
444.572	2.25
444.93	2.41
445.288	2.37
445.647	2.34
446.005	2.16
446.363	2.4
446.721	2.3
447.079	2.26
447.437	2.18
447.795	2.29
448.153	2.11
448.51	2.32
448.868	2.27
449.226	2.26
449.584	2.23
449.941	2.38
450.299	2.38
450.656	2.32
451.014	2.29
451.371	2.31
451.729	2.13
452.086	2.5
452.443	2.38
452.801	2.5
453.158	2.19
453.515	2.08
453.872	2.36
454.229	2.36
454.586	2.24
454.943	2.33
455.3	2.42
455.657	2.11
456.014	2.19
456.371	2.33
456.727	2.37
457.084	2.57
457.441	2.39
457.797	2.25
458.154	2.5
458.51	2.29
458.867	2.54
459.223	2.39
459.58	2.43
459.936	2.51
460.292	2.41
460.648	2.24
461.005	2.25
461.361	2.35
461.717	2.39
462.073	2.25
462.429	2.29
462.785	2.3
463.141	2.43
463.496	2.35
463.852	2.4
464.208	2.45
464.564	2.6
464.919	2.57
465.275	2.28
465.631	2.57
465.986	2.27
466.342	2.49
466.697	2.22
467.052	2.35
467.408	2.49
467.763	2.38
468.118	2.3
468.473	2.3
468.829	2.25
469.184	2.38
469.539	2.51
469.894	2.27
470.249	2.63
470.603	2.47
470.958	2.54
471.313	2.41
471.668	2.53
472.023	2.44
472.377	2.21
472.732	2.41
473.086	2.28
473.441	2.07
473.795	2.37
474.15	2.59
474.504	2.46
474.859	2.58
475.213	2.08
475.567	2.29
475.921	2.38
476.275	2.36
476.63	2.45
476.984	2.76
477.338	2.43
477.692	2.26
478.045	2.1
478.399	2.46
478.753	2.49
479.107	2.49
479.461	2.43
479.814	2.41
480.168	2.5
480.521	2.39
480.875	2.46
481.228	2.46
481.582	2.43
481.935	2.32
482.289	2.51
482.642	2.38
482.995	2.31
483.348	2.26
483.701	2.38
484.055	2.38
484.408	2.47
484.761	2.32
485.114	2.27
485.466	2.18
485.819	2.21
486.172	2.18
486.525	2.27
486.878	2.32
487.23	2.3
487.583	2.34
487.936	2.34
488.288	2.27
488.641	2.36
488.993	2.27
489.345	2.21
489.698	2.26
490.05	2.16
490.402	2.29
490.754	2.31
491.107	2.35
491.459	2.43
491.811	2.38
492.163	2.42
492.515	2.33
492.866	2.38
493.218	2.33
493.57	2.26
493.922	2.27
494.274	2.45
494.625	2.45
494.977	2.49
495.328	2.5
495.68	2.44
496.031	2.51
496.383	2.37
496.734	2.53
497.086	2.43
497.437	2.41
497.788	2.53
498.139	2.28
498.49	2.49
498.842	2.26
499.193	2.42
499.544	2.47
499.894	2.34
500.245	2.45
500.596	2.44
500.947	2.5
501.298	2.28
501.648	2.53
501.999	2.55
502.35	2.23
502.7	2.37
503.051	2.28
503.401	2.45
503.752	2.63
504.102	2.32
504.452	2.52
504.803	2.45
505.153	2.51
505.503	2.56
505.853	2.44
506.203	2.38
506.553	2.37
506.903	2.32
507.253	2.38
507.603	2.29
507.953	2.59
508.303	2.52
508.652	2.32
509.002	2.59
509.352	2.53
509.701	2.46
510.051	2.45
510.4	2.4
510.75	2.43
511.099	2.34
511.449	2.47
511.798	2.51
512.147	2.57
512.496	2.29
512.846	2.41
513.195	2.42
513.544	2.39
513.893	2.46
514.242	2.35
514.591	2.48
514.939	2.36
515.288	2.38
515.637	2.42
515.986	2.37
516.334	2.46
516.683	2.47
517.032	2.45
517.38	2.58
517.729	2.56
518.077	2.37
518.426	2.53
518.774	2.44
519.122	2.39
519.47	2.43
519.819	2.3
520.167	2.4
520.515	2.46
520.863	2.47
521.211	2.5
521.559	2.48
521.907	2.36
522.255	2.45
522.602	2.43
522.95	2.4
523.298	2.42
523.645	2.52
523.993	2.44
524.341	2.46
524.688	2.57
525.036	2.43
525.383	2.54
525.73	2.53
526.078	2.36
526.425	2.28
526.772	2.51
527.119	2.45
527.466	2.34
527.814	2.42
528.161	2.45
528.508	2.44
528.854	2.44
529.201	2.31
529.548	2.42
529.895	2.37
530.242	2.22
530.588	2.29
530.935	2.3
531.282	2.35
531.628	2.3
531.975	2.43
532.321	2.49
532.667	2.38
533.014	2.41
533.36	2.56
533.706	2.41
534.052	2.44
534.399	2.33
534.745	2.35
535.091	2.31
535.437	2.45
535.783	2.38
536.129	2.46
536.474	2.5
536.82	2.48
537.166	2.49
537.512	2.43
537.857	2.37
538.203	2.48
538.549	2.36
538.894	2.38
539.239	2.44
539.585	2.43
539.93	2.34
540.276	2.53
540.621	2.54
540.966	2.53
541.311	2.53
541.656	2.35
542.001	2.36
542.346	2.49
542.691	2.35
543.036	2.41
543.381	2.27
543.726	2.35
544.071	2.46
544.415	2.46
544.76	2.45
545.105	2.46
545.449	2.46
545.794	2.48
546.138	2.42
546.483	2.39
546.827	2.57
547.171	2.54
547.516	2.6
547.86	2.51
548.204	2.38
548.548	2.44
548.892	2.58
549.236	2.44
549.58	2.37
549.924	2.44
550.268	2.5
550.612	2.65
550.956	2.72
551.3	2.57
551.643	2.6
551.987	2.5
552.33	2.59
552.674	2.57
553.017	2.51
553.361	2.51
553.704	2.6
554.048	2.45
554.391	2.44
554.734	2.47
555.077	2.51
555.42	2.43
555.764	2.66
556.107	2.35
556.45	2.32
556.793	2.52
557.135	2.46
557.478	2.63
557.821	2.49
558.164	2.44
558.507	2.58
558.849	2.51
559.192	2.54
559.534	2.53
559.877	2.51
560.219	2.44
560.562	2.74
560.904	2.58
561.246	2.46
561.589	2.4
561.931	2.66
562.273	2.4
562.615	2.63
562.957	2.46
563.299	2.38
563.641	2.64
563.983	2.57
564.325	2.44
564.667	2.46
565.008	2.55
565.35	2.68
565.692	2.38
566.033	2.51
566.375	2.71
566.716	2.77
567.058	2.35
567.399	2.54
567.741	2.4
568.082	2.55
568.423	2.64
568.764	2.33
569.105	2.54
569.447	2.63
569.788	2.47
570.129	2.6
570.47	2.48
570.811	2.72
571.151	2.62
571.492	2.44
571.833	2.6
572.174	2.53
572.514	2.54
572.855	2.57
573.195	2.63
573.536	2.66
573.876	2.45
574.217	2.41
574.557	2.72
574.898	2.65
575.238	2.59
575.578	2.44
575.918	2.9
576.258	2.66
576.598	2.71
576.938	2.44
577.278	2.41
577.618	2.44
577.958	2.51
578.298	2.51
578.638	2.43
578.977	2.53
579.317	2.41
579.657	2.55
579.996	2.41
580.336	2.67
580.675	2.43
581.014	2.69
581.354	2.56
581.693	2.67
582.032	2.39
582.372	2.57
582.711	2.71
583.05	2.36
583.389	2.64
583.728	2.34
584.067	2.59
584.406	2.52
584.745	2.73
585.083	2.6
585.422	2.67
585.761	2.67
586.1	2.63
586.438	2.57
586.777	2.51
587.115	2.84
587.454	2.46
587.792	2.48
588.13	2.71
588.469	2.42
588.807	2.73
589.145	2.58
589.483	2.33
589.821	2.67
590.159	2.57
590.497	2.99
590.835	2.77
591.173	2.52
591.511	2.81
591.849	2.43
592.187	2.61
592.524	2.56
592.862	2.56
593.2	2.52
593.537	2.77
593.875	2.25
594.212	2.43
594.55	2.46
594.887	2.64
595.224	2.46
595.561	2.74
595.899	2.6
596.236	2.55
596.573	2.53
596.91	2.21
597.247	2.28
597.584	2.95
597.921	2.66
598.258	2.64
598.594	2.51
598.931	2.38
599.268	2.72
599.604	2.48
599.941	2.91
600.277	2.4
600.614	2.48
600.95	2.26
601.287	2.79
601.623	2.56
601.959	2.61
602.296	2.47
602.632	2.5
602.968	2.92
603.304	2.46
603.64	2.8
603.976	2.67
604.312	2.34
604.648	2.3
604.984	2.66
605.319	2.48
605.655	2.56
605.991	2.61
606.326	2.7
606.662	2.73
606.998	2.34
607.333	2.42
607.668	2.73
608.004	2.66
608.339	2.93
608.674	2.68
609.01	2.39
609.345	2.34
609.68	2.58
610.015	2.45
610.35	2.5
610.685	2.72
611.02	2.5
611.355	2.63
611.689	2.7
612.024	2.74
612.359	2.56
612.694	2.75
613.028	2.76
613.363	2.81
613.697	2.89
614.032	2.79
614.366	2.56
614.7	2.64
615.035	2.56
615.369	2.87
615.703	2.63
616.037	2.7
616.371	1.99
616.705	2.45
617.039	2.74
617.373	2.42
617.707	2.44
618.041	2.75
618.375	2.69
618.709	2.76
619.042	2.22
619.376	2.72
619.71	2.74
620.043	2.93
620.377	2.66
620.71	2.77
621.043	2.49
621.377	2.79
621.71	2.82
622.043	2.78
622.376	2.23
622.709	2.65
623.043	2.6
623.376	2.91
623.709	2.79
624.041	3.16
624.374	2.74
624.707	2.81
625.04	3.2
625.373	2.01
625.705	2.68
626.038	2.92
626.37	2.73
626.703	2.64
627.035	2.44
627.368	3.42
627.7	2.86
628.032	2.3
628.365	2.96
628.697	2.7
629.029	2.34
629.361	2.66
629.693	2.72
630.025	2.59
630.357	2.7
630.689	2.59
631.021	2.8
631.353	2.73
631.684	2.38
632.016	2.53
632.348	3.01
632.679	2.6
633.011	2.65
633.342	2.85
633.674	2.64
634.005	2.96
634.336	2.51
634.668	3.18
634.999	2.42
635.33	3.01
635.661	2.78
635.992	2.88
636.323	2.95
636.654	2.87
636.985	2.63
637.316	2.85
637.647	2.42
637.977	2.94
638.308	2.85
638.639	1.94
638.969	2.83
639.3	2.41
639.63	2.22
639.961	2.59
640.291	2.59
640.622	2.86
640.952	2.53
641.282	3.17
641.612	2.97
641.943	2.48
642.273	2.92
642.603	2.89
642.933	2.66
643.263	2.85
643.592	2.71
643.922	2.87
644.252	2.45
644.582	2.47
644.911	1.89
645.241	2.72
645.571	2.78
645.9	2.74
646.23	2.58
646.559	2.77
646.888	2.58
647.218	2.38
647.547	2.93
647.876	2.66
648.205	2.78
648.534	2.47
648.863	2.57
649.192	3.23
649.521	2.99
649.85	2.2
650.179	2.47
650.508	2.28
650.837	2.26
651.165	2.85
651.494	2.73
651.822	2.78
652.151	2.75
652.479	3.08
652.808	2.5
653.136	2.58
653.465	2.02
653.793	2.22
654.121	2.09
654.449	3.01
654.777	2.77
655.105	3.08
655.433	2.66
655.761	2.86
656.089	2.72
656.417	2.91
656.745	2.63
657.073	2.95
657.4	3.09
657.728	2.45
658.056	2.82
658.383	2.72
658.711	3.1
659.038	3.11
659.365	3.31
659.693	2.58
660.02	2.69
660.347	3.15
660.674	3.13
661.001	3.02
661.329	1.72
661.656	2.9
661.982	2.83
662.309	2.65
662.636	2.43
662.963	2.98
663.29	2.57
663.616	3.21
663.943	2.8
664.27	2.72
664.596	3.16
664.923	3.17
665.249	2.65
665.576	2.72
665.902	3.21
666.228	3.27
666.554	3.13
666.881	2.9
667.207	2.93
667.533	2.6
667.859	3.33
668.185	3.49
668.511	1.93
668.837	2.14
669.162	3.23
669.488	2.69
669.814	2.98
670.139	2.74
670.465	2.66
670.791	2.75
671.116	3.4
671.442	3.03
671.767	3.24
672.092	3.37
672.418	2.91
672.743	2.48
673.068	2.55
673.393	2.74
673.718	2.95
674.043	2.89
674.368	2.94
674.693	3.84
675.018	3.09
675.343	2.23
675.667	3.24
675.992	3.19
676.317	3.49
676.641	3.17
676.966	3.57
677.29	2.86
677.615	2.94
677.939	2.81
678.264	3.23
678.588	3.11
678.912	2.91
679.236	3.9
679.56	2.23
679.885	3.08
680.209	2.81
680.532	2.76
680.856	3.6
681.18	2.83
681.504	2.66
681.828	2.89
682.152	2.92
682.475	3.09
682.799	3.34
683.122	3.08
683.446	3.03
683.769	3.11
684.093	2.89
684.416	3.82
684.739	3.28
685.062	2.5
685.386	3.36
685.709	2.86
686.032	3.49
686.355	2.94
686.678	2.78
687.001	2.82
687.324	3.5
687.646	2.5
687.969	2.64
688.292	3.2
688.614	3.29
688.937	3.83
689.26	3.29
689.582	3.3
689.904	3.07
690.227	2.76
690.549	2.61
690.871	3.35
691.194	2.68
691.516	2.25
