Data from 434_chest_Reflection__2__249.txt Node

Date: Fri Dec 15 18:34:32 CST 2023
User: ToomeyLab
Spectrometer: FLMS14357
Trigger mode: 0
Integration Time (sec): 1.000000E-2
Scans to average: 100
Electric dark correction enabled: true
Nonlinearity correction enabled: false
Boxcar width: 0
XAxis mode: Wavelengths
Number of Pixels in Spectrum: 2048
>>>>>Begin Spectral Data<<<<<
189.047	18.27
189.435	18.27
189.823	18.27
190.211	-254.26
190.599	62.25
190.987	80.11
191.375	-172.96
191.763	56.03
192.151	20.25
192.538	90.83
192.926	674.44
193.314	61.77
193.702	-104.79
194.089	-322.84
194.477	246.73
194.864	-134.34
195.252	90.94
195.639	63.85
196.027	-1266.59
196.414	297.23
196.801	1141.76
197.189	38.71
197.576	480.07
197.963	-120.2
198.351	-78.62
198.738	27.66
199.125	5.57
199.512	-11.46
199.899	25.97
200.286	35.47
200.673	-27.36
201.06	-61.53
201.447	-12.24
201.833	-25.22
202.22	-2.61
202.607	23.66
202.994	4.39
203.38	46.63
203.767	53.13
204.154	8.12
204.54	49.04
204.927	-230.49
205.313	-30.61
205.699	9.53
206.086	28.1
206.472	32.06
206.858	-6.46
207.245	14.63
207.631	17.92
208.017	-9.25
208.403	5.6
208.789	12.85
209.175	0.89
209.561	31.41
209.947	-17.98
210.333	-18.79
210.719	5.51
211.105	36.6
211.491	10.04
211.876	23.66
212.262	11.04
212.648	7.61
213.034	22.87
213.419	23.19
213.805	-16.16
214.19	-50.72
214.576	-10.8
214.961	-27.6
215.346	-55.2
215.732	8.61
216.117	17.94
216.502	-26.42
216.888	4.53
217.273	19.25
217.658	-15.47
218.043	17.52
218.428	-32.04
218.813	-34.61
219.198	-39.02
219.583	12.07
219.968	20.9
220.353	-7.6
220.738	27.19
221.122	25.95
221.507	-14.46
221.892	-23.18
222.276	-26.45
222.661	-3.55
223.046	8.53
223.43	12.28
223.815	21.99
224.199	-29.67
224.583	7.29
224.968	3.77
225.352	11.05
225.736	-2.98
226.121	-15.49
226.505	8.49
226.889	7.83
227.273	1.35
227.657	5.84
228.041	2.97
228.425	7.15
228.809	9.7
229.193	1.9
229.577	5.12
229.961	5.69
230.344	5.88
230.728	6
231.112	5.91
231.495	6.19
231.879	4.7
232.263	6.82
232.646	5.7
233.03	7.42
233.413	3.35
233.797	6.27
234.18	2.75
234.563	8.16
234.946	4.16
235.33	8.45
235.713	5.46
236.096	5.76
236.479	7.53
236.862	5.92
237.245	6.11
237.628	3.37
238.011	5.16
238.394	7.41
238.777	6.44
239.16	5.81
239.543	5.59
239.925	5.02
240.308	6.9
240.691	5.88
241.073	6.96
241.456	6.46
241.838	5.66
242.221	5.11
242.603	6.11
242.986	5.94
243.368	6.46
243.75	6.13
244.133	6.2
244.515	6.7
244.897	6.09
245.279	5.92
245.661	6.45
246.043	4.97
246.425	4.22
246.807	6.94
247.189	6.93
247.571	5.49
247.953	6.9
248.335	6.3
248.717	6.24
249.098	6.12
249.48	5.99
249.862	5.83
250.243	6.03
250.625	5.87
251.006	6.38
251.388	4.73
251.769	6.25
252.151	7.02
252.532	5.54
252.913	5.6
253.295	6.15
253.676	5.85
254.057	6.36
254.438	5.57
254.819	5.54
255.2	4.75
255.581	5.15
255.962	5.46
256.343	6.85
256.724	5.41
257.105	5.81
257.486	5.1
257.867	7.14
258.247	5.33
258.628	5
259.009	5.34
259.389	5.92
259.77	5.64
260.15	5.23
260.531	5.21
260.911	5.96
261.292	5.64
261.672	5.93
262.052	5.85
262.432	5.78
262.813	6.04
263.193	5.67
263.573	5.27
263.953	5.59
264.333	5.61
264.713	6.04
265.093	4.86
265.473	5.07
265.853	5.31
266.233	6.46
266.612	4.32
266.992	4.34
267.372	6.12
267.752	5.47
268.131	5.62
268.511	5.8
268.89	5.84
269.27	5.24
269.649	5.04
270.029	5.2
270.408	6.8
270.787	5.84
271.167	6.38
271.546	6.15
271.925	4.8
272.304	5.25
272.683	5.77
273.062	5.1
273.441	5.34
273.82	4.7
274.199	4.76
274.578	5.43
274.957	5.03
275.336	5.1
275.715	5.19
276.093	5.46
276.472	5.6
276.851	5.16
277.229	5.24
277.608	4.71
277.986	4.91
278.365	5.04
278.743	4.7
279.122	5.18
279.5	5.32
279.878	5.66
280.257	4.96
280.635	5.3
281.013	4.98
281.391	5.71
281.769	5.29
282.147	5.62
282.525	6.09
282.903	4.94
283.281	5.82
283.659	5.1
284.037	5.21
284.415	5.72
284.792	5.75
285.17	4.53
285.548	4.68
285.925	5.52
286.303	5.17
286.68	5.1
287.058	4.92
287.435	4.95
287.813	4.9
288.19	4.94
288.567	5.09
288.945	5.67
289.322	5.61
289.699	5.42
290.076	4.99
290.453	4.99
290.83	4.87
291.207	4.5
291.584	5.11
291.961	5.82
292.338	5.29
292.715	6
293.092	5.16
293.469	4.96
293.845	5.75
294.222	4.44
294.599	5.13
294.975	4.74
295.352	5.5
295.728	4.56
296.105	5.28
296.481	5.2
296.858	5.23
297.234	5.39
297.61	4.57
297.986	4.78
298.363	5.53
298.739	5.32
299.115	4.87
299.491	5.11
299.867	5.01
300.243	5.19
300.619	4.92
300.995	4.66
301.371	5.35
301.746	4.9
302.122	5.89
302.498	5.21
302.874	5.07
303.249	5.27
303.625	5.29
304	5.09
304.376	5.17
304.751	4.66
305.127	6.04
305.502	5.11
305.878	4.6
306.253	5.41
306.628	5.47
307.003	5.29
307.378	6.02
307.754	5.03
308.129	4.11
308.504	5.08
308.879	4.68
309.254	5.82
309.629	5.99
310.003	4.94
310.378	5.44
310.753	5.08
311.128	5.33
311.502	5.1
311.877	5.45
312.252	4.84
312.626	5.12
313.001	5.15
313.375	5.65
313.75	5.01
314.124	5.18
314.498	5.59
314.873	5.56
315.247	4.87
315.621	5.02
315.995	4.2
316.369	5.09
316.743	5.2
317.117	5.48
317.491	5.14
317.865	5.09
318.239	4.77
318.613	5.74
318.987	4.77
319.361	4.41
319.734	5.47
320.108	5.25
320.482	5.19
320.855	4.37
321.229	4.41
321.602	4.74
321.976	5.21
322.349	5.04
322.723	4.74
323.096	5.58
323.469	4.34
323.843	5.67
324.216	5.34
324.589	4.94
324.962	5.55
325.335	4.44
325.708	4.93
326.081	4.71
326.454	4.98
326.827	4.41
327.2	5.08
327.573	5.57
327.945	5.05
328.318	4.51
328.691	4.62
329.063	5.24
329.436	4.69
329.809	5.35
330.181	5.01
330.553	4.89
330.926	4.8
331.298	5.24
331.671	4.5
332.043	5.28
332.415	5.36
332.787	4.96
333.159	6
333.532	5.56
333.904	5.1
334.276	4.98
334.648	5.21
335.02	5.19
335.391	4.5
335.763	4.71
336.135	4.88
336.507	5.51
336.879	4.62
337.25	4.35
337.622	4.9
337.993	4.63
338.365	5.52
338.736	5.28
339.108	5.23
339.479	5.2
339.851	5.02
340.222	5.14
340.593	4.79
340.964	4.77
341.336	5.55
341.707	5.18
342.078	5.72
342.449	5.75
342.82	5.19
343.191	5.23
343.562	5.27
343.933	5.78
344.303	5.25
344.674	5.24
345.045	5.02
345.416	5.85
345.786	4.92
346.157	5.19
346.527	4.86
346.898	5.09
347.268	5.36
347.639	5.12
348.009	4.9
348.38	5.1
348.75	5.35
349.12	5.01
349.49	5.6
349.861	5.51
350.231	4.64
350.601	5.82
350.971	5.56
351.341	4.93
351.711	5.17
352.081	5.33
352.45	5.08
352.82	5.73
353.19	5.23
353.56	5.77
353.929	5.13
354.299	5.12
354.669	5.21
355.038	5.24
355.408	5.25
355.777	5.69
356.147	5.11
356.516	5.38
356.885	5.12
357.254	5.6
357.624	5.08
357.993	5.21
358.362	5.16
358.731	4.86
359.1	5.25
359.469	5.64
359.838	5.16
360.207	5.11
360.576	5.11
360.945	4.84
361.314	5.77
361.682	5.13
362.051	5.27
362.42	5.42
362.788	5.54
363.157	5.64
363.525	5.73
363.894	5.43
364.262	5.34
364.631	5.26
364.999	5.44
365.367	5.19
365.735	5.88
366.104	5.68
366.472	5.39
366.84	5.48
367.208	5.24
367.576	5.78
367.944	5.45
368.312	5.55
368.68	5.14
369.048	5.48
369.416	5.35
369.783	5.59
370.151	5.66
370.519	6.02
370.886	5.94
371.254	5.31
371.621	5.78
371.989	5.65
372.356	5.19
372.724	5.52
373.091	5.24
373.458	5.55
373.826	5.44
374.193	5.59
374.56	5.48
374.927	5.21
375.294	5.49
375.661	5.56
376.028	5.41
376.395	5.18
376.762	5.91
377.129	5.78
377.496	5.72
377.863	5.98
378.229	5.05
378.596	5.63
378.963	5.68
379.329	5.45
379.696	5.73
380.062	5.58
380.429	5.61
380.795	5.33
381.161	5.82
381.528	5.6
381.894	5.87
382.26	5.61
382.626	5.66
382.993	5.55
383.359	6.07
383.725	5.51
384.091	5.53
384.457	5.74
384.823	5.22
385.188	5.74
385.554	5.66
385.92	5.61
386.286	5.86
386.651	5.72
387.017	5.92
387.383	5.23
387.748	5.34
388.114	5.73
388.479	5.53
388.845	6.25
389.21	5.71
389.575	6.02
389.94	5.78
390.306	5.65
390.671	6.23
391.036	5.39
391.401	5.78
391.766	5.97
392.131	5.93
392.496	5.84
392.861	5.6
393.226	5.77
393.591	5.9
393.956	5.66
394.32	5.76
394.685	5.49
395.05	5.66
395.414	5.91
395.779	5.56
396.143	6.01
396.508	5.75
396.872	5.87
397.236	5.66
397.601	5.67
397.965	5.69
398.329	5.76
398.694	6.04
399.058	5.91
399.422	5.71
399.786	5.91
400.15	5.75
400.514	5.98
400.878	6.01
401.242	6.05
401.605	5.69
401.969	6.12
402.333	5.77
402.697	5.92
403.06	6.02
403.424	5.62
403.787	5.91
404.151	6.1
404.514	5.82
404.878	5.93
405.241	5.98
405.604	5.79
405.968	5.94
406.331	6.11
406.694	6.13
407.057	5.68
407.42	6
407.783	5.79
408.146	5.9
408.509	5.68
408.872	5.96
409.235	5.88
409.598	6.28
409.961	6.21
410.323	5.93
410.686	5.89
411.049	5.88
411.411	5.77
411.774	5.93
412.136	5.97
412.499	5.97
412.861	6
413.223	5.96
413.586	5.77
413.948	6.05
414.31	5.95
414.672	5.85
415.035	5.79
415.397	6.23
415.759	5.81
416.121	6.04
416.483	5.77
416.845	6.02
417.206	6.17
417.568	6.14
417.93	5.61
418.292	5.96
418.653	5.98
419.015	5.94
419.377	6.01
419.738	6.11
420.1	5.95
420.461	5.99
420.822	6.01
421.184	5.85
421.545	6.12
421.906	5.82
422.267	5.94
422.629	6.09
422.99	5.99
423.351	5.91
423.712	5.93
424.073	6.08
424.434	5.82
424.795	5.99
425.155	5.94
425.516	5.93
425.877	5.95
426.238	6.02
426.598	6
426.959	6.01
427.32	5.89
427.68	5.99
428.041	6.15
428.401	6.05
428.761	6.21
429.122	6.15
429.482	5.99
429.842	6.17
430.202	6.17
430.563	6.21
430.923	6.26
431.283	6.09
431.643	6.26
432.003	6.05
432.363	6.33
432.722	6.11
433.082	6.16
433.442	6.13
433.802	6.18
434.161	6.24
434.521	6.5
434.881	6.28
435.24	6.05
435.6	6.17
435.959	6.04
436.319	6.13
436.678	6.11
437.037	6.16
437.396	6.12
437.756	6.35
438.115	6.03
438.474	6.24
438.833	6.01
439.192	6.22
439.551	6.33
439.91	6.18
440.269	6.2
440.628	6.12
440.987	6.21
441.345	6
441.704	6.23
442.063	6.21
442.421	6.11
442.78	6.17
443.138	6.21
443.497	6.17
443.855	6.08
444.214	6.28
444.572	6.15
444.93	6.18
445.288	6.26
445.647	6.35
446.005	6.24
446.363	6.36
446.721	6.33
447.079	6.18
447.437	6.2
447.795	6.2
448.153	6.05
448.51	6.09
448.868	6.21
449.226	6.24
449.584	6.2
449.941	6.27
450.299	6.27
450.656	6.3
451.014	6.3
451.371	6.25
451.729	6.19
452.086	6.5
452.443	6.24
452.801	6.38
453.158	6.29
453.515	6.28
453.872	6.48
454.229	6.11
454.586	6.24
454.943	6.42
455.3	6.43
455.657	6.35
456.014	6.28
456.371	6.26
456.727	6.3
457.084	6.56
457.441	6.41
457.797	6.43
458.154	6.62
458.51	6.45
458.867	6.49
459.223	6.61
459.58	6.48
459.936	6.36
460.292	6.37
460.648	6.24
461.005	6.33
461.361	6.39
461.717	6.29
462.073	6.26
462.429	6.29
462.785	6.32
463.141	6.23
463.496	6.38
463.852	6.42
464.208	6.35
464.564	6.53
464.919	6.49
465.275	6.49
465.631	6.58
465.986	6.52
466.342	6.28
466.697	6.31
467.052	6.39
467.408	6.55
467.763	6.37
468.118	6.44
468.473	6.34
468.829	6.4
469.184	6.36
469.539	6.47
469.894	6.19
470.249	6.48
470.603	6.55
470.958	6.65
471.313	6.49
471.668	6.6
472.023	6.45
472.377	6.58
472.732	6.65
473.086	6.35
473.441	6.41
473.795	6.66
474.15	6.69
474.504	6.52
474.859	6.57
475.213	6.43
475.567	6.45
475.921	6.4
476.275	6.63
476.63	6.55
476.984	6.71
477.338	6.67
477.692	6.43
478.045	6.6
478.399	6.5
478.753	6.74
479.107	6.59
479.461	6.47
479.814	6.54
480.168	6.45
480.521	6.34
480.875	6.41
481.228	6.47
481.582	6.51
481.935	6.39
482.289	6.45
482.642	6.56
482.995	6.5
483.348	6.47
483.701	6.66
484.055	6.55
484.408	6.58
484.761	6.41
485.114	6.43
485.466	6.32
485.819	6.24
486.172	6.23
486.525	6.2
486.878	6.26
487.23	6.31
487.583	6.38
487.936	6.43
488.288	6.36
488.641	6.38
488.993	6.36
489.345	6.38
489.698	6.33
490.05	6.29
490.402	6.38
490.754	6.33
491.107	6.49
491.459	6.48
491.811	6.53
492.163	6.5
492.515	6.58
492.866	6.56
493.218	6.52
493.57	6.4
493.922	6.39
494.274	6.48
494.625	6.51
494.977	6.53
495.328	6.56
495.68	6.56
496.031	6.77
496.383	6.66
496.734	6.81
497.086	6.72
497.437	6.68
497.788	6.72
498.139	6.69
498.49	6.82
498.842	6.59
499.193	6.69
499.544	6.65
499.894	6.69
500.245	6.63
500.596	6.73
500.947	6.85
501.298	6.68
501.648	6.81
501.999	6.79
502.35	6.77
502.7	6.74
503.051	6.65
503.401	6.72
503.752	6.79
504.102	6.64
504.452	6.79
504.803	6.73
505.153	6.7
505.503	6.94
505.853	6.81
506.203	6.66
506.553	6.7
506.903	6.73
507.253	6.74
507.603	6.8
507.953	6.91
508.303	7.05
508.652	6.69
509.002	6.8
509.352	7.06
509.701	6.83
510.051	6.8
510.4	6.73
510.75	6.88
511.099	6.83
511.449	6.81
511.798	6.81
512.147	6.84
512.496	6.85
512.846	6.86
513.195	6.79
513.544	6.75
513.893	7.06
514.242	6.85
514.591	7.09
514.939	7
515.288	6.83
515.637	6.9
515.986	7.08
516.334	6.97
516.683	6.96
517.032	6.87
517.38	7.04
517.729	7.03
518.077	6.87
518.426	7.02
518.774	7.04
519.122	7.04
519.47	7
519.819	6.86
520.167	6.92
520.515	6.97
520.863	6.92
521.211	7
521.559	7.05
521.907	6.97
522.255	6.93
522.602	6.95
522.95	7.16
523.298	7.02
523.645	7.17
523.993	7.08
524.341	7.28
524.688	7.13
525.036	7.15
525.383	7.22
525.73	7.38
526.078	7.16
526.425	7
526.772	7.2
527.119	7.05
527.466	6.96
527.814	7.02
528.161	7.09
528.508	7.04
528.854	7.12
529.201	6.98
529.548	7.05
529.895	7.05
530.242	6.94
530.588	6.91
530.935	6.9
531.282	6.89
531.628	6.94
531.975	7.06
532.321	7.11
532.667	7.18
533.014	7.22
533.36	7.22
533.706	7.24
534.052	7.24
534.399	7.2
534.745	7.13
535.091	7.12
535.437	7.13
535.783	7.12
536.129	7.17
536.474	7.15
536.82	7.31
537.166	7.37
537.512	7.32
537.857	7.31
538.203	7.44
538.549	7.32
538.894	7.3
539.239	7.33
539.585	7.36
539.93	7.25
540.276	7.5
540.621	7.49
540.966	7.45
541.311	7.44
541.656	7.38
542.001	7.41
542.346	7.52
542.691	7.41
543.036	7.4
543.381	7.26
543.726	7.29
544.071	7.39
544.415	7.41
544.76	7.43
545.105	7.5
545.449	7.44
545.794	7.57
546.138	7.52
546.483	7.6
546.827	7.61
547.171	7.63
547.516	7.78
547.86	7.55
548.204	7.61
548.548	7.57
548.892	7.74
549.236	7.72
549.58	7.52
549.924	7.8
550.268	7.83
550.612	7.9
550.956	7.97
551.3	7.72
551.643	7.88
551.987	7.97
552.33	8.01
552.674	7.97
553.017	7.91
553.361	7.81
553.704	8.04
554.048	7.89
554.391	7.86
554.734	8.02
555.077	7.97
555.42	7.98
555.764	7.89
556.107	7.88
556.45	7.94
556.793	8.09
557.135	8.05
557.478	8.31
557.821	8.07
558.164	7.9
558.507	8.22
558.849	8.26
559.192	8.23
559.534	8.2
559.877	8.43
560.219	8.09
560.562	8.54
560.904	8.22
561.246	8.34
561.589	8.16
561.931	8.29
562.273	8.27
562.615	8.35
562.957	8.28
563.299	8.42
563.641	8.35
563.983	8.42
564.325	8.42
564.667	8.3
565.008	8.38
565.35	8.44
565.692	8.21
566.033	8.47
566.375	8.67
566.716	8.85
567.058	8.43
567.399	8.57
567.741	8.57
568.082	8.62
568.423	8.54
568.764	8.53
569.105	8.6
569.447	8.77
569.788	8.65
570.129	8.75
570.47	8.77
570.811	8.93
571.151	8.92
571.492	8.86
571.833	8.91
572.174	8.8
572.514	8.73
572.855	8.71
573.195	8.79
573.536	8.92
573.876	8.79
574.217	8.86
574.557	9
574.898	9.11
575.238	8.96
575.578	8.92
575.918	9.1
576.258	9.04
576.598	9.13
576.938	9.1
577.278	9.12
577.618	9.15
577.958	9.16
578.298	9.12
578.638	9.38
578.977	9.14
579.317	9.04
579.657	9.38
579.996	9.18
580.336	9.26
580.675	9.41
581.014	9.36
581.354	9.38
581.693	9.5
582.032	9.26
582.372	9.31
582.711	9.54
583.05	9.35
583.389	9.34
583.728	9.66
584.067	9.7
584.406	9.47
584.745	9.58
585.083	9.96
585.422	9.36
585.761	9.62
586.1	9.74
586.438	9.91
586.777	9.96
587.115	9.94
587.454	9.62
587.792	9.72
588.13	9.85
588.469	9.77
588.807	9.77
589.145	9.76
589.483	9.96
589.821	9.87
590.159	9.99
590.497	10.03
590.835	10.35
591.173	9.79
591.511	10.31
591.849	10.02
592.187	10.02
592.524	10.13
592.862	10.01
593.2	10.38
593.537	10.35
593.875	9.95
594.212	10.15
594.55	9.96
594.887	10.41
595.224	10.06
595.561	10.16
595.899	10.4
596.236	10.21
596.573	10.44
596.91	10.19
597.247	10.31
597.584	10.69
597.921	10.66
598.258	10.27
598.594	10.58
598.931	10.44
599.268	10.58
599.604	10.38
599.941	10.57
600.277	10.64
600.614	10.41
600.95	10.44
601.287	10.98
601.623	10.63
601.959	10.79
602.296	10.89
602.632	10.57
602.968	10.82
603.304	10.78
603.64	10.97
603.976	11.18
604.312	10.79
604.648	10.62
604.984	10.82
605.319	10.96
605.655	10.89
605.991	11.14
606.326	11.03
606.662	11.02
606.998	10.81
607.333	11.03
607.668	11.14
608.004	11.3
608.339	11.43
608.674	11.42
609.01	11.14
609.345	11.25
609.68	11.3
610.015	10.97
610.35	10.94
610.685	11.19
611.02	11.25
611.355	11.45
611.689	11.36
612.024	11.63
612.359	11.55
612.694	11.67
613.028	11.35
613.363	11.53
613.697	11.81
614.032	11.9
614.366	11.66
614.7	11.91
615.035	11.73
615.369	11.81
615.703	11.91
616.037	12.16
616.371	11.39
616.705	11.76
617.039	11.99
617.373	11.94
617.707	11.73
618.041	11.74
618.375	12.19
618.709	11.8
619.042	12.05
619.376	11.97
619.71	12.49
620.043	12.12
620.377	12.2
620.71	12.41
621.043	11.81
621.377	12.09
621.71	12.07
622.043	11.7
622.376	12
622.709	12.56
623.043	12.68
623.376	12.53
623.709	12.32
624.041	12.59
624.374	12.34
624.707	12.47
625.04	12.52
625.373	12.21
625.705	12.75
626.038	12.69
626.37	12.41
626.703	12.43
627.035	12.77
627.368	13.16
627.7	13.06
628.032	12.72
628.365	12.8
628.697	12.62
629.029	12.76
629.361	12.95
629.693	13.08
630.025	12.75
630.357	13.3
630.689	13.13
631.021	13.02
631.353	13
631.684	12.86
632.016	12.81
632.348	13.1
632.679	12.91
633.011	13.1
633.342	13.25
633.674	13.63
634.005	13.15
634.336	13.45
634.668	13.46
634.999	13.37
635.33	14.16
635.661	13.97
635.992	13.53
636.323	13.4
636.654	13.54
636.985	13.48
637.316	13.45
637.647	13.2
637.977	13.46
638.308	13.79
638.639	13.47
638.969	13.7
639.3	14.06
639.63	13.26
639.961	13.98
640.291	13.49
640.622	13.86
640.952	13.65
641.282	13.98
641.612	14.21
641.943	13.81
642.273	14.19
642.603	13.85
642.933	14.11
643.263	13.92
643.592	14.36
643.922	13.98
644.252	13.5
644.582	13.48
644.911	13.75
645.241	14.12
645.571	13.9
645.9	14.11
646.23	14.63
646.559	14.32
646.888	14.17
647.218	14.44
647.547	14.78
647.876	13.79
648.205	14.63
648.534	14.54
648.863	14.3
649.192	14.69
649.521	14.36
649.85	14.2
650.179	14.98
650.508	14.62
650.837	14.78
651.165	14.23
651.494	14.71
651.822	14.96
652.151	14.65
652.479	14.72
652.808	14.26
653.136	14.84
653.465	14.34
653.793	14.82
654.121	14.6
654.449	15.27
654.777	15.18
655.105	15.11
655.433	15.08
655.761	15.1
656.089	15.67
656.417	15.01
656.745	15.1
657.073	14.9
657.4	15.72
657.728	15.5
658.056	15.53
658.383	15.48
658.711	15.53
659.038	15.37
659.365	15.32
659.693	16.2
660.02	15.36
660.347	15.49
660.674	15.72
661.001	15.87
661.329	15.18
661.656	15.61
661.982	15.44
662.309	15.77
662.636	15.7
662.963	15.89
663.29	16.07
663.616	15.88
663.943	15.37
664.27	16.05
664.596	16.7
664.923	15.96
665.249	15.87
665.576	15.99
665.902	16.72
666.228	16.34
666.554	15.7
666.881	15.8
667.207	16.08
667.533	16.12
667.859	16.24
668.185	16.2
668.511	15.57
668.837	15.64
669.162	16.41
669.488	16
669.814	15.85
670.139	16.43
670.465	17.34
670.791	16.82
671.116	16.95
671.442	16.21
671.767	16.74
672.092	16.64
672.418	17.04
672.743	17.53
673.068	16.29
673.393	17.04
673.718	16.12
674.043	16.54
674.368	16.7
674.693	16.91
675.018	16.87
675.343	16.48
675.667	17.2
675.992	17.14
676.317	16.88
676.641	17.03
676.966	17.51
677.29	17.63
677.615	17.7
677.939	17.51
678.264	17.71
678.588	17.43
678.912	17.14
679.236	18.07
679.56	16.78
679.885	17.61
680.209	17.38
680.532	16.81
680.856	17.77
681.18	17.7
681.504	17.32
681.828	17.6
682.152	17.19
682.475	17.39
682.799	17.78
683.122	17.56
683.446	17.36
683.769	17.98
684.093	17.89
684.416	17.87
684.739	17.75
685.062	17.49
685.386	18.09
685.709	17.76
686.032	18
686.355	18.45
