Data from 434_crown_Reflection__3__255.txt Node

Date: Fri Dec 15 18:36:24 CST 2023
User: ToomeyLab
Spectrometer: FLMS14357
Trigger mode: 0
Integration Time (sec): 1.000000E-2
Scans to average: 100
Electric dark correction enabled: true
Nonlinearity correction enabled: false
Boxcar width: 0
XAxis mode: Wavelengths
Number of Pixels in Spectrum: 2048
>>>>>Begin Spectral Data<<<<<
189.047	19.35
189.435	19.35
189.823	19.35
190.211	237.68
190.599	-3.01
190.987	29
191.375	-6.93
191.763	1.01
192.151	-136.56
192.538	103.77
192.926	81.95
193.314	204.91
193.702	342.27
194.089	47.48
194.477	-28.54
194.864	12.52
195.252	126.61
195.639	34.83
196.027	878.03
196.414	81.81
196.801	2341.76
197.189	33.14
197.576	725.39
197.963	38.75
198.351	-23.51
198.738	-61.54
199.125	-26.04
199.512	-82.59
199.899	24.49
200.286	27.06
200.673	30.85
201.06	24.51
201.447	13.57
201.833	24.03
202.22	-1.57
202.607	41.67
202.994	-11.14
203.38	43.3
203.767	19.85
204.154	39.07
204.54	20.93
204.927	-120.56
205.313	-33.16
205.699	9.51
206.086	32.67
206.472	-28.36
206.858	30.84
207.245	-35.2
207.631	31.35
208.017	-32.37
208.403	14.87
208.789	25.31
209.175	9.62
209.561	7.49
209.947	54.09
210.333	-25.53
210.719	27.84
211.105	6.75
211.491	22.31
211.876	4.59
212.262	16.87
212.648	-14.93
213.034	25.35
213.419	9.93
213.805	-26.39
214.19	-35.21
214.576	-24.73
214.961	-95.5
215.346	-84.69
215.732	-3.01
216.117	5.82
216.502	-27.95
216.888	19.53
217.273	17.28
217.658	5.9
218.043	9.95
218.428	-39.11
218.813	-8.97
219.198	-54.61
219.583	9.94
219.968	-8.34
220.353	-25.67
220.738	3.7
221.122	0.5
221.507	-2.35
221.892	-38.31
222.276	-32.31
222.661	2.91
223.046	11.51
223.43	12.82
223.815	10.36
224.199	-17.22
224.583	3.25
224.968	7.36
225.352	15.28
225.736	-3.73
226.121	1.04
226.505	-0.18
226.889	1.45
227.273	-1.96
227.657	11.58
228.041	11.17
228.425	9.66
228.809	6.19
229.193	4.05
229.577	2.62
229.961	7.85
230.344	6.64
230.728	6.08
231.112	6.92
231.495	7.49
231.879	4.36
232.263	8.14
232.646	6.97
233.03	6.57
233.413	4.97
233.797	6.48
234.18	4.72
234.563	7.16
234.946	4.88
235.33	8.48
235.713	5.91
236.096	6.03
236.479	7.5
236.862	4.87
237.245	7.83
237.628	4.99
238.011	7.59
238.394	7.85
238.777	6.88
239.16	4.2
239.543	6.46
239.925	6.71
240.308	6.62
240.691	7.37
241.073	8.56
241.456	7.08
241.838	6.03
242.221	5.61
242.603	7.34
242.986	6.39
243.368	6.32
243.75	7.29
244.133	6.63
244.515	6.75
244.897	6.13
245.279	6.63
245.661	6.46
246.043	4.96
246.425	5.36
246.807	6.9
247.189	7.3
247.571	6.77
247.953	6.77
248.335	6.69
248.717	6.51
249.098	6.35
249.48	6.47
249.862	6.21
250.243	6.78
250.625	6.04
251.006	6.39
251.388	4.82
251.769	6.51
252.151	6.25
252.532	6.68
252.913	4.76
253.295	5.56
253.676	5.87
254.057	5.85
254.438	6.02
254.819	5.83
255.2	6.15
255.581	6.7
255.962	6.57
256.343	5.43
256.724	5.57
257.105	5.12
257.486	4.54
257.867	6.53
258.247	6.33
258.628	5.71
259.009	6.83
259.389	6.14
259.77	6.23
260.15	5.41
260.531	5.5
260.911	6.13
261.292	6.1
261.672	6.18
262.052	6.02
262.432	6.21
262.813	5.61
263.193	5.53
263.573	5.2
263.953	5.95
264.333	6.24
264.713	6.41
265.093	5.1
265.473	5.58
265.853	4.9
266.233	6.2
266.612	4.3
266.992	5.21
267.372	6.67
267.752	5.51
268.131	5.17
268.511	6.66
268.89	6
269.27	5.93
269.649	5.46
270.029	5.67
270.408	5.94
270.787	5.39
271.167	5.56
271.546	6.53
271.925	5.08
272.304	5.79
272.683	6
273.062	5.32
273.441	6.01
273.82	5.18
274.199	5.62
274.578	5.64
274.957	5.67
275.336	5.99
275.715	5.1
276.093	5.31
276.472	5.18
276.851	5.7
277.229	5.48
277.608	5.03
277.986	5.49
278.365	6.18
278.743	5.07
279.122	5.3
279.5	5.27
279.878	6.01
280.257	4.92
280.635	5.51
281.013	5.15
281.391	5.85
281.769	5.83
282.147	5.7
282.525	6.08
282.903	5.26
283.281	5.61
283.659	5.1
284.037	5.66
284.415	5.43
284.792	5.6
285.17	5.33
285.548	5.31
285.925	5.59
286.303	5.84
286.68	5.34
287.058	5.71
287.435	5.56
287.813	5.75
288.19	5.38
288.567	5.42
288.945	5.32
289.322	5.4
289.699	5.25
290.076	5.51
290.453	5.57
290.83	4.84
291.207	5.48
291.584	5.24
291.961	5.74
292.338	5.41
292.715	5.54
293.092	5.17
293.469	5.17
293.845	5.58
294.222	5.02
294.599	5.45
294.975	5.35
295.352	5.45
295.728	5.25
296.105	5.26
296.481	5.76
296.858	5.62
297.234	4.94
297.61	5.43
297.986	5.38
298.363	5.72
298.739	5.52
299.115	5.39
299.491	5.35
299.867	5.03
300.243	5.79
300.619	5.25
300.995	5.37
301.371	5.57
301.746	4.98
302.122	5.28
302.498	5.32
302.874	5.55
303.249	5.45
303.625	5.65
304	5.39
304.376	5.63
304.751	4.71
305.127	6.07
305.502	5.06
305.878	5.11
306.253	5.41
306.628	5.56
307.003	4.75
307.378	5.67
307.754	5.49
308.129	5.05
308.504	5.11
308.879	5.39
309.254	5.81
309.629	6.14
310.003	5.06
310.378	6.04
310.753	5.84
311.128	5.75
311.502	5.38
311.877	5.86
312.252	5.37
312.626	5.65
313.001	5.53
313.375	5.84
313.75	4.82
314.124	5.68
314.498	5.3
314.873	5.6
315.247	5.29
315.621	5.45
315.995	4.64
316.369	5.79
316.743	5.14
317.117	5.6
317.491	5.54
317.865	5.12
318.239	4.91
318.613	5.2
318.987	5.94
319.361	4.68
319.734	5.59
320.108	5.38
320.482	5.12
320.855	5.39
321.229	4.69
321.602	5.07
321.976	6.15
322.349	4.8
322.723	4.89
323.096	5.58
323.469	4.69
323.843	5.05
324.216	5.14
324.589	5.12
324.962	5.08
325.335	4.6
325.708	5.34
326.081	5.17
326.454	5.23
326.827	5.18
327.2	4.97
327.573	5.37
327.945	5.45
328.318	4.84
328.691	4.7
329.063	5.01
329.436	4.54
329.809	5.47
330.181	4.79
330.553	5.42
330.926	5.46
331.298	5.4
331.671	4.31
332.043	6.02
332.415	5.41
332.787	5.2
333.159	5.94
333.532	5.51
333.904	5.26
334.276	5.59
334.648	5.72
335.02	4.63
335.391	5.09
335.763	5.22
336.135	5.42
336.507	5.45
336.879	5.22
337.25	4.99
337.622	5.08
337.993	5.26
338.365	5.4
338.736	5.89
339.108	5.02
339.479	4.75
339.851	4.89
340.222	5.41
340.593	5.26
340.964	5.16
341.336	5.49
341.707	5.04
342.078	5.93
342.449	5.64
342.82	5.18
343.191	5.48
343.562	5.15
343.933	5.44
344.303	5.18
344.674	5.34
345.045	5.64
345.416	5.3
345.786	5
346.157	5.69
346.527	4.95
346.898	4.66
347.268	5.32
347.639	5.19
348.009	5.69
348.38	4.92
348.75	4.99
349.12	4.61
349.49	5.4
349.861	5.13
350.231	4.86
350.601	5.43
350.971	5.19
351.341	5.41
351.711	5.05
352.081	5.51
352.45	5.19
352.82	5.47
353.19	4.69
353.56	4.85
353.929	5.31
354.299	5.07
354.669	4.88
355.038	5.59
355.408	5.03
355.777	5.46
356.147	5.29
356.516	5.58
356.885	5.4
357.254	5.53
357.624	5.38
357.993	5.58
358.362	4.92
358.731	5
359.1	5.13
359.469	5.4
359.838	5.28
360.207	5.24
360.576	4.91
360.945	5.18
361.314	5.68
361.682	5.51
362.051	5.25
362.42	5.18
362.788	5.33
363.157	5.62
363.525	5.72
363.894	5.28
364.262	5.2
364.631	5.2
364.999	5.47
365.367	4.82
365.735	5.75
366.104	5.55
366.472	5.25
366.84	5.08
367.208	5.27
367.576	5.5
367.944	5.72
368.312	5.13
368.68	5.31
369.048	5.56
369.416	5.27
369.783	4.93
370.151	5.22
370.519	5.75
370.886	5.34
371.254	5.3
371.621	5.7
371.989	5.85
372.356	5.01
372.724	5.28
373.091	4.99
373.458	4.88
373.826	5.51
374.193	5.36
374.56	5.53
374.927	5.57
375.294	5.58
375.661	5.49
376.028	5.09
376.395	5.21
376.762	5.48
377.129	5.07
377.496	5.23
377.863	5.49
378.229	4.77
378.596	5.43
378.963	5.19
379.329	5.39
379.696	5.53
380.062	5.53
380.429	5.18
380.795	5.25
381.161	5.54
381.528	5.82
381.894	5.12
382.26	5.25
382.626	5.37
382.993	5.08
383.359	5.77
383.725	5.12
384.091	5.46
384.457	6.01
384.823	5.44
385.188	5.48
385.554	5.34
385.92	5.73
386.286	5.72
386.651	5.83
387.017	5.76
387.383	5.5
387.748	5.62
388.114	5.57
388.479	5.67
388.845	5.48
389.21	5.72
389.575	5.36
389.94	5.24
390.306	5.36
390.671	5.78
391.036	5.33
391.401	5.14
391.766	5.5
392.131	5.23
392.496	5.6
392.861	5.41
393.226	5.62
393.591	5.63
393.956	5.38
394.32	5.64
394.685	5.3
395.05	5.46
395.414	5.68
395.779	5.16
396.143	5.59
396.508	5.55
396.872	5.62
397.236	5.43
397.601	5.16
397.965	5.54
398.329	5.71
398.694	5.67
399.058	5.75
399.422	5.66
399.786	5.7
400.15	5.74
400.514	5.9
400.878	5.64
401.242	5.84
401.605	5.49
401.969	5.85
402.333	5.57
402.697	5.71
403.06	5.64
403.424	5.83
403.787	5.71
404.151	5.58
404.514	5.78
404.878	5.64
405.241	5.83
405.604	5.57
405.968	5.6
406.331	5.45
406.694	5.79
407.057	5.73
407.42	5.6
407.783	5.41
408.146	5.47
408.509	5.53
408.872	5.46
409.235	5.58
409.598	5.97
409.961	5.7
410.323	6.02
410.686	5.23
411.049	5.59
411.411	5.71
411.774	5.95
412.136	5.71
412.499	5.77
412.861	5.69
413.223	5.72
413.586	5.76
413.948	5.73
414.31	5.65
414.672	5.6
415.035	5.43
415.397	6.03
415.759	5.51
416.121	5.91
416.483	5.42
416.845	5.95
417.206	5.74
417.568	5.87
417.93	5.6
418.292	5.85
418.653	5.75
419.015	5.73
419.377	5.77
419.738	5.83
420.1	5.69
420.461	5.71
420.822	5.75
421.184	5.56
421.545	5.72
421.906	5.53
422.267	5.68
422.629	5.63
422.99	5.7
423.351	5.78
423.712	5.62
424.073	5.74
424.434	5.54
424.795	5.58
425.155	5.73
425.516	5.64
425.877	5.69
426.238	5.72
426.598	5.71
426.959	5.72
427.32	5.6
427.68	5.77
428.041	5.69
428.401	5.78
428.761	5.89
429.122	5.72
429.482	5.63
429.842	5.89
430.202	5.8
430.563	5.86
430.923	5.82
431.283	5.66
431.643	5.93
432.003	5.86
432.363	5.86
432.722	6.08
433.082	5.87
433.442	5.93
433.802	5.84
434.161	5.78
434.521	6.08
434.881	5.98
435.24	5.75
435.6	5.86
435.959	5.86
436.319	5.75
436.678	6.02
437.037	5.87
437.396	5.81
437.756	5.94
438.115	5.87
438.474	6.12
438.833	5.8
439.192	5.81
439.551	6.04
439.91	6.03
440.269	5.99
440.628	6.04
440.987	5.97
441.345	5.83
441.704	5.87
442.063	5.79
442.421	5.89
442.78	5.88
443.138	5.93
443.497	5.93
443.855	5.93
444.214	6.07
444.572	5.98
444.93	5.85
445.288	6.06
445.647	6.09
446.005	5.9
446.363	5.92
446.721	6
447.079	5.9
447.437	5.89
447.795	6.12
448.153	5.93
448.51	5.92
448.868	5.93
449.226	5.97
449.584	5.89
449.941	6.03
450.299	6.1
450.656	6.01
451.014	5.97
451.371	5.8
451.729	5.91
452.086	6.38
452.443	6.09
452.801	6.2
453.158	6.03
453.515	5.99
453.872	6.1
454.229	5.91
454.586	5.98
454.943	5.95
455.3	5.98
455.657	6.07
456.014	5.95
456.371	6.1
456.727	5.94
457.084	6.18
457.441	5.99
457.797	6.11
458.154	6.27
458.51	6.19
458.867	6.36
459.223	6.32
459.58	6.16
459.936	6.27
460.292	6.23
460.648	6.18
461.005	6.1
461.361	6.23
461.717	6.23
462.073	6.05
462.429	6.05
462.785	6.2
463.141	5.99
463.496	6.18
463.852	6.23
464.208	6.21
464.564	6.44
464.919	6.34
465.275	6.32
465.631	6.21
465.986	6.16
466.342	6.13
466.697	6.06
467.052	6.21
467.408	6.33
467.763	6.44
468.118	6.41
468.473	6.23
468.829	6.25
469.184	6.18
469.539	6.3
469.894	6.09
470.249	6.53
470.603	6.37
470.958	6.37
471.313	6.35
471.668	6.38
472.023	6.3
472.377	6.27
472.732	6.5
473.086	6.3
473.441	5.99
473.795	6.45
474.15	6.39
474.504	6.38
474.859	6.29
475.213	6.22
475.567	6.29
475.921	6.22
476.275	6.18
476.63	6.33
476.984	6.51
477.338	6.6
477.692	6.19
478.045	6.28
478.399	6.42
478.753	6.26
479.107	6.36
479.461	6.38
479.814	6.33
480.168	6.34
480.521	6.2
480.875	6.4
481.228	6.32
481.582	6.37
481.935	6.3
482.289	6.35
482.642	6.35
482.995	6.26
483.348	6.28
483.701	6.43
484.055	6.45
484.408	6.51
484.761	6.27
485.114	6.3
485.466	6.16
485.819	6.22
486.172	6.11
486.525	6.07
486.878	6.1
487.23	6.14
487.583	6.23
487.936	6.29
488.288	6.31
488.641	6.44
488.993	6.32
489.345	6.27
489.698	6.2
490.05	6.18
490.402	6.22
490.754	6.21
491.107	6.25
491.459	6.34
491.811	6.34
492.163	6.29
492.515	6.34
492.866	6.41
493.218	6.39
493.57	6.27
493.922	6.32
494.274	6.39
494.625	6.38
494.977	6.4
495.328	6.4
495.68	6.38
496.031	6.67
496.383	6.56
496.734	6.49
497.086	6.54
497.437	6.56
497.788	6.62
498.139	6.61
498.49	6.62
498.842	6.43
499.193	6.62
499.544	6.52
499.894	6.54
500.245	6.44
500.596	6.55
500.947	6.74
501.298	6.58
501.648	6.7
501.999	6.76
502.35	6.64
502.7	6.73
503.051	6.52
503.401	6.74
503.752	6.82
504.102	6.65
504.452	6.72
504.803	6.75
505.153	6.6
505.503	6.95
505.853	6.71
506.203	6.73
506.553	6.69
506.903	6.58
507.253	6.6
507.603	6.67
507.953	6.71
508.303	6.79
508.652	6.57
509.002	6.91
509.352	6.72
509.701	6.92
510.051	6.71
510.4	6.83
510.75	6.63
511.099	6.64
511.449	6.73
511.798	6.69
512.147	6.83
512.496	6.75
512.846	6.82
513.195	6.74
513.544	6.72
513.893	6.87
514.242	6.68
514.591	6.85
514.939	6.74
515.288	6.79
515.637	6.82
515.986	6.84
516.334	6.76
516.683	6.88
517.032	6.91
517.38	7.06
517.729	6.84
518.077	6.81
518.426	6.83
518.774	7
519.122	6.87
519.47	6.74
519.819	6.68
520.167	6.81
520.515	6.9
520.863	6.78
521.211	6.88
521.559	6.94
521.907	6.75
522.255	6.88
522.602	6.89
522.95	6.85
523.298	6.81
523.645	6.87
523.993	6.98
524.341	6.94
524.688	6.85
525.036	6.86
525.383	7.14
525.73	7.22
526.078	6.94
526.425	6.92
526.772	6.98
527.119	6.94
527.466	6.96
527.814	6.88
528.161	6.78
528.508	6.8
528.854	6.8
529.201	6.84
529.548	6.75
529.895	6.86
530.242	6.76
530.588	6.68
530.935	6.76
531.282	6.7
531.628	6.68
531.975	6.71
532.321	6.84
532.667	6.85
533.014	6.87
533.36	6.94
533.706	6.94
534.052	6.89
534.399	6.92
534.745	6.93
535.091	6.92
535.437	6.94
535.783	6.89
536.129	6.88
536.474	6.82
536.82	6.9
537.166	6.93
537.512	6.97
537.857	7
538.203	7.19
538.549	7.05
538.894	7.04
539.239	6.99
539.585	7.01
539.93	6.83
540.276	7.11
540.621	7.24
540.966	7.15
541.311	7.05
541.656	7.03
542.001	7.1
542.346	7.16
542.691	7.14
543.036	7.02
543.381	6.95
543.726	6.9
544.071	7.01
544.415	6.93
544.76	6.9
545.105	6.95
545.449	7.07
545.794	7.2
546.138	7.08
546.483	7.08
546.827	7.19
547.171	7.13
547.516	7.34
547.86	6.98
548.204	7.08
548.548	7.14
548.892	7.16
549.236	7.21
549.58	7.12
549.924	7.26
550.268	7.22
550.612	7.24
550.956	7.53
551.3	7.48
551.643	7.46
551.987	7.4
552.33	7.37
552.674	7.36
553.017	7.27
553.361	7.26
553.704	7.53
554.048	7.21
554.391	7.14
554.734	7.21
555.077	7.32
555.42	7.18
555.764	7.29
556.107	7.22
556.45	7.21
556.793	7.2
557.135	7.39
557.478	7.44
557.821	7.35
558.164	7.26
558.507	7.31
558.849	7.4
559.192	7.39
559.534	7.28
559.877	7.43
560.219	7.17
560.562	7.71
560.904	7.48
561.246	7.44
561.589	7.31
561.931	7.35
562.273	7.31
562.615	7.52
562.957	7.49
563.299	7.35
563.641	7.61
563.983	7.35
564.325	7.36
564.667	7.28
565.008	7.34
565.35	7.5
565.692	7.28
566.033	7.44
566.375	7.51
566.716	7.53
567.058	7.4
567.399	7.48
567.741	7.4
568.082	7.38
568.423	7.68
568.764	7.39
569.105	7.56
569.447	7.61
569.788	7.38
570.129	7.43
570.47	7.44
570.811	7.82
571.151	7.54
571.492	7.71
571.833	7.54
572.174	7.58
572.514	7.56
572.855	7.54
573.195	7.57
573.536	7.46
573.876	7.48
574.217	7.61
574.557	7.69
574.898	7.83
575.238	7.51
575.578	7.42
575.918	7.58
576.258	7.42
576.598	7.6
576.938	7.53
577.278	7.51
577.618	7.6
577.958	7.49
578.298	7.66
578.638	7.61
578.977	7.61
579.317	7.67
579.657	7.62
579.996	7.67
580.336	7.68
580.675	7.75
581.014	7.8
581.354	7.78
581.693	7.64
582.032	7.69
582.372	7.64
582.711	7.73
583.05	7.53
583.389	7.74
583.728	7.55
584.067	7.84
584.406	7.84
584.745	7.78
585.083	7.85
585.422	7.7
585.761	7.78
586.1	7.79
586.438	7.78
586.777	7.58
587.115	7.66
587.454	7.47
587.792	7.7
588.13	8.1
588.469	7.71
588.807	7.87
589.145	7.71
589.483	7.52
589.821	7.89
590.159	7.43
590.497	7.89
590.835	8.15
591.173	7.64
591.511	7.95
591.849	8.01
592.187	7.84
592.524	7.67
592.862	7.81
593.2	7.9
593.537	7.74
593.875	7.62
594.212	7.64
594.55	7.67
594.887	8
595.224	7.9
595.561	7.81
595.899	7.87
596.236	8.02
596.573	7.95
596.91	7.37
597.247	7.63
597.584	8.1
597.921	7.7
598.258	7.67
598.594	7.83
598.931	7.83
599.268	7.95
599.604	7.75
599.941	7.65
600.277	7.62
600.614	7.64
600.95	7.68
601.287	7.94
601.623	7.67
601.959	7.69
602.296	8.1
602.632	7.51
602.968	7.95
603.304	7.81
603.64	7.87
603.976	8.08
604.312	7.87
604.648	7.89
604.984	7.96
605.319	8
605.655	7.97
605.991	7.84
606.326	7.91
606.662	8.14
606.998	7.76
607.333	7.92
607.668	7.88
608.004	7.9
608.339	8.17
608.674	8.09
609.01	7.89
609.345	7.46
609.68	8.01
610.015	7.58
610.35	7.67
610.685	7.99
611.02	8.05
611.355	8.22
611.689	7.82
612.024	8.09
612.359	8.17
612.694	7.98
613.028	7.76
613.363	8.05
613.697	7.94
614.032	8.24
614.366	7.91
614.7	8.27
615.035	8.21
615.369	7.49
615.703	8.08
616.037	8.05
616.371	7.55
616.705	7.93
617.039	7.92
617.373	8.02
617.707	8.13
618.041	8.03
618.375	8.29
618.709	8.14
619.042	7.96
619.376	7.83
619.71	8.2
620.043	7.85
620.377	8.04
620.71	8.25
621.043	8.26
621.377	8.23
621.71	8.24
622.043	7.92
622.376	7.51
622.709	8.5
623.043	8.2
623.376	8.12
623.709	8.2
624.041	8.41
624.374	8.13
624.707	8.19
625.04	8.18
625.373	7.65
625.705	8.04
626.038	7.73
626.37	8.08
626.703	8.31
627.035	8.36
627.368	8.39
627.7	8.15
628.032	8.15
628.365	8.54
628.697	8.33
629.029	8.09
629.361	7.9
629.693	8.31
630.025	7.84
630.357	8.42
630.689	8.35
631.021	8.14
631.353	8.7
631.684	8.18
632.016	8.12
632.348	8.26
632.679	8.42
633.011	8.38
633.342	8.5
633.674	8.22
634.005	8.26
634.336	8.09
634.668	8.64
634.999	7.93
635.33	8.57
635.661	8.44
635.992	8.49
636.323	8.42
636.654	8.41
636.985	8.3
637.316	8.34
637.647	7.83
637.977	8.46
638.308	8.14
638.639	8.01
638.969	8.18
639.3	7.76
639.63	8.08
639.961	8.25
640.291	8.08
640.622	8.41
640.952	8.25
641.282	8.73
641.612	8.52
641.943	8.28
642.273	8.72
642.603	9.02
642.933	8.86
643.263	8.42
643.592	8.2
643.922	8.43
644.252	8.14
644.582	8.16
644.911	8.09
645.241	8.59
645.571	8.53
645.9	8.3
646.23	8.37
646.559	8.53
646.888	7.9
647.218	8.12
647.547	8.84
647.876	7.91
648.205	7.95
648.534	8.03
648.863	7.76
649.192	8.96
649.521	8.55
649.85	8.07
650.179	8.28
650.508	8.12
650.837	8.03
651.165	7.76
651.494	8.63
651.822	8.29
652.151	8.25
652.479	8.41
652.808	8.49
653.136	8.73
653.465	8.03
653.793	7.82
654.121	8.38
654.449	8.57
654.777	8.71
655.105	8.84
655.433	8.24
655.761	8.26
656.089	8.78
656.417	8.58
656.745	8.38
657.073	8.29
657.4	8.78
657.728	8.73
658.056	8.59
658.383	8.09
658.711	8.96
659.038	8.42
659.365	8.33
659.693	8.7
660.02	8.35
660.347	8.56
660.674	8.53
661.001	8.5
661.329	8.56
661.656	8.71
661.982	8.82
662.309	8.39
662.636	8.5
662.963	8.82
663.29	8.53
663.616	8.8
663.943	8.24
664.27	8.66
664.596	9.17
664.923	8.5
665.249	8.42
665.576	8.23
665.902	9.56
666.228	8.96
666.554	9.05
666.881	8.6
667.207	8.64
667.533	8.95
667.859	8.32
668.185	9.4
668.511	8.06
668.837	7.55
669.162	8.37
669.488	8.1
669.814	9.02
670.139	8.82
670.465	9.1
670.791	8.75
671.116	9.15
671.442	8.5
671.767	8.58
672.092	8.97
672.418	9.27
672.743	8.83
673.068	8.69
673.393	8.59
673.718	9
674.043	8.61
674.368	8.54
674.693	9.57
675.018	8.99
675.343	8.22
675.667	8.39
675.992	9.45
676.317	8.81
676.641	8.56
676.966	9.32
677.29	8.7
677.615	9.23
677.939	9.01
678.264	9.12
678.588	9.06
678.912	8.69
679.236	9.3
679.56	8.97
679.885	9.36
680.209	8.7
680.532	9.01
680.856	9.99
681.18	9.03
681.504	8.51
681.828	9.16
682.152	8.74
682.475	9.12
682.799	9.1
683.122	8.92
683.446	8.55
683.769	8.93
684.093	9.38
684.416	9.62
684.739	9.6
685.062	9.15
685.386	9.42
685.709	8.75
686.032	8.65
686.355	8.92
686.678	9.58
687.001	9.16
687.324	9.15
687.646	7.87
687.969	8.44
688.292	8.35
688.614	9
688.937	10.01
689.26	7.73
689.582	9.68
689.904	8.42
690.227	9.59
690.549	9.3
690.871	9.73
691.194	9.65
691.516	8.82
691.838	8.83
692.16	8.16
692.482	8.59
692.804	8.98
