Data from 434_forehead_Reflection__2__259.txt Node

Date: Fri Dec 15 18:37:20 CST 2023
User: ToomeyLab
Spectrometer: FLMS14357
Trigger mode: 0
Integration Time (sec): 1.000000E-2
Scans to average: 100
Electric dark correction enabled: true
Nonlinearity correction enabled: false
Boxcar width: 0
XAxis mode: Wavelengths
Number of Pixels in Spectrum: 2048
>>>>>Begin Spectral Data<<<<<
189.047	7.22
189.435	7.22
189.823	7.22
190.211	214.58
190.599	-48.95
190.987	93.28
191.375	7.37
191.763	-16.62
192.151	189.85
192.538	38.92
192.926	560.15
193.314	159.57
193.702	-1305.66
194.089	99.62
194.477	-52.97
194.864	52.03
195.252	73.45
195.639	95.26
196.027	-572.77
196.414	336.72
196.801	3647.25
197.189	38.62
197.576	338.67
197.963	64.95
198.351	-40.03
198.738	29.7
199.125	22.67
199.512	4.21
199.899	1.09
200.286	-25.07
200.673	2.81
201.06	25
201.447	-21.08
201.833	29.8
202.22	7.79
202.607	39.1
202.994	10.72
203.38	27.07
203.767	1.84
204.154	34.3
204.54	24.46
204.927	-292.09
205.313	-12.5
205.699	36.62
206.086	36.35
206.472	55.44
206.858	26.25
207.245	-42.09
207.631	37.76
208.017	-7.55
208.403	-38.4
208.789	10.04
209.175	19.12
209.561	-60.5
209.947	-20.25
210.333	-58.33
210.719	20.19
211.105	32.05
211.491	-48.64
211.876	21.66
212.262	-4.04
212.648	0.86
213.034	-24.11
213.419	-43.29
213.805	-12.81
214.19	-40.32
214.576	26.15
214.961	-34.89
215.346	-95.47
215.732	28.36
216.117	-3.07
216.502	19.75
216.888	-5.12
217.273	7.06
217.658	16.39
218.043	28.02
218.428	-32.49
218.813	-34.79
219.198	-11.44
219.583	17.68
219.968	15.34
220.353	-56.57
220.738	18.29
221.122	11.22
221.507	-9.17
221.892	-9.7
222.276	-25.72
222.661	-5.04
223.046	4.83
223.43	25.3
223.815	2.91
224.199	-15.12
224.583	7
224.968	10.77
225.352	18.91
225.736	-1
226.121	-11.18
226.505	3.52
226.889	10.84
227.273	-3.74
227.657	11.32
228.041	0.63
228.425	6.03
228.809	9.36
229.193	2.99
229.577	2.18
229.961	2.27
230.344	3.34
230.728	3.39
231.112	3.92
231.495	3.17
231.879	1.64
232.263	3.87
232.646	5.14
233.03	3.34
233.413	2.93
233.797	4.25
234.18	2.55
234.563	3.55
234.946	2.64
235.33	5.4
235.713	7.02
236.096	3.09
236.479	2.87
236.862	2.79
237.245	4.61
237.628	2.33
238.011	3.97
238.394	4.8
238.777	4.02
239.16	2.86
239.543	4.26
239.925	4.2
240.308	1.74
240.691	5.67
241.073	3.45
241.456	4.69
241.838	2.34
242.221	2.82
242.603	4
242.986	4.21
243.368	4.37
243.75	4.37
244.133	3.57
244.515	4.13
244.897	4.35
245.279	3.8
245.661	4.61
246.043	3.8
246.425	2.77
246.807	4.4
247.189	4.17
247.571	3.81
247.953	4.5
248.335	3.76
248.717	4.19
249.098	4.2
249.48	4.14
249.862	4.23
250.243	4.27
250.625	4.33
251.006	4.36
251.388	2.59
251.769	3.63
252.151	4.64
252.532	4.1
252.913	3.92
253.295	4.41
253.676	3.67
254.057	4.31
254.438	4.51
254.819	3.89
255.2	3.48
255.581	3.98
255.962	3.58
256.343	4.2
256.724	3.55
257.105	4.67
257.486	3.22
257.867	4.04
258.247	4.6
258.628	4.57
259.009	4.26
259.389	3.92
259.77	4.22
260.15	2.95
260.531	3.13
260.911	4.42
261.292	4.05
261.672	4.1
262.052	4.09
262.432	4.41
262.813	3.96
263.193	3.49
263.573	3.25
263.953	3.63
264.333	3.93
264.713	3.93
265.093	3.21
265.473	4.15
265.853	3.53
266.233	4.51
266.612	2.08
266.992	2.76
267.372	4.84
267.752	3.89
268.131	3.07
268.511	4.49
268.89	4.25
269.27	3.73
269.649	3.62
270.029	3.47
270.408	4.68
270.787	3.7
271.167	4.38
271.546	3.96
271.925	3.77
272.304	4.33
272.683	4.52
273.062	3.73
273.441	4.12
273.82	3.82
274.199	3.86
274.578	3.86
274.957	4.09
275.336	3.59
275.715	3.63
276.093	3.82
276.472	3.94
276.851	3.41
277.229	3.5
277.608	3.31
277.986	3.46
278.365	3.84
278.743	3.5
279.122	3.89
279.5	3.98
279.878	4.3
280.257	3.96
280.635	3.21
281.013	3.43
281.391	3.57
281.769	3.77
282.147	3.71
282.525	4.53
282.903	3.6
283.281	3.89
283.659	3.84
284.037	4.14
284.415	4.72
284.792	4.13
285.17	2.97
285.548	3.37
285.925	4.24
286.303	3.7
286.68	3.82
287.058	3.77
287.435	3.83
287.813	3.76
288.19	3.72
288.567	4.05
288.945	4.58
289.322	3.8
289.699	3.87
290.076	3.9
290.453	3.92
290.83	3.92
291.207	3.92
291.584	4.15
291.961	4.4
292.338	4.13
292.715	4.57
293.092	4.15
293.469	4.28
293.845	3.93
294.222	3.58
294.599	4.39
294.975	3.94
295.352	4.39
295.728	3.97
296.105	4.4
296.481	4.73
296.858	4.37
297.234	3.98
297.61	4.19
297.986	4.77
298.363	4.93
298.739	4.85
299.115	4.34
299.491	4.34
299.867	4.64
300.243	4.77
300.619	4.52
300.995	4.79
301.371	4.91
301.746	4.63
302.122	5.36
302.498	4.61
302.874	5.09
303.249	5.14
303.625	5.08
304	4.97
304.376	4.73
304.751	4.48
305.127	5.68
305.502	4.51
305.878	4.08
306.253	4.51
306.628	5.79
307.003	4.75
307.378	4.98
307.754	5.54
308.129	4.91
308.504	4.89
308.879	5.04
309.254	5.47
309.629	5.72
310.003	5.59
310.378	5.7
310.753	5.85
311.128	5.68
311.502	5.71
311.877	6.02
312.252	4.94
312.626	5.62
313.001	5.14
313.375	5.64
313.75	5.19
314.124	5.68
314.498	5.5
314.873	5.59
315.247	4.77
315.621	5.65
315.995	5.06
316.369	5.29
316.743	5.32
317.117	5.55
317.491	6.29
317.865	5.63
318.239	5.95
318.613	5.91
318.987	5.71
319.361	5.48
319.734	5.79
320.108	5.92
320.482	5.77
320.855	6.53
321.229	5.98
321.602	6.06
321.976	6.04
322.349	5.93
322.723	5.8
323.096	6.32
323.469	5.58
323.843	5.67
324.216	6.5
324.589	5.61
324.962	5.95
325.335	5.89
325.708	6.12
326.081	5.84
326.454	6.17
326.827	5.88
327.2	5.8
327.573	6.54
327.945	6.52
328.318	6.18
328.691	5.62
329.063	5.8
329.436	5.66
329.809	7.49
330.181	5.9
330.553	6.16
330.926	5.74
331.298	6.67
331.671	6.18
332.043	7.05
332.415	6.7
332.787	6.2
333.159	6.91
333.532	7.17
333.904	6.67
334.276	6.14
334.648	6.62
335.02	6.1
335.391	6.38
335.763	5.86
336.135	6.25
336.507	6.34
336.879	6.54
337.25	6.16
337.622	6.15
337.993	5.68
338.365	6.39
338.736	6.64
339.108	6.45
339.479	6.43
339.851	6.57
340.222	6.78
340.593	6.76
340.964	6.74
341.336	6.99
341.707	6.46
342.078	6.78
342.449	7.16
342.82	6.55
343.191	6.64
343.562	6.94
343.933	6.5
344.303	6.69
344.674	7.19
345.045	6.54
345.416	7
345.786	6.06
346.157	6.63
346.527	6.51
346.898	6.43
347.268	6.51
347.639	6.38
348.009	6.89
348.38	6.78
348.75	7.19
349.12	6.48
349.49	6.91
349.861	6.82
350.231	6.83
350.601	6.56
350.971	7.43
351.341	7.28
351.711	7.19
352.081	7.21
352.45	6.93
352.82	7.28
353.19	6.8
353.56	6.63
353.929	6.86
354.299	6.58
354.669	6.78
355.038	7.01
355.408	7.05
355.777	7.06
356.147	6.96
356.516	6.71
356.885	6.75
357.254	7.06
357.624	6.98
357.993	6.95
358.362	6.72
358.731	6.64
359.1	7.09
359.469	7.07
359.838	7.25
360.207	6.83
360.576	6.99
360.945	7.09
361.314	7.46
361.682	6.96
362.051	7.08
362.42	7.11
362.788	7.13
363.157	6.92
363.525	7.32
363.894	7.12
364.262	6.99
364.631	7.25
364.999	7.09
365.367	6.55
365.735	8.02
366.104	7.46
366.472	7.67
366.84	7.09
367.208	7.19
367.576	7.34
367.944	8.03
368.312	7.3
368.68	7.25
369.048	7.35
369.416	7.22
369.783	7.08
370.151	7.86
370.519	7.87
370.886	7.66
371.254	7.02
371.621	7.45
371.989	7.06
372.356	7.06
372.724	7.25
373.091	7.14
373.458	7.59
373.826	7.33
374.193	7.49
374.56	7.85
374.927	7.43
375.294	7.6
375.661	7.54
376.028	7.26
376.395	7.27
376.762	7.54
377.129	7.69
377.496	7.34
377.863	7.21
378.229	7.16
378.596	7.36
378.963	7.62
379.329	7.58
379.696	7.57
380.062	7.62
380.429	7.64
380.795	7.52
381.161	7.79
381.528	7.8
381.894	7.55
382.26	7.46
382.626	8.13
382.993	7.25
383.359	7.95
383.725	7.47
384.091	7.59
384.457	7.99
384.823	7.76
385.188	7.78
385.554	7.75
385.92	7.92
386.286	7.83
386.651	8.18
387.017	7.78
387.383	7.76
387.748	8.15
388.114	8.1
388.479	7.64
388.845	8.4
389.21	8.03
389.575	8.07
389.94	7.92
390.306	8
390.671	8.14
391.036	7.83
391.401	7.73
391.766	7.81
392.131	7.85
392.496	8.04
392.861	8
393.226	8.41
393.591	8.09
393.956	7.88
394.32	8.09
394.685	8.11
395.05	7.9
395.414	8.25
395.779	7.97
396.143	7.97
396.508	7.99
396.872	8.13
397.236	8.02
397.601	8
397.965	8.32
398.329	8.39
398.694	8.17
399.058	8.51
399.422	8.11
399.786	8.44
400.15	8.48
400.514	8.36
400.878	8.21
401.242	8.42
401.605	8.35
401.969	8.19
402.333	8.33
402.697	8.53
403.06	8.53
403.424	8.46
403.787	8.32
404.151	8.65
404.514	8.47
404.878	8.26
405.241	8.62
405.604	8.09
405.968	8.4
406.331	8.42
406.694	8.83
407.057	8.49
407.42	8.67
407.783	8.47
408.146	8.56
408.509	8.6
408.872	8.6
409.235	8.67
409.598	8.87
409.961	8.47
410.323	8.68
410.686	8.71
411.049	8.3
411.411	8.36
411.774	8.66
412.136	8.86
412.499	8.49
412.861	8.61
413.223	8.6
413.586	8.84
413.948	8.67
414.31	8.72
414.672	8.58
415.035	8.64
415.397	8.97
415.759	8.57
416.121	8.95
416.483	8.54
416.845	8.64
417.206	8.43
417.568	8.91
417.93	8.42
418.292	8.75
418.653	8.78
419.015	8.84
419.377	8.76
419.738	8.66
420.1	8.78
420.461	8.86
420.822	8.84
421.184	8.88
421.545	8.92
421.906	8.68
422.267	8.75
422.629	8.76
422.99	8.73
423.351	8.65
423.712	8.79
424.073	8.8
424.434	8.69
424.795	8.86
425.155	8.89
425.516	8.8
425.877	8.77
426.238	8.85
426.598	8.97
426.959	8.96
427.32	8.97
427.68	8.91
428.041	8.91
428.401	9.28
428.761	9.16
429.122	9.26
429.482	9.12
429.842	9.35
430.202	9.4
430.563	9.3
430.923	9.16
431.283	9.26
431.643	9.29
432.003	9.35
432.363	9.3
432.722	9.21
433.082	9.53
433.442	9.41
433.802	9.31
434.161	9.45
434.521	9.73
434.881	9.59
435.24	9.27
435.6	9.4
435.959	9.38
436.319	9.47
436.678	9.49
437.037	9.57
437.396	9.46
437.756	9.68
438.115	9.31
438.474	9.81
438.833	9.36
439.192	9.44
439.551	9.72
439.91	9.66
440.269	9.65
440.628	9.6
440.987	9.57
441.345	9.48
441.704	9.64
442.063	9.66
442.421	9.54
442.78	9.6
443.138	9.62
443.497	9.7
443.855	9.72
444.214	9.88
444.572	9.8
444.93	9.83
445.288	9.96
445.647	9.81
446.005	9.85
446.363	9.79
446.721	10
447.079	9.7
447.437	9.76
447.795	9.8
448.153	9.68
448.51	9.7
448.868	9.78
449.226	9.72
449.584	9.8
449.941	10.03
450.299	9.97
450.656	10.08
451.014	10.06
451.371	9.95
451.729	9.9
452.086	10.51
452.443	10.29
452.801	10.25
453.158	10.15
453.515	10.24
453.872	10.37
454.229	10.11
454.586	10.13
454.943	10.19
455.3	10.49
455.657	10.12
456.014	10.3
456.371	10.23
456.727	10.32
457.084	10.38
457.441	10.33
457.797	10.43
458.154	10.61
458.51	10.59
458.867	10.59
459.223	10.4
459.58	10.61
459.936	10.54
460.292	10.31
460.648	10.38
461.005	10.47
461.361	10.49
461.717	10.38
462.073	10.3
462.429	10.46
462.785	10.52
463.141	10.55
463.496	10.79
463.852	10.76
464.208	10.63
464.564	10.91
464.919	10.86
465.275	10.74
465.631	10.9
465.986	10.82
466.342	10.9
466.697	10.57
467.052	11.07
467.408	11.01
467.763	10.9
468.118	10.74
468.473	10.84
468.829	10.93
469.184	10.83
469.539	11.14
469.894	10.98
470.249	10.97
470.603	11.2
470.958	11.05
471.313	11.16
471.668	11.29
472.023	11.24
472.377	11.17
472.732	11.07
473.086	11.08
473.441	11.07
473.795	11.32
474.15	11.29
474.504	11.2
474.859	11.45
475.213	11.15
475.567	11.36
475.921	11.29
476.275	11.19
476.63	11.45
476.984	11.68
477.338	11.44
477.692	11.35
478.045	11.26
478.399	11.39
478.753	11.52
479.107	11.41
479.461	11.44
479.814	11.45
480.168	11.58
480.521	11.38
480.875	11.31
481.228	11.44
481.582	11.66
481.935	11.52
482.289	11.55
482.642	11.55
482.995	11.41
483.348	11.53
483.701	11.39
484.055	11.45
484.408	11.52
484.761	11.26
485.114	11.21
485.466	10.89
485.819	10.88
486.172	11.01
486.525	11.21
486.878	11.31
487.23	11.53
487.583	11.59
487.936	11.62
488.288	11.62
488.641	11.54
488.993	11.3
489.345	11.29
489.698	11.37
490.05	11.39
490.402	11.6
490.754	11.7
491.107	11.79
491.459	11.87
491.811	11.91
492.163	12
492.515	11.95
492.866	11.91
493.218	11.66
493.57	11.6
493.922	11.73
494.274	11.91
494.625	12.19
494.977	12.16
495.328	12.33
495.68	12.29
496.031	12.51
496.383	12.34
496.734	12.53
497.086	12.51
497.437	12.54
497.788	12.47
498.139	12.29
498.49	12.37
498.842	12.24
499.193	12.36
499.544	12.41
499.894	12.46
500.245	12.52
500.596	12.52
500.947	12.74
501.298	12.51
501.648	12.68
501.999	12.92
502.35	12.66
502.7	12.82
503.051	12.65
503.401	12.76
503.752	12.89
504.102	12.61
504.452	12.96
504.803	12.97
505.153	12.91
505.503	12.92
505.853	12.89
506.203	12.69
506.553	12.79
506.903	12.96
507.253	13.06
507.603	12.84
507.953	13.24
508.303	13.3
508.652	12.92
509.002	13.07
509.352	13.17
509.701	13.14
510.051	13.02
510.4	13.03
510.75	13.14
511.099	12.98
511.449	12.99
511.798	13.23
512.147	13.26
512.496	13.35
512.846	13.37
513.195	13.34
513.544	13.24
513.893	13.57
514.242	13.48
514.591	13.46
514.939	13.53
515.288	13.49
515.637	13.51
515.986	13.55
516.334	13.66
516.683	13.77
517.032	13.71
517.38	13.76
517.729	13.74
518.077	13.58
518.426	13.77
518.774	13.77
519.122	13.78
519.47	13.71
519.819	13.54
520.167	13.72
520.515	13.64
520.863	13.66
521.211	13.77
521.559	13.93
521.907	13.73
522.255	13.91
522.602	13.98
522.95	14.04
523.298	14.18
523.645	14.18
523.993	14.04
524.341	14.25
524.688	14.27
525.036	14.14
525.383	14.28
525.73	14.39
526.078	14.1
526.425	14.13
526.772	14.14
527.119	14.2
527.466	14.11
527.814	14.01
528.161	14.26
528.508	14.16
528.854	14.26
529.201	14.16
529.548	14.11
529.895	14.06
530.242	13.75
530.588	13.71
530.935	13.93
531.282	14.06
531.628	14.21
531.975	14.37
532.321	14.49
532.667	14.56
533.014	14.74
533.36	14.57
533.706	14.69
534.052	14.71
534.399	14.56
534.745	14.45
535.091	14.32
535.437	14.4
535.783	14.5
536.129	14.71
536.474	14.83
536.82	14.93
537.166	14.96
537.512	15.04
537.857	14.88
538.203	14.98
538.549	14.78
538.894	14.9
539.239	15.07
539.585	15.12
539.93	15.12
540.276	15.48
540.621	15.43
540.966	15.41
541.311	15.42
541.656	15.26
542.001	15.37
542.346	15.29
542.691	15.15
543.036	14.98
543.381	14.79
543.726	15.04
544.071	15.28
544.415	15.47
544.76	15.43
545.105	15.47
545.449	15.51
545.794	15.75
546.138	15.81
546.483	15.93
546.827	15.92
547.171	15.71
547.516	16.02
547.86	15.83
548.204	15.96
548.548	15.84
548.892	16.03
549.236	15.97
549.58	15.97
549.924	16.07
550.268	16.32
550.612	16.37
550.956	16.52
551.3	16.29
551.643	16.47
551.987	16.71
552.33	16.41
552.674	16.61
553.017	16.54
553.361	16.43
553.704	16.85
554.048	16.55
554.391	16.75
554.734	16.65
555.077	16.77
555.42	16.66
555.764	16.82
556.107	16.73
556.45	16.73
556.793	16.99
557.135	17.05
557.478	17.13
557.821	17.04
558.164	17.01
558.507	17.08
558.849	17.16
559.192	17.25
559.534	17.05
559.877	17.33
560.219	17.05
560.562	17.43
560.904	17.1
561.246	17.36
561.589	17.55
561.931	17.44
562.273	17.6
562.615	17.72
562.957	17.39
563.299	17.42
563.641	17.67
563.983	17.6
564.325	17.66
564.667	17.73
565.008	17.64
565.35	17.81
565.692	17.53
566.033	17.76
566.375	17.91
566.716	18
567.058	17.7
567.399	17.96
567.741	17.78
568.082	17.92
568.423	17.77
568.764	17.94
569.105	18.18
569.447	18.06
569.788	18.19
570.129	18.26
570.47	18.17
570.811	18.45
571.151	18.45
571.492	18.32
571.833	18.4
572.174	18.17
572.514	18.34
572.855	18.34
573.195	18.42
573.536	18.5
573.876	18.27
574.217	18.33
574.557	18.36
574.898	18.75
575.238	18.81
575.578	18.51
575.918	18.72
576.258	18.79
576.598	18.98
576.938	18.6
577.278	18.61
577.618	18.8
577.958	18.71
578.298	19.08
578.638	19.29
578.977	18.9
579.317	18.75
579.657	19.17
579.996	19.42
580.336	19.44
580.675	19.41
581.014	19.26
581.354	19.26
581.693	19.63
582.032	19.55
582.372	19.49
582.711	19.6
583.05	19.58
583.389	19.35
583.728	19.67
584.067	19.78
584.406	19.76
584.745	20.02
585.083	19.89
585.422	20.22
585.761	19.99
586.1	19.95
586.438	20.1
586.777	20.05
587.115	20.06
587.454	20.13
587.792	20.03
588.13	19.98
588.469	19.84
588.807	20.22
589.145	20.23
589.483	20.43
589.821	20.16
590.159	19.93
590.497	20.76
590.835	20.73
591.173	20.1
591.511	20.31
591.849	20.39
592.187	20.63
592.524	20.62
592.862	20.46
593.2	20.93
593.537	20.31
593.875	20.64
594.212	20.96
594.55	20.73
594.887	20.61
595.224	20.65
595.561	20.59
595.899	20.88
596.236	20.86
596.573	20.96
596.91	20.65
597.247	20.71
597.584	21.4
597.921	21.22
598.258	21.04
598.594	21.05
598.931	21.14
599.268	21.08
599.604	21.03
599.941	21.16
600.277	21.52
600.614	21.08
600.95	21.47
601.287	21.65
601.623	21.54
601.959	21.71
602.296	21.51
602.632	21.69
602.968	21.76
603.304	21.64
603.64	21.73
603.976	22
604.312	21.62
604.648	21.72
604.984	21.72
605.319	21.72
605.655	21.52
605.991	21.77
606.326	22.04
606.662	21.81
606.998	21.7
607.333	21.9
607.668	22.03
608.004	22.3
608.339	22.54
608.674	22.35
609.01	21.97
609.345	22.57
609.68	22.5
610.015	22.42
610.35	22.22
610.685	22.52
611.02	22.44
611.355	22.37
611.689	22.59
612.024	22.81
612.359	22.5
612.694	22.91
613.028	22.96
613.363	22.89
613.697	22.82
614.032	22.93
614.366	22.85
614.7	23.23
615.035	22.99
615.369	22.96
615.703	22.98
616.037	23.06
616.371	23.24
616.705	23.13
617.039	23.36
617.373	22.97
617.707	23.5
618.041	23.49
618.375	23.26
618.709	23.43
619.042	23.24
619.376	23.81
619.71	23.71
620.043	23.85
620.377	23.61
620.71	23.93
621.043	23.82
621.377	23.7
621.71	23.94
622.043	24.02
622.376	23.53
622.709	24.02
623.043	24.14
623.376	24.34
623.709	23.88
624.041	24.26
624.374	23.78
624.707	24.2
625.04	24.31
625.373	24.14
625.705	24.49
626.038	23.84
626.37	24.33
626.703	24.32
627.035	24.8
627.368	24.63
627.7	24.2
628.032	24.82
628.365	24.97
628.697	24.62
629.029	24.33
629.361	24.68
629.693	24.95
630.025	24.69
630.357	25.33
630.689	24.92
631.021	24.72
631.353	25.19
631.684	24.5
632.016	24.74
632.348	24.78
632.679	25.29
633.011	25.33
633.342	25.3
633.674	25.06
634.005	25.35
634.336	25.24
634.668	25.5
634.999	25.42
635.33	25.44
635.661	25.55
635.992	25.4
636.323	25.81
636.654	25.55
636.985	25.41
637.316	25.44
637.647	25.56
637.977	25.81
638.308	26.28
638.639	25.48
638.969	25.7
639.3	25.61
639.63	25.66
639.961	26.27
640.291	26.03
640.622	26.4
640.952	25.93
641.282	26.51
641.612	26.16
641.943	26.06
642.273	26.11
642.603	26.56
642.933	27.37
643.263	27.16
643.592	26.66
643.922	26.87
644.252	26.67
644.582	26.51
644.911	26.18
645.241	26.3
645.571	26.85
645.9	26.24
646.23	26.35
646.559	26.65
646.888	26.41
647.218	26.77
647.547	26.64
647.876	26.68
648.205	27.25
648.534	27.27
648.863	26.33
649.192	27.49
649.521	26.98
649.85	26.46
650.179	26.95
650.508	26.93
650.837	27.13
651.165	26.66
651.494	27.34
651.822	27.32
652.151	27.63
652.479	27.29
652.808	26.83
653.136	27.6
653.465	27.38
653.793	27.15
654.121	26.93
654.449	27.65
654.777	28.04
655.105	27.7
655.433	27.4
655.761	27.56
656.089	28.09
656.417	27.64
656.745	27.85
657.073	27.87
657.4	28.7
657.728	28.21
658.056	27.78
658.383	28.46
658.711	28.38
659.038	27.6
659.365	28.01
659.693	28.23
660.02	28.36
660.347	28.74
660.674	28.35
661.001	28.32
661.329	28.01
661.656	28.3
661.982	28.86
662.309	28.07
662.636	28.24
662.963	28.56
663.29	29
663.616	28.84
663.943	29.06
664.27	28.95
664.596	28.19
664.923	29
665.249	29.06
665.576	28.28
665.902	29.48
666.228	29.48
666.554	29.15
666.881	29.02
667.207	28.65
667.533	29.01
667.859	29.55
668.185	29.3
668.511	28.85
668.837	28.41
669.162	28.4
669.488	29.03
669.814	29.29
670.139	28.78
670.465	30.46
670.791	29.77
671.116	29.93
671.442	28.93
671.767	29.82
672.092	29.78
672.418	30.24
672.743	30.04
673.068	29.44
673.393	30.51
673.718	29.45
674.043	30.68
674.368	30.07
674.693	29.79
675.018	30.29
675.343	29.87
675.667	30.25
675.992	30.21
676.317	30.81
676.641	30.61
676.966	30.8
