Data from 434_crown_Reflection__1__253.txt Node

Date: Fri Dec 15 18:35:59 CST 2023
User: ToomeyLab
Spectrometer: FLMS14357
Trigger mode: 0
Integration Time (sec): 1.000000E-2
Scans to average: 100
Electric dark correction enabled: true
Nonlinearity correction enabled: false
Boxcar width: 0
XAxis mode: Wavelengths
Number of Pixels in Spectrum: 2048
>>>>>Begin Spectral Data<<<<<
189.047	2.52
189.435	2.52
189.823	2.52
190.211	254.37
190.599	55.37
190.987	8.98
191.375	-73.45
191.763	50.93
192.151	84.05
192.538	58.04
192.926	2286.47
193.314	190.12
193.702	-788.02
194.089	-10.75
194.477	8.36
194.864	94.72
195.252	134.19
195.639	108.92
196.027	-680.78
196.414	26.57
196.801	1651.65
197.189	-19.91
197.576	305.46
197.963	79.16
198.351	-13.29
198.738	-50.37
199.125	19.64
199.512	-105.47
199.899	7.22
200.286	32.49
200.673	-4.55
201.06	-76.44
201.447	-10.1
201.833	0.59
202.22	46.72
202.607	31.68
202.994	26.6
203.38	-5
203.767	30.96
204.154	14.08
204.54	46.24
204.927	-63.96
205.313	1.97
205.699	17.01
206.086	43.07
206.472	24.86
206.858	69.54
207.245	-33.12
207.631	25.76
208.017	13.82
208.403	-6.2
208.789	20.99
209.175	-18.39
209.561	-9.34
209.947	-18.92
210.333	-20.27
210.719	7.63
211.105	6.26
211.491	-74.07
211.876	28.76
212.262	22.65
212.648	30.43
213.034	16.48
213.419	3.14
213.805	-11.05
214.19	-6.42
214.576	17.64
214.961	47.84
215.346	-36.72
215.732	-0.99
216.117	-21.68
216.502	-3.95
216.888	15.75
217.273	21.92
217.658	16.64
218.043	51.59
218.428	-49.69
218.813	-35.9
219.198	-10.22
219.583	28.86
219.968	14.3
220.353	-23.82
220.738	27.19
221.122	17.57
221.507	6.12
221.892	-42.37
222.276	10.66
222.661	10.54
223.046	5.76
223.43	21.94
223.815	16.14
224.199	11.21
224.583	8.5
224.968	-3.51
225.352	19.34
225.736	15.99
226.121	-7.38
226.505	2.05
226.889	13.22
227.273	5.57
227.657	15.08
228.041	6.76
228.425	8.95
228.809	16.76
229.193	12.64
229.577	11.57
229.961	10.59
230.344	10.08
230.728	9.54
231.112	10.17
231.495	10.31
231.879	9.57
232.263	11.07
232.646	10.37
233.03	11.47
233.413	8.35
233.797	11.64
234.18	11.03
234.563	9.73
234.946	7.63
235.33	11.72
235.713	11.03
236.096	9.63
236.479	11.74
236.862	9.31
237.245	12.68
237.628	9.91
238.011	8.59
238.394	10.3
238.777	10.17
239.16	8.85
239.543	8.31
239.925	11.47
240.308	11.16
240.691	11.15
241.073	9.76
241.456	10.44
241.838	10.96
242.221	9.72
242.603	10.75
242.986	10.49
243.368	10.4
243.75	10.76
244.133	10.09
244.515	10.09
244.897	10.36
245.279	9.65
245.661	8.92
246.043	8.18
246.425	7.97
246.807	10.38
247.189	9.52
247.571	9.8
247.953	11.06
248.335	10.04
248.717	10.01
249.098	9.82
249.48	9.65
249.862	9.41
250.243	9.34
250.625	9.52
251.006	9.64
251.388	8.21
251.769	10.43
252.151	10.16
252.532	9.9
252.913	8.55
253.295	8.77
253.676	8.81
254.057	9.52
254.438	9.35
254.819	9.17
255.2	9.16
255.581	10.36
255.962	9.15
256.343	8.11
256.724	9.41
257.105	8.55
257.486	9.99
257.867	9.57
258.247	9.88
258.628	9.23
259.009	7.53
259.389	9.05
259.77	8.36
260.15	8.6
260.531	9.07
260.911	9.77
261.292	9.03
261.672	9.41
262.052	8.88
262.432	8.86
262.813	8.7
263.193	8.56
263.573	9.19
263.953	9.26
264.333	9.38
264.713	9.07
265.093	8.53
265.473	8.87
265.853	8.14
266.233	9.65
266.612	7.77
266.992	7.2
267.372	8.87
267.752	8.62
268.131	8.83
268.511	9.59
268.89	9.46
269.27	8.59
269.649	8.28
270.029	8.03
270.408	9.58
270.787	8.76
271.167	9.51
271.546	9.47
271.925	8.41
272.304	8.66
272.683	9.39
273.062	8.77
273.441	8.59
273.82	7.91
274.199	8.55
274.578	8.29
274.957	8.56
275.336	8.83
275.715	7.87
276.093	7.61
276.472	8.79
276.851	8.41
277.229	8.03
277.608	7.99
277.986	8.89
278.365	8.78
278.743	8.37
279.122	8.67
279.5	8.57
279.878	8.42
280.257	7.86
280.635	7.23
281.013	8.88
281.391	8.57
281.769	8.54
282.147	8.27
282.525	8.93
282.903	8.29
283.281	8.29
283.659	8.79
284.037	8.34
284.415	8.42
284.792	8.4
285.17	7.27
285.548	7.7
285.925	8.72
286.303	8.06
286.68	7.84
287.058	7.77
287.435	7.99
287.813	8.26
288.19	7.78
288.567	7.94
288.945	8.13
289.322	7.87
289.699	8.24
290.076	7.97
290.453	8.05
290.83	7.9
291.207	8.33
291.584	8.25
291.961	8.25
292.338	8.09
292.715	8.27
293.092	7.54
293.469	8.19
293.845	8.06
294.222	7.42
294.599	8.21
294.975	7.82
295.352	7.96
295.728	7.6
296.105	7.63
296.481	8.38
296.858	8.34
297.234	7.89
297.61	7.77
297.986	8.12
298.363	8.09
298.739	7.78
299.115	7.97
299.491	7.57
299.867	7.8
300.243	7.86
300.619	7.24
300.995	7.87
301.371	7.72
301.746	7.61
302.122	8.52
302.498	7.79
302.874	8.11
303.249	7.78
303.625	8.19
304	8.39
304.376	7.73
304.751	7.51
305.127	8.52
305.502	7.11
305.878	7.37
306.253	7.91
306.628	8.02
307.003	7.73
307.378	8.33
307.754	8.1
308.129	7.1
308.504	8.22
308.879	7.46
309.254	8.14
309.629	8
310.003	7.77
310.378	8.43
310.753	7.87
311.128	7.72
311.502	7.7
311.877	7.92
312.252	7.59
312.626	7.79
313.001	7.52
313.375	8.13
313.75	7.46
314.124	7.94
314.498	7.34
314.873	7.4
315.247	7.44
315.621	7.93
315.995	6.88
316.369	7.64
316.743	7.51
317.117	7.85
317.491	7.41
317.865	7.39
318.239	7.92
318.613	7.92
318.987	7.7
319.361	7.83
319.734	7.79
320.108	7.95
320.482	8.08
320.855	7.73
321.229	7.54
321.602	7.34
321.976	7.82
322.349	7.6
322.723	7.91
323.096	7.92
323.469	7.1
323.843	7.54
324.216	8.31
324.589	6.99
324.962	7.59
325.335	7.73
325.708	7.54
326.081	7.66
326.454	7.25
326.827	7.71
327.2	7.89
327.573	8.14
327.945	7.73
328.318	7.61
328.691	7.28
329.063	7.93
329.436	7.45
329.809	8.09
330.181	7.58
330.553	7.51
330.926	7.74
331.298	7.7
331.671	7.34
332.043	8.69
332.415	7.91
332.787	7.52
333.159	8
333.532	7.8
333.904	7.56
334.276	7.62
334.648	7.26
335.02	7.9
335.391	7.83
335.763	7.51
336.135	7.51
336.507	7.83
336.879	7.36
337.25	7.09
337.622	7.63
337.993	7.49
338.365	7.66
338.736	7.55
339.108	8.03
339.479	7.13
339.851	7.97
340.222	7.62
340.593	7.68
340.964	8.05
341.336	8.12
341.707	7.03
342.078	7.92
342.449	8.3
342.82	7.75
343.191	7.83
343.562	8.23
343.933	8.09
344.303	7.85
344.674	7.89
345.045	7.86
345.416	7.91
345.786	7.65
346.157	8.05
346.527	7.69
346.898	7.62
347.268	7.73
347.639	7.66
348.009	7.67
348.38	7.98
348.75	7.68
349.12	8.13
349.49	8.23
349.861	8.16
350.231	7.58
350.601	7.78
350.971	8.27
351.341	8.36
351.711	7.52
352.081	8.1
352.45	8.03
352.82	8.12
353.19	7.48
353.56	8.14
353.929	7.81
354.299	7.59
354.669	7.51
355.038	8.3
355.408	7.61
355.777	8.11
356.147	7.86
356.516	8.02
356.885	7.86
357.254	7.89
357.624	8.53
357.993	8.37
358.362	7.94
358.731	7.77
359.1	7.8
359.469	8.15
359.838	7.95
360.207	7.74
360.576	7.5
360.945	7.6
361.314	8.39
361.682	8.13
362.051	7.56
362.42	7.82
362.788	7.8
363.157	8.18
363.525	8.31
363.894	7.94
364.262	8.05
364.631	8.06
364.999	7.81
365.367	7.61
365.735	8.64
366.104	8.32
366.472	8.24
366.84	8.04
367.208	8.22
367.576	8.24
367.944	8.26
368.312	8.32
368.68	7.77
369.048	8.12
369.416	8.02
369.783	7.95
370.151	8.14
370.519	8.21
370.886	8.46
371.254	8.1
371.621	8.56
371.989	8.49
372.356	7.71
372.724	8.22
373.091	8.03
373.458	8.13
373.826	8.4
374.193	8.13
374.56	8.48
374.927	8.28
375.294	8.34
375.661	7.77
376.028	7.79
376.395	8.03
376.762	8.28
377.129	8.35
377.496	8.15
377.863	8.55
378.229	7.65
378.596	8.44
378.963	8.38
379.329	8.1
379.696	8.5
380.062	8.32
380.429	8.38
380.795	8.02
381.161	8.52
381.528	8.47
381.894	8.55
382.26	8.29
382.626	8.54
382.993	8.41
383.359	8.74
383.725	8.14
384.091	8.07
384.457	8.72
384.823	8.27
385.188	8.49
385.554	8.51
385.92	8.5
386.286	9.15
386.651	8.54
387.017	8.72
387.383	8.45
387.748	8.2
388.114	8.89
388.479	8.24
388.845	8.83
389.21	8.56
389.575	8.44
389.94	8.66
390.306	8.35
390.671	8.85
391.036	8.27
391.401	8.29
391.766	8.5
392.131	8.46
392.496	8.72
392.861	8.41
393.226	8.72
393.591	8.78
393.956	8.59
394.32	8.34
394.685	8.48
395.05	8.29
395.414	8.71
395.779	8.6
396.143	8.78
396.508	8.64
396.872	8.38
397.236	8.57
397.601	8.64
397.965	8.65
398.329	9.04
398.694	8.76
399.058	8.81
399.422	8.41
399.786	8.62
400.15	8.68
400.514	8.88
400.878	9.03
401.242	8.9
401.605	8.91
401.969	8.75
402.333	8.77
402.697	8.71
403.06	8.91
403.424	8.51
403.787	9.06
404.151	8.96
404.514	9
404.878	8.91
405.241	8.91
405.604	8.98
405.968	8.89
406.331	8.91
406.694	8.94
407.057	9.14
407.42	9.07
407.783	8.69
408.146	8.91
408.509	8.91
408.872	8.79
409.235	8.76
409.598	9.31
409.961	9.05
410.323	8.99
410.686	8.76
411.049	8.67
411.411	8.78
411.774	8.85
412.136	9.1
412.499	8.84
412.861	9.03
413.223	8.87
413.586	9
413.948	9.01
414.31	9.06
414.672	8.9
415.035	8.84
415.397	9.38
415.759	8.89
416.121	9.31
416.483	8.92
416.845	9.14
417.206	8.93
417.568	9.11
417.93	9.02
418.292	9.09
418.653	9.01
419.015	8.92
419.377	8.98
419.738	8.91
420.1	8.97
420.461	8.98
420.822	9.02
421.184	8.81
421.545	8.96
421.906	8.86
422.267	9.03
422.629	8.92
422.99	8.91
423.351	8.82
423.712	8.94
424.073	8.98
424.434	8.89
424.795	8.91
425.155	9.04
425.516	8.9
425.877	8.97
426.238	8.89
426.598	8.94
426.959	8.94
427.32	8.93
427.68	8.86
428.041	9.16
428.401	9.2
428.761	9.15
429.122	9.24
429.482	8.93
429.842	9.25
430.202	9.13
430.563	9.24
430.923	8.9
431.283	9.21
431.643	9.26
432.003	9.21
432.363	9.22
432.722	8.96
433.082	9.1
433.442	9.2
433.802	9.12
434.161	9.15
434.521	9.53
434.881	9.39
435.24	9.14
435.6	9.07
435.959	9.27
436.319	9.18
436.678	9.22
437.037	9.22
437.396	9.32
437.756	9.28
438.115	9.28
438.474	9.38
438.833	9.26
439.192	9.15
439.551	9.38
439.91	9.32
440.269	9.3
440.628	9.19
440.987	9.37
441.345	9.12
441.704	9.3
442.063	9.23
442.421	9.23
442.78	9.22
443.138	9.18
443.497	9.3
443.855	9.17
444.214	9.32
444.572	9.37
444.93	9.42
445.288	9.36
445.647	9.34
446.005	9.45
446.363	9.42
446.721	9.49
447.079	9.14
447.437	9.25
447.795	9.35
448.153	9.2
448.51	9.36
448.868	9.32
449.226	9.28
449.584	9.16
449.941	9.38
450.299	9.33
450.656	9.3
451.014	9.32
451.371	9.26
451.729	9.18
452.086	9.57
452.443	9.45
452.801	9.59
453.158	9.38
453.515	9.36
453.872	9.63
454.229	9.3
454.586	9.29
454.943	9.43
455.3	9.49
455.657	9.41
456.014	9.53
456.371	9.55
456.727	9.66
457.084	9.72
457.441	9.44
457.797	9.65
458.154	9.58
458.51	9.49
458.867	9.68
459.223	9.58
459.58	9.61
459.936	9.74
460.292	9.63
460.648	9.55
461.005	9.57
461.361	9.6
461.717	9.42
462.073	9.37
462.429	9.34
462.785	9.25
463.141	9.44
463.496	9.58
463.852	9.51
464.208	9.5
464.564	9.42
464.919	9.79
465.275	9.77
465.631	9.72
465.986	9.7
466.342	9.44
466.697	9.57
467.052	9.54
467.408	9.73
467.763	9.56
468.118	9.55
468.473	9.7
468.829	9.63
469.184	9.64
469.539	9.57
469.894	9.49
470.249	9.83
470.603	9.83
470.958	9.77
471.313	9.59
471.668	9.96
472.023	9.59
472.377	9.49
472.732	9.56
473.086	9.56
473.441	9.77
473.795	9.79
474.15	9.93
474.504	9.75
474.859	9.72
475.213	9.47
475.567	9.78
475.921	9.53
476.275	9.84
476.63	9.66
476.984	10.07
477.338	9.97
477.692	9.6
478.045	9.68
478.399	9.78
478.753	10.02
479.107	9.86
479.461	9.62
479.814	9.62
480.168	9.77
480.521	9.73
480.875	9.66
481.228	9.71
481.582	9.9
481.935	9.59
482.289	9.79
482.642	9.7
482.995	9.74
483.348	9.77
483.701	9.85
484.055	9.64
484.408	9.74
484.761	9.62
485.114	9.59
485.466	9.48
485.819	9.38
486.172	9.27
486.525	9.23
486.878	9.26
487.23	9.36
487.583	9.44
487.936	9.52
488.288	9.6
488.641	9.66
488.993	9.54
489.345	9.5
489.698	9.41
490.05	9.4
490.402	9.5
490.754	9.47
491.107	9.58
491.459	9.63
491.811	9.64
492.163	9.74
492.515	9.67
492.866	9.78
493.218	9.77
493.57	9.65
493.922	9.49
494.274	9.56
494.625	9.67
494.977	9.65
495.328	9.79
495.68	9.78
496.031	10.02
496.383	9.97
496.734	10.02
497.086	10.02
497.437	9.95
497.788	9.83
498.139	9.97
498.49	9.94
498.842	9.89
499.193	9.89
499.544	9.97
499.894	9.82
500.245	10.05
500.596	10.01
500.947	10
501.298	9.92
501.648	9.99
501.999	10.11
502.35	9.92
502.7	10.15
503.051	9.85
503.401	9.95
503.752	10.04
504.102	9.98
504.452	9.91
504.803	10.03
505.153	10.1
505.503	10.02
505.853	10.17
506.203	9.98
506.553	9.98
506.903	10.01
507.253	9.94
507.603	10.02
507.953	10.18
508.303	10.31
508.652	10.15
509.002	10.2
509.352	10.18
509.701	10.1
510.051	10.14
510.4	10.03
510.75	10.18
511.099	10.09
511.449	10.01
511.798	10.09
512.147	10.02
512.496	10.25
512.846	10.15
513.195	10.05
513.544	10.13
513.893	10.28
514.242	9.98
514.591	10.23
514.939	10.02
515.288	10.02
515.637	10.13
515.986	10.21
516.334	10.27
516.683	10.25
517.032	10.19
517.38	10.29
517.729	10.05
518.077	10.16
518.426	10.33
518.774	10.17
519.122	10.26
519.47	10.22
519.819	10.08
520.167	10.1
520.515	10.17
520.863	10.06
521.211	10.23
521.559	10.14
521.907	10.03
522.255	10.12
522.602	10.24
522.95	10.16
523.298	10.27
523.645	10.36
523.993	10.21
524.341	10.41
524.688	10.16
525.036	10.26
525.383	10.37
525.73	10.49
526.078	10.34
526.425	10.25
526.772	10.45
527.119	10.22
527.466	10.23
527.814	10.2
528.161	10.18
528.508	10.11
528.854	10.2
529.201	10.16
529.548	10.18
529.895	10.19
530.242	9.95
530.588	9.97
530.935	9.96
531.282	9.93
531.628	9.86
531.975	9.95
532.321	10.11
532.667	10.28
533.014	10.27
533.36	10.29
533.706	10.25
534.052	10.33
534.399	10.27
534.745	10.23
535.091	10.12
535.437	10.23
535.783	10.2
536.129	10.16
536.474	10.15
536.82	10.33
537.166	10.34
537.512	10.34
537.857	10.27
538.203	10.35
538.549	10.26
538.894	10.31
539.239	10.39
539.585	10.41
539.93	10.24
540.276	10.53
540.621	10.64
540.966	10.59
541.311	10.42
541.656	10.44
542.001	10.35
542.346	10.58
542.691	10.31
543.036	10.3
543.381	10.23
543.726	10.16
544.071	10.31
544.415	10.22
544.76	10.29
545.105	10.35
545.449	10.44
545.794	10.52
546.138	10.51
546.483	10.48
546.827	10.72
547.171	10.47
547.516	10.68
547.86	10.51
548.204	10.53
548.548	10.52
548.892	10.55
549.236	10.53
549.58	10.58
549.924	10.53
550.268	10.73
550.612	10.75
550.956	10.88
551.3	10.47
551.643	11.06
551.987	10.86
552.33	10.89
552.674	10.87
553.017	10.76
553.361	10.55
553.704	11.04
554.048	10.63
554.391	10.72
554.734	10.66
555.077	10.66
555.42	10.63
555.764	10.72
556.107	10.65
556.45	10.67
556.793	10.79
557.135	10.83
557.478	10.92
557.821	10.8
558.164	10.82
558.507	10.88
558.849	10.81
559.192	10.95
559.534	10.76
559.877	11.05
560.219	10.94
560.562	11.13
560.904	11.2
561.246	10.9
561.589	10.77
561.931	10.97
562.273	10.91
562.615	11.09
562.957	11.16
563.299	10.58
563.641	10.92
563.983	11.11
564.325	10.7
564.667	10.88
565.008	10.95
565.35	10.92
565.692	10.78
566.033	10.92
566.375	11.13
566.716	11.17
567.058	10.86
567.399	10.95
567.741	10.78
568.082	10.9
568.423	10.98
568.764	11
569.105	11.02
569.447	10.9
569.788	10.81
570.129	11.06
570.47	10.99
570.811	11.19
571.151	11.16
571.492	10.95
571.833	11.06
572.174	11.12
572.514	11.15
572.855	11.02
573.195	11.1
573.536	11.01
573.876	10.89
574.217	10.88
574.557	11.06
574.898	11.14
575.238	11.14
575.578	10.94
575.918	10.94
576.258	11.08
576.598	11.12
576.938	11.05
577.278	10.97
577.618	11.15
577.958	11.11
578.298	11.01
578.638	11.1
578.977	10.97
579.317	10.97
579.657	11.33
579.996	11.25
580.336	11.11
580.675	10.99
581.014	11.08
581.354	11.35
581.693	11.4
582.032	11.19
582.372	11.02
582.711	11.45
583.05	11.27
583.389	11.35
583.728	10.96
584.067	11.22
584.406	11.44
584.745	11.55
585.083	11.14
585.422	11.25
585.761	11.51
586.1	11.36
586.438	11.19
586.777	11.52
587.115	11.54
587.454	11.28
587.792	11.24
588.13	11.26
588.469	11.14
588.807	11.47
589.145	11.11
589.483	11.34
589.821	11.57
590.159	11.27
590.497	11.53
590.835	11.68
591.173	11.27
591.511	11.49
591.849	11.32
592.187	11.51
592.524	11.53
592.862	11.27
593.2	11.38
593.537	11.41
593.875	11.4
594.212	11.17
594.55	11.1
594.887	11.36
595.224	11.47
595.561	11.25
595.899	11.48
596.236	11.45
596.573	11.49
596.91	11.35
597.247	11.12
597.584	11.46
597.921	11.34
598.258	11.09
598.594	11.34
598.931	11.36
599.268	11.46
599.604	11.34
599.941	11.54
600.277	11.27
600.614	11.19
600.95	11.24
601.287	11.7
601.623	11.43
601.959	11.48
602.296	11.54
602.632	11.34
602.968	11.69
603.304	11.59
603.64	11.35
603.976	11.59
604.312	11.28
604.648	11.35
604.984	11.53
605.319	11.64
605.655	11.33
605.991	11.53
606.326	11.53
606.662	11.46
606.998	11.35
607.333	11.29
607.668	11.46
608.004	11.77
608.339	11.85
608.674	11.67
609.01	11.35
609.345	11.51
609.68	11.69
610.015	11.59
610.35	11.78
610.685	11.34
611.02	11.77
611.355	11.65
611.689	11.73
612.024	11.69
612.359	11.33
612.694	11.71
613.028	11.47
613.363	11.84
613.697	11.84
614.032	11.75
614.366	11.51
614.7	11.76
615.035	11.68
615.369	11.79
615.703	11.58
616.037	11.71
616.371	11.6
616.705	11.67
617.039	12.05
617.373	11.82
617.707	11.74
618.041	11.73
618.375	11.72
618.709	11.63
619.042	11.72
619.376	12.17
619.71	11.89
620.043	11.61
620.377	11.58
620.71	11.86
621.043	11.45
621.377	11.57
621.71	11.77
622.043	11.57
622.376	11.52
622.709	11.9
623.043	12.14
623.376	11.78
623.709	11.45
624.041	12.57
624.374	11.73
624.707	11.62
625.04	11.98
625.373	11.37
625.705	11.72
626.038	11.73
626.37	11.5
626.703	11.74
627.035	11.72
627.368	12.63
627.7	12.2
628.032	11.89
628.365	12.44
628.697	11.95
629.029	11.48
629.361	11.64
629.693	11.88
630.025	11.98
630.357	12.08
630.689	12.01
631.021	12.05
631.353	11.86
631.684	12.15
632.016	11.63
632.348	12.09
632.679	12.06
633.011	12.38
633.342	11.86
633.674	11.7
634.005	12.39
634.336	12.1
634.668	12.31
634.999	11.65
635.33	12.17
635.661	12.26
635.992	12.11
636.323	12.02
636.654	12.38
636.985	11.94
637.316	11.81
637.647	12.09
637.977	12.29
638.308	12.26
638.639	11.82
638.969	11.66
639.3	12.09
639.63	11.76
639.961	12.05
640.291	11.75
640.622	12.23
640.952	11.89
641.282	12.6
641.612	12.5
641.943	11.72
642.273	12.59
642.603	12.59
642.933	12.3
643.263	12.4
643.592	11.81
643.922	11.65
644.252	12.67
644.582	12
644.911	12.01
645.241	12.17
645.571	12.29
645.9	12
646.23	11.92
646.559	12.25
646.888	11.95
647.218	11.84
647.547	12.11
647.876	11.67
648.205	11.62
648.534	11.98
648.863	11.6
649.192	12.66
649.521	11.95
649.85	12.13
650.179	12.36
650.508	11.71
650.837	11.77
651.165	12.61
651.494	12.3
651.822	12.29
652.151	11.85
652.479	12.58
652.808	11.76
653.136	12.52
653.465	11.93
653.793	11.85
654.121	12.14
654.449	12.65
654.777	12.65
655.105	12.21
655.433	11.85
655.761	12.35
656.089	12.03
656.417	12.4
656.745	12.15
657.073	11.82
657.4	13.3
657.728	12.26
658.056	12.12
658.383	12.79
658.711	12.77
659.038	11.64
659.365	12.58
659.693	12.09
660.02	11.76
660.347	12.38
660.674	12.55
661.001	11.77
661.329	11.67
661.656	12.1
661.982	12.13
662.309	12.5
662.636	12.1
662.963	12.67
663.29	12.59
663.616	12.38
663.943	11.79
664.27	12.24
664.596	12.38
664.923	12.56
665.249	12.5
665.576	12.41
665.902	12.98
666.228	12.34
666.554	12.49
666.881	12.42
667.207	12.61
667.533	11.74
667.859	12.74
668.185	12.29
668.511	11.68
668.837	12.15
669.162	12.19
669.488	12.56
669.814	12.57
670.139	12.19
670.465	12.75
670.791	12.31
671.116	13.24
671.442	12.38
671.767	12.86
672.092	12.71
672.418	12.62
672.743	12.86
673.068	12.15
673.393	12.73
673.718	12.4
674.043	12.3
674.368	12.42
674.693	13.03
675.018	12.69
675.343	12.3
675.667	12.03
675.992	12.39
676.317	13.17
676.641	12.54
676.966	13.15
677.29	12.53
677.615	12.75
677.939	13.13
678.264	13.08
678.588	12.88
678.912	13
679.236	13.63
