Data from 434_crown_Reflection__2__254.txt Node

Date: Fri Dec 15 18:36:14 CST 2023
User: ToomeyLab
Spectrometer: FLMS14357
Trigger mode: 0
Integration Time (sec): 1.000000E-2
Scans to average: 100
Electric dark correction enabled: true
Nonlinearity correction enabled: false
Boxcar width: 0
XAxis mode: Wavelengths
Number of Pixels in Spectrum: 2048
>>>>>Begin Spectral Data<<<<<
189.047	8.16
189.435	8.16
189.823	8.16
190.211	5.37
190.599	18.63
190.987	79.52
191.375	17.73
191.763	97.82
192.151	134.47
192.538	97.02
192.926	1923.31
193.314	90.81
193.702	-247.06
194.089	-179.45
194.477	184.24
194.864	10.88
195.252	128.08
195.639	75.19
196.027	-751.03
196.414	283.19
196.801	1514.29
197.189	23.18
197.576	32.5
197.963	97.41
198.351	-122.94
198.738	-69.22
199.125	24.35
199.512	8.96
199.899	14.41
200.286	8.59
200.673	-42.11
201.06	15.7
201.447	-42.02
201.833	10.26
202.22	17.93
202.607	74.95
202.994	21.57
203.38	-31.49
203.767	17.45
204.154	52.6
204.54	30.34
204.927	4.04
205.313	-1.56
205.699	16.58
206.086	34.36
206.472	34.43
206.858	2.77
207.245	-45.74
207.631	20.47
208.017	-3.6
208.403	-1.88
208.789	9.73
209.175	18.49
209.561	-82.74
209.947	-6.28
210.333	-31.48
210.719	10.37
211.105	27.46
211.491	16.87
211.876	30.43
212.262	26.15
212.648	-12.44
213.034	21
213.419	-21.02
213.805	-4.37
214.19	15.2
214.576	-6.47
214.961	-18.3
215.346	-64.82
215.732	13.32
216.117	21.46
216.502	10.88
216.888	6.93
217.273	10.34
217.658	-44.48
218.043	19.05
218.428	-32.8
218.813	-2.02
219.198	-7.51
219.583	-6.51
219.968	6.86
220.353	-47.49
220.738	19.07
221.122	13.59
221.507	-23.4
221.892	-14.28
222.276	-8.43
222.661	18.66
223.046	5.3
223.43	15.17
223.815	-0.85
224.199	2.97
224.583	4.15
224.968	2.73
225.352	6.66
225.736	-5.65
226.121	4.21
226.505	25.18
226.889	16.2
227.273	2.87
227.657	10.38
228.041	9.53
228.425	8.65
228.809	12.42
229.193	12.62
229.577	11.78
229.961	11.32
230.344	11.18
230.728	11.53
231.112	12.02
231.495	11.88
231.879	12.3
232.263	12.63
232.646	11.91
233.03	11.59
233.413	10.89
233.797	11.4
234.18	10.63
234.563	12.36
234.946	9.55
235.33	10.66
235.713	11.43
236.096	11.19
236.479	11.97
236.862	11.07
237.245	13.03
237.628	9.36
238.011	11.42
238.394	11.86
238.777	10.58
239.16	11.43
239.543	12.52
239.925	11.97
240.308	11.14
240.691	12.25
241.073	9.48
241.456	11.41
241.838	11.04
242.221	10.28
242.603	11.19
242.986	11.02
243.368	10.92
243.75	11.44
244.133	10.77
244.515	11.27
244.897	10.51
245.279	10.54
245.661	9.83
246.043	10.63
246.425	9.17
246.807	10.66
247.189	11.19
247.571	11.01
247.953	11.19
248.335	10.68
248.717	10.59
249.098	10.64
249.48	10.14
249.862	10.13
250.243	10.25
250.625	10.7
251.006	10.4
251.388	9.11
251.769	10
252.151	10.19
252.532	10.39
252.913	9.61
253.295	9.23
253.676	9.99
254.057	10.26
254.438	9.78
254.819	9.3
255.2	9.27
255.581	9.02
255.962	8.95
256.343	8.5
256.724	8.05
257.105	9.73
257.486	8.12
257.867	10.19
258.247	8.87
258.628	9.19
259.009	8
259.389	9.3
259.77	9.24
260.15	9.18
260.531	8.73
260.911	10.01
261.292	9.67
261.672	9.7
262.052	9.3
262.432	9.37
262.813	9.26
263.193	8.63
263.573	9.13
263.953	9.31
264.333	9.97
264.713	9.07
265.093	8.7
265.473	8.72
265.853	8.34
266.233	9.58
266.612	7.52
266.992	7.2
267.372	9.92
267.752	8.6
268.131	8.53
268.511	9.52
268.89	8.87
269.27	8.89
269.649	8.72
270.029	8.27
270.408	9.82
270.787	8.04
271.167	8.86
271.546	8.8
271.925	8.16
272.304	9.29
272.683	8.75
273.062	8.54
273.441	8.72
273.82	8.01
274.199	8.36
274.578	8.58
274.957	8.77
275.336	8.42
275.715	8.16
276.093	8.53
276.472	8.48
276.851	8.26
277.229	7.76
277.608	7.94
277.986	8.01
278.365	8.8
278.743	8.28
279.122	8.24
279.5	8.1
279.878	8.57
280.257	7.8
280.635	8.42
281.013	8.08
281.391	8.47
281.769	8.64
282.147	8.49
282.525	8.99
282.903	7.72
283.281	8.5
283.659	8.9
284.037	8.31
284.415	8.37
284.792	8.37
285.17	7.58
285.548	7.85
285.925	8.42
286.303	8.76
286.68	8.2
287.058	8.45
287.435	7.84
287.813	8.35
288.19	7.82
288.567	7.79
288.945	8.39
289.322	8.17
289.699	7.93
290.076	7.68
290.453	8.27
290.83	7.7
291.207	8.19
291.584	8.11
291.961	8.12
292.338	7.98
292.715	8.38
293.092	7.82
293.469	7.8
293.845	7.6
294.222	7.08
294.599	7.52
294.975	7.42
295.352	7.94
295.728	7.57
296.105	8.18
296.481	8.12
296.858	7.76
297.234	7.37
297.61	7.63
297.986	7.65
298.363	7.92
298.739	8.45
299.115	7.85
299.491	7.66
299.867	7.91
300.243	7.74
300.619	7.32
300.995	7.67
301.371	7.58
301.746	7.12
302.122	8.2
302.498	7.45
302.874	7.38
303.249	7.76
303.625	7.64
304	8.07
304.376	7.32
304.751	7.09
305.127	8.28
305.502	7.23
305.878	7.27
306.253	7.91
306.628	7.82
307.003	7.22
307.378	8.3
307.754	7.91
308.129	7.08
308.504	7.64
308.879	7.52
309.254	8.37
309.629	8.38
310.003	7.64
310.378	8.24
310.753	7.7
311.128	7.45
311.502	7.78
311.877	8.12
312.252	7.78
312.626	7.68
313.001	7.7
313.375	8.04
313.75	7.16
314.124	7.17
314.498	7.8
314.873	7.18
315.247	7.43
315.621	7.57
315.995	7.1
316.369	7.75
316.743	7.44
317.117	7.93
317.491	7.56
317.865	7.69
318.239	7.4
318.613	7.64
318.987	7.41
319.361	7.08
319.734	7.5
320.108	7.44
320.482	7.17
320.855	7.7
321.229	6.87
321.602	7.27
321.976	7.74
322.349	7.5
322.723	7.56
323.096	8.17
323.469	7.05
323.843	7.55
324.216	7.68
324.589	7.32
324.962	8.13
325.335	6.99
325.708	7.27
326.081	7.18
326.454	7.55
326.827	7.02
327.2	7.33
327.573	8.1
327.945	8
328.318	6.92
328.691	7.38
329.063	7.99
329.436	7.39
329.809	8.02
330.181	7.13
330.553	7.52
330.926	7.23
331.298	7.18
331.671	7.64
332.043	7.89
332.415	7.27
332.787	7.79
333.159	8.29
333.532	7.8
333.904	7.64
334.276	7.27
334.648	7.86
335.02	7.75
335.391	7.75
335.763	7.72
336.135	7.66
336.507	8.16
336.879	7.71
337.25	7.75
337.622	7.28
337.993	7.71
338.365	8.05
338.736	7.13
339.108	8.06
339.479	7.43
339.851	8.18
340.222	7.91
340.593	7.77
340.964	7.5
341.336	8.37
341.707	7.2
342.078	8.11
342.449	8.41
342.82	7.78
343.191	7.44
343.562	7.79
343.933	7.88
344.303	8.1
344.674	7.48
345.045	8.1
345.416	8.15
345.786	7.11
346.157	8.25
346.527	7.17
346.898	7.24
347.268	8.14
347.639	7.98
348.009	7.87
348.38	7.41
348.75	8.1
349.12	8.17
349.49	8.28
349.861	8
350.231	7.92
350.601	8.11
350.971	8.03
351.341	8.09
351.711	7.93
352.081	8.17
352.45	7.69
352.82	8.06
353.19	8.05
353.56	7.43
353.929	7.89
354.299	8.23
354.669	7.57
355.038	8
355.408	7.94
355.777	8.13
356.147	8.09
356.516	8.31
356.885	7.92
357.254	7.97
357.624	8.55
357.993	8.26
358.362	7.61
358.731	7.76
359.1	8.18
359.469	8.21
359.838	8.62
360.207	7.85
360.576	7.86
360.945	7.98
361.314	8.72
361.682	7.58
362.051	7.88
362.42	8.77
362.788	8
363.157	8.29
363.525	8.24
363.894	8.22
364.262	8.29
364.631	8.3
364.999	8.27
365.367	7.99
365.735	8.71
366.104	8.44
366.472	8.31
366.84	8.12
367.208	8.22
367.576	8.41
367.944	8.82
368.312	8.05
368.68	8.17
369.048	8.39
369.416	8.09
369.783	8.08
370.151	8.31
370.519	8.39
370.886	8.17
371.254	8
371.621	8.91
371.989	8.28
372.356	8.14
372.724	8.36
373.091	8.24
373.458	8.5
373.826	8.42
374.193	8.32
374.56	8.5
374.927	8.78
375.294	8.31
375.661	8.61
376.028	8.29
376.395	8.25
376.762	8.3
377.129	8.57
377.496	8.26
377.863	8.69
378.229	8.15
378.596	8.51
378.963	8.24
379.329	8.39
379.696	8.73
380.062	8.59
380.429	8.29
380.795	8.3
381.161	8.39
381.528	8.79
381.894	8.53
382.26	8.51
382.626	8.65
382.993	8.41
383.359	9.04
383.725	8.46
384.091	8.69
384.457	8.97
384.823	8.67
385.188	8.72
385.554	8.33
385.92	8.5
386.286	9
386.651	8.76
387.017	8.65
387.383	8.5
387.748	8.55
388.114	8.82
388.479	8.42
388.845	8.92
389.21	8.86
389.575	9.03
389.94	8.5
390.306	8.77
390.671	8.84
391.036	8.48
391.401	8.58
391.766	8.69
392.131	8.59
392.496	8.76
392.861	8.66
393.226	8.78
393.591	8.63
393.956	8.68
394.32	8.57
394.685	8.52
395.05	8.83
395.414	8.88
395.779	8.58
396.143	8.8
396.508	8.9
396.872	8.81
397.236	8.52
397.601	8.63
397.965	8.85
398.329	8.88
398.694	9.01
399.058	8.64
399.422	8.7
399.786	9.01
400.15	9.04
400.514	8.95
400.878	8.92
401.242	9
401.605	8.91
401.969	8.88
402.333	8.87
402.697	8.86
403.06	8.96
403.424	8.89
403.787	8.94
404.151	9
404.514	8.6
404.878	8.9
405.241	9.15
405.604	8.93
405.968	8.8
406.331	8.99
406.694	8.87
407.057	8.8
407.42	8.98
407.783	8.78
408.146	8.5
408.509	8.78
408.872	8.84
409.235	9.21
409.598	9.17
409.961	8.95
410.323	9.04
410.686	8.98
411.049	8.91
411.411	8.94
411.774	8.99
412.136	8.91
412.499	8.96
412.861	9.02
413.223	8.87
413.586	8.91
413.948	9.16
414.31	9.23
414.672	9
415.035	8.85
415.397	9.22
415.759	8.9
416.121	8.72
416.483	8.92
416.845	8.93
417.206	8.75
417.568	9.08
417.93	8.86
418.292	9.02
418.653	8.94
419.015	9.02
419.377	9.09
419.738	9
420.1	9.07
420.461	9.13
420.822	9.03
421.184	8.96
421.545	9
421.906	8.78
422.267	8.87
422.629	8.89
422.99	8.87
423.351	8.85
423.712	8.88
424.073	8.85
424.434	8.94
424.795	8.8
425.155	8.87
425.516	8.96
425.877	8.91
426.238	8.8
426.598	9.04
426.959	8.82
427.32	8.81
427.68	8.9
428.041	8.88
428.401	9.15
428.761	8.91
429.122	8.9
429.482	8.92
429.842	9.23
430.202	9.16
430.563	9.02
430.923	8.94
431.283	9.12
431.643	9.18
432.003	8.98
432.363	9.07
432.722	9.14
433.082	9.33
433.442	9.21
433.802	9.02
434.161	8.94
434.521	9.36
434.881	9.24
435.24	9.01
435.6	8.89
435.959	9.02
436.319	9.14
436.678	9.07
437.037	8.98
437.396	9.07
437.756	9.02
438.115	9.21
438.474	9.24
438.833	9.03
439.192	9.1
439.551	9.17
439.91	9.15
440.269	9.01
440.628	9.14
440.987	9.15
441.345	8.92
441.704	9.16
442.063	9.07
442.421	9.07
442.78	8.93
443.138	9.03
443.497	8.99
443.855	8.89
444.214	8.99
444.572	9
444.93	9.17
445.288	9.03
445.647	9.28
446.005	8.96
446.363	9.16
446.721	9.08
447.079	8.87
447.437	9.02
447.795	9.15
448.153	9
448.51	8.99
448.868	9.03
449.226	9.08
449.584	8.88
449.941	9.13
450.299	8.92
450.656	8.93
451.014	9.05
451.371	9.03
451.729	9.02
452.086	9.22
452.443	9.02
452.801	9.12
453.158	9.1
453.515	8.87
453.872	9.29
454.229	9.14
454.586	8.98
454.943	9.15
455.3	9.1
455.657	8.88
456.014	9.05
456.371	9.14
456.727	9.32
457.084	9.23
457.441	9.21
457.797	9.17
458.154	9.27
458.51	9.33
458.867	9.35
459.223	9.28
459.58	9.33
459.936	9.29
460.292	9.18
460.648	9.18
461.005	8.98
461.361	9.2
461.717	9.13
462.073	8.88
462.429	8.91
462.785	9.01
463.141	8.87
463.496	9.14
463.852	9.13
464.208	9.17
464.564	9.13
464.919	9.04
465.275	9.04
465.631	9.28
465.986	9.04
466.342	9.21
466.697	9.09
467.052	9.2
467.408	9.03
467.763	8.99
468.118	9.24
468.473	9.17
468.829	9.38
469.184	9.03
469.539	9.21
469.894	9.04
470.249	9.21
470.603	9.21
470.958	9.28
471.313	9.19
471.668	9.39
472.023	9.2
472.377	9.19
472.732	9.15
473.086	9.06
473.441	8.84
473.795	9.17
474.15	9.11
474.504	9.22
474.859	9.48
475.213	9.11
475.567	9.01
475.921	9.08
476.275	9.21
476.63	9.32
476.984	9.4
477.338	9.32
477.692	9.13
478.045	9.23
478.399	9.18
478.753	9.28
479.107	9.15
479.461	9.11
479.814	9.29
480.168	9.01
480.521	9.19
480.875	9.06
481.228	9.16
481.582	9.12
481.935	9.07
482.289	9.14
482.642	9.15
482.995	9.14
483.348	9.01
483.701	9.15
484.055	9.06
484.408	9.11
484.761	9
485.114	8.99
485.466	8.81
485.819	8.86
486.172	8.65
486.525	8.58
486.878	8.47
487.23	8.62
487.583	8.66
487.936	8.8
488.288	8.89
488.641	8.96
488.993	8.85
489.345	8.79
489.698	8.81
490.05	8.67
490.402	8.68
490.754	8.7
491.107	8.78
491.459	8.78
491.811	8.79
492.163	8.89
492.515	8.91
492.866	8.96
493.218	9.03
493.57	8.94
493.922	8.75
494.274	8.74
494.625	8.7
494.977	8.78
495.328	8.87
495.68	8.94
496.031	9.08
496.383	8.97
496.734	9.21
497.086	9.13
497.437	9.1
497.788	9.04
498.139	8.94
498.49	9.04
498.842	9.04
499.193	9.08
499.544	8.91
499.894	9
500.245	9.05
500.596	8.87
500.947	9.11
501.298	8.95
501.648	9.05
501.999	9.07
502.35	9.09
502.7	8.89
503.051	8.87
503.401	8.96
503.752	9.14
504.102	9.01
504.452	9.2
504.803	8.97
505.153	9.06
505.503	9.09
505.853	9
506.203	9.04
506.553	8.89
506.903	8.85
507.253	8.9
507.603	8.88
507.953	9.09
508.303	9.13
508.652	8.99
509.002	9.14
509.352	9
509.701	8.91
510.051	9.01
510.4	8.85
510.75	8.91
511.099	9
511.449	8.84
511.798	9
512.147	8.94
512.496	8.98
512.846	8.9
513.195	8.87
513.544	9.04
513.893	9.17
514.242	8.88
514.591	9.04
514.939	8.99
515.288	8.83
515.637	8.98
515.986	8.94
516.334	9.03
516.683	8.95
517.032	8.92
517.38	9.05
517.729	9.01
518.077	8.97
518.426	9.04
518.774	9.01
519.122	9
519.47	8.91
519.819	8.76
520.167	8.87
520.515	8.79
520.863	8.82
521.211	8.84
521.559	8.93
521.907	8.84
522.255	8.9
522.602	8.77
522.95	8.86
523.298	8.92
523.645	9
523.993	8.88
524.341	8.81
524.688	8.91
525.036	8.79
525.383	8.93
525.73	9.06
526.078	8.79
526.425	8.85
526.772	8.99
527.119	8.96
527.466	8.87
527.814	8.81
528.161	8.89
528.508	8.77
528.854	8.78
529.201	8.61
529.548	8.67
529.895	8.78
530.242	8.67
530.588	8.62
530.935	8.56
531.282	8.48
531.628	8.41
531.975	8.48
532.321	8.51
532.667	8.64
533.014	8.73
533.36	8.68
533.706	8.77
534.052	8.85
534.399	8.75
534.745	8.64
535.091	8.76
535.437	8.75
535.783	8.67
536.129	8.6
536.474	8.6
536.82	8.58
537.166	8.64
537.512	8.82
537.857	8.75
538.203	8.87
538.549	8.82
538.894	8.69
539.239	8.76
539.585	8.66
539.93	8.59
540.276	8.89
540.621	8.78
540.966	8.9
541.311	8.84
541.656	8.67
542.001	8.72
542.346	8.87
542.691	8.7
543.036	8.68
543.381	8.53
543.726	8.57
544.071	8.47
544.415	8.52
544.76	8.49
545.105	8.56
545.449	8.59
545.794	8.63
546.138	8.61
546.483	8.7
546.827	8.68
547.171	8.67
547.516	8.82
547.86	8.71
548.204	8.69
548.548	8.64
548.892	8.77
549.236	8.74
549.58	8.54
549.924	8.6
550.268	8.78
550.612	8.86
550.956	8.85
551.3	8.59
551.643	8.88
551.987	8.94
552.33	8.75
552.674	9.04
553.017	8.89
553.361	8.71
553.704	8.9
554.048	8.53
554.391	8.79
554.734	8.78
555.077	8.75
555.42	8.77
555.764	8.64
556.107	8.4
556.45	8.45
556.793	8.73
557.135	8.66
557.478	8.97
557.821	8.63
558.164	8.68
558.507	8.59
558.849	8.74
559.192	8.8
559.534	8.83
559.877	8.99
560.219	8.81
560.562	8.89
560.904	8.58
561.246	8.73
561.589	8.84
561.931	8.62
562.273	8.66
562.615	8.68
562.957	8.66
563.299	8.5
563.641	8.64
563.983	8.64
564.325	8.56
564.667	8.55
565.008	8.26
565.35	8.42
565.692	8.5
566.033	8.74
566.375	8.81
566.716	8.76
567.058	8.48
567.399	8.58
567.741	8.56
568.082	8.53
568.423	8.64
568.764	8.65
569.105	8.57
569.447	8.7
569.788	8.58
570.129	8.72
570.47	8.43
570.811	8.57
571.151	8.71
571.492	8.65
571.833	8.5
572.174	8.41
572.514	8.71
572.855	8.5
573.195	8.45
573.536	8.41
573.876	8.42
574.217	8.33
574.557	8.62
574.898	8.54
575.238	8.5
575.578	8.27
575.918	8.58
576.258	8.37
576.598	8.63
576.938	8.51
577.278	8.52
577.618	8.36
577.958	8.51
578.298	8.63
578.638	8.46
578.977	8.49
579.317	8.38
579.657	8.62
579.996	8.45
580.336	8.39
580.675	8.45
581.014	8.54
581.354	8.7
581.693	8.55
582.032	8.3
582.372	8.3
582.711	8.65
583.05	8.44
583.389	8.3
583.728	8.2
584.067	8.7
584.406	8.47
584.745	8.54
585.083	8.48
585.422	8.41
585.761	8.42
586.1	8.43
586.438	8.37
586.777	8.53
587.115	8.56
587.454	8.19
587.792	8.37
588.13	8.53
588.469	8.27
588.807	8.19
589.145	8.46
589.483	8.62
589.821	8.35
590.159	8.65
590.497	8.59
590.835	8.81
591.173	8.15
591.511	8.63
591.849	8.42
592.187	8.39
592.524	8.46
592.862	8.18
593.2	8.34
593.537	8.34
593.875	8.31
594.212	8.3
594.55	8.36
594.887	8.72
595.224	8.46
595.561	8.26
595.899	8.1
596.236	8.31
596.573	8.27
596.91	7.8
597.247	8.18
597.584	8.29
597.921	8.27
598.258	8.32
598.594	8.17
598.931	8.4
599.268	8.46
599.604	8.3
599.941	8.25
600.277	8.16
600.614	8.19
600.95	7.99
601.287	8.14
601.623	8.34
601.959	8.24
602.296	8.28
602.632	8.3
602.968	8.35
603.304	8.14
603.64	8.02
603.976	8.17
604.312	8.08
604.648	7.91
604.984	8.23
605.319	8.19
605.655	8.28
605.991	8.27
606.326	8.32
606.662	8.23
606.998	7.98
607.333	8.2
607.668	8.13
608.004	8.13
608.339	8.17
608.674	8.25
609.01	8.04
609.345	7.89
609.68	8.24
610.015	8.03
610.35	8.36
610.685	8.02
611.02	8.34
611.355	8.25
611.689	8.32
612.024	8.22
612.359	8.17
612.694	8.03
613.028	8.1
613.363	8.18
613.697	8.26
614.032	8.14
614.366	7.94
614.7	8.11
615.035	8.2
615.369	8.09
615.703	8.11
616.037	8.15
616.371	7.82
616.705	7.97
617.039	8.39
617.373	7.95
617.707	7.82
618.041	8.23
618.375	8.2
618.709	8.3
619.042	7.92
619.376	8.35
619.71	8.55
620.043	8.3
620.377	7.99
620.71	8.01
621.043	8.26
621.377	8.16
621.71	8.43
622.043	7.58
622.376	7.84
622.709	8.37
623.043	8.66
623.376	8.64
623.709	8.18
624.041	8.66
624.374	8.03
624.707	8.22
625.04	8.28
625.373	7.62
625.705	8.01
626.038	8.08
626.37	8.6
626.703	7.95
627.035	8.17
627.368	8.35
627.7	8.4
628.032	7.78
628.365	8.42
628.697	8.19
629.029	8.13
629.361	7.93
629.693	8.11
630.025	7.78
630.357	8.25
630.689	8.42
631.021	8.22
631.353	8.38
631.684	8.04
632.016	7.89
632.348	8.2
632.679	7.96
633.011	8.37
633.342	8.43
633.674	8.13
634.005	8.3
634.336	8.28
634.668	8.76
634.999	7.81
635.33	8.13
635.661	8.29
635.992	8.03
636.323	8.35
636.654	8.22
636.985	7.91
637.316	8.09
637.647	7.72
637.977	8.02
638.308	8.14
638.639	7.54
638.969	7.92
639.3	7.85
639.63	7.64
639.961	8.15
640.291	7.72
640.622	8.38
640.952	8.06
641.282	8.44
641.612	7.79
641.943	7.79
642.273	8.12
642.603	8.01
642.933	8.23
643.263	8.46
643.592	7.87
643.922	7.63
644.252	7.8
644.582	8.19
644.911	8.06
645.241	8.34
645.571	8.41
645.9	7.78
646.23	7.93
646.559	8.18
646.888	7.31
647.218	7.78
647.547	8.12
647.876	8.15
648.205	7.95
648.534	7.72
648.863	7.6
649.192	8.53
649.521	7.99
649.85	7.99
650.179	8.1
650.508	7.51
650.837	7.84
651.165	7.62
651.494	7.87
651.822	7.95
652.151	8.04
652.479	7.75
652.808	7.74
653.136	8.34
653.465	7.6
653.793	7.81
654.121	7.58
654.449	7.78
654.777	7.81
655.105	7.99
655.433	7.72
655.761	7.6
656.089	8.02
656.417	8.1
656.745	7.8
657.073	7.75
657.4	8.82
657.728	8.4
658.056	7.79
658.383	7.99
658.711	8.09
659.038	8.13
659.365	8.44
659.693	8.01
660.02	7.86
660.347	8.15
660.674	8.26
661.001	8.15
661.329	7.42
661.656	8.03
661.982	7.99
662.309	8.16
662.636	7.47
662.963	8.69
663.29	7.98
663.616	7.99
663.943	7.53
664.27	7.7
664.596	8.47
664.923	8.47
665.249	7.93
665.576	7.63
665.902	8.4
666.228	8.33
666.554	7.99
666.881	7.86
667.207	7.75
667.533	8.05
667.859	8.17
668.185	8.05
668.511	7.38
668.837	7
669.162	7.73
669.488	7.22
669.814	8.23
670.139	8.29
670.465	8.22
670.791	8.1
671.116	8.21
671.442	7.76
671.767	7.6
672.092	8.78
672.418	8.23
672.743	8.23
673.068	7.5
673.393	8.2
673.718	7.34
674.043	8.49
674.368	7.57
674.693	9.09
675.018	8.16
675.343	8.54
675.667	7.78
675.992	8.05
676.317	7.94
676.641	8.31
676.966	8.5
677.29	7.51
677.615	8.23
677.939	8.53
678.264	8.13
678.588	7.87
678.912	8.07
679.236	8.11
679.56	7.29
679.885	8.29
680.209	7.59
680.532	7.74
680.856	8.38
681.18	7.77
681.504	7.83
681.828	8.04
682.152	8.14
682.475	7.83
682.799	8.32
683.122	7.61
683.446	7.39
683.769	8.11
684.093	7.89
684.416	8.56
684.739	7.97
685.062	7.56
685.386	8.97
685.709	7.59
686.032	8.02
686.355	8.39
686.678	7.71
687.001	8.46
687.324	9.07
687.646	7.64
687.969	7.1
688.292	7.65
688.614	8.15
688.937	8.51
689.26	8.08
689.582	7.68
689.904	8.32
690.227	8.21
690.549	7.85
690.871	9.3
691.194	7.95
691.516	7.35
691.838	7.75
692.16	7.36
692.482	7.73
