Data from 0046_chest_Reflection__0__166.txt Node

Date: Fri Nov 04 16:12:48 CDT 2022
User: ToomeyLab
Spectrometer: FLMS14357
Trigger mode: 0
Integration Time (sec): 1.000000E-2
Scans to average: 100
Electric dark correction enabled: true
Nonlinearity correction enabled: false
Boxcar width: 0
XAxis mode: Wavelengths
Number of Pixels in Spectrum: 2048
>>>>>Begin Spectral Data<<<<<
189.047	-152.8
189.435	-152.8
189.823	-152.8
190.211	-9.85
190.599	187.12
190.987	311.18
191.375	81.79
191.763	61.24
192.151	40.92
192.538	-174.9
192.926	-6.21
193.314	-48.62
193.702	65.61
194.089	-5.98
194.477	64.74
194.864	-34.58
195.252	90.64
195.639	178.35
196.027	122.19
196.414	-2007.03
196.801	192.67
197.189	-15.95
197.576	43.34
197.963	-11.11
198.351	-29.13
198.738	39.82
199.125	-2.26
199.512	-78.73
199.899	30.93
200.286	-44.84
200.673	-21.53
201.06	10.3
201.447	-40.34
201.833	2.31
202.22	20.05
202.607	8.81
202.994	21.13
203.38	35.99
203.767	25.72
204.154	31.45
204.54	4.74
204.927	-17.99
205.313	20.26
205.699	30.41
206.086	7.8
206.472	17.76
206.858	-29.65
207.245	14.13
207.631	-4.04
208.017	7.95
208.403	10.31
208.789	5.92
209.175	-3.4
209.561	-12.76
209.947	-120
210.333	-17.14
210.719	-6.14
211.105	-34.96
211.491	3.65
211.876	7.7
212.262	7.12
212.648	-29.15
213.034	12.29
213.419	-12.3
213.805	-50.04
214.19	-51.34
214.576	5.14
214.961	13.96
215.346	-6.87
215.732	1.49
216.117	-17.08
216.502	49.12
216.888	-9.85
217.273	-1.85
217.658	-0.77
218.043	6.19
218.428	6.39
218.813	-11.68
219.198	-16.05
219.583	-16.86
219.968	-10.97
220.353	-25.98
220.738	-15.97
221.122	-12.03
221.507	2.22
221.892	-15.48
222.276	-16.73
222.661	4.49
223.046	-15.5
223.43	-5.35
223.815	-17.01
224.199	9.36
224.583	-3.44
224.968	0.1
225.352	-5.86
225.736	-4.96
226.121	-3.62
226.505	2.16
226.889	0.47
227.273	2.26
227.657	-5.04
228.041	1.57
228.425	0.71
228.809	2.67
229.193	4.07
229.577	0.19
229.961	1.98
230.344	1.02
230.728	1.3
231.112	1.4
231.495	1.39
231.879	2.45
232.263	0.74
232.646	0.12
233.03	1.22
233.413	-0
233.797	-0.6
234.18	1.13
234.563	2.13
234.946	0.98
235.33	3.9
235.713	1.04
236.096	1.63
236.479	0.21
236.862	1.38
237.245	1.19
237.628	0.61
238.011	-0.53
238.394	2.54
238.777	2.41
239.16	1.26
239.543	1.32
239.925	2.85
240.308	3.17
240.691	1.32
241.073	2.9
241.456	3.36
241.838	2.07
242.221	1
242.603	1.82
242.986	2.04
243.368	2.41
243.75	2.03
244.133	2.55
244.515	2.36
244.897	1.94
245.279	2.02
245.661	2.46
246.043	2.57
246.425	2.21
246.807	2.85
247.189	1.87
247.571	3.11
247.953	2.36
248.335	2.12
248.717	2.31
249.098	2.36
249.48	2.43
249.862	2.46
250.243	2.45
250.625	1.81
251.006	2.57
251.388	3.04
251.769	2.62
252.151	3.09
252.532	2.12
252.913	1.59
253.295	2.63
253.676	2.31
254.057	2.18
254.438	2.34
254.819	2.16
255.2	1.88
255.581	2.94
255.962	2.98
256.343	1.49
256.724	1.66
257.105	1.13
257.486	2.59
257.867	3.78
258.247	2.22
258.628	2.43
259.009	1.17
259.389	1.83
259.77	2.59
260.15	2.7
260.531	2.47
260.911	1.95
261.292	2.22
261.672	2.29
262.052	2.43
262.432	2.24
262.813	2.01
263.193	2.09
263.573	2.23
263.953	1.94
264.333	1.97
264.713	2.39
265.093	2.39
265.473	2.36
265.853	1.24
266.233	2.04
266.612	1.93
266.992	2.84
267.372	1.23
267.752	2.36
268.131	2.01
268.511	2.3
268.89	2.71
269.27	2.27
269.649	2.24
270.029	2.18
270.408	2.11
270.787	2.44
271.167	1.78
271.546	2.52
271.925	1.95
272.304	2.07
272.683	1.94
273.062	2.22
273.441	2.41
273.82	2.14
274.199	2.35
274.578	1.98
274.957	2.13
275.336	1.77
275.715	1.63
276.093	2.26
276.472	1.61
276.851	1.77
277.229	2.51
277.608	1.84
277.986	2.21
278.365	2.01
278.743	2.57
279.122	2.06
279.5	2.18
279.878	2.65
280.257	2.06
280.635	1.77
281.013	2.2
281.391	2.54
281.769	2.19
282.147	1.86
282.525	2.01
282.903	2.01
283.281	2.83
283.659	2.04
284.037	2.13
284.415	2.46
284.792	2.17
285.17	2.01
285.548	2.38
285.925	2.02
286.303	2.26
286.68	2.57
287.058	2.12
287.435	2.32
287.813	1.93
288.19	2.38
288.567	2.06
288.945	2.19
289.322	2.49
289.699	2.4
290.076	2.91
290.453	2.01
290.83	2.35
291.207	2.24
291.584	2.67
291.961	2.74
292.338	2.52
292.715	2.66
293.092	2.46
293.469	2.47
293.845	2.41
294.222	2.7
294.599	2.54
294.975	2.36
295.352	2.56
295.728	2.67
296.105	2.97
296.481	2.89
296.858	3.02
297.234	3.39
297.61	3.18
297.986	2.85
298.363	2.98
298.739	2.72
299.115	3.07
299.491	2.85
299.867	3.09
300.243	3.29
300.619	3.34
300.995	3.1
301.371	3.14
301.746	3.29
302.122	3.1
302.498	3.39
302.874	3.58
303.249	3.38
303.625	2.92
304	3.09
304.376	3.38
304.751	3.65
305.127	2.87
305.502	3.46
305.878	3.22
306.253	3.59
306.628	2.79
307.003	3.7
307.378	3.71
307.754	3.5
308.129	3.27
308.504	3.13
308.879	3.59
309.254	3.92
309.629	3.92
310.003	3.62
310.378	3.44
310.753	3.85
311.128	3.29
311.502	3.34
311.877	3.86
312.252	3.69
312.626	3.85
313.001	3.67
313.375	3.57
313.75	3.62
314.124	3.67
314.498	3.79
314.873	3.85
315.247	3.96
315.621	4.03
315.995	4.18
316.369	3.59
316.743	4.43
317.117	4.14
317.491	4.15
317.865	3.96
318.239	4.05
318.613	4.22
318.987	4.46
319.361	4.04
319.734	4.73
320.108	4.35
320.482	3.05
320.855	4.25
321.229	4.02
321.602	4.18
321.976	4.01
322.349	5.23
322.723	4.41
323.096	4.05
323.469	4.03
323.843	4.4
324.216	4.43
324.589	4.8
324.962	4.93
325.335	4.6
325.708	4.23
326.081	4.3
326.454	4.19
326.827	4.19
327.2	4.34
327.573	4.07
327.945	4.78
328.318	4.22
328.691	4.14
329.063	4.33
329.436	4.67
329.809	4.19
330.181	3.84
330.553	4.24
330.926	4.65
331.298	4.56
331.671	4.62
332.043	4.44
332.415	4.92
332.787	4.74
333.159	4.41
333.532	3.85
333.904	5.24
334.276	4.5
334.648	4.98
335.02	4.34
335.391	4.6
335.763	4.81
336.135	5
336.507	4.91
336.879	4.35
337.25	4.97
337.622	4.81
337.993	5.02
338.365	4.59
338.736	4.91
339.108	4.84
339.479	4.74
339.851	4.69
340.222	4.7
340.593	4.58
340.964	4.82
341.336	4.57
341.707	4.65
342.078	4.55
342.449	4.55
342.82	4.72
343.191	4.45
343.562	4.76
343.933	4.63
344.303	4.79
344.674	4.92
345.045	4.42
345.416	4.26
345.786	4.72
346.157	4.83
346.527	4.54
346.898	5.15
347.268	4.35
347.639	4.85
348.009	4.98
348.38	4.54
348.75	4.5
349.12	4.64
349.49	4.85
349.861	4.72
350.231	4.9
350.601	4.58
350.971	4.67
351.341	4.87
351.711	4.68
352.081	4.65
352.45	5.09
352.82	4.85
353.19	5.11
353.56	5.27
353.929	4.48
354.299	5.27
354.669	4.78
355.038	5.02
355.408	4.83
355.777	4.85
356.147	4.58
356.516	4.47
356.885	4.83
357.254	5.08
357.624	5.15
357.993	4.84
358.362	4.67
358.731	4.79
359.1	4.78
359.469	5.06
359.838	5.22
360.207	4.8
360.576	5.08
360.945	5.25
361.314	5.13
361.682	4.88
362.051	4.82
362.42	5.01
362.788	4.77
363.157	5.1
363.525	5.04
363.894	4.9
364.262	4.99
364.631	4.86
364.999	5.19
365.367	4.95
365.735	4.95
366.104	5.1
366.472	5.15
366.84	4.68
367.208	5.34
367.576	4.87
367.944	5.22
368.312	5.02
368.68	5.02
369.048	5.12
369.416	5.32
369.783	4.83
370.151	4.83
370.519	5.47
370.886	5.12
371.254	5.29
371.621	5.2
371.989	5.02
372.356	5.05
372.724	5.17
373.091	4.99
373.458	5.27
373.826	5.39
374.193	5.16
374.56	4.81
374.927	5.44
375.294	5.08
375.661	5.41
376.028	5.07
376.395	5.42
376.762	5.25
377.129	5.18
377.496	5.19
377.863	5.14
378.229	4.87
378.596	4.99
378.963	4.98
379.329	5.04
379.696	5.21
380.062	5.42
380.429	5.21
380.795	5.28
381.161	5.19
381.528	5.5
381.894	5.1
382.26	5.15
382.626	5.24
382.993	5.38
383.359	5.15
383.725	5.24
384.091	5.24
384.457	5.37
384.823	5.14
385.188	5.41
385.554	5.34
385.92	5.14
386.286	5.15
386.651	5.33
387.017	5.21
387.383	5.17
387.748	5.24
388.114	5.1
388.479	5.59
388.845	5.4
389.21	5.44
389.575	5.41
389.94	5.49
390.306	5.28
390.671	5.25
391.036	5.3
391.401	5.4
391.766	5.27
392.131	5.08
392.496	5.37
392.861	5.39
393.226	5.23
393.591	5.42
393.956	5.43
394.32	5.14
394.685	5.39
395.05	5.52
395.414	5.31
395.779	5.46
396.143	5.3
396.508	5.5
396.872	5.39
397.236	5.49
397.601	5.38
397.965	5.46
398.329	5.48
398.694	5.64
399.058	5.54
399.422	5.47
399.786	5.71
400.15	5.5
400.514	5.45
400.878	5.36
401.242	5.51
401.605	5.48
401.969	5.62
402.333	5.55
402.697	5.6
403.06	5.51
403.424	5.64
403.787	5.5
404.151	5.61
404.514	5.72
404.878	5.55
405.241	5.49
405.604	5.7
405.968	5.45
406.331	5.43
406.694	5.33
407.057	5.44
407.42	5.55
407.783	5.45
408.146	5.54
408.509	5.66
408.872	5.7
409.235	5.57
409.598	5.58
409.961	5.49
410.323	5.47
410.686	5.71
411.049	5.5
411.411	5.46
411.774	5.52
412.136	5.87
412.499	5.73
412.861	5.76
413.223	5.82
413.586	5.66
413.948	5.74
414.31	5.61
414.672	5.79
415.035	5.81
415.397	5.75
415.759	5.97
416.121	5.5
416.483	5.82
416.845	5.73
417.206	5.78
417.568	5.67
417.93	5.71
418.292	5.67
418.653	5.7
419.015	5.74
419.377	5.75
419.738	5.68
420.1	5.67
420.461	5.6
420.822	5.59
421.184	5.7
421.545	5.63
421.906	5.73
422.267	5.59
422.629	5.76
422.99	5.55
423.351	5.47
423.712	5.57
424.073	5.65
424.434	5.65
424.795	5.71
425.155	5.81
425.516	5.77
425.877	5.56
426.238	5.63
426.598	5.64
426.959	5.59
427.32	5.71
427.68	5.72
428.041	5.71
428.401	5.92
428.761	5.86
429.122	5.73
429.482	5.83
429.842	5.61
430.202	5.91
430.563	5.84
430.923	5.89
431.283	5.98
431.643	5.87
432.003	6.02
432.363	5.97
432.722	5.81
433.082	6.05
433.442	5.92
433.802	5.74
434.161	6
434.521	5.78
434.881	5.82
435.24	5.86
435.6	5.96
435.959	5.86
436.319	6
436.678	5.92
437.037	5.97
437.396	6.12
437.756	6.07
438.115	5.89
438.474	5.93
438.833	6.22
439.192	5.99
439.551	6.12
439.91	6.06
440.269	5.98
440.628	6.03
440.987	5.95
441.345	6.1
441.704	5.89
442.063	6
442.421	5.94
442.78	6.07
443.138	6
443.497	6.08
443.855	6
444.214	6.13
444.572	6.07
444.93	6.13
445.288	6.07
445.647	6.05
446.005	6.08
446.363	6.13
446.721	6.03
447.079	6.1
447.437	6.11
447.795	5.95
448.153	5.94
448.51	6.02
448.868	5.93
449.226	5.94
449.584	6.07
449.941	6.1
450.299	6.13
450.656	6.14
451.014	6.2
451.371	6.27
451.729	6.29
452.086	6.1
452.443	6.33
452.801	6.45
453.158	6.29
453.515	6.31
453.872	6.29
454.229	6.36
454.586	6.28
454.943	6.31
455.3	6.24
455.657	6.24
456.014	6.31
456.371	6.33
456.727	6.39
457.084	6.46
457.441	6.39
457.797	6.41
458.154	6.57
458.51	6.47
458.867	6.44
459.223	6.47
459.58	6.63
459.936	6.24
460.292	6.4
460.648	6.48
461.005	6.19
461.361	6.33
461.717	6.31
462.073	6.37
462.429	6.44
462.785	6.29
463.141	6.46
463.496	6.44
463.852	6.52
464.208	6.52
464.564	6.54
464.919	6.8
465.275	6.65
465.631	6.67
465.986	6.54
466.342	6.53
466.697	6.51
467.052	6.64
467.408	6.73
467.763	6.71
468.118	6.77
468.473	6.66
468.829	6.49
469.184	6.64
469.539	6.74
469.894	6.86
470.249	6.68
470.603	6.79
470.958	6.57
471.313	6.68
471.668	6.53
472.023	6.57
472.377	6.8
472.732	6.69
473.086	6.58
473.441	6.72
473.795	6.64
474.15	6.69
474.504	6.73
474.859	6.53
475.213	6.61
475.567	6.71
475.921	6.66
476.275	6.86
476.63	6.82
476.984	6.75
477.338	6.85
477.692	6.86
478.045	6.83
478.399	6.8
478.753	6.87
479.107	6.81
479.461	6.88
479.814	6.91
480.168	6.76
480.521	6.95
480.875	6.86
481.228	6.93
481.582	6.92
481.935	6.93
482.289	6.81
482.642	6.87
482.995	6.82
483.348	6.76
483.701	6.77
484.055	6.75
484.408	6.8
484.761	6.76
485.114	6.63
485.466	6.5
485.819	6.41
486.172	6.51
486.525	6.51
486.878	6.63
487.23	6.73
487.583	6.71
487.936	6.79
488.288	6.84
488.641	6.73
488.993	6.67
489.345	6.62
489.698	6.61
490.05	6.68
490.402	6.71
490.754	6.77
491.107	6.82
491.459	6.9
491.811	6.86
492.163	7.04
492.515	7.01
492.866	6.9
493.218	6.83
493.57	6.73
493.922	6.82
494.274	6.84
494.625	6.84
494.977	7.05
495.328	7.14
495.68	7.1
496.031	7.14
496.383	7.27
496.734	7.14
497.086	7.25
497.437	7.36
497.788	7.28
498.139	7.15
498.49	7.15
498.842	7.25
499.193	7.19
499.544	7.29
499.894	7.19
500.245	7.28
500.596	7.17
500.947	7.21
501.298	7.32
501.648	7.36
501.999	7.47
502.35	7.4
502.7	7.3
503.051	7.54
503.401	7.48
503.752	7.55
504.102	7.44
504.452	7.48
504.803	7.51
505.153	7.34
505.503	7.52
505.853	7.59
506.203	7.48
506.553	7.52
506.903	7.6
507.253	7.6
507.603	7.5
507.953	7.56
508.303	7.56
508.652	7.47
509.002	7.7
509.352	7.68
509.701	7.6
510.051	7.46
510.4	7.56
510.75	7.59
511.099	7.6
511.449	7.45
511.798	7.57
512.147	7.58
512.496	7.5
512.846	7.62
513.195	7.66
513.544	7.57
513.893	7.64
514.242	7.63
514.591	7.63
514.939	7.74
515.288	7.78
515.637	7.82
515.986	7.66
516.334	7.81
516.683	7.86
517.032	7.78
517.38	7.87
517.729	7.88
518.077	7.91
518.426	7.82
518.774	7.84
519.122	7.88
519.47	7.83
519.819	7.82
520.167	7.8
520.515	7.64
520.863	7.73
521.211	7.69
521.559	7.86
521.907	7.8
522.255	7.87
522.602	7.97
522.95	7.86
523.298	7.96
523.645	8.08
523.993	8.26
524.341	8.03
524.688	8.04
525.036	8.11
525.383	8.14
525.73	8.07
526.078	8.13
526.425	8.05
526.772	7.95
527.119	7.97
527.466	7.91
527.814	7.95
528.161	7.89
528.508	7.9
528.854	7.96
529.201	7.95
529.548	7.97
529.895	7.81
530.242	7.74
530.588	7.71
530.935	7.74
531.282	7.81
531.628	7.85
531.975	7.99
532.321	8.05
532.667	8.07
533.014	8.2
533.36	8.19
533.706	8.3
534.052	8.16
534.399	8.17
534.745	8.16
535.091	8.01
535.437	7.95
535.783	8.04
536.129	8.17
536.474	8.29
536.82	8.24
537.166	8.42
537.512	8.38
537.857	8.35
538.203	8.24
538.549	8.19
538.894	8.41
539.239	8.43
539.585	8.36
539.93	8.52
540.276	8.58
540.621	8.53
540.966	8.53
541.311	8.53
541.656	8.61
542.001	8.58
542.346	8.49
542.691	8.33
543.036	8.32
543.381	8.26
543.726	8.27
544.071	8.27
544.415	8.38
544.76	8.4
545.105	8.56
545.449	8.57
545.794	8.64
546.138	8.63
546.483	8.68
546.827	8.72
547.171	8.71
547.516	8.81
547.86	8.74
548.204	8.76
548.548	8.79
548.892	8.75
549.236	8.73
549.58	8.87
549.924	8.91
550.268	9.03
550.612	9.11
550.956	9.03
551.3	9.1
551.643	9.09
551.987	9.04
552.33	9.06
552.674	8.96
553.017	9.3
553.361	9.29
553.704	9.18
554.048	9.16
554.391	8.95
554.734	9.25
555.077	9.1
555.42	9.24
555.764	9.42
556.107	9.32
556.45	9.33
556.793	9.36
557.135	9.44
557.478	9.4
557.821	9.46
558.164	9.57
558.507	9.4
558.849	9.52
559.192	9.54
559.534	9.42
559.877	9.57
560.219	9.66
560.562	9.66
560.904	9.63
561.246	9.48
561.589	9.57
561.931	9.59
562.273	9.61
562.615	9.49
562.957	9.65
563.299	9.65
563.641	9.78
563.983	9.69
564.325	9.65
564.667	9.66
565.008	9.82
565.35	9.7
565.692	9.9
566.033	9.94
566.375	9.81
566.716	9.89
567.058	9.84
567.399	9.88
567.741	9.82
568.082	9.97
568.423	9.75
568.764	9.89
569.105	9.85
569.447	9.91
569.788	9.94
570.129	10.03
570.47	10.13
570.811	10.19
571.151	10.05
571.492	10.01
571.833	10.04
572.174	10.23
572.514	10.2
572.855	10.02
573.195	10.13
573.536	10.08
573.876	10
574.217	10.06
574.557	10.11
574.898	10.17
575.238	10.18
575.578	10.45
575.918	10.24
576.258	10.45
576.598	10.41
576.938	10.47
577.278	10.25
577.618	10.29
577.958	10.3
578.298	10.58
578.638	10.49
578.977	10.72
579.317	10.63
579.657	10.44
579.996	10.46
580.336	10.63
580.675	10.59
581.014	10.57
581.354	10.74
581.693	10.89
582.032	10.48
582.372	10.79
582.711	10.73
583.05	10.81
583.389	10.68
583.728	10.71
584.067	10.94
584.406	10.91
584.745	10.96
585.083	10.73
585.422	10.81
585.761	10.8
586.1	10.84
586.438	10.92
586.777	11
587.115	10.87
587.454	11.17
587.792	11.23
588.13	10.91
588.469	11.17
588.807	11.15
589.145	11.09
589.483	10.86
589.821	11.09
590.159	11.02
590.497	11.31
590.835	11.1
591.173	11.06
591.511	11.36
591.849	11.41
592.187	11.15
592.524	11.24
592.862	11.33
593.2	11.38
593.537	11.31
593.875	11.13
594.212	11.22
594.55	11.46
594.887	11.18
595.224	11.58
595.561	11.35
595.899	11.42
596.236	11.39
596.573	11.58
596.91	11.36
597.247	11.43
597.584	11.45
597.921	11.9
598.258	11.48
598.594	11.29
598.931	11.66
599.268	11.39
599.604	11.57
599.941	11.61
600.277	11.65
600.614	11.82
600.95	11.74
601.287	11.7
601.623	11.77
601.959	11.93
602.296	11.81
602.632	12.15
602.968	11.99
603.304	12
603.64	11.75
603.976	11.53
604.312	12
604.648	11.87
604.984	11.88
605.319	11.97
605.655	11.84
605.991	11.94
606.326	11.86
606.662	11.81
606.998	11.69
607.333	11.89
607.668	11.9
608.004	12.1
608.339	11.96
608.674	12.31
609.01	12.06
609.345	12.26
609.68	12.27
610.015	12.3
610.35	12.16
610.685	12.28
611.02	12.36
611.355	12.02
611.689	12.23
612.024	12.27
612.359	12.12
612.694	12.39
613.028	12.35
613.363	12.84
613.697	12.52
614.032	12.38
614.366	12.41
614.7	12.42
615.035	12.76
615.369	12.61
615.703	12.75
616.037	12.33
616.371	12.84
616.705	12.77
617.039	13.17
617.373	12.72
617.707	13.01
618.041	12.89
618.375	12.77
618.709	12.66
619.042	12.95
619.376	12.83
619.71	12.86
620.043	13.15
620.377	13.27
620.71	13.18
621.043	12.85
621.377	12.76
621.71	13.18
622.043	13.4
622.376	13.21
622.709	13.21
623.043	13.22
623.376	13.37
623.709	13.01
624.041	13.26
624.374	13.06
624.707	12.91
625.04	13.32
625.373	13.18
625.705	12.9
626.038	13.11
626.37	13.28
626.703	13.33
627.035	13.39
627.368	13.16
627.7	13.32
628.032	13.19
628.365	13.47
628.697	13.29
629.029	13.31
629.361	13.2
629.693	13.46
630.025	13.19
630.357	13.22
630.689	13.55
631.021	13.45
631.353	13.43
631.684	13.56
632.016	13.55
632.348	13.45
632.679	13.55
633.011	13.42
633.342	13.39
633.674	13.51
634.005	13.67
634.336	13.93
634.668	13.55
634.999	13.93
635.33	13.57
635.661	13.57
635.992	13.7
636.323	13.66
636.654	13.41
636.985	13.99
637.316	13.74
637.647	13.69
637.977	13.88
638.308	13.92
638.639	13.94
638.969	13.75
639.3	14.09
639.63	14.07
639.961	14
640.291	14.16
640.622	14.25
640.952	13.84
641.282	13.43
641.612	13.81
641.943	14.11
642.273	13.89
642.603	14.28
642.933	13.88
643.263	13.41
643.592	14.03
643.922	14.39
644.252	14.2
644.582	14.05
644.911	14.73
645.241	14.04
645.571	14.22
645.9	14.23
646.23	14.16
646.559	14.35
646.888	14.27
647.218	14.28
647.547	14.44
647.876	14.43
648.205	14.23
648.534	14.35
648.863	14.28
649.192	14.55
649.521	14.26
649.85	14.51
650.179	14.27
650.508	14.38
650.837	14.59
651.165	14.34
651.494	14.76
651.822	14.44
652.151	15.19
652.479	14.45
652.808	14.89
653.136	14.56
653.465	14.94
653.793	15.24
654.121	14.81
654.449	14.54
654.777	14.09
655.105	14.76
655.433	15.02
655.761	14.67
656.089	14.35
656.417	14.63
656.745	14.01
657.073	14.68
657.4	14.95
657.728	14.63
658.056	14.54
658.383	14.69
658.711	14.87
659.038	15.28
659.365	15.61
659.693	15.27
660.02	15.38
660.347	15.01
660.674	14.76
661.001	14.83
661.329	14.8
661.656	14.93
661.982	14.54
662.309	14.91
662.636	15.17
662.963	15.26
663.29	14.91
663.616	15.44
663.943	15.39
664.27	15.44
664.596	15.37
664.923	15.1
665.249	15.45
665.576	15.45
665.902	14.66
666.228	15
666.554	15.77
666.881	15.14
667.207	15.45
667.533	15.31
667.859	15.14
668.185	15.52
668.511	15.54
668.837	15.06
669.162	15.48
669.488	14.87
669.814	15.45
670.139	15
670.465	15.59
670.791	15.38
671.116	15.37
671.442	15.62
671.767	15.89
672.092	15.65
672.418	15.21
672.743	15.52
673.068	15.81
673.393	15.92
673.718	15.6
674.043	15.53
674.368	15.27
674.693	15.66
675.018	15.22
675.343	15.7
675.667	16.03
675.992	16.02
676.317	15.87
676.641	15.39
676.966	15.38
677.29	15.87
677.615	16.16
677.939	16.19
678.264	15.81
678.588	15.73
678.912	16.86
679.236	16.18
679.56	16.09
679.885	16.23
680.209	16.75
680.532	15.97
680.856	16.13
681.18	16.07
681.504	16.14
681.828	15.71
682.152	16.3
682.475	15.96
682.799	16.56
683.122	15.73
683.446	16.42
683.769	15.38
684.093	16.25
684.416	15.49
