Data from 0046_chest_Reflection__4__170.txt Node

Date: Fri Nov 04 16:13:35 CDT 2022
User: ToomeyLab
Spectrometer: FLMS14357
Trigger mode: 0
Integration Time (sec): 1.000000E-2
Scans to average: 100
Electric dark correction enabled: true
Nonlinearity correction enabled: false
Boxcar width: 0
XAxis mode: Wavelengths
Number of Pixels in Spectrum: 2048
>>>>>Begin Spectral Data<<<<<
189.047	-55.5
189.435	-55.5
189.823	-55.5
190.211	-90.25
190.599	110.25
190.987	-107.78
191.375	358.89
191.763	2.34
192.151	-0.37
192.538	29.66
192.926	34.54
193.314	62.48
193.702	73.49
194.089	71.98
194.477	35.8
194.864	-16.31
195.252	90.09
195.639	-87.91
196.027	35.1
196.414	-454.59
196.801	52.2
197.189	-119.78
197.576	-71.79
197.963	-49.5
198.351	-35.56
198.738	40.44
199.125	2.93
199.512	-50.76
199.899	-13.09
200.286	-74.81
200.673	-23.06
201.06	-7.88
201.447	-11.54
201.833	32.84
202.22	-27.59
202.607	33.36
202.994	38.52
203.38	15.31
203.767	-18.36
204.154	44.06
204.54	-40.19
204.927	0.64
205.313	19.76
205.699	39.44
206.086	17.75
206.472	1.29
206.858	24.73
207.245	-3.84
207.631	-1.52
208.017	7.12
208.403	3.03
208.789	32.89
209.175	15.65
209.561	-94.16
209.947	-126.18
210.333	3.71
210.719	-7.41
211.105	-4.63
211.491	17.53
211.876	32.95
212.262	4.65
212.648	-8.41
213.034	25.85
213.419	-16.01
213.805	-42.33
214.19	-39.28
214.576	3.35
214.961	21.63
215.346	0.11
215.732	-1.71
216.117	-16.2
216.502	18.45
216.888	-20.5
217.273	8.58
217.658	-10.36
218.043	-9.24
218.428	9.66
218.813	8.73
219.198	-2.34
219.583	-3.12
219.968	0.03
220.353	-23.28
220.738	-19
221.122	-19.34
221.507	3.3
221.892	-3.77
222.276	2.85
222.661	6.54
223.046	-2.07
223.43	4.98
223.815	-12.92
224.199	16.88
224.583	-4.7
224.968	8.1
225.352	4.93
225.736	-2.9
226.121	-6.78
226.505	1.69
226.889	-1.05
227.273	0.94
227.657	-2.86
228.041	5.45
228.425	2.27
228.809	3.91
229.193	-0.45
229.577	-0.24
229.961	3.36
230.344	2.38
230.728	2.68
231.112	2.37
231.495	3.06
231.879	3.54
232.263	1.25
232.646	1.35
233.03	1.85
233.413	1.26
233.797	0.61
234.18	0.95
234.563	1.69
234.946	0.45
235.33	2.09
235.713	1.64
236.096	3.17
236.479	2.73
236.862	1.05
237.245	0.45
237.628	1.79
238.011	0.11
238.394	3.18
238.777	1.28
239.16	2.22
239.543	0.83
239.925	3
240.308	4.52
240.691	1.72
241.073	1.16
241.456	1.89
241.838	1.08
242.221	2.62
242.603	1.96
242.986	2.13
243.368	2.56
243.75	2.39
244.133	2.62
244.515	2.9
244.897	2.79
245.279	2.71
245.661	2.88
246.043	3.08
246.425	2.57
246.807	3.14
247.189	2.36
247.571	2.8
247.953	2.5
248.335	2.38
248.717	2.57
249.098	2.53
249.48	2.68
249.862	2.73
250.243	2.75
250.625	2.4
251.006	2.5
251.388	2.91
251.769	4.01
252.151	2.67
252.532	2.96
252.913	2.08
253.295	2.26
253.676	1.66
254.057	2.23
254.438	2.39
254.819	2.81
255.2	2.34
255.581	3.13
255.962	3.42
256.343	2.51
256.724	3.32
257.105	2.99
257.486	3.16
257.867	3.62
258.247	3.32
258.628	2.44
259.009	2.79
259.389	2.54
259.77	2
260.15	2.53
260.531	2.93
260.911	2.38
261.292	2.36
261.672	2.37
262.052	2.54
262.432	2.48
262.813	2.31
263.193	2.29
263.573	2.27
263.953	2.58
264.333	2.6
264.713	3.27
265.093	2.49
265.473	3.11
265.853	1.92
266.233	2.9
266.612	2.31
266.992	2.83
267.372	0.93
267.752	2.45
268.131	2.7
268.511	2.76
268.89	2.78
269.27	2.42
269.649	2.57
270.029	2.28
270.408	2.21
270.787	2.8
271.167	2.03
271.546	3.63
271.925	2.38
272.304	2.18
272.683	2.11
273.062	2.11
273.441	2.87
273.82	2.29
274.199	2.44
274.578	2.51
274.957	2.3
275.336	2.26
275.715	1.83
276.093	2.48
276.472	2.12
276.851	2.13
277.229	2.11
277.608	2.04
277.986	2.43
278.365	2.97
278.743	2.52
279.122	2.43
279.5	2.18
279.878	2.11
280.257	2
280.635	2.19
281.013	2.13
281.391	1.99
281.769	2.15
282.147	2.26
282.525	2.49
282.903	2.2
283.281	2.33
283.659	2.37
284.037	2.12
284.415	2.49
284.792	2.61
285.17	1.75
285.548	3.16
285.925	2.44
286.303	2.74
286.68	2.7
287.058	2.41
287.435	2.24
287.813	2.11
288.19	2.64
288.567	2.24
288.945	2.27
289.322	1.94
289.699	2.64
290.076	2.88
290.453	2.17
290.83	2.33
291.207	2.13
291.584	2.65
291.961	2.57
292.338	2.58
292.715	2.58
293.092	2.73
293.469	2.32
293.845	2.02
294.222	2.28
294.599	2.56
294.975	2.2
295.352	2.67
295.728	2.87
296.105	2.76
296.481	2.25
296.858	2.56
297.234	3.04
297.61	3.31
297.986	2.55
298.363	2.7
298.739	2.77
299.115	2.85
299.491	2.73
299.867	2.81
300.243	2.75
300.619	2.69
300.995	2.81
301.371	2.82
301.746	2.75
302.122	2.63
302.498	2.92
302.874	2.82
303.249	2.54
303.625	2.53
304	3.06
304.376	2.39
304.751	2.54
305.127	2.21
305.502	2.97
305.878	3.07
306.253	2.95
306.628	2.68
307.003	2.88
307.378	3.03
307.754	2.95
308.129	2.66
308.504	2.98
308.879	3
309.254	3.22
309.629	2.93
310.003	2.85
310.378	2.84
310.753	2.87
311.128	2.47
311.502	2.61
311.877	3.05
312.252	2.77
312.626	3.41
313.001	2.71
313.375	2.86
313.75	2.41
314.124	2.71
314.498	3
314.873	3.06
315.247	3.6
315.621	3.21
315.995	3.45
316.369	3.22
316.743	3.23
317.117	3.33
317.491	2.92
317.865	2.65
318.239	2.81
318.613	3.91
318.987	3.14
319.361	2.97
319.734	3.17
320.108	2.74
320.482	2.42
320.855	3.04
321.229	2.97
321.602	2.99
321.976	3.2
322.349	3.48
322.723	3.04
323.096	3.36
323.469	3.06
323.843	3.39
324.216	3.22
324.589	3
324.962	3.69
325.335	2.86
325.708	2.54
326.081	3.15
326.454	3.03
326.827	3
327.2	3.24
327.573	2.97
327.945	3.1
328.318	2.79
328.691	3.03
329.063	3.32
329.436	3.43
329.809	3.27
330.181	3.12
330.553	3.21
330.926	3.66
331.298	3.36
331.671	3.16
332.043	3.12
332.415	3.3
332.787	2.78
333.159	2.8
333.532	2.95
333.904	3.61
334.276	3.3
334.648	3.43
335.02	2.62
335.391	2.94
335.763	3
336.135	3.27
336.507	2.76
336.879	3.48
337.25	3.25
337.622	3.14
337.993	2.99
338.365	2.87
338.736	3.22
339.108	3.77
339.479	3.42
339.851	3.22
340.222	2.99
340.593	3.33
340.964	3.2
341.336	3.13
341.707	2.9
342.078	3.02
342.449	3.15
342.82	3.22
343.191	3.21
343.562	3.2
343.933	3.6
344.303	3.6
344.674	3.32
345.045	2.9
345.416	2.82
345.786	3.57
346.157	3.4
346.527	3.37
346.898	3.61
347.268	2.97
347.639	3.15
348.009	3.21
348.38	3.42
348.75	3.06
349.12	3.09
349.49	3.36
349.861	3.28
350.231	3.38
350.601	3.13
350.971	3.18
351.341	2.87
351.711	3.11
352.081	3.25
352.45	3.4
352.82	3.07
353.19	3.26
353.56	3.4
353.929	3.05
354.299	3.51
354.669	3.35
355.038	3.65
355.408	2.92
355.777	3.22
356.147	3.1
356.516	3.24
356.885	3.12
357.254	3.58
357.624	3.28
357.993	3.11
358.362	3.12
358.731	3.32
359.1	3.13
359.469	3.57
359.838	3.23
360.207	3.22
360.576	3.47
360.945	3.53
361.314	3.69
361.682	3.33
362.051	3.38
362.42	3.5
362.788	3.29
363.157	3.4
363.525	3.41
363.894	3.33
364.262	3.2
364.631	3.39
364.999	3.42
365.367	3.17
365.735	3.29
366.104	3.45
366.472	3.3
366.84	2.87
367.208	3.56
367.576	3.4
367.944	3.39
368.312	3.13
368.68	3.22
369.048	3.17
369.416	3.31
369.783	3.32
370.151	3.51
370.519	3.69
370.886	3.16
371.254	3.22
371.621	3.46
371.989	3.28
372.356	3.29
372.724	3.4
373.091	3.39
373.458	3.49
373.826	3.41
374.193	3.47
374.56	3.13
374.927	3.73
375.294	3.28
375.661	3.57
376.028	3.17
376.395	3.13
376.762	3.52
377.129	3.38
377.496	3.35
377.863	3.49
378.229	3.23
378.596	3.42
378.963	3.43
379.329	3.15
379.696	3.44
380.062	3.52
380.429	3.21
380.795	3.34
381.161	3.41
381.528	3.61
381.894	3.19
382.26	3.57
382.626	3.17
382.993	3.26
383.359	3.52
383.725	3.29
384.091	3.42
384.457	3.47
384.823	3.64
385.188	3.41
385.554	3.63
385.92	3.24
386.286	3.54
386.651	3.41
387.017	3.41
387.383	3.66
387.748	3.25
388.114	3.51
388.479	3.76
388.845	3.37
389.21	3.8
389.575	3.59
389.94	3.64
390.306	3.75
390.671	3.66
391.036	3.29
391.401	3.73
391.766	3.17
392.131	3.11
392.496	3.29
392.861	3.43
393.226	3.3
393.591	3.46
393.956	3.55
394.32	3.4
394.685	3.61
395.05	3.6
395.414	3.28
395.779	3.44
396.143	3.31
396.508	3.64
396.872	3.56
397.236	3.55
397.601	3.48
397.965	3.45
398.329	3.31
398.694	3.8
399.058	3.72
399.422	3.56
399.786	3.53
400.15	3.66
400.514	3.33
400.878	3.47
401.242	3.58
401.605	3.48
401.969	3.56
402.333	3.51
402.697	3.64
403.06	3.84
403.424	3.6
403.787	3.56
404.151	3.61
404.514	3.47
404.878	3.64
405.241	3.56
405.604	3.68
405.968	3.63
406.331	3.45
406.694	3.47
407.057	3.46
407.42	3.63
407.783	3.37
408.146	3.74
408.509	3.74
408.872	3.51
409.235	3.79
409.598	3.49
409.961	3.62
410.323	3.67
410.686	3.46
411.049	3.44
411.411	3.3
411.774	3.51
412.136	3.63
412.499	3.67
412.861	3.7
413.223	3.63
413.586	3.61
413.948	3.69
414.31	3.38
414.672	3.77
415.035	3.63
415.397	3.3
415.759	3.71
416.121	3.55
416.483	3.68
416.845	3.67
417.206	3.51
417.568	3.77
417.93	3.68
418.292	3.53
418.653	3.66
419.015	3.64
419.377	3.59
419.738	3.55
420.1	3.71
420.461	3.6
420.822	3.5
421.184	3.66
421.545	3.53
421.906	3.6
422.267	3.5
422.629	3.66
422.99	3.55
423.351	3.49
423.712	3.57
424.073	3.71
424.434	3.63
424.795	3.61
425.155	3.67
425.516	3.6
425.877	3.49
426.238	3.57
426.598	3.62
426.959	3.5
427.32	3.6
427.68	3.55
428.041	3.57
428.401	3.75
428.761	3.73
429.122	3.57
429.482	3.75
429.842	3.57
430.202	3.79
430.563	3.74
430.923	3.73
431.283	3.68
431.643	3.81
432.003	3.94
432.363	3.63
432.722	3.73
433.082	3.74
433.442	3.67
433.802	3.46
434.161	3.76
434.521	3.65
434.881	3.7
435.24	3.58
435.6	3.72
435.959	3.61
436.319	3.68
436.678	3.67
437.037	3.73
437.396	3.8
437.756	3.78
438.115	3.5
438.474	3.87
438.833	3.73
439.192	3.74
439.551	3.64
439.91	3.79
440.269	3.77
440.628	3.89
440.987	3.65
441.345	3.7
441.704	3.76
442.063	3.67
442.421	3.76
442.78	3.81
443.138	3.67
443.497	3.7
443.855	3.72
444.214	3.81
444.572	3.71
444.93	3.75
445.288	3.88
445.647	3.7
446.005	3.78
446.363	3.79
446.721	3.8
447.079	3.75
447.437	3.68
447.795	3.72
448.153	3.71
448.51	3.69
448.868	3.74
449.226	3.68
449.584	3.74
449.941	3.74
450.299	3.83
450.656	3.85
451.014	3.99
451.371	3.97
451.729	3.93
452.086	3.79
452.443	3.84
452.801	3.94
453.158	3.91
453.515	4.03
453.872	3.77
454.229	3.92
454.586	3.82
454.943	4.04
455.3	3.82
455.657	3.8
456.014	3.94
456.371	3.83
456.727	3.85
457.084	3.92
457.441	3.89
457.797	3.89
458.154	4.11
458.51	3.92
458.867	3.87
459.223	3.95
459.58	4.04
459.936	3.99
460.292	3.92
460.648	3.95
461.005	3.79
461.361	3.83
461.717	3.88
462.073	3.83
462.429	3.95
462.785	3.93
463.141	4
463.496	3.9
463.852	4.07
464.208	4.01
464.564	3.9
464.919	4.19
465.275	4.04
465.631	3.94
465.986	3.95
466.342	3.91
466.697	3.93
467.052	3.96
467.408	3.9
467.763	4.07
468.118	4
468.473	3.98
468.829	3.87
469.184	4
469.539	4
469.894	3.95
470.249	3.92
470.603	3.98
470.958	3.91
471.313	3.99
471.668	3.97
472.023	3.95
472.377	4.01
472.732	3.98
473.086	4.07
473.441	4.04
473.795	4.16
474.15	4.09
474.504	3.98
474.859	4.01
475.213	4.17
475.567	3.93
475.921	3.99
476.275	4.15
476.63	4.15
476.984	4.01
477.338	4.07
477.692	4.17
478.045	4.15
478.399	4.1
478.753	4.14
479.107	4.07
479.461	4.17
479.814	4.2
480.168	4.04
480.521	3.94
480.875	4
481.228	4.13
481.582	4.16
481.935	4.07
482.289	4.09
482.642	4.1
482.995	4.12
483.348	4.04
483.701	4.13
484.055	4.01
484.408	4.02
484.761	4.02
485.114	3.9
485.466	3.85
485.819	3.81
486.172	3.83
486.525	3.92
486.878	4.03
487.23	4.11
487.583	4.09
487.936	4.1
488.288	4.11
488.641	4.02
488.993	3.99
489.345	3.92
489.698	3.94
490.05	3.98
490.402	3.99
490.754	4.07
491.107	4.14
491.459	4.11
491.811	4.18
492.163	4.18
492.515	4.22
492.866	4.09
493.218	4.07
493.57	3.99
493.922	4.02
494.274	4.03
494.625	4.17
494.977	4.23
495.328	4.3
495.68	4.23
496.031	4.34
496.383	4.33
496.734	4.2
497.086	4.46
497.437	4.35
497.788	4.29
498.139	4.36
498.49	4.23
498.842	4.3
499.193	4.29
499.544	4.29
499.894	4.25
500.245	4.3
500.596	4.26
500.947	4.3
501.298	4.35
501.648	4.4
501.999	4.56
502.35	4.33
502.7	4.34
503.051	4.46
503.401	4.36
503.752	4.6
504.102	4.39
504.452	4.38
504.803	4.43
505.153	4.46
505.503	4.44
505.853	4.42
506.203	4.45
506.553	4.57
506.903	4.5
507.253	4.55
507.603	4.46
507.953	4.4
508.303	4.45
508.652	4.5
509.002	4.49
509.352	4.54
509.701	4.44
510.051	4.49
510.4	4.43
510.75	4.47
511.099	4.57
511.449	4.46
511.798	4.53
512.147	4.58
512.496	4.43
512.846	4.41
513.195	4.57
513.544	4.44
513.893	4.6
514.242	4.53
514.591	4.51
514.939	4.66
515.288	4.46
515.637	4.58
515.986	4.59
516.334	4.67
516.683	4.65
517.032	4.59
517.38	4.7
517.729	4.75
518.077	4.74
518.426	4.65
518.774	4.68
519.122	4.55
519.47	4.68
519.819	4.59
520.167	4.61
520.515	4.51
520.863	4.54
521.211	4.62
521.559	4.67
521.907	4.64
522.255	4.72
522.602	4.76
522.95	4.71
523.298	4.75
523.645	4.72
523.993	4.74
524.341	4.79
524.688	4.87
525.036	4.81
525.383	4.89
525.73	4.87
526.078	4.85
526.425	4.8
526.772	4.75
527.119	4.71
527.466	4.71
527.814	4.67
528.161	4.7
528.508	4.79
528.854	4.8
529.201	4.74
529.548	4.73
529.895	4.71
530.242	4.6
530.588	4.55
530.935	4.59
531.282	4.67
531.628	4.74
531.975	4.82
532.321	4.9
532.667	4.92
533.014	4.96
533.36	4.95
533.706	5.06
534.052	4.86
534.399	4.93
534.745	4.89
535.091	4.8
535.437	4.78
535.783	4.86
536.129	4.95
536.474	5.03
536.82	5.02
537.166	4.98
537.512	5.08
537.857	4.91
538.203	4.97
538.549	5.03
538.894	5.01
539.239	5.1
539.585	5.1
539.93	5.11
540.276	5.16
540.621	5.2
540.966	5.29
541.311	5.13
541.656	5.18
542.001	5.2
542.346	5.23
542.691	5.08
543.036	5
543.381	4.98
543.726	5.08
544.071	5.12
544.415	5.17
544.76	5.29
545.105	5.29
545.449	5.27
545.794	5.32
546.138	5.35
546.483	5.42
546.827	5.33
547.171	5.46
547.516	5.31
547.86	5.3
548.204	5.42
548.548	5.33
548.892	5.4
549.236	5.32
549.58	5.39
549.924	5.41
550.268	5.6
550.612	5.54
550.956	5.68
551.3	5.63
551.643	5.56
551.987	5.44
552.33	5.44
552.674	5.61
553.017	5.6
553.361	5.77
553.704	5.54
554.048	5.55
554.391	5.59
554.734	5.75
555.077	5.7
555.42	5.65
555.764	5.9
556.107	5.76
556.45	5.82
556.793	5.85
557.135	5.82
557.478	5.71
557.821	5.88
558.164	5.99
558.507	5.81
558.849	5.85
559.192	6.06
559.534	6.03
559.877	5.93
560.219	5.88
560.562	6
560.904	6.17
561.246	6.02
561.589	6.06
561.931	5.87
562.273	6.06
562.615	6
562.957	6
563.299	5.97
563.641	6.08
563.983	6.1
564.325	5.99
564.667	6.08
565.008	5.97
565.35	6.18
565.692	6.42
566.033	6.22
566.375	6.09
566.716	6.14
567.058	6.25
567.399	6.28
567.741	6.32
568.082	6.26
568.423	6.35
568.764	6.15
569.105	6.36
569.447	6.32
569.788	6.4
570.129	6.39
570.47	6.31
570.811	6.51
571.151	6.47
571.492	6.56
571.833	6.43
572.174	6.7
572.514	6.45
572.855	6.34
573.195	6.5
573.536	6.49
573.876	6.54
574.217	6.56
574.557	6.48
574.898	6.63
575.238	6.51
575.578	6.81
575.918	6.6
576.258	6.62
576.598	6.55
576.938	6.76
577.278	6.59
577.618	6.62
577.958	6.68
578.298	6.86
578.638	6.72
578.977	6.87
579.317	6.76
579.657	6.86
579.996	6.74
580.336	6.91
580.675	6.78
581.014	7.03
581.354	6.83
581.693	7.05
582.032	6.88
582.372	7.03
582.711	7.23
583.05	7.13
583.389	7.07
583.728	7.14
584.067	7.16
584.406	7.08
584.745	7.31
585.083	7.24
585.422	7.34
585.761	7.1
586.1	7.33
586.438	7.08
586.777	7.31
587.115	7.6
587.454	7.55
587.792	7.64
588.13	7.53
588.469	7.52
588.807	7.36
589.145	7.54
589.483	7.32
589.821	7.37
590.159	7.5
590.497	7.57
590.835	7.58
591.173	7.43
591.511	7.64
591.849	7.69
592.187	7.53
592.524	7.67
592.862	7.6
593.2	7.72
593.537	7.76
593.875	7.71
594.212	7.62
594.55	7.7
594.887	7.74
595.224	7.73
595.561	7.58
595.899	7.67
596.236	7.92
596.573	7.83
596.91	7.79
597.247	7.94
597.584	7.74
597.921	7.98
598.258	7.9
598.594	7.47
598.931	7.89
599.268	7.99
599.604	8.02
599.941	7.98
600.277	8.15
600.614	8.18
600.95	8.25
601.287	8.12
601.623	8.27
601.959	8.25
602.296	8.25
602.632	8.36
602.968	8.15
603.304	8.24
603.64	8.28
603.976	7.89
604.312	8.31
604.648	8.07
604.984	8.09
605.319	8.14
605.655	7.97
605.991	8.33
606.326	8.35
606.662	8.3
606.998	8.21
607.333	8.32
607.668	8.53
608.004	8.51
608.339	8.58
608.674	8.7
609.01	8.7
609.345	8.47
609.68	8.73
610.015	8.7
610.35	8.81
610.685	8.84
611.02	8.79
611.355	8.56
611.689	8.69
612.024	8.69
612.359	8.59
612.694	8.83
613.028	8.7
613.363	9.15
613.697	8.79
614.032	8.83
614.366	8.9
614.7	8.73
615.035	8.93
615.369	8.82
615.703	9.2
616.037	8.82
616.371	9.41
616.705	9.1
617.039	9.24
617.373	9.29
617.707	9.34
618.041	9.16
618.375	9.2
618.709	9.28
619.042	9.36
619.376	9.66
619.71	9.21
620.043	9.6
620.377	9.55
620.71	9.78
621.043	9.4
621.377	9.14
621.71	9.44
622.043	9.64
622.376	9.65
622.709	9.16
623.043	9.69
623.376	9.61
623.709	9.5
624.041	9.65
624.374	9.26
624.707	9.69
625.04	9.62
625.373	9.58
625.705	9.72
626.038	9.72
626.37	9.82
626.703	10.1
627.035	9.93
627.368	9.96
627.7	9.61
628.032	9.64
628.365	10
628.697	9.76
629.029	9.68
629.361	9.88
629.693	9.81
630.025	9.85
630.357	9.98
630.689	9.83
631.021	9.9
631.353	10.1
631.684	10.1
632.016	10.25
632.348	10.07
632.679	10.39
633.011	10.11
633.342	10.18
633.674	10.15
634.005	10.25
634.336	10.33
634.668	10.52
634.999	10.6
635.33	10.24
635.661	10.05
635.992	10.55
636.323	10.08
636.654	10.05
636.985	10.61
637.316	10.28
637.647	10.07
637.977	10.78
638.308	10.65
638.639	10.7
638.969	10.27
639.3	10.77
639.63	10.41
639.961	10.68
640.291	11.04
640.622	10.98
640.952	10.58
641.282	10.62
641.612	10.69
641.943	10.68
642.273	10.69
642.603	10.89
642.933	11.08
643.263	10.73
643.592	10.93
643.922	11.31
644.252	11.18
644.582	11.02
644.911	10.69
645.241	10.61
645.571	10.98
645.9	11.13
646.23	10.93
646.559	11.18
646.888	11.23
647.218	11.43
647.547	10.98
647.876	11.1
648.205	10.86
648.534	11.28
648.863	11.16
649.192	11.17
649.521	11.74
649.85	11.27
650.179	11.07
650.508	11.23
650.837	11.43
651.165	11.41
651.494	11.53
651.822	11.57
652.151	11.67
652.479	11.64
652.808	11.51
653.136	11.32
653.465	11.54
653.793	11.82
654.121	11.46
654.449	11.55
654.777	11.26
655.105	11.46
655.433	11.67
655.761	11.35
656.089	11.86
656.417	11.82
656.745	11.33
657.073	11.33
657.4	11.71
657.728	11.81
658.056	11.88
658.383	11.73
658.711	12.11
659.038	12.04
659.365	12.27
659.693	11.94
660.02	12.14
660.347	11.82
660.674	12.18
661.001	11.95
661.329	12.18
661.656	11.89
661.982	11.84
662.309	12.01
662.636	12.44
662.963	11.83
663.29	12
663.616	12.24
663.943	11.87
664.27	12.53
664.596	12.13
664.923	12.1
665.249	12.53
665.576	12.5
665.902	11.83
666.228	11.56
666.554	13.11
666.881	11.94
667.207	12.49
667.533	12.44
667.859	12.26
668.185	12.62
668.511	13.04
668.837	11.91
669.162	13.1
669.488	12.2
669.814	12.63
670.139	12.63
670.465	12.41
670.791	12.77
671.116	12.98
671.442	12.46
671.767	13.09
672.092	13.09
672.418	13.01
672.743	13.3
673.068	12.55
673.393	12.53
673.718	12.87
674.043	12.88
674.368	12.38
674.693	13.07
675.018	12.36
675.343	13.29
675.667	12.88
675.992	12.98
676.317	12.98
676.641	12.86
676.966	12.69
677.29	12.84
677.615	13.23
677.939	12.92
678.264	13.4
678.588	12.98
678.912	13.52
679.236	13.57
679.56	13.67
679.885	13.55
680.209	13.72
680.532	13.5
680.856	13.06
681.18	13.04
681.504	13.24
681.828	13.19
682.152	13.71
682.475	13.43
682.799	13.74
683.122	13.6
683.446	13.38
683.769	13.34
684.093	13.88
684.416	13.1
684.739	13.38
685.062	14.54
685.386	13.47
685.709	14.44
686.032	14.12
686.355	14.5
686.678	14.17
687.001	14.43
687.324	14.19
687.646	13.91
687.969	13.93
688.292	13.68
688.614	14.04
688.937	14.11
689.26	14.16
689.582	14.26
