Data from 0046_crown_Reflection__0__171.txt Node

Date: Fri Nov 04 16:14:29 CDT 2022
User: ToomeyLab
Spectrometer: FLMS14357
Trigger mode: 0
Integration Time (sec): 1.000000E-2
Scans to average: 100
Electric dark correction enabled: true
Nonlinearity correction enabled: false
Boxcar width: 0
XAxis mode: Wavelengths
Number of Pixels in Spectrum: 2048
>>>>>Begin Spectral Data<<<<<
189.047	-40.22
189.435	-40.22
189.823	-40.22
190.211	533.5
190.599	191.07
190.987	-659.9
191.375	623.06
191.763	103.13
192.151	102.08
192.538	47.29
192.926	171.41
193.314	-30.65
193.702	95.78
194.089	119.49
194.477	23.04
194.864	186.92
195.252	143.65
195.639	-46.2
196.027	2.26
196.414	-333.51
196.801	79.06
197.189	-489.62
197.576	153.22
197.963	13.45
198.351	-42.69
198.738	-35.12
199.125	3.02
199.512	-18.28
199.899	-7.2
200.286	-65.75
200.673	3.76
201.06	-20.56
201.447	-30.51
201.833	-15.74
202.22	-1.7
202.607	16.1
202.994	24.2
203.38	48.52
203.767	18.46
204.154	35.98
204.54	-23.8
204.927	48.94
205.313	24.19
205.699	26.64
206.086	-4.46
206.472	-0.86
206.858	8.04
207.245	-9.41
207.631	18.18
208.017	18.39
208.403	56.17
208.789	22.79
209.175	15.11
209.561	-109.29
209.947	-55.64
210.333	21.08
210.719	-18.17
211.105	-37.81
211.491	8.6
211.876	19.7
212.262	5.8
212.648	2.3
213.034	27.21
213.419	-14.74
213.805	-18.32
214.19	-77.82
214.576	6.48
214.961	26.75
215.346	14.91
215.732	-1.46
216.117	1.15
216.502	31.26
216.888	-29.87
217.273	7.5
217.658	-25.05
218.043	17.88
218.428	18.32
218.813	-4.16
219.198	-1.72
219.583	-40.65
219.968	20.51
220.353	-4.52
220.738	-28.51
221.122	8.69
221.507	20.53
221.892	-12.7
222.276	-14.42
222.661	5.57
223.046	5.17
223.43	-0.63
223.815	2.55
224.199	7.68
224.583	6.16
224.968	4.57
225.352	-3.31
225.736	-1.4
226.121	-4.53
226.505	4.16
226.889	-2.06
227.273	2.3
227.657	0.65
228.041	8.83
228.425	8.51
228.809	3.68
229.193	7.77
229.577	3.09
229.961	4.76
230.344	4.83
230.728	4.66
231.112	4.71
231.495	4.8
231.879	4.99
232.263	4.32
232.646	4.04
233.03	3.73
233.413	3.63
233.797	4.24
234.18	4.38
234.563	5.03
234.946	4.15
235.33	6.19
235.713	4.25
236.096	3.47
236.479	3.53
236.862	3.71
237.245	4.19
237.628	5.19
238.011	2.94
238.394	5.08
238.777	4.72
239.16	3.65
239.543	4.75
239.925	4.74
240.308	5.66
240.691	5.91
241.073	4.11
241.456	4.51
241.838	3.92
242.221	4.68
242.603	4.43
242.986	4.51
243.368	4.49
243.75	4.74
244.133	4.87
244.515	4.93
244.897	4.41
245.279	4.73
245.661	5.57
246.043	4.51
246.425	3.79
246.807	4.84
247.189	4.11
247.571	5.18
247.953	5.23
248.335	4.32
248.717	4.58
249.098	4.48
249.48	4.59
249.862	4.98
250.243	4.6
250.625	4.2
251.006	4.54
251.388	4.25
251.769	4.81
252.151	5.26
252.532	5.19
252.913	4.16
253.295	4.44
253.676	4.43
254.057	4.08
254.438	4.13
254.819	4.19
255.2	4.24
255.581	4.89
255.962	4.4
256.343	3.66
256.724	4.35
257.105	4.73
257.486	4.47
257.867	4.97
258.247	4.22
258.628	4.63
259.009	3.62
259.389	4.54
259.77	4.8
260.15	4.7
260.531	3.99
260.911	3.91
261.292	4.15
261.672	4.16
262.052	4.2
262.432	4.32
262.813	4.17
263.193	3.78
263.573	3.91
263.953	4.23
264.333	4.35
264.713	4.54
265.093	4.15
265.473	4.75
265.853	3.16
266.233	3.7
266.612	4.68
266.992	4.71
267.372	3.41
267.752	3.84
268.131	4.25
268.511	4.21
268.89	4.33
269.27	4.16
269.649	4.21
270.029	4.06
270.408	3.92
270.787	4.59
271.167	4.4
271.546	4.37
271.925	3.93
272.304	3.79
272.683	4.12
273.062	4.29
273.441	4.18
273.82	3.88
274.199	4.09
274.578	3.78
274.957	3.99
275.336	3.51
275.715	3.91
276.093	4.26
276.472	4.38
276.851	3.56
277.229	3.65
277.608	4.11
277.986	4.02
278.365	3.95
278.743	4.05
279.122	4.08
279.5	3.89
279.878	4.62
280.257	3.55
280.635	3.72
281.013	3.94
281.391	4.06
281.769	3.86
282.147	3.47
282.525	4
282.903	3.5
283.281	4.32
283.659	4.33
284.037	3.4
284.415	3.97
284.792	3.77
285.17	3.54
285.548	4.19
285.925	3.92
286.303	4.25
286.68	4.26
287.058	3.88
287.435	3.69
287.813	3.69
288.19	3.94
288.567	3.71
288.945	3.79
289.322	3.59
289.699	4.16
290.076	3.93
290.453	3.73
290.83	3.46
291.207	3.78
291.584	3.75
291.961	4.15
292.338	3.78
292.715	4.05
293.092	3.91
293.469	4.14
293.845	3.76
294.222	3.79
294.599	3.5
294.975	3.81
295.352	3.68
295.728	4.16
296.105	4.03
296.481	3.8
296.858	3.6
297.234	4.08
297.61	3.92
297.986	3.32
298.363	3.43
298.739	3.79
299.115	4.13
299.491	3.63
299.867	3.73
300.243	3.57
300.619	3.84
300.995	4.01
301.371	3.77
301.746	3.78
302.122	3.85
302.498	3.57
302.874	3.56
303.249	3.6
303.625	3.72
304	3.74
304.376	3.16
304.751	3.38
305.127	2.75
305.502	3.93
305.878	3.73
306.253	4.05
306.628	3.49
307.003	3.74
307.378	3.67
307.754	3.59
308.129	3.15
308.504	3.69
308.879	3.86
309.254	3.9
309.629	3.55
310.003	3.78
310.378	3.9
310.753	3.86
311.128	3.44
311.502	3.51
311.877	3.7
312.252	3.51
312.626	3.74
313.001	3.74
313.375	3.72
313.75	3.38
314.124	3.69
314.498	3.55
314.873	3.6
315.247	3.87
315.621	3.7
315.995	3.83
316.369	3.64
316.743	3.91
317.117	3.73
317.491	3.65
317.865	3.48
318.239	3.84
318.613	4.24
318.987	3.68
319.361	3.53
319.734	3.89
320.108	3.68
320.482	3.02
320.855	3.83
321.229	3.28
321.602	3.24
321.976	3.36
322.349	3.87
322.723	3.5
323.096	4.34
323.469	3.43
323.843	3.73
324.216	4.15
324.589	3.49
324.962	3.87
325.335	4.05
325.708	3.29
326.081	3.66
326.454	3.6
326.827	4.04
327.2	3.3
327.573	3.23
327.945	3.77
328.318	2.92
328.691	3.58
329.063	3.66
329.436	3.77
329.809	3.77
330.181	3.57
330.553	3.3
330.926	3.98
331.298	3.92
331.671	3.81
332.043	3.65
332.415	3.58
332.787	3.49
333.159	3.47
333.532	3.01
333.904	3.61
334.276	3.49
334.648	3.62
335.02	3.58
335.391	3.63
335.763	3.26
336.135	3.7
336.507	3.89
336.879	3.45
337.25	3.79
337.622	3.23
337.993	3.67
338.365	3.6
338.736	3.95
339.108	4.18
339.479	3.57
339.851	3.48
340.222	3.24
340.593	3.86
340.964	3.73
341.336	3.44
341.707	3.17
342.078	3.83
342.449	3.71
342.82	3.77
343.191	3.48
343.562	3.91
343.933	4.01
344.303	3.66
344.674	4.18
345.045	3.31
345.416	3.62
345.786	3.92
346.157	3.85
346.527	3.83
346.898	3.77
347.268	3.59
347.639	3.47
348.009	3.95
348.38	4.16
348.75	3.51
349.12	3.52
349.49	3.8
349.861	3.39
350.231	3.78
350.601	3.73
350.971	3.63
351.341	3.81
351.711	3.43
352.081	3.32
352.45	3.94
352.82	3.43
353.19	3.82
353.56	4.15
353.929	3.77
354.299	3.85
354.669	4.14
355.038	4.16
355.408	3.42
355.777	3.87
356.147	3.58
356.516	3.45
356.885	3.36
357.254	3.9
357.624	3.65
357.993	3.67
358.362	3.53
358.731	3.41
359.1	3.67
359.469	3.89
359.838	3.9
360.207	3.72
360.576	3.91
360.945	3.87
361.314	4.12
361.682	3.74
362.051	3.62
362.42	3.78
362.788	3.72
363.157	3.74
363.525	3.64
363.894	3.64
364.262	3.85
364.631	3.87
364.999	3.96
365.367	3.5
365.735	3.92
366.104	3.82
366.472	3.86
366.84	3.67
367.208	3.89
367.576	3.59
367.944	3.97
368.312	3.82
368.68	3.72
369.048	3.87
369.416	3.55
369.783	3.62
370.151	3.63
370.519	4.22
370.886	3.82
371.254	4.05
371.621	3.82
371.989	3.59
372.356	3.72
372.724	3.81
373.091	3.68
373.458	4.01
373.826	3.95
374.193	3.72
374.56	3.39
374.927	4.14
375.294	3.92
375.661	4.08
376.028	3.86
376.395	4.02
376.762	4.18
377.129	3.98
377.496	3.91
377.863	3.86
378.229	3.84
378.596	3.97
378.963	3.98
379.329	3.5
379.696	3.75
380.062	3.93
380.429	4.14
380.795	3.54
381.161	3.85
381.528	4.04
381.894	3.67
382.26	3.83
382.626	3.84
382.993	3.86
383.359	4.07
383.725	4.03
384.091	4
384.457	3.93
384.823	3.88
385.188	4.07
385.554	3.91
385.92	3.91
386.286	3.77
386.651	4.03
387.017	3.69
387.383	3.85
387.748	3.85
388.114	3.81
388.479	4.41
388.845	4.09
389.21	4.24
389.575	4.34
389.94	3.99
390.306	3.99
390.671	4.15
391.036	4.1
391.401	4.09
391.766	3.58
392.131	3.7
392.496	4
392.861	4.16
393.226	3.86
393.591	3.94
393.956	4.1
394.32	4.05
394.685	4.17
395.05	4.11
395.414	4.05
395.779	3.86
396.143	4.04
396.508	4.03
396.872	4.03
397.236	4.12
397.601	3.99
397.965	4
398.329	4.03
398.694	3.84
399.058	4.09
399.422	3.91
399.786	4
400.15	3.8
400.514	3.81
400.878	4.01
401.242	4.08
401.605	4.06
401.969	4.18
402.333	4.09
402.697	4.06
403.06	4.11
403.424	3.95
403.787	4.06
404.151	4.05
404.514	3.95
404.878	4.3
405.241	3.99
405.604	4.14
405.968	4.17
406.331	3.89
406.694	3.97
407.057	3.94
407.42	4
407.783	4.03
408.146	4.09
408.509	3.93
408.872	3.97
409.235	4.03
409.598	4.01
409.961	4.19
410.323	3.99
410.686	4.03
411.049	4.07
411.411	3.87
411.774	4.06
412.136	4.11
412.499	4.32
412.861	4.13
413.223	3.99
413.586	4.03
413.948	4.23
414.31	3.94
414.672	4.18
415.035	4.2
415.397	4.15
415.759	4.24
416.121	4.08
416.483	4
416.845	4.21
417.206	4.01
417.568	4.13
417.93	4.24
418.292	3.99
418.653	4.04
419.015	3.86
419.377	4.01
419.738	4.07
420.1	3.96
420.461	4.05
420.822	3.91
421.184	4.08
421.545	3.96
421.906	4.01
422.267	3.94
422.629	3.99
422.99	3.87
423.351	3.81
423.712	3.92
424.073	3.98
424.434	3.93
424.795	4.02
425.155	4.09
425.516	4.01
425.877	3.9
426.238	3.95
426.598	3.96
426.959	3.95
427.32	3.92
427.68	3.89
428.041	3.93
428.401	4.1
428.761	4.04
429.122	4.01
429.482	4.17
429.842	3.86
430.202	4.12
430.563	3.89
430.923	4.15
431.283	3.96
431.643	4.01
432.003	4.35
432.363	4.09
432.722	4.11
433.082	4.22
433.442	4.01
433.802	4.1
434.161	4.02
434.521	4.03
434.881	3.94
435.24	4.04
435.6	4.15
435.959	4.07
436.319	4.04
436.678	4.06
437.037	4.08
437.396	4.18
437.756	4.2
438.115	4.07
438.474	4.17
438.833	4.21
439.192	4.06
439.551	4.08
439.91	4.24
440.269	4.17
440.628	4.18
440.987	4.06
441.345	4.13
441.704	4.06
442.063	3.99
442.421	4.05
442.78	4.06
443.138	3.99
443.497	4
443.855	3.94
444.214	4.18
444.572	4.02
444.93	4.09
445.288	4.2
445.647	4.08
446.005	4.22
446.363	4.09
446.721	4.09
447.079	4.18
447.437	4.06
447.795	4
448.153	3.96
448.51	4.07
448.868	3.98
449.226	3.95
449.584	4.07
449.941	4.03
450.299	4.07
450.656	4
451.014	4.21
451.371	4.34
451.729	4.31
452.086	4.13
452.443	4.2
452.801	4.3
453.158	4.14
453.515	4.13
453.872	4.12
454.229	4.11
454.586	4.16
454.943	4.11
455.3	4.13
455.657	4.03
456.014	4.11
456.371	4.12
456.727	4.23
457.084	4.24
457.441	4.06
457.797	4.17
458.154	4.3
458.51	4.17
458.867	4.1
459.223	4.17
459.58	4.38
459.936	4.08
460.292	4.18
460.648	4.22
461.005	4.11
461.361	4.16
461.717	4.02
462.073	4.09
462.429	4.18
462.785	4.08
463.141	4.15
463.496	4.11
463.852	4.15
464.208	4.14
464.564	4.04
464.919	4.36
465.275	4.22
465.631	4.34
465.986	4.34
466.342	4.22
466.697	4.19
467.052	4.16
467.408	4.23
467.763	4.07
468.118	4.2
468.473	4.26
468.829	4.08
469.184	4.19
469.539	4.21
469.894	4.24
470.249	4.15
470.603	4.28
470.958	4.07
471.313	4.14
471.668	4.04
472.023	4.14
472.377	4.11
472.732	4.25
473.086	4.25
473.441	4.22
473.795	4.15
474.15	4.33
474.504	4.21
474.859	4.02
475.213	4.21
475.567	4.11
475.921	4.14
476.275	4.26
476.63	4.16
476.984	4.22
477.338	4.25
477.692	4.32
478.045	4.26
478.399	4.12
478.753	4.17
479.107	4.29
479.461	4.34
479.814	4.25
480.168	4.23
480.521	4.11
480.875	4.26
481.228	4.16
481.582	4.32
481.935	4.27
482.289	4.17
482.642	4.12
482.995	4.25
483.348	4.18
483.701	4.2
484.055	4.09
484.408	4.13
484.761	4.07
485.114	3.99
485.466	3.92
485.819	3.88
486.172	3.89
486.525	3.92
486.878	4.05
487.23	4.09
487.583	4.06
487.936	4.14
488.288	4.12
488.641	4
488.993	4
489.345	3.96
489.698	3.99
490.05	4.02
490.402	3.97
490.754	4.06
491.107	4.08
491.459	4.13
491.811	4.2
492.163	4.2
492.515	4.22
492.866	4.05
493.218	4.02
493.57	4.04
493.922	4.02
494.274	4.01
494.625	4.06
494.977	4.23
495.328	4.18
495.68	4.19
496.031	4.17
496.383	4.35
496.734	4.1
497.086	4.39
497.437	4.32
497.788	4.32
498.139	4.1
498.49	4.09
498.842	4.18
499.193	4.13
499.544	4.24
499.894	4.15
500.245	4.15
500.596	4.14
500.947	4.12
501.298	4.24
501.648	4.31
501.999	4.35
502.35	4.27
502.7	4.27
503.051	4.27
503.401	4.29
503.752	4.35
504.102	4.26
504.452	4.28
504.803	4.24
505.153	4.23
505.503	4.25
505.853	4.21
506.203	4.28
506.553	4.38
506.903	4.24
507.253	4.31
507.603	4.14
507.953	4.16
508.303	4.33
508.652	4.28
509.002	4.38
509.352	4.43
509.701	4.28
510.051	4.25
510.4	4.23
510.75	4.23
511.099	4.29
511.449	4.19
511.798	4.26
512.147	4.3
512.496	4.24
512.846	4.07
513.195	4.26
513.544	4.19
513.893	4.26
514.242	4.17
514.591	4.25
514.939	4.28
515.288	4.17
515.637	4.25
515.986	4.32
516.334	4.32
516.683	4.32
517.032	4.42
517.38	4.44
517.729	4.28
518.077	4.34
518.426	4.27
518.774	4.26
519.122	4.16
519.47	4.27
519.819	4.24
520.167	4.26
520.515	4.17
520.863	4.11
521.211	4.19
521.559	4.26
521.907	4.22
522.255	4.18
522.602	4.31
522.95	4.24
523.298	4.37
523.645	4.3
523.993	4.36
524.341	4.24
524.688	4.35
525.036	4.17
525.383	4.38
525.73	4.34
526.078	4.37
526.425	4.28
526.772	4.21
527.119	4.25
527.466	4.19
527.814	4.11
528.161	4.12
528.508	4.2
528.854	4.23
529.201	4.17
529.548	4.15
529.895	4.02
530.242	3.99
530.588	4.01
530.935	4.02
531.282	4.08
531.628	4.06
531.975	4.16
532.321	4.23
532.667	4.21
533.014	4.25
533.36	4.2
533.706	4.3
534.052	4.21
534.399	4.19
534.745	4.19
535.091	4.09
535.437	4.04
535.783	4.1
536.129	4.18
536.474	4.22
536.82	4.2
537.166	4.22
537.512	4.3
537.857	4.22
538.203	4.18
538.549	4.09
538.894	4.2
539.239	4.27
539.585	4.19
539.93	4.18
540.276	4.26
540.621	4.22
540.966	4.38
541.311	4.17
541.656	4.28
542.001	4.2
542.346	4.27
542.691	4.23
543.036	4.09
543.381	4.05
543.726	4.1
544.071	4.14
544.415	4.2
544.76	4.22
545.105	4.15
545.449	4.2
545.794	4.13
546.138	4.24
546.483	4.31
546.827	4.28
547.171	4.29
547.516	4.26
547.86	4.19
548.204	4.27
548.548	4.22
548.892	4.2
549.236	4.29
549.58	4.24
549.924	4.26
550.268	4.36
550.612	4.24
550.956	4.27
551.3	4.32
551.643	4.37
551.987	4.22
552.33	4.32
552.674	4.31
553.017	4.36
553.361	4.42
553.704	4.33
554.048	4.29
554.391	4.29
554.734	4.35
555.077	4.32
555.42	4.45
555.764	4.44
556.107	4.41
556.45	4.38
556.793	4.4
557.135	4.34
557.478	4.27
557.821	4.35
558.164	4.43
558.507	4.24
558.849	4.4
559.192	4.36
559.534	4.34
559.877	4.35
560.219	4.26
560.562	4.38
560.904	4.4
561.246	4.39
561.589	4.44
561.931	4.21
562.273	4.32
562.615	4.03
562.957	4.37
563.299	4.37
563.641	4.3
563.983	4.43
564.325	4.22
564.667	4.24
565.008	4.31
565.35	4.39
565.692	4.61
566.033	4.35
566.375	4.29
566.716	4.28
567.058	4.34
567.399	4.26
567.741	4.3
568.082	4.29
568.423	4.34
568.764	4.19
569.105	4.32
569.447	4.47
569.788	4.2
570.129	4.39
570.47	4.36
570.811	4.5
571.151	4.24
571.492	4.51
571.833	4.36
572.174	4.47
572.514	4.4
572.855	4.21
573.195	4.34
573.536	4.3
573.876	4.35
574.217	4.3
574.557	4.24
574.898	4.35
575.238	4.29
575.578	4.5
575.918	4.33
576.258	4.29
576.598	4.39
576.938	4.41
577.278	4.25
577.618	4.2
577.958	4.27
578.298	4.35
578.638	4.34
578.977	4.44
579.317	4.47
579.657	4.33
579.996	4.35
580.336	4.32
580.675	4.2
581.014	4.36
581.354	4.4
581.693	4.5
582.032	4.37
582.372	4.37
582.711	4.24
583.05	4.47
583.389	4.32
583.728	4.42
584.067	4.38
584.406	4.36
584.745	4.73
585.083	4.33
585.422	4.56
585.761	4.48
586.1	4.34
586.438	4.06
586.777	4.43
587.115	4.38
587.454	4.63
587.792	4.53
588.13	4.37
588.469	4.35
588.807	4.58
589.145	4.28
589.483	4.32
589.821	4.52
590.159	4.19
590.497	4.62
590.835	4.41
591.173	4.31
591.511	4.47
591.849	4.69
592.187	4.46
592.524	4.52
592.862	4.35
593.2	4.36
593.537	4.29
593.875	4.4
594.212	4.26
594.55	4.34
594.887	4.41
595.224	4.43
595.561	3.96
595.899	4.35
596.236	4.58
596.573	4.37
596.91	4.44
597.247	4.38
597.584	4.27
597.921	4.66
598.258	4.3
598.594	4.17
598.931	4.39
599.268	4.43
599.604	4.43
599.941	4.39
600.277	4.45
600.614	4.36
600.95	4.55
601.287	4.4
601.623	4.45
601.959	4.54
602.296	4.42
602.632	4.42
602.968	4.35
603.304	4.42
603.64	4.56
603.976	4.24
604.312	4.3
604.648	4.23
604.984	4.31
605.319	4.33
605.655	4.29
605.991	4.43
606.326	4.3
606.662	4.37
606.998	4.17
607.333	4.31
607.668	4.5
608.004	4.38
608.339	4.32
608.674	4.41
609.01	4.6
609.345	4.42
609.68	4.4
610.015	4.33
610.35	4.35
610.685	4.4
611.02	4.32
611.355	4.43
611.689	4.41
612.024	4.31
612.359	4.42
612.694	4.35
613.028	4.49
613.363	4.57
613.697	4.23
614.032	4.27
614.366	4.46
614.7	4.35
615.035	4.55
615.369	4.54
615.703	4.75
616.037	4.29
616.371	4.76
616.705	4.44
617.039	4.61
617.373	4.67
617.707	4.63
618.041	4.46
618.375	4.48
618.709	4.49
619.042	4.54
619.376	4.54
619.71	4.38
620.043	4.63
620.377	4.76
620.71	4.45
621.043	4.54
621.377	4.54
621.71	4.36
622.043	4.92
622.376	4.59
622.709	4.19
623.043	4.65
623.376	4.83
623.709	4.22
624.041	4.72
624.374	4.51
624.707	4.31
625.04	4.4
625.373	4.54
625.705	4.36
626.038	4.24
626.37	4.71
626.703	4.43
627.035	4.34
627.368	4.34
627.7	4.41
628.032	4.22
628.365	4.72
628.697	4.28
629.029	4.38
629.361	4.33
629.693	4.35
630.025	4.48
630.357	4.61
630.689	4.41
631.021	4.16
631.353	4.16
631.684	4.5
632.016	4.61
632.348	4.4
632.679	4.59
633.011	4.43
633.342	4.42
633.674	4.6
634.005	4.49
634.336	4.7
634.668	4.55
634.999	4.67
635.33	3.98
635.661	4.57
635.992	4.72
636.323	4.4
636.654	4.31
636.985	4.6
637.316	4.29
637.647	4.19
637.977	4.86
638.308	4.85
638.639	4.63
638.969	4.26
639.3	4.7
639.63	4.45
639.961	4.58
640.291	4.69
640.622	5.06
640.952	4.43
641.282	4.48
641.612	4.52
641.943	4.47
642.273	4.35
642.603	4.4
642.933	4.38
643.263	4.45
643.592	4.49
643.922	4.86
644.252	4.74
644.582	4.56
644.911	4.7
645.241	4.41
645.571	4.38
645.9	4.72
646.23	4.7
646.559	4.68
646.888	4.57
647.218	5.17
647.547	4.71
647.876	4.77
648.205	4.36
648.534	4.71
648.863	4.73
649.192	4.76
649.521	4.56
649.85	4.54
650.179	4.62
650.508	4.72
650.837	4.66
651.165	4.72
651.494	4.25
651.822	4.87
652.151	4.49
652.479	4.79
652.808	4.46
653.136	4.25
653.465	4.84
653.793	4.82
654.121	4.58
654.449	4.1
654.777	4.43
655.105	4.22
655.433	4.42
655.761	4.25
656.089	4.52
656.417	4.64
656.745	4.22
657.073	4.43
657.4	4.58
657.728	4.68
658.056	4.35
658.383	4.76
658.711	4.49
659.038	4.83
659.365	5.18
659.693	4.92
660.02	4.55
660.347	4.49
660.674	4.56
661.001	4.63
661.329	4.66
661.656	4.65
661.982	4.55
662.309	4.45
662.636	4.58
662.963	4
663.29	4.34
663.616	5.01
663.943	4.73
664.27	4.84
664.596	4.6
664.923	4.65
665.249	4.5
665.576	5.07
665.902	4.35
666.228	3.98
666.554	5.21
666.881	4.55
667.207	4.64
667.533	4.52
667.859	4.59
668.185	5.07
668.511	4.53
668.837	4.07
669.162	5.18
669.488	4.25
669.814	4.51
670.139	4.51
670.465	4.49
670.791	4.48
671.116	4.53
671.442	4.64
671.767	4.75
672.092	4.61
672.418	4.8
672.743	4.85
673.068	4.67
673.393	5.45
673.718	4.78
674.043	4.38
674.368	4.04
674.693	4.52
675.018	4.5
675.343	4.49
675.667	4.57
675.992	4.8
676.317	4.96
676.641	4.55
676.966	4.72
677.29	4.52
677.615	4.3
677.939	5.16
678.264	5.11
678.588	4.56
678.912	4.9
679.236	5.15
679.56	4.55
679.885	4.76
680.209	4.68
680.532	5.3
680.856	4.69
681.18	4.33
681.504	4.98
681.828	4.5
682.152	4.93
682.475	4.58
682.799	5.24
683.122	4.91
683.446	4.78
683.769	4.54
684.093	5.03
684.416	4.75
684.739	4.89
685.062	5.25
685.386	4.44
685.709	5.1
686.032	5.42
686.355	6.09
686.678	4.56
687.001	4.94
687.324	4.94
687.646	5.31
687.969	4.76
688.292	5.01
688.614	5.67
688.937	4.67
689.26	4.68
689.582	5.28
689.904	5.13
690.227	4.43
690.549	5.14
690.871	4.67
691.194	5.59
691.516	5.19
691.838	4.96
692.16	5.29
692.482	4.66
