Data from 0046_chest_Reflection__2__168.txt Node

Date: Fri Nov 04 16:13:11 CDT 2022
User: ToomeyLab
Spectrometer: FLMS14357
Trigger mode: 0
Integration Time (sec): 1.000000E-2
Scans to average: 100
Electric dark correction enabled: true
Nonlinearity correction enabled: false
Boxcar width: 0
XAxis mode: Wavelengths
Number of Pixels in Spectrum: 2048
>>>>>Begin Spectral Data<<<<<
189.047	2.24
189.435	2.24
189.823	2.24
190.211	502.54
190.599	-105.51
190.987	331.71
191.375	474.72
191.763	4.21
192.151	-12.78
192.538	-74.74
192.926	-34.07
193.314	95.86
193.702	9.17
194.089	136.93
194.477	63.63
194.864	122.46
195.252	92.72
195.639	63.24
196.027	-2.34
196.414	-1406.49
196.801	127.2
197.189	-485.78
197.576	221.48
197.963	-15.65
198.351	-27.82
198.738	1.01
199.125	4.18
199.512	-14.76
199.899	-30.27
200.286	-46.11
200.673	0.86
201.06	-19.32
201.447	3.73
201.833	-9.37
202.22	-10.33
202.607	-26.28
202.994	26.34
203.38	56.56
203.767	-2.93
204.154	19.05
204.54	0.49
204.927	21.52
205.313	31.51
205.699	26.09
206.086	11.48
206.472	9.32
206.858	-5.88
207.245	-9.72
207.631	1.68
208.017	10.78
208.403	48.81
208.789	34.71
209.175	-8.08
209.561	-67.09
209.947	-62.93
210.333	-5.51
210.719	20.7
211.105	-28.32
211.491	24.06
211.876	13.2
212.262	-12.15
212.648	7.34
213.034	20.84
213.419	-31.62
213.805	0.53
214.19	-31.52
214.576	-9.44
214.961	8.72
215.346	-4.27
215.732	0.45
216.117	-23.44
216.502	17.55
216.888	4.96
217.273	14.12
217.658	1.14
218.043	9.76
218.428	18.57
218.813	19.28
219.198	8.51
219.583	-10.59
219.968	31.7
220.353	-17.75
220.738	-18.29
221.122	1.4
221.507	6.62
221.892	-4.53
222.276	-1.27
222.661	10.54
223.046	-0.29
223.43	13.85
223.815	-13.77
224.199	2.47
224.583	5.32
224.968	2.07
225.352	0.7
225.736	-1.76
226.121	3.78
226.505	0.59
226.889	0.64
227.273	9.17
227.657	0.93
228.041	5.57
228.425	0.53
228.809	5.61
229.193	4.78
229.577	3.98
229.961	4.88
230.344	5.33
230.728	4.76
231.112	4.23
231.495	4.58
231.879	5.91
232.263	3.64
232.646	3.85
233.03	4.26
233.413	2.76
233.797	4.57
234.18	4.12
234.563	4.18
234.946	4.71
235.33	4.71
235.713	3.44
236.096	5.66
236.479	4.63
236.862	4.41
237.245	3.33
237.628	4.16
238.011	1.77
238.394	5.55
238.777	5.31
239.16	4.34
239.543	3.48
239.925	3.97
240.308	4.94
240.691	4.29
241.073	4.37
241.456	2.69
241.838	3.96
242.221	4.8
242.603	3.38
242.986	3.42
243.368	4.62
243.75	3.96
244.133	4.67
244.515	4.16
244.897	4.05
245.279	4.22
245.661	4.54
246.043	5.22
246.425	3.87
246.807	5.1
247.189	4.14
247.571	3.83
247.953	3.68
248.335	3.95
248.717	4.13
249.098	4.12
249.48	3.97
249.862	4.33
250.243	4.82
250.625	3.89
251.006	4
251.388	4.3
251.769	4.62
252.151	4.8
252.532	4.47
252.913	4.01
253.295	4.1
253.676	3.52
254.057	3.67
254.438	3.81
254.819	4.38
255.2	3.48
255.581	4.14
255.962	5.64
256.343	3.11
256.724	4.47
257.105	3.82
257.486	5.49
257.867	4.59
258.247	4.1
258.628	3.52
259.009	4.48
259.389	4.25
259.77	3.44
260.15	3.44
260.531	3.86
260.911	3.65
261.292	3.45
261.672	3.73
262.052	3.87
262.432	4.07
262.813	3.62
263.193	3.08
263.573	3.55
263.953	4.02
264.333	4.13
264.713	4.01
265.093	3.6
265.473	4.27
265.853	3.68
266.233	3.89
266.612	4.07
266.992	4.43
267.372	2.76
267.752	3.76
268.131	3.96
268.511	3.82
268.89	4.01
269.27	4.17
269.649	3.99
270.029	3.71
270.408	3.92
270.787	3.61
271.167	3.79
271.546	4.19
271.925	3.73
272.304	2.92
272.683	3.53
273.062	3.76
273.441	3.56
273.82	3.57
274.199	3.58
274.578	3.54
274.957	3.2
275.336	3.22
275.715	3.34
276.093	4.06
276.472	3.91
276.851	2.99
277.229	3.54
277.608	3.53
277.986	3.58
278.365	4.52
278.743	3.59
279.122	3.33
279.5	3.75
279.878	3.84
280.257	3.14
280.635	3.25
281.013	3.5
281.391	3.54
281.769	3.71
282.147	3.27
282.525	3.56
282.903	3.49
283.281	4.04
283.659	3.27
284.037	3.18
284.415	3.55
284.792	3.53
285.17	3.04
285.548	3.93
285.925	3.67
286.303	3.6
286.68	3.85
287.058	3.48
287.435	3.37
287.813	3.26
288.19	3.73
288.567	3.38
288.945	3.61
289.322	3.44
289.699	3.79
290.076	3.65
290.453	3.08
290.83	2.99
291.207	3.07
291.584	3.41
291.961	3.44
292.338	3.58
292.715	3.63
293.092	3.66
293.469	3.61
293.845	3.29
294.222	2.99
294.599	3.19
294.975	3.49
295.352	3.45
295.728	3.4
296.105	3.92
296.481	3.36
296.858	3.35
297.234	3.7
297.61	3.43
297.986	3.42
298.363	3.12
298.739	3.42
299.115	3.63
299.491	3.14
299.867	3.4
300.243	3.06
300.619	3.57
300.995	3.84
301.371	3.95
301.746	3.15
302.122	3.24
302.498	3.64
302.874	3.7
303.249	3.6
303.625	3.18
304	3.35
304.376	3.26
304.751	3.51
305.127	2.88
305.502	3.43
305.878	3.7
306.253	3.82
306.628	2.85
307.003	3.58
307.378	3.25
307.754	3.46
308.129	2.63
308.504	3.64
308.879	3.3
309.254	3.99
309.629	3.75
310.003	3.55
310.378	3.24
310.753	3.48
311.128	3.17
311.502	3.21
311.877	3
312.252	3.08
312.626	3.45
313.001	3.38
313.375	3.35
313.75	3.34
314.124	3.47
314.498	3.35
314.873	3.7
315.247	3.44
315.621	3.48
315.995	3.74
316.369	3.14
316.743	3.75
317.117	3.63
317.491	3.58
317.865	2.88
318.239	3.16
318.613	3.61
318.987	3.44
319.361	3.88
319.734	3.23
320.108	3.32
320.482	3.38
320.855	3.3
321.229	3.32
321.602	3.35
321.976	2.98
322.349	3.69
322.723	3.42
323.096	3.03
323.469	3.09
323.843	3.18
324.216	3.64
324.589	3.27
324.962	3.57
325.335	3.36
325.708	3.05
326.081	3.54
326.454	3.04
326.827	3.35
327.2	3.07
327.573	3.53
327.945	3.17
328.318	3.04
328.691	3.05
329.063	3
329.436	3.39
329.809	2.87
330.181	3.42
330.553	3.23
330.926	3.66
331.298	3.44
331.671	3.29
332.043	3.49
332.415	3.59
332.787	2.77
333.159	3.2
333.532	3.48
333.904	3.3
334.276	3.32
334.648	3.76
335.02	3.1
335.391	3.17
335.763	3.39
336.135	3.25
336.507	3.62
336.879	3.14
337.25	3.26
337.622	3.08
337.993	3.37
338.365	3.09
338.736	3.74
339.108	3.92
339.479	3.62
339.851	3.07
340.222	3.29
340.593	3.82
340.964	3.39
341.336	3.01
341.707	2.95
342.078	3.23
342.449	3.32
342.82	3.57
343.191	3.07
343.562	3.44
343.933	3.42
344.303	3.6
344.674	3.52
345.045	3.31
345.416	3.06
345.786	3.59
346.157	3.15
346.527	3.67
346.898	3.52
347.268	3.17
347.639	3.48
348.009	3.68
348.38	3.42
348.75	2.89
349.12	2.95
349.49	3.16
349.861	3.38
350.231	3.81
350.601	3.17
350.971	3.12
351.341	3.23
351.711	3.37
352.081	3.39
352.45	3.29
352.82	3.44
353.19	3.64
353.56	3.56
353.929	3.6
354.299	3.51
354.669	3.63
355.038	3.7
355.408	3.19
355.777	3.36
356.147	3.23
356.516	3.27
356.885	3.16
357.254	3.52
357.624	3.38
357.993	3.4
358.362	3.02
358.731	3.09
359.1	3.5
359.469	3.51
359.838	3.4
360.207	3.34
360.576	3.39
360.945	3.65
361.314	3.77
361.682	3.4
362.051	3.41
362.42	3.28
362.788	3.36
363.157	3.35
363.525	3.44
363.894	3.43
364.262	3.67
364.631	3.54
364.999	3.54
365.367	3.37
365.735	3.74
366.104	2.94
366.472	3.42
366.84	3.27
367.208	3.51
367.576	3.21
367.944	3.58
368.312	3.4
368.68	3.3
369.048	3.36
369.416	3.55
369.783	3.35
370.151	3.4
370.519	3.77
370.886	3.29
371.254	3.55
371.621	3.49
371.989	3.52
372.356	3.55
372.724	3.53
373.091	3.52
373.458	3.42
373.826	3.78
374.193	3.28
374.56	3.01
374.927	3.65
375.294	3.31
375.661	3.46
376.028	3.36
376.395	3.33
376.762	3.6
377.129	3.66
377.496	3.47
377.863	3.48
378.229	3.38
378.596	3.44
378.963	3.7
379.329	3.44
379.696	3.19
380.062	3.81
380.429	3.51
380.795	3.28
381.161	3.52
381.528	3.81
381.894	3.33
382.26	3.64
382.626	3.36
382.993	3.66
383.359	3.72
383.725	3.61
384.091	3.46
384.457	3.63
384.823	3.76
385.188	3.69
385.554	3.51
385.92	3.28
386.286	3.44
386.651	3.62
387.017	3.48
387.383	3.51
387.748	3.38
388.114	3.3
388.479	4.04
388.845	3.52
389.21	4
389.575	3.72
389.94	3.6
390.306	3.52
390.671	3.65
391.036	3.52
391.401	3.72
391.766	3.31
392.131	3.33
392.496	3.65
392.861	3.76
393.226	3.29
393.591	3.61
393.956	3.69
394.32	3.32
394.685	3.75
395.05	3.58
395.414	3.45
395.779	3.6
396.143	3.6
396.508	3.64
396.872	3.66
397.236	3.58
397.601	3.5
397.965	3.59
398.329	3.49
398.694	3.66
399.058	3.63
399.422	3.56
399.786	3.54
400.15	3.47
400.514	3.42
400.878	3.72
401.242	3.47
401.605	3.46
401.969	3.7
402.333	3.72
402.697	3.67
403.06	3.69
403.424	3.58
403.787	3.76
404.151	3.57
404.514	3.61
404.878	3.69
405.241	3.5
405.604	3.72
405.968	3.69
406.331	3.45
406.694	3.4
407.057	3.54
407.42	3.43
407.783	3.47
408.146	3.38
408.509	3.61
408.872	3.58
409.235	3.68
409.598	3.54
409.961	3.58
410.323	3.57
410.686	3.42
411.049	3.55
411.411	3.56
411.774	3.64
412.136	3.73
412.499	3.72
412.861	3.72
413.223	3.45
413.586	3.63
413.948	3.66
414.31	3.56
414.672	3.83
415.035	3.77
415.397	3.57
415.759	3.8
416.121	3.63
416.483	3.66
416.845	3.68
417.206	3.5
417.568	3.65
417.93	3.62
418.292	3.6
418.653	3.61
419.015	3.55
419.377	3.65
419.738	3.64
420.1	3.71
420.461	3.47
420.822	3.58
421.184	3.62
421.545	3.49
421.906	3.59
422.267	3.52
422.629	3.68
422.99	3.56
423.351	3.42
423.712	3.54
424.073	3.66
424.434	3.48
424.795	3.65
425.155	3.64
425.516	3.63
425.877	3.62
426.238	3.5
426.598	3.55
426.959	3.52
427.32	3.6
427.68	3.59
428.041	3.49
428.401	3.66
428.761	3.66
429.122	3.62
429.482	3.7
429.842	3.37
430.202	3.86
430.563	3.76
430.923	3.74
431.283	3.63
431.643	3.77
432.003	3.94
432.363	3.7
432.722	3.7
433.082	3.88
433.442	3.41
433.802	3.57
434.161	3.73
434.521	3.61
434.881	3.61
435.24	3.66
435.6	3.78
435.959	3.63
436.319	3.63
436.678	3.75
437.037	3.66
437.396	3.77
437.756	3.73
438.115	3.63
438.474	3.67
438.833	3.72
439.192	3.79
439.551	3.75
439.91	3.83
440.269	3.68
440.628	3.71
440.987	3.65
441.345	3.68
441.704	3.68
442.063	3.62
442.421	3.67
442.78	3.71
443.138	3.69
443.497	3.64
443.855	3.67
444.214	3.79
444.572	3.63
444.93	3.69
445.288	3.62
445.647	3.67
446.005	3.54
446.363	3.72
446.721	3.69
447.079	3.68
447.437	3.57
447.795	3.61
448.153	3.59
448.51	3.7
448.868	3.64
449.226	3.63
449.584	3.58
449.941	3.68
450.299	3.68
450.656	3.69
451.014	3.79
451.371	3.82
451.729	3.72
452.086	3.72
452.443	3.68
452.801	3.75
453.158	3.84
453.515	3.94
453.872	3.7
454.229	3.8
454.586	3.63
454.943	3.83
455.3	3.64
455.657	3.59
456.014	3.69
456.371	3.81
456.727	3.78
457.084	3.86
457.441	3.74
457.797	3.82
458.154	3.83
458.51	3.84
458.867	3.78
459.223	3.83
459.58	3.87
459.936	3.72
460.292	3.85
460.648	3.76
461.005	3.69
461.361	3.72
461.717	3.65
462.073	3.71
462.429	3.79
462.785	3.75
463.141	3.77
463.496	3.58
463.852	3.96
464.208	3.71
464.564	3.74
464.919	3.96
465.275	3.85
465.631	3.78
465.986	3.87
466.342	3.95
466.697	3.82
467.052	3.82
467.408	3.78
467.763	3.83
468.118	3.82
468.473	3.81
468.829	3.79
469.184	3.84
469.539	3.76
469.894	3.88
470.249	3.74
470.603	4.03
470.958	3.68
471.313	3.72
471.668	3.73
472.023	3.75
472.377	3.81
472.732	3.8
473.086	3.74
473.441	3.78
473.795	3.86
474.15	3.81
474.504	3.85
474.859	3.83
475.213	3.75
475.567	3.78
475.921	3.67
476.275	3.82
476.63	3.82
476.984	3.8
477.338	3.91
477.692	3.86
478.045	3.84
478.399	3.8
478.753	3.89
479.107	3.81
479.461	3.91
479.814	3.91
480.168	3.81
480.521	3.8
480.875	3.84
481.228	3.93
481.582	3.98
481.935	3.82
482.289	3.85
482.642	3.89
482.995	3.86
483.348	3.79
483.701	3.75
484.055	3.8
484.408	3.77
484.761	3.74
485.114	3.64
485.466	3.58
485.819	3.55
486.172	3.56
486.525	3.62
486.878	3.69
487.23	3.7
487.583	3.72
487.936	3.84
488.288	3.82
488.641	3.75
488.993	3.68
489.345	3.62
489.698	3.59
490.05	3.68
490.402	3.69
490.754	3.71
491.107	3.75
491.459	3.74
491.811	3.79
492.163	3.83
492.515	3.84
492.866	3.8
493.218	3.69
493.57	3.68
493.922	3.72
494.274	3.72
494.625	3.81
494.977	3.8
495.328	3.85
495.68	3.88
496.031	3.84
496.383	3.88
496.734	3.88
497.086	4.05
497.437	3.98
497.788	3.93
498.139	3.91
498.49	3.84
498.842	3.93
499.193	3.91
499.544	3.96
499.894	3.88
500.245	3.89
500.596	3.87
500.947	3.86
501.298	3.93
501.648	4.01
501.999	4.04
502.35	4
502.7	3.95
503.051	4
503.401	3.94
503.752	4.01
504.102	3.91
504.452	4.01
504.803	4.03
505.153	4.09
505.503	4.16
505.853	4.17
506.203	4.01
506.553	4.17
506.903	4.06
507.253	3.97
507.603	4
507.953	3.98
508.303	4.03
508.652	4.06
509.002	3.96
509.352	4.07
509.701	3.85
510.051	3.94
510.4	3.99
510.75	3.89
511.099	3.99
511.449	3.99
511.798	4.01
512.147	4.01
512.496	3.94
512.846	3.9
513.195	4.05
513.544	4.01
513.893	4.01
514.242	3.97
514.591	3.93
514.939	4.03
515.288	4.06
515.637	4.07
515.986	4.08
516.334	4.12
516.683	4.1
517.032	4.23
517.38	4.16
517.729	3.99
518.077	4.09
518.426	4.26
518.774	4.1
519.122	4.09
519.47	4.17
519.819	4.07
520.167	4.03
520.515	4.06
520.863	3.94
521.211	4.12
521.559	4.06
521.907	4.01
522.255	4.14
522.602	4.1
522.95	4.14
523.298	4.23
523.645	4.16
523.993	4.18
524.341	4.19
524.688	4.22
525.036	4.09
525.383	4.29
525.73	4.14
526.078	4.21
526.425	4.19
526.772	4.08
527.119	4.14
527.466	4.12
527.814	4.05
528.161	4.09
528.508	4.09
528.854	4.17
529.201	4.11
529.548	4.1
529.895	4.07
530.242	4.01
530.588	4
530.935	4.01
531.282	4.05
531.628	4.08
531.975	4.15
532.321	4.18
532.667	4.22
533.014	4.28
533.36	4.2
533.706	4.26
534.052	4.2
534.399	4.21
534.745	4.24
535.091	4.15
535.437	4.17
535.783	4.16
536.129	4.21
536.474	4.29
536.82	4.33
537.166	4.35
537.512	4.34
537.857	4.29
538.203	4.28
538.549	4.25
538.894	4.32
539.239	4.41
539.585	4.31
539.93	4.37
540.276	4.42
540.621	4.4
540.966	4.47
541.311	4.33
541.656	4.49
542.001	4.4
542.346	4.46
542.691	4.39
543.036	4.28
543.381	4.36
543.726	4.39
544.071	4.36
544.415	4.36
544.76	4.41
545.105	4.39
545.449	4.45
545.794	4.48
546.138	4.44
546.483	4.48
546.827	4.49
547.171	4.54
547.516	4.75
547.86	4.58
548.204	4.69
548.548	4.62
548.892	4.57
549.236	4.57
549.58	4.63
549.924	4.66
550.268	4.76
550.612	4.62
550.956	4.69
551.3	4.74
551.643	4.77
551.987	4.6
552.33	4.62
552.674	4.67
553.017	4.78
553.361	4.99
553.704	4.82
554.048	4.73
554.391	4.76
554.734	4.78
555.077	4.81
555.42	4.84
555.764	4.96
556.107	4.87
556.45	5.03
556.793	4.91
557.135	4.95
557.478	4.84
557.821	5.02
558.164	4.96
558.507	5.04
558.849	5.11
559.192	5.1
559.534	4.94
559.877	4.96
560.219	5.21
560.562	5.15
560.904	5.17
561.246	4.99
561.589	5.04
561.931	5.06
562.273	5.09
562.615	4.96
562.957	5.05
563.299	5.19
563.641	5.13
563.983	5.18
564.325	5.27
564.667	5.31
565.008	5.25
565.35	5.13
565.692	5.32
566.033	5.15
566.375	5.29
566.716	5.35
567.058	5.3
567.399	5.39
567.741	5.37
568.082	5.43
568.423	5.2
568.764	5.19
569.105	5.45
569.447	5.29
569.788	5.41
570.129	5.5
570.47	5.49
570.811	5.6
571.151	5.45
571.492	5.57
571.833	5.52
572.174	5.69
572.514	5.48
572.855	5.33
573.195	5.58
573.536	5.41
573.876	5.4
574.217	5.45
574.557	5.48
574.898	5.52
575.238	5.56
575.578	5.84
575.918	5.62
576.258	5.72
576.598	5.68
576.938	5.74
577.278	5.61
577.618	5.6
577.958	5.68
578.298	5.8
578.638	5.77
578.977	5.89
579.317	5.93
579.657	5.78
579.996	5.87
580.336	5.87
580.675	5.91
581.014	5.93
581.354	5.98
581.693	6.18
582.032	6.09
582.372	6.22
582.711	6.11
583.05	6.25
583.389	6.09
583.728	6.02
584.067	6.08
584.406	5.93
584.745	6.31
585.083	6.1
585.422	6.38
585.761	6.23
586.1	6.31
586.438	6.09
586.777	6.4
587.115	6.16
587.454	6.38
587.792	6.61
588.13	6.34
588.469	6.53
588.807	6.48
589.145	6.28
589.483	6.2
589.821	6.5
590.159	6.46
590.497	6.49
590.835	6.67
591.173	6.37
591.511	6.82
591.849	6.7
592.187	6.45
592.524	6.61
592.862	6.78
593.2	6.53
593.537	6.66
593.875	6.53
594.212	6.85
594.55	6.74
594.887	6.75
595.224	6.87
595.561	6.54
595.899	6.67
596.236	6.98
596.573	6.85
596.91	6.87
597.247	6.89
597.584	6.59
597.921	7.05
598.258	6.96
598.594	6.59
598.931	6.93
599.268	7.03
599.604	6.86
599.941	7.06
600.277	7
600.614	7.09
600.95	7.08
601.287	6.97
601.623	7.23
601.959	7.28
602.296	7.28
602.632	7.13
602.968	7.3
603.304	7.15
603.64	7.23
603.976	7.14
604.312	7.15
604.648	7.1
604.984	7.16
605.319	7.29
605.655	7.12
605.991	7.33
606.326	7.38
606.662	7.21
606.998	7.26
607.333	7.32
607.668	7.38
608.004	7.25
608.339	7.38
608.674	7.59
609.01	7.8
609.345	7.81
609.68	7.73
610.015	7.71
610.35	7.7
610.685	7.84
611.02	7.79
611.355	7.89
611.689	7.83
612.024	7.65
612.359	7.78
612.694	7.74
613.028	7.86
613.363	8.08
613.697	7.81
614.032	8.11
614.366	7.86
614.7	8.05
615.035	7.96
615.369	7.9
615.703	8.31
616.037	8.17
616.371	8.16
616.705	8.33
617.039	8.19
617.373	8.14
617.707	8.7
618.041	8.28
618.375	8.18
618.709	8.45
619.042	8.48
619.376	8.66
619.71	8.33
620.043	8.69
620.377	8.78
620.71	8.42
621.043	8.34
621.377	8.21
621.71	8.77
622.043	8.49
622.376	8.65
622.709	8.76
623.043	8.58
623.376	8.76
623.709	8.48
624.041	8.87
624.374	8.76
624.707	8.59
625.04	8.49
625.373	9.13
625.705	8.75
626.038	8.92
626.37	9.05
626.703	8.92
627.035	8.84
627.368	8.75
627.7	8.83
628.032	8.94
628.365	9.18
628.697	9.11
629.029	9.04
629.361	8.95
629.693	9.23
630.025	9.3
630.357	9.25
630.689	9.26
631.021	9.12
631.353	9.1
631.684	9.27
632.016	9.48
632.348	9.22
632.679	9.29
633.011	9.42
633.342	9.38
633.674	9.23
634.005	9.51
634.336	9.6
634.668	9.46
634.999	9.65
635.33	9.33
635.661	9.69
635.992	9.67
636.323	9.67
636.654	9.5
636.985	9.68
637.316	9.61
637.647	9.59
637.977	10.04
638.308	9.88
638.639	10.08
638.969	9.51
639.3	10.07
639.63	9.9
639.961	10.29
640.291	10.56
640.622	10.33
640.952	9.92
641.282	9.89
641.612	10.38
641.943	10.28
642.273	9.99
642.603	10.66
642.933	10.11
643.263	9.74
643.592	10.12
643.922	10.59
644.252	10.27
644.582	9.87
644.911	10.71
645.241	10.18
645.571	9.98
645.9	10.5
646.23	10.4
646.559	10.63
646.888	10.4
647.218	10.68
647.547	10.73
647.876	11.08
648.205	10.09
648.534	10.5
648.863	10.55
649.192	10.9
649.521	10.71
649.85	10.76
650.179	10.4
650.508	10.25
650.837	10.77
651.165	10.75
651.494	10.8
651.822	10.82
652.151	10.82
652.479	10.85
652.808	10.5
653.136	10.88
653.465	11.17
653.793	11.29
654.121	10.67
654.449	10.94
654.777	10.75
655.105	11.33
655.433	11.18
655.761	11.18
656.089	11.46
656.417	11.16
656.745	11.27
657.073	11.1
657.4	10.85
657.728	11.12
658.056	11.33
658.383	11.33
658.711	11.19
659.038	11.56
659.365	12.2
659.693	11.78
660.02	11.81
660.347	11.17
660.674	11.62
661.001	11.63
661.329	11.35
661.656	11.67
661.982	11.33
662.309	11.48
662.636	11.76
662.963	11.36
663.29	11.13
663.616	11.9
663.943	12.09
664.27	12.12
664.596	11.7
664.923	11.86
665.249	11.98
665.576	11.95
665.902	11.54
666.228	11.85
666.554	12.93
666.881	11.82
667.207	12.53
667.533	12.15
667.859	12.21
668.185	12.38
668.511	12.1
668.837	12.01
669.162	12.52
669.488	11.68
669.814	12.78
670.139	12.43
670.465	12.48
670.791	12.12
671.116	12.65
671.442	12.38
671.767	12.59
672.092	12.27
672.418	12.67
672.743	12.77
673.068	12.27
673.393	13.01
673.718	12.94
674.043	13.02
674.368	12.03
674.693	12.75
675.018	12.59
675.343	13.22
675.667	13.29
675.992	13.1
676.317	13.52
676.641	13.12
676.966	12.97
677.29	13.13
677.615	13.55
677.939	13.35
678.264	12.99
678.588	13.15
678.912	13.38
679.236	12.61
679.56	13.23
679.885	13.39
680.209	12.86
680.532	13.6
680.856	13.17
681.18	12.57
681.504	13.43
681.828	13.7
682.152	13.69
682.475	13.14
682.799	13.71
683.122	13.56
683.446	13.62
683.769	13.34
684.093	13.89
684.416	13.11
684.739	13.39
685.062	14.85
685.386	13.9
685.709	13.99
686.032	13.95
686.355	14.29
686.678	14.37
687.001	14.14
687.324	14.14
687.646	14.2
687.969	14.75
688.292	14.36
688.614	14.64
688.937	14.5
689.26	14.51
