Data from 0046_forehead_Reflection__3__179.txt Node

Date: Fri Nov 04 16:18:02 CDT 2022
User: ToomeyLab
Spectrometer: FLMS14357
Trigger mode: 0
Integration Time (sec): 1.000000E-2
Scans to average: 100
Electric dark correction enabled: true
Nonlinearity correction enabled: false
Boxcar width: 0
XAxis mode: Wavelengths
Number of Pixels in Spectrum: 2048
>>>>>Begin Spectral Data<<<<<
189.047	-116.31
189.435	-116.31
189.823	-116.31
190.211	1.42
190.599	194.38
190.987	-143.62
191.375	156.77
191.763	95.88
192.151	63.35
192.538	307.32
192.926	142.77
193.314	85.99
193.702	48.6
194.089	104.48
194.477	-12.7
194.864	-33.96
195.252	38.61
195.639	136.08
196.027	42.35
196.414	2230.27
196.801	248.92
197.189	436.84
197.576	109.64
197.963	172.16
198.351	-42.62
198.738	-12.88
199.125	2.88
199.512	-17.14
199.899	-3.94
200.286	-30.58
200.673	-10.78
201.06	-18.27
201.447	-18.98
201.833	7.67
202.22	10.48
202.607	7.58
202.994	47.53
203.38	50.22
203.767	24.23
204.154	22.6
204.54	13.35
204.927	15.06
205.313	35.17
205.699	59.09
206.086	42.75
206.472	1.91
206.858	25.39
207.245	7.25
207.631	10.16
208.017	-1.06
208.403	41.82
208.789	43.6
209.175	-5.17
209.561	-98.02
209.947	-72.26
210.333	-7.34
210.719	7.44
211.105	-52.2
211.491	28.15
211.876	2
212.262	-6.68
212.648	3.1
213.034	21.97
213.419	-50.45
213.805	-3.14
214.19	-28.84
214.576	-36.88
214.961	11.36
215.346	-6.12
215.732	-3.34
216.117	5
216.502	1.79
216.888	-20.17
217.273	13.93
217.658	21.25
218.043	-25.53
218.428	13.95
218.813	9.14
219.198	18.03
219.583	-2.12
219.968	27.17
220.353	-44.99
220.738	-19.2
221.122	-5.5
221.507	14.07
221.892	-8.77
222.276	-15.32
222.661	14.28
223.046	2.44
223.43	-2.68
223.815	-0.81
224.199	7.76
224.583	-8.61
224.968	-5.57
225.352	1.03
225.736	-4.31
226.121	-3.71
226.505	6.11
226.889	1.2
227.273	-0.96
227.657	-1.52
228.041	3.47
228.425	5.39
228.809	3.59
229.193	2.06
229.577	-1.21
229.961	1.87
230.344	1.5
230.728	1.73
231.112	0.97
231.495	0.82
231.879	0.61
232.263	0.32
232.646	0.86
233.03	0.98
233.413	-1.09
233.797	-0.72
234.18	1.86
234.563	1.87
234.946	1.08
235.33	1.75
235.713	0.05
236.096	1.07
236.479	1.34
236.862	0.52
237.245	-1.13
237.628	0.74
238.011	-0.19
238.394	1.34
238.777	1.11
239.16	2.35
239.543	1.48
239.925	0.73
240.308	1.6
240.691	1.33
241.073	0.31
241.456	1.75
241.838	1.26
242.221	1.22
242.603	0.23
242.986	0.97
243.368	2.09
243.75	0.96
244.133	1.42
244.515	1.18
244.897	1.23
245.279	1.44
245.661	1.79
246.043	2.25
246.425	0.81
246.807	2.19
247.189	1.66
247.571	1.51
247.953	0.94
248.335	0.99
248.717	1.13
249.098	1.23
249.48	1.31
249.862	1.33
250.243	1.43
250.625	1
251.006	0.93
251.388	1.5
251.769	1.6
252.151	1.21
252.532	1.22
252.913	0.59
253.295	2.11
253.676	1.18
254.057	1.53
254.438	1.53
254.819	1.39
255.2	0.27
255.581	1.91
255.962	2.07
256.343	0.64
256.724	1.77
257.105	0.99
257.486	1.88
257.867	3.51
258.247	1.59
258.628	0.94
259.009	1.17
259.389	1.72
259.77	1.48
260.15	1.13
260.531	1.38
260.911	1.12
261.292	1.33
261.672	1.32
262.052	1.3
262.432	1.46
262.813	1.09
263.193	0.93
263.573	1.64
263.953	0.87
264.333	1.9
264.713	1.54
265.093	0.7
265.473	1.69
265.853	1.52
266.233	1.83
266.612	1.97
266.992	1.72
267.372	0.54
267.752	1.38
268.131	1.83
268.511	1.68
268.89	1.88
269.27	1.07
269.649	1.67
270.029	1.17
270.408	1.4
270.787	1.64
271.167	1.44
271.546	1.89
271.925	1.51
272.304	1.37
272.683	1.43
273.062	1.47
273.441	1.6
273.82	1.3
274.199	1.64
274.578	1.26
274.957	1
275.336	1.23
275.715	1.43
276.093	1.44
276.472	1.44
276.851	0.89
277.229	1.35
277.608	1.3
277.986	1.78
278.365	1.63
278.743	1.65
279.122	1.21
279.5	1.69
279.878	1.79
280.257	1.08
280.635	1.14
281.013	1.19
281.391	1.61
281.769	1.75
282.147	1.38
282.525	1.54
282.903	1.26
283.281	2.21
283.659	1.36
284.037	1.33
284.415	1.5
284.792	1.75
285.17	1.39
285.548	1.71
285.925	1.52
286.303	1.44
286.68	1.57
287.058	1.48
287.435	1.72
287.813	1.47
288.19	1.47
288.567	1.35
288.945	1.51
289.322	1.68
289.699	1.75
290.076	2
290.453	1.51
290.83	1.49
291.207	1.76
291.584	1.85
291.961	1.94
292.338	1.8
292.715	1.73
293.092	1.82
293.469	1.68
293.845	1.72
294.222	1.83
294.599	1.86
294.975	1.42
295.352	1.8
295.728	1.96
296.105	1.8
296.481	1.77
296.858	1.93
297.234	2.37
297.61	1.86
297.986	1.54
298.363	1.65
298.739	2.03
299.115	2.13
299.491	1.85
299.867	2
300.243	1.95
300.619	2.53
300.995	2.37
301.371	2.36
301.746	2.25
302.122	2.24
302.498	2.28
302.874	2.17
303.249	1.93
303.625	2.15
304	2.47
304.376	2.47
304.751	2.3
305.127	1.95
305.502	2.49
305.878	2.74
306.253	2.31
306.628	2.12
307.003	2.35
307.378	2.46
307.754	2.71
308.129	2.11
308.504	2.45
308.879	2.65
309.254	3.23
309.629	2.7
310.003	2.58
310.378	2.91
310.753	2.89
311.128	2.41
311.502	2.57
311.877	2.92
312.252	3
312.626	2.93
313.001	2.9
313.375	2.69
313.75	2.78
314.124	2.79
314.498	3.37
314.873	3.31
315.247	3.43
315.621	3.3
315.995	3.15
316.369	2.75
316.743	3.7
317.117	3.45
317.491	3.33
317.865	2.96
318.239	3.21
318.613	3.73
318.987	3.45
319.361	3.61
319.734	3.82
320.108	3.12
320.482	2.91
320.855	3.62
321.229	3.28
321.602	3.36
321.976	3.74
322.349	3.88
322.723	4.07
323.096	3.9
323.469	3.64
323.843	4.02
324.216	4.01
324.589	3.67
324.962	3.82
325.335	4.01
325.708	3.8
326.081	4.1
326.454	4.01
326.827	4.05
327.2	4.17
327.573	3.82
327.945	4.64
328.318	3.51
328.691	3.92
329.063	4.48
329.436	4.25
329.809	4.09
330.181	4.04
330.553	4.14
330.926	4.67
331.298	4.33
331.671	4.2
332.043	4.34
332.415	4.4
332.787	4.19
333.159	4.24
333.532	3.75
333.904	4.85
334.276	4.77
334.648	4.8
335.02	4.33
335.391	4.71
335.763	4.87
336.135	4.76
336.507	4.54
336.879	4.75
337.25	4.95
337.622	4.42
337.993	4.7
338.365	4.88
338.736	4.82
339.108	5.34
339.479	4.94
339.851	5.05
340.222	4.89
340.593	4.94
340.964	5.11
341.336	4.77
341.707	5.21
342.078	5.09
342.449	4.92
342.82	5.21
343.191	5.13
343.562	4.84
343.933	5.09
344.303	5.52
344.674	5.39
345.045	5.3
345.416	4.91
345.786	5.4
346.157	5.02
346.527	5.63
346.898	5.53
347.268	5.16
347.639	5.45
348.009	5.69
348.38	5.29
348.75	5.36
349.12	5.28
349.49	5.88
349.861	5.23
350.231	5.9
350.601	5.62
350.971	5.41
351.341	5.62
351.711	5.89
352.081	6.06
352.45	5.89
352.82	5.72
353.19	5.79
353.56	5.73
353.929	5.92
354.299	6.4
354.669	6.32
355.038	6.08
355.408	6.15
355.777	5.94
356.147	6.07
356.516	6.32
356.885	6.17
357.254	6.16
357.624	6.33
357.993	6.15
358.362	6.37
358.731	6.4
359.1	6.23
359.469	6.55
359.838	6.3
360.207	6.2
360.576	6.97
360.945	6.72
361.314	6.97
361.682	6.47
362.051	6.58
362.42	6.85
362.788	6.82
363.157	6.55
363.525	6.68
363.894	6.7
364.262	6.79
364.631	7.06
364.999	6.86
365.367	6.77
365.735	7.1
366.104	6.67
366.472	6.98
366.84	6.74
367.208	7.09
367.576	7.21
367.944	7.09
368.312	6.96
368.68	7.22
369.048	7.01
369.416	7.27
369.783	6.99
370.151	7.14
370.519	7.93
370.886	7.32
371.254	7.6
371.621	7.43
371.989	7.5
372.356	7.56
372.724	7.58
373.091	7.75
373.458	7.7
373.826	7.57
374.193	7.47
374.56	7.65
374.927	7.98
375.294	7.63
375.661	7.6
376.028	7.89
376.395	7.72
376.762	8.12
377.129	8.06
377.496	7.99
377.863	7.99
378.229	7.72
378.596	7.92
378.963	8.16
379.329	7.81
379.696	7.95
380.062	8.43
380.429	8.04
380.795	8.54
381.161	7.99
381.528	8.33
381.894	8.14
382.26	8.41
382.626	8.14
382.993	8.48
383.359	8.34
383.725	8.37
384.091	8.46
384.457	8.64
384.823	8.34
385.188	8.78
385.554	8.5
385.92	8.58
386.286	8.7
386.651	8.61
387.017	8.48
387.383	8.77
387.748	8.7
388.114	8.64
388.479	9.28
388.845	8.78
389.21	9.24
389.575	9.24
389.94	9.23
390.306	8.81
390.671	9.16
391.036	9.09
391.401	9.2
391.766	9.01
392.131	9.34
392.496	9.16
392.861	9.34
393.226	9.14
393.591	9.19
393.956	9.46
394.32	9.47
394.685	9.39
395.05	9.5
395.414	9.62
395.779	9.62
396.143	9.29
396.508	9.49
396.872	9.61
397.236	9.85
397.601	9.67
397.965	9.59
398.329	9.67
398.694	9.9
399.058	9.9
399.422	9.85
399.786	10.02
400.15	9.83
400.514	9.82
400.878	10.03
401.242	10.04
401.605	9.82
401.969	10.04
402.333	10.15
402.697	10.27
403.06	10.33
403.424	10.09
403.787	10.13
404.151	10.36
404.514	10.27
404.878	10.14
405.241	10.32
405.604	10.06
405.968	10.24
406.331	10.13
406.694	10.21
407.057	10.32
407.42	10.35
407.783	10.29
408.146	10.62
408.509	10.46
408.872	10.47
409.235	10.65
409.598	10.65
409.961	10.88
410.323	10.61
410.686	10.67
411.049	10.83
411.411	10.54
411.774	10.82
412.136	10.8
412.499	10.69
412.861	10.83
413.223	10.87
413.586	10.82
413.948	10.82
414.31	11.04
414.672	11.25
415.035	11.17
415.397	11.17
415.759	11.14
416.121	11.05
416.483	11.26
416.845	11
417.206	10.96
417.568	11.15
417.93	11.27
418.292	11.09
418.653	11.31
419.015	11.19
419.377	11.15
419.738	11.24
420.1	11.28
420.461	11.27
420.822	11.16
421.184	11.18
421.545	11.13
421.906	11.25
422.267	11.27
422.629	11.23
422.99	11.18
423.351	11.12
423.712	11.32
424.073	11.35
424.434	11.3
424.795	11.5
425.155	11.51
425.516	11.51
425.877	11.34
426.238	11.51
426.598	11.53
426.959	11.48
427.32	11.51
427.68	11.59
428.041	11.76
428.401	11.81
428.761	12.03
429.122	11.88
429.482	12.06
429.842	11.83
430.202	12.14
430.563	12.22
430.923	12.23
431.283	12.15
431.643	12.33
432.003	12.46
432.363	12.35
432.722	12.39
433.082	12.41
433.442	12.35
433.802	12.14
434.161	12.34
434.521	12.32
434.881	12.3
435.24	12.19
435.6	12.5
435.959	12.21
436.319	12.42
436.678	12.49
437.037	12.53
437.396	12.61
437.756	12.66
438.115	12.52
438.474	12.78
438.833	12.95
439.192	12.85
439.551	12.72
439.91	12.76
440.269	12.78
440.628	12.79
440.987	12.77
441.345	12.79
441.704	12.81
442.063	12.85
442.421	12.86
442.78	12.92
443.138	12.74
443.497	12.87
443.855	12.92
444.214	13.27
444.572	13.05
444.93	13.13
445.288	13.17
445.647	13.08
446.005	13.05
446.363	13.21
446.721	13.19
447.079	13.06
447.437	13.09
447.795	13.09
448.153	12.99
448.51	13.18
448.868	13.1
449.226	13.1
449.584	13.23
449.941	13.34
450.299	13.42
450.656	13.4
451.014	13.67
451.371	13.82
451.729	13.73
452.086	13.6
452.443	13.72
452.801	13.78
453.158	13.8
453.515	13.81
453.872	13.65
454.229	13.81
454.586	13.78
454.943	13.85
455.3	13.89
455.657	13.91
456.014	13.93
456.371	13.95
456.727	14.03
457.084	14.23
457.441	14.04
457.797	14.09
458.154	14.12
458.51	14.23
458.867	14.31
459.223	14.36
459.58	14.56
459.936	14.22
460.292	14.32
460.648	14.33
461.005	14.16
461.361	14.08
461.717	14.05
462.073	14.02
462.429	14.25
462.785	14.32
463.141	14.44
463.496	14.54
463.852	14.77
464.208	14.77
464.564	14.56
464.919	14.63
465.275	14.75
465.631	14.74
465.986	14.92
466.342	14.8
466.697	14.84
467.052	14.82
467.408	14.85
467.763	14.87
468.118	14.99
468.473	14.98
468.829	14.87
469.184	14.81
469.539	14.93
469.894	15.14
470.249	15.09
470.603	15.11
470.958	15.14
471.313	15.19
471.668	15.23
472.023	15.19
472.377	15.38
472.732	15.25
473.086	15.24
473.441	15.35
473.795	15.36
474.15	15.44
474.504	15.4
474.859	15.32
475.213	15.45
475.567	15.5
475.921	15.39
476.275	15.6
476.63	15.47
476.984	15.57
477.338	15.78
477.692	15.76
478.045	15.66
478.399	15.72
478.753	15.77
479.107	15.76
479.461	15.8
479.814	15.88
480.168	15.84
480.521	15.8
480.875	15.8
481.228	15.92
481.582	16.08
481.935	15.96
482.289	15.77
482.642	15.97
482.995	15.83
483.348	15.78
483.701	15.84
484.055	15.8
484.408	15.76
484.761	15.46
485.114	15.35
485.466	15.17
485.819	14.98
486.172	15.1
486.525	15.34
486.878	15.59
487.23	15.75
487.583	15.81
487.936	15.89
488.288	15.84
488.641	15.75
488.993	15.59
489.345	15.52
489.698	15.6
490.05	15.62
490.402	15.75
490.754	15.89
491.107	16.03
491.459	16.21
491.811	16.33
492.163	16.37
492.515	16.33
492.866	16.18
493.218	15.93
493.57	15.74
493.922	15.94
494.274	16.05
494.625	16.44
494.977	16.58
495.328	16.8
495.68	16.82
496.031	16.91
496.383	17.05
496.734	16.9
497.086	17.07
497.437	17.07
497.788	17.09
498.139	16.95
498.49	16.89
498.842	16.93
499.193	16.97
499.544	17.02
499.894	17.1
500.245	17.11
500.596	17.14
500.947	17.05
501.298	17.21
501.648	17.33
501.999	17.45
502.35	17.53
502.7	17.4
503.051	17.63
503.401	17.5
503.752	17.69
504.102	17.81
504.452	17.83
504.803	17.75
505.153	17.66
505.503	17.72
505.853	17.78
506.203	17.62
506.553	17.83
506.903	17.83
507.253	17.89
507.603	17.85
507.953	17.82
508.303	17.92
508.652	17.88
509.002	18.08
509.352	18.1
509.701	17.93
510.051	17.85
510.4	17.88
510.75	17.87
511.099	17.84
511.449	17.93
511.798	17.88
512.147	18.12
512.496	17.92
512.846	18.03
513.195	18.22
513.544	18.14
513.893	18.1
514.242	18.13
514.591	18.14
514.939	18.35
515.288	18.41
515.637	18.44
515.986	18.35
516.334	18.44
516.683	18.55
517.032	18.43
517.38	18.78
517.729	18.64
518.077	18.72
518.426	18.65
518.774	18.54
519.122	18.48
519.47	18.59
519.819	18.52
520.167	18.41
520.515	18.24
520.863	18.3
521.211	18.51
521.559	18.54
521.907	18.72
522.255	18.88
522.602	18.87
522.95	18.84
523.298	18.91
523.645	19.09
523.993	19.09
524.341	19.23
524.688	19.01
525.036	19.16
525.383	19.23
525.73	19.18
526.078	19.11
526.425	19.18
526.772	19.06
527.119	18.91
527.466	18.85
527.814	18.78
528.161	18.83
528.508	18.96
528.854	18.97
529.201	18.98
529.548	18.83
529.895	18.73
530.242	18.47
530.588	18.44
530.935	18.52
531.282	18.77
531.628	18.88
531.975	19.12
532.321	19.3
532.667	19.31
533.014	19.49
533.36	19.52
533.706	19.54
534.052	19.46
534.399	19.39
534.745	19.31
535.091	19.02
535.437	19.04
535.783	19.18
536.129	19.33
536.474	19.61
536.82	19.74
537.166	19.94
537.512	19.88
537.857	19.84
538.203	19.71
538.549	19.59
538.894	19.78
539.239	19.88
539.585	19.87
539.93	20.11
540.276	20.13
540.621	20.32
540.966	20.34
541.311	20.24
541.656	20.29
542.001	20.14
542.346	20.04
542.691	19.89
543.036	19.57
543.381	19.44
543.726	19.64
544.071	19.78
544.415	19.99
544.76	20.12
545.105	20.23
545.449	20.27
545.794	20.27
546.138	20.44
546.483	20.57
546.827	20.6
547.171	20.68
547.516	20.68
547.86	20.55
548.204	20.64
548.548	20.54
548.892	20.55
549.236	20.55
549.58	20.77
549.924	20.88
550.268	21.13
550.612	21.21
550.956	21.14
551.3	21.29
551.643	21.41
551.987	21.23
552.33	21.27
552.674	21.36
553.017	21.37
553.361	21.52
553.704	21.49
554.048	21.47
554.391	21.4
554.734	21.46
555.077	21.55
555.42	21.43
555.764	21.72
556.107	21.61
556.45	21.85
556.793	21.75
557.135	21.71
557.478	21.79
557.821	21.78
558.164	22.02
558.507	21.84
558.849	21.79
559.192	22.02
559.534	22
559.877	22.2
560.219	22.25
560.562	22.4
560.904	22.28
561.246	22.18
561.589	22.12
561.931	21.94
562.273	22.27
562.615	22.03
562.957	22.33
563.299	22.15
563.641	22.19
563.983	22.23
564.325	22.31
564.667	22.32
565.008	22.41
565.35	22.53
565.692	22.76
566.033	22.64
566.375	22.29
566.716	22.36
567.058	22.39
567.399	22.5
567.741	22.57
568.082	22.41
568.423	22.46
568.764	22.51
569.105	22.63
569.447	22.74
569.788	22.54
570.129	22.79
570.47	22.78
570.811	22.78
571.151	22.74
571.492	22.8
571.833	22.92
572.174	23.02
572.514	22.72
572.855	22.76
573.195	22.76
573.536	22.82
573.876	22.85
574.217	22.76
574.557	22.78
574.898	22.94
575.238	22.86
575.578	23.13
575.918	22.96
576.258	23.18
576.598	23.22
576.938	23.15
577.278	23.17
577.618	23.22
577.958	23.17
578.298	23.34
578.638	23.26
578.977	23.64
579.317	23.42
579.657	23.44
579.996	23.53
580.336	23.55
580.675	23.5
581.014	23.72
581.354	23.68
581.693	24.09
582.032	23.72
582.372	23.97
582.711	23.98
583.05	24.06
583.389	23.85
583.728	23.88
584.067	23.86
584.406	23.73
584.745	24.03
585.083	24.14
585.422	23.92
585.761	24.02
586.1	24.03
586.438	23.88
586.777	24.02
587.115	24.15
587.454	24.23
587.792	24.44
588.13	24.25
588.469	24.38
588.807	24.36
589.145	24.21
589.483	24.25
589.821	24.57
590.159	24.34
590.497	24.48
590.835	24.35
591.173	24.38
591.511	24.56
591.849	24.68
592.187	24.32
592.524	24.57
592.862	24.41
593.2	24.42
593.537	24.62
593.875	24.69
594.212	24.48
594.55	24.55
594.887	24.79
595.224	24.74
595.561	24.38
595.899	24.51
596.236	24.67
596.573	24.57
596.91	24.59
597.247	24.8
597.584	24.72
597.921	24.86
598.258	24.59
598.594	24.4
598.931	24.5
599.268	24.68
599.604	24.79
599.941	24.85
600.277	25.03
600.614	25.38
600.95	25.2
601.287	25.13
601.623	24.96
601.959	25.09
602.296	25.29
602.632	25.59
602.968	25.13
603.304	25.23
603.64	25.13
603.976	25.15
604.312	25.35
604.648	25.05
604.984	25.12
605.319	25.15
605.655	25.04
605.991	25.11
606.326	25.14
606.662	24.99
606.998	24.98
607.333	25.14
607.668	25.36
608.004	25.49
608.339	25.53
608.674	25.68
609.01	25.7
609.345	25.59
609.68	25.38
610.015	25.58
610.35	25.55
610.685	25.64
611.02	25.67
611.355	25.57
611.689	25.53
612.024	25.54
612.359	25.84
612.694	25.84
613.028	25.78
613.363	26.18
613.697	25.95
614.032	26.09
614.366	25.96
614.7	26.09
615.035	26.13
615.369	25.79
615.703	26.2
616.037	25.99
616.371	26.29
616.705	25.93
617.039	26.29
617.373	26.16
617.707	26.45
618.041	26.15
618.375	26.28
618.709	26.06
619.042	26.51
619.376	26.35
619.71	26.11
620.043	26.58
620.377	26.24
620.71	26.61
621.043	25.94
621.377	26.28
621.71	26.33
622.043	26.73
622.376	26.58
622.709	26.43
623.043	27.03
623.376	26.83
623.709	26.56
624.041	26.7
624.374	26.59
624.707	26.53
625.04	26.56
625.373	27.09
625.705	26.6
626.038	26.6
626.37	26.97
626.703	26.82
627.035	26.98
627.368	26.86
627.7	26.8
628.032	26.61
628.365	26.81
628.697	26.93
629.029	26.7
629.361	27.02
629.693	27.08
630.025	27.14
630.357	26.95
630.689	26.86
631.021	26.8
631.353	26.82
631.684	26.79
632.016	27.23
632.348	27.11
632.679	27.13
633.011	27.13
633.342	27.24
633.674	26.89
634.005	27.03
634.336	27.47
634.668	27.31
634.999	27.53
635.33	26.68
635.661	27.41
635.992	27.2
636.323	27.27
636.654	27.31
636.985	27.25
637.316	27.28
637.647	27.5
637.977	27.32
638.308	27.59
638.639	27.81
638.969	27.26
639.3	27.99
639.63	27.56
639.961	27.85
640.291	27.54
640.622	27.89
640.952	27.26
641.282	27.48
641.612	28.03
641.943	27.79
642.273	27.62
642.603	28
642.933	27.62
643.263	27.77
643.592	27.69
643.922	27.88
644.252	28.27
644.582	27.97
644.911	28.15
645.241	27.85
645.571	27.89
645.9	27.74
646.23	28.24
646.559	28.13
646.888	27.89
647.218	27.91
647.547	27.89
647.876	28.43
648.205	27.56
648.534	27.98
648.863	28.07
649.192	28.23
649.521	28.23
649.85	28.24
650.179	28.27
650.508	27.75
650.837	28.64
651.165	28.13
651.494	28.38
651.822	28.29
652.151	28.45
652.479	28.37
652.808	28.44
653.136	27.98
653.465	28.63
653.793	28.52
654.121	28.65
654.449	28.48
654.777	28.59
655.105	28.67
655.433	28.4
655.761	28.45
656.089	28.83
656.417	28.59
656.745	28.61
657.073	28.21
657.4	28.42
657.728	28.76
658.056	28.27
658.383	28.37
658.711	28.7
659.038	28.79
659.365	29
659.693	28.55
660.02	28.62
660.347	28.18
660.674	28.7
661.001	28.54
661.329	28.52
661.656	28.69
661.982	28.17
662.309	28.68
662.636	28.95
662.963	28.82
663.29	28.73
663.616	29.26
663.943	29.09
664.27	28.9
664.596	28.65
664.923	28.74
665.249	29.19
665.576	29.55
665.902	28.8
666.228	28.48
666.554	29.22
666.881	28.77
667.207	29.32
667.533	28.91
667.859	29.43
668.185	29.22
668.511	28.81
668.837	29
669.162	29
669.488	29.22
669.814	29.37
670.139	28.9
670.465	28.95
670.791	29.09
671.116	28.87
671.442	29.38
671.767	29.14
672.092	29.31
672.418	29.51
672.743	29.35
673.068	29.48
673.393	29.62
673.718	29.73
