Data from 0046_forehead_Reflection__1__177.txt Node

Date: Fri Nov 04 16:17:35 CDT 2022
User: ToomeyLab
Spectrometer: FLMS14357
Trigger mode: 0
Integration Time (sec): 1.000000E-2
Scans to average: 100
Electric dark correction enabled: true
Nonlinearity correction enabled: false
Boxcar width: 0
XAxis mode: Wavelengths
Number of Pixels in Spectrum: 2048
>>>>>Begin Spectral Data<<<<<
189.047	16.77
189.435	16.77
189.823	16.77
190.211	286.29
190.599	140.52
190.987	11.18
191.375	304.68
191.763	91.13
192.151	56.66
192.538	-146.34
192.926	-36.75
193.314	77.06
193.702	107.34
194.089	-29.61
194.477	50.01
194.864	117.06
195.252	37.81
195.639	172.12
196.027	12.16
196.414	668.11
196.801	103.7
197.189	307.05
197.576	213.69
197.963	56.2
198.351	2.36
198.738	54.79
199.125	10.22
199.512	-29.61
199.899	-4.84
200.286	9.61
200.673	-3.33
201.06	7.42
201.447	-29.4
201.833	9.17
202.22	17.99
202.607	44
202.994	53.7
203.38	57.58
203.767	44.28
204.154	49.4
204.54	14.99
204.927	19.47
205.313	37.74
205.699	40.06
206.086	27.29
206.472	7.84
206.858	50.24
207.245	26.6
207.631	23.02
208.017	25.71
208.403	40.74
208.789	31.85
209.175	27.96
209.561	-66.06
209.947	-55.69
210.333	33.93
210.719	0.97
211.105	-33.15
211.491	13.38
211.876	18.41
212.262	13.48
212.648	25.31
213.034	21.67
213.419	1.62
213.805	-13.68
214.19	-39.47
214.576	7.84
214.961	29.17
215.346	-4.74
215.732	4.19
216.117	0.49
216.502	-11.18
216.888	14.03
217.273	5.49
217.658	21.83
218.043	-5.53
218.428	5.83
218.813	17.21
219.198	27.38
219.583	2.42
219.968	21.56
220.353	6.04
220.738	8.36
221.122	-2.73
221.507	21.34
221.892	-14.82
222.276	-2.26
222.661	15.36
223.046	-12.51
223.43	9.67
223.815	-3.98
224.199	5.18
224.583	6.57
224.968	-0.33
225.352	2.73
225.736	-10.01
226.121	0.13
226.505	1.68
226.889	1.75
227.273	2.58
227.657	0.36
228.041	3.84
228.425	4.34
228.809	6.41
229.193	4.19
229.577	1.92
229.961	3.86
230.344	3.32
230.728	3.19
231.112	2.47
231.495	2.33
231.879	3.13
232.263	2.07
232.646	2.35
233.03	1.78
233.413	2
233.797	1.97
234.18	4.97
234.563	3.93
234.946	1.18
235.33	3.75
235.713	2.94
236.096	4.45
236.479	2.35
236.862	2.35
237.245	3.9
237.628	2.9
238.011	0.52
238.394	3.12
238.777	3.2
239.16	2.86
239.543	2.02
239.925	1.7
240.308	3.65
240.691	2.02
241.073	2.6
241.456	2.11
241.838	3.57
242.221	2.23
242.603	2.12
242.986	2.7
243.368	2.21
243.75	2.22
244.133	2.68
244.515	2.45
244.897	2.46
245.279	2.65
245.661	3.14
246.043	2.81
246.425	2.39
246.807	4.11
247.189	2.44
247.571	3.29
247.953	2.1
248.335	2.53
248.717	2.58
249.098	2.42
249.48	2.58
249.862	2.68
250.243	2.76
250.625	2.09
251.006	2.59
251.388	2.91
251.769	3.24
252.151	2.85
252.532	2.3
252.913	1.77
253.295	3.29
253.676	2.58
254.057	2.28
254.438	2.42
254.819	2.5
255.2	2.67
255.581	3.81
255.962	3.23
256.343	3.58
256.724	2.8
257.105	3
257.486	3.77
257.867	4.24
258.247	3.61
258.628	3.39
259.009	2.38
259.389	3.09
259.77	3.63
260.15	3.21
260.531	2.64
260.911	2.53
261.292	2.36
261.672	2.61
262.052	2.75
262.432	2.83
262.813	2.39
263.193	2.33
263.573	2.58
263.953	2.78
264.333	2.82
264.713	3.16
265.093	2.66
265.473	3.34
265.853	2.1
266.233	3.13
266.612	3.22
266.992	2.95
267.372	1.67
267.752	2.82
268.131	2.7
268.511	2.8
268.89	3
269.27	2.87
269.649	3.04
270.029	2.67
270.408	2.54
270.787	3.08
271.167	2.61
271.546	2.86
271.925	2.95
272.304	1.92
272.683	2.59
273.062	2.88
273.441	2.8
273.82	2.48
274.199	2.67
274.578	2.41
274.957	2.45
275.336	2.3
275.715	2.31
276.093	2.8
276.472	2.32
276.851	2.26
277.229	2.94
277.608	2.92
277.986	3.16
278.365	3.02
278.743	2.96
279.122	2.85
279.5	2.61
279.878	2.81
280.257	2.63
280.635	2.43
281.013	2.48
281.391	2.75
281.769	2.69
282.147	2.44
282.525	2.71
282.903	2.94
283.281	2.84
283.659	2.69
284.037	2.33
284.415	2.67
284.792	2.43
285.17	2.57
285.548	3.08
285.925	2.62
286.303	3.31
286.68	3.22
287.058	2.78
287.435	2.69
287.813	2.61
288.19	2.75
288.567	2.8
288.945	3.23
289.322	2.77
289.699	3
290.076	3.11
290.453	2.48
290.83	2.62
291.207	3.16
291.584	2.99
291.961	3.04
292.338	2.95
292.715	3.05
293.092	3.06
293.469	2.98
293.845	2.43
294.222	3.24
294.599	2.77
294.975	3.1
295.352	2.93
295.728	3.48
296.105	3.4
296.481	3.16
296.858	3.49
297.234	3.77
297.61	3.52
297.986	3.32
298.363	3.21
298.739	3.28
299.115	3.49
299.491	3.3
299.867	3.47
300.243	3.09
300.619	3.58
300.995	3.96
301.371	4.06
301.746	3.39
302.122	3.91
302.498	3.83
302.874	3.92
303.249	3.48
303.625	3.67
304	3.95
304.376	3.8
304.751	3.86
305.127	3.7
305.502	4.18
305.878	4.23
306.253	3.92
306.628	3.66
307.003	4.07
307.378	4.23
307.754	3.94
308.129	3.92
308.504	4.38
308.879	4.41
309.254	4.5
309.629	4.51
310.003	4.41
310.378	4.07
310.753	4.59
311.128	4.05
311.502	3.9
311.877	4.45
312.252	4.3
312.626	4.58
313.001	4.67
313.375	4.58
313.75	4.68
314.124	4.7
314.498	5.29
314.873	5.13
315.247	5.04
315.621	4.98
315.995	5.44
316.369	4.57
316.743	5.14
317.117	5.53
317.491	5.32
317.865	4.85
318.239	4.85
318.613	5.32
318.987	5.57
319.361	5.36
319.734	5.32
320.108	5.63
320.482	5.06
320.855	5.45
321.229	5.61
321.602	5.32
321.976	5.43
322.349	6.48
322.723	5.88
323.096	5.93
323.469	5.36
323.843	5.33
324.216	5.8
324.589	5.78
324.962	5.85
325.335	5.87
325.708	5.52
326.081	6.3
326.454	5.88
326.827	6.23
327.2	5.94
327.573	5.98
327.945	6.13
328.318	6.08
328.691	5.9
329.063	6.16
329.436	6.28
329.809	6.14
330.181	6.07
330.553	5.89
330.926	6.62
331.298	6.57
331.671	6.43
332.043	6.89
332.415	6.31
332.787	5.63
333.159	6.66
333.532	6.09
333.904	6.89
334.276	6.89
334.648	6.81
335.02	6.56
335.391	6.77
335.763	6.57
336.135	6.82
336.507	6.37
336.879	6.59
337.25	7.14
337.622	7.03
337.993	7.16
338.365	6.91
338.736	7.02
339.108	6.81
339.479	7.1
339.851	6.76
340.222	7.3
340.593	7.14
340.964	7.69
341.336	7.14
341.707	6.96
342.078	7.04
342.449	7.25
342.82	7.39
343.191	7.35
343.562	7.7
343.933	7.76
344.303	7.76
344.674	7.5
345.045	7.24
345.416	7.27
345.786	7.5
346.157	7.87
346.527	7.9
346.898	7.83
347.268	7.42
347.639	7.44
348.009	7.82
348.38	7.61
348.75	7.71
349.12	7.55
349.49	7.89
349.861	7.58
350.231	8.15
350.601	7.73
350.971	7.87
351.341	8.32
351.711	8.16
352.081	7.96
352.45	8.45
352.82	8.25
353.19	7.99
353.56	8.32
353.929	8.06
354.299	8.39
354.669	8.59
355.038	8.7
355.408	8.09
355.777	8.28
356.147	8.4
356.516	8.1
356.885	8.22
357.254	8.56
357.624	8.71
357.993	8.59
358.362	8.46
358.731	8.8
359.1	8.76
359.469	8.58
359.838	8.94
360.207	8.53
360.576	8.65
360.945	8.73
361.314	8.9
361.682	8.65
362.051	8.95
362.42	8.88
362.788	8.89
363.157	8.95
363.525	8.91
363.894	8.97
364.262	9.04
364.631	9.19
364.999	9.02
365.367	9.04
365.735	9.21
366.104	9.13
366.472	9.34
366.84	8.96
367.208	9.27
367.576	9.49
367.944	9.56
368.312	9.41
368.68	9.42
369.048	9.59
369.416	9.44
369.783	9.15
370.151	9.41
370.519	9.8
370.886	9.73
371.254	10.07
371.621	9.88
371.989	9.72
372.356	9.84
372.724	10.16
373.091	9.82
373.458	9.96
373.826	9.88
374.193	9.68
374.56	9.72
374.927	10.27
375.294	9.83
375.661	9.93
376.028	9.98
376.395	10.41
376.762	10.58
377.129	10.17
377.496	10.45
377.863	9.98
378.229	10.1
378.596	10.17
378.963	10.25
379.329	10.38
379.696	10.31
380.062	10.72
380.429	10.45
380.795	10.33
381.161	10.5
381.528	10.8
381.894	10.27
382.26	10.52
382.626	10.52
382.993	10.61
383.359	10.66
383.725	10.78
384.091	10.34
384.457	10.92
384.823	10.78
385.188	11.09
385.554	10.82
385.92	10.98
386.286	10.67
386.651	10.98
387.017	10.78
387.383	10.74
387.748	10.96
388.114	10.82
388.479	11.46
388.845	11.19
389.21	11.41
389.575	11.55
389.94	11.39
390.306	11.37
390.671	11.51
391.036	11.45
391.401	11.64
391.766	11.34
392.131	11.55
392.496	11.63
392.861	11.49
393.226	11.5
393.591	11.4
393.956	11.72
394.32	11.61
394.685	11.54
395.05	11.72
395.414	11.69
395.779	11.73
396.143	11.73
396.508	11.8
396.872	11.79
397.236	11.77
397.601	11.85
397.965	12.02
398.329	11.94
398.694	12.28
399.058	12.06
399.422	12.09
399.786	12.08
400.15	11.96
400.514	12.06
400.878	12.06
401.242	12.21
401.605	12.09
401.969	12.55
402.333	12.38
402.697	12.57
403.06	12.52
403.424	12.31
403.787	12.37
404.151	12.59
404.514	12.49
404.878	12.44
405.241	12.41
405.604	12.66
405.968	12.47
406.331	12.6
406.694	12.29
407.057	12.59
407.42	12.48
407.783	12.6
408.146	12.82
408.509	12.54
408.872	12.8
409.235	12.61
409.598	12.62
409.961	12.84
410.323	12.79
410.686	12.82
411.049	12.92
411.411	12.71
411.774	13.02
412.136	13.17
412.499	13.06
412.861	12.91
413.223	13.06
413.586	13.1
413.948	13.18
414.31	12.93
414.672	13.3
415.035	13.34
415.397	13.39
415.759	13.35
416.121	13.12
416.483	13.54
416.845	13.2
417.206	13.31
417.568	13.51
417.93	13.45
418.292	13.21
418.653	13.49
419.015	13.33
419.377	13.42
419.738	13.43
420.1	13.43
420.461	13.54
420.822	13.38
421.184	13.4
421.545	13.35
421.906	13.33
422.267	13.35
422.629	13.53
422.99	13.29
423.351	13.28
423.712	13.39
424.073	13.56
424.434	13.52
424.795	13.64
425.155	13.6
425.516	13.67
425.877	13.51
426.238	13.54
426.598	13.7
426.959	13.82
427.32	13.64
427.68	13.74
428.041	13.86
428.401	13.98
428.761	14.07
429.122	14.02
429.482	14.22
429.842	13.94
430.202	14.35
430.563	14.19
430.923	14.35
431.283	14.27
431.643	14.22
432.003	14.51
432.363	14.43
432.722	14.47
433.082	14.48
433.442	14.49
433.802	14.45
434.161	14.54
434.521	14.44
434.881	14.59
435.24	14.38
435.6	14.71
435.959	14.51
436.319	14.53
436.678	14.68
437.037	14.69
437.396	14.71
437.756	14.79
438.115	14.63
438.474	14.86
438.833	14.88
439.192	14.77
439.551	14.89
439.91	14.98
440.269	14.95
440.628	14.86
440.987	14.88
441.345	14.99
441.704	14.94
442.063	14.89
442.421	14.9
442.78	14.85
443.138	14.84
443.497	14.94
443.855	15.03
444.214	15.16
444.572	15.07
444.93	15.12
445.288	15.21
445.647	15.13
446.005	15.23
446.363	15.22
446.721	15.19
447.079	15.21
447.437	15.13
447.795	15.17
448.153	15.13
448.51	15.21
448.868	15.18
449.226	15.15
449.584	15.29
449.941	15.21
450.299	15.26
450.656	15.53
451.014	15.58
451.371	15.67
451.729	15.67
452.086	15.72
452.443	15.81
452.801	15.72
453.158	15.84
453.515	15.98
453.872	15.85
454.229	15.89
454.586	15.88
454.943	15.91
455.3	15.96
455.657	15.85
456.014	15.97
456.371	16.05
456.727	16.17
457.084	16.05
457.441	16.09
457.797	16.25
458.154	16.15
458.51	16.2
458.867	16.38
459.223	16.32
459.58	16.72
459.936	16.31
460.292	16.36
460.648	16.43
461.005	16.29
461.361	16.15
461.717	16.13
462.073	16.24
462.429	16.26
462.785	16.24
463.141	16.4
463.496	16.45
463.852	16.46
464.208	16.61
464.564	16.58
464.919	16.68
465.275	16.78
465.631	16.88
465.986	16.97
466.342	16.67
466.697	16.87
467.052	16.73
467.408	16.85
467.763	16.98
468.118	17.03
468.473	16.95
468.829	16.94
469.184	16.96
469.539	16.99
469.894	17.04
470.249	16.96
470.603	17.09
470.958	17.09
471.313	17.13
471.668	17.12
472.023	17.08
472.377	17.33
472.732	17.3
473.086	17.32
473.441	17.31
473.795	17.28
474.15	17.29
474.504	17.33
474.859	17.38
475.213	17.41
475.567	17.22
475.921	17.45
476.275	17.59
476.63	17.37
476.984	17.53
477.338	17.67
477.692	17.63
478.045	17.66
478.399	17.54
478.753	17.69
479.107	17.62
479.461	17.64
479.814	17.72
480.168	17.64
480.521	17.69
480.875	17.62
481.228	17.89
481.582	17.84
481.935	17.81
482.289	17.77
482.642	17.98
482.995	17.83
483.348	17.78
483.701	17.66
484.055	17.7
484.408	17.72
484.761	17.5
485.114	17.32
485.466	17.27
485.819	17.23
486.172	17.26
486.525	17.27
486.878	17.38
487.23	17.35
487.583	17.37
487.936	17.6
488.288	17.67
488.641	17.64
488.993	17.64
489.345	17.53
489.698	17.54
490.05	17.66
490.402	17.62
490.754	17.64
491.107	17.85
491.459	18.01
491.811	18.02
492.163	18.18
492.515	18.25
492.866	18.11
493.218	17.94
493.57	17.89
493.922	18.03
494.274	18.01
494.625	18.03
494.977	18.33
495.328	18.35
495.68	18.46
496.031	18.65
496.383	18.64
496.734	18.76
497.086	18.99
497.437	19
497.788	18.99
498.139	18.79
498.49	18.83
498.842	18.89
499.193	18.8
499.544	19.01
499.894	18.91
500.245	18.93
500.596	18.89
500.947	19.02
501.298	19.23
501.648	19.21
501.999	19.23
502.35	19.32
502.7	19.26
503.051	19.36
503.401	19.25
503.752	19.56
504.102	19.4
504.452	19.43
504.803	19.57
505.153	19.46
505.503	19.63
505.853	19.6
506.203	19.58
506.553	19.46
506.903	19.64
507.253	19.63
507.603	19.57
507.953	19.59
508.303	19.77
508.652	19.64
509.002	19.86
509.352	19.75
509.701	19.61
510.051	19.65
510.4	19.7
510.75	19.75
511.099	19.81
511.449	19.79
511.798	19.74
512.147	19.82
512.496	19.77
512.846	19.9
513.195	20.02
513.544	19.95
513.893	19.86
514.242	19.97
514.591	19.91
514.939	20.17
515.288	20.1
515.637	20.08
515.986	20.19
516.334	20.22
516.683	20.24
517.032	20.31
517.38	20.3
517.729	20.34
518.077	20.36
518.426	20.47
518.774	20.53
519.122	20.32
519.47	20.35
519.819	20.48
520.167	20.29
520.515	20.16
520.863	20.17
521.211	20.34
521.559	20.34
521.907	20.35
522.255	20.57
522.602	20.65
522.95	20.55
523.298	20.6
523.645	20.75
523.993	20.8
524.341	20.79
524.688	20.91
525.036	20.87
525.383	20.86
525.73	20.91
526.078	20.95
526.425	21.02
526.772	20.76
527.119	20.7
527.466	20.75
527.814	20.69
528.161	20.77
528.508	20.81
528.854	20.72
529.201	20.73
529.548	20.76
529.895	20.65
530.242	20.4
530.588	20.53
530.935	20.58
531.282	20.59
531.628	20.51
531.975	20.63
532.321	20.71
532.667	20.86
533.014	20.93
533.36	21.17
533.706	21.24
534.052	21.12
534.399	21.12
534.745	21.16
535.091	20.95
535.437	21.04
535.783	21.02
536.129	21.06
536.474	21.17
536.82	21.22
537.166	21.31
537.512	21.5
537.857	21.52
538.203	21.5
538.549	21.48
538.894	21.62
539.239	21.63
539.585	21.63
539.93	21.71
540.276	21.72
540.621	21.8
540.966	21.96
541.311	21.88
541.656	22.04
542.001	21.85
542.346	21.82
542.691	21.8
543.036	21.53
543.381	21.55
543.726	21.74
544.071	21.53
544.415	21.67
544.76	21.62
545.105	21.79
545.449	21.85
545.794	21.89
546.138	22.04
546.483	22.13
546.827	22.24
547.171	22.25
547.516	22.35
547.86	22.35
548.204	22.41
548.548	22.28
548.892	22.3
549.236	22.38
549.58	22.45
549.924	22.44
550.268	22.65
550.612	22.66
550.956	22.69
551.3	22.87
551.643	22.89
551.987	22.86
552.33	22.79
552.674	23.01
553.017	23.14
553.361	23.07
553.704	23.07
554.048	23.2
554.391	23
554.734	23.25
555.077	23.23
555.42	23.17
555.764	23.37
556.107	23.21
556.45	23.41
556.793	23.21
557.135	23.37
557.478	23.32
557.821	23.42
558.164	23.54
558.507	23.48
558.849	23.6
559.192	23.74
559.534	23.5
559.877	23.66
560.219	23.85
560.562	23.95
560.904	23.66
561.246	23.64
561.589	23.75
561.931	23.71
562.273	23.9
562.615	23.63
562.957	23.92
563.299	23.85
563.641	24.03
563.983	23.93
564.325	23.81
564.667	24
565.008	24.01
565.35	24.17
565.692	24.26
566.033	24.24
566.375	24.04
566.716	24.17
567.058	24.15
567.399	24.04
567.741	24.21
568.082	24.18
568.423	24.25
568.764	24.27
569.105	24.03
569.447	24.19
569.788	24.13
570.129	24.34
570.47	24.4
570.811	24.36
571.151	24.48
571.492	24.51
571.833	24.56
572.174	24.56
572.514	24.4
572.855	24.4
573.195	24.75
573.536	24.59
573.876	24.52
574.217	24.35
574.557	24.47
574.898	24.45
575.238	24.45
575.578	24.69
575.918	24.67
576.258	24.66
576.598	24.85
576.938	24.7
577.278	24.56
577.618	24.82
577.958	24.69
578.298	24.68
578.638	24.94
578.977	24.99
579.317	24.93
579.657	24.81
579.996	25.31
580.336	25.05
580.675	25.09
581.014	25.33
581.354	24.94
581.693	25.52
582.032	25.33
582.372	25.29
582.711	25.35
583.05	25.47
583.389	25.37
583.728	25.29
584.067	25.54
584.406	25.45
584.745	25.64
585.083	25.51
585.422	25.59
585.761	25.6
586.1	25.71
586.438	25.52
586.777	25.65
587.115	25.86
587.454	25.77
587.792	26.14
588.13	25.67
588.469	25.87
588.807	25.79
589.145	25.68
589.483	25.79
589.821	26.1
590.159	25.97
590.497	26.07
590.835	25.93
591.173	25.78
591.511	26.09
591.849	26.05
592.187	25.83
592.524	26.25
592.862	25.9
593.2	25.94
593.537	26.09
593.875	26.21
594.212	26.07
594.55	26.02
594.887	26.36
595.224	26.29
595.561	26.26
595.899	26.32
596.236	26.54
596.573	26.25
596.91	26.2
597.247	26.24
597.584	26.3
597.921	26.41
598.258	26.47
598.594	26.29
598.931	26.42
599.268	26.43
599.604	26.45
599.941	26.37
600.277	26.44
600.614	26.34
600.95	26.69
601.287	26.64
601.623	26.92
601.959	26.69
602.296	26.69
602.632	26.8
602.968	26.68
603.304	26.78
603.64	27.28
603.976	26.43
604.312	26.85
604.648	26.72
604.984	26.77
605.319	26.63
605.655	26.67
605.991	26.79
606.326	26.58
606.662	26.67
606.998	26.73
607.333	26.69
607.668	26.72
608.004	26.83
608.339	26.69
608.674	26.94
609.01	27.09
609.345	27.18
609.68	27.02
610.015	27.04
610.35	27.23
610.685	27.22
611.02	27.41
611.355	27.21
611.689	27.21
612.024	27.42
612.359	27.1
612.694	27.58
613.028	27.47
613.363	27.68
613.697	27.38
614.032	27.62
614.366	27.32
614.7	27.41
615.035	27.29
615.369	27.4
615.703	27.65
616.037	27.5
616.371	27.45
616.705	27.73
617.039	27.83
617.373	27.59
617.707	27.96
618.041	27.51
618.375	27.44
618.709	27.8
619.042	27.62
619.376	27.89
619.71	27.7
620.043	28.04
620.377	28.09
620.71	27.97
621.043	27.94
621.377	28.19
621.71	28.33
622.043	28.35
622.376	28.06
622.709	28.2
623.043	28.32
623.376	28.27
623.709	27.99
624.041	28.46
624.374	28.22
624.707	28.2
625.04	28.43
625.373	28.33
625.705	28
626.038	28.36
626.37	28.32
626.703	28.29
627.035	27.97
627.368	28.33
627.7	28.05
628.032	28.41
628.365	28.47
628.697	28.41
629.029	28.58
629.361	28.34
629.693	28.28
630.025	28.78
630.357	28.33
630.689	28.69
631.021	28.54
631.353	28.24
631.684	28.81
632.016	28.92
632.348	28.57
632.679	28.45
633.011	28.33
633.342	28.69
633.674	28.73
634.005	28.67
634.336	29.08
634.668	29.1
634.999	29.35
635.33	28.6
635.661	28.92
635.992	28.78
636.323	28.79
636.654	28.74
636.985	29.26
637.316	28.77
637.647	28.56
637.977	29.22
638.308	29.02
638.639	28.79
638.969	29.16
639.3	28.98
639.63	28.73
639.961	29.1
640.291	29.01
640.622	29.29
640.952	29.43
641.282	29.12
641.612	29.29
641.943	29.51
642.273	29.24
642.603	29.63
642.933	29.19
643.263	29.26
643.592	29.32
643.922	29.88
644.252	29.38
644.582	29.48
644.911	29.51
645.241	29.07
645.571	29.62
645.9	29.51
646.23	29.33
646.559	29.69
646.888	29.54
647.218	29.77
647.547	29.61
647.876	29.87
648.205	29.22
648.534	29.67
648.863	29.68
649.192	29.8
649.521	29.65
649.85	29.64
650.179	29.46
650.508	29.81
650.837	30.04
651.165	29.78
651.494	30.1
651.822	29.91
652.151	30.32
652.479	29.76
652.808	30
653.136	30.06
653.465	30.3
653.793	30.07
654.121	29.72
654.449	29.98
654.777	30.26
655.105	30.28
655.433	29.8
655.761	29.51
656.089	29.97
656.417	29.7
656.745	30.27
657.073	29.92
657.4	30.04
657.728	30.28
658.056	29.91
658.383	30.25
658.711	30.14
659.038	30.23
659.365	30.76
659.693	30.84
660.02	30.07
660.347	30.34
660.674	30.1
661.001	30.28
661.329	30.4
661.656	30.17
661.982	30.15
662.309	30.34
662.636	30.11
662.963	30.45
663.29	29.92
663.616	30.51
663.943	30.46
664.27	30.59
664.596	30.92
664.923	30.69
665.249	30.58
665.576	30.69
665.902	30.5
666.228	30.22
666.554	31.02
666.881	30.75
667.207	31.06
667.533	30.57
667.859	31.21
668.185	30.43
668.511	30.97
668.837	30.44
669.162	30.94
669.488	30.82
669.814	30.59
670.139	30.57
670.465	30.62
670.791	30.55
671.116	31.12
671.442	31.09
671.767	30.94
672.092	30.72
672.418	30.55
672.743	31.07
