Data from 0046_chest_Reflection__1__167.txt Node

Date: Fri Nov 04 16:12:59 CDT 2022
User: ToomeyLab
Spectrometer: FLMS14357
Trigger mode: 0
Integration Time (sec): 1.000000E-2
Scans to average: 100
Electric dark correction enabled: true
Nonlinearity correction enabled: false
Boxcar width: 0
XAxis mode: Wavelengths
Number of Pixels in Spectrum: 2048
>>>>>Begin Spectral Data<<<<<
189.047	-150.73
189.435	-150.73
189.823	-150.73
190.211	-22.64
190.599	93.62
190.987	-161.48
191.375	93.87
191.763	-31.86
192.151	50.07
192.538	57.83
192.926	-2.75
193.314	125.56
193.702	131.67
194.089	122.42
194.477	29.59
194.864	150.15
195.252	128.87
195.639	131.13
196.027	-99.32
196.414	-552.97
196.801	-25.55
197.189	-223.36
197.576	192.82
197.963	-2.03
198.351	-23.54
198.738	44.63
199.125	18.77
199.512	-47.12
199.899	-7.44
200.286	-7.71
200.673	-21.84
201.06	-22.01
201.447	-6.36
201.833	1.31
202.22	-7.57
202.607	-12.36
202.994	29.04
203.38	-10.2
203.767	-33.95
204.154	23.71
204.54	-21.27
204.927	27.85
205.313	32.21
205.699	20.25
206.086	-2.74
206.472	19.47
206.858	5.81
207.245	-16.42
207.631	-25.65
208.017	4.55
208.403	6.93
208.789	23.79
209.175	40.95
209.561	-60.8
209.947	-54.76
210.333	-16.29
210.719	-3.39
211.105	-18.36
211.491	-11.91
211.876	3.78
212.262	15.3
212.648	-6.24
213.034	15.74
213.419	-17.01
213.805	-46.44
214.19	-44.03
214.576	-18.57
214.961	30.62
215.346	-2.41
215.732	11.42
216.117	-20.87
216.502	-23.9
216.888	-7.09
217.273	9.71
217.658	1.21
218.043	-15.9
218.428	16.16
218.813	1.97
219.198	9.18
219.583	-4.4
219.968	13.48
220.353	-17.07
220.738	-20.99
221.122	-2.13
221.507	7.25
221.892	-6.19
222.276	4.49
222.661	10.96
223.046	-7.23
223.43	-1.12
223.815	-12.32
224.199	2.56
224.583	-6.9
224.968	-9.23
225.352	11.5
225.736	-11.25
226.121	-8.37
226.505	3.38
226.889	1.62
227.273	6.34
227.657	-4.61
228.041	-0.91
228.425	3.34
228.809	4.76
229.193	2.93
229.577	-1.63
229.961	2.9
230.344	1.66
230.728	0.95
231.112	0.64
231.495	1.17
231.879	1.92
232.263	-0.97
232.646	1.24
233.03	1.46
233.413	-0.03
233.797	-1.19
234.18	1.74
234.563	1.39
234.946	-0.94
235.33	0.25
235.713	0.14
236.096	2.36
236.479	1.69
236.862	-0.55
237.245	0.31
237.628	1.09
238.011	-0.22
238.394	1.93
238.777	1.38
239.16	0.88
239.543	-0.94
239.925	1.31
240.308	2.66
240.691	1.39
241.073	0.93
241.456	1.71
241.838	0.34
242.221	1.45
242.603	1.61
242.986	1.42
243.368	1.39
243.75	1.29
244.133	1.44
244.515	1.65
244.897	1.54
245.279	1.38
245.661	0.99
246.043	2.31
246.425	1.02
246.807	2.36
247.189	1.13
247.571	1.42
247.953	1.63
248.335	1.16
248.717	1.27
249.098	1.22
249.48	1.33
249.862	1.57
250.243	1.17
250.625	1.01
251.006	1.03
251.388	1.16
251.769	1.92
252.151	2.15
252.532	1.03
252.913	0.55
253.295	1.82
253.676	0.94
254.057	1.03
254.438	0.88
254.819	1.29
255.2	0.58
255.581	1.5
255.962	2.09
256.343	0.27
256.724	1.44
257.105	0.38
257.486	1.46
257.867	2.23
258.247	1.1
258.628	1.58
259.009	1.07
259.389	1.56
259.77	1.61
260.15	0.87
260.531	1.4
260.911	0.97
261.292	1.02
261.672	1.15
262.052	1.22
262.432	1.12
262.813	0.8
263.193	0.36
263.573	1.36
263.953	0.97
264.333	1.07
264.713	1.02
265.093	0.99
265.473	1.44
265.853	0.47
266.233	1.08
266.612	1.69
266.992	1.8
267.372	0.12
267.752	1.19
268.131	1.58
268.511	1.18
268.89	1.37
269.27	1.12
269.649	1.04
270.029	1.1
270.408	1.3
270.787	1.45
271.167	1.33
271.546	1.33
271.925	1.32
272.304	1.4
272.683	1.05
273.062	1.48
273.441	1.56
273.82	0.87
274.199	0.91
274.578	1.2
274.957	1.45
275.336	0.74
275.715	1.01
276.093	1.12
276.472	1.26
276.851	0.57
277.229	1.14
277.608	1.07
277.986	1.34
278.365	1.7
278.743	1.46
279.122	0.85
279.5	1.33
279.878	1.19
280.257	0.85
280.635	0.74
281.013	0.93
281.391	1.27
281.769	1.21
282.147	0.69
282.525	1.06
282.903	1.09
283.281	1.83
283.659	1.13
284.037	1.04
284.415	1.02
284.792	1.26
285.17	0.91
285.548	1.13
285.925	0.92
286.303	1.2
286.68	1.64
287.058	1.24
287.435	1.18
287.813	0.7
288.19	1.18
288.567	0.77
288.945	0.93
289.322	1.19
289.699	1.37
290.076	1.14
290.453	0.83
290.83	0.72
291.207	0.85
291.584	1.15
291.961	1.26
292.338	1.54
292.715	1.08
293.092	1.34
293.469	1.08
293.845	1.1
294.222	1.2
294.599	1.09
294.975	0.93
295.352	1.34
295.728	1.31
296.105	1.3
296.481	1.17
296.858	1.53
297.234	1.38
297.61	1.64
297.986	1.18
298.363	1.11
298.739	1.2
299.115	1.26
299.491	1.3
299.867	1.25
300.243	1.4
300.619	1.26
300.995	1.66
301.371	1.7
301.746	1.14
302.122	1.13
302.498	1.52
302.874	1.47
303.249	1.01
303.625	1.46
304	1.22
304.376	0.92
304.751	1.31
305.127	0.99
305.502	1.53
305.878	1.19
306.253	1.58
306.628	0.91
307.003	1.42
307.378	1.28
307.754	1.36
308.129	0.91
308.504	1.25
308.879	1.51
309.254	1.14
309.629	1.3
310.003	1.22
310.378	1.52
310.753	1.37
311.128	1.05
311.502	0.87
311.877	1.39
312.252	1.14
312.626	1.44
313.001	1.35
313.375	1.37
313.75	1.16
314.124	1.35
314.498	1.16
314.873	1.84
315.247	1.31
315.621	1.11
315.995	1.5
316.369	1.51
316.743	1.75
317.117	1.1
317.491	1.03
317.865	1.05
318.239	1.23
318.613	1.71
318.987	1.33
319.361	1.2
319.734	1.68
320.108	1.29
320.482	0.81
320.855	1.37
321.229	1.45
321.602	1.12
321.976	0.77
322.349	1.47
322.723	1.85
323.096	2.02
323.469	1.24
323.843	1.21
324.216	1.6
324.589	1.45
324.962	1.96
325.335	1.15
325.708	0.65
326.081	1.21
326.454	1.2
326.827	1.3
327.2	1.35
327.573	1.12
327.945	1.67
328.318	0.82
328.691	1.62
329.063	1.11
329.436	1.39
329.809	1.42
330.181	1.72
330.553	0.7
330.926	0.91
331.298	1.51
331.671	1.04
332.043	1.79
332.415	1.48
332.787	1.42
333.159	1.27
333.532	0.93
333.904	1.77
334.276	1.58
334.648	1.47
335.02	1.06
335.391	1.53
335.763	1.19
336.135	1.34
336.507	1.84
336.879	1.55
337.25	1.68
337.622	1.26
337.993	1.51
338.365	0.93
338.736	1.61
339.108	1.97
339.479	1.29
339.851	1.16
340.222	1.04
340.593	1.71
340.964	1.22
341.336	1.5
341.707	1.18
342.078	1.35
342.449	1.5
342.82	1.69
343.191	1.18
343.562	1.45
343.933	1.65
344.303	1.61
344.674	1.69
345.045	1.22
345.416	1.29
345.786	1.59
346.157	1.64
346.527	1.59
346.898	1.54
347.268	1.01
347.639	1.27
348.009	1.6
348.38	1.39
348.75	1.37
349.12	1.17
349.49	1.64
349.861	1.05
350.231	1.73
350.601	1.21
350.971	1.23
351.341	1.71
351.711	1.38
352.081	1.48
352.45	1.55
352.82	1.41
353.19	1.4
353.56	1.34
353.929	1.25
354.299	1.96
354.669	1.7
355.038	1.33
355.408	1.28
355.777	1.07
356.147	1.05
356.516	1.31
356.885	1.27
357.254	1.46
357.624	1.77
357.993	1.65
358.362	1.25
358.731	1.95
359.1	1.54
359.469	1.38
359.838	1.52
360.207	1.19
360.576	1.8
360.945	1.84
361.314	1.65
361.682	1.53
362.051	1.58
362.42	1.62
362.788	1.36
363.157	1.55
363.525	1.54
363.894	1.39
364.262	1.57
364.631	1.46
364.999	1.47
365.367	1.5
365.735	1.75
366.104	1.44
366.472	1.49
366.84	0.91
367.208	1.66
367.576	1.21
367.944	1.66
368.312	1.23
368.68	1.23
369.048	1.73
369.416	1.38
369.783	1.52
370.151	1.45
370.519	2.05
370.886	1.37
371.254	1.32
371.621	1.55
371.989	1.11
372.356	1.48
372.724	1.51
373.091	1.47
373.458	1.57
373.826	1.76
374.193	1.53
374.56	1.44
374.927	1.69
375.294	1.39
375.661	1.74
376.028	1.65
376.395	1.47
376.762	2.02
377.129	1.8
377.496	1.65
377.863	1.61
378.229	1.38
378.596	1.54
378.963	1.62
379.329	1.64
379.696	1.58
380.062	1.81
380.429	1.6
380.795	1.46
381.161	1.46
381.528	1.85
381.894	1.48
382.26	1.71
382.626	1.56
382.993	1.63
383.359	1.48
383.725	1.49
384.091	1.68
384.457	1.66
384.823	1.59
385.188	1.57
385.554	1.67
385.92	1.38
386.286	1.5
386.651	1.47
387.017	1.69
387.383	1.5
387.748	1.44
388.114	1.48
388.479	2.26
388.845	1.63
389.21	1.98
389.575	2
389.94	1.77
390.306	1.54
390.671	1.73
391.036	1.48
391.401	1.79
391.766	1.52
392.131	1.34
392.496	1.6
392.861	1.73
393.226	1.56
393.591	1.68
393.956	1.66
394.32	1.49
394.685	1.64
395.05	1.72
395.414	1.75
395.779	1.59
396.143	1.51
396.508	1.75
396.872	1.54
397.236	1.82
397.601	1.67
397.965	1.54
398.329	1.64
398.694	1.78
399.058	1.6
399.422	1.44
399.786	1.61
400.15	1.64
400.514	1.76
400.878	1.6
401.242	1.8
401.605	1.34
401.969	1.93
402.333	1.78
402.697	1.74
403.06	1.8
403.424	1.7
403.787	1.86
404.151	1.68
404.514	1.85
404.878	1.69
405.241	1.76
405.604	1.87
405.968	1.73
406.331	1.7
406.694	1.37
407.057	1.71
407.42	1.75
407.783	1.68
408.146	1.63
408.509	1.57
408.872	1.64
409.235	1.79
409.598	1.64
409.961	1.74
410.323	1.69
410.686	1.66
411.049	1.53
411.411	1.44
411.774	1.84
412.136	1.78
412.499	1.88
412.861	1.73
413.223	1.68
413.586	1.47
413.948	1.88
414.31	1.47
414.672	1.65
415.035	1.83
415.397	1.73
415.759	1.54
416.121	1.68
416.483	1.61
416.845	1.87
417.206	1.61
417.568	1.78
417.93	1.72
418.292	1.77
418.653	1.67
419.015	1.45
419.377	1.6
419.738	1.78
420.1	1.78
420.461	1.75
420.822	1.65
421.184	1.7
421.545	1.64
421.906	1.71
422.267	1.62
422.629	1.71
422.99	1.61
423.351	1.59
423.712	1.64
424.073	1.68
424.434	1.63
424.795	1.72
425.155	1.79
425.516	1.71
425.877	1.68
426.238	1.67
426.598	1.75
426.959	1.63
427.32	1.66
427.68	1.69
428.041	1.73
428.401	1.76
428.761	1.74
429.122	1.54
429.482	1.74
429.842	1.54
430.202	1.88
430.563	1.73
430.923	1.88
431.283	1.71
431.643	1.81
432.003	2.08
432.363	1.81
432.722	1.87
433.082	1.95
433.442	1.86
433.802	1.64
434.161	1.7
434.521	1.78
434.881	1.77
435.24	1.72
435.6	1.89
435.959	1.67
436.319	1.78
436.678	1.86
437.037	1.77
437.396	1.87
437.756	1.81
438.115	1.73
438.474	1.77
438.833	1.85
439.192	1.8
439.551	1.91
439.91	1.86
440.269	1.85
440.628	1.9
440.987	1.77
441.345	1.73
441.704	1.76
442.063	1.72
442.421	1.78
442.78	1.84
443.138	1.78
443.497	1.89
443.855	1.75
444.214	1.86
444.572	1.8
444.93	1.86
445.288	1.92
445.647	1.79
446.005	1.79
446.363	1.84
446.721	1.72
447.079	1.87
447.437	1.76
447.795	1.86
448.153	1.72
448.51	1.85
448.868	1.76
449.226	1.78
449.584	1.81
449.941	1.78
450.299	1.79
450.656	1.93
451.014	1.98
451.371	1.95
451.729	1.98
452.086	1.85
452.443	1.97
452.801	1.91
453.158	1.93
453.515	1.94
453.872	1.75
454.229	1.9
454.586	1.88
454.943	1.89
455.3	1.85
455.657	1.83
456.014	1.78
456.371	1.85
456.727	1.9
457.084	1.76
457.441	1.84
457.797	1.86
458.154	1.84
458.51	2.02
458.867	1.82
459.223	1.95
459.58	2.14
459.936	1.81
460.292	1.74
460.648	1.9
461.005	1.78
461.361	1.92
461.717	1.87
462.073	1.91
462.429	1.99
462.785	1.87
463.141	1.99
463.496	1.82
463.852	2.05
464.208	1.98
464.564	1.84
464.919	2.1
465.275	1.9
465.631	1.97
465.986	1.96
466.342	2
466.697	2.03
467.052	1.95
467.408	1.87
467.763	1.87
468.118	2.13
468.473	1.97
468.829	1.81
469.184	1.98
469.539	2.02
469.894	2
470.249	1.9
470.603	1.93
470.958	1.93
471.313	2
471.668	1.92
472.023	1.86
472.377	2.04
472.732	1.96
473.086	2.04
473.441	1.93
473.795	1.83
474.15	2.01
474.504	2.04
474.859	1.9
475.213	1.92
475.567	1.9
475.921	1.83
476.275	2.03
476.63	1.87
476.984	1.97
477.338	1.85
477.692	2.05
478.045	2.06
478.399	1.93
478.753	1.99
479.107	1.98
479.461	2.11
479.814	2.11
480.168	2.12
480.521	1.98
480.875	2.06
481.228	2
481.582	1.99
481.935	2.03
482.289	1.88
482.642	2.09
482.995	2.03
483.348	2.02
483.701	1.98
484.055	1.93
484.408	1.99
484.761	2.03
485.114	1.91
485.466	1.87
485.819	1.86
486.172	1.86
486.525	1.88
486.878	1.95
487.23	2.01
487.583	1.94
487.936	2.03
488.288	1.97
488.641	1.94
488.993	1.97
489.345	1.9
489.698	1.92
490.05	1.94
490.402	1.96
490.754	1.99
491.107	2.01
491.459	2.06
491.811	2.07
492.163	2.06
492.515	2.1
492.866	2.05
493.218	1.96
493.57	1.99
493.922	2.03
494.274	1.93
494.625	2.06
494.977	2.06
495.328	2.07
495.68	2.02
496.031	2.07
496.383	2.07
496.734	2.05
497.086	2.25
497.437	2.19
497.788	2.2
498.139	2.03
498.49	2.13
498.842	2.12
499.193	2.15
499.544	2.17
499.894	2.06
500.245	2.13
500.596	2.02
500.947	2.08
501.298	2.12
501.648	2.19
501.999	2.23
502.35	2.15
502.7	2.17
503.051	2.13
503.401	2.21
503.752	2.25
504.102	2.27
504.452	2.16
504.803	2.14
505.153	2.22
505.503	2.15
505.853	2.18
506.203	2.21
506.553	2.35
506.903	2.24
507.253	2.26
507.603	2.27
507.953	2.22
508.303	2.28
508.652	2.28
509.002	2.34
509.352	2.32
509.701	2.21
510.051	2.12
510.4	2.24
510.75	2.2
511.099	2.28
511.449	2.18
511.798	2.18
512.147	2.26
512.496	2.2
512.846	2.2
513.195	2.32
513.544	2.26
513.893	2.28
514.242	2.23
514.591	2.25
514.939	2.37
515.288	2.32
515.637	2.35
515.986	2.34
516.334	2.43
516.683	2.37
517.032	2.34
517.38	2.39
517.729	2.29
518.077	2.4
518.426	2.32
518.774	2.31
519.122	2.33
519.47	2.35
519.819	2.25
520.167	2.3
520.515	2.28
520.863	2.29
521.211	2.31
521.559	2.38
521.907	2.37
522.255	2.46
522.602	2.42
522.95	2.34
523.298	2.46
523.645	2.45
523.993	2.42
524.341	2.39
524.688	2.46
525.036	2.44
525.383	2.45
525.73	2.45
526.078	2.43
526.425	2.41
526.772	2.39
527.119	2.38
527.466	2.44
527.814	2.45
528.161	2.45
528.508	2.43
528.854	2.45
529.201	2.39
529.548	2.45
529.895	2.39
530.242	2.32
530.588	2.31
530.935	2.36
531.282	2.42
531.628	2.37
531.975	2.44
532.321	2.52
532.667	2.46
533.014	2.49
533.36	2.56
533.706	2.59
534.052	2.58
534.399	2.56
534.745	2.51
535.091	2.46
535.437	2.49
535.783	2.45
536.129	2.6
536.474	2.62
536.82	2.58
537.166	2.58
537.512	2.64
537.857	2.63
538.203	2.52
538.549	2.51
538.894	2.69
539.239	2.67
539.585	2.61
539.93	2.62
540.276	2.66
540.621	2.66
540.966	2.79
541.311	2.63
541.656	2.7
542.001	2.76
542.346	2.71
542.691	2.68
543.036	2.59
543.381	2.63
543.726	2.67
544.071	2.66
544.415	2.73
544.76	2.71
545.105	2.74
545.449	2.82
545.794	2.77
546.138	2.75
546.483	2.8
546.827	2.85
547.171	2.86
547.516	2.88
547.86	2.79
548.204	2.91
548.548	2.86
548.892	2.87
549.236	2.86
549.58	2.94
549.924	2.86
550.268	3.05
550.612	2.81
550.956	3.02
551.3	2.86
551.643	2.98
551.987	2.97
552.33	3.11
552.674	3.02
553.017	3.18
553.361	3.17
553.704	3.19
554.048	3.09
554.391	3.03
554.734	3.09
555.077	3.08
555.42	3.22
555.764	3.11
556.107	3.13
556.45	3.17
556.793	3.23
557.135	3.22
557.478	3.1
557.821	3.25
558.164	3.23
558.507	3.24
558.849	3.27
559.192	3.3
559.534	3.23
559.877	3.41
560.219	3.47
560.562	3.35
560.904	3.46
561.246	3.3
561.589	3.39
561.931	3.44
562.273	3.48
562.615	3.19
562.957	3.51
563.299	3.33
563.641	3.25
563.983	3.46
564.325	3.39
564.667	3.45
565.008	3.35
565.35	3.53
565.692	3.66
566.033	3.51
566.375	3.59
566.716	3.61
567.058	3.59
567.399	3.47
567.741	3.62
568.082	3.67
568.423	3.43
568.764	3.55
569.105	3.66
569.447	3.59
569.788	3.64
570.129	3.68
570.47	3.65
570.811	3.78
571.151	3.71
571.492	3.77
571.833	3.61
572.174	3.72
572.514	3.73
572.855	3.82
573.195	3.86
573.536	3.72
573.876	3.74
574.217	3.69
574.557	3.72
574.898	3.81
575.238	3.86
575.578	3.96
575.918	3.85
576.258	3.84
576.598	3.85
576.938	3.9
577.278	3.97
577.618	3.92
577.958	3.85
578.298	3.91
578.638	3.99
578.977	4.16
579.317	4.1
579.657	4.03
579.996	4.02
580.336	4.04
580.675	3.93
581.014	4.2
581.354	4.11
581.693	4.37
582.032	4.06
582.372	4.23
582.711	4.21
583.05	4.35
583.389	4.31
583.728	4.27
584.067	4.41
584.406	4.3
584.745	4.61
585.083	4.28
585.422	4.6
585.761	4.43
586.1	4.31
586.438	4.18
586.777	4.3
587.115	4.47
587.454	4.61
587.792	4.51
588.13	4.45
588.469	4.6
588.807	4.64
589.145	4.48
589.483	4.42
589.821	4.58
590.159	4.48
590.497	4.79
590.835	4.48
591.173	4.5
591.511	4.6
591.849	4.72
592.187	4.63
592.524	4.73
592.862	4.81
593.2	4.76
593.537	4.66
593.875	4.75
594.212	4.86
594.55	4.61
594.887	4.87
595.224	4.82
595.561	4.42
595.899	4.91
596.236	5.01
596.573	4.92
596.91	4.89
597.247	4.92
597.584	4.74
597.921	5.1
598.258	4.89
598.594	4.78
598.931	5.1
599.268	5.03
599.604	5.08
599.941	5.06
600.277	5.18
600.614	5.12
600.95	5.18
601.287	5.24
601.623	5.18
601.959	5.39
602.296	5.42
602.632	5.47
602.968	5.36
603.304	5.51
603.64	5.27
603.976	5.06
604.312	5.5
604.648	5.13
604.984	5.39
605.319	5.33
605.655	5.39
605.991	5.66
606.326	5.22
606.662	5.47
606.998	5.39
607.333	5.46
607.668	5.49
608.004	5.58
608.339	5.55
608.674	5.86
609.01	5.77
609.345	5.65
609.68	5.9
610.015	5.76
610.35	5.7
610.685	5.72
611.02	5.92
611.355	5.65
611.689	5.73
612.024	5.71
612.359	5.84
612.694	6.01
613.028	5.96
613.363	6.33
613.697	5.83
614.032	6.08
614.366	5.96
614.7	6.17
615.035	6.18
615.369	6.08
615.703	6.19
616.037	6.22
616.371	6.24
616.705	5.95
617.039	6.47
617.373	6.26
617.707	6.54
618.041	6.07
618.375	6.42
618.709	6.41
619.042	6.61
619.376	6.5
619.71	6.38
620.043	6.64
620.377	6.61
620.71	6.59
621.043	6.43
621.377	6.61
621.71	6.59
622.043	6.71
622.376	6.52
622.709	6.64
623.043	6.74
623.376	6.87
623.709	6.51
624.041	6.95
624.374	6.59
624.707	6.52
625.04	6.93
625.373	6.8
625.705	6.93
626.038	6.56
626.37	6.87
626.703	7
627.035	6.93
627.368	6.83
627.7	6.62
628.032	7.01
628.365	7.08
628.697	6.8
629.029	6.85
629.361	6.98
629.693	7.29
630.025	7.2
630.357	6.99
630.689	7.11
631.021	7.24
631.353	6.87
631.684	7.12
632.016	7.21
632.348	7.2
632.679	7.27
633.011	7.2
633.342	7.42
633.674	7.41
634.005	7.47
634.336	7.81
634.668	7.56
634.999	7.64
635.33	7.13
635.661	7.61
635.992	7.46
636.323	7.57
636.654	7.21
636.985	7.47
637.316	7.56
637.647	7.68
637.977	7.79
638.308	7.93
638.639	7.94
638.969	7.53
639.3	7.88
639.63	7.69
639.961	7.67
640.291	8.16
640.622	7.92
640.952	7.99
641.282	7.92
641.612	8.27
641.943	7.68
642.273	8.13
642.603	8.05
642.933	7.85
643.263	7.54
643.592	7.79
643.922	8.44
644.252	8.47
644.582	8.29
644.911	8.24
645.241	7.93
645.571	7.85
645.9	8.29
646.23	8.22
646.559	8.72
646.888	8.1
647.218	8.59
647.547	8.52
647.876	8.51
648.205	8.07
648.534	8.76
648.863	8.78
649.192	8.55
649.521	8.67
649.85	8.58
650.179	8.45
650.508	8.89
650.837	8.94
651.165	9.03
651.494	8.9
651.822	8.55
652.151	8.86
652.479	8.6
652.808	8.29
653.136	9.03
653.465	8.68
653.793	9.14
654.121	8.51
654.449	8.96
654.777	8.74
655.105	9.01
655.433	8.57
655.761	8.88
656.089	8.65
656.417	8.92
656.745	8.59
657.073	8.94
657.4	9.05
657.728	9.2
658.056	9.05
658.383	9.03
658.711	8.96
659.038	9.08
659.365	9.8
659.693	9.59
660.02	9.14
660.347	9.03
660.674	9.21
661.001	9.47
661.329	9.25
661.656	9.37
661.982	9.21
662.309	9.28
662.636	9.56
662.963	9.34
663.29	9.03
663.616	9.84
663.943	9.71
664.27	9.62
664.596	9.18
664.923	9.68
665.249	9.75
665.576	9.76
665.902	8.8
666.228	9.26
666.554	10.55
666.881	9.52
667.207	9.9
667.533	10.19
667.859	9.63
668.185	9.49
668.511	10.46
668.837	9.64
669.162	10.16
669.488	9.74
669.814	9.78
670.139	9.59
670.465	9.96
670.791	10.14
671.116	10
671.442	10.11
671.767	10.22
672.092	10
672.418	10.26
672.743	10.7
673.068	10.2
673.393	10.4
673.718	10.36
674.043	9.83
674.368	9.54
674.693	9.97
675.018	10.26
675.343	10.38
675.667	10.73
675.992	10.91
676.317	10.58
676.641	10.6
676.966	10.51
677.29	10.43
677.615	10.92
677.939	10.53
678.264	10.79
678.588	11.48
678.912	11.64
679.236	10.87
679.56	11.25
679.885	10.67
680.209	10.78
680.532	10.59
680.856	11.35
681.18	11.14
681.504	11.03
681.828	10.67
682.152	11.25
682.475	11.02
682.799	11.36
683.122	11.36
683.446	11.09
683.769	11.03
684.093	11.13
684.416	10.53
684.739	11.55
685.062	11.98
685.386	11.13
685.709	11.68
686.032	11.23
686.355	12.49
686.678	11.34
687.001	11.24
687.324	11.71
687.646	11.62
687.969	11.79
688.292	11.36
688.614	11.9
688.937	11.82
689.26	11.91
689.582	11.6
689.904	12.2
690.227	11.23
