Data from 0046_crown_Reflection__3__174.txt Node

Date: Fri Nov 04 16:15:12 CDT 2022
User: ToomeyLab
Spectrometer: FLMS14357
Trigger mode: 0
Integration Time (sec): 1.000000E-2
Scans to average: 100
Electric dark correction enabled: true
Nonlinearity correction enabled: false
Boxcar width: 0
XAxis mode: Wavelengths
Number of Pixels in Spectrum: 2048
>>>>>Begin Spectral Data<<<<<
189.047	-148.53
189.435	-148.53
189.823	-148.53
190.211	301.12
190.599	154.58
190.987	-191.25
191.375	132.94
191.763	-48.35
192.151	100.66
192.538	9.6
192.926	153.5
193.314	-27.14
193.702	107.06
194.089	-104.64
194.477	-27.06
194.864	27.48
195.252	90.96
195.639	98.9
196.027	-87.97
196.414	-896.22
196.801	43.65
197.189	115.45
197.576	64.7
197.963	-172.68
198.351	11.37
198.738	23.87
199.125	-11.06
199.512	-50.59
199.899	-7.41
200.286	-6.82
200.673	-18.41
201.06	-26.84
201.447	-42.26
201.833	-16.33
202.22	-33.89
202.607	3.11
202.994	45.04
203.38	9.53
203.767	-7.85
204.154	15.11
204.54	-42.21
204.927	-21.84
205.313	20.39
205.699	31.53
206.086	18.73
206.472	-13.65
206.858	-10.12
207.245	2.43
207.631	-4.55
208.017	-3.55
208.403	-17.61
208.789	36.4
209.175	-5.24
209.561	-111.44
209.947	-97.11
210.333	13.16
210.719	18.44
211.105	5.24
211.491	-2.85
211.876	5.97
212.262	-30.43
212.648	-24.77
213.034	14.92
213.419	1.79
213.805	-52.63
214.19	-28.11
214.576	-22.03
214.961	-17.1
215.346	-11.75
215.732	2.45
216.117	7.09
216.502	18.25
216.888	-28.55
217.273	9.27
217.658	-13
218.043	-10.21
218.428	9.14
218.813	-20.42
219.198	2.63
219.583	-13.46
219.968	-5.91
220.353	-19.2
220.738	-12
221.122	-2.86
221.507	4.35
221.892	-4.82
222.276	5.06
222.661	7.26
223.046	-18.1
223.43	-10.33
223.815	-11.77
224.199	6.53
224.583	-3.46
224.968	-7.17
225.352	1.33
225.736	-12.47
226.121	-13.27
226.505	5.91
226.889	1.37
227.273	-2.63
227.657	-1.4
228.041	4.53
228.425	-1.35
228.809	2.08
229.193	5.2
229.577	1.62
229.961	2.29
230.344	3.38
230.728	2.93
231.112	2.91
231.495	2.38
231.879	2.51
232.263	2.91
232.646	2.3
233.03	1.57
233.413	2.73
233.797	1.94
234.18	2.05
234.563	1.9
234.946	2.8
235.33	5.03
235.713	2.86
236.096	2.2
236.479	1.21
236.862	1.33
237.245	2.35
237.628	3.03
238.011	1.03
238.394	3.95
238.777	3.33
239.16	2.03
239.543	2.71
239.925	3.22
240.308	3.72
240.691	3.51
241.073	3.36
241.456	3.07
241.838	2.22
242.221	3.43
242.603	2.28
242.986	2.44
243.368	2.78
243.75	2.79
244.133	2.78
244.515	2.63
244.897	2.75
245.279	2.58
245.661	2.77
246.043	2.23
246.425	2.2
246.807	3.15
247.189	2.52
247.571	2.89
247.953	2.83
248.335	2.57
248.717	2.7
249.098	2.52
249.48	2.57
249.862	2.89
250.243	2.93
250.625	2.09
251.006	2.63
251.388	3.03
251.769	3.37
252.151	2.81
252.532	2.44
252.913	2.8
253.295	2.65
253.676	2.2
254.057	2.04
254.438	2.6
254.819	2.61
255.2	2.36
255.581	3.3
255.962	2.49
256.343	1.59
256.724	2.48
257.105	2.47
257.486	3.3
257.867	3.45
258.247	2.2
258.628	2.49
259.009	1.98
259.389	2.18
259.77	2.68
260.15	2.96
260.531	3.02
260.911	2.31
261.292	2.23
261.672	2.51
262.052	2.7
262.432	2.64
262.813	2.34
263.193	1.72
263.573	2.74
263.953	2.13
264.333	2.52
264.713	2.37
265.093	2.27
265.473	3.24
265.853	1.12
266.233	2.86
266.612	2.55
266.992	3.29
267.372	1.26
267.752	2.46
268.131	2.54
268.511	2.38
268.89	2.77
269.27	2.45
269.649	2.54
270.029	2.27
270.408	2.75
270.787	2.01
271.167	2.85
271.546	3.35
271.925	2.44
272.304	2.14
272.683	2.31
273.062	2.21
273.441	2.42
273.82	2.22
274.199	2.21
274.578	2.01
274.957	2.46
275.336	2.14
275.715	2.26
276.093	3.02
276.472	2.38
276.851	1.92
277.229	2.16
277.608	1.91
277.986	2.73
278.365	2.79
278.743	2.7
279.122	2.3
279.5	2.4
279.878	2.27
280.257	1.99
280.635	1.96
281.013	2.02
281.391	2.29
281.769	2.39
282.147	2.22
282.525	2.11
282.903	2.72
283.281	2.73
283.659	2.4
284.037	2.24
284.415	2.25
284.792	2.24
285.17	1.94
285.548	2.45
285.925	2.29
286.303	2.69
286.68	2.51
287.058	2.61
287.435	2.51
287.813	2.15
288.19	2.57
288.567	2.11
288.945	2.35
289.322	2.56
289.699	2.58
290.076	2.91
290.453	1.85
290.83	2.18
291.207	2.14
291.584	2.45
291.961	2.64
292.338	2.5
292.715	2.32
293.092	2.33
293.469	2.66
293.845	1.96
294.222	2.36
294.599	2.12
294.975	2.55
295.352	2.28
295.728	2.32
296.105	2.25
296.481	1.93
296.858	2.19
297.234	2.46
297.61	2.75
297.986	2.1
298.363	2.18
298.739	2.04
299.115	2.51
299.491	2.39
299.867	2.42
300.243	2.18
300.619	2.22
300.995	2.45
301.371	2.45
301.746	2.15
302.122	2.45
302.498	2.32
302.874	2.35
303.249	1.86
303.625	2.07
304	2.38
304.376	2.34
304.751	2.33
305.127	1.84
305.502	2.46
305.878	2.75
306.253	2.3
306.628	1.86
307.003	2.09
307.378	2.66
307.754	1.92
308.129	1.61
308.504	2.21
308.879	2.04
309.254	2.76
309.629	2.07
310.003	2.09
310.378	2.68
310.753	2.8
311.128	2.18
311.502	2.2
311.877	2.29
312.252	2.21
312.626	2.22
313.001	2.42
313.375	2.46
313.75	2.1
314.124	2.09
314.498	2.36
314.873	2.35
315.247	2.44
315.621	2.55
315.995	2.48
316.369	2.37
316.743	2.84
317.117	2.61
317.491	2.44
317.865	1.72
318.239	2.19
318.613	2.73
318.987	2.3
319.361	2.39
319.734	2.15
320.108	2.16
320.482	1.7
320.855	2.53
321.229	2.38
321.602	1.96
321.976	2.22
322.349	3.21
322.723	2.48
323.096	2.5
323.469	2.01
323.843	2.37
324.216	2.84
324.589	2.11
324.962	2.81
325.335	2.41
325.708	2.08
326.081	2.58
326.454	2.24
326.827	2.32
327.2	2.39
327.573	1.98
327.945	2.37
328.318	2.04
328.691	2.46
329.063	2.68
329.436	2.43
329.809	2.15
330.181	2.18
330.553	2.6
330.926	2.48
331.298	2.56
331.671	2.56
332.043	2.49
332.415	2.55
332.787	2.1
333.159	2.3
333.532	2.07
333.904	2.58
334.276	2.35
334.648	2.75
335.02	2.16
335.391	2.84
335.763	2.52
336.135	2.49
336.507	2.08
336.879	2.2
337.25	2.19
337.622	2.59
337.993	2.74
338.365	2.39
338.736	2.91
339.108	3.2
339.479	2.55
339.851	2.2
340.222	2.28
340.593	2.6
340.964	2.5
341.336	2.31
341.707	1.95
342.078	2.31
342.449	2.42
342.82	2.77
343.191	2.04
343.562	2.24
343.933	2.21
344.303	2.55
344.674	2.8
345.045	2.03
345.416	2.39
345.786	2.48
346.157	2.14
346.527	2.34
346.898	2.63
347.268	2.24
347.639	2.22
348.009	2.61
348.38	2.53
348.75	2.25
349.12	2.49
349.49	2.51
349.861	2.3
350.231	2.24
350.601	2.28
350.971	2.26
351.341	2.69
351.711	2.23
352.081	2.41
352.45	2.65
352.82	2.49
353.19	2.33
353.56	2.2
353.929	2.49
354.299	2.85
354.669	2.57
355.038	2.69
355.408	2.39
355.777	2.27
356.147	2.13
356.516	2.53
356.885	2.49
357.254	2.6
357.624	2.51
357.993	2.34
358.362	2.34
358.731	2.68
359.1	2.55
359.469	2.67
359.838	2.69
360.207	2.42
360.576	2.47
360.945	2.58
361.314	2.53
361.682	2.52
362.051	2.43
362.42	2.66
362.788	2.52
363.157	2.4
363.525	2.5
363.894	2.37
364.262	2.52
364.631	2.63
364.999	2.39
365.367	2.42
365.735	2.67
366.104	2.48
366.472	2.47
366.84	2.3
367.208	2.46
367.576	2.47
367.944	2.8
368.312	2.65
368.68	2.2
369.048	2.33
369.416	2.49
369.783	2.42
370.151	2.35
370.519	2.78
370.886	2.38
371.254	2.62
371.621	2.66
371.989	2.34
372.356	2.52
372.724	2.39
373.091	2.25
373.458	2.59
373.826	2.56
374.193	2.26
374.56	2.22
374.927	2.82
375.294	2.24
375.661	2.38
376.028	2.39
376.395	2.83
376.762	2.44
377.129	2.79
377.496	2.58
377.863	2.69
378.229	2.54
378.596	2.34
378.963	2.56
379.329	2.22
379.696	2.49
380.062	2.67
380.429	2.61
380.795	2.67
381.161	2.54
381.528	2.49
381.894	2.27
382.26	2.67
382.626	2.36
382.993	2.56
383.359	2.25
383.725	2.4
384.091	2.53
384.457	2.74
384.823	2.66
385.188	2.51
385.554	2.45
385.92	2.32
386.286	2.47
386.651	2.66
387.017	2.7
387.383	2.43
387.748	2.52
388.114	2.47
388.479	3.07
388.845	2.4
389.21	2.77
389.575	2.88
389.94	2.57
390.306	2.6
390.671	2.72
391.036	2.58
391.401	2.75
391.766	2.44
392.131	2.49
392.496	2.59
392.861	2.85
393.226	2.54
393.591	2.57
393.956	2.79
394.32	2.54
394.685	2.7
395.05	2.73
395.414	2.73
395.779	2.69
396.143	2.49
396.508	2.64
396.872	2.64
397.236	2.67
397.601	2.68
397.965	2.63
398.329	2.34
398.694	2.64
399.058	2.74
399.422	2.67
399.786	2.75
400.15	2.62
400.514	2.62
400.878	2.62
401.242	2.92
401.605	2.45
401.969	2.59
402.333	2.7
402.697	2.58
403.06	2.79
403.424	2.46
403.787	2.66
404.151	2.71
404.514	2.53
404.878	2.76
405.241	2.54
405.604	2.58
405.968	2.55
406.331	2.5
406.694	2.64
407.057	2.67
407.42	2.58
407.783	2.61
408.146	2.73
408.509	2.55
408.872	2.71
409.235	2.74
409.598	2.73
409.961	2.88
410.323	2.55
410.686	2.36
411.049	2.5
411.411	2.36
411.774	2.66
412.136	2.81
412.499	2.63
412.861	2.72
413.223	2.75
413.586	2.64
413.948	2.79
414.31	2.79
414.672	2.68
415.035	2.77
415.397	2.52
415.759	2.88
416.121	2.59
416.483	2.64
416.845	2.73
417.206	2.62
417.568	2.81
417.93	2.63
418.292	2.7
418.653	2.72
419.015	2.5
419.377	2.63
419.738	2.6
420.1	2.74
420.461	2.6
420.822	2.5
421.184	2.68
421.545	2.54
421.906	2.61
422.267	2.58
422.629	2.7
422.99	2.52
423.351	2.53
423.712	2.59
424.073	2.65
424.434	2.63
424.795	2.63
425.155	2.72
425.516	2.58
425.877	2.62
426.238	2.58
426.598	2.62
426.959	2.56
427.32	2.53
427.68	2.66
428.041	2.63
428.401	2.76
428.761	2.65
429.122	2.7
429.482	2.7
429.842	2.54
430.202	2.75
430.563	2.6
430.923	2.81
431.283	2.55
431.643	2.76
432.003	2.82
432.363	2.85
432.722	2.76
433.082	2.79
433.442	2.77
433.802	2.52
434.161	2.61
434.521	2.61
434.881	2.72
435.24	2.66
435.6	2.8
435.959	2.63
436.319	2.68
436.678	2.63
437.037	2.65
437.396	2.75
437.756	2.84
438.115	2.49
438.474	2.61
438.833	2.71
439.192	2.6
439.551	2.64
439.91	2.66
440.269	2.74
440.628	2.73
440.987	2.72
441.345	2.59
441.704	2.6
442.063	2.66
442.421	2.67
442.78	2.66
443.138	2.68
443.497	2.59
443.855	2.64
444.214	2.78
444.572	2.65
444.93	2.54
445.288	2.69
445.647	2.6
446.005	2.72
446.363	2.61
446.721	2.68
447.079	2.62
447.437	2.55
447.795	2.7
448.153	2.6
448.51	2.64
448.868	2.6
449.226	2.63
449.584	2.56
449.941	2.59
450.299	2.71
450.656	2.62
451.014	2.79
451.371	2.81
451.729	2.8
452.086	2.56
452.443	2.63
452.801	2.82
453.158	2.68
453.515	2.8
453.872	2.48
454.229	2.73
454.586	2.61
454.943	2.84
455.3	2.74
455.657	2.57
456.014	2.63
456.371	2.64
456.727	2.82
457.084	2.79
457.441	2.82
457.797	2.66
458.154	2.78
458.51	2.68
458.867	2.62
459.223	2.69
459.58	2.87
459.936	2.62
460.292	2.73
460.648	2.74
461.005	2.49
461.361	2.66
461.717	2.63
462.073	2.69
462.429	2.76
462.785	2.73
463.141	2.71
463.496	2.63
463.852	2.76
464.208	2.81
464.564	2.58
464.919	2.88
465.275	2.83
465.631	2.86
465.986	2.74
466.342	2.71
466.697	2.73
467.052	2.52
467.408	2.59
467.763	2.59
468.118	2.89
468.473	2.75
468.829	2.62
469.184	2.74
469.539	2.59
469.894	2.76
470.249	2.57
470.603	2.77
470.958	2.62
471.313	2.65
471.668	2.67
472.023	2.58
472.377	2.74
472.732	2.58
473.086	2.63
473.441	2.74
473.795	2.55
474.15	2.91
474.504	2.62
474.859	2.66
475.213	2.66
475.567	2.78
475.921	2.72
476.275	2.75
476.63	2.78
476.984	2.65
477.338	2.77
477.692	2.74
478.045	2.78
478.399	2.56
478.753	2.71
479.107	2.67
479.461	2.87
479.814	2.79
480.168	2.63
480.521	2.68
480.875	2.76
481.228	2.72
481.582	2.73
481.935	2.81
482.289	2.7
482.642	2.75
482.995	2.77
483.348	2.69
483.701	2.71
484.055	2.62
484.408	2.7
484.761	2.64
485.114	2.53
485.466	2.55
485.819	2.49
486.172	2.49
486.525	2.53
486.878	2.62
487.23	2.65
487.583	2.58
487.936	2.64
488.288	2.63
488.641	2.59
488.993	2.58
489.345	2.53
489.698	2.49
490.05	2.55
490.402	2.58
490.754	2.61
491.107	2.63
491.459	2.68
491.811	2.65
492.163	2.76
492.515	2.79
492.866	2.64
493.218	2.61
493.57	2.55
493.922	2.6
494.274	2.55
494.625	2.69
494.977	2.72
495.328	2.74
495.68	2.68
496.031	2.78
496.383	2.72
496.734	2.66
497.086	2.83
497.437	2.89
497.788	2.79
498.139	2.67
498.49	2.7
498.842	2.71
499.193	2.72
499.544	2.82
499.894	2.66
500.245	2.79
500.596	2.57
500.947	2.65
501.298	2.73
501.648	2.78
501.999	2.87
502.35	2.73
502.7	2.73
503.051	2.69
503.401	2.77
503.752	2.75
504.102	2.78
504.452	2.8
504.803	2.85
505.153	2.81
505.503	2.77
505.853	2.83
506.203	2.75
506.553	2.79
506.903	2.76
507.253	2.67
507.603	2.68
507.953	2.68
508.303	2.75
508.652	2.7
509.002	2.84
509.352	2.85
509.701	2.63
510.051	2.67
510.4	2.71
510.75	2.72
511.099	2.78
511.449	2.74
511.798	2.75
512.147	2.7
512.496	2.7
512.846	2.68
513.195	2.71
513.544	2.73
513.893	2.7
514.242	2.7
514.591	2.6
514.939	2.81
515.288	2.83
515.637	2.76
515.986	2.75
516.334	2.81
516.683	2.7
517.032	2.74
517.38	2.85
517.729	2.69
518.077	2.73
518.426	2.81
518.774	2.8
519.122	2.71
519.47	2.69
519.819	2.7
520.167	2.72
520.515	2.67
520.863	2.69
521.211	2.62
521.559	2.69
521.907	2.65
522.255	2.77
522.602	2.73
522.95	2.69
523.298	2.86
523.645	2.73
523.993	2.77
524.341	2.77
524.688	2.76
525.036	2.75
525.383	2.79
525.73	2.77
526.078	2.84
526.425	2.83
526.772	2.8
527.119	2.75
527.466	2.7
527.814	2.64
528.161	2.63
528.508	2.72
528.854	2.69
529.201	2.64
529.548	2.66
529.895	2.61
530.242	2.59
530.588	2.54
530.935	2.57
531.282	2.65
531.628	2.6
531.975	2.73
532.321	2.73
532.667	2.73
533.014	2.75
533.36	2.75
533.706	2.8
534.052	2.72
534.399	2.71
534.745	2.69
535.091	2.63
535.437	2.59
535.783	2.57
536.129	2.68
536.474	2.73
536.82	2.72
537.166	2.75
537.512	2.83
537.857	2.69
538.203	2.67
538.549	2.61
538.894	2.75
539.239	2.85
539.585	2.7
539.93	2.7
540.276	2.67
540.621	2.81
540.966	2.78
541.311	2.68
541.656	2.74
542.001	2.7
542.346	2.66
542.691	2.63
543.036	2.59
543.381	2.59
543.726	2.6
544.071	2.67
544.415	2.66
544.76	2.63
545.105	2.71
545.449	2.76
545.794	2.69
546.138	2.66
546.483	2.75
546.827	2.79
547.171	2.6
547.516	2.76
547.86	2.8
548.204	2.69
548.548	2.67
548.892	2.63
549.236	2.74
549.58	2.63
549.924	2.79
550.268	2.75
550.612	2.73
550.956	2.78
551.3	2.69
551.643	2.9
551.987	2.76
552.33	2.69
552.674	2.6
553.017	2.82
553.361	2.99
553.704	2.72
554.048	2.53
554.391	2.71
554.734	2.81
555.077	2.79
555.42	2.77
555.764	2.89
556.107	2.83
556.45	2.76
556.793	2.76
557.135	2.94
557.478	2.66
557.821	2.82
558.164	2.79
558.507	2.78
558.849	2.88
559.192	2.91
559.534	2.69
559.877	2.8
560.219	2.9
560.562	2.83
560.904	3.07
561.246	2.74
561.589	2.8
561.931	2.77
562.273	2.73
562.615	2.73
562.957	2.81
563.299	2.87
563.641	2.77
563.983	2.74
564.325	2.78
564.667	2.72
565.008	2.64
565.35	2.8
565.692	2.82
566.033	3.03
566.375	2.78
566.716	2.87
567.058	2.82
567.399	2.8
567.741	2.94
568.082	2.7
568.423	2.81
568.764	2.8
569.105	2.84
569.447	2.78
569.788	2.72
570.129	2.92
570.47	2.98
570.811	2.88
571.151	2.74
571.492	3.06
571.833	2.66
572.174	2.92
572.514	2.76
572.855	2.64
573.195	2.74
573.536	2.69
573.876	2.7
574.217	2.69
574.557	2.73
574.898	2.94
575.238	2.8
575.578	3
575.918	2.83
576.258	3.05
576.598	2.85
576.938	2.91
577.278	2.7
577.618	2.71
577.958	2.71
578.298	2.82
578.638	2.88
578.977	2.93
579.317	3.01
579.657	2.87
579.996	2.84
580.336	2.68
580.675	2.65
581.014	3.04
581.354	2.84
581.693	2.92
582.032	2.74
582.372	3.06
582.711	2.76
583.05	2.86
583.389	2.86
583.728	2.93
584.067	3.05
584.406	2.86
584.745	2.88
585.083	2.84
585.422	2.88
585.761	2.96
586.1	2.67
586.438	2.68
586.777	2.87
587.115	2.72
587.454	3.06
587.792	3.04
588.13	2.86
588.469	2.75
588.807	3.04
589.145	2.85
589.483	2.63
589.821	2.72
590.159	2.71
590.497	2.93
590.835	2.82
591.173	2.7
591.511	2.89
591.849	2.98
592.187	2.74
592.524	2.8
592.862	2.96
593.2	2.85
593.537	2.72
593.875	2.83
594.212	2.89
594.55	2.58
594.887	2.99
595.224	3.05
595.561	2.74
595.899	2.91
596.236	3.08
596.573	2.75
596.91	2.8
597.247	2.92
597.584	2.65
597.921	2.87
598.258	2.84
598.594	2.55
598.931	2.79
599.268	2.9
599.604	2.86
599.941	2.86
600.277	2.93
600.614	2.99
600.95	3.06
601.287	2.88
601.623	2.92
601.959	2.85
602.296	2.75
602.632	2.88
602.968	2.85
603.304	2.62
603.64	3.03
603.976	2.65
604.312	2.82
604.648	2.85
604.984	2.78
605.319	2.75
605.655	2.66
605.991	2.91
606.326	2.86
606.662	2.72
606.998	2.71
607.333	2.79
607.668	2.91
608.004	2.93
608.339	2.9
608.674	3
609.01	3.01
609.345	2.99
609.68	2.81
610.015	3.02
610.35	2.74
610.685	3.03
611.02	2.82
611.355	2.92
611.689	2.87
612.024	2.78
612.359	2.93
612.694	2.78
613.028	2.95
613.363	2.98
613.697	3.06
614.032	2.9
614.366	2.76
614.7	2.71
615.035	2.9
615.369	2.86
615.703	2.97
616.037	2.86
616.371	2.86
616.705	2.67
617.039	3.19
617.373	3.26
617.707	3.05
618.041	2.63
618.375	3.21
618.709	2.97
619.042	2.85
619.376	2.97
619.71	3.1
620.043	3.25
620.377	3.24
620.71	3.2
621.043	2.69
621.377	2.89
621.71	3
622.043	2.98
622.376	2.82
622.709	3.19
623.043	3.17
623.376	3.14
623.709	2.72
624.041	2.98
624.374	2.73
624.707	2.66
625.04	3.19
625.373	3.09
625.705	2.75
626.038	2.8
626.37	3.15
626.703	3.06
627.035	2.98
627.368	2.8
627.7	2.93
628.032	2.96
628.365	3.03
628.697	2.83
629.029	2.97
629.361	2.92
629.693	2.8
630.025	3.08
630.357	2.78
630.689	3.03
631.021	2.82
631.353	3.09
631.684	2.86
632.016	3.04
632.348	2.85
632.679	2.8
633.011	2.97
633.342	3.02
633.674	2.94
634.005	2.92
634.336	2.95
634.668	3.13
634.999	3.21
635.33	2.64
635.661	3.2
635.992	2.99
636.323	3.09
636.654	2.7
636.985	2.98
637.316	2.95
637.647	2.99
637.977	3.39
638.308	3.18
638.639	3
638.969	2.81
639.3	3.26
639.63	2.95
639.961	3.31
640.291	3.14
640.622	3.23
640.952	3.03
641.282	3.11
641.612	3.24
641.943	2.99
642.273	2.74
642.603	3.39
642.933	2.86
643.263	2.58
643.592	2.9
643.922	3.42
644.252	3.29
644.582	2.99
644.911	3.26
645.241	3.17
645.571	2.85
645.9	2.72
646.23	2.85
646.559	3.66
646.888	3.09
647.218	3.37
647.547	2.75
647.876	3.15
648.205	2.67
648.534	3.3
648.863	3.29
649.192	2.95
649.521	3.02
649.85	3.63
650.179	2.92
650.508	3.37
650.837	3.45
651.165	2.91
651.494	3.25
651.822	3.37
652.151	2.84
652.479	2.66
652.808	2.82
653.136	3.27
653.465	3.28
653.793	2.98
654.121	3.09
654.449	2.73
654.777	2.83
655.105	3.2
655.433	2.82
655.761	3.04
656.089	2.94
656.417	2.49
656.745	2.68
657.073	2.99
657.4	2.91
657.728	3.01
658.056	2.24
658.383	3.38
658.711	3.22
659.038	3.05
659.365	3.37
659.693	3.24
660.02	3.39
660.347	2.97
660.674	3.05
661.001	3.02
661.329	3.14
661.656	3.19
661.982	2.82
662.309	2.97
662.636	3.1
662.963	2.77
663.29	3.06
663.616	3.19
663.943	3.2
664.27	3.26
664.596	3.01
664.923	3.13
665.249	3.25
665.576	3.28
665.902	2.61
666.228	2.74
666.554	3.82
666.881	3.05
667.207	3.22
667.533	3.02
667.859	3.08
668.185	3.05
668.511	3.01
668.837	2.66
669.162	3.52
669.488	2.94
669.814	3.21
670.139	3.39
670.465	3.08
670.791	3.06
671.116	3.07
671.442	3.36
671.767	3.38
672.092	3.17
672.418	2.98
672.743	3.48
673.068	3.14
673.393	3.61
673.718	3.2
674.043	3.44
674.368	2.87
674.693	2.98
675.018	3.16
675.343	3.32
675.667	3.75
675.992	3.02
676.317	3.8
676.641	2.98
676.966	3.29
677.29	2.99
677.615	3.53
677.939	2.95
678.264	3.3
678.588	3.32
678.912	3.79
679.236	3.63
679.56	3.38
679.885	3.19
680.209	3.27
680.532	3.18
680.856	2.6
681.18	3.03
681.504	3.18
681.828	3.26
682.152	3.85
682.475	2.91
682.799	3.5
683.122	3.31
683.446	2.77
683.769	3.01
684.093	3.5
684.416	2.79
684.739	2.83
685.062	3.28
685.386	3.03
685.709	3.45
686.032	3.55
686.355	4.2
686.678	3.43
687.001	3.65
687.324	3.43
687.646	3.67
687.969	3.53
688.292	3.35
688.614	4.6
688.937	3.49
689.26	3.25
689.582	3.87
689.904	3.17
690.227	3.09
690.549	3.58
690.871	3.65
691.194	3.45
691.516	3.58
691.838	3.45
692.16	3.74
