Data from 0046_crown_Reflection__1__172.txt Node

Date: Fri Nov 04 16:14:43 CDT 2022
User: ToomeyLab
Spectrometer: FLMS14357
Trigger mode: 0
Integration Time (sec): 1.000000E-2
Scans to average: 100
Electric dark correction enabled: true
Nonlinearity correction enabled: false
Boxcar width: 0
XAxis mode: Wavelengths
Number of Pixels in Spectrum: 2048
>>>>>Begin Spectral Data<<<<<
189.047	-99.79
189.435	-99.79
189.823	-99.79
190.211	-166.09
190.599	19.29
190.987	-421.39
191.375	-17.36
191.763	32.23
192.151	-30.46
192.538	53.19
192.926	105.78
193.314	105.16
193.702	25.1
194.089	138.69
194.477	74.39
194.864	60.94
195.252	56.8
195.639	119.23
196.027	163.26
196.414	-166.49
196.801	23.34
197.189	-576.02
197.576	31
197.963	150.63
198.351	-17.23
198.738	29.12
199.125	2.59
199.512	-6.22
199.899	-4.37
200.286	-13.98
200.673	-19.96
201.06	-1.99
201.447	-3.72
201.833	18.38
202.22	0.09
202.607	17.48
202.994	55.5
203.38	50.82
203.767	-1.52
204.154	54.47
204.54	18.37
204.927	3.88
205.313	34.44
205.699	44.19
206.086	-0.8
206.472	30.08
206.858	5.17
207.245	8.83
207.631	8.04
208.017	28.2
208.403	12.68
208.789	36.79
209.175	28.44
209.561	-113.46
209.947	-36.9
210.333	23.83
210.719	5.26
211.105	-18.02
211.491	-0.6
211.876	4.88
212.262	-14.63
212.648	-44.05
213.034	0.11
213.419	-11.86
213.805	-31.06
214.19	-41.49
214.576	-8.57
214.961	31
215.346	-6.59
215.732	17.39
216.117	19.93
216.502	27.29
216.888	2.06
217.273	12.76
217.658	-1.12
218.043	14.71
218.428	18.08
218.813	-0.3
219.198	7.16
219.583	-24.82
219.968	-2.68
220.353	-19.27
220.738	-33.68
221.122	-13.41
221.507	24.64
221.892	-6.73
222.276	-5.06
222.661	6.02
223.046	-2.45
223.43	2.14
223.815	-2.7
224.199	7.24
224.583	2.49
224.968	-3.01
225.352	2.12
225.736	-4.94
226.121	-7.98
226.505	0.84
226.889	6.98
227.273	4.53
227.657	3.65
228.041	5.68
228.425	4.42
228.809	6.96
229.193	2.14
229.577	3.34
229.961	5.47
230.344	4.49
230.728	4.4
231.112	4.04
231.495	3.4
231.879	4.55
232.263	4.02
232.646	3.04
233.03	2.08
233.413	1.24
233.797	3.44
234.18	3.48
234.563	3.59
234.946	2.8
235.33	5.07
235.713	3.24
236.096	3.48
236.479	1.59
236.862	2.7
237.245	3.67
237.628	2.25
238.011	3.25
238.394	4.41
238.777	3.53
239.16	1.71
239.543	4.16
239.925	3.06
240.308	5.02
240.691	4.02
241.073	3.14
241.456	3.84
241.838	3.44
242.221	4.13
242.603	2.5
242.986	2.86
243.368	4.24
243.75	3.69
244.133	3.64
244.515	3.63
244.897	3.51
245.279	3.58
245.661	3.79
246.043	4.27
246.425	3.28
246.807	4.48
247.189	3.02
247.571	4.37
247.953	3.6
248.335	3.41
248.717	3.71
249.098	3.49
249.48	3.57
249.862	3.69
250.243	3.55
250.625	3.3
251.006	3.46
251.388	3.28
251.769	3.71
252.151	4.59
252.532	3.39
252.913	3.16
253.295	3.07
253.676	2.88
254.057	3.26
254.438	3.63
254.819	3.56
255.2	2.71
255.581	4.19
255.962	3.47
256.343	2.88
256.724	2.95
257.105	3.44
257.486	3.76
257.867	4.55
258.247	2.84
258.628	3.24
259.009	3.19
259.389	2.96
259.77	3.56
260.15	3.51
260.531	3.22
260.911	3.29
261.292	3.34
261.672	3.29
262.052	3.32
262.432	3.47
262.813	3.29
263.193	2.95
263.573	2.94
263.953	3.16
264.333	3.48
264.713	3.03
265.093	2.7
265.473	2.82
265.853	2.66
266.233	3.05
266.612	3.94
266.992	3.75
267.372	2.47
267.752	3.99
268.131	3.34
268.511	3.41
268.89	3.57
269.27	3.88
269.649	3.25
270.029	3.01
270.408	2.65
270.787	3.8
271.167	3.61
271.546	3.67
271.925	3.54
272.304	3.45
272.683	3.28
273.062	3.29
273.441	3.34
273.82	2.86
274.199	3.33
274.578	3.17
274.957	3.24
275.336	2.86
275.715	3.16
276.093	3.14
276.472	3.15
276.851	2.63
277.229	3.03
277.608	2.92
277.986	3.39
278.365	3.08
278.743	3.17
279.122	3.19
279.5	3.6
279.878	3.04
280.257	2.93
280.635	2.84
281.013	3.33
281.391	3.13
281.769	3.53
282.147	2.59
282.525	3.36
282.903	2.99
283.281	3.36
283.659	2.89
284.037	2.91
284.415	2.76
284.792	3.26
285.17	2.42
285.548	3.62
285.925	3.28
286.303	3
286.68	3.34
287.058	3.35
287.435	3.26
287.813	2.96
288.19	3.24
288.567	2.81
288.945	3.11
289.322	3.08
289.699	3.05
290.076	3.17
290.453	2.6
290.83	2.76
291.207	2.67
291.584	3.43
291.961	3.05
292.338	3
292.715	3.06
293.092	3.12
293.469	2.94
293.845	2.53
294.222	3.04
294.599	2.88
294.975	2.99
295.352	2.87
295.728	3.26
296.105	2.98
296.481	2.8
296.858	2.68
297.234	3.3
297.61	3.06
297.986	2.83
298.363	2.82
298.739	2.91
299.115	2.98
299.491	3.11
299.867	3.03
300.243	2.9
300.619	3.32
300.995	3.03
301.371	3.32
301.746	3
302.122	3.37
302.498	2.94
302.874	3.11
303.249	2.71
303.625	2.78
304	3.04
304.376	2.81
304.751	3.14
305.127	2.64
305.502	2.79
305.878	2.99
306.253	3.1
306.628	2.76
307.003	2.95
307.378	2.98
307.754	2.74
308.129	2.54
308.504	3.17
308.879	2.99
309.254	3.22
309.629	3.2
310.003	2.72
310.378	3.08
310.753	2.98
311.128	2.91
311.502	2.61
311.877	2.86
312.252	2.8
312.626	3.12
313.001	2.76
313.375	2.86
313.75	2.75
314.124	2.72
314.498	3.05
314.873	2.91
315.247	3.14
315.621	3.05
315.995	3.4
316.369	3.03
316.743	3.58
317.117	3.53
317.491	3.18
317.865	2.67
318.239	3.28
318.613	3.66
318.987	3.45
319.361	2.89
319.734	3.13
320.108	2.77
320.482	2.67
320.855	2.98
321.229	2.81
321.602	2.91
321.976	3.28
322.349	3.51
322.723	3.44
323.096	3.26
323.469	2.65
323.843	3.25
324.216	3.06
324.589	3.2
324.962	3.51
325.335	3.12
325.708	2.68
326.081	3.14
326.454	3
326.827	3.23
327.2	2.98
327.573	2.55
327.945	3.54
328.318	2.28
328.691	2.82
329.063	2.7
329.436	2.95
329.809	2.61
330.181	2.54
330.553	3.14
330.926	3.1
331.298	3.04
331.671	3.08
332.043	2.86
332.415	2.96
332.787	2.97
333.159	2.84
333.532	2.45
333.904	3.03
334.276	3
334.648	3.12
335.02	2.45
335.391	3.21
335.763	3.07
336.135	3.06
336.507	3.1
336.879	3.23
337.25	3.2
337.622	2.85
337.993	3.2
338.365	2.89
338.736	3.29
339.108	3.22
339.479	3.24
339.851	2.88
340.222	2.41
340.593	3.2
340.964	3.06
341.336	2.86
341.707	2.69
342.078	2.95
342.449	3.1
342.82	2.99
343.191	2.9
343.562	2.97
343.933	3.46
344.303	3.26
344.674	3.08
345.045	2.51
345.416	2.55
345.786	3.3
346.157	3.13
346.527	3.29
346.898	3.14
347.268	2.75
347.639	3.23
348.009	2.96
348.38	2.82
348.75	3.11
349.12	2.94
349.49	3.18
349.861	2.98
350.231	3.45
350.601	3.26
350.971	2.91
351.341	2.98
351.711	3.04
352.081	2.88
352.45	3.3
352.82	2.96
353.19	3
353.56	3.24
353.929	2.98
354.299	3.35
354.669	3.46
355.038	3.37
355.408	2.57
355.777	2.88
356.147	2.8
356.516	2.9
356.885	3.06
357.254	3.2
357.624	2.95
357.993	3.05
358.362	2.93
358.731	2.99
359.1	2.85
359.469	3.26
359.838	3.48
360.207	2.97
360.576	3.43
360.945	3.38
361.314	3.23
361.682	3.18
362.051	3.19
362.42	3
362.788	2.91
363.157	3.07
363.525	3.24
363.894	3.26
364.262	3.25
364.631	3.23
364.999	3.25
365.367	3.03
365.735	3.19
366.104	3.11
366.472	3.2
366.84	2.79
367.208	3.04
367.576	3.04
367.944	3.32
368.312	2.99
368.68	3.02
369.048	3.02
369.416	3.26
369.783	2.93
370.151	3.01
370.519	3.6
370.886	3.28
371.254	3.09
371.621	3.06
371.989	3.11
372.356	3.3
372.724	3.05
373.091	3.22
373.458	3.31
373.826	3.07
374.193	2.86
374.56	2.96
374.927	3.1
375.294	2.9
375.661	3.31
376.028	3.29
376.395	3.27
376.762	3.21
377.129	3.29
377.496	3.42
377.863	3.21
378.229	3.23
378.596	3.15
378.963	3.1
379.329	3.1
379.696	3.16
380.062	3.35
380.429	3.18
380.795	3.03
381.161	3.08
381.528	3.37
381.894	2.99
382.26	2.93
382.626	3.18
382.993	3.31
383.359	3.18
383.725	3.27
384.091	3.03
384.457	3.53
384.823	3.12
385.188	3.39
385.554	3.09
385.92	3.04
386.286	3.22
386.651	3.33
387.017	3.09
387.383	3.31
387.748	2.94
388.114	2.93
388.479	3.59
388.845	3.26
389.21	3.45
389.575	3.7
389.94	3.21
390.306	3.2
390.671	3.31
391.036	3.22
391.401	3.43
391.766	3.16
392.131	3.25
392.496	3.2
392.861	3.34
393.226	3.13
393.591	3.4
393.956	3.38
394.32	3.28
394.685	3.36
395.05	3.35
395.414	3.32
395.779	3.24
396.143	3.25
396.508	3.33
396.872	3.25
397.236	3.19
397.601	3.14
397.965	3.24
398.329	3.43
398.694	3.48
399.058	3.25
399.422	3.35
399.786	3.07
400.15	3.19
400.514	3.16
400.878	3.21
401.242	3.14
401.605	3.33
401.969	3.44
402.333	3.27
402.697	3.27
403.06	3.37
403.424	3.42
403.787	3.12
404.151	3.44
404.514	3.28
404.878	3.29
405.241	3.32
405.604	3.36
405.968	3.18
406.331	3.04
406.694	3.08
407.057	3.42
407.42	3.27
407.783	3.18
408.146	3.27
408.509	3.52
408.872	3.37
409.235	3.4
409.598	3.25
409.961	3.37
410.323	3.31
410.686	3.24
411.049	3.27
411.411	3.06
411.774	3.33
412.136	3.44
412.499	3.35
412.861	3.28
413.223	3.39
413.586	3.21
413.948	3.39
414.31	3.25
414.672	3.33
415.035	3.35
415.397	3.29
415.759	3.49
416.121	3.23
416.483	3.33
416.845	3.17
417.206	3.14
417.568	3.23
417.93	3.5
418.292	3.33
418.653	3.25
419.015	3.29
419.377	3.28
419.738	3.2
420.1	3.33
420.461	3.22
420.822	3.25
421.184	3.3
421.545	3.18
421.906	3.34
422.267	3.22
422.629	3.27
422.99	3.12
423.351	3.13
423.712	3.2
424.073	3.28
424.434	3.22
424.795	3.28
425.155	3.4
425.516	3.2
425.877	3.15
426.238	3.23
426.598	3.2
426.959	3.18
427.32	3.22
427.68	3.21
428.041	3.26
428.401	3.28
428.761	3.26
429.122	3.25
429.482	3.4
429.842	2.99
430.202	3.4
430.563	3.31
430.923	3.48
431.283	3.26
431.643	3.41
432.003	3.49
432.363	3.35
432.722	3.36
433.082	3.42
433.442	3.35
433.802	3.13
434.161	3.35
434.521	3.22
434.881	3.39
435.24	3.23
435.6	3.32
435.959	3.19
436.319	3.21
436.678	3.39
437.037	3.15
437.396	3.38
437.756	3.26
438.115	3.3
438.474	3.41
438.833	3.4
439.192	3.24
439.551	3.31
439.91	3.43
440.269	3.33
440.628	3.43
440.987	3.19
441.345	3.29
441.704	3.14
442.063	3.3
442.421	3.3
442.78	3.27
443.138	3.24
443.497	3.26
443.855	3.26
444.214	3.38
444.572	3.25
444.93	3.22
445.288	3.42
445.647	3.18
446.005	3.33
446.363	3.3
446.721	3.2
447.079	3.23
447.437	3.28
447.795	3.23
448.153	3.16
448.51	3.27
448.868	3.1
449.226	3.23
449.584	3.25
449.941	3.14
450.299	3.23
450.656	3.24
451.014	3.47
451.371	3.43
451.729	3.33
452.086	3.31
452.443	3.29
452.801	3.33
453.158	3.31
453.515	3.5
453.872	3.18
454.229	3.38
454.586	3.31
454.943	3.3
455.3	3.3
455.657	3.23
456.014	3.19
456.371	3.34
456.727	3.37
457.084	3.39
457.441	3.29
457.797	3.3
458.154	3.31
458.51	3.4
458.867	3.27
459.223	3.4
459.58	3.46
459.936	3.21
460.292	3.15
460.648	3.35
461.005	3.21
461.361	3.24
461.717	3.29
462.073	3.34
462.429	3.28
462.785	3.3
463.141	3.32
463.496	3.35
463.852	3.44
464.208	3.39
464.564	3.3
464.919	3.47
465.275	3.5
465.631	3.47
465.986	3.44
466.342	3.32
466.697	3.25
467.052	3.26
467.408	3.4
467.763	3.42
468.118	3.56
468.473	3.21
468.829	3.15
469.184	3.35
469.539	3.28
469.894	3.41
470.249	3.27
470.603	3.46
470.958	3.3
471.313	3.24
471.668	3.31
472.023	3.27
472.377	3.4
472.732	3.25
473.086	3.51
473.441	3.41
473.795	3.33
474.15	3.34
474.504	3.37
474.859	3.35
475.213	3.31
475.567	3.18
475.921	3.26
476.275	3.44
476.63	3.31
476.984	3.35
477.338	3.33
477.692	3.37
478.045	3.36
478.399	3.33
478.753	3.29
479.107	3.43
479.461	3.44
479.814	3.37
480.168	3.38
480.521	3.28
480.875	3.34
481.228	3.32
481.582	3.47
481.935	3.16
482.289	3.31
482.642	3.34
482.995	3.34
483.348	3.23
483.701	3.33
484.055	3.17
484.408	3.29
484.761	3.24
485.114	3.12
485.466	3.07
485.819	3.06
486.172	3.08
486.525	3.11
486.878	3.22
487.23	3.27
487.583	3.23
487.936	3.25
488.288	3.24
488.641	3.18
488.993	3.15
489.345	3.09
489.698	3.13
490.05	3.17
490.402	3.19
490.754	3.24
491.107	3.26
491.459	3.25
491.811	3.25
492.163	3.32
492.515	3.29
492.866	3.2
493.218	3.13
493.57	3.11
493.922	3.19
494.274	3.19
494.625	3.22
494.977	3.28
495.328	3.33
495.68	3.22
496.031	3.37
496.383	3.26
496.734	3.26
497.086	3.5
497.437	3.43
497.788	3.46
498.139	3.27
498.49	3.25
498.842	3.43
499.193	3.32
499.544	3.34
499.894	3.25
500.245	3.31
500.596	3.24
500.947	3.3
501.298	3.34
501.648	3.42
501.999	3.39
502.35	3.32
502.7	3.31
503.051	3.37
503.401	3.3
503.752	3.39
504.102	3.44
504.452	3.43
504.803	3.28
505.153	3.24
505.503	3.35
505.853	3.37
506.203	3.33
506.553	3.28
506.903	3.39
507.253	3.4
507.603	3.31
507.953	3.4
508.303	3.28
508.652	3.33
509.002	3.51
509.352	3.44
509.701	3.31
510.051	3.24
510.4	3.17
510.75	3.33
511.099	3.27
511.449	3.16
511.798	3.26
512.147	3.44
512.496	3.31
512.846	3.19
513.195	3.37
513.544	3.27
513.893	3.32
514.242	3.28
514.591	3.29
514.939	3.36
515.288	3.32
515.637	3.33
515.986	3.4
516.334	3.38
516.683	3.41
517.032	3.39
517.38	3.33
517.729	3.41
518.077	3.31
518.426	3.36
518.774	3.4
519.122	3.33
519.47	3.24
519.819	3.22
520.167	3.36
520.515	3.18
520.863	3.21
521.211	3.22
521.559	3.25
521.907	3.28
522.255	3.38
522.602	3.33
522.95	3.3
523.298	3.39
523.645	3.24
523.993	3.41
524.341	3.33
524.688	3.44
525.036	3.33
525.383	3.46
525.73	3.32
526.078	3.27
526.425	3.38
526.772	3.22
527.119	3.21
527.466	3.25
527.814	3.2
528.161	3.23
528.508	3.25
528.854	3.22
529.201	3.2
529.548	3.22
529.895	3.13
530.242	3.15
530.588	3.09
530.935	3.11
531.282	3.19
531.628	3.15
531.975	3.25
532.321	3.28
532.667	3.26
533.014	3.25
533.36	3.24
533.706	3.31
534.052	3.34
534.399	3.23
534.745	3.18
535.091	3.11
535.437	3.15
535.783	3.17
536.129	3.27
536.474	3.35
536.82	3.25
537.166	3.28
537.512	3.28
537.857	3.28
538.203	3.3
538.549	3.17
538.894	3.33
539.239	3.33
539.585	3.17
539.93	3.26
540.276	3.37
540.621	3.27
540.966	3.28
541.311	3.27
541.656	3.26
542.001	3.25
542.346	3.31
542.691	3.23
543.036	3.16
543.381	3.11
543.726	3.18
544.071	3.16
544.415	3.22
544.76	3.3
545.105	3.29
545.449	3.24
545.794	3.21
546.138	3.21
546.483	3.35
546.827	3.34
547.171	3.34
547.516	3.32
547.86	3.3
548.204	3.24
548.548	3.28
548.892	3.19
549.236	3.21
549.58	3.32
549.924	3.36
550.268	3.36
550.612	3.27
550.956	3.51
551.3	3.33
551.643	3.38
551.987	3.26
552.33	3.25
552.674	3.45
553.017	3.39
553.361	3.53
553.704	3.21
554.048	3.35
554.391	3.22
554.734	3.31
555.077	3.27
555.42	3.32
555.764	3.51
556.107	3.38
556.45	3.36
556.793	3.41
557.135	3.48
557.478	3.33
557.821	3.46
558.164	3.46
558.507	3.36
558.849	3.43
559.192	3.39
559.534	3.3
559.877	3.32
560.219	3.3
560.562	3.42
560.904	3.52
561.246	3.23
561.589	3.48
561.931	3.25
562.273	3.5
562.615	3.28
562.957	3.38
563.299	3.32
563.641	3.46
563.983	3.33
564.325	3.34
564.667	3.37
565.008	3.34
565.35	3.32
565.692	3.57
566.033	3.35
566.375	3.39
566.716	3.4
567.058	3.37
567.399	3.34
567.741	3.32
568.082	3.41
568.423	3.29
568.764	3.27
569.105	3.4
569.447	3.45
569.788	3.35
570.129	3.43
570.47	3.42
570.811	3.53
571.151	3.34
571.492	3.53
571.833	3.39
572.174	3.48
572.514	3.33
572.855	3.38
573.195	3.34
573.536	3.31
573.876	3.27
574.217	3.41
574.557	3.38
574.898	3.45
575.238	3.25
575.578	3.58
575.918	3.36
576.258	3.38
576.598	3.36
576.938	3.46
577.278	3.35
577.618	3.31
577.958	3.32
578.298	3.34
578.638	3.42
578.977	3.33
579.317	3.5
579.657	3.28
579.996	3.41
580.336	3.36
580.675	3.3
581.014	3.46
581.354	3.3
581.693	3.52
582.032	3.41
582.372	3.58
582.711	3.33
583.05	3.52
583.389	3.32
583.728	3.2
584.067	3.39
584.406	3.38
584.745	3.58
585.083	3.33
585.422	3.32
585.761	3.4
586.1	3.37
586.438	3.27
586.777	3.56
587.115	3.35
587.454	3.46
587.792	3.58
588.13	3.36
588.469	3.53
588.807	3.52
589.145	3.44
589.483	3.12
589.821	3.38
590.159	3.06
590.497	3.61
590.835	3.42
591.173	3.28
591.511	3.38
591.849	3.46
592.187	3.29
592.524	3.46
592.862	3.42
593.2	3.48
593.537	3.37
593.875	3.37
594.212	3.21
594.55	3.03
594.887	3.48
595.224	3.49
595.561	3.16
595.899	3.37
596.236	3.41
596.573	3.44
596.91	3.44
597.247	3.22
597.584	3.26
597.921	3.59
598.258	3.41
598.594	3.21
598.931	3.41
599.268	3.4
599.604	3.36
599.941	3.28
600.277	3.41
600.614	3.53
600.95	3.35
601.287	3.32
601.623	3.44
601.959	3.43
602.296	3.51
602.632	3.44
602.968	3.47
603.304	3.15
603.64	3.5
603.976	3.26
604.312	3.29
604.648	3.26
604.984	3.45
605.319	3.23
605.655	3.32
605.991	3.44
606.326	3.35
606.662	3.33
606.998	3.21
607.333	3.18
607.668	3.49
608.004	3.35
608.339	3.34
608.674	3.48
609.01	3.46
609.345	3.43
609.68	3.57
610.015	3.32
610.35	3.34
610.685	3.49
611.02	3.42
611.355	3.32
611.689	3.3
612.024	3.27
612.359	3.34
612.694	3.36
613.028	3.53
613.363	3.57
613.697	3.48
614.032	3.32
614.366	3.33
614.7	3.43
615.035	3.65
615.369	3.47
615.703	3.58
616.037	3.26
616.371	3.48
616.705	3.24
617.039	3.61
617.373	3.93
617.707	3.82
618.041	3.63
618.375	3.77
618.709	3.48
619.042	3.51
619.376	3.62
619.71	3.58
620.043	3.56
620.377	3.65
620.71	3.7
621.043	3.19
621.377	3.45
621.71	3.46
622.043	3.88
622.376	3.59
622.709	3.48
623.043	3.6
623.376	3.82
623.709	3.4
624.041	3.44
624.374	3.43
624.707	3.1
625.04	3.49
625.373	3.78
625.705	3.46
626.038	3.33
626.37	3.57
626.703	3.71
627.035	3.59
627.368	3.64
627.7	3.16
628.032	3.28
628.365	3.87
628.697	3.41
629.029	3.37
629.361	3.29
629.693	3.54
630.025	3.58
630.357	3.32
630.689	3.58
631.021	3.36
631.353	3.57
631.684	3.42
632.016	3.62
632.348	3.6
632.679	3.51
633.011	3.46
633.342	3.56
633.674	3.61
634.005	3.61
634.336	3.52
634.668	3.63
634.999	3.92
635.33	3.25
635.661	3.68
635.992	3.52
636.323	3.47
636.654	3.33
636.985	3.45
637.316	3.44
637.647	3.3
637.977	3.67
638.308	3.73
638.639	3.9
638.969	3.11
639.3	3.87
639.63	3.31
639.961	3.58
640.291	3.86
640.622	3.83
640.952	3.48
641.282	3.33
641.612	3.61
641.943	3.3
642.273	3.4
642.603	3.49
642.933	3.64
643.263	3.37
643.592	3.48
643.922	4.06
644.252	3.95
644.582	3.63
644.911	3.72
645.241	3.52
645.571	3.2
645.9	3.49
646.23	3.72
646.559	4.02
646.888	4.01
647.218	3.91
647.547	3.57
647.876	3.66
648.205	3.42
648.534	3.62
648.863	3.73
649.192	3.64
649.521	3.33
649.85	3.97
650.179	3.51
650.508	3.84
650.837	3.68
651.165	3.54
651.494	3.72
651.822	3.68
652.151	4.14
652.479	3.35
652.808	3.39
653.136	3.36
653.465	3.5
653.793	3.92
654.121	3.17
654.449	3.24
654.777	3.64
655.105	3.87
655.433	3.85
655.761	3.28
656.089	3.44
656.417	3.46
656.745	3.62
657.073	3.51
657.4	3.84
657.728	3.81
658.056	2.96
658.383	3.56
658.711	3.62
659.038	3.43
659.365	3.83
659.693	3.51
660.02	3.86
660.347	3.67
660.674	3.68
661.001	3.64
661.329	4
661.656	3.5
661.982	3.43
662.309	3.66
662.636	3.87
662.963	3.39
663.29	3.61
663.616	3.63
663.943	3.93
664.27	3.77
664.596	3.76
664.923	3.46
665.249	4.18
665.576	3.77
665.902	3.28
666.228	3.22
666.554	4.07
666.881	3.72
667.207	3.41
667.533	3.69
667.859	3.94
668.185	3.93
668.511	3.67
668.837	3.69
669.162	3.91
669.488	3.39
669.814	3.58
670.139	3.18
670.465	3.86
670.791	3.34
671.116	3.43
671.442	3.78
671.767	3.52
672.092	3.5
672.418	3.79
672.743	4.1
673.068	3.88
673.393	4.35
673.718	4.29
674.043	3.5
674.368	3.44
674.693	3.65
675.018	3.46
675.343	3.65
675.667	3.55
675.992	4.14
676.317	3.9
676.641	3.65
676.966	4.02
677.29	4.05
677.615	4.03
677.939	3.91
678.264	4.19
678.588	3.7
678.912	4.08
679.236	3.99
679.56	3.99
679.885	3.8
680.209	3.77
680.532	3.76
680.856	3.92
681.18	3.48
681.504	4.2
681.828	3.79
682.152	4
682.475	3.41
682.799	3.98
683.122	3.86
683.446	3.93
683.769	3.57
684.093	3.95
684.416	3.29
684.739	3.77
685.062	4.7
685.386	3.15
685.709	3.69
686.032	4.51
686.355	5.03
686.678	3.64
687.001	4.35
687.324	4.34
687.646	4.08
687.969	3.31
688.292	3.29
688.614	4.01
688.937	3.96
689.26	3.41
689.582	4.94
689.904	4.34
690.227	4.31
690.549	4.18
690.871	4.33
691.194	4.35
691.516	4.01
691.838	3.63
692.16	4.59
692.482	3.72
692.804	3.52
