Data from 0046_forehead_Reflection__4__180.txt Node

Date: Fri Nov 04 16:18:22 CDT 2022
User: ToomeyLab
Spectrometer: FLMS14357
Trigger mode: 0
Integration Time (sec): 1.000000E-2
Scans to average: 100
Electric dark correction enabled: true
Nonlinearity correction enabled: false
Boxcar width: 0
XAxis mode: Wavelengths
Number of Pixels in Spectrum: 2048
>>>>>Begin Spectral Data<<<<<
189.047	-147.74
189.435	-147.74
189.823	-147.74
190.211	-247.61
190.599	43.49
190.987	-306.32
191.375	321.96
191.763	26.11
192.151	39.66
192.538	-98.9
192.926	44.63
193.314	104.05
193.702	118.28
194.089	-57.26
194.477	11.59
194.864	100
195.252	50.83
195.639	107.25
196.027	-63.37
196.414	-444.86
196.801	100.43
197.189	335.35
197.576	207.59
197.963	-11.37
198.351	18.83
198.738	-9.37
199.125	13.22
199.512	0.81
199.899	-1.08
200.286	-9.14
200.673	-19.67
201.06	6.49
201.447	-33.75
201.833	34.45
202.22	4.5
202.607	-12.06
202.994	48.18
203.38	46.88
203.767	23.73
204.154	50.85
204.54	13.02
204.927	18.06
205.313	36.77
205.699	25.02
206.086	12.38
206.472	-6.84
206.858	4.79
207.245	18.87
207.631	3.53
208.017	11.76
208.403	26.23
208.789	34.73
209.175	-8.6
209.561	-68.37
209.947	-44.22
210.333	-16.12
210.719	-17.03
211.105	-69.71
211.491	19.08
211.876	-1.16
212.262	-0.05
212.648	-16.27
213.034	6.61
213.419	-10.31
213.805	-20.18
214.19	17.58
214.576	-30.02
214.961	39.35
215.346	-5.47
215.732	13.87
216.117	4.51
216.502	22.87
216.888	19.83
217.273	15.06
217.658	8.72
218.043	5.4
218.428	5.72
218.813	-17.32
219.198	-12.34
219.583	-31.44
219.968	17.4
220.353	-30.36
220.738	-28.5
221.122	-5.11
221.507	-8.67
221.892	-1.02
222.276	-19.45
222.661	13.25
223.046	-3.08
223.43	2.57
223.815	-9.42
224.199	3.53
224.583	-4.11
224.968	1.84
225.352	6.6
225.736	-5.04
226.121	-9.99
226.505	-3.14
226.889	-0.97
227.273	6.04
227.657	4.34
228.041	5.47
228.425	3.35
228.809	2.91
229.193	1.07
229.577	0.45
229.961	2.52
230.344	1.97
230.728	2.28
231.112	2.02
231.495	2.03
231.879	2.24
232.263	1.73
232.646	1.33
233.03	1.04
233.413	-0.04
233.797	0.94
234.18	1.51
234.563	2.57
234.946	-0.02
235.33	2.29
235.713	0.96
236.096	2.12
236.479	0.47
236.862	0.93
237.245	0.23
237.628	1.04
238.011	0.04
238.394	2.82
238.777	2.34
239.16	2.29
239.543	1.28
239.925	2.42
240.308	3.11
240.691	0.42
241.073	1.27
241.456	1.75
241.838	2.06
242.221	1.74
242.603	1.97
242.986	1.52
243.368	1.85
243.75	2.11
244.133	1.86
244.515	1.97
244.897	1.82
245.279	1.67
245.661	2.51
246.043	2.25
246.425	2.11
246.807	3.32
247.189	1.4
247.571	1.92
247.953	1.98
248.335	1.78
248.717	1.81
249.098	1.89
249.48	2.07
249.862	2.53
250.243	1.74
250.625	1.96
251.006	2.19
251.388	2.32
251.769	2.79
252.151	2.62
252.532	2.56
252.913	0.76
253.295	1.97
253.676	1.75
254.057	1.99
254.438	1.91
254.819	2.31
255.2	1.62
255.581	2.72
255.962	2
256.343	0.82
256.724	2.1
257.105	1.86
257.486	3.02
257.867	2.92
258.247	2.49
258.628	1.53
259.009	1.7
259.389	1.88
259.77	2.23
260.15	2.06
260.531	1.93
260.911	1.83
261.292	1.94
261.672	1.91
262.052	2.06
262.432	2.15
262.813	1.7
263.193	1.85
263.573	2.02
263.953	1.51
264.333	2.2
264.713	2.14
265.093	2.02
265.473	2.27
265.853	1.66
266.233	1.46
266.612	2.16
266.992	2.89
267.372	1.4
267.752	1.92
268.131	2.15
268.511	2.37
268.89	2.14
269.27	2.24
269.649	2.14
270.029	1.56
270.408	2.15
270.787	2.24
271.167	1.68
271.546	2.73
271.925	2.4
272.304	2.09
272.683	1.9
273.062	1.9
273.441	2.13
273.82	1.63
274.199	2.07
274.578	2
274.957	1.81
275.336	1.38
275.715	1.78
276.093	1.96
276.472	1.97
276.851	1.69
277.229	1.59
277.608	2.17
277.986	2.38
278.365	2.33
278.743	2.42
279.122	1.99
279.5	2.42
279.878	2.06
280.257	1.65
280.635	1.35
281.013	1.85
281.391	2.19
281.769	1.91
282.147	1.75
282.525	2.31
282.903	3
283.281	2.2
283.659	2.04
284.037	2.49
284.415	2.04
284.792	2.03
285.17	1.92
285.548	2.37
285.925	2.22
286.303	1.94
286.68	2.61
287.058	2.23
287.435	1.99
287.813	2.14
288.19	2.29
288.567	1.8
288.945	1.9
289.322	2.13
289.699	2.31
290.076	2.52
290.453	2.06
290.83	1.94
291.207	2.06
291.584	2.08
291.961	2.44
292.338	2.29
292.715	2.53
293.092	2.48
293.469	2.23
293.845	1.87
294.222	2.3
294.599	2.6
294.975	2.65
295.352	2.56
295.728	2.45
296.105	2.51
296.481	2.44
296.858	2.61
297.234	3.03
297.61	2.95
297.986	2.53
298.363	2.36
298.739	2.9
299.115	2.82
299.491	2.87
299.867	2.73
300.243	2.88
300.619	2.67
300.995	3.02
301.371	3.43
301.746	3.15
302.122	2.96
302.498	3.05
302.874	3.07
303.249	2.64
303.625	2.85
304	3.17
304.376	2.83
304.751	2.8
305.127	2.56
305.502	2.79
305.878	3.33
306.253	3.23
306.628	2.78
307.003	2.77
307.378	3.26
307.754	2.75
308.129	2.66
308.504	3.2
308.879	3.08
309.254	3.47
309.629	3.05
310.003	3.33
310.378	3.34
310.753	3.32
311.128	3.1
311.502	3.05
311.877	3.15
312.252	3.21
312.626	3.36
313.001	3.27
313.375	3.51
313.75	3.14
314.124	3.15
314.498	3.39
314.873	3.65
315.247	3.85
315.621	3.76
315.995	3.62
316.369	3.21
316.743	4.16
317.117	4.16
317.491	4.11
317.865	3.38
318.239	3.39
318.613	4.18
318.987	3.56
319.361	3.9
319.734	4.45
320.108	4.08
320.482	3.16
320.855	4.33
321.229	4
321.602	3.84
321.976	3.97
322.349	4.86
322.723	3.87
323.096	4.38
323.469	4.1
323.843	4.05
324.216	4.37
324.589	4.01
324.962	4.51
325.335	4.29
325.708	4.41
326.081	4.08
326.454	4.25
326.827	4.29
327.2	4.36
327.573	4.06
327.945	4.74
328.318	3.97
328.691	3.94
329.063	4.29
329.436	4.27
329.809	4.52
330.181	4.54
330.553	4.4
330.926	4.77
331.298	4.51
331.671	4.31
332.043	4.83
332.415	4.72
332.787	4.04
333.159	4.35
333.532	4.33
333.904	4.92
334.276	4.6
334.648	4.71
335.02	4.45
335.391	4.72
335.763	4.84
336.135	4.45
336.507	4.87
336.879	4.94
337.25	4.98
337.622	4.72
337.993	4.74
338.365	4.59
338.736	5.14
339.108	5.18
339.479	4.91
339.851	4.68
340.222	4.69
340.593	5.08
340.964	5.37
341.336	4.43
341.707	4.23
342.078	5.2
342.449	4.99
342.82	4.84
343.191	4.71
343.562	5.01
343.933	5.25
344.303	5.4
344.674	5.28
345.045	4.83
345.416	5.01
345.786	5.01
346.157	5.54
346.527	5.35
346.898	5.27
347.268	5
347.639	5.39
348.009	5.45
348.38	5.21
348.75	5.19
349.12	4.79
349.49	5.4
349.861	5.22
350.231	5.96
350.601	5.25
350.971	5.53
351.341	5.49
351.711	5.53
352.081	5.45
352.45	5.24
352.82	5.49
353.19	5.49
353.56	5.45
353.929	5.55
354.299	5.73
354.669	5.58
355.038	5.69
355.408	5.19
355.777	5.61
356.147	5.29
356.516	5.4
356.885	5.47
357.254	5.76
357.624	5.8
357.993	5.74
358.362	5.41
358.731	5.62
359.1	5.66
359.469	5.46
359.838	5.94
360.207	5.73
360.576	5.84
360.945	6.16
361.314	5.95
361.682	5.75
362.051	5.71
362.42	6.05
362.788	5.88
363.157	5.99
363.525	6.03
363.894	5.96
364.262	5.83
364.631	5.92
364.999	6.01
365.367	5.94
365.735	6.29
366.104	6.03
366.472	5.88
366.84	5.96
367.208	6.26
367.576	6.01
367.944	6.36
368.312	6.03
368.68	5.9
369.048	6.09
369.416	6.07
369.783	5.93
370.151	6.04
370.519	6.58
370.886	6.24
371.254	6.46
371.621	6.54
371.989	6.11
372.356	6.38
372.724	6.49
373.091	6.11
373.458	6.56
373.826	6.61
374.193	6.3
374.56	6.32
374.927	6.48
375.294	6.24
375.661	6.48
376.028	6.32
376.395	6.49
376.762	6.78
377.129	6.87
377.496	6.74
377.863	6.34
378.229	6.66
378.596	6.57
378.963	6.31
379.329	6.49
379.696	6.63
380.062	6.76
380.429	6.55
380.795	6.78
381.161	6.74
381.528	6.87
381.894	6.48
382.26	6.98
382.626	6.56
382.993	6.86
383.359	6.87
383.725	6.99
384.091	6.95
384.457	6.82
384.823	7.05
385.188	7.15
385.554	6.81
385.92	6.81
386.286	6.9
386.651	7.1
387.017	7.05
387.383	6.88
387.748	6.84
388.114	7.05
388.479	7.4
388.845	7.31
389.21	7.32
389.575	7.23
389.94	7.08
390.306	7.27
390.671	7.25
391.036	7.03
391.401	7.3
391.766	6.95
392.131	7.14
392.496	7.17
392.861	7.26
393.226	7.01
393.591	7.22
393.956	7.39
394.32	7.12
394.685	7.28
395.05	7.49
395.414	7.28
395.779	7.4
396.143	7.25
396.508	7.46
396.872	7.4
397.236	7.49
397.601	7.44
397.965	7.57
398.329	7.43
398.694	7.49
399.058	7.55
399.422	7.4
399.786	7.32
400.15	7.4
400.514	7.65
400.878	7.58
401.242	7.6
401.605	7.47
401.969	7.97
402.333	7.64
402.697	7.56
403.06	7.91
403.424	7.68
403.787	7.67
404.151	7.71
404.514	7.85
404.878	7.81
405.241	7.8
405.604	7.99
405.968	7.67
406.331	7.63
406.694	7.76
407.057	7.85
407.42	7.82
407.783	7.78
408.146	7.94
408.509	7.93
408.872	8
409.235	7.88
409.598	7.99
409.961	8.12
410.323	7.99
410.686	7.96
411.049	7.88
411.411	8
411.774	8.15
412.136	8.15
412.499	8.13
412.861	8.2
413.223	8.06
413.586	8.15
413.948	8.24
414.31	8.14
414.672	8.14
415.035	8.23
415.397	8.24
415.759	8.32
416.121	8.07
416.483	8.28
416.845	8.33
417.206	8.19
417.568	8.41
417.93	8.33
418.292	8.28
418.653	8.25
419.015	8.24
419.377	8.18
419.738	8.22
420.1	8.31
420.461	8.36
420.822	8.09
421.184	8.37
421.545	8.2
421.906	8.24
422.267	8.21
422.629	8.28
422.99	8.17
423.351	8.18
423.712	8.26
424.073	8.27
424.434	8.29
424.795	8.42
425.155	8.39
425.516	8.5
425.877	8.3
426.238	8.31
426.598	8.38
426.959	8.36
427.32	8.24
427.68	8.32
428.041	8.51
428.401	8.53
428.761	8.59
429.122	8.57
429.482	8.67
429.842	8.4
430.202	8.72
430.563	8.78
430.923	8.73
431.283	8.65
431.643	8.88
432.003	8.96
432.363	8.8
432.722	8.85
433.082	8.94
433.442	8.96
433.802	8.8
434.161	8.89
434.521	8.84
434.881	8.76
435.24	8.75
435.6	8.96
435.959	8.88
436.319	8.92
436.678	9.04
437.037	8.95
437.396	9.13
437.756	9.12
438.115	8.96
438.474	9.09
438.833	9.14
439.192	9.21
439.551	9.15
439.91	9.13
440.269	8.94
440.628	9.02
440.987	9.14
441.345	9.02
441.704	9.12
442.063	9.09
442.421	9.02
442.78	9
443.138	9.15
443.497	9.05
443.855	9.17
444.214	9.24
444.572	9.12
444.93	9.25
445.288	9.17
445.647	9.13
446.005	9.32
446.363	9.24
446.721	9.14
447.079	9.25
447.437	9.17
447.795	9.29
448.153	9.2
448.51	9.21
448.868	9.19
449.226	9.17
449.584	9.24
449.941	9.28
450.299	9.26
450.656	9.33
451.014	9.44
451.371	9.67
451.729	9.53
452.086	9.47
452.443	9.53
452.801	9.68
453.158	9.59
453.515	9.63
453.872	9.54
454.229	9.74
454.586	9.59
454.943	9.68
455.3	9.68
455.657	9.49
456.014	9.69
456.371	9.65
456.727	9.74
457.084	9.76
457.441	9.74
457.797	9.68
458.154	9.87
458.51	9.85
458.867	9.86
459.223	9.98
459.58	10.13
459.936	9.71
460.292	9.81
460.648	9.89
461.005	9.72
461.361	9.71
461.717	9.72
462.073	9.72
462.429	9.88
462.785	9.86
463.141	9.86
463.496	9.91
463.852	10.12
464.208	10.06
464.564	9.89
464.919	10.3
465.275	10.24
465.631	10.11
465.986	10.11
466.342	10.19
466.697	10.17
467.052	10.21
467.408	10.13
467.763	10.31
468.118	10.27
468.473	10.45
468.829	10.13
469.184	10.27
469.539	10.22
469.894	10.42
470.249	10.31
470.603	10.34
470.958	10.26
471.313	10.38
471.668	10.32
472.023	10.21
472.377	10.6
472.732	10.4
473.086	10.4
473.441	10.36
473.795	10.4
474.15	10.63
474.504	10.37
474.859	10.41
475.213	10.43
475.567	10.46
475.921	10.57
476.275	10.59
476.63	10.53
476.984	10.46
477.338	10.63
477.692	10.52
478.045	10.7
478.399	10.43
478.753	10.6
479.107	10.65
479.461	10.7
479.814	10.7
480.168	10.59
480.521	10.53
480.875	10.57
481.228	10.72
481.582	10.8
481.935	10.73
482.289	10.73
482.642	10.82
482.995	10.67
483.348	10.59
483.701	10.78
484.055	10.59
484.408	10.71
484.761	10.51
485.114	10.39
485.466	10.32
485.819	10.24
486.172	10.27
486.525	10.35
486.878	10.44
487.23	10.57
487.583	10.57
487.936	10.7
488.288	10.68
488.641	10.66
488.993	10.56
489.345	10.5
489.698	10.58
490.05	10.62
490.402	10.59
490.754	10.69
491.107	10.88
491.459	10.92
491.811	10.93
492.163	10.99
492.515	11.02
492.866	10.96
493.218	10.79
493.57	10.75
493.922	10.8
494.274	10.8
494.625	10.96
494.977	11.07
495.328	11.07
495.68	11.09
496.031	11.33
496.383	11.23
496.734	11.31
497.086	11.68
497.437	11.47
497.788	11.65
498.139	11.29
498.49	11.29
498.842	11.37
499.193	11.29
499.544	11.39
499.894	11.36
500.245	11.42
500.596	11.43
500.947	11.58
501.298	11.45
501.648	11.59
501.999	11.57
502.35	11.63
502.7	11.54
503.051	11.53
503.401	11.71
503.752	11.84
504.102	11.94
504.452	11.76
504.803	11.8
505.153	11.73
505.503	11.81
505.853	11.82
506.203	11.77
506.553	11.87
506.903	11.83
507.253	11.87
507.603	11.88
507.953	11.86
508.303	11.87
508.652	11.82
509.002	12.06
509.352	12.03
509.701	11.88
510.051	11.89
510.4	11.85
510.75	11.86
511.099	11.96
511.449	12.01
511.798	11.94
512.147	12.03
512.496	11.98
512.846	11.89
513.195	12.02
513.544	11.98
513.893	12.05
514.242	12.02
514.591	12.1
514.939	12.18
515.288	12.14
515.637	12.14
515.986	12.16
516.334	12.28
516.683	12.25
517.032	12.32
517.38	12.35
517.729	12.23
518.077	12.32
518.426	12.36
518.774	12.4
519.122	12.31
519.47	12.27
519.819	12.24
520.167	12.24
520.515	12.16
520.863	12.11
521.211	12.21
521.559	12.29
521.907	12.26
522.255	12.41
522.602	12.48
522.95	12.52
523.298	12.63
523.645	12.47
523.993	12.67
524.341	12.57
524.688	12.67
525.036	12.61
525.383	12.79
525.73	12.65
526.078	12.78
526.425	12.67
526.772	12.62
527.119	12.48
527.466	12.6
527.814	12.49
528.161	12.45
528.508	12.46
528.854	12.51
529.201	12.47
529.548	12.38
529.895	12.38
530.242	12.24
530.588	12.2
530.935	12.26
531.282	12.33
531.628	12.37
531.975	12.54
532.321	12.62
532.667	12.72
533.014	12.82
533.36	12.82
533.706	12.89
534.052	12.88
534.399	12.8
534.745	12.75
535.091	12.51
535.437	12.61
535.783	12.65
536.129	12.78
536.474	12.9
536.82	13
537.166	12.93
537.512	13.1
537.857	13.02
538.203	13.08
538.549	12.9
538.894	13.07
539.239	13.08
539.585	13.1
539.93	13.2
540.276	13.24
540.621	13.25
540.966	13.36
541.311	13.35
541.656	13.3
542.001	13.33
542.346	13.21
542.691	13.18
543.036	12.91
543.381	12.93
543.726	12.92
544.071	13.08
544.415	13.14
544.76	13.2
545.105	13.25
545.449	13.37
545.794	13.4
546.138	13.44
546.483	13.48
546.827	13.54
547.171	13.47
547.516	13.55
547.86	13.44
548.204	13.53
548.548	13.51
548.892	13.58
549.236	13.61
549.58	13.68
549.924	13.69
550.268	13.86
550.612	13.9
550.956	13.86
551.3	13.94
551.643	13.98
551.987	14
552.33	13.92
552.674	13.98
553.017	14.16
553.361	13.93
553.704	14.12
554.048	13.93
554.391	13.94
554.734	14.04
555.077	14.15
555.42	14.14
555.764	14.23
556.107	14.2
556.45	14.2
556.793	14.24
557.135	14.16
557.478	14.41
557.821	14.54
558.164	14.28
558.507	14.3
558.849	14.39
559.192	14.38
559.534	14.33
559.877	14.25
560.219	14.54
560.562	14.51
560.904	14.49
561.246	14.36
561.589	14.45
561.931	14.43
562.273	14.53
562.615	14.59
562.957	14.58
563.299	14.47
563.641	14.53
563.983	14.56
564.325	14.35
564.667	14.63
565.008	14.55
565.35	14.63
565.692	14.99
566.033	14.84
566.375	14.66
566.716	14.77
567.058	14.71
567.399	14.81
567.741	14.67
568.082	14.73
568.423	14.72
568.764	14.62
569.105	14.8
569.447	14.79
569.788	14.74
570.129	14.9
570.47	14.79
570.811	14.9
571.151	14.81
571.492	15.1
571.833	14.83
572.174	14.93
572.514	14.91
572.855	14.8
573.195	14.95
573.536	14.91
573.876	14.92
574.217	14.99
574.557	14.88
574.898	15.01
575.238	14.99
575.578	15.21
575.918	15.19
576.258	15.25
576.598	15.08
576.938	15.32
577.278	15.09
577.618	15.11
577.958	15.29
578.298	15.13
578.638	15.22
578.977	15.4
579.317	15.33
579.657	15.32
579.996	15.36
580.336	15.41
580.675	15.3
581.014	15.51
581.354	15.42
581.693	15.77
582.032	15.28
582.372	15.88
582.711	15.53
583.05	15.72
583.389	15.71
583.728	15.53
584.067	15.53
584.406	15.49
584.745	15.73
585.083	15.62
585.422	15.73
585.761	15.68
586.1	15.67
586.438	15.57
586.777	15.9
587.115	15.74
587.454	15.95
587.792	16.08
588.13	15.93
588.469	16.16
588.807	16.01
589.145	15.86
589.483	15.54
589.821	15.97
590.159	15.96
590.497	15.89
590.835	15.64
591.173	15.64
591.511	15.97
591.849	16.13
592.187	15.72
592.524	15.87
592.862	15.78
593.2	16.03
593.537	15.8
593.875	16.24
594.212	16.29
594.55	16.08
594.887	16.25
595.224	16.28
595.561	16.11
595.899	16.26
596.236	16.3
596.573	16.26
596.91	16.22
597.247	16.09
597.584	16.19
597.921	16.52
598.258	16.18
598.594	16.02
598.931	16.19
599.268	16.12
599.604	16.18
599.941	16.4
600.277	16.25
600.614	16.58
600.95	16.5
601.287	16.55
601.623	16.37
601.959	16.53
602.296	16.5
602.632	16.59
602.968	16.53
603.304	16.63
603.64	16.56
603.976	16.48
604.312	16.41
604.648	16.52
604.984	16.43
605.319	16.43
605.655	16.53
605.991	16.48
606.326	16.54
606.662	16.44
606.998	16.49
607.333	16.47
607.668	16.62
608.004	16.66
608.339	16.64
608.674	17.03
609.01	16.76
609.345	16.93
609.68	16.92
610.015	16.71
610.35	16.54
610.685	16.87
611.02	16.82
611.355	16.7
611.689	16.85
612.024	16.77
612.359	16.69
612.694	17.04
613.028	17.26
613.363	17.37
613.697	17.17
614.032	17.02
614.366	17.13
614.7	17.11
615.035	17.24
615.369	17.23
615.703	17.39
616.037	16.94
616.371	17.28
616.705	17.14
617.039	17.31
617.373	17.46
617.707	17.51
618.041	17.13
618.375	17.56
618.709	17.47
619.042	17.31
619.376	17.47
619.71	17.59
620.043	17.45
620.377	17.41
620.71	17.71
621.043	17.34
621.377	17.28
621.71	17.48
622.043	17.76
622.376	17.75
622.709	17.59
623.043	17.29
623.376	18.06
623.709	17.47
624.041	17.67
624.374	17.73
624.707	17.06
625.04	17.77
625.373	17.93
625.705	17.2
626.038	17.75
626.37	17.65
626.703	18.02
627.035	17.65
627.368	17.57
627.7	17.54
628.032	17.78
628.365	18.09
628.697	17.74
629.029	17.55
629.361	17.62
629.693	17.77
630.025	17.87
630.357	17.83
630.689	17.86
631.021	17.79
631.353	17.6
631.684	17.93
632.016	17.99
632.348	17.86
632.679	17.56
633.011	17.83
633.342	18.07
633.674	17.99
634.005	18.27
634.336	18
634.668	18.07
634.999	18.12
635.33	17.45
635.661	18.02
635.992	17.97
636.323	18.01
636.654	18.02
636.985	18
637.316	18.24
637.647	17.82
637.977	18.24
638.308	18.49
638.639	18.25
638.969	18.07
639.3	18.46
639.63	18.45
639.961	18.17
640.291	18.07
640.622	18.35
640.952	18.58
641.282	18.14
641.612	18.63
641.943	18
642.273	18.32
642.603	18.5
642.933	18.3
643.263	18.23
643.592	18.35
643.922	18.86
644.252	18.68
644.582	18.74
644.911	18.52
645.241	18.11
645.571	17.98
645.9	18.32
646.23	18.41
646.559	18.62
646.888	18.64
647.218	18.62
647.547	18.8
647.876	18.96
648.205	18.46
648.534	18.67
648.863	18.73
649.192	18.74
649.521	18.65
649.85	18.74
650.179	18.75
650.508	18.69
650.837	18.97
651.165	18.96
651.494	18.83
651.822	18.77
652.151	19
652.479	18.51
652.808	18.99
653.136	18.86
653.465	18.78
653.793	19.09
654.121	18.7
654.449	18.24
654.777	18.83
655.105	19.09
655.433	19.12
655.761	18.73
656.089	19.04
656.417	19.42
656.745	18.77
657.073	18.95
657.4	18.83
657.728	18.8
658.056	18.72
658.383	19.22
658.711	19.08
659.038	18.62
659.365	19.44
659.693	19.37
660.02	19.74
660.347	18.86
660.674	18.97
661.001	19.01
661.329	19.03
661.656	19.23
661.982	18.51
662.309	19.07
662.636	18.93
662.963	19.09
663.29	18.96
663.616	19.39
663.943	19.36
664.27	19.63
664.596	19.57
664.923	19.4
665.249	19.72
665.576	19.25
665.902	18.59
666.228	18.96
666.554	19.64
666.881	19.08
667.207	19.56
667.533	19.76
667.859	19.27
668.185	19.67
668.511	19.98
668.837	19.38
669.162	19.53
669.488	19.32
669.814	19.32
670.139	19.92
670.465	19.41
670.791	19.18
671.116	19.51
671.442	19.14
671.767	19.54
672.092	19.71
672.418	19.72
672.743	19.92
673.068	19.72
673.393	20.45
673.718	20.01
674.043	19.92
674.368	18.95
674.693	19.38
675.018	19.3
675.343	19.55
675.667	19.46
675.992	20.72
676.317	19.8
676.641	19.61
676.966	19.49
677.29	19.78
677.615	20.19
