Data from 0046_forehead_Reflection__2__178.txt Node

Date: Fri Nov 04 16:17:47 CDT 2022
User: ToomeyLab
Spectrometer: FLMS14357
Trigger mode: 0
Integration Time (sec): 1.000000E-2
Scans to average: 100
Electric dark correction enabled: true
Nonlinearity correction enabled: false
Boxcar width: 0
XAxis mode: Wavelengths
Number of Pixels in Spectrum: 2048
>>>>>Begin Spectral Data<<<<<
189.047	-215.19
189.435	-215.19
189.823	-215.19
190.211	71.47
190.599	44.97
190.987	309.11
191.375	520.17
191.763	16.7
192.151	-26.43
192.538	46.58
192.926	0.39
193.314	-3.54
193.702	11.77
194.089	30.11
194.477	38.74
194.864	126.19
195.252	84.07
195.639	20.55
196.027	116.81
196.414	-1643.24
196.801	127.9
197.189	403.46
197.576	179.09
197.963	294.68
198.351	-9.6
198.738	17.66
199.125	-4.24
199.512	-33.36
199.899	-25.97
200.286	-6.21
200.673	-33.25
201.06	39.3
201.447	-1.98
201.833	-1.02
202.22	22.04
202.607	18
202.994	41.79
203.38	46.21
203.767	28.47
204.154	36.48
204.54	-8.63
204.927	5.8
205.313	36.63
205.699	70.08
206.086	25.07
206.472	-15.05
206.858	31.09
207.245	6.07
207.631	19.24
208.017	22.19
208.403	23.88
208.789	32.12
209.175	24.27
209.561	-77.54
209.947	-31.51
210.333	-4.13
210.719	22.65
211.105	-31.66
211.491	6.82
211.876	18.14
212.262	2.42
212.648	-36.28
213.034	20.49
213.419	-9.14
213.805	25.56
214.19	-8.26
214.576	10.94
214.961	18.27
215.346	19.93
215.732	29.15
216.117	-12.99
216.502	-22.81
216.888	13.35
217.273	-1.54
217.658	11.62
218.043	5.34
218.428	22.23
218.813	4.76
219.198	26.82
219.583	12.73
219.968	31.75
220.353	0.84
220.738	-35.23
221.122	1.79
221.507	9.7
221.892	-12.61
222.276	5.1
222.661	13.37
223.046	13.76
223.43	1.47
223.815	-0.77
224.199	4.92
224.583	1.46
224.968	2.33
225.352	8.21
225.736	-4.84
226.121	-3.68
226.505	4.66
226.889	6.05
227.273	0.58
227.657	1.46
228.041	4.51
228.425	3.78
228.809	4.09
229.193	2.52
229.577	-0.24
229.961	2.43
230.344	1.72
230.728	1.46
231.112	1.42
231.495	1.29
231.879	1.96
232.263	1.68
232.646	2.6
233.03	0.24
233.413	-0.58
233.797	-0.15
234.18	0.93
234.563	3.82
234.946	1.17
235.33	3.55
235.713	1.7
236.096	1.51
236.479	1.91
236.862	2.55
237.245	2.22
237.628	2.13
238.011	0.51
238.394	1.84
238.777	1.87
239.16	2.98
239.543	1.45
239.925	1.35
240.308	3.02
240.691	2.87
241.073	2.2
241.456	1.06
241.838	0.9
242.221	1.16
242.603	1.72
242.986	1.51
243.368	1.78
243.75	1.13
244.133	1.98
244.515	1.97
244.897	1.78
245.279	1.85
245.661	1.62
246.043	2.35
246.425	1.68
246.807	1.09
247.189	1.3
247.571	2.23
247.953	1.75
248.335	1.65
248.717	1.65
249.098	1.58
249.48	1.72
249.862	1.88
250.243	1.54
250.625	1.41
251.006	1.48
251.388	2.09
251.769	2.44
252.151	2.6
252.532	1.09
252.913	1.43
253.295	2.03
253.676	1.52
254.057	1.7
254.438	1.37
254.819	2.19
255.2	1.66
255.581	1.58
255.962	2.52
256.343	1.41
256.724	1.71
257.105	0.96
257.486	2.61
257.867	3.22
258.247	2.33
258.628	1.9
259.009	1.12
259.389	1.85
259.77	2.8
260.15	1.85
260.531	2.25
260.911	1.77
261.292	1.6
261.672	1.65
262.052	1.81
262.432	1.77
262.813	1.59
263.193	1.4
263.573	1.66
263.953	1.32
264.333	1.96
264.713	2.46
265.093	1.6
265.473	2.11
265.853	1.88
266.233	1.94
266.612	1.59
266.992	2.2
267.372	0.61
267.752	1.97
268.131	2.01
268.511	1.93
268.89	2.08
269.27	1.7
269.649	2.06
270.029	1.64
270.408	1.74
270.787	1.94
271.167	1.9
271.546	2.69
271.925	1.55
272.304	1.37
272.683	1.06
273.062	2
273.441	2.01
273.82	1.65
274.199	2.2
274.578	1.43
274.957	1.46
275.336	1.54
275.715	1.62
276.093	1.88
276.472	1.36
276.851	1.14
277.229	1.81
277.608	1.28
277.986	2.06
278.365	2.2
278.743	2.1
279.122	2
279.5	1.43
279.878	2.3
280.257	1.78
280.635	1.47
281.013	1.17
281.391	2.25
281.769	1.94
282.147	1.58
282.525	1.86
282.903	2.37
283.281	2.41
283.659	1.94
284.037	1.73
284.415	1.72
284.792	1.86
285.17	1.61
285.548	2.25
285.925	2.21
286.303	1.95
286.68	1.98
287.058	1.88
287.435	1.77
287.813	1.83
288.19	1.89
288.567	1.97
288.945	2.2
289.322	2.1
289.699	2.08
290.076	2.04
290.453	1.34
290.83	1.9
291.207	1.75
291.584	2.49
291.961	2.27
292.338	2.42
292.715	2.19
293.092	2.16
293.469	2.26
293.845	2.41
294.222	2.14
294.599	2.15
294.975	2.66
295.352	1.98
295.728	2.25
296.105	1.95
296.481	2.55
296.858	2.29
297.234	2.84
297.61	2.49
297.986	2.01
298.363	2.38
298.739	2.49
299.115	2.61
299.491	2.61
299.867	2.3
300.243	2.38
300.619	2.74
300.995	3.01
301.371	2.91
301.746	2.73
302.122	2.88
302.498	2.66
302.874	2.63
303.249	2.48
303.625	2.7
304	2.44
304.376	2.79
304.751	2.53
305.127	2.45
305.502	2.88
305.878	3.04
306.253	3.15
306.628	2.74
307.003	2.82
307.378	3.42
307.754	3.22
308.129	2.85
308.504	2.93
308.879	3.56
309.254	3.18
309.629	3.43
310.003	3.42
310.378	3.74
310.753	3.46
311.128	3.22
311.502	3.3
311.877	3.42
312.252	3.19
312.626	3.46
313.001	3.38
313.375	3.66
313.75	3.52
314.124	3.29
314.498	3.6
314.873	3.7
315.247	4.3
315.621	3.84
315.995	3.89
316.369	3.86
316.743	4.34
317.117	3.7
317.491	3.85
317.865	3.94
318.239	4.3
318.613	4.48
318.987	4.09
319.361	4.21
319.734	4.29
320.108	4.12
320.482	3.58
320.855	4.35
321.229	4.49
321.602	4.16
321.976	4.13
322.349	4.95
322.723	4.8
323.096	4.57
323.469	4.17
323.843	4.44
324.216	4.74
324.589	5.03
324.962	4.94
325.335	4.87
325.708	4.4
326.081	4.89
326.454	4.67
326.827	4.96
327.2	4.52
327.573	4.73
327.945	5.33
328.318	4.7
328.691	5.1
329.063	4.8
329.436	5.25
329.809	4.98
330.181	5.13
330.553	4.96
330.926	5.3
331.298	5.54
331.671	4.94
332.043	5.28
332.415	5.29
332.787	4.99
333.159	4.94
333.532	4.86
333.904	5.54
334.276	5.2
334.648	5.71
335.02	5.17
335.391	5.87
335.763	5.44
336.135	5.61
336.507	5.55
336.879	5.41
337.25	5.66
337.622	6.42
337.993	5.79
338.365	5.75
338.736	5.99
339.108	5.97
339.479	6.17
339.851	5.86
340.222	5.68
340.593	6.01
340.964	6.47
341.336	6.19
341.707	5.41
342.078	6.16
342.449	6.04
342.82	6.3
343.191	5.84
343.562	6.03
343.933	6.5
344.303	6.36
344.674	6.44
345.045	6.19
345.416	6.08
345.786	6.37
346.157	6.36
346.527	6.74
346.898	6.84
347.268	6.25
347.639	6.79
348.009	6.85
348.38	6.68
348.75	6.71
349.12	6.3
349.49	6.63
349.861	6.53
350.231	6.71
350.601	6.46
350.971	6.59
351.341	6.95
351.711	7.03
352.081	7.07
352.45	6.75
352.82	7.17
353.19	6.66
353.56	7.2
353.929	7.05
354.299	7.29
354.669	7.08
355.038	7.91
355.408	7.37
355.777	7.65
356.147	7.16
356.516	7.6
356.885	7.11
357.254	7.67
357.624	7.78
357.993	7.45
358.362	7.49
358.731	7.58
359.1	7.75
359.469	7.51
359.838	7.72
360.207	7.51
360.576	8
360.945	7.79
361.314	7.95
361.682	7.79
362.051	8.06
362.42	8.08
362.788	7.95
363.157	7.92
363.525	8.14
363.894	8
364.262	8.26
364.631	8.22
364.999	8.04
365.367	8.12
365.735	8.71
366.104	8.12
366.472	8.58
366.84	7.99
367.208	8.75
367.576	8.58
367.944	8.69
368.312	8.5
368.68	8.6
369.048	8.63
369.416	8.66
369.783	8.31
370.151	8.36
370.519	8.9
370.886	8.97
371.254	8.88
371.621	8.62
371.989	8.84
372.356	9.11
372.724	8.73
373.091	8.87
373.458	9.03
373.826	9.08
374.193	8.95
374.56	9.12
374.927	9.44
375.294	9.18
375.661	9.09
376.028	9.08
376.395	9.42
376.762	9.49
377.129	9.43
377.496	9.45
377.863	9.6
378.229	9.75
378.596	9.35
378.963	9.48
379.329	9.65
379.696	9.45
380.062	9.73
380.429	9.59
380.795	9.63
381.161	9.79
381.528	9.78
381.894	9.77
382.26	9.72
382.626	9.62
382.993	9.89
383.359	9.95
383.725	9.9
384.091	9.69
384.457	9.98
384.823	10.06
385.188	10.08
385.554	10.28
385.92	10.06
386.286	10.47
386.651	10.34
387.017	10.55
387.383	10.44
387.748	10.22
388.114	10.49
388.479	10.78
388.845	10.68
389.21	10.61
389.575	10.98
389.94	10.82
390.306	10.79
390.671	10.68
391.036	10.86
391.401	10.75
391.766	10.53
392.131	10.8
392.496	10.87
392.861	10.95
393.226	11.05
393.591	10.98
393.956	10.96
394.32	11.04
394.685	11.18
395.05	11.22
395.414	11.18
395.779	11.45
396.143	11.09
396.508	11.31
396.872	11.5
397.236	11.51
397.601	11.36
397.965	11.57
398.329	11.55
398.694	11.77
399.058	11.79
399.422	11.65
399.786	11.47
400.15	11.81
400.514	11.62
400.878	11.82
401.242	11.86
401.605	11.82
401.969	11.98
402.333	11.78
402.697	11.99
403.06	12.29
403.424	11.98
403.787	12.11
404.151	12.34
404.514	12.24
404.878	12.03
405.241	12.33
405.604	12.13
405.968	12.17
406.331	12.2
406.694	12.22
407.057	12.2
407.42	12.39
407.783	12.35
408.146	12.48
408.509	12.49
408.872	12.43
409.235	12.43
409.598	12.54
409.961	12.7
410.323	12.68
410.686	12.71
411.049	12.37
411.411	12.7
411.774	12.91
412.136	12.86
412.499	12.85
412.861	12.9
413.223	12.73
413.586	12.67
413.948	13.16
414.31	12.95
414.672	12.87
415.035	13.32
415.397	13.07
415.759	13.18
416.121	13.13
416.483	13.49
416.845	13.34
417.206	13.13
417.568	13.28
417.93	13.32
418.292	13.25
418.653	13.17
419.015	13.24
419.377	13.34
419.738	13.23
420.1	13.18
420.461	13.37
420.822	13.28
421.184	13.41
421.545	13.2
421.906	13.38
422.267	13.11
422.629	13.36
422.99	13.28
423.351	13.25
423.712	13.36
424.073	13.43
424.434	13.44
424.795	13.55
425.155	13.72
425.516	13.56
425.877	13.54
426.238	13.64
426.598	13.66
426.959	13.61
427.32	13.72
427.68	13.74
428.041	13.82
428.401	14.03
428.761	14.09
429.122	14.11
429.482	14.29
429.842	14.03
430.202	14.49
430.563	14.18
430.923	14.42
431.283	14.32
431.643	14.43
432.003	14.61
432.363	14.56
432.722	14.49
433.082	14.46
433.442	14.53
433.802	14.5
434.161	14.5
434.521	14.62
434.881	14.6
435.24	14.56
435.6	14.77
435.959	14.66
436.319	14.67
436.678	14.81
437.037	14.84
437.396	14.9
437.756	14.98
438.115	14.94
438.474	15.07
438.833	14.97
439.192	15
439.551	15.03
439.91	15.17
440.269	15.01
440.628	15.09
440.987	15.11
441.345	15.01
441.704	15.08
442.063	15.18
442.421	15.22
442.78	15.09
443.138	15.1
443.497	15.12
443.855	15.23
444.214	15.49
444.572	15.51
444.93	15.48
445.288	15.64
445.647	15.51
446.005	15.5
446.363	15.56
446.721	15.49
447.079	15.49
447.437	15.43
447.795	15.46
448.153	15.34
448.51	15.46
448.868	15.49
449.226	15.46
449.584	15.55
449.941	15.67
450.299	15.62
450.656	15.86
451.014	16.08
451.371	16.03
451.729	16.08
452.086	16.1
452.443	16.04
452.801	16.12
453.158	16.18
453.515	16.25
453.872	16.24
454.229	16.41
454.586	16.19
454.943	16.55
455.3	16.35
455.657	16.51
456.014	16.4
456.371	16.75
456.727	16.6
457.084	16.74
457.441	16.45
457.797	16.68
458.154	16.6
458.51	16.72
458.867	16.67
459.223	16.86
459.58	16.82
459.936	16.7
460.292	16.76
460.648	16.8
461.005	16.76
461.361	16.62
461.717	16.61
462.073	16.58
462.429	16.64
462.785	16.72
463.141	16.89
463.496	16.69
463.852	17.14
464.208	17.14
464.564	17.18
464.919	17.36
465.275	17.3
465.631	17.55
465.986	17.4
466.342	17.37
466.697	17.36
467.052	17.4
467.408	17.45
467.763	17.55
468.118	17.67
468.473	17.52
468.829	17.54
469.184	17.6
469.539	17.46
469.894	17.73
470.249	17.59
470.603	17.78
470.958	17.71
471.313	17.77
471.668	17.78
472.023	17.73
472.377	17.86
472.732	18.03
473.086	17.94
473.441	17.86
473.795	18.1
474.15	18.12
474.504	18.03
474.859	18.11
475.213	18.32
475.567	18.01
475.921	18.18
476.275	18.14
476.63	18.27
476.984	18.26
477.338	18.29
477.692	18.39
478.045	18.22
478.399	18.33
478.753	18.48
479.107	18.47
479.461	18.49
479.814	18.55
480.168	18.46
480.521	18.47
480.875	18.49
481.228	18.55
481.582	18.56
481.935	18.55
482.289	18.61
482.642	18.73
482.995	18.79
483.348	18.63
483.701	18.51
484.055	18.49
484.408	18.38
484.761	18.15
485.114	18.06
485.466	17.98
485.819	17.82
486.172	18.02
486.525	18.08
486.878	18.17
487.23	18.28
487.583	18.38
487.936	18.5
488.288	18.62
488.641	18.47
488.993	18.38
489.345	18.33
489.698	18.42
490.05	18.48
490.402	18.5
490.754	18.55
491.107	18.69
491.459	18.82
491.811	18.95
492.163	19.16
492.515	19.17
492.866	18.99
493.218	18.88
493.57	18.7
493.922	18.8
494.274	18.87
494.625	19.09
494.977	19.26
495.328	19.35
495.68	19.52
496.031	19.63
496.383	19.76
496.734	19.78
497.086	19.81
497.437	19.94
497.788	19.99
498.139	19.81
498.49	19.79
498.842	19.83
499.193	19.85
499.544	19.9
499.894	19.84
500.245	19.83
500.596	19.72
500.947	20.01
501.298	20.13
501.648	20.13
501.999	20.42
502.35	20.35
502.7	20.3
503.051	20.46
503.401	20.35
503.752	20.52
504.102	20.66
504.452	20.64
504.803	20.6
505.153	20.57
505.503	20.7
505.853	20.77
506.203	20.68
506.553	20.74
506.903	20.81
507.253	20.73
507.603	20.7
507.953	20.77
508.303	20.79
508.652	20.9
509.002	21.07
509.352	20.96
509.701	20.86
510.051	20.83
510.4	20.92
510.75	20.93
511.099	20.95
511.449	20.96
511.798	20.86
512.147	21.04
512.496	20.94
512.846	21.09
513.195	21.12
513.544	21.13
513.893	21.17
514.242	21.17
514.591	21.08
514.939	21.22
515.288	21.38
515.637	21.42
515.986	21.51
516.334	21.3
516.683	21.67
517.032	21.58
517.38	21.62
517.729	21.58
518.077	21.7
518.426	21.83
518.774	21.77
519.122	21.59
519.47	21.58
519.819	21.53
520.167	21.5
520.515	21.39
520.863	21.49
521.211	21.65
521.559	21.47
521.907	21.71
522.255	21.8
522.602	21.91
522.95	21.98
523.298	21.95
523.645	22.13
523.993	22.09
524.341	22.3
524.688	22.3
525.036	22.11
525.383	22.24
525.73	22.4
526.078	22.38
526.425	22.31
526.772	22.15
527.119	22.2
527.466	22.05
527.814	21.97
528.161	22.01
528.508	22.07
528.854	22.02
529.201	22.08
529.548	22.15
529.895	21.95
530.242	21.74
530.588	21.77
530.935	21.85
531.282	21.92
531.628	21.98
531.975	22.01
532.321	22.17
532.667	22.25
533.014	22.53
533.36	22.58
533.706	22.56
534.052	22.69
534.399	22.64
534.745	22.47
535.091	22.34
535.437	22.38
535.783	22.51
536.129	22.55
536.474	22.66
536.82	22.79
537.166	22.95
537.512	23.08
537.857	23.06
538.203	22.86
538.549	22.9
538.894	23.03
539.239	23.01
539.585	23.17
539.93	23.21
540.276	23.36
540.621	23.4
540.966	23.56
541.311	23.53
541.656	23.54
542.001	23.72
542.346	23.39
542.691	23.19
543.036	23.02
543.381	22.95
543.726	23.08
544.071	23.07
544.415	23.14
544.76	23.22
545.105	23.35
545.449	23.5
545.794	23.63
546.138	23.72
546.483	23.79
546.827	23.83
547.171	23.87
547.516	23.91
547.86	23.89
548.204	23.99
548.548	23.84
548.892	24.16
549.236	24.05
549.58	24.07
549.924	24.13
550.268	24.56
550.612	24.4
550.956	24.43
551.3	24.55
551.643	24.7
551.987	24.58
552.33	24.66
552.674	24.65
553.017	24.91
553.361	24.96
553.704	24.96
554.048	24.73
554.391	24.96
554.734	24.83
555.077	25.04
555.42	24.9
555.764	24.95
556.107	24.93
556.45	25.17
556.793	25.24
557.135	25.22
557.478	25.14
557.821	25.25
558.164	25.29
558.507	25.31
558.849	25.42
559.192	25.43
559.534	25.3
559.877	25.54
560.219	25.72
560.562	25.71
560.904	25.65
561.246	25.45
561.589	25.9
561.931	25.48
562.273	25.72
562.615	25.65
562.957	25.68
563.299	25.72
563.641	25.85
563.983	25.72
564.325	25.71
564.667	25.77
565.008	25.79
565.35	26
565.692	26.02
566.033	26.11
566.375	26.04
566.716	26.32
567.058	26
567.399	25.92
567.741	26.17
568.082	25.99
568.423	25.95
568.764	25.99
569.105	26.2
569.447	26.09
569.788	26.24
570.129	26.31
570.47	26.38
570.811	26.52
571.151	26.22
571.492	26.23
571.833	26.21
572.174	26.33
572.514	26.53
572.855	26.4
573.195	26.35
573.536	26.42
573.876	26.44
574.217	26.38
574.557	26.45
574.898	26.52
575.238	26.46
575.578	26.81
575.918	26.71
576.258	26.67
576.598	26.75
576.938	26.79
577.278	26.65
577.618	26.85
577.958	26.8
578.298	27.03
578.638	26.92
578.977	27.11
579.317	26.96
579.657	27.09
579.996	27.26
580.336	27.11
580.675	27.23
581.014	27.4
581.354	27.18
581.693	27.61
582.032	27.34
582.372	27.45
582.711	27.43
583.05	27.56
583.389	27.27
583.728	27.55
584.067	27.57
584.406	27.57
584.745	27.84
585.083	27.61
585.422	27.56
585.761	27.86
586.1	27.72
586.438	27.63
586.777	27.87
587.115	27.78
587.454	28.26
587.792	27.98
588.13	28.05
588.469	28.07
588.807	28.29
589.145	28.01
589.483	28.01
589.821	28.04
590.159	27.97
590.497	28.17
590.835	28.28
591.173	27.82
591.511	28.26
591.849	28.21
592.187	28.04
592.524	28.29
592.862	28.02
593.2	28.23
593.537	28.26
593.875	28.38
594.212	28.4
594.55	28.19
594.887	28.59
595.224	28.21
595.561	28.46
595.899	28.45
596.236	28.6
596.573	28.33
596.91	28.44
597.247	28.53
597.584	28.59
597.921	28.72
598.258	28.46
598.594	28.39
598.931	28.47
599.268	28.54
599.604	28.56
599.941	28.63
600.277	28.82
600.614	28.59
600.95	28.84
601.287	28.93
601.623	28.89
601.959	29.02
602.296	29.12
602.632	29.22
602.968	29.15
603.304	29.09
603.64	29.33
603.976	28.72
604.312	29.1
604.648	29.22
604.984	28.94
605.319	29.35
605.655	29.05
605.991	29.12
606.326	29.05
606.662	29.01
606.998	28.8
607.333	29.24
607.668	29.17
608.004	29.23
608.339	28.96
608.674	29.37
609.01	29.52
609.345	29.49
609.68	29.56
610.015	29.61
610.35	29.43
610.685	29.71
611.02	29.71
611.355	29.49
611.689	29.71
612.024	29.74
612.359	29.51
612.694	29.64
613.028	29.66
613.363	29.97
613.697	29.88
614.032	29.95
614.366	29.91
614.7	30.14
615.035	30.33
615.369	30.19
615.703	30.58
616.037	30.01
616.371	30.31
616.705	30.45
617.039	30.73
617.373	30.36
617.707	30.13
618.041	30.27
618.375	30.48
618.709	30.58
619.042	30.29
619.376	30.37
619.71	30.36
620.043	30.77
620.377	30.57
620.71	30.39
621.043	30.38
621.377	30.34
621.71	30.28
622.043	30.63
622.376	30.61
622.709	30.36
623.043	30.97
623.376	31.13
623.709	30.71
624.041	30.71
624.374	30.59
624.707	30.82
625.04	31
625.373	31.16
625.705	30.68
626.038	30.77
626.37	30.76
626.703	31.13
627.035	31
627.368	31.01
627.7	30.64
628.032	30.95
628.365	30.83
628.697	31
629.029	30.73
629.361	31.1
629.693	30.94
630.025	31.06
630.357	30.92
630.689	31.19
631.021	31.2
631.353	30.94
631.684	31.09
632.016	31.06
632.348	30.96
632.679	31.02
633.011	31.2
633.342	31.46
633.674	31.31
634.005	31.44
634.336	31.36
634.668	31.81
634.999	31.43
635.33	31.03
635.661	31.26
635.992	31.65
636.323	31.52
636.654	31.34
636.985	31.63
637.316	31.47
637.647	31.38
637.977	31.71
638.308	31.93
638.639	31.88
638.969	31.53
639.3	31.81
639.63	31.93
639.961	31.83
640.291	31.81
640.622	31.68
640.952	32
641.282	32.08
641.612	31.87
641.943	31.88
642.273	32.05
642.603	32.16
642.933	31.84
643.263	32.16
643.592	31.95
643.922	32.58
644.252	31.76
644.582	31.98
644.911	32.16
645.241	32.04
645.571	32.22
645.9	32.18
646.23	32.64
646.559	32.69
646.888	32.1
647.218	32.36
647.547	32.51
647.876	32.75
648.205	31.97
648.534	32.28
648.863	32.41
649.192	32.54
649.521	32.52
649.85	33.02
650.179	32.32
650.508	32.42
650.837	32.56
651.165	32.6
651.494	32.8
651.822	32.34
652.151	32.56
652.479	32.56
652.808	32.88
653.136	32.24
653.465	32.58
653.793	33.13
654.121	32.59
654.449	32.66
654.777	32.95
655.105	32.42
655.433	33.27
655.761	32.86
656.089	33.2
656.417	32.74
656.745	33.23
657.073	32.67
657.4	32.96
657.728	33.2
658.056	32.94
658.383	33.1
658.711	32.73
659.038	33.22
659.365	33.54
659.693	33.41
660.02	33.4
660.347	32.83
660.674	33.23
661.001	32.9
661.329	32.98
661.656	33.26
661.982	32.9
662.309	33.61
662.636	33.46
662.963	33.03
663.29	33.55
663.616	33.64
663.943	33.07
664.27	33.5
664.596	33.84
664.923	33.06
665.249	33.88
665.576	33.35
665.902	33.74
666.228	33.45
666.554	33.69
666.881	33.31
667.207	33.28
667.533	33.19
667.859	33.47
668.185	33.82
668.511	33.49
668.837	33.35
669.162	33.67
669.488	33.41
669.814	33.5
670.139	33.26
670.465	33.75
670.791	34
671.116	33.74
671.442	34.16
671.767	33.98
672.092	33.23
672.418	33.94
672.743	34.38
673.068	33.89
673.393	34.54
