Data from 0046_forehead_Reflection__0__176.txt Node

Date: Fri Nov 04 16:17:21 CDT 2022
User: ToomeyLab
Spectrometer: FLMS14357
Trigger mode: 0
Integration Time (sec): 1.000000E-2
Scans to average: 100
Electric dark correction enabled: true
Nonlinearity correction enabled: false
Boxcar width: 0
XAxis mode: Wavelengths
Number of Pixels in Spectrum: 2048
>>>>>Begin Spectral Data<<<<<
189.047	142.47
189.435	142.47
189.823	142.47
190.211	543.35
190.599	50.13
190.987	337.3
191.375	275.74
191.763	115.79
192.151	73.56
192.538	43.43
192.926	-2.53
193.314	-57.96
193.702	60.96
194.089	67.92
194.477	68.13
194.864	179.66
195.252	87.25
195.639	19.04
196.027	119.93
196.414	12.97
196.801	62.46
197.189	-445.98
197.576	46.9
197.963	-3.11
198.351	-6.89
198.738	30.05
199.125	5.91
199.512	-39.1
199.899	11.23
200.286	12.84
200.673	-5.22
201.06	-22.09
201.447	-18.33
201.833	6.16
202.22	-1.34
202.607	28.6
202.994	27.32
203.38	50.69
203.767	-6.8
204.154	48.22
204.54	28.68
204.927	-7.61
205.313	27.27
205.699	16.48
206.086	12.37
206.472	14.32
206.858	-0.42
207.245	-4.93
207.631	21.02
208.017	14.37
208.403	-25.93
208.789	27.7
209.175	-7.8
209.561	-95.47
209.947	1.82
210.333	22.03
210.719	7.79
211.105	-9.82
211.491	56.65
211.876	-6.86
212.262	-17.42
212.648	10.78
213.034	11.8
213.419	18.67
213.805	13.02
214.19	3.48
214.576	-21.47
214.961	37.72
215.346	-4.95
215.732	-0.54
216.117	-21.11
216.502	14.16
216.888	-31.66
217.273	-3.04
217.658	3.01
218.043	-30.16
218.428	16.7
218.813	11.35
219.198	-1.41
219.583	-20.06
219.968	22.12
220.353	-35.66
220.738	-16.71
221.122	-19.48
221.507	3.77
221.892	-14.98
222.276	-4.89
222.661	8.95
223.046	-7.57
223.43	3.82
223.815	-6.66
224.199	10.11
224.583	0.54
224.968	-2.07
225.352	3.93
225.736	0.77
226.121	-6.81
226.505	4.31
226.889	0.18
227.273	-2.05
227.657	-0.98
228.041	2.85
228.425	0.57
228.809	2.03
229.193	0.15
229.577	1.04
229.961	2.23
230.344	3.35
230.728	2.22
231.112	1.7
231.495	1.41
231.879	2.38
232.263	1.44
232.646	1.31
233.03	0.99
233.413	0.37
233.797	0.11
234.18	1.7
234.563	1.4
234.946	-0.12
235.33	1.83
235.713	2.52
236.096	2.57
236.479	1.05
236.862	2.4
237.245	-0.4
237.628	2.29
238.011	0.81
238.394	2.24
238.777	2.33
239.16	0.68
239.543	2.35
239.925	2.45
240.308	3.39
240.691	2.04
241.073	1.65
241.456	1.59
241.838	2.35
242.221	2.09
242.603	1.03
242.986	1.48
243.368	2.32
243.75	1.88
244.133	2.78
244.515	2.34
244.897	2.2
245.279	2.38
245.661	2.65
246.043	2.11
246.425	1.84
246.807	3.13
247.189	2.15
247.571	2.85
247.953	2.61
248.335	2.21
248.717	2.35
249.098	2.29
249.48	2.43
249.862	2.52
250.243	2.24
250.625	1.9
251.006	1.89
251.388	3.12
251.769	3.18
252.151	3.26
252.532	2.17
252.913	1.66
253.295	2.55
253.676	2.87
254.057	2.33
254.438	2.25
254.819	2.39
255.2	1.52
255.581	2.51
255.962	2.48
256.343	1.76
256.724	2.54
257.105	1.68
257.486	3.28
257.867	3.15
258.247	2.97
258.628	2.81
259.009	2.06
259.389	2.37
259.77	2.89
260.15	2.24
260.531	2.42
260.911	2.2
261.292	2.34
261.672	2.2
262.052	2.33
262.432	2.49
262.813	2.31
263.193	1.84
263.573	2.56
263.953	1.91
264.333	2.76
264.713	2.69
265.093	2.67
265.473	2.65
265.853	1.69
266.233	1.99
266.612	2.44
266.992	2.93
267.372	1.58
267.752	2.33
268.131	2.69
268.511	2.47
268.89	2.52
269.27	2.54
269.649	2.07
270.029	2.37
270.408	2.03
270.787	2.61
271.167	2.51
271.546	3.07
271.925	2.36
272.304	2.5
272.683	2.33
273.062	2.46
273.441	2.48
273.82	2.22
274.199	2.4
274.578	2.37
274.957	2.16
275.336	2.06
275.715	1.97
276.093	2.32
276.472	1.88
276.851	2.1
277.229	2.02
277.608	2.46
277.986	2.33
278.365	2.2
278.743	2.09
279.122	2.14
279.5	2.58
279.878	2.32
280.257	2.49
280.635	2.1
281.013	2.51
281.391	2.64
281.769	2.7
282.147	2.17
282.525	2.22
282.903	2.26
283.281	3.14
283.659	2.35
284.037	2.41
284.415	2.19
284.792	2.29
285.17	2.21
285.548	2.39
285.925	2.4
286.303	2.78
286.68	2.86
287.058	2.47
287.435	2.39
287.813	2.28
288.19	2.41
288.567	2.47
288.945	2.52
289.322	2.97
289.699	2.63
290.076	2.81
290.453	2.07
290.83	2.52
291.207	2.52
291.584	2.39
291.961	2.52
292.338	2.87
292.715	3.19
293.092	2.81
293.469	3.19
293.845	3.03
294.222	2.45
294.599	2.72
294.975	2.71
295.352	3.03
295.728	2.97
296.105	3.21
296.481	2.98
296.858	2.98
297.234	3.45
297.61	3.5
297.986	2.81
298.363	2.81
298.739	3.11
299.115	3.35
299.491	3.1
299.867	3.19
300.243	3.07
300.619	3.49
300.995	3.51
301.371	3.63
301.746	3.21
302.122	3.4
302.498	3.37
302.874	3.64
303.249	3.35
303.625	3.48
304	3.59
304.376	3.05
304.751	3.8
305.127	3.23
305.502	3.98
305.878	3.65
306.253	3.7
306.628	3.5
307.003	3.39
307.378	3.64
307.754	3.42
308.129	3.69
308.504	3.85
308.879	4.35
309.254	4.12
309.629	4.37
310.003	3.81
310.378	4.37
310.753	4.22
311.128	3.79
311.502	4.04
311.877	4.31
312.252	3.97
312.626	4.28
313.001	4.17
313.375	4.11
313.75	4.19
314.124	3.84
314.498	4.29
314.873	4.17
315.247	4.44
315.621	4.18
315.995	4.29
316.369	4.06
316.743	4.48
317.117	4.83
317.491	4.72
317.865	4.29
318.239	4.72
318.613	4.99
318.987	4.87
319.361	4.49
319.734	5.03
320.108	4.83
320.482	4.67
320.855	5.09
321.229	4.94
321.602	4.67
321.976	5.2
322.349	5.45
322.723	4.64
323.096	5.55
323.469	4.98
323.843	4.98
324.216	4.97
324.589	4.67
324.962	5.37
325.335	5.09
325.708	5
326.081	5.44
326.454	5.11
326.827	5.34
327.2	5
327.573	5.28
327.945	5.27
328.318	4.97
328.691	5.07
329.063	5.3
329.436	5.59
329.809	5.11
330.181	5.28
330.553	5.2
330.926	5.53
331.298	5.54
331.671	5.11
332.043	5.71
332.415	5.59
332.787	5.44
333.159	5.61
333.532	5.19
333.904	5.71
334.276	5.29
334.648	5.75
335.02	5.42
335.391	6.06
335.763	5.6
336.135	5.91
336.507	5.89
336.879	5.79
337.25	6.09
337.622	5.98
337.993	5.92
338.365	5.68
338.736	6.59
339.108	6.02
339.479	5.7
339.851	5.81
340.222	5.77
340.593	6.61
340.964	5.94
341.336	5.57
341.707	5.75
342.078	6.46
342.449	6.34
342.82	5.92
343.191	5.76
343.562	5.99
343.933	6.25
344.303	6.58
344.674	6.32
345.045	6.07
345.416	5.52
345.786	6.21
346.157	6.65
346.527	6.41
346.898	6.4
347.268	6.56
347.639	6.19
348.009	6.38
348.38	6.47
348.75	6.2
349.12	6.36
349.49	6.58
349.861	6.32
350.231	6.59
350.601	6.21
350.971	6.65
351.341	7.02
351.711	6.52
352.081	6.34
352.45	6.38
352.82	6.77
353.19	6.81
353.56	6.73
353.929	6.47
354.299	7.34
354.669	7.07
355.038	7.1
355.408	6.49
355.777	6.7
356.147	6.66
356.516	6.56
356.885	6.81
357.254	6.97
357.624	6.98
357.993	6.94
358.362	6.87
358.731	7.03
359.1	6.96
359.469	7.08
359.838	7.12
360.207	6.92
360.576	7.12
360.945	7.36
361.314	7.5
361.682	7.1
362.051	6.86
362.42	7.22
362.788	7.03
363.157	7.14
363.525	7.12
363.894	7.22
364.262	7.27
364.631	7.4
364.999	7.31
365.367	7.2
365.735	7.55
366.104	7.27
366.472	7.37
366.84	6.86
367.208	7.59
367.576	7.26
367.944	7.39
368.312	7.3
368.68	7.37
369.048	7.4
369.416	7.37
369.783	7.16
370.151	7.45
370.519	7.88
370.886	7.56
371.254	7.4
371.621	7.74
371.989	7.75
372.356	7.79
372.724	7.91
373.091	7.79
373.458	7.81
373.826	7.99
374.193	7.84
374.56	7.69
374.927	8.1
375.294	7.58
375.661	8.02
376.028	7.64
376.395	7.86
376.762	7.99
377.129	8.05
377.496	8.09
377.863	8.02
378.229	7.98
378.596	8.08
378.963	7.93
379.329	8.19
379.696	7.86
380.062	8.34
380.429	8.27
380.795	8.26
381.161	8.02
381.528	7.85
381.894	7.88
382.26	8.39
382.626	8.11
382.993	8.26
383.359	8.28
383.725	8.08
384.091	8.3
384.457	8.52
384.823	8.38
385.188	8.49
385.554	8.31
385.92	8.19
386.286	8.52
386.651	8.48
387.017	8.34
387.383	8.41
387.748	8.5
388.114	8.23
388.479	8.93
388.845	8.78
389.21	8.79
389.575	8.85
389.94	8.59
390.306	8.62
390.671	8.58
391.036	8.49
391.401	8.85
391.766	8.47
392.131	8.65
392.496	8.62
392.861	8.63
393.226	8.75
393.591	8.84
393.956	8.87
394.32	8.93
394.685	8.7
395.05	8.8
395.414	8.88
395.779	8.84
396.143	8.78
396.508	9.03
396.872	9.01
397.236	9.06
397.601	9.01
397.965	8.93
398.329	9
398.694	9.13
399.058	9.03
399.422	9.15
399.786	9.05
400.15	9.07
400.514	9.22
400.878	8.93
401.242	9.14
401.605	8.91
401.969	9.37
402.333	9.21
402.697	9.2
403.06	9.16
403.424	9.18
403.787	9.29
404.151	9.35
404.514	9.38
404.878	9.21
405.241	9.34
405.604	9.4
405.968	9.33
406.331	9.42
406.694	9.27
407.057	9.41
407.42	9.36
407.783	9.33
408.146	9.4
408.509	9.55
408.872	9.39
409.235	9.33
409.598	9.55
409.961	9.52
410.323	9.57
410.686	9.52
411.049	9.6
411.411	9.54
411.774	9.51
412.136	9.68
412.499	9.6
412.861	9.65
413.223	9.71
413.586	9.84
413.948	9.81
414.31	9.7
414.672	9.98
415.035	9.81
415.397	9.74
415.759	9.91
416.121	9.68
416.483	9.92
416.845	9.74
417.206	9.73
417.568	9.98
417.93	9.86
418.292	9.82
418.653	9.94
419.015	9.64
419.377	9.79
419.738	9.81
420.1	9.91
420.461	9.83
420.822	9.71
421.184	9.87
421.545	9.75
421.906	9.83
422.267	9.77
422.629	9.91
422.99	9.66
423.351	9.77
423.712	9.91
424.073	9.89
424.434	9.82
424.795	9.96
425.155	9.91
425.516	9.96
425.877	9.92
426.238	9.92
426.598	10.01
426.959	9.91
427.32	9.9
427.68	10.06
428.041	10.08
428.401	10.12
428.761	10.16
429.122	10.17
429.482	10.34
429.842	10.09
430.202	10.57
430.563	10.48
430.923	10.46
431.283	10.09
431.643	10.49
432.003	10.47
432.363	10.44
432.722	10.42
433.082	10.44
433.442	10.3
433.802	10.46
434.161	10.33
434.521	10.37
434.881	10.37
435.24	10.3
435.6	10.44
435.959	10.27
436.319	10.44
436.678	10.48
437.037	10.73
437.396	10.72
437.756	10.66
438.115	10.51
438.474	10.6
438.833	10.74
439.192	10.64
439.551	10.56
439.91	10.71
440.269	10.49
440.628	10.55
440.987	10.69
441.345	10.7
441.704	10.61
442.063	10.61
442.421	10.67
442.78	10.74
443.138	10.7
443.497	10.71
443.855	10.65
444.214	10.81
444.572	10.83
444.93	10.83
445.288	11.03
445.647	10.88
446.005	10.84
446.363	10.88
446.721	10.75
447.079	10.85
447.437	10.71
447.795	10.82
448.153	10.72
448.51	10.8
448.868	10.78
449.226	10.85
449.584	10.83
449.941	10.83
450.299	10.85
450.656	10.98
451.014	11.06
451.371	11.15
451.729	11.05
452.086	11.12
452.443	11.15
452.801	11.26
453.158	11.09
453.515	11.26
453.872	11.08
454.229	11.2
454.586	11.22
454.943	11.26
455.3	11.26
455.657	11.05
456.014	11.35
456.371	11.43
456.727	11.45
457.084	11.39
457.441	11.37
457.797	11.3
458.154	11.42
458.51	11.57
458.867	11.54
459.223	11.43
459.58	11.64
459.936	11.44
460.292	11.49
460.648	11.46
461.005	11.39
461.361	11.33
461.717	11.25
462.073	11.35
462.429	11.32
462.785	11.35
463.141	11.41
463.496	11.43
463.852	11.5
464.208	11.51
464.564	11.44
464.919	11.86
465.275	11.73
465.631	11.79
465.986	11.88
466.342	11.77
466.697	11.65
467.052	11.57
467.408	11.65
467.763	11.85
468.118	11.89
468.473	11.77
468.829	11.7
469.184	11.67
469.539	11.7
469.894	11.82
470.249	11.85
470.603	11.96
470.958	11.66
471.313	11.8
471.668	11.75
472.023	11.75
472.377	11.9
472.732	12.01
473.086	11.93
473.441	11.87
473.795	11.98
474.15	12.03
474.504	11.91
474.859	11.96
475.213	12.02
475.567	11.92
475.921	12.03
476.275	12.14
476.63	12.12
476.984	12.17
477.338	11.97
477.692	12.14
478.045	12.2
478.399	12.03
478.753	12.24
479.107	12.13
479.461	12.2
479.814	12.31
480.168	12.22
480.521	12.14
480.875	12.19
481.228	12.35
481.582	12.1
481.935	12.16
482.289	12.26
482.642	12.3
482.995	12.29
483.348	12.19
483.701	12.28
484.055	12.13
484.408	12.09
484.761	12.08
485.114	11.92
485.466	11.8
485.819	11.76
486.172	11.79
486.525	11.83
486.878	11.88
487.23	11.92
487.583	11.93
487.936	12.18
488.288	12.11
488.641	12.11
488.993	12.08
489.345	12.05
489.698	12.02
490.05	12.09
490.402	12.08
490.754	12.19
491.107	12.16
491.459	12.31
491.811	12.36
492.163	12.53
492.515	12.46
492.866	12.34
493.218	12.3
493.57	12.24
493.922	12.29
494.274	12.3
494.625	12.31
494.977	12.44
495.328	12.45
495.68	12.53
496.031	12.6
496.383	12.75
496.734	12.81
497.086	13
497.437	12.91
497.788	12.89
498.139	12.74
498.49	12.8
498.842	12.86
499.193	12.84
499.544	12.9
499.894	12.81
500.245	12.85
500.596	12.84
500.947	12.94
501.298	12.95
501.648	13.1
501.999	13.04
502.35	13.05
502.7	12.97
503.051	13.28
503.401	13.12
503.752	13.19
504.102	13.15
504.452	13.18
504.803	13.2
505.153	13.24
505.503	13.24
505.853	13.1
506.203	13.2
506.553	13.35
506.903	13.31
507.253	13.26
507.603	13.33
507.953	13.35
508.303	13.3
508.652	13.22
509.002	13.48
509.352	13.42
509.701	13.35
510.051	13.29
510.4	13.34
510.75	13.33
511.099	13.29
511.449	13.32
511.798	13.36
512.147	13.29
512.496	13.31
512.846	13.31
513.195	13.39
513.544	13.34
513.893	13.42
514.242	13.39
514.591	13.42
514.939	13.51
515.288	13.44
515.637	13.48
515.986	13.52
516.334	13.49
516.683	13.58
517.032	13.56
517.38	13.59
517.729	13.59
518.077	13.65
518.426	13.8
518.774	13.72
519.122	13.57
519.47	13.67
519.819	13.66
520.167	13.61
520.515	13.53
520.863	13.45
521.211	13.56
521.559	13.67
521.907	13.55
522.255	13.67
522.602	13.74
522.95	13.71
523.298	13.96
523.645	13.77
523.993	13.81
524.341	13.89
524.688	13.97
525.036	13.85
525.383	14.05
525.73	13.89
526.078	13.96
526.425	13.93
526.772	13.87
527.119	13.94
527.466	13.85
527.814	13.72
528.161	13.82
528.508	13.86
528.854	13.87
529.201	13.91
529.548	13.74
529.895	13.78
530.242	13.53
530.588	13.59
530.935	13.62
531.282	13.68
531.628	13.62
531.975	13.72
532.321	13.78
532.667	13.89
533.014	14.07
533.36	14.02
533.706	14.12
534.052	14.16
534.399	14.06
534.745	13.99
535.091	13.89
535.437	13.9
535.783	13.91
536.129	13.98
536.474	14.07
536.82	14.04
537.166	14.18
537.512	14.25
537.857	14.29
538.203	14.29
538.549	14.06
538.894	14.2
539.239	14.36
539.585	14.24
539.93	14.39
540.276	14.34
540.621	14.43
540.966	14.57
541.311	14.47
541.656	14.62
542.001	14.52
542.346	14.57
542.691	14.46
543.036	14.15
543.381	14.24
543.726	14.27
544.071	14.28
544.415	14.31
544.76	14.38
545.105	14.34
545.449	14.46
545.794	14.54
546.138	14.55
546.483	14.54
546.827	14.67
547.171	14.73
547.516	14.61
547.86	14.67
548.204	14.7
548.548	14.69
548.892	14.73
549.236	14.78
549.58	14.71
549.924	14.8
550.268	14.99
550.612	14.76
550.956	14.91
551.3	14.91
551.643	15.05
551.987	15.11
552.33	14.91
552.674	15.04
553.017	15.29
553.361	15.35
553.704	15.26
554.048	15.11
554.391	15.07
554.734	15.2
555.077	15.26
555.42	15.12
555.764	15.34
556.107	15.13
556.45	15.4
556.793	15.37
557.135	15.33
557.478	15.26
557.821	15.38
558.164	15.58
558.507	15.29
558.849	15.38
559.192	15.56
559.534	15.37
559.877	15.4
560.219	15.43
560.562	15.69
560.904	15.63
561.246	15.47
561.589	15.61
561.931	15.55
562.273	15.57
562.615	15.57
562.957	15.55
563.299	15.71
563.641	15.59
563.983	15.68
564.325	15.72
564.667	15.63
565.008	15.73
565.35	15.66
565.692	15.87
566.033	15.7
566.375	15.74
566.716	15.85
567.058	15.75
567.399	15.84
567.741	15.85
568.082	15.82
568.423	15.69
568.764	15.78
569.105	15.83
569.447	15.83
569.788	15.82
570.129	15.96
570.47	15.87
570.811	15.92
571.151	15.8
571.492	16.11
571.833	15.88
572.174	15.95
572.514	15.78
572.855	15.8
573.195	15.93
573.536	15.96
573.876	16
574.217	16.01
574.557	15.96
574.898	15.89
575.238	16.07
575.578	16.28
575.918	16.05
576.258	15.95
576.598	16.11
576.938	16.04
577.278	16.08
577.618	16.03
577.958	16.11
578.298	16.2
578.638	16.09
578.977	16.41
579.317	16.43
579.657	16.2
579.996	16.13
580.336	16.29
580.675	16.19
581.014	16.35
581.354	16.45
581.693	16.51
582.032	16.39
582.372	16.65
582.711	16.46
583.05	16.6
583.389	16.31
583.728	16.38
584.067	16.55
584.406	16.14
584.745	16.65
585.083	16.44
585.422	16.57
585.761	16.54
586.1	16.71
586.438	16.35
586.777	16.58
587.115	16.39
587.454	16.86
587.792	16.68
588.13	16.74
588.469	16.59
588.807	16.78
589.145	16.68
589.483	16.62
589.821	16.88
590.159	16.6
590.497	16.73
590.835	16.81
591.173	16.58
591.511	16.78
591.849	16.86
592.187	16.72
592.524	16.84
592.862	16.7
593.2	16.75
593.537	16.85
593.875	16.64
594.212	16.75
594.55	16.81
594.887	17.05
595.224	16.98
595.561	16.71
595.899	17.01
596.236	16.96
596.573	17.18
596.91	16.88
597.247	17.02
597.584	16.89
597.921	16.96
598.258	16.86
598.594	16.83
598.931	16.96
599.268	17.17
599.604	16.96
599.941	17.07
600.277	17.01
600.614	17.06
600.95	17.18
601.287	17.1
601.623	17.01
601.959	17.24
602.296	17.35
602.632	17.08
602.968	17.26
603.304	17.33
603.64	17.36
603.976	17.08
604.312	17.33
604.648	17.03
604.984	17.24
605.319	17.23
605.655	17.06
605.991	17.44
606.326	17.09
606.662	17.15
606.998	17.12
607.333	17.26
607.668	17.5
608.004	17.1
608.339	17.33
608.674	17.34
609.01	17.4
609.345	17.28
609.68	17.58
610.015	17.43
610.35	17.3
610.685	17.56
611.02	17.43
611.355	17.58
611.689	17.6
612.024	17.45
612.359	17.6
612.694	17.36
613.028	17.5
613.363	17.93
613.697	17.26
614.032	17.5
614.366	17.46
614.7	17.55
615.035	17.76
615.369	17.85
615.703	18.04
616.037	17.73
616.371	17.66
616.705	17.94
617.039	17.82
617.373	17.88
617.707	17.85
618.041	17.51
618.375	17.72
618.709	18.02
619.042	17.75
619.376	17.7
619.71	17.87
620.043	18.18
620.377	17.99
620.71	18.09
621.043	17.74
621.377	18.33
621.71	17.92
622.043	17.94
622.376	17.92
622.709	17.91
623.043	17.96
623.376	18.42
623.709	18.18
624.041	17.92
624.374	17.98
624.707	17.98
625.04	18.04
625.373	18.11
625.705	17.88
626.038	17.82
626.37	18.23
626.703	18.16
627.035	17.96
627.368	18.13
627.7	18.18
628.032	18.3
628.365	18.35
628.697	18.15
629.029	17.99
629.361	18.22
629.693	18.18
630.025	18.23
630.357	18.21
630.689	18.29
631.021	18.23
631.353	18.17
631.684	18.39
632.016	18.32
632.348	18.36
632.679	18.24
633.011	18.46
633.342	18.4
633.674	18.04
634.005	18.58
634.336	18.6
634.668	18.84
634.999	18.49
635.33	18.11
635.661	18.76
635.992	18.72
636.323	18.46
636.654	18.29
636.985	18.63
637.316	18.18
637.647	17.96
637.977	18.64
638.308	18.79
638.639	18.31
638.969	18.24
639.3	18.76
639.63	18.5
639.961	18.68
640.291	18.95
640.622	18.43
640.952	18.59
641.282	18.56
641.612	18.61
641.943	18.59
642.273	18.71
642.603	18.82
642.933	18.57
643.263	18.33
643.592	18.43
643.922	19.14
644.252	18.41
644.582	18.68
644.911	18.75
645.241	18.35
645.571	18.65
645.9	18.66
646.23	18.75
646.559	18.75
646.888	18.75
647.218	18.8
647.547	19.14
647.876	19.04
648.205	18.57
648.534	19.26
648.863	19.02
649.192	18.85
649.521	18.71
649.85	19.57
650.179	18.99
650.508	19.01
650.837	19.19
651.165	18.9
651.494	18.99
651.822	18.4
652.151	19.32
652.479	18.98
652.808	18.92
653.136	19.01
653.465	18.96
653.793	19.21
654.121	18.98
654.449	18.6
654.777	18.73
655.105	18.56
655.433	18.95
655.761	18.86
656.089	19.44
656.417	19.31
656.745	19.03
657.073	18.81
657.4	19.28
657.728	19.25
658.056	19.05
658.383	18.97
658.711	18.79
659.038	19.2
659.365	19.74
659.693	19.7
660.02	19.31
660.347	18.87
660.674	19.56
661.001	19.05
661.329	19.35
661.656	19.05
661.982	18.94
662.309	19.47
662.636	19.64
662.963	19.17
663.29	18.92
663.616	19.72
663.943	19.29
664.27	19.24
664.596	19.6
664.923	19.55
665.249	19.34
665.576	19.08
665.902	18.76
666.228	19.27
666.554	19.69
666.881	18.86
667.207	19.34
667.533	19.67
667.859	19.77
668.185	19.3
668.511	19.93
668.837	19.52
669.162	19.81
669.488	19.21
669.814	19.58
670.139	19.11
670.465	19.33
670.791	20.22
671.116	19.48
671.442	19.38
671.767	19.73
672.092	19.36
672.418	19.39
672.743	20.01
673.068	19.29
673.393	20.36
673.718	19.55
674.043	19.82
674.368	19.11
674.693	19.7
675.018	19.35
675.343	19.84
