Data from 438_forehead_Reflection__3__150.txt Node

Date: Tue Dec 12 19:36:21 CST 2023
User: ToomeyLab
Spectrometer: FLMS14357
Trigger mode: 0
Integration Time (sec): 1.000000E-2
Scans to average: 100
Electric dark correction enabled: true
Nonlinearity correction enabled: false
Boxcar width: 0
XAxis mode: Wavelengths
Number of Pixels in Spectrum: 2048
>>>>>Begin Spectral Data<<<<<
189.047	188.71
189.435	188.71
189.823	188.71
190.211	48.24
190.599	309.57
190.987	93.48
191.375	73.76
191.763	93.86
192.151	44.97
192.538	-229.69
192.926	104.08
193.314	-301.07
193.702	14.39
194.089	13.01
194.477	43.23
194.864	99.41
195.252	193.81
195.639	46.71
196.027	1451.78
196.414	17.69
196.801	-208.58
197.189	-97.2
197.576	-153.11
197.963	86.38
198.351	38.11
198.738	21.66
199.125	25.7
199.512	24.61
199.899	-6.34
200.286	24.04
200.673	1.61
201.06	23.78
201.447	-39.86
201.833	36.48
202.22	-22.42
202.607	-89.61
202.994	-40.06
203.38	42.05
203.767	8.25
204.154	-19.42
204.54	34.11
204.927	10.78
205.313	19.26
205.699	35.09
206.086	26.31
206.472	31.44
206.858	62.03
207.245	16.63
207.631	28.54
208.017	4.1
208.403	9.29
208.789	-6.6
209.175	-19.47
209.561	52.32
209.947	-24.76
210.333	28.73
210.719	36.16
211.105	7.22
211.491	42.34
211.876	-34.48
212.262	40.84
212.648	-45.49
213.034	-70.72
213.419	-9.88
213.805	32.06
214.19	41.87
214.576	26.41
214.961	28.06
215.346	24.98
215.732	25.79
216.117	0.84
216.502	-34.27
216.888	-16.16
217.273	-19.9
217.658	-66.66
218.043	8.35
218.428	15.95
218.813	16.46
219.198	9.85
219.583	16.17
219.968	19.12
220.353	-11.82
220.738	8.57
221.122	23.93
221.507	-1.97
221.892	6.29
222.276	25.25
222.661	11.46
223.046	9.16
223.43	-9.96
223.815	-3.63
224.199	12.74
224.583	1.32
224.968	-4.85
225.352	6.87
225.736	5.08
226.121	5.12
226.505	5.44
226.889	-1.53
227.273	4.42
227.657	11.12
228.041	6.67
228.425	5.4
228.809	7.13
229.193	3.58
229.577	5.43
229.961	3.23
230.344	4.09
230.728	4.22
231.112	4.64
231.495	4.11
231.879	5.34
232.263	3.65
232.646	4.22
233.03	4.34
233.413	2.54
233.797	5.52
234.18	2.42
234.563	4.27
234.946	6.12
235.33	4.69
235.713	3.48
236.096	2.91
236.479	4.36
236.862	4.59
237.245	3.13
237.628	5.35
238.011	3.93
238.394	2.75
238.777	4.75
239.16	4.2
239.543	3.93
239.925	5.3
240.308	3.83
240.691	4.22
241.073	5.48
241.456	4.65
241.838	4.63
242.221	4.94
242.603	4.16
242.986	4.13
243.368	4.43
243.75	3.88
244.133	4.43
244.515	4.46
244.897	4.11
245.279	4.93
245.661	3.45
246.043	3.3
246.425	6.11
246.807	4.09
247.189	4.28
247.571	4.93
247.953	3.77
248.335	4.44
248.717	4.04
249.098	4.29
249.48	4.12
249.862	4.03
250.243	4.4
250.625	4.53
251.006	4.59
251.388	5.09
251.769	5.08
252.151	4.23
252.532	4.73
252.913	5.7
253.295	5.25
253.676	3.95
254.057	4.05
254.438	4.7
254.819	4.17
255.2	3.66
255.581	5.07
255.962	4.47
256.343	3.98
256.724	3.71
257.105	4.55
257.486	3.5
257.867	3.77
258.247	4.06
258.628	4.62
259.009	4.16
259.389	4.97
259.77	4.36
260.15	4.36
260.531	4.99
260.911	4.56
261.292	4.03
261.672	4.12
262.052	4.26
262.432	4.27
262.813	4.4
263.193	4.62
263.573	4.56
263.953	5.49
264.333	5.51
264.713	4.48
265.093	4.69
265.473	5.08
265.853	4.5
266.233	4.22
266.612	3.83
266.992	4.46
267.372	5.09
267.752	4.93
268.131	4.02
268.511	4.39
268.89	3.94
269.27	3.88
269.649	4.08
270.029	3.79
270.408	4.21
270.787	4.75
271.167	4.8
271.546	4.33
271.925	4.22
272.304	4.62
272.683	3.61
273.062	4.45
273.441	4.31
273.82	3.86
274.199	4.19
274.578	4.21
274.957	4.13
275.336	4.09
275.715	4.72
276.093	4.12
276.472	5.13
276.851	4.39
277.229	3.68
277.608	4.37
277.986	3.73
278.365	4.21
278.743	4.39
279.122	4.64
279.5	3.77
279.878	2.95
280.257	3.78
280.635	3.77
281.013	3.99
281.391	4.86
281.769	3.7
282.147	4.22
282.525	3.79
282.903	4.11
283.281	4.48
283.659	4.62
284.037	4.74
284.415	4.19
284.792	4.36
285.17	4
285.548	4.75
285.925	4.19
286.303	4.33
286.68	4.37
287.058	4.25
287.435	4.55
287.813	3.88
288.19	4.3
288.567	4.46
288.945	4.53
289.322	4.42
289.699	4.67
290.076	4.68
290.453	4.87
290.83	4.66
291.207	4.78
291.584	4.76
291.961	4.73
292.338	4.8
292.715	5.09
293.092	4.8
293.469	5.15
293.845	5.03
294.222	4.62
294.599	4.96
294.975	4.99
295.352	5.59
295.728	4.91
296.105	5.7
296.481	5.82
296.858	5.19
297.234	5.83
297.61	5.26
297.986	5.8
298.363	5.77
298.739	5.38
299.115	5.1
299.491	5.64
299.867	5.59
300.243	5.67
300.619	5.57
300.995	5.95
301.371	5.87
301.746	5.57
302.122	6.23
302.498	5.86
302.874	6.36
303.249	6.19
303.625	5.34
304	6.52
304.376	5.92
304.751	6.94
305.127	6.28
305.502	6.5
305.878	6.38
306.253	6.21
306.628	6.42
307.003	6.18
307.378	6.33
307.754	6.2
308.129	6.37
308.504	7.25
308.879	6.23
309.254	6.98
309.629	7.12
310.003	6.95
310.378	6.8
310.753	7.1
311.128	7.23
311.502	6.73
311.877	6.75
312.252	6.71
312.626	6.97
313.001	7.14
313.375	7.06
313.75	7.52
314.124	7.17
314.498	7.43
314.873	7.19
315.247	7.62
315.621	7.56
315.995	7.92
316.369	7.89
316.743	7.37
317.117	7.36
317.491	7.57
317.865	7.62
318.239	7.82
318.613	8.19
318.987	8.73
319.361	7.69
319.734	7.68
320.108	8.37
320.482	8.14
320.855	8.18
321.229	8.44
321.602	8.39
321.976	9.03
322.349	8.45
322.723	8.1
323.096	8.91
323.469	8.27
323.843	9.16
324.216	8.88
324.589	8.67
324.962	9.2
325.335	9.24
325.708	9.07
326.081	8.82
326.454	8.63
326.827	9.54
327.2	9.34
327.573	9.31
327.945	9.2
328.318	9.9
328.691	8.77
329.063	9.78
329.436	9.95
329.809	9.35
330.181	9.21
330.553	9.08
330.926	9.79
331.298	9.35
331.671	10.14
332.043	9.87
332.415	10.27
332.787	9.75
333.159	9.8
333.532	10.07
333.904	9.89
334.276	10.57
334.648	10.24
335.02	9.24
335.391	10.73
335.763	10.13
336.135	10.43
336.507	10.8
336.879	10.47
337.25	10.26
337.622	10.26
337.993	10.08
338.365	9.93
338.736	10.65
339.108	10.12
339.479	11.05
339.851	10.24
340.222	10.43
340.593	10.43
340.964	10.5
341.336	10.68
341.707	10.88
342.078	10.53
342.449	10.75
342.82	10.99
343.191	11.34
343.562	10.65
343.933	11.66
344.303	11.25
344.674	11.21
345.045	11.02
345.416	11.48
345.786	11.15
346.157	11.03
346.527	11.7
346.898	11.58
347.268	11.2
347.639	11.5
348.009	11.65
348.38	11.59
348.75	11.8
349.12	11.94
349.49	11.62
349.861	12
350.231	12.09
350.601	11.87
350.971	11.98
351.341	12.19
351.711	12.12
352.081	12.3
352.45	12.3
352.82	12.21
353.19	12.05
353.56	12.34
353.929	12.26
354.299	11.97
354.669	12.46
355.038	12.17
355.408	12.45
355.777	12.65
356.147	12.09
356.516	12.75
356.885	12.32
357.254	12.43
357.624	12.62
357.993	12.61
358.362	12.85
358.731	12.92
359.1	12.7
359.469	12.65
359.838	12.55
360.207	12.77
360.576	13.1
360.945	12.79
361.314	13.37
361.682	13.19
362.051	13.06
362.42	13.48
362.788	12.88
363.157	13.59
363.525	13.16
363.894	12.71
364.262	13.36
364.631	13.3
364.999	13.44
365.367	13.75
365.735	13.33
366.104	13.4
366.472	13.45
366.84	13.49
367.208	13.6
367.576	13.67
367.944	13.84
368.312	13.88
368.68	14.13
369.048	14.04
369.416	13.76
369.783	14.42
370.151	14.06
370.519	13.74
370.886	14.17
371.254	14
371.621	14.32
371.989	14.46
372.356	14.32
372.724	14.38
373.091	14.22
373.458	14.27
373.826	14.27
374.193	14.6
374.56	14.54
374.927	14.42
375.294	14.65
375.661	14.69
376.028	15.27
376.395	15.2
376.762	15.48
377.129	15.14
377.496	15.02
377.863	14.85
378.229	15.1
378.596	15.14
378.963	15.34
379.329	15.12
379.696	15
380.062	15.22
380.429	15.56
380.795	15.4
381.161	15.35
381.528	15.52
381.894	15.8
382.26	15.39
382.626	15.52
382.993	16.25
383.359	15.62
383.725	15.37
384.091	15.86
384.457	15.83
384.823	15.72
385.188	15.97
385.554	15.79
385.92	16.23
386.286	16.16
386.651	16.23
387.017	16.25
387.383	15.88
387.748	16.37
388.114	16.5
388.479	16.17
388.845	16.37
389.21	16.48
389.575	16.45
389.94	16.46
390.306	16.46
390.671	16.59
391.036	16.7
391.401	16.51
391.766	16.86
392.131	16.6
392.496	16.6
392.861	16.83
393.226	16.98
393.591	16.75
393.956	16.62
394.32	16.79
394.685	17.03
395.05	16.88
395.414	17.04
395.779	17.02
396.143	16.96
396.508	17.05
396.872	16.92
397.236	17.36
397.601	17.11
397.965	17.29
398.329	17.48
398.694	17.46
399.058	18.19
399.422	17.72
399.786	17.7
400.15	17.4
400.514	17.8
400.878	17.68
401.242	17.52
401.605	17.86
401.969	17.93
402.333	17.9
402.697	17.96
403.06	18.05
403.424	18.07
403.787	17.6
404.151	17.97
404.514	18.22
404.878	18.22
405.241	18.28
405.604	18.06
405.968	18.01
406.331	18.39
406.694	18.3
407.057	18.32
407.42	18.31
407.783	18.49
408.146	18.5
408.509	18.6
408.872	18.56
409.235	18.45
409.598	18.68
409.961	18.82
410.323	18.87
410.686	19.03
411.049	18.65
411.411	18.94
411.774	19.04
412.136	19.09
412.499	18.9
412.861	18.99
413.223	19.37
413.586	18.89
413.948	19.21
414.31	19.29
414.672	19.58
415.035	19.12
415.397	19.31
415.759	19.41
416.121	19.43
416.483	19.48
416.845	19.5
417.206	19.58
417.568	19.42
417.93	19.58
418.292	19.66
418.653	19.74
419.015	19.61
419.377	19.55
419.738	19.61
420.1	19.53
420.461	19.85
420.822	19.63
421.184	19.63
421.545	19.83
421.906	19.72
422.267	19.62
422.629	19.68
422.99	19.67
423.351	19.67
423.712	19.72
424.073	19.84
424.434	19.88
424.795	20.03
425.155	19.88
425.516	19.96
425.877	19.96
426.238	20.02
426.598	20.08
426.959	20.11
427.32	20.27
427.68	20.43
428.041	20.58
428.401	20.55
428.761	20.56
429.122	20.61
429.482	20.91
429.842	20.86
430.202	20.93
430.563	21.17
430.923	21.14
431.283	20.76
431.643	21.19
432.003	21.19
432.363	21.24
432.722	20.91
433.082	21.21
433.442	21.25
433.802	21.43
434.161	21.34
434.521	21.29
434.881	21.64
435.24	21.37
435.6	21.57
435.959	21.57
436.319	21.61
436.678	21.75
437.037	21.52
437.396	21.68
437.756	21.8
438.115	21.7
438.474	21.82
438.833	21.98
439.192	22.1
439.551	22.14
439.91	21.96
440.269	21.93
440.628	21.98
440.987	22.07
441.345	22.01
441.704	22.02
442.063	21.95
442.421	22.28
442.78	21.95
443.138	22.18
443.497	22.22
443.855	22.27
444.214	22.48
444.572	22.58
444.93	22.78
445.288	22.35
445.647	22.74
446.005	22.79
446.363	22.68
446.721	22.67
447.079	22.57
447.437	22.57
447.795	22.62
448.153	22.4
448.51	22.54
448.868	22.57
449.226	22.58
449.584	22.73
449.941	22.95
450.299	23
450.656	22.96
451.014	23.29
451.371	23.24
451.729	23.41
452.086	23.25
452.443	23.72
452.801	23.6
453.158	23.7
453.515	23.76
453.872	23.61
454.229	23.82
454.586	23.53
454.943	23.55
455.3	23.58
455.657	23.97
456.014	23.92
456.371	23.93
456.727	24.1
457.084	24.08
457.441	24.39
457.797	24.25
458.154	24.04
458.51	24.06
458.867	24.64
459.223	24.5
459.58	24.36
459.936	24.33
460.292	24.43
460.648	24.39
461.005	24.18
461.361	24.07
461.717	24.04
462.073	24.07
462.429	24.25
462.785	24.38
463.141	24.37
463.496	24.6
463.852	24.97
464.208	25.08
464.564	24.98
464.919	25.09
465.275	25.11
465.631	25.26
465.986	25.23
466.342	25.19
466.697	25.32
467.052	25.42
467.408	25.47
467.763	25.58
468.118	25.34
468.473	25.29
468.829	25.37
469.184	25.36
469.539	25.61
469.894	25.79
470.249	25.72
470.603	25.76
470.958	25.88
471.313	26.11
471.668	26.04
472.023	25.94
472.377	25.96
472.732	26.26
473.086	26.14
473.441	26.13
473.795	26.17
474.15	26.13
474.504	26.14
474.859	26.14
475.213	26.24
475.567	26.36
475.921	26.37
476.275	26.29
476.63	26.36
476.984	26.58
477.338	26.37
477.692	26.46
478.045	26.38
478.399	26.46
478.753	26.62
479.107	26.58
479.461	26.71
479.814	26.85
480.168	26.64
480.521	26.53
480.875	26.69
481.228	26.76
481.582	26.68
481.935	26.83
482.289	26.82
482.642	27.07
482.995	26.75
483.348	26.78
483.701	27.01
484.055	26.62
484.408	26.67
484.761	26.55
485.114	26.23
485.466	25.84
485.819	25.86
486.172	25.98
486.525	26.21
486.878	26.35
487.23	26.43
487.583	26.51
487.936	26.73
488.288	26.85
488.641	26.73
488.993	26.5
489.345	26.49
489.698	26.6
490.05	26.64
490.402	26.63
490.754	26.81
491.107	27.14
491.459	27.31
491.811	27.51
492.163	27.47
492.515	27.59
492.866	27.41
493.218	27.01
493.57	27.08
493.922	27.06
494.274	27.3
494.625	27.54
494.977	27.86
495.328	28.05
495.68	28.21
496.031	28.33
496.383	28.38
496.734	28.59
497.086	28.46
497.437	28.69
497.788	28.57
498.139	28.5
498.49	28.59
498.842	28.46
499.193	28.61
499.544	28.68
499.894	28.63
500.245	28.77
500.596	28.73
500.947	28.85
501.298	28.97
501.648	29.15
501.999	29.18
502.35	29.33
502.7	29.35
503.051	29.15
503.401	29.53
503.752	29.6
504.102	29.45
504.452	29.58
504.803	29.66
505.153	29.72
505.503	29.53
505.853	29.65
506.203	29.61
506.553	29.56
506.903	29.97
507.253	29.71
507.603	29.78
507.953	29.62
508.303	29.96
508.652	30.04
509.002	29.84
509.352	29.85
509.701	29.92
510.051	29.96
510.4	29.83
510.75	29.86
511.099	29.82
511.449	29.95
511.798	30.09
512.147	30.25
512.496	30.29
512.846	30.32
513.195	30.21
513.544	30.41
513.893	30.25
514.242	30.45
514.591	30.37
514.939	30.46
515.288	30.42
515.637	30.47
515.986	30.71
516.334	30.89
516.683	30.61
517.032	31.05
517.38	30.86
517.729	30.82
518.077	31.04
518.426	31.1
518.774	30.97
519.122	31.04
519.47	30.8
519.819	30.76
520.167	30.64
520.515	30.54
520.863	30.46
521.211	30.75
521.559	30.87
521.907	31.04
522.255	31.12
522.602	31.22
522.95	31.43
523.298	31.32
523.645	31.55
523.993	31.76
524.341	31.57
524.688	31.77
525.036	31.87
525.383	31.81
525.73	31.8
526.078	31.81
526.425	31.81
526.772	31.69
527.119	31.49
527.466	31.46
527.814	31.45
528.161	31.52
528.508	31.58
528.854	31.53
529.201	31.62
529.548	31.53
529.895	31.24
530.242	30.99
530.588	30.99
530.935	31.16
531.282	31.19
531.628	31.36
531.975	31.54
532.321	31.58
532.667	31.72
533.014	32.03
533.36	32.14
533.706	32.15
534.052	32.31
534.399	32.07
534.745	32.01
535.091	31.95
535.437	31.92
535.783	31.97
536.129	32.11
536.474	32.31
536.82	32.53
537.166	32.84
537.512	32.68
537.857	32.88
538.203	32.68
538.549	32.42
538.894	32.53
539.239	32.73
539.585	32.96
539.93	33
540.276	32.97
540.621	33.3
540.966	33.33
541.311	33.51
541.656	33.52
542.001	33.29
542.346	33.26
542.691	33.05
543.036	32.71
543.381	32.65
543.726	32.74
544.071	32.81
544.415	32.96
544.76	33.07
545.105	33.27
545.449	33.37
545.794	33.6
546.138	33.54
546.483	33.75
546.827	33.81
547.171	33.95
547.516	34
547.86	34.13
548.204	34.15
548.548	34.04
548.892	33.99
549.236	33.96
549.58	34.35
549.924	34.49
550.268	34.58
550.612	34.66
550.956	34.93
551.3	34.92
551.643	34.87
551.987	35.13
552.33	34.98
552.674	35.06
553.017	35.34
553.361	35.47
553.704	35.33
554.048	35.22
554.391	35.23
554.734	35.05
555.077	35.16
555.42	35.26
555.764	35.37
556.107	35.52
556.45	35.56
556.793	35.3
557.135	35.41
557.478	35.49
557.821	35.79
558.164	35.91
558.507	35.99
558.849	35.91
559.192	36.06
559.534	35.85
559.877	35.96
560.219	36.16
560.562	36.17
560.904	36.05
561.246	36.18
561.589	36.04
561.931	36.47
562.273	36.11
562.615	36.32
562.957	36.35
563.299	36.24
563.641	36.62
563.983	36.42
564.325	36.46
564.667	36.28
565.008	36.72
565.35	36.57
565.692	36.68
566.033	36.7
566.375	36.52
566.716	36.86
567.058	36.77
567.399	36.7
567.741	36.71
568.082	36.44
568.423	36.79
568.764	36.57
569.105	36.64
569.447	36.82
569.788	36.92
570.129	36.88
570.47	37.23
570.811	37.16
571.151	37.21
571.492	37.2
571.833	37.12
572.174	37.37
572.514	37.35
572.855	37.46
573.195	37.16
573.536	37.09
573.876	37.27
574.217	37.41
574.557	37.29
574.898	37.04
575.238	37.34
575.578	37.37
575.918	37.54
576.258	37.66
576.598	37.71
576.938	37.5
577.278	37.49
577.618	37.73
577.958	37.56
578.298	37.91
578.638	37.66
578.977	38.02
579.317	38.24
579.657	38.2
579.996	38.58
580.336	38.13
580.675	38.41
581.014	38.36
581.354	38.76
581.693	38.82
582.032	38.52
582.372	38.83
582.711	38.38
583.05	38.83
583.389	38.65
583.728	38.78
584.067	38.77
584.406	38.83
584.745	39.08
585.083	38.88
585.422	39.15
585.761	39.09
586.1	38.96
586.438	39.16
586.777	38.86
587.115	39.25
587.454	39.32
587.792	39.1
588.13	39.55
588.469	39.49
588.807	39.09
589.145	39.5
589.483	39.51
589.821	39.46
590.159	39.58
590.497	39.27
590.835	39.48
591.173	39.32
591.511	39.63
591.849	39.5
592.187	39.6
592.524	39.57
592.862	40.04
593.2	39.34
593.537	39.58
593.875	39.85
594.212	39.97
594.55	39.92
594.887	40.16
595.224	40.44
595.561	40
595.899	40
596.236	39.86
596.573	40.06
596.91	40.31
597.247	40.24
597.584	40.12
597.921	39.81
598.258	40.37
598.594	40.11
598.931	40.04
599.268	39.86
599.604	39.94
599.941	40.03
600.277	40.3
600.614	40.41
600.95	40.41
601.287	40.74
601.623	40.89
601.959	40.45
602.296	40.89
602.632	40.91
602.968	40.97
603.304	41.04
603.64	40.89
603.976	40.94
604.312	40.78
604.648	40.74
604.984	40.91
605.319	40.65
605.655	40.86
605.991	40.68
606.326	40.7
606.662	40.59
606.998	40.48
607.333	40.69
607.668	40.74
608.004	40.87
608.339	41.22
608.674	41.14
609.01	41.36
609.345	41.29
609.68	41.67
610.015	41.32
610.35	41.68
610.685	41.59
611.02	41.53
611.355	41.19
611.689	41.27
612.024	41.29
612.359	41.53
612.694	41.54
613.028	41.36
613.363	41.32
613.697	41.83
614.032	41.65
614.366	42.19
614.7	42.17
615.035	42.2
615.369	41.91
615.703	42.09
616.037	42.05
616.371	42.44
616.705	41.83
617.039	42.37
617.373	42.39
617.707	41.99
618.041	42.53
618.375	42.67
618.709	42.23
619.042	42.43
619.376	42.36
619.71	42.8
620.043	42.53
620.377	42.67
620.71	42.3
621.043	42.3
621.377	42.5
621.71	42.99
622.043	42.94
622.376	42.79
622.709	42.81
623.043	42.82
623.376	42.68
623.709	43.24
624.041	43.34
624.374	42.93
624.707	42.49
625.04	42.87
625.373	43.49
625.705	42.85
626.038	42.59
626.37	43
626.703	43.2
627.035	43.26
627.368	43.33
627.7	43.44
628.032	43.02
628.365	43.06
628.697	42.94
629.029	42.93
629.361	42.9
629.693	43.03
630.025	43.04
630.357	43.58
630.689	43.15
631.021	43.61
631.353	43.63
631.684	43.29
632.016	43.3
632.348	43.83
632.679	43.51
633.011	44.2
633.342	43.82
633.674	43.21
634.005	43.88
634.336	44.44
634.668	43.63
634.999	43.73
635.33	43.61
635.661	43.87
635.992	43.71
636.323	43.98
636.654	43.92
636.985	44.42
637.316	43.62
637.647	44.05
637.977	44.09
638.308	44.25
638.639	44.34
638.969	44.13
639.3	44.13
639.63	44.6
639.961	44.33
640.291	44.19
640.622	44.52
640.952	44.15
641.282	45.08
641.612	44.66
641.943	45.09
642.273	44.6
642.603	44.66
642.933	44.7
643.263	44.39
643.592	44.18
643.922	44.79
644.252	45.4
644.582	44.46
644.911	44.77
645.241	44.6
645.571	45.21
645.9	44.5
646.23	44.96
646.559	45.61
646.888	45.51
647.218	44.9
647.547	45.22
647.876	45.5
648.205	44.83
648.534	45.15
648.863	44.93
649.192	45.23
649.521	45.17
649.85	45.35
650.179	45.78
650.508	45.16
650.837	45.04
651.165	45.6
651.494	45.05
651.822	46.05
652.151	45.35
652.479	46.04
652.808	45.37
653.136	45.31
653.465	45.43
653.793	45.74
654.121	45.59
654.449	45.55
654.777	45.13
655.105	45.92
655.433	46.23
655.761	45.37
656.089	45.74
656.417	46.39
656.745	45.99
657.073	45.71
657.4	45.55
657.728	45.63
658.056	46.36
658.383	45.7
658.711	46.14
659.038	45.83
659.365	45.69
659.693	45.97
660.02	45.8
660.347	45.58
660.674	45.67
661.001	45.85
661.329	46.18
661.656	45.78
661.982	45.54
662.309	45.93
662.636	45.8
662.963	46.53
663.29	45.97
663.616	45.81
663.943	46.71
664.27	46.08
664.596	45.76
664.923	46.76
665.249	46.16
665.576	46.52
665.902	46.78
666.228	46.31
666.554	46.82
666.881	46.32
667.207	47.53
667.533	46.9
667.859	46.51
668.185	46.32
668.511	46.53
668.837	46.76
669.162	47.04
669.488	47.04
669.814	46.96
