Data from 438_crown_Reflection__3__145.txt Node

Date: Tue Dec 12 19:34:57 CST 2023
User: ToomeyLab
Spectrometer: FLMS14357
Trigger mode: 0
Integration Time (sec): 1.000000E-2
Scans to average: 100
Electric dark correction enabled: true
Nonlinearity correction enabled: false
Boxcar width: 0
XAxis mode: Wavelengths
Number of Pixels in Spectrum: 2048
>>>>>Begin Spectral Data<<<<<
189.047	339.95
189.435	339.95
189.823	339.95
190.211	8.22
190.599	273.82
190.987	264.92
191.375	-119.92
191.763	-47.56
192.151	129.88
192.538	362.52
192.926	291.33
193.314	-358.64
193.702	32.63
194.089	24.22
194.477	14.06
194.864	154.88
195.252	156.14
195.639	33.7
196.027	-463.96
196.414	-38.81
196.801	-158.47
197.189	-26.92
197.576	112.85
197.963	30.3
198.351	40.17
198.738	31.86
199.125	0.02
199.512	-65.94
199.899	10.45
200.286	-6.1
200.673	13.47
201.06	2.96
201.447	-75.07
201.833	-10.62
202.22	18.17
202.607	-226.96
202.994	32.87
203.38	34.33
203.767	6
204.154	20.63
204.54	34.18
204.927	-3.9
205.313	9.88
205.699	-19.03
206.086	32.42
206.472	49.33
206.858	0.34
207.245	-8.07
207.631	19.86
208.017	6.98
208.403	1.06
208.789	20.18
209.175	-91.54
209.561	25.41
209.947	-30.25
210.333	-4.19
210.719	-16.37
211.105	-14.35
211.491	-9.31
211.876	25.59
212.262	18.32
212.648	-45.73
213.034	-9.42
213.419	-58.24
213.805	14.57
214.19	14.51
214.576	-16.8
214.961	-11.2
215.346	-16.59
215.732	34.54
216.117	19
216.502	-38.85
216.888	12.15
217.273	-15.1
217.658	-6.65
218.043	6.73
218.428	-0.68
218.813	2.65
219.198	-36.41
219.583	6.12
219.968	-7.23
220.353	-23.09
220.738	-14.23
221.122	-7.77
221.507	-2.35
221.892	7.32
222.276	-10.29
222.661	-1.81
223.046	-1.18
223.43	14.9
223.815	-3.42
224.199	13.14
224.583	-8.48
224.968	8.87
225.352	2.47
225.736	4.37
226.121	-2.05
226.505	-4.01
226.889	-6.98
227.273	-1.49
227.657	0.57
228.041	-1.42
228.425	2.29
228.809	-0.17
229.193	2.05
229.577	4.19
229.961	1.59
230.344	4.46
230.728	3.91
231.112	3.93
231.495	3.67
231.879	4.58
232.263	3.6
232.646	1.59
233.03	4.36
233.413	1.36
233.797	3.25
234.18	0.03
234.563	0.48
234.946	2.59
235.33	4.77
235.713	3.55
236.096	2.32
236.479	3.46
236.862	3.74
237.245	3.04
237.628	4.02
238.011	3.76
238.394	3.91
238.777	4.51
239.16	3.63
239.543	3.63
239.925	3.52
240.308	4.37
240.691	2.97
241.073	5.02
241.456	1.99
241.838	2.93
242.221	3.18
242.603	3.99
242.986	3.72
243.368	3.7
243.75	3.34
244.133	3.34
244.515	3.91
244.897	3.9
245.279	3.88
245.661	2.56
246.043	3.27
246.425	4.71
246.807	1.83
247.189	3.52
247.571	3.93
247.953	3.36
248.335	3.34
248.717	3.41
249.098	3.72
249.48	3.33
249.862	3.26
250.243	3.35
250.625	3.57
251.006	3.76
251.388	3.72
251.769	3.4
252.151	3.55
252.532	3.96
252.913	3.44
253.295	3.32
253.676	2.94
254.057	3.45
254.438	3.76
254.819	2.91
255.2	3.13
255.581	3.54
255.962	4.03
256.343	3.1
256.724	3.79
257.105	3.4
257.486	2.69
257.867	2.11
258.247	1.86
258.628	2.88
259.009	2.71
259.389	3.56
259.77	2.92
260.15	3.48
260.531	4.04
260.911	3.31
261.292	3.11
261.672	3.22
262.052	3.15
262.432	3.27
262.813	3.39
263.193	3.25
263.573	3.75
263.953	4.19
264.333	4.23
264.713	3.71
265.093	3.1
265.473	4
265.853	2.63
266.233	2.79
266.612	2.33
266.992	3.05
267.372	3.85
267.752	3.91
268.131	2.18
268.511	3.33
268.89	2.56
269.27	2.65
269.649	3.4
270.029	3.21
270.408	3.52
270.787	2.38
271.167	3.32
271.546	2.85
271.925	3.77
272.304	3.56
272.683	2.55
273.062	3.29
273.441	3.48
273.82	2.73
274.199	2.98
274.578	3.05
274.957	2.99
275.336	3.19
275.715	3.33
276.093	2.79
276.472	3.46
276.851	3.66
277.229	3.11
277.608	3.01
277.986	2.75
278.365	3.06
278.743	2.91
279.122	3.73
279.5	2.72
279.878	2.35
280.257	3.07
280.635	2.66
281.013	2.54
281.391	3.3
281.769	2.79
282.147	3.04
282.525	2.46
282.903	2.99
283.281	3.16
283.659	2.68
284.037	3.17
284.415	3.23
284.792	3.05
285.17	2.58
285.548	2.86
285.925	2.41
286.303	3.36
286.68	2.61
287.058	3.12
287.435	2.8
287.813	2.83
288.19	2.96
288.567	3.18
288.945	3.24
289.322	2.28
289.699	2.57
290.076	3.25
290.453	3.26
290.83	2.99
291.207	3.4
291.584	2.78
291.961	3.08
292.338	2.84
292.715	2.74
293.092	3.08
293.469	2.86
293.845	3.11
294.222	3.24
294.599	3.18
294.975	2.95
295.352	2.96
295.728	3.39
296.105	2.87
296.481	3.06
296.858	3.11
297.234	3.41
297.61	3.36
297.986	3.44
298.363	3.13
298.739	2.91
299.115	2.76
299.491	2.99
299.867	2.89
300.243	2.89
300.619	3.13
300.995	2.61
301.371	3.07
301.746	2.9
302.122	3.44
302.498	3.33
302.874	3.15
303.249	3.52
303.625	2.97
304	3.46
304.376	2.79
304.751	3.5
305.127	3.23
305.502	3.43
305.878	2.79
306.253	3.13
306.628	3.04
307.003	2.57
307.378	2.78
307.754	3.2
308.129	3.01
308.504	3.4
308.879	2.33
309.254	2.93
309.629	2.52
310.003	2.82
310.378	3.22
310.753	3.57
311.128	3.19
311.502	2.8
311.877	2.43
312.252	2.76
312.626	2.71
313.001	3.03
313.375	2.82
313.75	2.72
314.124	2.99
314.498	3.02
314.873	2.98
315.247	3.38
315.621	2.45
315.995	3.08
316.369	2.82
316.743	2.55
317.117	2.34
317.491	2.48
317.865	2.88
318.239	2.78
318.613	3.26
318.987	3.08
319.361	2.62
319.734	2.53
320.108	3.4
320.482	2.51
320.855	2.1
321.229	2.98
321.602	2.69
321.976	3.29
322.349	2.52
322.723	3.05
323.096	3.06
323.469	3.08
323.843	3.63
324.216	2.83
324.589	3.11
324.962	3.33
325.335	3.37
325.708	2.64
326.081	2.83
326.454	3.13
326.827	3.19
327.2	2.94
327.573	2.89
327.945	2.91
328.318	2.89
328.691	2.27
329.063	2.78
329.436	2.91
329.809	2.92
330.181	2.21
330.553	3.11
330.926	3.11
331.298	2.89
331.671	2.68
332.043	2.97
332.415	3.11
332.787	2.71
333.159	2.85
333.532	2.88
333.904	2.69
334.276	3.74
334.648	2.22
335.02	2.71
335.391	2.29
335.763	2.94
336.135	2.89
336.507	2.9
336.879	2.4
337.25	3
337.622	3.14
337.993	2.74
338.365	2.67
338.736	2.66
339.108	2.96
339.479	2.87
339.851	2.39
340.222	2.4
340.593	2.88
340.964	2.97
341.336	2.87
341.707	2.45
342.078	2.55
342.449	2.71
342.82	2.84
343.191	2.57
343.562	3.1
343.933	3.7
344.303	2.76
344.674	3.26
345.045	3.05
345.416	2.94
345.786	2.73
346.157	2.77
346.527	3.24
346.898	2.8
347.268	2.64
347.639	3.06
348.009	2.8
348.38	2.96
348.75	3.26
349.12	3.51
349.49	2.64
349.861	3.49
350.231	2.86
350.601	3.5
350.971	3.19
351.341	2.88
351.711	3.32
352.081	3.05
352.45	2.73
352.82	3.1
353.19	3.16
353.56	2.84
353.929	2.74
354.299	2.66
354.669	2.9
355.038	2.53
355.408	2.8
355.777	3.02
356.147	2.52
356.516	2.93
356.885	2.58
357.254	2.43
357.624	2.76
357.993	2.8
358.362	2.71
358.731	2.92
359.1	2.23
359.469	2.4
359.838	2.98
360.207	2.68
360.576	3.05
360.945	2.69
361.314	3.23
361.682	2.82
362.051	2.82
362.42	3.28
362.788	2.77
363.157	3.18
363.525	3.15
363.894	2.92
364.262	2.89
364.631	2.68
364.999	2.96
365.367	2.97
365.735	2.79
366.104	2.98
366.472	2.76
366.84	2.87
367.208	3.26
367.576	2.67
367.944	2.87
368.312	3.01
368.68	2.8
369.048	3.25
369.416	2.94
369.783	2.89
370.151	3.06
370.519	2.79
370.886	2.87
371.254	2.45
371.621	3.07
371.989	2.98
372.356	3.06
372.724	2.81
373.091	2.7
373.458	2.85
373.826	2.79
374.193	2.61
374.56	3.25
374.927	3.07
375.294	2.96
375.661	3.33
376.028	3.31
376.395	3.56
376.762	3.63
377.129	3.33
377.496	3.06
377.863	3.08
378.229	2.99
378.596	2.78
378.963	3.15
379.329	3.1
379.696	2.84
380.062	3.46
380.429	3.29
380.795	3.17
381.161	3.34
381.528	3.18
381.894	3.41
382.26	2.83
382.626	3.09
382.993	3.14
383.359	2.95
383.725	2.9
384.091	3.16
384.457	2.93
384.823	3.08
385.188	3.25
385.554	3.21
385.92	3.07
386.286	3.34
386.651	3.41
387.017	3.3
387.383	3.32
387.748	3.3
388.114	3.33
388.479	3.55
388.845	3.25
389.21	3.08
389.575	2.86
389.94	3.1
390.306	3.12
390.671	3
391.036	3.29
391.401	3.19
391.766	3
392.131	3.37
392.496	3.31
392.861	3.18
393.226	3.52
393.591	3.08
393.956	3.12
394.32	3.43
394.685	3.41
395.05	3.27
395.414	3.5
395.779	3.17
396.143	3.35
396.508	3.04
396.872	3.22
397.236	3.35
397.601	3.09
397.965	3.05
398.329	3.19
398.694	2.93
399.058	3.45
399.422	3.2
399.786	3.22
400.15	3.16
400.514	3.53
400.878	3.16
401.242	3.27
401.605	3.34
401.969	3.35
402.333	3.35
402.697	3.12
403.06	3.16
403.424	3.28
403.787	3.14
404.151	3.74
404.514	2.96
404.878	3.26
405.241	3.28
405.604	3.19
405.968	3.18
406.331	3.44
406.694	3.39
407.057	3.14
407.42	3.23
407.783	3.34
408.146	3.21
408.509	3.24
408.872	3.28
409.235	3.17
409.598	3.25
409.961	3.39
410.323	3.43
410.686	3.28
411.049	3.47
411.411	3.55
411.774	3.48
412.136	3.37
412.499	3.23
412.861	3.29
413.223	3.49
413.586	3.16
413.948	3.18
414.31	3.19
414.672	3.31
415.035	3.57
415.397	3.33
415.759	3.38
416.121	3.29
416.483	3.48
416.845	3.32
417.206	3.45
417.568	3.48
417.93	3.53
418.292	3.46
418.653	3.68
419.015	3.4
419.377	3.41
419.738	3.24
420.1	3.2
420.461	3.36
420.822	3.33
421.184	3.32
421.545	3.62
421.906	3.32
422.267	3.24
422.629	3.31
422.99	3.33
423.351	3.35
423.712	3.38
424.073	3.4
424.434	3.34
424.795	3.51
425.155	3.28
425.516	3.24
425.877	3.49
426.238	3.33
426.598	3.31
426.959	3.29
427.32	3.42
427.68	3.36
428.041	3.47
428.401	3.45
428.761	3.48
429.122	3.59
429.482	3.5
429.842	3.58
430.202	3.27
430.563	3.62
430.923	3.57
431.283	3.45
431.643	3.5
432.003	3.4
432.363	3.53
432.722	3.45
433.082	3.53
433.442	3.48
433.802	3.62
434.161	3.46
434.521	3.45
434.881	3.57
435.24	3.52
435.6	3.41
435.959	3.46
436.319	3.58
436.678	3.53
437.037	3.47
437.396	3.22
437.756	3.4
438.115	3.63
438.474	3.6
438.833	3.56
439.192	3.69
439.551	3.55
439.91	3.38
440.269	3.6
440.628	3.52
440.987	3.45
441.345	3.79
441.704	3.52
442.063	3.55
442.421	3.63
442.78	3.47
443.138	3.55
443.497	3.66
443.855	3.55
444.214	3.49
444.572	3.57
444.93	3.56
445.288	3.35
445.647	3.68
446.005	3.43
446.363	3.42
446.721	3.52
447.079	3.5
447.437	3.45
447.795	3.57
448.153	3.51
448.51	3.58
448.868	3.54
449.226	3.52
449.584	3.55
449.941	3.59
450.299	3.59
450.656	3.59
451.014	3.48
451.371	3.49
451.729	3.73
452.086	3.64
452.443	3.86
452.801	3.61
453.158	3.56
453.515	3.75
453.872	3.62
454.229	3.69
454.586	3.55
454.943	3.62
455.3	3.59
455.657	3.56
456.014	3.71
456.371	3.73
456.727	3.65
457.084	3.5
457.441	3.7
457.797	3.65
458.154	3.59
458.51	3.46
458.867	3.84
459.223	3.66
459.58	3.53
459.936	3.57
460.292	3.7
460.648	3.54
461.005	3.54
461.361	3.57
461.717	3.61
462.073	3.45
462.429	3.66
462.785	3.61
463.141	3.55
463.496	3.61
463.852	4.04
464.208	3.74
464.564	3.73
464.919	3.76
465.275	3.63
465.631	3.75
465.986	3.8
466.342	3.52
466.697	3.68
467.052	3.81
467.408	3.9
467.763	3.86
468.118	3.77
468.473	3.76
468.829	3.78
469.184	3.71
469.539	3.77
469.894	3.87
470.249	3.77
470.603	3.68
470.958	3.7
471.313	3.96
471.668	3.82
472.023	3.85
472.377	3.79
472.732	3.84
473.086	3.93
473.441	3.89
473.795	3.77
474.15	3.78
474.504	3.66
474.859	3.68
475.213	3.69
475.567	3.71
475.921	3.77
476.275	3.7
476.63	3.86
476.984	3.96
477.338	3.63
477.692	3.82
478.045	3.79
478.399	3.75
478.753	3.77
479.107	3.71
479.461	3.82
479.814	3.86
480.168	3.62
480.521	3.75
480.875	3.81
481.228	3.75
481.582	3.65
481.935	3.8
482.289	3.69
482.642	3.79
482.995	3.73
483.348	3.73
483.701	3.91
484.055	3.81
484.408	3.64
484.761	3.63
485.114	3.62
485.466	3.51
485.819	3.48
486.172	3.51
486.525	3.59
486.878	3.64
487.23	3.58
487.583	3.6
487.936	3.67
488.288	3.65
488.641	3.71
488.993	3.57
489.345	3.58
489.698	3.56
490.05	3.58
490.402	3.67
490.754	3.67
491.107	3.72
491.459	3.8
491.811	3.78
492.163	3.68
492.515	3.84
492.866	3.65
493.218	3.56
493.57	3.57
493.922	3.58
494.274	3.71
494.625	3.79
494.977	3.86
495.328	3.91
495.68	3.75
496.031	3.98
496.383	3.83
496.734	3.82
497.086	3.71
497.437	3.8
497.788	3.79
498.139	3.79
498.49	3.94
498.842	3.75
499.193	3.76
499.544	3.89
499.894	3.8
500.245	3.88
500.596	3.9
500.947	3.83
501.298	3.94
501.648	3.95
501.999	3.73
502.35	3.82
502.7	3.84
503.051	3.84
503.401	3.91
503.752	3.93
504.102	3.81
504.452	3.93
504.803	3.92
505.153	3.99
505.503	3.95
505.853	3.78
506.203	3.95
506.553	3.87
506.903	3.89
507.253	3.85
507.603	3.89
507.953	3.88
508.303	3.89
508.652	3.92
509.002	4.05
509.352	3.87
509.701	3.94
510.051	3.86
510.4	3.81
510.75	3.76
511.099	3.88
511.449	3.99
511.798	3.81
512.147	3.87
512.496	4.03
512.846	3.84
513.195	3.8
513.544	3.94
513.893	3.77
514.242	3.78
514.591	3.91
514.939	3.85
515.288	3.84
515.637	3.8
515.986	3.92
516.334	4.03
516.683	3.79
517.032	4.02
517.38	3.86
517.729	3.92
518.077	3.85
518.426	4.08
518.774	4.01
519.122	3.93
519.47	3.88
519.819	3.8
520.167	3.79
520.515	3.79
520.863	3.88
521.211	3.8
521.559	3.87
521.907	3.88
522.255	3.83
522.602	3.95
522.95	3.88
523.298	3.91
523.645	3.99
523.993	4.03
524.341	4
524.688	4
525.036	3.99
525.383	3.84
525.73	3.97
526.078	3.89
526.425	3.89
526.772	3.82
527.119	3.81
527.466	3.75
527.814	3.83
528.161	3.89
528.508	3.88
528.854	3.86
529.201	3.92
529.548	3.88
529.895	3.76
530.242	3.67
530.588	3.65
530.935	3.73
531.282	3.78
531.628	3.87
531.975	3.78
532.321	3.82
532.667	3.82
533.014	3.87
533.36	3.89
533.706	3.86
534.052	3.77
534.399	3.87
534.745	3.87
535.091	3.83
535.437	3.77
535.783	3.81
536.129	3.91
536.474	3.86
536.82	3.88
537.166	3.99
537.512	3.86
537.857	3.93
538.203	3.95
538.549	3.9
538.894	3.88
539.239	3.94
539.585	4.01
539.93	4.06
540.276	3.92
540.621	3.92
540.966	3.95
541.311	3.88
541.656	3.99
542.001	3.95
542.346	3.87
542.691	3.82
543.036	3.74
543.381	3.72
543.726	3.81
544.071	3.83
544.415	3.86
544.76	3.84
545.105	3.84
545.449	3.88
545.794	4.04
546.138	3.9
546.483	4.04
546.827	3.99
547.171	4.02
547.516	3.96
547.86	4.04
548.204	3.94
548.548	3.83
548.892	3.89
549.236	3.98
549.58	4.02
549.924	4.01
550.268	3.98
550.612	3.96
550.956	4.01
551.3	4.23
551.643	4.05
551.987	4.13
552.33	4.02
552.674	4.15
553.017	4.12
553.361	4.29
553.704	4.06
554.048	4.02
554.391	3.99
554.734	3.99
555.077	4.25
555.42	3.98
555.764	4.21
556.107	4.04
556.45	4.07
556.793	4.04
557.135	4.02
557.478	3.95
557.821	4.09
558.164	4.12
558.507	4.05
558.849	4.07
559.192	4.06
559.534	4.05
559.877	4.07
560.219	4.1
560.562	4.04
560.904	3.99
561.246	4.19
561.589	4.21
561.931	4
562.273	3.98
562.615	4.04
562.957	3.91
563.299	4.09
563.641	4.09
563.983	4.15
564.325	4.27
564.667	4.11
565.008	3.85
565.35	4.15
565.692	4.06
566.033	4.17
566.375	3.92
566.716	4
567.058	4.15
567.399	4.04
567.741	4.18
568.082	4.08
568.423	4.05
568.764	4.08
569.105	3.98
569.447	4.31
569.788	4.11
570.129	3.94
570.47	4.24
570.811	4.1
571.151	4.18
571.492	4.15
571.833	4.14
572.174	4.21
572.514	4.08
572.855	4.16
573.195	4.05
573.536	3.95
573.876	4.09
574.217	3.96
574.557	4.12
574.898	3.98
575.238	4.08
575.578	3.95
575.918	3.85
576.258	4.08
576.598	3.96
576.938	4
577.278	4.06
577.618	4.12
577.958	4.05
578.298	4.24
578.638	3.92
578.977	4.15
579.317	4.31
579.657	3.97
579.996	4.16
580.336	4.03
580.675	4.1
581.014	4.08
581.354	4.34
581.693	4.05
582.032	3.85
582.372	4.19
582.711	4.17
583.05	4.17
583.389	4.21
583.728	4.28
584.067	4.25
584.406	4.43
584.745	4.33
585.083	4.07
585.422	4.15
585.761	4.31
586.1	4.22
586.438	4.2
586.777	4.26
587.115	3.93
587.454	4.13
587.792	3.91
588.13	4.23
588.469	4.31
588.807	4.24
589.145	4.28
589.483	4.11
589.821	4.31
590.159	4.1
590.497	4.23
590.835	4.3
591.173	4.31
591.511	4.03
591.849	4.04
592.187	4.01
592.524	4.1
592.862	4.12
593.2	3.99
593.537	4.04
593.875	4.33
594.212	4.35
594.55	4.36
594.887	4.56
595.224	4.07
595.561	4.25
595.899	4.06
596.236	4.1
596.573	3.99
596.91	4.22
597.247	4.15
597.584	4.06
597.921	3.99
598.258	4.23
598.594	4.13
598.931	4.19
599.268	3.98
599.604	4.12
599.941	4.11
600.277	4.1
600.614	4.31
600.95	4.3
601.287	4.37
601.623	4.33
601.959	4.31
602.296	4.28
602.632	3.94
602.968	3.92
603.304	4.06
603.64	4.2
603.976	3.9
604.312	4.1
604.648	4.09
604.984	4.02
605.319	4.05
605.655	4.12
605.991	4.12
606.326	4.05
606.662	4.42
606.998	4
607.333	4.19
607.668	4.17
608.004	4.29
608.339	4.29
608.674	3.92
609.01	3.87
609.345	4.31
609.68	4.09
610.015	4.11
610.35	4.21
610.685	4.04
611.02	4.18
611.355	3.95
611.689	3.99
612.024	3.98
612.359	4.32
612.694	4.13
613.028	4.29
613.363	4.18
613.697	4.1
614.032	4.1
614.366	4.25
614.7	4.03
615.035	4.4
615.369	4.21
615.703	3.91
616.037	4.25
616.371	3.84
616.705	4.12
617.039	4.38
617.373	4.03
617.707	3.54
618.041	4.05
618.375	4.09
618.709	4.26
619.042	4.1
619.376	4.06
619.71	4.41
620.043	4.24
620.377	4.33
620.71	3.79
621.043	4
621.377	3.69
621.71	4.14
622.043	4.29
622.376	4.29
622.709	4.16
623.043	4.11
623.376	4.43
623.709	4.31
624.041	4.06
624.374	4.01
624.707	4.1
625.04	3.9
625.373	4.77
625.705	4.13
626.038	4.35
626.37	4.16
626.703	4.36
627.035	4.04
627.368	4.45
627.7	4.1
628.032	3.84
628.365	4.17
628.697	4.32
629.029	4.08
629.361	4.17
629.693	4.06
630.025	3.8
630.357	4.29
630.689	4.04
631.021	4.24
631.353	4.3
631.684	4.22
632.016	4.04
632.348	4.25
632.679	3.59
633.011	4.36
633.342	4.23
633.674	4.12
634.005	4.13
634.336	4.55
634.668	4.28
634.999	4.52
635.33	4.15
635.661	4.02
635.992	4.17
636.323	3.74
636.654	4.22
636.985	4.17
637.316	4.19
637.647	3.88
637.977	4.15
638.308	4.53
638.639	4.38
638.969	4.28
639.3	4.09
639.63	4.3
639.961	4.31
640.291	3.8
640.622	4.18
640.952	4.59
641.282	4.12
641.612	4.19
641.943	4.06
642.273	4.17
642.603	4.66
642.933	4.22
643.263	4.33
643.592	4.41
643.922	4.65
644.252	4.48
644.582	3.89
644.911	4.19
645.241	4.03
645.571	4.79
645.9	4.1
646.23	3.97
646.559	4.28
646.888	4.2
647.218	4.13
647.547	4.15
647.876	4.1
648.205	4.1
648.534	4.52
648.863	4.41
649.192	4.42
649.521	4.66
649.85	3.54
650.179	4.63
650.508	4.57
650.837	4.13
651.165	3.8
651.494	3.84
651.822	4.38
652.151	4.15
652.479	4.28
652.808	4.11
653.136	4.2
653.465	4.33
653.793	4.16
654.121	4.02
654.449	4.09
654.777	4.32
655.105	4.07
655.433	4.96
655.761	4.03
656.089	4.32
656.417	4.12
656.745	4.39
657.073	3.72
657.4	4.32
657.728	3.55
658.056	4.8
658.383	3.72
658.711	4.28
659.038	4.11
659.365	4.43
659.693	3.99
660.02	4.37
660.347	4.17
660.674	4.29
661.001	4.09
661.329	4.03
661.656	4.1
661.982	4.34
662.309	4.34
662.636	4.12
662.963	4.77
663.29	4.81
663.616	4.04
663.943	4.46
664.27	4.97
664.596	4.21
664.923	5.25
665.249	3.87
665.576	4.56
665.902	4.47
666.228	4.57
666.554	4.33
666.881	4.11
667.207	4.35
667.533	4.65
667.859	3.79
668.185	4
668.511	4.4
668.837	4.21
669.162	4.64
669.488	4.32
669.814	4.2
670.139	3.96
670.465	3.58
670.791	4.49
671.116	4.03
671.442	4.01
671.767	4.54
672.092	4.8
672.418	4.25
672.743	4.13
673.068	3.52
673.393	3.94
673.718	4.29
674.043	3.67
674.368	3.34
674.693	3.79
675.018	4
675.343	4.22
675.667	4.54
675.992	3.88
676.317	4.34
676.641	3.96
676.966	4.46
677.29	4.37
677.615	4.28
677.939	3.74
678.264	4.73
678.588	4.76
678.912	4.91
679.236	4.17
679.56	4.82
679.885	4.54
680.209	3.86
680.532	4.51
680.856	3.86
681.18	4.24
681.504	3.86
681.828	4.31
682.152	4.63
682.475	4.49
682.799	4.36
683.122	4.53
683.446	4.54
683.769	4.78
684.093	4.24
684.416	4.22
684.739	5.05
685.062	4.54
685.386	4.36
685.709	4.61
686.032	4.29
686.355	4.08
686.678	5.28
687.001	4.69
687.324	4.03
687.646	4.19
687.969	4.15
688.292	3.56
688.614	4.46
688.937	4.61
689.26	3.88
689.582	3.69
689.904	4.17
690.227	4.37
690.549	4.77
690.871	4.56
691.194	4.33
691.516	4.18
691.838	3.77
692.16	5.28
