Data from 438_forehead_Reflection__1__148.txt Node

Date: Tue Dec 12 19:35:57 CST 2023
User: ToomeyLab
Spectrometer: FLMS14357
Trigger mode: 0
Integration Time (sec): 1.000000E-2
Scans to average: 100
Electric dark correction enabled: true
Nonlinearity correction enabled: false
Boxcar width: 0
XAxis mode: Wavelengths
Number of Pixels in Spectrum: 2048
>>>>>Begin Spectral Data<<<<<
189.047	824.15
189.435	824.15
189.823	824.15
190.211	125.57
190.599	136.33
190.987	347.12
191.375	-286.93
191.763	-385.04
192.151	119.38
192.538	-215.44
192.926	247.18
193.314	-594.24
193.702	-1.48
194.089	396.19
194.477	-41.87
194.864	228.24
195.252	129.24
195.639	-97.49
196.027	-2454.31
196.414	48.41
196.801	412.42
197.189	-46.78
197.576	-164.95
197.963	107.13
198.351	13.78
198.738	75.95
199.125	31
199.512	-22.49
199.899	37.85
200.286	54.7
200.673	42.1
201.06	-6.06
201.447	-61.49
201.833	37.89
202.22	26.25
202.607	-37.98
202.994	51.18
203.38	2.11
203.767	2.79
204.154	29.42
204.54	35.8
204.927	-31.86
205.313	24.24
205.699	24.78
206.086	-20.67
206.472	75.28
206.858	18.66
207.245	40.14
207.631	49.23
208.017	24.57
208.403	4.59
208.789	20.06
209.175	27.27
209.561	20.47
209.947	5.79
210.333	23.33
210.719	16.87
211.105	6.66
211.491	27.82
211.876	41.74
212.262	35.45
212.648	13.3
213.034	12.57
213.419	15.78
213.805	4.93
214.19	59.34
214.576	38.42
214.961	33.66
215.346	20.2
215.732	29.17
216.117	-9.6
216.502	18.28
216.888	-27.19
217.273	4.34
217.658	34.03
218.043	-2.74
218.428	24.41
218.813	18.08
219.198	-18.54
219.583	11.22
219.968	17.84
220.353	-8.37
220.738	23.36
221.122	27.93
221.507	-15.23
221.892	11.26
222.276	13.85
222.661	9.86
223.046	6.79
223.43	16.93
223.815	13.96
224.199	15.03
224.583	10.26
224.968	16.66
225.352	2.69
225.736	16.62
226.121	10.06
226.505	4.48
226.889	9.82
227.273	3.06
227.657	12.36
228.041	7.54
228.425	4.27
228.809	6.92
229.193	3.28
229.577	6.88
229.961	3.9
230.344	4.54
230.728	4.72
231.112	4.33
231.495	4.92
231.879	5.46
232.263	5.15
232.646	3.56
233.03	4.53
233.413	4.34
233.797	6.2
234.18	3.75
234.563	3.72
234.946	4.89
235.33	6.25
235.713	6.59
236.096	4.86
236.479	5.24
236.862	5.54
237.245	5.73
237.628	6.15
238.011	5.37
238.394	3.9
238.777	5.79
239.16	5.05
239.543	4.97
239.925	5.22
240.308	3.82
240.691	4.94
241.073	5.94
241.456	5.24
241.838	3.51
242.221	5.13
242.603	5.66
242.986	4.08
243.368	5.35
243.75	4.66
244.133	4.55
244.515	4.42
244.897	4.22
245.279	4.52
245.661	4.43
246.043	3.72
246.425	5.94
246.807	4.36
247.189	4.72
247.571	4.73
247.953	4.49
248.335	4.28
248.717	4.15
249.098	4.23
249.48	4.15
249.862	4.13
250.243	4.02
250.625	5
251.006	4.46
251.388	4.94
251.769	4.71
252.151	4.13
252.532	4.76
252.913	5.34
253.295	4.74
253.676	3.63
254.057	4.08
254.438	4.65
254.819	4.48
255.2	4.04
255.581	5.31
255.962	3.55
256.343	5.4
256.724	5.23
257.105	5.86
257.486	3.89
257.867	5.22
258.247	4.55
258.628	4.69
259.009	5.23
259.389	4.32
259.77	4.33
260.15	4.99
260.531	5.27
260.911	4.94
261.292	3.99
261.672	4.08
262.052	4.21
262.432	4.46
262.813	4.4
263.193	4.71
263.573	4.25
263.953	5.56
264.333	5.97
264.713	4.96
265.093	4.51
265.473	5.24
265.853	3.64
266.233	3.78
266.612	4.57
266.992	4.93
267.372	5.62
267.752	5.62
268.131	4.24
268.511	3.86
268.89	4.08
269.27	3.82
269.649	4.38
270.029	4.33
270.408	5.03
270.787	3.78
271.167	4.23
271.546	4.4
271.925	4.67
272.304	4.92
272.683	3.87
273.062	4.69
273.441	4.6
273.82	3.72
274.199	4.64
274.578	4.18
274.957	3.96
275.336	4.3
275.715	4.51
276.093	3.99
276.472	4.74
276.851	4.82
277.229	3.83
277.608	3.86
277.986	4.33
278.365	4
278.743	4.52
279.122	4.29
279.5	4.28
279.878	3.7
280.257	4.67
280.635	4.16
281.013	4.59
281.391	5.19
281.769	4.52
282.147	3.91
282.525	4.01
282.903	4.11
283.281	3.97
283.659	4.26
284.037	4.61
284.415	4.38
284.792	4.72
285.17	4.11
285.548	4.52
285.925	4.21
286.303	4.22
286.68	4.29
287.058	4.49
287.435	4.66
287.813	3.97
288.19	4.51
288.567	4.66
288.945	4.31
289.322	4.3
289.699	4.85
290.076	4.53
290.453	4.97
290.83	4.68
291.207	4.56
291.584	4.59
291.961	4.65
292.338	4.55
292.715	4.94
293.092	4.7
293.469	4.96
293.845	4.88
294.222	4.93
294.599	5.07
294.975	5.14
295.352	5.58
295.728	5.15
296.105	4.95
296.481	5.3
296.858	5.53
297.234	5.68
297.61	5.58
297.986	5.74
298.363	5.55
298.739	5.12
299.115	5.32
299.491	5.55
299.867	5.48
300.243	5.56
300.619	5.79
300.995	6
301.371	6.11
301.746	5.79
302.122	6.77
302.498	5.97
302.874	6.48
303.249	6.66
303.625	6.14
304	6.33
304.376	6.34
304.751	6.23
305.127	6.5
305.502	7.49
305.878	6.3
306.253	6.42
306.628	6.84
307.003	6.79
307.378	6.89
307.754	6.64
308.129	7.11
308.504	7.69
308.879	6.84
309.254	7.43
309.629	7.2
310.003	7.45
310.378	7.42
310.753	7.51
311.128	7.72
311.502	7.21
311.877	7.37
312.252	7.42
312.626	7.38
313.001	7.6
313.375	7.4
313.75	7.97
314.124	7.98
314.498	8
314.873	8.03
315.247	8.32
315.621	8.12
315.995	8.14
316.369	8
316.743	7.8
317.117	7.36
317.491	8.32
317.865	8.04
318.239	8.76
318.613	8.84
318.987	9.34
319.361	8.09
319.734	8.46
320.108	8.52
320.482	8.69
320.855	8.56
321.229	8.83
321.602	9.18
321.976	9.55
322.349	9.21
322.723	9.03
323.096	8.98
323.469	9.58
323.843	10.05
324.216	9.81
324.589	9.75
324.962	9.77
325.335	9.91
325.708	9.67
326.081	9.4
326.454	9.45
326.827	10.3
327.2	9.92
327.573	9.52
327.945	9.95
328.318	10.16
328.691	9.8
329.063	10.62
329.436	10.23
329.809	10.16
330.181	9.91
330.553	10.5
330.926	10.83
331.298	10.52
331.671	10.75
332.043	10.46
332.415	11.36
332.787	10.67
333.159	10.65
333.532	11.26
333.904	11.13
334.276	11.34
334.648	10.84
335.02	10.88
335.391	10.77
335.763	11.07
336.135	11.47
336.507	11.44
336.879	11.4
337.25	11.22
337.622	11.64
337.993	11.4
338.365	10.77
338.736	10.82
339.108	11.42
339.479	11.87
339.851	11.47
340.222	11.46
340.593	11.5
340.964	11.77
341.336	12.23
341.707	11.25
342.078	11.63
342.449	11.86
342.82	12.58
343.191	12.42
343.562	11.96
343.933	12.79
344.303	12.65
344.674	12.69
345.045	12.32
345.416	12.49
345.786	12.1
346.157	12.72
346.527	12.6
346.898	12.48
347.268	12.64
347.639	12.9
348.009	12.71
348.38	13.31
348.75	13.17
349.12	13.05
349.49	12.97
349.861	13.2
350.231	13.09
350.601	13.66
350.971	13.58
351.341	13.49
351.711	13.84
352.081	13.38
352.45	13.46
352.82	13.82
353.19	13.75
353.56	13.42
353.929	13.55
354.299	13.4
354.669	13.95
355.038	13.68
355.408	13.9
355.777	14.14
356.147	13.86
356.516	14.26
356.885	14.19
357.254	14.04
357.624	14.32
357.993	14.12
358.362	14.35
358.731	14.63
359.1	14.61
359.469	14.27
359.838	14.31
360.207	14.78
360.576	14.57
360.945	14.42
361.314	14.96
361.682	14.75
362.051	15.12
362.42	15
362.788	14.79
363.157	15.06
363.525	15.06
363.894	14.85
364.262	14.95
364.631	14.98
364.999	15.22
365.367	15.24
365.735	15.26
366.104	14.96
366.472	15.23
366.84	15.64
367.208	15.25
367.576	15.28
367.944	15.77
368.312	15.9
368.68	15.67
369.048	15.82
369.416	15.9
369.783	16.23
370.151	15.98
370.519	15.83
370.886	15.94
371.254	16.05
371.621	16.11
371.989	16.39
372.356	15.81
372.724	16.38
373.091	16.23
373.458	16.37
373.826	16.2
374.193	16.4
374.56	16.63
374.927	16.63
375.294	16.79
375.661	17.11
376.028	17.04
376.395	16.79
376.762	17.74
377.129	17.08
377.496	16.96
377.863	17.13
378.229	17.41
378.596	17.08
378.963	17.47
379.329	17.06
379.696	17.12
380.062	17.64
380.429	17.6
380.795	17.5
381.161	17.5
381.528	17.35
381.894	17.67
382.26	17.51
382.626	18.06
382.993	17.95
383.359	17.81
383.725	17.77
384.091	18.1
384.457	18.2
384.823	18.44
385.188	18.15
385.554	18.37
385.92	18.09
386.286	18.32
386.651	18.58
387.017	18.6
387.383	18.6
387.748	18.4
388.114	18.86
388.479	18.7
388.845	18.6
389.21	18.57
389.575	18.47
389.94	18.57
390.306	19.07
390.671	18.9
391.036	18.81
391.401	18.98
391.766	18.9
392.131	19.12
392.496	19.07
392.861	19.24
393.226	19.42
393.591	19.26
393.956	19.27
394.32	19.59
394.685	19.77
395.05	19.45
395.414	19.59
395.779	19.64
396.143	19.88
396.508	19.64
396.872	19.99
397.236	19.95
397.601	20.09
397.965	19.99
398.329	20.28
398.694	19.99
399.058	20.29
399.422	20.18
399.786	20.18
400.15	19.98
400.514	20.74
400.878	20.53
401.242	20.55
401.605	20.73
401.969	20.6
402.333	20.66
402.697	20.52
403.06	20.8
403.424	20.83
403.787	20.94
404.151	20.83
404.514	20.71
404.878	20.76
405.241	21.05
405.604	20.99
405.968	21.03
406.331	21.15
406.694	21.42
407.057	21.08
407.42	21.03
407.783	21.33
408.146	21.26
408.509	21.5
408.872	21.62
409.235	21.37
409.598	21.71
409.961	21.86
410.323	21.67
410.686	22.02
411.049	21.82
411.411	22
411.774	22.04
412.136	21.91
412.499	21.92
412.861	22.18
413.223	22.42
413.586	22.14
413.948	22.18
414.31	22.43
414.672	22.34
415.035	22.72
415.397	22.46
415.759	22.41
416.121	22.7
416.483	22.62
416.845	22.33
417.206	22.65
417.568	22.74
417.93	22.67
418.292	22.89
418.653	22.82
419.015	22.67
419.377	22.97
419.738	22.86
420.1	22.77
420.461	22.75
420.822	22.84
421.184	22.89
421.545	23.02
421.906	23
422.267	22.94
422.629	23.01
422.99	23.01
423.351	22.99
423.712	23.05
424.073	23.11
424.434	23.27
424.795	23.35
425.155	23.26
425.516	23.28
425.877	23.3
426.238	23.46
426.598	23.51
426.959	23.51
427.32	23.73
427.68	23.88
428.041	24.04
428.401	23.99
428.761	24.02
429.122	24.21
429.482	24.45
429.842	23.98
430.202	24.46
430.563	24.48
430.923	24.7
431.283	24.68
431.643	24.71
432.003	24.63
432.363	24.9
432.722	24.86
433.082	24.86
433.442	25.05
433.802	24.93
434.161	24.97
434.521	25.08
434.881	24.86
435.24	25.15
435.6	25.27
435.959	25.05
436.319	25.1
436.678	25.17
437.037	25.23
437.396	25.39
437.756	25.45
438.115	25.62
438.474	25.51
438.833	25.47
439.192	25.82
439.551	25.7
439.91	25.59
440.269	25.61
440.628	25.67
440.987	25.66
441.345	25.83
441.704	25.75
442.063	25.81
442.421	25.82
442.78	25.82
443.138	25.92
443.497	25.87
443.855	26.01
444.214	26.28
444.572	26.43
444.93	26.47
445.288	26.35
445.647	26.47
446.005	26.42
446.363	26.43
446.721	26.52
447.079	26.66
447.437	26.34
447.795	26.53
448.153	26.34
448.51	26.51
448.868	26.44
449.226	26.61
449.584	26.8
449.941	26.75
450.299	26.86
450.656	26.83
451.014	27.13
451.371	27.26
451.729	27.43
452.086	27.36
452.443	27.62
452.801	27.77
453.158	27.65
453.515	27.75
453.872	27.52
454.229	27.72
454.586	27.51
454.943	27.59
455.3	27.92
455.657	27.99
456.014	28.16
456.371	28.09
456.727	28.26
457.084	28.12
457.441	28.26
457.797	28.25
458.154	28.31
458.51	28.25
458.867	28.41
459.223	28.5
459.58	28.54
459.936	28.36
460.292	28.61
460.648	28.63
461.005	28.39
461.361	28.35
461.717	28.28
462.073	28.15
462.429	28.44
462.785	28.52
463.141	28.68
463.496	28.86
463.852	29.17
464.208	29.22
464.564	29.37
464.919	29.21
465.275	29.38
465.631	29.58
465.986	29.63
466.342	29.46
466.697	29.69
467.052	29.59
467.408	29.66
467.763	29.77
468.118	29.73
468.473	29.56
468.829	29.95
469.184	29.77
469.539	30.05
469.894	30.11
470.249	30.17
470.603	29.86
470.958	30.18
471.313	30.49
471.668	30.44
472.023	30.38
472.377	30.39
472.732	30.57
473.086	30.38
473.441	30.37
473.795	30.79
474.15	30.74
474.504	30.46
474.859	30.62
475.213	30.79
475.567	30.84
475.921	30.98
476.275	30.74
476.63	30.92
476.984	31.03
477.338	31.24
477.692	30.94
478.045	31.05
478.399	31.1
478.753	30.97
479.107	31.26
479.461	31.19
479.814	31.37
480.168	31.07
480.521	31.38
480.875	31.32
481.228	31.38
481.582	31.54
481.935	31.64
482.289	31.58
482.642	31.51
482.995	31.57
483.348	31.66
483.701	31.49
484.055	31.31
484.408	31.37
484.761	31.2
485.114	30.81
485.466	30.64
485.819	30.61
486.172	30.73
486.525	30.92
486.878	31.02
487.23	31.1
487.583	31.24
487.936	31.71
488.288	31.58
488.641	31.49
488.993	31.36
489.345	31.34
489.698	31.39
490.05	31.4
490.402	31.49
490.754	31.69
491.107	31.94
491.459	32.17
491.811	32.46
492.163	32.37
492.515	32.39
492.866	32.34
493.218	31.98
493.57	32.05
493.922	32.01
494.274	32.24
494.625	32.39
494.977	32.85
495.328	32.98
495.68	33.26
496.031	33.41
496.383	33.36
496.734	33.47
497.086	33.51
497.437	33.6
497.788	33.68
498.139	33.52
498.49	33.46
498.842	33.51
499.193	33.42
499.544	33.68
499.894	33.78
500.245	33.8
500.596	33.89
500.947	33.85
501.298	34.15
501.648	34.23
501.999	34.08
502.35	34.53
502.7	34.39
503.051	34.43
503.401	34.5
503.752	34.69
504.102	34.75
504.452	34.69
504.803	34.86
505.153	34.96
505.503	34.71
505.853	34.78
506.203	34.85
506.553	34.68
506.903	35.03
507.253	34.83
507.603	35.07
507.953	34.98
508.303	35.25
508.652	35.06
509.002	35.23
509.352	35.35
509.701	35.49
510.051	35.18
510.4	35.25
510.75	35.3
511.099	35.26
511.449	35.34
511.798	35.24
512.147	35.55
512.496	35.76
512.846	35.72
513.195	35.64
513.544	35.67
513.893	35.68
514.242	35.82
514.591	35.94
514.939	35.65
515.288	35.98
515.637	36.02
515.986	35.99
516.334	36.29
516.683	36.34
517.032	36.33
517.38	36.4
517.729	36.49
518.077	36.45
518.426	36.43
518.774	36.42
519.122	36.42
519.47	36.3
519.819	36.28
520.167	36.08
520.515	36.11
520.863	36.1
521.211	36.04
521.559	36.25
521.907	36.38
522.255	36.61
522.602	36.72
522.95	37.03
523.298	36.92
523.645	37.12
523.993	37.18
524.341	37.3
524.688	37.35
525.036	37.33
525.383	37.49
525.73	37.24
526.078	37.48
526.425	37.35
526.772	37.23
527.119	37.12
527.466	37.05
527.814	37.03
528.161	37.1
528.508	37.16
528.854	37.32
529.201	37.37
529.548	37.12
529.895	36.9
530.242	36.58
530.588	36.66
530.935	36.89
531.282	36.84
531.628	37.02
531.975	37.09
532.321	37.19
532.667	37.51
533.014	37.7
533.36	37.62
533.706	37.89
534.052	38.08
534.399	37.93
534.745	37.82
535.091	37.61
535.437	37.62
535.783	37.79
536.129	38.05
536.474	38.15
536.82	38.27
537.166	38.54
537.512	38.58
537.857	38.61
538.203	38.65
538.549	38.44
538.894	38.43
539.239	38.59
539.585	38.97
539.93	38.91
540.276	39
540.621	39.29
540.966	39.25
541.311	39.57
541.656	39.15
542.001	39.34
542.346	39.15
542.691	38.94
543.036	38.66
543.381	38.53
543.726	38.63
544.071	38.76
544.415	39.11
544.76	39.15
545.105	39.31
545.449	39.28
545.794	39.55
546.138	39.49
546.483	39.86
546.827	39.8
547.171	39.89
547.516	40.11
547.86	40.23
548.204	40.1
548.548	39.97
548.892	40.06
549.236	40.33
549.58	40.42
549.924	40.59
550.268	40.83
550.612	40.8
550.956	40.97
551.3	40.88
551.643	41.22
551.987	41.41
552.33	41.14
552.674	41.25
553.017	41.61
553.361	41.58
553.704	41.44
554.048	41.48
554.391	41.36
554.734	41.48
555.077	41.45
555.42	41.48
555.764	41.37
556.107	41.55
556.45	41.67
556.793	41.75
557.135	41.77
557.478	41.89
557.821	42.14
558.164	42.17
558.507	42.44
558.849	42.18
559.192	42.36
559.534	42.41
559.877	42.25
560.219	42.36
560.562	42.57
560.904	42.34
561.246	42.17
561.589	42.5
561.931	42.61
562.273	42.47
562.615	42.65
562.957	42.56
563.299	42.9
563.641	42.77
563.983	43.03
564.325	42.54
564.667	42.76
565.008	42.94
565.35	42.83
565.692	43.07
566.033	43.18
566.375	43.18
566.716	43.03
567.058	43.38
567.399	43.03
567.741	43.02
568.082	42.88
568.423	43.23
568.764	43.13
569.105	43.1
569.447	43.38
569.788	43.17
570.129	43.28
570.47	43.58
570.811	43.76
571.151	43.87
571.492	43.88
571.833	44.17
572.174	43.87
572.514	43.91
572.855	43.86
573.195	43.82
573.536	43.95
573.876	43.82
574.217	43.95
574.557	43.9
574.898	43.71
575.238	44.02
575.578	44.01
575.918	44.32
576.258	44.48
576.598	44.2
576.938	44.23
577.278	44.22
577.618	44.44
577.958	44.4
578.298	44.49
578.638	44.72
578.977	45
579.317	44.91
579.657	44.91
579.996	45.08
580.336	45.14
580.675	45.05
581.014	45.51
581.354	45.37
581.693	45.63
582.032	45.31
582.372	45.39
582.711	45.55
583.05	45.73
583.389	45.72
583.728	45.51
584.067	45.53
584.406	45.87
584.745	45.77
585.083	45.47
585.422	46.06
585.761	46.13
586.1	46.13
586.438	46.05
586.777	46.18
587.115	46.03
587.454	45.72
587.792	46.44
588.13	46.42
588.469	46.54
588.807	46.06
589.145	46.4
589.483	46.63
589.821	46.67
590.159	46.35
590.497	46.31
590.835	46.69
591.173	46.31
591.511	46.67
591.849	46.5
592.187	46.77
592.524	46.65
592.862	46.58
593.2	46.99
593.537	46.65
593.875	46.89
594.212	46.97
594.55	47.25
594.887	47.34
595.224	47.33
595.561	47.08
595.899	46.79
596.236	46.9
596.573	46.97
596.91	47.2
597.247	47.32
597.584	47.2
597.921	47.36
598.258	47.5
598.594	47.09
598.931	47.15
599.268	46.92
599.604	47.2
599.941	47.27
600.277	47.4
600.614	47.57
600.95	47.72
601.287	47.67
601.623	47.76
601.959	48.12
602.296	47.98
602.632	48.57
602.968	48.15
603.304	47.82
603.64	48.28
603.976	48.32
604.312	48.21
604.648	48.53
604.984	48.06
605.319	48.27
605.655	48.08
605.991	48.1
606.326	47.87
606.662	48.2
606.998	47.88
607.333	48.06
607.668	48.31
608.004	48.35
608.339	48.12
608.674	48.75
609.01	48.89
609.345	48.8
609.68	49.1
610.015	48.62
610.35	49.33
610.685	48.8
611.02	48.8
611.355	48.42
611.689	48.46
612.024	48.62
612.359	48.86
612.694	48.91
613.028	49.23
613.363	49.15
613.697	49.28
614.032	49.07
614.366	49.69
614.7	49.66
615.035	49.59
615.369	49.22
615.703	49.87
616.037	49.73
616.371	49.9
616.705	49.65
617.039	50.27
617.373	49.86
617.707	49.81
618.041	50.21
618.375	50.41
618.709	49.84
619.042	50.17
619.376	49.9
619.71	50.32
620.043	50.45
620.377	50.19
620.71	49.91
621.043	49.98
621.377	50.44
621.71	50.64
622.043	50.78
622.376	50.71
622.709	50.85
623.043	49.95
623.376	50.65
623.709	50.78
624.041	50.79
624.374	50.65
624.707	50.71
625.04	50.6
625.373	51.43
625.705	50.68
626.038	50.8
626.37	51.09
626.703	50.88
627.035	51.04
627.368	51.28
627.7	50.88
628.032	51.45
628.365	50.86
628.697	50.78
629.029	51.09
629.361	50.73
629.693	51.22
630.025	50.67
630.357	51.1
630.689	51.04
631.021	51.83
631.353	51.36
631.684	51.77
632.016	51.5
632.348	51.54
632.679	51.44
633.011	52.08
633.342	51.84
633.674	52.06
634.005	52.05
634.336	51.6
634.668	52.31
634.999	51.79
635.33	52.17
635.661	51.74
635.992	52.11
636.323	52.15
636.654	51.89
636.985	51.94
637.316	52.25
637.647	51.74
637.977	52.07
638.308	52.04
638.639	52.46
638.969	52.18
639.3	52.39
639.63	52.86
639.961	52.37
640.291	52.41
640.622	52.74
640.952	53.04
641.282	52.95
641.612	52.96
641.943	53.37
642.273	52.98
642.603	52.93
642.933	53.68
643.263	52.76
643.592	52.48
643.922	53.19
644.252	53.45
644.582	52.91
644.911	52.72
645.241	53.17
645.571	53.45
645.9	52.87
646.23	53.3
646.559	53.29
646.888	52.97
647.218	53.09
647.547	53.53
647.876	53.74
648.205	53.27
648.534	53.45
648.863	53.66
649.192	53.45
649.521	53.63
649.85	53.52
650.179	53.54
650.508	53.93
650.837	53.38
651.165	53.8
651.494	53.94
651.822	54.04
652.151	53.71
652.479	54.42
652.808	54.25
653.136	53.86
653.465	54.11
653.793	54.44
654.121	54.1
654.449	53.7
654.777	53.84
655.105	54.09
655.433	54.57
655.761	54.51
656.089	54.28
656.417	54.92
656.745	54.25
657.073	54.11
657.4	53.82
657.728	54.93
658.056	54.52
658.383	53.63
658.711	54.71
659.038	53.98
659.365	54.05
659.693	54.82
660.02	54.42
660.347	54.76
660.674	55
661.001	54.75
661.329	54.45
661.656	54.41
661.982	54.81
662.309	54.43
662.636	54.91
662.963	54.72
663.29	54.81
663.616	54.43
663.943	54.7
664.27	54.82
664.596	54.88
664.923	55.22
665.249	55.56
665.576	54.7
665.902	55.3
666.228	55.58
666.554	55.18
666.881	54.66
667.207	56.55
667.533	55.33
667.859	55.01
668.185	55.51
668.511	55.38
668.837	54.55
669.162	56.42
669.488	55.33
