Data from 438_chest_Reflection__0__137.txt Node

Date: Tue Dec 12 19:32:35 CST 2023
User: ToomeyLab
Spectrometer: FLMS14357
Trigger mode: 0
Integration Time (sec): 1.000000E-2
Scans to average: 100
Electric dark correction enabled: true
Nonlinearity correction enabled: false
Boxcar width: 0
XAxis mode: Wavelengths
Number of Pixels in Spectrum: 2048
>>>>>Begin Spectral Data<<<<<
189.047	995.71
189.435	995.71
189.823	995.71
190.211	63.9
190.599	393.72
190.987	104.57
191.375	-498.52
191.763	-8.35
192.151	-3.38
192.538	126.39
192.926	174.68
193.314	-363.97
193.702	86.47
194.089	128.79
194.477	-49.42
194.864	-85.92
195.252	-172.91
195.639	-241.33
196.027	-3489.85
196.414	31.38
196.801	251.69
197.189	107.11
197.576	-122.57
197.963	-9.84
198.351	-21.58
198.738	16.2
199.125	-64.87
199.512	-10.01
199.899	42.12
200.286	1.04
200.673	-42.36
201.06	-4.36
201.447	-57.07
201.833	7.92
202.22	8.03
202.607	-228.07
202.994	8.09
203.38	-48.79
203.767	-2.26
204.154	31.01
204.54	25.56
204.927	-7.17
205.313	8.01
205.699	15.31
206.086	15.66
206.472	17.99
206.858	-30.24
207.245	36.38
207.631	35.81
208.017	4.68
208.403	1
208.789	28.48
209.175	11.86
209.561	-3.61
209.947	-20.52
210.333	-1.49
210.719	-9.45
211.105	-33.34
211.491	36.75
211.876	35.11
212.262	31.29
212.648	-48.39
213.034	-111.48
213.419	-11.74
213.805	0.34
214.19	32.46
214.576	21.93
214.961	-8.24
215.346	-2.1
215.732	10.46
216.117	9.75
216.502	-22.76
216.888	-11.13
217.273	-5.17
217.658	-29.66
218.043	-26.88
218.428	14.99
218.813	-9.02
219.198	-18.39
219.583	5.31
219.968	12.71
220.353	-16.52
220.738	13.98
221.122	-7.88
221.507	-24.7
221.892	-2.78
222.276	12.05
222.661	-6.35
223.046	-8.21
223.43	11.94
223.815	1.81
224.199	9.2
224.583	1.86
224.968	5.94
225.352	-1.24
225.736	5.33
226.121	0.99
226.505	4.15
226.889	1.64
227.273	-0.41
227.657	8.52
228.041	9.3
228.425	4.66
228.809	4.58
229.193	6
229.577	6.4
229.961	4.09
230.344	5.23
230.728	4.67
231.112	5.16
231.495	4.57
231.879	6.08
232.263	4.75
232.646	3.6
233.03	3.76
233.413	4.01
233.797	3.15
234.18	1.46
234.563	1.75
234.946	6.5
235.33	6.99
235.713	5.71
236.096	4.77
236.479	5.13
236.862	4.99
237.245	4.16
237.628	4.59
238.011	3.2
238.394	3.72
238.777	4.5
239.16	5.14
239.543	2.73
239.925	5.71
240.308	2.89
240.691	4.23
241.073	5.3
241.456	4.81
241.838	4.15
242.221	5.2
242.603	5.2
242.986	3.67
243.368	4.83
243.75	4.51
244.133	4.61
244.515	4.47
244.897	4.76
245.279	5.11
245.661	3.91
246.043	4.45
246.425	4.87
246.807	4.02
247.189	5.42
247.571	4.25
247.953	4.21
248.335	4.54
248.717	4.59
249.098	4.74
249.48	4.65
249.862	4.09
250.243	4.55
250.625	5.01
251.006	4.26
251.388	4.3
251.769	3.99
252.151	4.01
252.532	5.13
252.913	5.14
253.295	4.91
253.676	4.11
254.057	4.42
254.438	4.85
254.819	4.06
255.2	4.49
255.581	4.57
255.962	4.34
256.343	3.93
256.724	4.19
257.105	4.37
257.486	4.35
257.867	4.49
258.247	4.51
258.628	4.5
259.009	4.01
259.389	4.37
259.77	4.38
260.15	4.7
260.531	5.12
260.911	4.86
261.292	4.13
261.672	4.31
262.052	4.37
262.432	4.43
262.813	4.65
263.193	4.37
263.573	4.25
263.953	5.03
264.333	5.04
264.713	4.29
265.093	4.08
265.473	4.8
265.853	4.29
266.233	3.93
266.612	3.87
266.992	4.08
267.372	4.61
267.752	4.93
268.131	3.63
268.511	3.93
268.89	3.54
269.27	4.26
269.649	3.74
270.029	4.1
270.408	4.08
270.787	3.68
271.167	4.54
271.546	4
271.925	5.4
272.304	4.63
272.683	3.94
273.062	4.46
273.441	4.17
273.82	3.57
274.199	4.05
274.578	4.45
274.957	3.73
275.336	4.37
275.715	4.39
276.093	3.73
276.472	4.16
276.851	4.79
277.229	4.14
277.608	4.07
277.986	3.83
278.365	4.33
278.743	4.13
279.122	4.83
279.5	3.7
279.878	3.95
280.257	3.82
280.635	4.77
281.013	3.62
281.391	3.68
281.769	3.89
282.147	4.31
282.525	3.74
282.903	3.58
283.281	3.99
283.659	3.95
284.037	4
284.415	3.98
284.792	4.54
285.17	3.98
285.548	4.3
285.925	4.1
286.303	4.05
286.68	4.45
287.058	4.13
287.435	3.75
287.813	4.01
288.19	3.99
288.567	3.9
288.945	3.89
289.322	3.13
289.699	4.21
290.076	4.26
290.453	3.9
290.83	3.8
291.207	4.92
291.584	3.97
291.961	3.96
292.338	3.74
292.715	4.18
293.092	3.66
293.469	4.23
293.845	4
294.222	4.17
294.599	3.79
294.975	4.01
295.352	3.96
295.728	3.91
296.105	3.93
296.481	4.76
296.858	4.49
297.234	4.51
297.61	4.38
297.986	4.52
298.363	4.33
298.739	4.12
299.115	3.67
299.491	4.03
299.867	3.89
300.243	3.98
300.619	4.1
300.995	4.13
301.371	4.24
301.746	4.27
302.122	4.5
302.498	4.33
302.874	4.1
303.249	5.05
303.625	4.2
304	4.08
304.376	4.05
304.751	4.34
305.127	4.47
305.502	4.76
305.878	3.89
306.253	4.44
306.628	4.39
307.003	4.34
307.378	4.03
307.754	4.4
308.129	4.14
308.504	4.66
308.879	4.19
309.254	4.68
309.629	3.79
310.003	4.47
310.378	4.68
310.753	4.85
311.128	4.66
311.502	4.06
311.877	4.17
312.252	4.23
312.626	4.29
313.001	4.11
313.375	4.12
313.75	4.46
314.124	4.17
314.498	4.65
314.873	4.37
315.247	4.37
315.621	3.94
315.995	4.71
316.369	4.31
316.743	4.22
317.117	4.46
317.491	4.41
317.865	4.72
318.239	3.8
318.613	4.83
318.987	4.61
319.361	4.25
319.734	4.26
320.108	4.24
320.482	4.64
320.855	3.9
321.229	4.86
321.602	4.09
321.976	4.51
322.349	4.64
322.723	4.33
323.096	4.69
323.469	4.35
323.843	5.2
324.216	4.83
324.589	4.37
324.962	4.9
325.335	4.85
325.708	4.82
326.081	4.53
326.454	4.66
326.827	5.12
327.2	4.69
327.573	4.39
327.945	4.78
328.318	4.78
328.691	4.3
329.063	4.79
329.436	4.79
329.809	4.68
330.181	4.7
330.553	4.31
330.926	4.89
331.298	3.99
331.671	4.57
332.043	4.82
332.415	4.96
332.787	4.56
333.159	4.41
333.532	4.53
333.904	4.4
334.276	4.7
334.648	4.26
335.02	4.39
335.391	4.57
335.763	4.54
336.135	4.67
336.507	4.65
336.879	4.47
337.25	4.23
337.622	4.56
337.993	4.71
338.365	4.3
338.736	5.1
339.108	4.46
339.479	4.83
339.851	4.41
340.222	4.23
340.593	4.74
340.964	4.69
341.336	4.7
341.707	3.91
342.078	4.16
342.449	4.56
342.82	4.95
343.191	4.64
343.562	4.63
343.933	4.59
344.303	4.67
344.674	4.83
345.045	4.34
345.416	4.6
345.786	4.3
346.157	4.66
346.527	5.14
346.898	4.48
347.268	4.42
347.639	4.79
348.009	4.73
348.38	4.88
348.75	5.01
349.12	4.92
349.49	4.34
349.861	4.68
350.231	4.44
350.601	5.04
350.971	4.77
351.341	4.78
351.711	4.75
352.081	4.71
352.45	4.7
352.82	4.67
353.19	4.52
353.56	4.21
353.929	4.36
354.299	4.54
354.669	5.21
355.038	4.24
355.408	4.2
355.777	4.94
356.147	4.73
356.516	4.82
356.885	4.68
357.254	4.29
357.624	4.33
357.993	4.57
358.362	4.62
358.731	4.78
359.1	4.3
359.469	4.64
359.838	4.63
360.207	4.64
360.576	4.86
360.945	4.38
361.314	4.96
361.682	4.97
362.051	4.98
362.42	4.88
362.788	4.56
363.157	4.9
363.525	4.96
363.894	4.66
364.262	4.86
364.631	4.53
364.999	4.72
365.367	4.66
365.735	4.82
366.104	4.81
366.472	4.82
366.84	4.6
367.208	4.75
367.576	4.68
367.944	4.9
368.312	4.98
368.68	4.98
369.048	4.88
369.416	4.85
369.783	4.93
370.151	4.87
370.519	4.88
370.886	4.88
371.254	4.96
371.621	5.14
371.989	4.81
372.356	4.76
372.724	4.58
373.091	4.62
373.458	4.63
373.826	4.46
374.193	4.63
374.56	4.87
374.927	5.15
375.294	4.63
375.661	5.01
376.028	4.85
376.395	5.13
376.762	5.07
377.129	4.81
377.496	4.75
377.863	4.77
378.229	4.79
378.596	4.62
378.963	5.09
379.329	4.94
379.696	4.72
380.062	5.12
380.429	4.75
380.795	5.19
381.161	5.12
381.528	5.11
381.894	4.98
382.26	4.8
382.626	4.76
382.993	4.78
383.359	4.76
383.725	4.82
384.091	5.02
384.457	4.93
384.823	5.34
385.188	5
385.554	4.96
385.92	5.16
386.286	5.3
386.651	5.07
387.017	5.59
387.383	5.12
387.748	5.04
388.114	5.11
388.479	5.24
388.845	4.93
389.21	5.23
389.575	4.83
389.94	4.91
390.306	5.14
390.671	5.08
391.036	4.86
391.401	5.23
391.766	4.94
392.131	4.98
392.496	4.78
392.861	4.87
393.226	5.23
393.591	5.1
393.956	5.21
394.32	5.19
394.685	4.98
395.05	4.79
395.414	4.87
395.779	4.94
396.143	5.05
396.508	5.01
396.872	5.34
397.236	5.15
397.601	5.15
397.965	5.32
398.329	4.84
398.694	5.15
399.058	5.48
399.422	5.07
399.786	5.04
400.15	5.2
400.514	5.49
400.878	5.44
401.242	5.19
401.605	5.46
401.969	5.19
402.333	5.18
402.697	5.2
403.06	5.01
403.424	5.26
403.787	4.87
404.151	5.34
404.514	4.88
404.878	5.1
405.241	5.36
405.604	5
405.968	5.15
406.331	5.37
406.694	5.38
407.057	5.03
407.42	5.08
407.783	5.15
408.146	5.16
408.509	5.05
408.872	5.16
409.235	5.27
409.598	5.1
409.961	5.34
410.323	5.25
410.686	5.23
411.049	5.41
411.411	5.33
411.774	5.46
412.136	5.16
412.499	5.18
412.861	5.23
413.223	5.56
413.586	5.18
413.948	5.27
414.31	5.38
414.672	5.39
415.035	5.24
415.397	5.28
415.759	5.18
416.121	5.3
416.483	5.43
416.845	5.21
417.206	5.42
417.568	5.15
417.93	5.44
418.292	5.29
418.653	5.53
419.015	5.37
419.377	5.46
419.738	5.39
420.1	5.23
420.461	5.25
420.822	5.28
421.184	5.27
421.545	5.42
421.906	5.37
422.267	5.25
422.629	5.24
422.99	5.35
423.351	5.25
423.712	5.27
424.073	5.31
424.434	5.43
424.795	5.34
425.155	5.19
425.516	5.16
425.877	5.32
426.238	5.3
426.598	5.25
426.959	5.41
427.32	5.37
427.68	5.27
428.041	5.43
428.401	5.52
428.761	5.45
429.122	5.48
429.482	5.61
429.842	5.49
430.202	5.27
430.563	5.49
430.923	5.45
431.283	5.54
431.643	5.62
432.003	5.32
432.363	5.52
432.722	5.63
433.082	5.55
433.442	5.32
433.802	5.46
434.161	5.49
434.521	5.61
434.881	5.51
435.24	5.5
435.6	5.52
435.959	5.6
436.319	5.61
436.678	5.6
437.037	5.57
437.396	5.45
437.756	5.56
438.115	5.49
438.474	5.63
438.833	5.69
439.192	5.76
439.551	5.53
439.91	5.52
440.269	5.63
440.628	5.54
440.987	5.33
441.345	5.66
441.704	5.54
442.063	5.49
442.421	5.59
442.78	5.57
443.138	5.63
443.497	5.58
443.855	5.5
444.214	5.61
444.572	5.58
444.93	5.58
445.288	5.52
445.647	5.68
446.005	5.6
446.363	5.55
446.721	5.53
447.079	5.76
447.437	5.42
447.795	5.65
448.153	5.56
448.51	5.57
448.868	5.59
449.226	5.72
449.584	5.56
449.941	5.56
450.299	5.7
450.656	5.54
451.014	5.67
451.371	5.74
451.729	5.86
452.086	5.71
452.443	5.93
452.801	5.67
453.158	5.59
453.515	5.76
453.872	5.7
454.229	5.83
454.586	5.67
454.943	5.66
455.3	5.7
455.657	5.71
456.014	5.89
456.371	6.02
456.727	5.83
457.084	5.86
457.441	5.95
457.797	5.81
458.154	5.78
458.51	5.81
458.867	5.92
459.223	5.75
459.58	5.86
459.936	5.62
460.292	5.8
460.648	5.84
461.005	5.87
461.361	5.71
461.717	5.72
462.073	5.74
462.429	5.8
462.785	5.8
463.141	5.71
463.496	5.83
463.852	6.04
464.208	5.92
464.564	5.96
464.919	6.06
465.275	6.07
465.631	6.12
465.986	5.92
466.342	5.8
466.697	6.06
467.052	6.14
467.408	6.01
467.763	5.96
468.118	6.14
468.473	5.94
468.829	6.12
469.184	5.77
469.539	6.08
469.894	5.99
470.249	5.99
470.603	5.97
470.958	5.89
471.313	6.23
471.668	6.1
472.023	5.96
472.377	6.02
472.732	5.91
473.086	6.03
473.441	6.08
473.795	6.2
474.15	6
474.504	5.97
474.859	5.97
475.213	6
475.567	6.17
475.921	6.1
476.275	5.87
476.63	6.24
476.984	6.25
477.338	6.11
477.692	6.06
478.045	6.03
478.399	6.03
478.753	6.12
479.107	6.16
479.461	6.19
479.814	6.19
480.168	5.97
480.521	5.99
480.875	6.22
481.228	6.18
481.582	6.21
481.935	6.14
482.289	6.13
482.642	6.25
482.995	5.98
483.348	6.12
483.701	6.32
484.055	6.07
484.408	6.01
484.761	6.01
485.114	5.99
485.466	5.9
485.819	5.83
486.172	5.81
486.525	5.92
486.878	5.95
487.23	5.93
487.583	6.03
487.936	6.09
488.288	6.01
488.641	5.96
488.993	6.02
489.345	6
489.698	5.96
490.05	6
490.402	6.02
490.754	6.07
491.107	6.09
491.459	6.22
491.811	6.25
492.163	6.12
492.515	6.34
492.866	6.12
493.218	6.06
493.57	6.04
493.922	6.02
494.274	6.13
494.625	6.22
494.977	6.28
495.328	6.33
495.68	6.31
496.031	6.43
496.383	6.38
496.734	6.45
497.086	6.46
497.437	6.5
497.788	6.45
498.139	6.33
498.49	6.51
498.842	6.35
499.193	6.55
499.544	6.38
499.894	6.39
500.245	6.52
500.596	6.47
500.947	6.47
501.298	6.57
501.648	6.62
501.999	6.47
502.35	6.52
502.7	6.53
503.051	6.48
503.401	6.6
503.752	6.6
504.102	6.53
504.452	6.55
504.803	6.59
505.153	6.64
505.503	6.72
505.853	6.64
506.203	6.71
506.553	6.57
506.903	6.66
507.253	6.56
507.603	6.76
507.953	6.64
508.303	6.64
508.652	6.58
509.002	6.68
509.352	6.62
509.701	6.62
510.051	6.65
510.4	6.64
510.75	6.65
511.099	6.71
511.449	6.81
511.798	6.66
512.147	6.74
512.496	6.86
512.846	6.85
513.195	6.76
513.544	6.84
513.893	6.83
514.242	6.74
514.591	6.72
514.939	6.84
515.288	6.76
515.637	6.7
515.986	6.77
516.334	6.95
516.683	6.76
517.032	6.95
517.38	6.89
517.729	6.97
518.077	6.85
518.426	6.97
518.774	6.92
519.122	7
519.47	6.82
519.819	6.84
520.167	6.71
520.515	6.84
520.863	6.85
521.211	6.83
521.559	6.83
521.907	6.84
522.255	6.86
522.602	7.01
522.95	7.07
523.298	6.9
523.645	6.99
523.993	7.07
524.341	7.21
524.688	7.01
525.036	7.07
525.383	7.01
525.73	7.13
526.078	7.15
526.425	6.99
526.772	7.05
527.119	7.1
527.466	7.05
527.814	6.98
528.161	7.06
528.508	7.05
528.854	7.1
529.201	7.11
529.548	7.07
529.895	6.98
530.242	6.84
530.588	6.87
530.935	6.9
531.282	6.98
531.628	7
531.975	7.03
532.321	7.07
532.667	7.12
533.014	7.18
533.36	7.22
533.706	7.1
534.052	7.26
534.399	7.29
534.745	7.23
535.091	7.13
535.437	7.19
535.783	7.16
536.129	7.23
536.474	7.26
536.82	7.4
537.166	7.34
537.512	7.36
537.857	7.48
538.203	7.44
538.549	7.39
538.894	7.38
539.239	7.39
539.585	7.38
539.93	7.53
540.276	7.58
540.621	7.64
540.966	7.59
541.311	7.65
541.656	7.57
542.001	7.53
542.346	7.59
542.691	7.53
543.036	7.42
543.381	7.36
543.726	7.43
544.071	7.45
544.415	7.53
544.76	7.52
545.105	7.58
545.449	7.66
545.794	7.81
546.138	7.57
546.483	7.71
546.827	7.73
547.171	7.83
547.516	7.8
547.86	7.91
548.204	7.79
548.548	7.86
548.892	7.86
549.236	7.88
549.58	7.94
549.924	7.96
550.268	7.9
550.612	7.84
550.956	8.03
551.3	8.2
551.643	8.28
551.987	8.24
552.33	8.17
552.674	8.35
553.017	8.39
553.361	8.37
553.704	8.23
554.048	8.27
554.391	8.18
554.734	8.23
555.077	8.24
555.42	8.16
555.764	8.4
556.107	8.34
556.45	8.27
556.793	8.28
557.135	8.27
557.478	8.39
557.821	8.41
558.164	8.34
558.507	8.44
558.849	8.35
559.192	8.51
559.534	8.51
559.877	8.5
560.219	8.65
560.562	8.7
560.904	8.66
561.246	8.47
561.589	8.68
561.931	8.61
562.273	8.58
562.615	8.68
562.957	8.76
563.299	8.73
563.641	8.8
563.983	8.75
564.325	8.79
564.667	8.82
565.008	8.79
565.35	8.87
565.692	8.85
566.033	8.93
566.375	8.9
566.716	8.99
567.058	9.17
567.399	9.15
567.741	9.06
568.082	9.04
568.423	9.15
568.764	9.03
569.105	8.85
569.447	9.09
569.788	9
570.129	9.06
570.47	9.2
570.811	9.3
571.151	9.19
571.492	9.45
571.833	9.24
572.174	9.3
572.514	9.27
572.855	9.23
573.195	9.27
573.536	9.25
573.876	9.24
574.217	9.41
574.557	9.27
574.898	9.27
575.238	9.48
575.578	9.51
575.918	9.57
576.258	9.7
576.598	9.46
576.938	9.44
577.278	9.47
577.618	9.62
577.958	9.46
578.298	9.76
578.638	9.69
578.977	9.76
579.317	9.55
579.657	9.8
579.996	9.95
580.336	9.89
580.675	9.9
581.014	9.9
581.354	9.86
581.693	9.87
582.032	9.82
582.372	10.02
582.711	9.87
583.05	10.16
583.389	10.09
583.728	10.05
584.067	10.38
584.406	10.19
584.745	10.19
585.083	9.9
585.422	10.47
585.761	10.58
586.1	10.32
586.438	10.27
586.777	10.4
587.115	10.28
587.454	10.43
587.792	10.33
588.13	10.57
588.469	10.6
588.807	10.14
589.145	10.55
589.483	10.51
589.821	10.65
590.159	10.5
590.497	10.39
590.835	10.8
591.173	10.43
591.511	10.44
591.849	10.59
592.187	10.71
592.524	10.64
592.862	10.58
593.2	10.47
593.537	10.58
593.875	10.98
594.212	10.62
594.55	10.63
594.887	10.99
595.224	11.01
595.561	11.03
595.899	11.03
596.236	11.07
596.573	11.09
596.91	11.14
597.247	10.82
597.584	11.17
597.921	11.21
598.258	11.12
598.594	11.35
598.931	11.2
599.268	11.21
599.604	11.21
599.941	11.15
600.277	11.36
600.614	11.38
600.95	11.48
601.287	11.25
601.623	11.52
601.959	11.61
602.296	11.72
602.632	11.33
602.968	11.6
603.304	11.67
603.64	11.61
603.976	11.55
604.312	11.51
604.648	11.8
604.984	12.06
605.319	11.87
605.655	11.8
605.991	11.84
606.326	11.54
606.662	11.99
606.998	11.67
607.333	11.88
607.668	11.92
608.004	12.12
608.339	12.09
608.674	12.11
609.01	11.79
609.345	12.3
609.68	12.09
610.015	11.81
610.35	12.23
610.685	12.23
611.02	12.32
611.355	12.09
611.689	12.17
612.024	12.1
612.359	12.44
612.694	12.39
613.028	12.35
613.363	12.41
613.697	12.38
614.032	12.42
614.366	12.84
614.7	12.61
615.035	12.63
615.369	12.44
615.703	12.6
616.037	12.61
616.371	12.73
616.705	12.71
617.039	12.78
617.373	12.98
617.707	12.76
618.041	12.69
618.375	12.89
618.709	12.86
619.042	13.08
619.376	12.91
619.71	12.87
620.043	13.02
620.377	12.94
620.71	12.75
621.043	12.98
621.377	12.79
621.71	12.84
622.043	13.36
622.376	13.32
622.709	13.36
623.043	13.18
623.376	13.35
623.709	13.65
624.041	13.74
624.374	13.25
624.707	13.26
625.04	13.41
625.373	13.88
625.705	13.56
626.038	13.56
626.37	13.62
626.703	13.79
627.035	13.65
627.368	14.02
627.7	13.88
628.032	13.86
628.365	13.71
628.697	13.88
629.029	13.75
629.361	13.59
629.693	13.87
630.025	13.43
630.357	14.13
630.689	13.93
631.021	14.08
631.353	14.27
631.684	14.19
632.016	13.97
632.348	14.11
632.679	14.07
633.011	14.53
633.342	14.34
633.674	14.42
634.005	14.27
634.336	14.53
634.668	14.43
634.999	14.62
635.33	14.96
635.661	14.53
635.992	14.73
636.323	14.53
636.654	14.81
636.985	14.22
637.316	14.43
637.647	14.71
637.977	14.68
638.308	15.11
638.639	14.76
638.969	14.54
639.3	14.83
639.63	14.67
639.961	14.94
640.291	14.61
640.622	14.79
640.952	15.53
641.282	14.81
641.612	15.09
641.943	15.14
642.273	15.31
642.603	15.41
642.933	15.26
643.263	15.14
643.592	15.16
643.922	15.04
644.252	15.14
644.582	15.15
644.911	15.07
645.241	15.1
645.571	15.99
645.9	15.56
646.23	15.21
646.559	15.73
646.888	15.83
647.218	15.65
647.547	15.74
647.876	15.66
648.205	15.41
648.534	16.2
648.863	16.14
649.192	16.29
649.521	16.19
649.85	15.35
650.179	15.7
650.508	16.21
650.837	16.01
651.165	15.73
651.494	15.69
651.822	15.99
652.151	16.42
652.479	16.25
652.808	16.06
653.136	16.52
653.465	16.85
653.793	16.52
654.121	16.64
654.449	16.78
654.777	16.51
655.105	16.36
655.433	16.4
655.761	16.47
656.089	16.83
656.417	16.96
656.745	16.96
657.073	16.51
657.4	16.82
657.728	16.37
658.056	17.16
658.383	16.55
658.711	17.07
659.038	16.7
659.365	16.89
659.693	16.87
660.02	16.72
660.347	17.28
660.674	17.33
661.001	17.5
661.329	17.23
661.656	17.07
661.982	16.64
662.309	17.3
662.636	17.3
662.963	17.25
663.29	17.06
663.616	17.25
663.943	17.11
664.27	17.54
664.596	17.31
664.923	17.78
665.249	16.72
665.576	17.52
665.902	17.01
666.228	17.61
666.554	17.42
666.881	17.06
667.207	17.55
667.533	17.67
667.859	17.71
668.185	17.8
668.511	17.59
668.837	17.75
669.162	18.76
669.488	17.74
669.814	17.89
670.139	17.89
670.465	17.71
670.791	17.91
671.116	18.26
671.442	18.12
671.767	17.99
672.092	18.28
672.418	18.01
672.743	18.09
673.068	17.6
673.393	18.65
673.718	18.33
674.043	18.3
674.368	17.99
674.693	18.15
675.018	18.79
675.343	18.65
675.667	19.04
675.992	18.38
676.317	18.54
676.641	18.35
676.966	19.1
677.29	18.18
677.615	18.61
677.939	18
678.264	18.8
678.588	19.12
678.912	18.93
679.236	19
679.56	18.96
679.885	19.45
680.209	18.72
680.532	19.42
680.856	19.07
681.18	19.43
681.504	18.85
681.828	19.22
682.152	19.02
682.475	19.24
682.799	19.45
683.122	18.92
683.446	19.27
683.769	20.17
684.093	19.24
684.416	19.93
684.739	19.79
685.062	18.91
685.386	19.81
