Data from 438_forehead_Reflection__4__151.txt Node

Date: Tue Dec 12 19:36:31 CST 2023
User: ToomeyLab
Spectrometer: FLMS14357
Trigger mode: 0
Integration Time (sec): 1.000000E-2
Scans to average: 100
Electric dark correction enabled: true
Nonlinearity correction enabled: false
Boxcar width: 0
XAxis mode: Wavelengths
Number of Pixels in Spectrum: 2048
>>>>>Begin Spectral Data<<<<<
189.047	-306.09
189.435	-306.09
189.823	-306.09
190.211	-50.17
190.599	573.91
190.987	63.78
191.375	-34.14
191.763	-165.67
192.151	124.95
192.538	230.88
192.926	87.9
193.314	145.84
193.702	66.52
194.089	254.39
194.477	91.36
194.864	125.19
195.252	369.26
195.639	-41.21
196.027	-854.82
196.414	87.27
196.801	-67.72
197.189	-81.56
197.576	-115.52
197.963	73.62
198.351	-24.84
198.738	90.21
199.125	25.54
199.512	39.02
199.899	10.74
200.286	7.42
200.673	-6.52
201.06	-14.85
201.447	-26.49
201.833	-15.71
202.22	-13.01
202.607	-105.47
202.994	86.9
203.38	18.8
203.767	-6.95
204.154	-27.73
204.54	22.51
204.927	4.33
205.313	22.51
205.699	23.1
206.086	15.57
206.472	69.94
206.858	10.96
207.245	26.85
207.631	42.93
208.017	-10.16
208.403	-37.92
208.789	34.4
209.175	11.05
209.561	49.03
209.947	-33.41
210.333	33.94
210.719	7.12
211.105	23.8
211.491	51.84
211.876	6.43
212.262	36.14
212.648	39.61
213.034	56.84
213.419	-9.52
213.805	16.22
214.19	20.69
214.576	26.86
214.961	22.65
215.346	11.96
215.732	26.95
216.117	-1.38
216.502	-22.59
216.888	-8.93
217.273	9.25
217.658	-2.4
218.043	3.54
218.428	6.65
218.813	1.03
219.198	-20.42
219.583	24.45
219.968	27.55
220.353	-21.01
220.738	13.08
221.122	-5.84
221.507	-0.57
221.892	-7.23
222.276	7.39
222.661	13.28
223.046	-1.62
223.43	8.01
223.815	4.54
224.199	8.04
224.583	16.51
224.968	6.48
225.352	0.08
225.736	8.27
226.121	4.24
226.505	2.89
226.889	1.92
227.273	-2.26
227.657	10.99
228.041	8.41
228.425	5.6
228.809	6.03
229.193	5.75
229.577	8.36
229.961	3.09
230.344	6.08
230.728	5.88
231.112	5.56
231.495	5.5
231.879	6.43
232.263	4.67
232.646	4.92
233.03	5.86
233.413	3.84
233.797	3.61
234.18	5.92
234.563	3.47
234.946	7.02
235.33	6.6
235.713	6.83
236.096	4.81
236.479	7.01
236.862	6.77
237.245	5.39
237.628	4.7
238.011	5.91
238.394	5.9
238.777	5.65
239.16	5.64
239.543	5.89
239.925	6.57
240.308	5.25
240.691	5.16
241.073	6.27
241.456	5.55
241.838	3.97
242.221	6.06
242.603	5.56
242.986	4.37
243.368	5.5
243.75	5.08
244.133	5.17
244.515	5.43
244.897	5.58
245.279	5.61
245.661	5.51
246.043	4.72
246.425	5.54
246.807	3.95
247.189	6.48
247.571	5.01
247.953	4.87
248.335	5.13
248.717	4.94
249.098	5.07
249.48	4.86
249.862	5.1
250.243	4.75
250.625	5.4
251.006	4.64
251.388	5.19
251.769	4.96
252.151	4.24
252.532	5.65
252.913	4.99
253.295	5.82
253.676	5.36
254.057	4.96
254.438	5.26
254.819	4.91
255.2	5.25
255.581	5.48
255.962	5.59
256.343	5.62
256.724	6.22
257.105	5.85
257.486	5.55
257.867	4.62
258.247	4.98
258.628	5.38
259.009	4.47
259.389	5.5
259.77	5.03
260.15	4.62
260.531	5.47
260.911	5.45
261.292	4.8
261.672	4.62
262.052	4.93
262.432	5
262.813	5.09
263.193	5.02
263.573	5.36
263.953	5.87
264.333	6.35
264.713	5.12
265.093	4.94
265.473	4.76
265.853	4.17
266.233	4.3
266.612	4.3
266.992	5.38
267.372	5.78
267.752	5.69
268.131	4.19
268.511	4.59
268.89	4.27
269.27	4.49
269.649	4.77
270.029	4.55
270.408	5.04
270.787	4.98
271.167	5.26
271.546	4.98
271.925	5.64
272.304	5.1
272.683	4.62
273.062	4.18
273.441	5.3
273.82	4.28
274.199	4.57
274.578	4.5
274.957	4.76
275.336	4.75
275.715	4.98
276.093	4.47
276.472	5
276.851	5.02
277.229	4.23
277.608	4.01
277.986	3.7
278.365	5.02
278.743	4.98
279.122	5.02
279.5	4.19
279.878	4.09
280.257	4.6
280.635	4.52
281.013	5.1
281.391	4.43
281.769	4.85
282.147	5
282.525	4.09
282.903	4.79
283.281	4.76
283.659	4.36
284.037	4.6
284.415	4.27
284.792	4.96
285.17	4.67
285.548	4.89
285.925	4.94
286.303	4.84
286.68	4.46
287.058	5.31
287.435	4.41
287.813	4.36
288.19	4.82
288.567	4.84
288.945	5
289.322	4.71
289.699	4.96
290.076	4.79
290.453	4.89
290.83	4.81
291.207	5.31
291.584	5.08
291.961	4.72
292.338	5.3
292.715	5.09
293.092	4.89
293.469	5.24
293.845	5.31
294.222	5.57
294.599	5.4
294.975	4.93
295.352	5.2
295.728	5.46
296.105	5.46
296.481	5.77
296.858	5.65
297.234	5.76
297.61	5.28
297.986	5.75
298.363	5.38
298.739	5.27
299.115	5.47
299.491	5.56
299.867	5.67
300.243	5.62
300.619	5.76
300.995	6.09
301.371	6.54
301.746	5.93
302.122	6.37
302.498	6.44
302.874	6.09
303.249	6.71
303.625	5.55
304	6.64
304.376	5.85
304.751	6.8
305.127	6.14
305.502	6.65
305.878	6.19
306.253	6.41
306.628	6.49
307.003	6.49
307.378	6.96
307.754	6.72
308.129	7.15
308.504	7.31
308.879	6.56
309.254	6.87
309.629	6.52
310.003	6.7
310.378	7.33
310.753	6.93
311.128	7.19
311.502	7.1
311.877	6.84
312.252	6.67
312.626	7.51
313.001	6.82
313.375	7.25
313.75	7.61
314.124	7.57
314.498	7.48
314.873	7.37
315.247	8.08
315.621	7.98
315.995	8.4
316.369	7.89
316.743	7.81
317.117	7.53
317.491	7.81
317.865	8.26
318.239	8.22
318.613	8.53
318.987	8.98
319.361	8.09
319.734	8.31
320.108	8.7
320.482	8.73
320.855	8.24
321.229	8.9
321.602	8.78
321.976	8.82
322.349	8.95
322.723	8.68
323.096	9.51
323.469	8.63
323.843	10.08
324.216	9.06
324.589	9.55
324.962	9.49
325.335	9.62
325.708	9.53
326.081	9.69
326.454	9.33
326.827	9.78
327.2	9.8
327.573	9.78
327.945	9.87
328.318	10.09
328.691	9.51
329.063	9.79
329.436	10.12
329.809	9.46
330.181	10.1
330.553	9.83
330.926	10.1
331.298	9.67
331.671	10.57
332.043	10.8
332.415	10.42
332.787	10.62
333.159	10.38
333.532	10.58
333.904	10.27
334.276	11.08
334.648	10.81
335.02	10.57
335.391	10.3
335.763	10.84
336.135	11.15
336.507	11.07
336.879	10.44
337.25	10.78
337.622	10.74
337.993	10.43
338.365	11.08
338.736	11.05
339.108	11.14
339.479	11.51
339.851	11.13
340.222	11.04
340.593	11.07
340.964	11.54
341.336	11.78
341.707	11.61
342.078	11.42
342.449	11.82
342.82	11.48
343.191	11.72
343.562	11.67
343.933	12.05
344.303	12.24
344.674	12.24
345.045	12.02
345.416	12.64
345.786	12.02
346.157	12.1
346.527	12.41
346.898	12.14
347.268	12.21
347.639	12.24
348.009	12.34
348.38	12.37
348.75	12.79
349.12	12.66
349.49	12.13
349.861	12.66
350.231	12.4
350.601	13.21
350.971	12.76
351.341	12.83
351.711	13.33
352.081	12.65
352.45	13.3
352.82	13.1
353.19	13.33
353.56	13.05
353.929	13.03
354.299	13.29
354.669	13.17
355.038	12.81
355.408	13.79
355.777	13.89
356.147	13.33
356.516	13.81
356.885	13.47
357.254	13.83
357.624	13.85
357.993	13.45
358.362	14.19
358.731	13.68
359.1	13.67
359.469	13.87
359.838	13.85
360.207	14.07
360.576	14.34
360.945	14.38
361.314	14.35
361.682	14.4
362.051	14.36
362.42	14.36
362.788	14.38
363.157	14.74
363.525	14.82
363.894	14.12
364.262	14.43
364.631	14.49
364.999	14.71
365.367	14.86
365.735	14.59
366.104	14.91
366.472	15.23
366.84	15.32
367.208	15.02
367.576	15.26
367.944	15.64
368.312	15.36
368.68	15.27
369.048	15.42
369.416	15.68
369.783	15.56
370.151	15.47
370.519	15.8
370.886	15.82
371.254	15.92
371.621	16.1
371.989	15.82
372.356	16.08
372.724	15.63
373.091	16.2
373.458	15.9
373.826	15.73
374.193	16.18
374.56	16.6
374.927	16.54
375.294	16.5
375.661	16.63
376.028	16.63
376.395	16.65
376.762	16.79
377.129	17
377.496	16.72
377.863	16.65
378.229	16.95
378.596	16.73
378.963	17.01
379.329	16.92
379.696	16.86
380.062	17.47
380.429	17.39
380.795	17.52
381.161	17.06
381.528	17.33
381.894	17.65
382.26	17.11
382.626	17.46
382.993	18.07
383.359	17.22
383.725	17.48
384.091	17.96
384.457	17.77
384.823	17.94
385.188	17.79
385.554	18.03
385.92	17.99
386.286	17.93
386.651	18.25
387.017	18.37
387.383	18.07
387.748	18.24
388.114	18.29
388.479	18.61
388.845	18.4
389.21	18.46
389.575	18.23
389.94	18.53
390.306	18.35
390.671	18.8
391.036	18.95
391.401	18.88
391.766	18.88
392.131	18.8
392.496	18.41
392.861	18.82
393.226	18.93
393.591	19.15
393.956	19.05
394.32	19.17
394.685	19.27
395.05	19.22
395.414	19.58
395.779	19.43
396.143	19.56
396.508	19.46
396.872	19.54
397.236	19.88
397.601	19.58
397.965	19.74
398.329	19.72
398.694	19.68
399.058	19.89
399.422	20.03
399.786	20.02
400.15	19.84
400.514	20.23
400.878	19.8
401.242	19.88
401.605	20.35
401.969	20.18
402.333	20.29
402.697	20.56
403.06	20.01
403.424	20.37
403.787	20.28
404.151	20.41
404.514	20.61
404.878	20.39
405.241	20.78
405.604	20.52
405.968	20.69
406.331	20.66
406.694	21.14
407.057	20.78
407.42	20.77
407.783	20.74
408.146	21
408.509	20.99
408.872	21.21
409.235	21.12
409.598	21.05
409.961	21.27
410.323	21.43
410.686	21.55
411.049	21.45
411.411	21.72
411.774	21.84
412.136	21.33
412.499	21.39
412.861	21.67
413.223	22.02
413.586	21.72
413.948	21.66
414.31	21.82
414.672	21.96
415.035	22.08
415.397	21.85
415.759	22
416.121	22.12
416.483	22.2
416.845	22.21
417.206	22.1
417.568	22.23
417.93	22.24
418.292	22.29
418.653	22.46
419.015	22.32
419.377	22.45
419.738	22.44
420.1	22.32
420.461	22.43
420.822	22.58
421.184	22.37
421.545	22.8
421.906	22.54
422.267	22.45
422.629	22.44
422.99	22.61
423.351	22.66
423.712	22.52
424.073	22.7
424.434	22.82
424.795	23
425.155	22.72
425.516	22.79
425.877	22.96
426.238	22.92
426.598	22.92
426.959	23.15
427.32	23.28
427.68	23.42
428.041	23.67
428.401	23.55
428.761	23.84
429.122	23.88
429.482	24.17
429.842	24.06
430.202	23.87
430.563	24.26
430.923	24.32
431.283	24.2
431.643	24.43
432.003	24.16
432.363	24.47
432.722	24.51
433.082	24.52
433.442	24.34
433.802	24.79
434.161	24.63
434.521	24.54
434.881	24.56
435.24	24.8
435.6	24.78
435.959	24.59
436.319	24.97
436.678	24.94
437.037	25.01
437.396	24.96
437.756	25.31
438.115	25.13
438.474	25.37
438.833	25.34
439.192	25.47
439.551	25.4
439.91	25.34
440.269	25.44
440.628	25.47
440.987	25.44
441.345	25.52
441.704	25.53
442.063	25.61
442.421	25.69
442.78	25.47
443.138	25.53
443.497	25.73
443.855	25.76
444.214	25.98
444.572	25.96
444.93	25.97
445.288	26.02
445.647	26.08
446.005	26.29
446.363	26.07
446.721	26.18
447.079	26.44
447.437	25.87
447.795	26.17
448.153	26.06
448.51	26.12
448.868	26.22
449.226	26.2
449.584	26.35
449.941	26.53
450.299	26.6
450.656	26.71
451.014	26.88
451.371	26.94
451.729	26.82
452.086	27.17
452.443	27.29
452.801	27.29
453.158	27.29
453.515	27.39
453.872	27.24
454.229	27.43
454.586	27.14
454.943	27.48
455.3	27.33
455.657	27.47
456.014	27.66
456.371	27.85
456.727	27.66
457.084	27.75
457.441	27.77
457.797	27.87
458.154	27.94
458.51	27.92
458.867	28.19
459.223	28.14
459.58	28.18
459.936	28.08
460.292	28.03
460.648	28.08
461.005	28.12
461.361	27.99
461.717	28.11
462.073	27.83
462.429	28.09
462.785	28
463.141	28.45
463.496	28.4
463.852	28.75
464.208	28.85
464.564	28.93
464.919	28.9
465.275	28.87
465.631	29.23
465.986	28.96
466.342	29.12
466.697	29.31
467.052	29.37
467.408	29.09
467.763	29.31
468.118	29.23
468.473	29.29
468.829	29.5
469.184	29.25
469.539	29.21
469.894	29.43
470.249	29.41
470.603	29.21
470.958	29.59
471.313	30.02
471.668	29.76
472.023	29.76
472.377	29.82
472.732	29.94
473.086	29.96
473.441	30.02
473.795	30.32
474.15	30.08
474.504	30.05
474.859	30.34
475.213	30.2
475.567	30.13
475.921	30.36
476.275	30.35
476.63	30.6
476.984	30.58
477.338	30.58
477.692	30.33
478.045	30.48
478.399	30.55
478.753	30.53
479.107	30.7
479.461	30.66
479.814	30.73
480.168	30.5
480.521	30.59
480.875	30.82
481.228	30.78
481.582	30.88
481.935	31.08
482.289	31.07
482.642	30.93
482.995	30.87
483.348	30.87
483.701	31.02
484.055	30.81
484.408	30.65
484.761	30.59
485.114	30.36
485.466	30.1
485.819	30.12
486.172	29.98
486.525	30.04
486.878	30.15
487.23	30.44
487.583	30.67
487.936	30.85
488.288	30.81
488.641	30.84
488.993	30.74
489.345	30.64
489.698	30.65
490.05	30.67
490.402	30.74
490.754	30.86
491.107	31.05
491.459	31.37
491.811	31.62
492.163	31.54
492.515	31.73
492.866	31.49
493.218	31.44
493.57	31.17
493.922	31.18
494.274	31.26
494.625	31.44
494.977	31.84
495.328	32.03
495.68	32.15
496.031	32.73
496.383	32.56
496.734	32.63
497.086	32.44
497.437	32.71
497.788	32.65
498.139	32.42
498.49	32.68
498.842	32.56
499.193	32.69
499.544	32.8
499.894	32.71
500.245	32.89
500.596	32.77
500.947	33.06
501.298	33.18
501.648	33.32
501.999	33.15
502.35	33.34
502.7	33.44
503.051	33.38
503.401	33.32
503.752	33.57
504.102	33.41
504.452	33.69
504.803	33.59
505.153	33.8
505.503	33.73
505.853	33.85
506.203	33.78
506.553	33.74
506.903	33.78
507.253	33.75
507.603	33.88
507.953	33.87
508.303	34
508.652	34.07
509.002	33.94
509.352	33.91
509.701	34.12
510.051	34.03
510.4	34.1
510.75	33.81
511.099	34.03
511.449	34.16
511.798	34.07
512.147	34.28
512.496	34.49
512.846	34.26
513.195	34.33
513.544	34.47
513.893	34.44
514.242	34.67
514.591	34.45
514.939	34.53
515.288	34.4
515.637	34.33
515.986	34.69
516.334	34.94
516.683	34.82
517.032	35
517.38	34.99
517.729	34.94
518.077	35.02
518.426	34.97
518.774	34.91
519.122	34.93
519.47	35
519.819	34.95
520.167	34.75
520.515	34.8
520.863	34.64
521.211	34.72
521.559	34.83
521.907	34.97
522.255	35.18
522.602	35.51
522.95	35.54
523.298	35.61
523.645	35.6
523.993	35.67
524.341	35.62
524.688	35.82
525.036	35.84
525.383	35.76
525.73	35.85
526.078	35.68
526.425	35.89
526.772	35.61
527.119	35.53
527.466	35.56
527.814	35.47
528.161	35.46
528.508	35.34
528.854	35.42
529.201	35.57
529.548	35.53
529.895	35.33
530.242	35.1
530.588	35.14
530.935	35.17
531.282	35.02
531.628	35.07
531.975	35.41
532.321	35.55
532.667	35.79
533.014	36.08
533.36	35.97
533.706	36.05
534.052	36.28
534.399	36.1
534.745	35.91
535.091	35.82
535.437	35.91
535.783	35.8
536.129	35.87
536.474	36.22
536.82	36.4
537.166	36.71
537.512	36.72
537.857	36.71
538.203	36.74
538.549	36.44
538.894	36.52
539.239	36.56
539.585	36.73
539.93	36.93
540.276	37.26
540.621	37.31
540.966	37.31
541.311	37.33
541.656	37.27
542.001	37.27
542.346	37.2
542.691	37
543.036	36.79
543.381	36.63
543.726	36.54
544.071	36.55
544.415	36.8
544.76	37.01
545.105	37.05
545.449	37.26
545.794	37.35
546.138	37.22
546.483	37.71
546.827	37.53
547.171	37.72
547.516	37.74
547.86	37.71
548.204	37.76
548.548	37.74
548.892	37.91
549.236	37.77
549.58	38.05
549.924	37.95
550.268	38.26
550.612	38.44
550.956	38.6
551.3	38.72
551.643	38.83
551.987	38.74
552.33	38.77
552.674	38.83
553.017	38.92
553.361	39.04
553.704	39.08
554.048	38.72
554.391	38.8
554.734	38.75
555.077	38.78
555.42	38.72
555.764	38.99
556.107	38.92
556.45	39.05
556.793	39.2
557.135	39.27
557.478	39.3
557.821	39.44
558.164	39.42
558.507	39.53
558.849	39.56
559.192	39.47
559.534	39.73
559.877	39.6
560.219	39.63
560.562	39.63
560.904	39.82
561.246	39.6
561.589	40.12
561.931	39.72
562.273	39.6
562.615	39.55
562.957	40.01
563.299	39.93
563.641	39.89
563.983	40.14
564.325	39.84
564.667	40.01
565.008	39.98
565.35	39.91
565.692	40.1
566.033	40.31
566.375	40.34
566.716	40.29
567.058	40.55
567.399	40.37
567.741	40.28
568.082	40.18
568.423	40.25
568.764	40.13
569.105	40.36
569.447	40.42
569.788	40.52
570.129	40.25
570.47	40.5
570.811	40.86
571.151	40.87
571.492	41.21
571.833	40.68
572.174	40.87
572.514	40.83
572.855	40.79
573.195	40.74
573.536	40.86
573.876	40.77
574.217	40.69
574.557	40.74
574.898	40.87
575.238	40.97
575.578	40.94
575.918	41.14
576.258	41.16
576.598	41.27
576.938	41.19
577.278	41.07
577.618	41.06
577.958	40.95
578.298	41.25
578.638	41.17
578.977	41.52
579.317	41.35
579.657	41.77
579.996	41.87
580.336	41.91
580.675	41.7
581.014	41.99
581.354	42.07
581.693	42.09
582.032	42.28
582.372	42.04
582.711	41.79
583.05	42.38
583.389	42.34
583.728	42.19
584.067	42.16
584.406	42.63
584.745	42.8
585.083	42.1
585.422	42.47
585.761	42.78
586.1	42.45
586.438	42.36
586.777	42.32
587.115	42.47
587.454	42.6
587.792	42.53
588.13	42.63
588.469	42.83
588.807	42.46
589.145	42.62
589.483	42.88
589.821	43.29
590.159	43.08
590.497	42.66
590.835	42.99
591.173	42.77
591.511	42.62
591.849	43.02
592.187	42.71
592.524	42.86
592.862	42.95
593.2	43.08
593.537	43
593.875	43.11
594.212	43.02
594.55	43.43
594.887	43.53
595.224	43.31
595.561	43.15
595.899	43.41
596.236	43.4
596.573	43.12
596.91	43.12
597.247	43.59
597.584	43.2
597.921	43.43
598.258	43.76
598.594	43.39
598.931	43.22
599.268	43.12
599.604	42.88
599.941	43.28
600.277	43.3
600.614	43.64
600.95	43.8
601.287	43.78
601.623	43.89
601.959	44.06
602.296	43.98
602.632	44.08
602.968	44.4
603.304	43.85
603.64	44.23
603.976	43.56
604.312	43.82
604.648	44.14
604.984	43.92
605.319	44.2
605.655	44.06
605.991	43.99
606.326	43.82
606.662	44.16
606.998	43.83
607.333	44.13
607.668	43.91
608.004	44.03
608.339	44.04
608.674	44.47
609.01	44.65
609.345	44.39
609.68	44.56
610.015	44.39
610.35	44.89
610.685	44.43
611.02	44.37
611.355	44.42
611.689	44.22
612.024	44.48
612.359	44.58
612.694	44.58
613.028	44.77
613.363	44.42
613.697	44.76
614.032	44.79
614.366	44.99
614.7	45
615.035	45.28
615.369	45.07
615.703	45.42
616.037	45.01
616.371	45.32
616.705	45.07
617.039	45.38
617.373	44.87
617.707	45.24
618.041	45.04
618.375	45.14
618.709	45.2
619.042	45.2
619.376	45.52
619.71	45.38
620.043	45.65
620.377	45.48
620.71	45.3
621.043	45.75
621.377	45.31
621.71	45.75
622.043	46.15
622.376	45.75
622.709	46.06
623.043	45.76
623.376	45.8
623.709	45.75
624.041	45.83
624.374	46.09
624.707	46.02
625.04	46.12
625.373	46.04
625.705	45.71
626.038	46.05
626.37	45.94
626.703	46.06
627.035	45.89
627.368	46.34
627.7	46.2
628.032	46.3
628.365	46.17
628.697	45.95
629.029	46.13
629.361	46.09
629.693	46.07
630.025	45.76
630.357	46.23
630.689	45.87
631.021	46.53
631.353	46.22
631.684	46.54
632.016	46.45
632.348	46.57
632.679	46.2
633.011	46.68
633.342	46.39
633.674	46.77
634.005	46.72
634.336	46.68
634.668	46.89
634.999	46.59
635.33	46.78
635.661	46.91
635.992	46.89
636.323	46.95
636.654	46.74
636.985	46.97
637.316	46.58
637.647	46.56
637.977	46.74
638.308	47.1
638.639	46.91
638.969	47.23
639.3	46.48
639.63	47.57
639.961	47.35
640.291	47.2
640.622	46.8
640.952	47
641.282	47.62
641.612	47.58
641.943	47.58
642.273	47.31
642.603	47.62
642.933	48.02
643.263	47.24
643.592	46.86
643.922	47.9
644.252	47.48
644.582	47.53
644.911	47.59
645.241	47.41
645.571	47.92
645.9	47.59
646.23	47.82
646.559	47.92
646.888	47.98
647.218	47.95
647.547	47.96
647.876	48.07
648.205	47.84
648.534	47.98
648.863	48.14
649.192	47.76
649.521	48.39
649.85	47.83
650.179	48.26
650.508	47.79
650.837	47.9
651.165	48.01
651.494	47.55
651.822	48.02
652.151	48.47
652.479	48.52
652.808	48.48
653.136	48.12
653.465	48.4
653.793	48.53
654.121	48.62
654.449	48.17
654.777	47.91
655.105	48.21
655.433	48.93
655.761	49.03
656.089	47.83
656.417	48.66
656.745	47.88
657.073	48.58
657.4	48.48
657.728	48.93
658.056	48.56
658.383	48.46
658.711	48.73
659.038	48.27
659.365	48.38
659.693	48.41
660.02	48.58
660.347	48.86
660.674	48.54
661.001	48.59
661.329	48.82
661.656	48.67
661.982	48.15
662.309	48.7
662.636	48.71
662.963	48.39
663.29	48.31
663.616	48.93
663.943	48.95
664.27	48.76
664.596	48.92
664.923	49.07
665.249	48.48
665.576	49.19
665.902	48.68
666.228	48.72
666.554	49.5
666.881	49.1
667.207	49.45
667.533	48.78
667.859	49.12
668.185	49.61
668.511	49
668.837	49.03
669.162	50.28
669.488	49.32
669.814	48.69
670.139	48.99
