Data from 438_forehead_Reflection__0__147.txt Node

Date: Tue Dec 12 19:35:45 CST 2023
User: ToomeyLab
Spectrometer: FLMS14357
Trigger mode: 0
Integration Time (sec): 1.000000E-2
Scans to average: 100
Electric dark correction enabled: true
Nonlinearity correction enabled: false
Boxcar width: 0
XAxis mode: Wavelengths
Number of Pixels in Spectrum: 2048
>>>>>Begin Spectral Data<<<<<
189.047	541.31
189.435	541.31
189.823	541.31
190.211	-35.29
190.599	322.9
190.987	321.47
191.375	-144.78
191.763	516.22
192.151	119.84
192.538	66.87
192.926	-34.93
193.314	280.17
193.702	64.43
194.089	164.01
194.477	234.98
194.864	595.59
195.252	109.28
195.639	-245.74
196.027	-2541.12
196.414	32.38
196.801	324.6
197.189	-120.21
197.576	-48
197.963	74.28
198.351	68.07
198.738	80.26
199.125	-26.59
199.512	-8.14
199.899	23.71
200.286	28.4
200.673	-27.9
201.06	-38.66
201.447	-75.12
201.833	-5.76
202.22	12.89
202.607	-223.45
202.994	13.42
203.38	46.96
203.767	-9.13
204.154	17.67
204.54	31.76
204.927	8.2
205.313	34.28
205.699	-48.52
206.086	17.23
206.472	23.72
206.858	35.95
207.245	-1.76
207.631	31.37
208.017	12.75
208.403	-22.84
208.789	35.67
209.175	-4.63
209.561	20.98
209.947	29.97
210.333	17.45
210.719	3.7
211.105	41.71
211.491	35.18
211.876	4.46
212.262	1.16
212.648	-43
213.034	-7.06
213.419	-2.04
213.805	22.11
214.19	40.19
214.576	20.5
214.961	2.39
215.346	-22.36
215.732	17.67
216.117	17.41
216.502	-8.3
216.888	-1.99
217.273	-5.81
217.658	-50.94
218.043	-19.41
218.428	26.67
218.813	3.17
219.198	5.94
219.583	5.32
219.968	18.13
220.353	16.28
220.738	8.46
221.122	-18.29
221.507	4.26
221.892	-10.22
222.276	24.8
222.661	5.77
223.046	3.21
223.43	8.7
223.815	-0.43
224.199	17.34
224.583	13.39
224.968	6.67
225.352	1.08
225.736	7.5
226.121	5.87
226.505	3.48
226.889	-3.72
227.273	3.87
227.657	3.65
228.041	6.86
228.425	1.69
228.809	2.71
229.193	-0.1
229.577	4.24
229.961	1.47
230.344	3.77
230.728	3.75
231.112	3.16
231.495	3.03
231.879	3.25
232.263	2.69
232.646	2.28
233.03	2.99
233.413	2.88
233.797	3.71
234.18	2.66
234.563	3.23
234.946	5.02
235.33	4.23
235.713	4.25
236.096	3.39
236.479	4.17
236.862	2.79
237.245	4.04
237.628	3.06
238.011	4.87
238.394	2.47
238.777	4.79
239.16	4.71
239.543	4.02
239.925	4.14
240.308	3.86
240.691	3.19
241.073	4.29
241.456	4.15
241.838	3.64
242.221	4.27
242.603	4.06
242.986	3.33
243.368	3.12
243.75	3.15
244.133	3.73
244.515	4.02
244.897	3.58
245.279	4.58
245.661	3.19
246.043	3.39
246.425	4.16
246.807	3.48
247.189	3.88
247.571	3.89
247.953	3.56
248.335	3.31
248.717	3.13
249.098	3.53
249.48	3.03
249.862	2.96
250.243	3.26
250.625	4.05
251.006	3.51
251.388	3.51
251.769	3.59
252.151	3.03
252.532	3.59
252.913	3.54
253.295	4.22
253.676	2.82
254.057	2.93
254.438	3.56
254.819	3.3
255.2	2.81
255.581	4.2
255.962	1.93
256.343	3.76
256.724	3.26
257.105	3.92
257.486	3.58
257.867	3.75
258.247	3.06
258.628	3.87
259.009	3.19
259.389	2.72
259.77	3.08
260.15	3.2
260.531	3.62
260.911	3.48
261.292	2.92
261.672	3.01
262.052	3.12
262.432	3.28
262.813	3.29
263.193	3.17
263.573	3.32
263.953	4.41
264.333	4.06
264.713	3.76
265.093	3.2
265.473	4.17
265.853	2.93
266.233	2.33
266.612	2.54
266.992	3.6
267.372	3.79
267.752	4
268.131	2.72
268.511	2.44
268.89	2.66
269.27	2.54
269.649	3.46
270.029	3.47
270.408	3.68
270.787	3.05
271.167	2.89
271.546	2.94
271.925	3.65
272.304	3.64
272.683	2.72
273.062	3.02
273.441	3.33
273.82	2.9
274.199	3.16
274.578	3.04
274.957	2.84
275.336	3.3
275.715	3.53
276.093	2.82
276.472	3.71
276.851	4.07
277.229	2.57
277.608	2.98
277.986	2.3
278.365	3.39
278.743	3.57
279.122	3.65
279.5	3.08
279.878	2.77
280.257	2.95
280.635	2.8
281.013	2.77
281.391	3.42
281.769	3.16
282.147	3.35
282.525	2.61
282.903	3.07
283.281	2.81
283.659	3.33
284.037	3.16
284.415	3.2
284.792	3.35
285.17	3.3
285.548	3.18
285.925	3.2
286.303	2.91
286.68	3.04
287.058	3.69
287.435	3.5
287.813	2.78
288.19	3.27
288.567	3.42
288.945	3.15
289.322	2.62
289.699	3.46
290.076	3.24
290.453	3.57
290.83	3.04
291.207	4.06
291.584	3.59
291.961	3.35
292.338	3.2
292.715	3.32
293.092	3.68
293.469	3.55
293.845	4.03
294.222	3.89
294.599	3.55
294.975	3.41
295.352	3.95
295.728	3.97
296.105	3.28
296.481	3.89
296.858	3.57
297.234	4.27
297.61	3.79
297.986	4.01
298.363	3.91
298.739	3.66
299.115	3.4
299.491	3.96
299.867	4
300.243	3.79
300.619	4.36
300.995	4.17
301.371	4.23
301.746	3.95
302.122	4.86
302.498	4.15
302.874	4.18
303.249	4.79
303.625	3.68
304	4.19
304.376	4.74
304.751	5.26
305.127	4.28
305.502	4.77
305.878	4.37
306.253	4.29
306.628	4.77
307.003	4.68
307.378	4.56
307.754	5.03
308.129	4.78
308.504	5.34
308.879	4.45
309.254	5.53
309.629	4.46
310.003	4.98
310.378	5.13
310.753	5.47
311.128	4.79
311.502	4.65
311.877	4.87
312.252	4.74
312.626	4.86
313.001	4.82
313.375	4.87
313.75	5.32
314.124	5.32
314.498	5.32
314.873	5.5
315.247	5.41
315.621	5.72
315.995	6.05
316.369	5.28
316.743	5.4
317.117	4.86
317.491	5.09
317.865	5.7
318.239	5.54
318.613	5.88
318.987	5.96
319.361	5.13
319.734	5.9
320.108	5.66
320.482	5.84
320.855	5.8
321.229	5.73
321.602	6.4
321.976	5.99
322.349	5.76
322.723	5.76
323.096	6.55
323.469	5.83
323.843	7.16
324.216	6.39
324.589	6.55
324.962	6.33
325.335	6.93
325.708	6.58
326.081	6.5
326.454	6.18
326.827	7.26
327.2	6.89
327.573	5.98
327.945	6.5
328.318	6.77
328.691	6.05
329.063	6.68
329.436	6.46
329.809	6.82
330.181	6.15
330.553	6.44
330.926	6.87
331.298	6.9
331.671	6.99
332.043	6.7
332.415	7.01
332.787	6.79
333.159	6.53
333.532	6.84
333.904	7.23
334.276	7.91
334.648	6.72
335.02	6.95
335.391	7.31
335.763	6.97
336.135	7.26
336.507	7.83
336.879	7.18
337.25	7.13
337.622	7.66
337.993	7.88
338.365	7.26
338.736	7.6
339.108	7.12
339.479	7.43
339.851	7.19
340.222	6.79
340.593	7.02
340.964	7.72
341.336	8.01
341.707	7.57
342.078	7.81
342.449	7.47
342.82	7.99
343.191	8.04
343.562	7.98
343.933	8.46
344.303	8.19
344.674	8.33
345.045	8.38
345.416	8.82
345.786	8.03
346.157	8.26
346.527	8.39
346.898	7.8
347.268	8.04
347.639	8.18
348.009	8.28
348.38	7.88
348.75	8.24
349.12	8.57
349.49	8.28
349.861	8.67
350.231	8.14
350.601	8.62
350.971	8.35
351.341	8.52
351.711	9.01
352.081	8.41
352.45	8.39
352.82	8.96
353.19	8.55
353.56	8.55
353.929	8.62
354.299	8.73
354.669	8.6
355.038	8.54
355.408	8.93
355.777	8.93
356.147	8.85
356.516	8.87
356.885	9.64
357.254	8.96
357.624	8.65
357.993	8.99
358.362	9.18
358.731	9.42
359.1	9.09
359.469	9.21
359.838	9.02
360.207	8.94
360.576	9.26
360.945	9.33
361.314	9.78
361.682	9.42
362.051	9.45
362.42	9.78
362.788	9.38
363.157	9.81
363.525	9.53
363.894	9.42
364.262	9.6
364.631	9.47
364.999	9.75
365.367	9.95
365.735	9.81
366.104	9.64
366.472	9.75
366.84	9.8
367.208	9.7
367.576	9.93
367.944	10.1
368.312	10.09
368.68	10.15
369.048	9.74
369.416	9.7
369.783	10.15
370.151	10.26
370.519	10.14
370.886	10.44
371.254	10.34
371.621	10.46
371.989	10.32
372.356	10.37
372.724	10.39
373.091	10.51
373.458	10.38
373.826	10.31
374.193	10.29
374.56	11.01
374.927	11.01
375.294	10.89
375.661	10.67
376.028	10.99
376.395	10.94
376.762	11.07
377.129	10.45
377.496	10.94
377.863	10.88
378.229	10.94
378.596	10.92
378.963	11.33
379.329	10.84
379.696	10.88
380.062	11.48
380.429	11.13
380.795	11.37
381.161	11.29
381.528	11.29
381.894	11.5
382.26	11.39
382.626	11.51
382.993	11.68
383.359	11.41
383.725	11.23
384.091	11.64
384.457	11.75
384.823	11.78
385.188	11.54
385.554	11.34
385.92	11.53
386.286	11.82
386.651	11.84
387.017	12.1
387.383	11.8
387.748	11.82
388.114	12.31
388.479	12.05
388.845	11.9
389.21	12.18
389.575	11.81
389.94	12.05
390.306	12.21
390.671	12.22
391.036	12.21
391.401	12
391.766	12.15
392.131	12.23
392.496	12.09
392.861	12.27
393.226	12.54
393.591	12.26
393.956	12.2
394.32	12.57
394.685	12.67
395.05	12.42
395.414	12.38
395.779	12.51
396.143	12.78
396.508	12.58
396.872	12.55
397.236	12.78
397.601	12.8
397.965	12.96
398.329	12.86
398.694	12.92
399.058	13.17
399.422	13.11
399.786	12.79
400.15	12.79
400.514	13.33
400.878	12.92
401.242	13.14
401.605	13.49
401.969	13.22
402.333	13.41
402.697	13
403.06	13.2
403.424	13.27
403.787	13.41
404.151	13.42
404.514	13.42
404.878	13.58
405.241	13.67
405.604	13.19
405.968	13.3
406.331	13.41
406.694	13.82
407.057	13.62
407.42	13.77
407.783	13.46
408.146	13.71
408.509	13.66
408.872	13.84
409.235	13.82
409.598	13.8
409.961	13.94
410.323	14.02
410.686	13.9
411.049	13.77
411.411	13.91
411.774	14.05
412.136	13.87
412.499	14.05
412.861	14.1
413.223	14.39
413.586	14.03
413.948	14.32
414.31	14.43
414.672	14.39
415.035	14.41
415.397	14.47
415.759	14.51
416.121	14.22
416.483	14.5
416.845	14.39
417.206	14.72
417.568	14.41
417.93	14.73
418.292	14.54
418.653	14.65
419.015	14.5
419.377	14.51
419.738	14.53
420.1	14.34
420.461	14.53
420.822	14.53
421.184	14.5
421.545	14.75
421.906	14.53
422.267	14.51
422.629	14.57
422.99	14.49
423.351	14.45
423.712	14.68
424.073	14.75
424.434	14.78
424.795	14.8
425.155	14.73
425.516	14.65
425.877	14.85
426.238	14.73
426.598	14.89
426.959	14.93
427.32	15.01
427.68	15.15
428.041	15.23
428.401	15.27
428.761	15.26
429.122	15.36
429.482	15.61
429.842	15.7
430.202	15.56
430.563	15.75
430.923	15.52
431.283	15.65
431.643	15.68
432.003	15.73
432.363	15.82
432.722	15.68
433.082	15.89
433.442	16.04
433.802	15.96
434.161	16.05
434.521	16.25
434.881	16
435.24	16.06
435.6	16.07
435.959	15.9
436.319	16.07
436.678	16.22
437.037	16.28
437.396	16.18
437.756	16.26
438.115	16.42
438.474	16.22
438.833	16.52
439.192	16.51
439.551	16.3
439.91	16.39
440.269	16.35
440.628	16.35
440.987	16.29
441.345	16.51
441.704	16.4
442.063	16.52
442.421	16.58
442.78	16.53
443.138	16.53
443.497	16.58
443.855	16.74
444.214	16.68
444.572	16.92
444.93	16.96
445.288	16.77
445.647	16.92
446.005	16.83
446.363	16.79
446.721	16.74
447.079	17
447.437	16.81
447.795	16.93
448.153	16.89
448.51	16.91
448.868	16.93
449.226	17.05
449.584	17.08
449.941	17.26
450.299	17.19
450.656	17.27
451.014	17.3
451.371	17.51
451.729	17.5
452.086	17.57
452.443	17.62
452.801	17.79
453.158	17.59
453.515	17.63
453.872	17.61
454.229	17.67
454.586	17.7
454.943	17.73
455.3	17.85
455.657	17.76
456.014	17.9
456.371	18.04
456.727	18.17
457.084	18.05
457.441	18.24
457.797	18.25
458.154	18.16
458.51	18.21
458.867	18.21
459.223	18.33
459.58	18.16
459.936	18.18
460.292	18.27
460.648	18.3
461.005	18.23
461.361	18.07
461.717	17.96
462.073	18.01
462.429	18.23
462.785	18.32
463.141	18.4
463.496	18.48
463.852	18.86
464.208	18.68
464.564	18.8
464.919	18.92
465.275	19.29
465.631	19.09
465.986	19.07
466.342	18.8
466.697	19.14
467.052	19.28
467.408	19.16
467.763	19.11
468.118	19.17
468.473	19.17
468.829	19.12
469.184	19.22
469.539	19.37
469.894	19.49
470.249	19.58
470.603	19.47
470.958	19.35
471.313	19.84
471.668	19.76
472.023	19.45
472.377	19.72
472.732	19.87
473.086	19.74
473.441	20.02
473.795	20.01
474.15	19.79
474.504	19.66
474.859	19.75
475.213	19.79
475.567	19.85
475.921	20
476.275	19.83
476.63	20.06
476.984	20.16
477.338	20.16
477.692	19.97
478.045	20.14
478.399	20.1
478.753	19.98
479.107	20.17
479.461	20.14
479.814	20.29
480.168	20.25
480.521	20.12
480.875	20.32
481.228	20.4
481.582	20.57
481.935	20.58
482.289	20.43
482.642	20.51
482.995	20.46
483.348	20.29
483.701	20.61
484.055	20.31
484.408	20.19
484.761	19.96
485.114	19.74
485.466	19.45
485.819	19.38
486.172	19.62
486.525	19.88
486.878	20.04
487.23	20.04
487.583	20.13
487.936	20.21
488.288	20.26
488.641	20.19
488.993	19.97
489.345	20.03
489.698	20.02
490.05	20.15
490.402	20.29
490.754	20.44
491.107	20.58
491.459	20.84
491.811	20.92
492.163	20.92
492.515	21
492.866	20.79
493.218	20.39
493.57	20.36
493.922	20.57
494.274	20.9
494.625	21.16
494.977	21.29
495.328	21.3
495.68	21.34
496.031	21.61
496.383	21.66
496.734	21.95
497.086	21.8
497.437	21.83
497.788	21.89
498.139	21.79
498.49	21.84
498.842	21.71
499.193	21.78
499.544	21.91
499.894	21.96
500.245	22.11
500.596	22
500.947	22.08
501.298	22.21
501.648	22.36
501.999	22.24
502.35	22.36
502.7	22.38
503.051	22.51
503.401	22.52
503.752	22.53
504.102	22.7
504.452	22.75
504.803	22.7
505.153	22.81
505.503	22.7
505.853	22.78
506.203	22.75
506.553	22.77
506.903	22.92
507.253	22.89
507.603	22.96
507.953	22.82
508.303	23.04
508.652	22.94
509.002	23.09
509.352	23.18
509.701	23.14
510.051	23.06
510.4	22.93
510.75	22.93
511.099	22.87
511.449	22.98
511.798	23.05
512.147	23.26
512.496	23.31
512.846	23.13
513.195	23.17
513.544	23.2
513.893	23.28
514.242	23.12
514.591	23.27
514.939	23.45
515.288	23.34
515.637	23.46
515.986	23.6
516.334	23.89
516.683	23.71
517.032	23.91
517.38	23.7
517.729	23.96
518.077	23.84
518.426	23.87
518.774	23.88
519.122	23.8
519.47	23.58
519.819	23.68
520.167	23.52
520.515	23.43
520.863	23.66
521.211	23.68
521.559	23.8
521.907	23.91
522.255	24.08
522.602	24.02
522.95	24.19
523.298	24.16
523.645	24.34
523.993	24.36
524.341	24.6
524.688	24.34
525.036	24.49
525.383	24.52
525.73	24.49
526.078	24.67
526.425	24.43
526.772	24.45
527.119	24.21
527.466	24.09
527.814	24
528.161	24.18
528.508	24.41
528.854	24.38
529.201	24.24
529.548	24.15
529.895	23.8
530.242	23.52
530.588	23.51
530.935	23.77
531.282	24.08
531.628	24.24
531.975	24.25
532.321	24.17
532.667	24.41
533.014	24.65
533.36	24.64
533.706	24.76
534.052	24.92
534.399	24.69
534.745	24.59
535.091	24.38
535.437	24.4
535.783	24.68
536.129	24.88
536.474	24.95
536.82	24.92
537.166	25.32
537.512	25.29
537.857	25.26
538.203	25.14
538.549	25.15
538.894	25.16
539.239	25.35
539.585	25.54
539.93	25.56
540.276	25.7
540.621	25.7
540.966	25.65
541.311	25.87
541.656	25.68
542.001	25.66
542.346	25.55
542.691	25.41
543.036	25.01
543.381	24.91
543.726	25.24
544.071	25.37
544.415	25.57
544.76	25.54
545.105	25.57
545.449	25.74
545.794	26.04
546.138	26.07
546.483	26.14
546.827	26.22
547.171	26.23
547.516	26.18
547.86	26.58
548.204	26.51
548.548	26.46
548.892	26.33
549.236	26.43
549.58	26.5
549.924	26.59
550.268	26.93
550.612	26.87
550.956	27.04
551.3	27.07
551.643	27.15
551.987	27.32
552.33	27.11
552.674	27.44
553.017	27.59
553.361	27.5
553.704	27.39
554.048	27.38
554.391	27.3
554.734	27.3
555.077	27.39
555.42	27.39
555.764	27.63
556.107	27.71
556.45	27.76
556.793	27.63
557.135	27.75
557.478	28
557.821	27.76
558.164	28.06
558.507	27.96
558.849	27.96
559.192	28.18
559.534	28.27
559.877	28.14
560.219	28.19
560.562	28.3
560.904	28.49
561.246	28.33
561.589	28.43
561.931	28.15
562.273	28.44
562.615	28.42
562.957	28.25
563.299	28.4
563.641	28.43
563.983	28.7
564.325	28.4
564.667	28.54
565.008	28.59
565.35	28.48
565.692	28.82
566.033	28.68
566.375	28.54
566.716	28.65
567.058	28.81
567.399	28.69
567.741	28.87
568.082	28.61
568.423	28.67
568.764	28.46
569.105	28.78
569.447	28.82
569.788	28.89
570.129	28.82
570.47	28.88
570.811	28.99
571.151	29.3
571.492	29.41
571.833	29.15
572.174	29.18
572.514	29.37
572.855	29.21
573.195	29.26
573.536	29.21
573.876	28.95
574.217	29.2
574.557	29.17
574.898	29.07
575.238	29.33
575.578	29.16
575.918	29.38
576.258	29.49
576.598	29.3
576.938	29.41
577.278	29.29
577.618	29.57
577.958	29.6
578.298	29.9
578.638	29.5
578.977	29.71
579.317	29.91
579.657	30.08
579.996	30.09
580.336	30.19
580.675	30.09
581.014	30.32
581.354	30.37
581.693	30.44
582.032	30.28
582.372	30.52
582.711	30.26
583.05	30.51
583.389	30.48
583.728	30.58
584.067	30.65
584.406	30.74
584.745	30.63
585.083	30.65
585.422	31.09
585.761	31.09
586.1	30.76
586.438	31.03
586.777	30.93
587.115	30.46
587.454	30.62
587.792	30.55
588.13	30.81
588.469	30.98
588.807	30.7
589.145	31.02
589.483	31.05
589.821	31.08
590.159	30.92
590.497	30.5
590.835	31.22
591.173	31.15
591.511	31.05
591.849	31.38
592.187	31.16
592.524	30.99
592.862	31.46
593.2	31.31
593.537	31.21
593.875	31.44
594.212	31.42
594.55	31.48
594.887	31.7
595.224	31.34
595.561	31.64
595.899	31.29
596.236	31.52
596.573	31.55
596.91	31.69
597.247	31.66
597.584	31.66
597.921	31.78
598.258	31.9
598.594	31.45
598.931	31.54
599.268	31.47
599.604	31.52
599.941	31.72
600.277	31.87
600.614	32
600.95	32.09
601.287	31.89
601.623	32.29
601.959	32.31
602.296	32.15
602.632	32.15
602.968	32.42
603.304	32.28
603.64	32.26
603.976	31.97
604.312	32.34
604.648	32.15
604.984	32.23
605.319	32.36
605.655	31.96
605.991	32.3
606.326	32.11
606.662	32.28
606.998	32.21
607.333	32.39
607.668	32.33
608.004	32.33
608.339	32.66
608.674	32.42
609.01	32.91
609.345	32.88
609.68	33.15
610.015	32.82
610.35	33.04
610.685	32.76
611.02	32.99
611.355	32.45
611.689	32.62
612.024	32.69
612.359	32.96
612.694	32.85
613.028	33.02
613.363	32.87
613.697	32.92
614.032	32.55
614.366	33.57
614.7	33.1
615.035	33.69
615.369	33.21
615.703	33.62
616.037	33.43
616.371	33.31
616.705	33.05
617.039	33.8
617.373	33.29
617.707	33.26
618.041	34
618.375	33.6
618.709	33.4
619.042	33.7
619.376	33.69
619.71	33.56
620.043	33.5
620.377	33.69
620.71	33.54
621.043	33.51
621.377	33.6
621.71	33.9
622.043	34.16
622.376	33.69
622.709	34.18
623.043	34.21
623.376	34.23
623.709	34.22
624.041	34.29
624.374	34.05
624.707	34.29
625.04	33.87
625.373	34.6
625.705	34.06
626.038	34.53
626.37	34.05
626.703	34.28
627.035	33.98
627.368	34.63
627.7	34.32
628.032	34.16
628.365	34.15
628.697	34.34
629.029	34.26
629.361	34.08
629.693	34.14
630.025	33.91
630.357	34.63
630.689	34.42
631.021	34.89
631.353	35.19
631.684	34.66
632.016	34.69
632.348	34.78
632.679	34.4
633.011	35.09
633.342	34.73
633.674	35.15
634.005	34.95
634.336	35.36
634.668	35.29
634.999	34.5
635.33	34.85
635.661	34.95
635.992	34.84
636.323	34.67
636.654	35.21
636.985	35.14
637.316	35.15
637.647	34.91
637.977	35.23
638.308	35.39
638.639	35.07
638.969	35.13
639.3	35.4
639.63	35.53
639.961	35.6
640.291	35.03
640.622	35.92
640.952	35.95
641.282	35.55
641.612	35.81
641.943	36.06
642.273	35.64
642.603	36.08
642.933	36.11
643.263	35.8
643.592	35.5
643.922	35.71
644.252	36.19
644.582	35.41
644.911	35.79
645.241	34.98
645.571	36.26
645.9	35.42
646.23	36.3
646.559	36.41
646.888	36.22
647.218	35.71
647.547	36.12
647.876	36.15
648.205	36
648.534	36.36
648.863	36
649.192	36.13
649.521	36.72
649.85	35.8
650.179	36.1
650.508	36.1
650.837	36.41
651.165	36.37
651.494	36.19
651.822	37.06
652.151	36.64
652.479	36.79
652.808	36.5
653.136	36.85
653.465	37.07
653.793	36.89
654.121	36.67
654.449	36.3
654.777	36.33
655.105	36.66
655.433	37.15
655.761	36.69
656.089	36.4
656.417	36.92
656.745	36.31
657.073	36.16
657.4	36.77
657.728	36.57
658.056	36.69
658.383	36.48
658.711	37.29
659.038	36.73
659.365	36.96
659.693	36.73
660.02	36.75
660.347	37.12
660.674	36.76
661.001	37.16
661.329	36.34
661.656	36.39
661.982	37
662.309	37.03
662.636	36.82
662.963	37.14
663.29	37.21
663.616	37.44
663.943	37.32
664.27	36.77
664.596	37.03
664.923	37.75
665.249	36.67
665.576	37.48
665.902	37.42
666.228	37.17
666.554	37.5
666.881	37.32
667.207	37.84
667.533	37.76
667.859	37.8
668.185	37.32
668.511	36.6
668.837	37.4
669.162	37.94
669.488	37.71
669.814	37.34
670.139	37.39
670.465	37.13
670.791	37.61
671.116	37.31
671.442	37.72
671.767	37.6
672.092	38.02
672.418	37.61
672.743	38.38
