Data from 438_forehead_Reflection__2__149.txt Node

Date: Tue Dec 12 19:36:10 CST 2023
User: ToomeyLab
Spectrometer: FLMS14357
Trigger mode: 0
Integration Time (sec): 1.000000E-2
Scans to average: 100
Electric dark correction enabled: true
Nonlinearity correction enabled: false
Boxcar width: 0
XAxis mode: Wavelengths
Number of Pixels in Spectrum: 2048
>>>>>Begin Spectral Data<<<<<
189.047	213.09
189.435	213.09
189.823	213.09
190.211	55.87
190.599	389.57
190.987	118.04
191.375	-141.62
191.763	50.39
192.151	75.79
192.538	-235.08
192.926	-107.66
193.314	-562.9
193.702	52.86
194.089	57.58
194.477	255.19
194.864	263.27
195.252	107.97
195.639	-13.58
196.027	-1112.69
196.414	-14.77
196.801	-205.87
197.189	13.51
197.576	-296.27
197.963	40.28
198.351	20.43
198.738	72.4
199.125	60.12
199.512	-15.43
199.899	14.78
200.286	31.2
200.673	29.47
201.06	-11.07
201.447	-60.15
201.833	40.72
202.22	21.78
202.607	-122.34
202.994	-8.38
203.38	75.68
203.767	-1.34
204.154	26.47
204.54	46.38
204.927	7.33
205.313	9.06
205.699	15.57
206.086	-0.96
206.472	52.69
206.858	10.76
207.245	31.04
207.631	25.41
208.017	33.24
208.403	-6
208.789	36.62
209.175	-1.49
209.561	64.64
209.947	15.28
210.333	30.26
210.719	4.42
211.105	-1.24
211.491	25.16
211.876	26.37
212.262	42.48
212.648	52.39
213.034	-87.58
213.419	14.44
213.805	3.09
214.19	44.82
214.576	20.33
214.961	48.76
215.346	28.32
215.732	21.39
216.117	-0.49
216.502	-14.23
216.888	-0.86
217.273	4.33
217.658	-39.86
218.043	16.04
218.428	15.63
218.813	24.19
219.198	-9.92
219.583	-8.97
219.968	25.62
220.353	28.24
220.738	26.43
221.122	23.85
221.507	-7.73
221.892	11.17
222.276	8.65
222.661	20.15
223.046	8.19
223.43	10.72
223.815	-8.37
224.199	9.58
224.583	8.62
224.968	3.55
225.352	0.65
225.736	11.72
226.121	11.23
226.505	12.65
226.889	-0.45
227.273	9.95
227.657	10.19
228.041	8.45
228.425	4.39
228.809	9.27
229.193	3.24
229.577	6.11
229.961	6.4
230.344	6.75
230.728	7.15
231.112	6.41
231.495	6.39
231.879	7.46
232.263	4.94
232.646	5.41
233.03	7.69
233.413	5.59
233.797	5.25
234.18	6.87
234.563	7.14
234.946	6.32
235.33	5.99
235.713	5.38
236.096	6.15
236.479	6.76
236.862	7.55
237.245	5.99
237.628	5.34
238.011	7.05
238.394	4.07
238.777	7.02
239.16	6
239.543	8.17
239.925	7.1
240.308	6.2
240.691	7.4
241.073	6.9
241.456	6.4
241.838	6
242.221	6.18
242.603	6.57
242.986	5.92
243.368	6.08
243.75	5.89
244.133	5.97
244.515	5.89
244.897	5.98
245.279	6.67
245.661	5.16
246.043	5.08
246.425	5.86
246.807	5.22
247.189	5.76
247.571	6.43
247.953	5.5
248.335	5.5
248.717	5.45
249.098	5.48
249.48	5.58
249.862	5.51
250.243	5.55
250.625	6.02
251.006	6.02
251.388	6.08
251.769	6.2
252.151	5.38
252.532	6.77
252.913	6.15
253.295	6.57
253.676	5.28
254.057	5.02
254.438	6.08
254.819	5.73
255.2	6.67
255.581	5.45
255.962	5.39
256.343	6.12
256.724	5.96
257.105	6.51
257.486	5.21
257.867	5.78
258.247	5.74
258.628	5.96
259.009	4.97
259.389	5.75
259.77	5.56
260.15	6.09
260.531	5.51
260.911	5.51
261.292	5.37
261.672	5.31
262.052	5.36
262.432	5.57
262.813	5.73
263.193	5.69
263.573	5.35
263.953	6.72
264.333	6.59
264.713	5.25
265.093	5.57
265.473	6.26
265.853	5.99
266.233	4.74
266.612	5.65
266.992	5.76
267.372	6.67
267.752	6.01
268.131	5.05
268.511	5.17
268.89	4.6
269.27	5.04
269.649	5.53
270.029	5.37
270.408	5.46
270.787	5.3
271.167	5.2
271.546	5.44
271.925	6.59
272.304	6.12
272.683	4.9
273.062	5.21
273.441	5.36
273.82	4.98
274.199	5.41
274.578	5.3
274.957	5.52
275.336	5.49
275.715	5.62
276.093	4.65
276.472	5.23
276.851	5.51
277.229	5.06
277.608	5.18
277.986	4.62
278.365	5.04
278.743	5.63
279.122	5.96
279.5	5.69
279.878	4.63
280.257	4.83
280.635	5.42
281.013	5.14
281.391	4.92
281.769	5.68
282.147	5.7
282.525	4.73
282.903	5.44
283.281	5.04
283.659	5.18
284.037	5.83
284.415	5.12
284.792	5.41
285.17	5.35
285.548	5.21
285.925	5.39
286.303	5.13
286.68	5.26
287.058	5.42
287.435	5.2
287.813	5.1
288.19	5.27
288.567	5.27
288.945	5.41
289.322	4.86
289.699	5.2
290.076	5.43
290.453	5.4
290.83	5.59
291.207	6.18
291.584	5.73
291.961	5.46
292.338	5.64
292.715	5.79
293.092	5.5
293.469	5.68
293.845	5.65
294.222	5.69
294.599	5.77
294.975	5.61
295.352	5.97
295.728	6.15
296.105	6.15
296.481	6.32
296.858	6
297.234	6.16
297.61	6.11
297.986	6.54
298.363	6.34
298.739	6.05
299.115	5.77
299.491	5.98
299.867	6.35
300.243	5.68
300.619	6.7
300.995	6.08
301.371	7.18
301.746	6.58
302.122	7.17
302.498	6.83
302.874	6.87
303.249	7.38
303.625	6.72
304	6.9
304.376	6.82
304.751	6.96
305.127	7.05
305.502	7.19
305.878	7
306.253	7.2
306.628	7.04
307.003	7.12
307.378	6.56
307.754	7.51
308.129	7.1
308.504	7.8
308.879	6.96
309.254	7.66
309.629	7.16
310.003	8.07
310.378	7.66
310.753	7.42
311.128	7.91
311.502	7.22
311.877	7.32
312.252	7.59
312.626	8.06
313.001	8.06
313.375	7.79
313.75	8.29
314.124	7.96
314.498	8.63
314.873	8.21
315.247	8.59
315.621	8.46
315.995	9.04
316.369	8.73
316.743	8.47
317.117	8.38
317.491	8.79
317.865	8.43
318.239	9.28
318.613	9.68
318.987	9.05
319.361	8.79
319.734	9.05
320.108	9.41
320.482	9.37
320.855	8.98
321.229	9.5
321.602	9.26
321.976	9.91
322.349	10.03
322.723	9.4
323.096	10.31
323.469	9.8
323.843	10.26
324.216	10.11
324.589	10.29
324.962	9.95
325.335	10.52
325.708	10.43
326.081	10.4
326.454	10.44
326.827	10.7
327.2	10.59
327.573	10.02
327.945	10.9
328.318	11.15
328.691	9.92
329.063	11.35
329.436	10.63
329.809	10.6
330.181	10.46
330.553	11.19
330.926	11.45
331.298	10.71
331.671	11.16
332.043	11.05
332.415	11.19
332.787	10.82
333.159	11.72
333.532	11.17
333.904	10.93
334.276	12.11
334.648	11.13
335.02	11.38
335.391	11.24
335.763	11.49
336.135	11.93
336.507	12
336.879	11.29
337.25	12.07
337.622	11.97
337.993	12.12
338.365	11.93
338.736	12
339.108	12.37
339.479	12.75
339.851	12.18
340.222	11.82
340.593	12.35
340.964	12.22
341.336	12.78
341.707	12.46
342.078	12.28
342.449	12.81
342.82	12.81
343.191	12.81
343.562	12.71
343.933	13.37
344.303	13.45
344.674	13.12
345.045	13.51
345.416	13.47
345.786	13.32
346.157	13.28
346.527	13.78
346.898	13.17
347.268	13.22
347.639	13.88
348.009	13.3
348.38	13.8
348.75	13.83
349.12	14.03
349.49	14.05
349.861	14.39
350.231	13.63
350.601	14.3
350.971	13.79
351.341	14.22
351.711	14.65
352.081	14.14
352.45	14.1
352.82	14.43
353.19	14.25
353.56	14.49
353.929	14.14
354.299	14.4
354.669	14.54
355.038	14.45
355.408	14.21
355.777	15.12
356.147	14.53
356.516	15.11
356.885	15.33
357.254	14.87
357.624	15.04
357.993	14.87
358.362	15.04
358.731	15.2
359.1	14.98
359.469	15.08
359.838	15.09
360.207	15.43
360.576	15.86
360.945	15.78
361.314	15.79
361.682	15.94
362.051	15.89
362.42	15.91
362.788	15.88
363.157	15.95
363.525	15.89
363.894	15.9
364.262	16.01
364.631	15.91
364.999	16.05
365.367	16.51
365.735	16.16
366.104	16.2
366.472	16.28
366.84	16.61
367.208	16.59
367.576	16.87
367.944	17.38
368.312	17.2
368.68	16.82
369.048	17.42
369.416	17.05
369.783	16.95
370.151	17.07
370.519	17.02
370.886	17.63
371.254	17.17
371.621	17.4
371.989	17.38
372.356	17.57
372.724	17.44
373.091	17.79
373.458	17.82
373.826	17.76
374.193	17.83
374.56	18.2
374.927	18.14
375.294	18.33
375.661	18.35
376.028	18.18
376.395	18.65
376.762	18.62
377.129	18.35
377.496	18.21
377.863	18.66
378.229	18.6
378.596	18.48
378.963	18.65
379.329	18.56
379.696	18.63
380.062	18.98
380.429	19.02
380.795	18.73
381.161	18.94
381.528	19.02
381.894	19.66
382.26	19.06
382.626	19.47
382.993	19.57
383.359	19.5
383.725	19.36
384.091	19.48
384.457	19.57
384.823	19.77
385.188	19.52
385.554	19.76
385.92	19.78
386.286	20.11
386.651	19.93
387.017	20.42
387.383	20.08
387.748	20.28
388.114	19.95
388.479	20.36
388.845	20.46
389.21	20.27
389.575	20.3
389.94	20.51
390.306	20.45
390.671	21.01
391.036	20.49
391.401	20.72
391.766	20.9
392.131	21.09
392.496	20.88
392.861	20.91
393.226	21.04
393.591	21.06
393.956	21.15
394.32	21.33
394.685	21.12
395.05	21.39
395.414	21.16
395.779	21.46
396.143	21.51
396.508	21.5
396.872	21.64
397.236	21.63
397.601	21.68
397.965	21.96
398.329	22.09
398.694	21.6
399.058	22.21
399.422	22.3
399.786	22.27
400.15	21.97
400.514	22.46
400.878	22.08
401.242	22.13
401.605	22.3
401.969	22.41
402.333	22.6
402.697	22.56
403.06	22.28
403.424	22.46
403.787	22.76
404.151	22.92
404.514	22.78
404.878	22.75
405.241	23.09
405.604	22.68
405.968	23
406.331	22.77
406.694	23.19
407.057	22.94
407.42	23.19
407.783	23.14
408.146	23.26
408.509	23.47
408.872	23.42
409.235	23.58
409.598	23.29
409.961	23.59
410.323	23.64
410.686	23.78
411.049	23.72
411.411	24.03
411.774	24.04
412.136	23.86
412.499	24.03
412.861	24.03
413.223	24.22
413.586	24.16
413.948	24.3
414.31	24.36
414.672	24.52
415.035	24.6
415.397	24.19
415.759	24.73
416.121	24.68
416.483	24.66
416.845	24.57
417.206	24.98
417.568	24.7
417.93	24.85
418.292	24.82
418.653	24.85
419.015	24.96
419.377	24.8
419.738	24.97
420.1	24.75
420.461	24.83
420.822	24.97
421.184	25.04
421.545	25.3
421.906	25.01
422.267	25.07
422.629	25.02
422.99	25.03
423.351	24.99
423.712	25.21
424.073	25.31
424.434	25.56
424.795	25.39
425.155	25.38
425.516	25.36
425.877	25.49
426.238	25.48
426.598	25.6
426.959	25.74
427.32	25.92
427.68	25.96
428.041	26.1
428.401	26.3
428.761	26.5
429.122	26.47
429.482	26.74
429.842	26.85
430.202	26.81
430.563	26.85
430.923	27.09
431.283	26.92
431.643	27.07
432.003	26.92
432.363	27.2
432.722	27.32
433.082	27.36
433.442	27.44
433.802	27.5
434.161	27.2
434.521	27.27
434.881	27.23
435.24	27.38
435.6	27.4
435.959	27.48
436.319	27.48
436.678	27.66
437.037	27.62
437.396	27.71
437.756	28.05
438.115	28.26
438.474	28.23
438.833	28.1
439.192	28.44
439.551	28.12
439.91	28.14
440.269	28.27
440.628	28.14
440.987	28.11
441.345	28.31
441.704	28.24
442.063	28.25
442.421	28.32
442.78	28.39
443.138	28.45
443.497	28.55
443.855	28.68
444.214	28.73
444.572	29.16
444.93	29.24
445.288	28.82
445.647	29.03
446.005	29.12
446.363	29.07
446.721	28.94
447.079	29.07
447.437	28.95
447.795	29.21
448.153	28.81
448.51	29.07
448.868	29.09
449.226	29.29
449.584	29.37
449.941	29.42
450.299	29.41
450.656	29.73
451.014	29.97
451.371	29.9
451.729	30.03
452.086	30.01
452.443	30.46
452.801	30.38
453.158	30.45
453.515	30.31
453.872	30.28
454.229	30.44
454.586	30.39
454.943	30.35
455.3	30.55
455.657	30.69
456.014	31.04
456.371	30.8
456.727	30.97
457.084	30.76
457.441	30.91
457.797	30.95
458.154	31.01
458.51	31.15
458.867	31.42
459.223	31.26
459.58	31.16
459.936	31.17
460.292	31.26
460.648	31.36
461.005	31.24
461.361	31.22
461.717	31.07
462.073	30.88
462.429	31.33
462.785	31.41
463.141	31.42
463.496	31.62
463.852	32.08
464.208	32.18
464.564	32
464.919	31.98
465.275	32.42
465.631	32.32
465.986	32.64
466.342	32.44
466.697	32.44
467.052	32.66
467.408	32.53
467.763	32.67
468.118	32.73
468.473	32.71
468.829	32.99
469.184	32.63
469.539	32.78
469.894	33.3
470.249	32.68
470.603	32.84
470.958	33.02
471.313	33.31
471.668	33.3
472.023	33.2
472.377	33.42
472.732	33.48
473.086	33.26
473.441	33.6
473.795	33.46
474.15	33.54
474.504	33.55
474.859	33.58
475.213	33.87
475.567	33.81
475.921	33.88
476.275	33.59
476.63	33.9
476.984	34.02
477.338	33.99
477.692	33.93
478.045	33.99
478.399	34.14
478.753	34.18
479.107	34.09
479.461	33.83
479.814	34.34
480.168	34.32
480.521	34.13
480.875	34.23
481.228	34.49
481.582	34.29
481.935	34.63
482.289	34.46
482.642	34.39
482.995	34.6
483.348	34.61
483.701	34.58
484.055	34.37
484.408	34.26
484.761	34.15
485.114	33.89
485.466	33.54
485.819	33.57
486.172	33.61
486.525	33.75
486.878	33.97
487.23	34.08
487.583	34.28
487.936	34.61
488.288	34.62
488.641	34.44
488.993	34.23
489.345	34.21
489.698	34.2
490.05	34.25
490.402	34.35
490.754	34.59
491.107	34.81
491.459	35.09
491.811	35.16
492.163	35.18
492.515	35.56
492.866	35.29
493.218	34.83
493.57	34.82
493.922	34.93
494.274	35.16
494.625	35.23
494.977	35.63
495.328	35.89
495.68	36.05
496.031	36.2
496.383	36.44
496.734	36.76
497.086	36.44
497.437	36.86
497.788	36.66
498.139	36.39
498.49	36.48
498.842	36.5
499.193	36.53
499.544	36.77
499.894	36.7
500.245	36.91
500.596	37
500.947	36.88
501.298	37.11
501.648	37.24
501.999	37.16
502.35	37.53
502.7	37.38
503.051	37.38
503.401	37.48
503.752	37.73
504.102	37.62
504.452	37.82
504.803	37.74
505.153	37.72
505.503	37.85
505.853	37.95
506.203	37.8
506.553	37.86
506.903	37.99
507.253	38.02
507.603	38.11
507.953	37.9
508.303	38.22
508.652	38.24
509.002	38.18
509.352	38.3
509.701	38.23
510.051	38.29
510.4	38.31
510.75	37.99
511.099	38.02
511.449	38.2
511.798	38.28
512.147	38.39
512.496	38.64
512.846	38.55
513.195	38.6
513.544	38.59
513.893	38.74
514.242	38.57
514.591	38.66
514.939	38.67
515.288	38.82
515.637	38.98
515.986	38.94
516.334	38.98
516.683	38.92
517.032	39.22
517.38	39.44
517.729	39.23
518.077	39.36
518.426	39.55
518.774	39.15
519.122	39.14
519.47	39.33
519.819	39.08
520.167	38.88
520.515	38.8
520.863	38.81
521.211	38.89
521.559	39.08
521.907	39.22
522.255	39.54
522.602	39.57
522.95	39.6
523.298	39.85
523.645	39.86
523.993	39.99
524.341	40.08
524.688	40.08
525.036	40.15
525.383	40.18
525.73	40.01
526.078	40.26
526.425	40.15
526.772	40.16
527.119	39.83
527.466	39.54
527.814	39.72
528.161	39.84
528.508	39.9
528.854	39.88
529.201	40.08
529.548	39.82
529.895	39.6
530.242	39.3
530.588	39.5
530.935	39.59
531.282	39.45
531.628	39.5
531.975	39.77
532.321	39.89
532.667	40.25
533.014	40.41
533.36	40.37
533.706	40.63
534.052	40.65
534.399	40.52
534.745	40.45
535.091	40.18
535.437	40.27
535.783	40.42
536.129	40.58
536.474	40.67
536.82	40.82
537.166	41.22
537.512	41.16
537.857	41.19
538.203	41.29
538.549	40.9
538.894	41.11
539.239	41.2
539.585	41.35
539.93	41.59
540.276	41.62
540.621	41.72
540.966	41.74
541.311	42.05
541.656	41.8
542.001	41.9
542.346	41.91
542.691	41.46
543.036	41.23
543.381	41.03
543.726	41.18
544.071	41.26
544.415	41.58
544.76	41.64
545.105	41.78
545.449	41.88
545.794	42.02
546.138	42.01
546.483	42.38
546.827	42.3
547.171	42.59
547.516	42.45
547.86	42.66
548.204	42.52
548.548	42.36
548.892	42.52
549.236	42.63
549.58	42.87
549.924	43.02
550.268	43.17
550.612	43.17
550.956	43.58
551.3	43.56
551.643	43.67
551.987	43.81
552.33	43.65
552.674	43.83
553.017	43.92
553.361	43.95
553.704	43.54
554.048	44.17
554.391	43.8
554.734	43.63
555.077	43.73
555.42	43.6
555.764	43.93
556.107	43.77
556.45	44.05
556.793	43.99
557.135	44.07
557.478	44.34
557.821	44.74
558.164	44.34
558.507	44.35
558.849	44.67
559.192	44.66
559.534	44.65
559.877	44.59
560.219	44.76
560.562	44.45
560.904	44.9
561.246	44.6
561.589	44.9
561.931	45.03
562.273	45
562.615	44.96
562.957	44.7
563.299	44.92
563.641	45.1
563.983	45.12
564.325	44.95
564.667	45.09
565.008	45.22
565.35	44.94
565.692	45.29
566.033	45.26
566.375	45.43
566.716	45.31
567.058	45.26
567.399	45.13
567.741	45.06
568.082	45.35
568.423	45.22
568.764	45.18
569.105	45.44
569.447	45.73
569.788	45.5
570.129	45.51
570.47	45.59
570.811	45.74
571.151	45.98
571.492	45.91
571.833	45.86
572.174	45.81
572.514	46.09
572.855	45.84
573.195	45.86
573.536	45.79
573.876	45.6
574.217	45.84
574.557	45.69
574.898	45.65
575.238	46.1
575.578	46.1
575.918	46.25
576.258	46.34
576.598	46.15
576.938	46.28
577.278	45.88
577.618	46.12
577.958	46.11
578.298	46.26
578.638	46.67
578.977	46.59
579.317	46.39
579.657	46.78
579.996	46.92
580.336	46.96
580.675	46.88
581.014	47.02
581.354	47.33
581.693	47.21
582.032	47.06
582.372	47.45
582.711	47.19
583.05	47.84
583.389	47.32
583.728	47.53
584.067	47.29
584.406	47.61
584.745	47.5
585.083	47.42
585.422	47.55
585.761	47.57
586.1	47.48
586.438	47.74
586.777	47.86
587.115	47.71
587.454	47.5
587.792	47.71
588.13	48.16
588.469	47.91
588.807	47.67
589.145	47.76
589.483	48.12
589.821	48.04
590.159	48.05
590.497	47.88
590.835	47.95
591.173	47.9
591.511	48.31
591.849	48.03
592.187	48.07
592.524	47.99
592.862	48.49
593.2	47.98
593.537	48.42
593.875	48.59
594.212	48.31
594.55	48.42
594.887	48.78
595.224	48.63
595.561	48.81
595.899	48.63
596.236	48.55
596.573	48.41
596.91	48.83
597.247	48.57
597.584	48.68
597.921	48.79
598.258	48.75
598.594	48.58
598.931	48.47
599.268	48.33
599.604	48.78
599.941	48.75
600.277	49.2
600.614	49.01
600.95	49.19
601.287	48.98
601.623	49.33
601.959	49.6
602.296	49.59
602.632	49.12
602.968	49.56
603.304	49.26
603.64	49.61
603.976	49.23
604.312	49.28
604.648	49.59
604.984	49.35
605.319	49.28
605.655	49.07
605.991	48.79
606.326	49.11
606.662	49.46
606.998	49.32
607.333	49.45
607.668	49.45
608.004	49.39
608.339	49.69
608.674	49.76
609.01	49.94
609.345	49.85
609.68	50.05
610.015	49.89
610.35	50.31
610.685	50.01
611.02	50.1
611.355	49.8
611.689	49.79
612.024	49.93
612.359	49.78
612.694	50.15
613.028	50.05
613.363	50.17
613.697	50.19
614.032	50.28
614.366	50.69
614.7	50.18
615.035	50.57
615.369	50.44
615.703	50.9
616.037	50.56
616.371	50.97
616.705	50.69
617.039	51.27
617.373	50.72
617.707	50.78
618.041	50.74
618.375	51.08
618.709	50.53
619.042	51
619.376	50.85
619.71	50.93
620.043	51.32
620.377	50.98
620.71	51.18
621.043	50.85
621.377	51.22
621.71	51.2
622.043	51.79
622.376	51.5
622.709	51.04
623.043	51.72
623.376	51.52
623.709	51.13
624.041	51.26
624.374	51.49
624.707	51.69
625.04	51.75
625.373	52.12
625.705	51.33
626.038	51.36
626.37	51.51
626.703	52.01
627.035	52.06
627.368	52.03
627.7	52.08
628.032	52.01
628.365	51.94
628.697	51.71
629.029	52.02
629.361	51.42
629.693	51.71
630.025	51.38
630.357	52.04
630.689	51.98
631.021	51.71
631.353	51.98
631.684	51.85
632.016	51.75
632.348	52.55
632.679	51.91
633.011	52.29
633.342	52
633.674	52.22
634.005	52.09
634.336	52.15
634.668	52.52
634.999	51.98
635.33	52.67
635.661	52.25
635.992	52.11
636.323	52.48
636.654	52.11
636.985	52.05
637.316	52.69
637.647	52.85
637.977	52.22
638.308	52.76
638.639	53.03
638.969	52.89
639.3	53.08
639.63	52.92
639.961	52.8
640.291	53.02
640.622	53.06
640.952	52.98
641.282	53.3
641.612	53.46
641.943	53.41
642.273	53.18
642.603	53.14
642.933	53.6
643.263	52.88
643.592	52.98
643.922	53.34
644.252	53.41
644.582	52.87
644.911	53.42
645.241	53.08
645.571	53.48
645.9	53.13
646.23	53.69
646.559	53.25
646.888	53.24
647.218	53.69
647.547	53.25
647.876	53.65
648.205	53.49
648.534	53.45
648.863	53.33
649.192	53.19
649.521	53.88
649.85	53.8
650.179	54.01
650.508	53.56
650.837	53.27
651.165	54.28
651.494	53.53
651.822	53.91
652.151	54.64
652.479	54.23
652.808	54.49
653.136	53.76
653.465	54.54
653.793	54.38
654.121	54.47
654.449	54.15
654.777	54.08
655.105	54.59
655.433	54.52
655.761	54.81
656.089	54.05
656.417	54.29
656.745	53.96
657.073	54.73
657.4	54.47
657.728	54.86
658.056	54.07
658.383	54.47
658.711	54.48
659.038	54.06
659.365	54.19
659.693	54.12
660.02	54.6
660.347	54.22
660.674	54.33
661.001	54.76
661.329	54.17
661.656	54.06
661.982	54.26
662.309	54.69
662.636	54.61
662.963	54.53
663.29	54.72
663.616	54.74
663.943	54.87
664.27	54.25
664.596	54.62
664.923	55.45
665.249	55.08
665.576	55.23
665.902	55.03
666.228	55.65
666.554	54.67
666.881	55.14
667.207	55.01
667.533	55.44
667.859	55.76
668.185	55.99
668.511	55.02
668.837	54.61
669.162	55.68
669.488	54.78
