Data from 438_crown_Reflection__0__142.txt Node

Date: Tue Dec 12 19:34:11 CST 2023
User: ToomeyLab
Spectrometer: FLMS14357
Trigger mode: 0
Integration Time (sec): 1.000000E-2
Scans to average: 100
Electric dark correction enabled: true
Nonlinearity correction enabled: false
Boxcar width: 0
XAxis mode: Wavelengths
Number of Pixels in Spectrum: 2048
>>>>>Begin Spectral Data<<<<<
189.047	-367.49
189.435	-367.49
189.823	-367.49
190.211	-32.55
190.599	229.18
190.987	148.31
191.375	161.43
191.763	58.58
192.151	-21.74
192.538	24.59
192.926	132.71
193.314	-768.44
193.702	21.96
194.089	-2.49
194.477	-103.95
194.864	69.55
195.252	441.24
195.639	-124.61
196.027	-343.15
196.414	53.43
196.801	-1292.1
197.189	13.68
197.576	-117
197.963	-0.44
198.351	30.6
198.738	27.19
199.125	5.05
199.512	22.17
199.899	-37.65
200.286	-1.37
200.673	4.27
201.06	-77.65
201.447	-57.75
201.833	-36.99
202.22	-39.5
202.607	-100.03
202.994	33.78
203.38	-15.51
203.767	-0.51
204.154	-0.32
204.54	20.19
204.927	-11.12
205.313	11.73
205.699	5.74
206.086	-48.07
206.472	20.73
206.858	27.18
207.245	23.76
207.631	7
208.017	-9.3
208.403	-11.18
208.789	12.24
209.175	-33.91
209.561	27.76
209.947	-19.43
210.333	4.23
210.719	2.82
211.105	-62.01
211.491	-13.88
211.876	-27.29
212.262	-16.91
212.648	-62.38
213.034	-145.18
213.419	10.06
213.805	10.03
214.19	4.75
214.576	-6.39
214.961	-4.88
215.346	15.87
215.732	7.78
216.117	-13.54
216.502	-9.11
216.888	-27.61
217.273	-10.19
217.658	-23.55
218.043	-24.76
218.428	15.95
218.813	-1.84
219.198	-27.36
219.583	-21.16
219.968	7.66
220.353	3.09
220.738	-15.17
221.122	14.01
221.507	-7.72
221.892	-0.33
222.276	2.94
222.661	3.76
223.046	-1.4
223.43	-2.41
223.815	2.97
224.199	3
224.583	-3.67
224.968	1.65
225.352	-16.13
225.736	4.99
226.121	-3.49
226.505	6.32
226.889	-4.77
227.273	3.38
227.657	10.36
228.041	5.57
228.425	-1.63
228.809	0.24
229.193	2.76
229.577	4.22
229.961	2.26
230.344	4.71
230.728	5.19
231.112	4.45
231.495	5.08
231.879	4.95
232.263	3.17
232.646	3.3
233.03	4.26
233.413	3.42
233.797	4.04
234.18	-0.18
234.563	2.17
234.946	4.85
235.33	5.37
235.713	5.77
236.096	4.02
236.479	4.03
236.862	4.28
237.245	3.38
237.628	3.67
238.011	4.28
238.394	5.12
238.777	3.6
239.16	4.5
239.543	5.92
239.925	5.03
240.308	4.83
240.691	4.64
241.073	5.01
241.456	3.75
241.838	4.94
242.221	4.95
242.603	5.14
242.986	3.1
243.368	4.08
243.75	3.94
244.133	4.49
244.515	4.2
244.897	4.11
245.279	4.83
245.661	4.29
246.043	4.35
246.425	4.4
246.807	4.07
247.189	4.43
247.571	4.1
247.953	4.19
248.335	4.56
248.717	4.37
249.098	4.43
249.48	4.08
249.862	4.24
250.243	3.97
250.625	4.66
251.006	4.47
251.388	4.31
251.769	4.18
252.151	3.76
252.532	4.71
252.913	4.28
253.295	4.25
253.676	3.44
254.057	3.94
254.438	4.38
254.819	3.73
255.2	3.32
255.581	3.82
255.962	3.94
256.343	3.63
256.724	4.37
257.105	5.11
257.486	3.13
257.867	3.2
258.247	2.72
258.628	4.69
259.009	4.22
259.389	3.65
259.77	4.11
260.15	4.27
260.531	4.76
260.911	4.08
261.292	3.83
261.672	3.68
262.052	3.97
262.432	4.07
262.813	4.04
263.193	4.04
263.573	4.09
263.953	5.05
264.333	5.46
264.713	3.91
265.093	3.37
265.473	4.6
265.853	3.25
266.233	3.66
266.612	3.21
266.992	3.93
267.372	4.35
267.752	5.19
268.131	2.94
268.511	4.01
268.89	3.14
269.27	3.28
269.649	3.39
270.029	4.03
270.408	4.45
270.787	3.85
271.167	4.82
271.546	3.73
271.925	3.65
272.304	3.83
272.683	3.31
273.062	3.65
273.441	3.86
273.82	3.7
274.199	3.99
274.578	3.5
274.957	3.34
275.336	3.74
275.715	3.86
276.093	3.43
276.472	3.77
276.851	4.02
277.229	3.49
277.608	3.74
277.986	3.4
278.365	4.01
278.743	3.5
279.122	4.63
279.5	3.65
279.878	2.66
280.257	4.08
280.635	3.38
281.013	3.61
281.391	3.38
281.769	3.75
282.147	3.33
282.525	2.89
282.903	2.97
283.281	3.89
283.659	4.05
284.037	3.59
284.415	3.51
284.792	3.63
285.17	3.2
285.548	4.11
285.925	3.07
286.303	3.55
286.68	3.44
287.058	3.57
287.435	3.52
287.813	3.52
288.19	3.73
288.567	3.37
288.945	3.32
289.322	3.33
289.699	3.13
290.076	3.24
290.453	3.43
290.83	3.49
291.207	3.8
291.584	3.37
291.961	3.39
292.338	3.34
292.715	3.67
293.092	3.2
293.469	3.66
293.845	3.88
294.222	3.34
294.599	3.78
294.975	2.83
295.352	3.78
295.728	3.39
296.105	3.56
296.481	3.84
296.858	3.21
297.234	3.61
297.61	3.25
297.986	3.52
298.363	3.78
298.739	3.23
299.115	3
299.491	3.44
299.867	3.23
300.243	2.85
300.619	3.56
300.995	3.46
301.371	3.77
301.746	3.68
302.122	4.03
302.498	3.38
302.874	3.67
303.249	3.53
303.625	2.76
304	3.3
304.376	3.45
304.751	3.23
305.127	3.23
305.502	4.1
305.878	3.25
306.253	3.11
306.628	3.57
307.003	3.55
307.378	3.26
307.754	3.31
308.129	3.11
308.504	3.74
308.879	2.83
309.254	3.82
309.629	3.21
310.003	3.45
310.378	3.44
310.753	3.35
311.128	3.41
311.502	3.04
311.877	3.4
312.252	3.06
312.626	3.17
313.001	3.15
313.375	3.06
313.75	3.35
314.124	3.65
314.498	3.22
314.873	2.96
315.247	3.63
315.621	3.3
315.995	3.32
316.369	3.5
316.743	2.93
317.117	2.32
317.491	2.81
317.865	3.38
318.239	2.81
318.613	3.17
318.987	3.49
319.361	2.54
319.734	3
320.108	3.2
320.482	3.1
320.855	2.93
321.229	3.41
321.602	3.35
321.976	3.45
322.349	3.46
322.723	2.56
323.096	2.99
323.469	3.39
323.843	4.07
324.216	2.88
324.589	3.1
324.962	3.77
325.335	3.68
325.708	3.63
326.081	3.43
326.454	2.96
326.827	3.4
327.2	3.55
327.573	3.15
327.945	3.38
328.318	3.57
328.691	2.57
329.063	3.21
329.436	3.34
329.809	3.25
330.181	2.41
330.553	3.78
330.926	3.2
331.298	3.02
331.671	3.49
332.043	2.87
332.415	3.18
332.787	3.07
333.159	3.31
333.532	3.27
333.904	3.04
334.276	3.74
334.648	2.85
335.02	2.5
335.391	2.9
335.763	2.92
336.135	3.27
336.507	3.7
336.879	3.15
337.25	3.27
337.622	3.06
337.993	2.91
338.365	2.8
338.736	3.12
339.108	2.84
339.479	3.41
339.851	2.77
340.222	2.73
340.593	3.12
340.964	3.27
341.336	3.33
341.707	2.92
342.078	2.74
342.449	2.54
342.82	3.09
343.191	2.97
343.562	3.13
343.933	3.41
344.303	3.31
344.674	2.71
345.045	3.03
345.416	3.35
345.786	2.73
346.157	3.41
346.527	3.32
346.898	3.08
347.268	2.86
347.639	3.42
348.009	2.91
348.38	3
348.75	3.33
349.12	3.25
349.49	2.69
349.861	3.42
350.231	3.02
350.601	3.59
350.971	3.41
351.341	2.87
351.711	3.38
352.081	2.95
352.45	2.93
352.82	3.23
353.19	3.47
353.56	2.79
353.929	2.79
354.299	3.16
354.669	3.12
355.038	3.04
355.408	3.17
355.777	3.3
356.147	3.14
356.516	3.05
356.885	2.97
357.254	3.08
357.624	2.93
357.993	3.34
358.362	3.25
358.731	3.29
359.1	3.35
359.469	3.19
359.838	3.05
360.207	3.25
360.576	3.37
360.945	2.91
361.314	3.19
361.682	3.49
362.051	3.63
362.42	3.54
362.788	3.18
363.157	3.49
363.525	3.31
363.894	3.13
364.262	3.16
364.631	2.95
364.999	3.47
365.367	3.07
365.735	3.29
366.104	3.35
366.472	3.22
366.84	3.44
367.208	3.39
367.576	3.29
367.944	3.33
368.312	3.12
368.68	3.27
369.048	3.51
369.416	3.47
369.783	3.44
370.151	3.73
370.519	3.04
370.886	3.25
371.254	2.96
371.621	3.27
371.989	3.4
372.356	3.09
372.724	3.19
373.091	3.33
373.458	2.98
373.826	3.4
374.193	3.16
374.56	3.61
374.927	3.32
375.294	3.36
375.661	3.76
376.028	3.36
376.395	3.69
376.762	3.89
377.129	3.25
377.496	3.64
377.863	3.43
378.229	3.41
378.596	3.2
378.963	3.67
379.329	3.37
379.696	3.18
380.062	3.68
380.429	3.4
380.795	3.51
381.161	3.59
381.528	3.32
381.894	3.75
382.26	3
382.626	3.48
382.993	3.58
383.359	3.4
383.725	3.58
384.091	3.31
384.457	3.35
384.823	3.49
385.188	3.29
385.554	3.44
385.92	3.41
386.286	3.75
386.651	3.3
387.017	3.62
387.383	3.4
387.748	3.56
388.114	3.67
388.479	3.49
388.845	3.73
389.21	3.6
389.575	3.4
389.94	3.67
390.306	3.69
390.671	3.82
391.036	3.6
391.401	3.68
391.766	3.41
392.131	3.31
392.496	3.42
392.861	3.31
393.226	3.76
393.591	3.4
393.956	3.49
394.32	3.71
394.685	3.63
395.05	3.64
395.414	3.59
395.779	3.49
396.143	3.68
396.508	3.63
396.872	3.46
397.236	3.72
397.601	3.54
397.965	3.62
398.329	3.73
398.694	3.59
399.058	3.84
399.422	3.64
399.786	3.66
400.15	3.56
400.514	3.8
400.878	3.68
401.242	3.51
401.605	3.91
401.969	3.62
402.333	3.78
402.697	3.44
403.06	3.45
403.424	3.43
403.787	3.36
404.151	3.84
404.514	3.43
404.878	3.68
405.241	3.66
405.604	3.6
405.968	3.45
406.331	3.74
406.694	3.73
407.057	3.67
407.42	3.53
407.783	3.37
408.146	3.55
408.509	3.75
408.872	3.43
409.235	3.55
409.598	3.66
409.961	3.51
410.323	3.63
410.686	3.48
411.049	3.85
411.411	3.88
411.774	3.88
412.136	3.83
412.499	3.68
412.861	3.6
413.223	4.02
413.586	3.65
413.948	3.46
414.31	3.84
414.672	3.92
415.035	3.62
415.397	3.63
415.759	3.61
416.121	3.61
416.483	3.71
416.845	3.76
417.206	3.68
417.568	3.67
417.93	3.83
418.292	3.7
418.653	3.69
419.015	3.74
419.377	3.73
419.738	3.72
420.1	3.76
420.461	3.67
420.822	3.85
421.184	3.57
421.545	3.86
421.906	3.67
422.267	3.69
422.629	3.61
422.99	3.75
423.351	3.67
423.712	3.65
424.073	3.68
424.434	3.62
424.795	3.74
425.155	3.55
425.516	3.57
425.877	3.73
426.238	3.71
426.598	3.72
426.959	3.76
427.32	3.81
427.68	3.77
428.041	3.74
428.401	3.72
428.761	3.73
429.122	3.79
429.482	3.94
429.842	3.79
430.202	3.73
430.563	3.92
430.923	3.71
431.283	3.77
431.643	3.85
432.003	3.78
432.363	3.92
432.722	3.72
433.082	3.87
433.442	3.83
433.802	3.93
434.161	3.83
434.521	3.72
434.881	3.84
435.24	3.85
435.6	3.76
435.959	3.87
436.319	3.83
436.678	4.03
437.037	3.73
437.396	3.69
437.756	3.85
438.115	3.74
438.474	3.8
438.833	4.05
439.192	3.87
439.551	3.69
439.91	3.64
440.269	3.74
440.628	3.84
440.987	3.71
441.345	3.99
441.704	3.78
442.063	3.7
442.421	3.87
442.78	3.79
443.138	3.75
443.497	3.89
443.855	3.88
444.214	3.85
444.572	3.78
444.93	3.86
445.288	3.92
445.647	3.96
446.005	3.76
446.363	3.64
446.721	3.75
447.079	3.9
447.437	3.7
447.795	3.78
448.153	3.78
448.51	3.81
448.868	3.77
449.226	3.92
449.584	3.85
449.941	3.91
450.299	3.95
450.656	3.74
451.014	3.83
451.371	3.85
451.729	3.89
452.086	3.92
452.443	4.09
452.801	4
453.158	3.98
453.515	4.03
453.872	3.82
454.229	4.07
454.586	3.7
454.943	3.82
455.3	3.74
455.657	4
456.014	4.06
456.371	4.04
456.727	4.07
457.084	3.86
457.441	3.95
457.797	3.98
458.154	3.94
458.51	3.81
458.867	4.03
459.223	3.91
459.58	4
459.936	3.78
460.292	3.88
460.648	3.83
461.005	3.93
461.361	3.92
461.717	3.9
462.073	3.8
462.429	4
462.785	3.81
463.141	3.96
463.496	3.86
463.852	4.19
464.208	4
464.564	3.93
464.919	4.02
465.275	3.86
465.631	4.1
465.986	3.82
466.342	3.8
466.697	3.99
467.052	4.17
467.408	4
467.763	3.98
468.118	4.12
468.473	4.11
468.829	3.96
469.184	3.95
469.539	4.08
469.894	4.09
470.249	3.91
470.603	3.94
470.958	4.13
471.313	4.23
471.668	4.06
472.023	3.96
472.377	4
472.732	4.06
473.086	4.11
473.441	4.2
473.795	4.13
474.15	4.1
474.504	3.81
474.859	3.92
475.213	3.89
475.567	4
475.921	4.14
476.275	3.85
476.63	4.02
476.984	4
477.338	3.95
477.692	4.02
478.045	4.07
478.399	3.83
478.753	3.85
479.107	4.05
479.461	3.94
479.814	4
480.168	3.92
480.521	3.91
480.875	4.05
481.228	4.1
481.582	4.08
481.935	3.98
482.289	4.01
482.642	4.13
482.995	3.99
483.348	3.89
483.701	4.04
484.055	3.99
484.408	3.92
484.761	3.88
485.114	3.85
485.466	3.73
485.819	3.72
486.172	3.71
486.525	3.86
486.878	3.88
487.23	3.84
487.583	3.87
487.936	3.93
488.288	3.82
488.641	3.89
488.993	3.83
489.345	3.79
489.698	3.77
490.05	3.85
490.402	3.87
490.754	3.86
491.107	3.93
491.459	3.96
491.811	4.05
492.163	3.88
492.515	4.03
492.866	3.88
493.218	3.87
493.57	3.8
493.922	3.82
494.274	3.94
494.625	4.01
494.977	4.05
495.328	4.08
495.68	3.98
496.031	4.08
496.383	4.05
496.734	3.94
497.086	3.93
497.437	4.01
497.788	3.96
498.139	4.01
498.49	4.16
498.842	3.96
499.193	4.1
499.544	3.99
499.894	4.14
500.245	4.12
500.596	4.11
500.947	3.96
501.298	4.12
501.648	4.15
501.999	4.08
502.35	4.01
502.7	4.15
503.051	4.08
503.401	3.93
503.752	4.23
504.102	4.01
504.452	4.03
504.803	4.07
505.153	4.13
505.503	4.03
505.853	4.17
506.203	4.08
506.553	4.01
506.903	4.18
507.253	4.12
507.603	4.23
507.953	4.11
508.303	4.09
508.652	4.04
509.002	4.27
509.352	4.06
509.701	4.12
510.051	4.08
510.4	4.2
510.75	3.96
511.099	4.16
511.449	4.1
511.798	4.07
512.147	4.09
512.496	4.16
512.846	4.15
513.195	3.98
513.544	4.09
513.893	4.05
514.242	4.11
514.591	4.03
514.939	4.06
515.288	4.13
515.637	4.02
515.986	4.13
516.334	4.18
516.683	4.09
517.032	4.11
517.38	3.99
517.729	4.2
518.077	4.05
518.426	4.04
518.774	4.09
519.122	4.11
519.47	4.13
519.819	4.06
520.167	3.98
520.515	3.96
520.863	4.13
521.211	4.04
521.559	4.05
521.907	3.99
522.255	4.2
522.602	4.07
522.95	4.07
523.298	4.12
523.645	4.33
523.993	4.12
524.341	4.11
524.688	4.12
525.036	4.23
525.383	4.13
525.73	4.07
526.078	3.95
526.425	4.08
526.772	4.01
527.119	4.06
527.466	4.06
527.814	3.93
528.161	4.09
528.508	4.07
528.854	3.98
529.201	4.03
529.548	4.01
529.895	3.9
530.242	3.84
530.588	3.86
530.935	3.94
531.282	3.99
531.628	4.03
531.975	4.02
532.321	4.04
532.667	3.94
533.014	4.01
533.36	4.03
533.706	4.06
534.052	4.04
534.399	4.04
534.745	3.99
535.091	3.94
535.437	3.95
535.783	3.96
536.129	4.1
536.474	4.04
536.82	4.04
537.166	4.12
537.512	4.08
537.857	4.17
538.203	4.04
538.549	4.05
538.894	3.98
539.239	4.07
539.585	4.08
539.93	4.15
540.276	4.12
540.621	4.18
540.966	3.98
541.311	4.05
541.656	4.05
542.001	4.1
542.346	4.12
542.691	3.93
543.036	3.91
543.381	3.9
543.726	3.94
544.071	4.01
544.415	4.01
544.76	4.05
545.105	4.04
545.449	4.06
545.794	4.11
546.138	4.06
546.483	4.07
546.827	4.15
547.171	4.08
547.516	4.05
547.86	4.08
548.204	4.18
548.548	4.16
548.892	4.11
549.236	4.03
549.58	4.18
549.924	4.26
550.268	4.18
550.612	4.15
550.956	4.17
551.3	4.35
551.643	4.22
551.987	4.3
552.33	4.23
552.674	4.24
553.017	4.3
553.361	4.38
553.704	4.19
554.048	4.29
554.391	4.24
554.734	4.18
555.077	4.19
555.42	4
555.764	4.28
556.107	4.19
556.45	4.03
556.793	4.2
557.135	4.06
557.478	4.14
557.821	4.21
558.164	4.3
558.507	4.25
558.849	4.18
559.192	4.18
559.534	4.21
559.877	4.18
560.219	4.22
560.562	4.12
560.904	4.34
561.246	4.23
561.589	4.14
561.931	4.12
562.273	4.22
562.615	4.16
562.957	4.04
563.299	4.18
563.641	4.4
563.983	4.29
564.325	4.08
564.667	4.35
565.008	4.08
565.35	4.07
565.692	4.15
566.033	4.2
566.375	4.23
566.716	4.05
567.058	4.18
567.399	4.28
567.741	4.18
568.082	3.98
568.423	4.36
568.764	4.29
569.105	4.18
569.447	4.23
569.788	4.3
570.129	4.06
570.47	4.34
570.811	4.11
571.151	4.39
571.492	4.28
571.833	4.2
572.174	4.17
572.514	4.22
572.855	4.24
573.195	4.22
573.536	4.09
573.876	4.17
574.217	4.21
574.557	4.11
574.898	4.18
575.238	4.35
575.578	4.14
575.918	4.2
576.258	4.19
576.598	4.09
576.938	4.13
577.278	4.19
577.618	4.3
577.958	4.25
578.298	4.36
578.638	4.06
578.977	4.02
579.317	4.3
579.657	4.03
579.996	4.23
580.336	4.12
580.675	4.18
581.014	4.31
581.354	4.31
581.693	4.11
582.032	3.96
582.372	4.04
582.711	4.24
583.05	4.06
583.389	4.27
583.728	4.33
584.067	4.27
584.406	4.33
584.745	4.3
585.083	4.13
585.422	4.48
585.761	4.26
586.1	4.17
586.438	4.17
586.777	4.18
587.115	3.97
587.454	4.32
587.792	4.09
588.13	4.46
588.469	4.46
588.807	3.96
589.145	4.07
589.483	4.34
589.821	4.46
590.159	4.47
590.497	4.38
590.835	4.3
591.173	4.22
591.511	4.18
591.849	4.09
592.187	4.23
592.524	4.2
592.862	4.11
593.2	4.05
593.537	4.12
593.875	4.29
594.212	4.27
594.55	4.3
594.887	4.55
595.224	4.43
595.561	4.49
595.899	4.06
596.236	4.11
596.573	4.31
596.91	4.4
597.247	4.12
597.584	4.24
597.921	4.12
598.258	4.27
598.594	4.18
598.931	4.21
599.268	3.97
599.604	4.05
599.941	4.19
600.277	4.23
600.614	4.24
600.95	4.26
601.287	4.23
601.623	4.3
601.959	4.28
602.296	4.4
602.632	4.09
602.968	4.03
603.304	4.26
603.64	4.08
603.976	4.15
604.312	4.14
604.648	4.14
604.984	4.13
605.319	4.01
605.655	3.87
605.991	4.23
606.326	3.92
606.662	4.25
606.998	4.02
607.333	4.1
607.668	4.2
608.004	4.07
608.339	4.16
608.674	4.09
609.01	4.07
609.345	4.55
609.68	4.54
610.015	4.04
610.35	4.19
610.685	4.15
611.02	4.19
611.355	3.98
611.689	4.04
612.024	4.18
612.359	4.25
612.694	4.15
613.028	4.13
613.363	4.08
613.697	4.12
614.032	4.42
614.366	4.33
614.7	4.32
615.035	4.06
615.369	4.24
615.703	4
616.037	3.86
616.371	4.01
616.705	4.14
617.039	4.4
617.373	4.16
617.707	3.88
618.041	4.4
618.375	3.96
618.709	4.09
619.042	4.01
619.376	3.94
619.71	3.99
620.043	4.09
620.377	4.25
620.71	4.1
621.043	3.85
621.377	4.16
621.71	4.29
622.043	3.98
622.376	4.48
622.709	4.16
623.043	4.04
623.376	4.53
623.709	4.14
624.041	4.29
624.374	4.32
624.707	4
625.04	4.28
625.373	4.44
625.705	4.56
626.038	4.06
626.37	4.34
626.703	4.41
627.035	3.99
627.368	4.33
627.7	3.87
628.032	4.31
628.365	4.19
628.697	4.08
629.029	4.08
629.361	3.89
629.693	4.12
630.025	3.86
630.357	4.08
630.689	4.03
631.021	4.42
631.353	4.11
631.684	3.9
632.016	4.08
632.348	3.99
632.679	3.74
633.011	4.43
633.342	4.4
633.674	4.07
634.005	4.5
634.336	4.45
634.668	4.69
634.999	4.37
635.33	3.85
635.661	4.42
635.992	3.92
636.323	3.82
636.654	3.99
636.985	3.97
637.316	4.57
637.647	4.05
637.977	4.28
638.308	4.34
638.639	3.82
638.969	4.1
639.3	3.82
639.63	4.38
639.961	4.2
640.291	4.03
640.622	4.08
640.952	4.17
641.282	3.75
641.612	4.23
641.943	4.26
642.273	4.39
642.603	4.53
642.933	4.1
643.263	4.01
643.592	3.83
643.922	4.76
644.252	4.44
644.582	3.68
644.911	4.34
645.241	3.71
645.571	4.49
645.9	3.84
646.23	3.99
646.559	4.87
646.888	3.99
647.218	3.85
647.547	4.1
647.876	4.09
648.205	3.92
648.534	4.4
648.863	3.98
649.192	4.47
649.521	4.53
649.85	4.09
650.179	4.55
650.508	3.79
650.837	4.23
651.165	3.79
651.494	4.24
651.822	3.92
652.151	4.28
652.479	3.97
652.808	4.08
653.136	4.23
653.465	4.46
653.793	4.11
654.121	4.38
654.449	3.82
654.777	4.68
655.105	4.23
655.433	4.57
655.761	4.21
656.089	4.02
656.417	4.65
656.745	4.5
657.073	3.54
657.4	4.07
657.728	3.85
658.056	4.05
658.383	4.01
658.711	4.09
659.038	4.04
659.365	3.81
659.693	3.98
660.02	3.88
660.347	4.41
660.674	4.29
661.001	4.23
661.329	3.97
661.656	4.21
661.982	4.07
662.309	4.55
662.636	4.5
662.963	4.39
663.29	4.31
663.616	4.23
663.943	4
664.27	4.43
664.596	4.14
664.923	4.86
665.249	4.1
665.576	4.33
665.902	4.1
666.228	3.8
666.554	3.83
666.881	3.7
667.207	4.52
667.533	4.39
667.859	3.99
668.185	4.81
668.511	4.53
668.837	4.26
669.162	5.41
669.488	4.12
669.814	4.37
670.139	4.23
670.465	3.19
670.791	4.18
671.116	4.17
671.442	3.97
671.767	4.14
672.092	4.05
672.418	4
672.743	4.25
673.068	3.63
673.393	4.29
673.718	4.26
674.043	4.87
674.368	3.21
674.693	3.51
675.018	3.82
675.343	3.91
675.667	4.14
675.992	3.89
676.317	3.71
676.641	4.21
676.966	4.15
677.29	4.26
677.615	3.91
677.939	3.91
678.264	4.46
678.588	3.48
678.912	4.15
679.236	3.55
679.56	4.36
679.885	3.92
680.209	4.56
680.532	4.2
680.856	3.88
681.18	3.3
681.504	3.8
681.828	4.57
682.152	4.02
682.475	4.07
682.799	4.41
683.122	4.42
683.446	4.16
683.769	4.63
684.093	3.89
684.416	4.54
684.739	4.4
685.062	4.15
685.386	4.3
685.709	4.6
686.032	4.31
686.355	3.73
686.678	4.83
687.001	4.52
687.324	3.94
687.646	4.88
687.969	3.88
688.292	4.14
688.614	4.58
688.937	4.09
689.26	4.02
689.582	3.48
689.904	3.86
690.227	3.82
690.549	4.27
690.871	3.95
691.194	4.81
691.516	4.34
691.838	3.87
692.16	4.25
692.482	4.65
