Data from 438_chest_Reflection__3__140.txt Node

Date: Tue Dec 12 19:33:03 CST 2023
User: ToomeyLab
Spectrometer: FLMS14357
Trigger mode: 0
Integration Time (sec): 1.000000E-2
Scans to average: 100
Electric dark correction enabled: true
Nonlinearity correction enabled: false
Boxcar width: 0
XAxis mode: Wavelengths
Number of Pixels in Spectrum: 2048
>>>>>Begin Spectral Data<<<<<
189.047	743.34
189.435	743.34
189.823	743.34
190.211	59.23
190.599	406.28
190.987	232.41
191.375	-80.61
191.763	317.01
192.151	105.2
192.538	-235.53
192.926	104.43
193.314	-616.84
193.702	28.54
194.089	104.29
194.477	-30.88
194.864	-168.53
195.252	113.68
195.639	147.27
196.027	-3287.82
196.414	31.88
196.801	-824.15
197.189	-92.54
197.576	-176.28
197.963	15.97
198.351	14.42
198.738	46.56
199.125	49.31
199.512	39.34
199.899	24.65
200.286	7.59
200.673	9.68
201.06	16.67
201.447	-39.35
201.833	-2.08
202.22	-12.4
202.607	-170.46
202.994	29.94
203.38	14.72
203.767	1.41
204.154	-26.61
204.54	23.56
204.927	-13.51
205.313	6.9
205.699	-9.54
206.086	-8.28
206.472	27.43
206.858	-7.74
207.245	-1
207.631	21.44
208.017	-12.46
208.403	15.37
208.789	14.84
209.175	-44.69
209.561	10.95
209.947	1.85
210.333	13.33
210.719	-3.27
211.105	-79.89
211.491	7.73
211.876	32.25
212.262	28.37
212.648	-57.56
213.034	-51.02
213.419	-13.63
213.805	-22.5
214.19	37.2
214.576	3.87
214.961	-5.23
215.346	3.78
215.732	42.44
216.117	2.2
216.502	-29.12
216.888	-16.11
217.273	-22.14
217.658	3.55
218.043	-14.61
218.428	23.24
218.813	4.02
219.198	9.71
219.583	9.96
219.968	3.17
220.353	-16.21
220.738	-3.97
221.122	-6.8
221.507	-24.69
221.892	6.2
222.276	4.74
222.661	1.48
223.046	0.5
223.43	5.13
223.815	-0.05
224.199	4.87
224.583	7.45
224.968	6.27
225.352	-2.07
225.736	11.02
226.121	-7.53
226.505	3.02
226.889	-3.4
227.273	2.89
227.657	10.92
228.041	4.79
228.425	1.43
228.809	2.07
229.193	4.84
229.577	5.48
229.961	3.51
230.344	5.81
230.728	5.07
231.112	4.63
231.495	4.66
231.879	5
232.263	4.16
232.646	4.48
233.03	4.04
233.413	3.54
233.797	3.67
234.18	2.68
234.563	1.79
234.946	8.6
235.33	5.27
235.713	5.86
236.096	2.61
236.479	3.52
236.862	3.66
237.245	5.45
237.628	3.68
238.011	4.39
238.394	4.53
238.777	5.42
239.16	4.44
239.543	4.84
239.925	5.04
240.308	4.6
240.691	4.76
241.073	6.61
241.456	5.32
241.838	5.25
242.221	4.64
242.603	4.91
242.986	4
243.368	4.59
243.75	4.49
244.133	4.72
244.515	4.71
244.897	4.68
245.279	4.6
245.661	4
246.043	3.44
246.425	5.4
246.807	4.1
247.189	5.25
247.571	4.95
247.953	4.48
248.335	4.41
248.717	4.52
249.098	4.48
249.48	4.46
249.862	4.35
250.243	4.34
250.625	4.89
251.006	4.35
251.388	4.4
251.769	3.72
252.151	3.25
252.532	4.9
252.913	4.84
253.295	4.79
253.676	3.92
254.057	3.76
254.438	4.5
254.819	4.41
255.2	3.51
255.581	4.26
255.962	2.61
256.343	3.21
256.724	3.87
257.105	5
257.486	3.47
257.867	4.68
258.247	3.26
258.628	4.31
259.009	3.7
259.389	4.23
259.77	3.85
260.15	4.28
260.531	3.97
260.911	4.54
261.292	3.88
261.672	4.07
262.052	4
262.432	4.13
262.813	3.97
263.193	4.4
263.573	4.6
263.953	4.73
264.333	4.89
264.713	4.1
265.093	4.67
265.473	4.97
265.853	4.24
266.233	4.39
266.612	3.77
266.992	3.52
267.372	4.15
267.752	4.59
268.131	3.14
268.511	4.47
268.89	3.85
269.27	3.75
269.649	3.83
270.029	3.9
270.408	4.29
270.787	3.57
271.167	4.79
271.546	4.3
271.925	5.05
272.304	4.63
272.683	4.02
273.062	4.23
273.441	4.11
273.82	3.39
274.199	4.21
274.578	4.1
274.957	4.08
275.336	4.2
275.715	3.96
276.093	3.54
276.472	3.84
276.851	3.69
277.229	3.59
277.608	3.94
277.986	3.76
278.365	3.73
278.743	3.95
279.122	4.59
279.5	3.89
279.878	3.03
280.257	3.68
280.635	3.67
281.013	3.8
281.391	4.4
281.769	3.91
282.147	4.01
282.525	3.8
282.903	3.53
283.281	4.11
283.659	3.93
284.037	4.18
284.415	3.81
284.792	3.5
285.17	3.61
285.548	3.57
285.925	3.55
286.303	3.87
286.68	3.87
287.058	4.19
287.435	3.98
287.813	3.69
288.19	3.78
288.567	3.92
288.945	4.43
289.322	3.54
289.699	3.8
290.076	3.74
290.453	4.22
290.83	3.98
291.207	4.02
291.584	4.17
291.961	4
292.338	3.93
292.715	4.26
293.092	3.73
293.469	4.08
293.845	3.41
294.222	4.25
294.599	3.87
294.975	3.41
295.352	4.1
295.728	3.6
296.105	3.8
296.481	4.15
296.858	4.34
297.234	3.93
297.61	4.46
297.986	4.27
298.363	3.86
298.739	3.79
299.115	3.5
299.491	3.71
299.867	3.8
300.243	3.91
300.619	4.21
300.995	4.52
301.371	4.19
301.746	3.94
302.122	4.16
302.498	4.27
302.874	4.05
303.249	4
303.625	3.16
304	4.05
304.376	4.28
304.751	4.37
305.127	4.51
305.502	4.3
305.878	3.46
306.253	3.75
306.628	4.1
307.003	3.85
307.378	4.11
307.754	3.78
308.129	3.85
308.504	4.35
308.879	3.34
309.254	4.3
309.629	3.62
310.003	4.05
310.378	4.13
310.753	4.05
311.128	4.32
311.502	3.68
311.877	3.86
312.252	3.51
312.626	4.2
313.001	3.86
313.375	3.69
313.75	3.99
314.124	4.48
314.498	3.74
314.873	3.74
315.247	3.98
315.621	3.83
315.995	4.25
316.369	3.97
316.743	3.18
317.117	2.87
317.491	3.53
317.865	3.72
318.239	3.46
318.613	4.4
318.987	4.57
319.361	3.47
319.734	3.91
320.108	4.3
320.482	3.98
320.855	3.48
321.229	3.99
321.602	4.18
321.976	4.08
322.349	4
322.723	3.16
323.096	4.35
323.469	3.78
323.843	4.36
324.216	4.11
324.589	4.36
324.962	4.27
325.335	4.24
325.708	4.35
326.081	3.66
326.454	3.5
326.827	4.54
327.2	3.87
327.573	3.81
327.945	4.21
328.318	4.88
328.691	3.51
329.063	3.86
329.436	4.05
329.809	4.14
330.181	3.67
330.553	3.49
330.926	4.31
331.298	3.46
331.671	3.2
332.043	4.19
332.415	3.81
332.787	4.17
333.159	4.09
333.532	3.95
333.904	3.54
334.276	4.67
334.648	3.39
335.02	3.59
335.391	3.79
335.763	4.23
336.135	3.62
336.507	4.26
336.879	3.43
337.25	4.03
337.622	3.81
337.993	3.63
338.365	3.77
338.736	4.12
339.108	4.11
339.479	4.28
339.851	3.67
340.222	3.64
340.593	3.76
340.964	3.77
341.336	4.45
341.707	3.78
342.078	3.28
342.449	3.53
342.82	4.29
343.191	3.95
343.562	3.57
343.933	4.29
344.303	4.07
344.674	4.26
345.045	3.95
345.416	3.68
345.786	3.72
346.157	3.98
346.527	4.38
346.898	3.52
347.268	3.74
347.639	3.84
348.009	3.64
348.38	3.83
348.75	4.09
349.12	3.75
349.49	3.54
349.861	4.09
350.231	3.69
350.601	4.43
350.971	4.34
351.341	4.15
351.711	4.2
352.081	4.03
352.45	3.87
352.82	4.05
353.19	4.14
353.56	3.47
353.929	3.3
354.299	3.47
354.669	3.71
355.038	3.4
355.408	3.86
355.777	4.58
356.147	3.6
356.516	4.23
356.885	3.86
357.254	4.03
357.624	3.82
357.993	3.99
358.362	3.88
358.731	4.24
359.1	3.89
359.469	4.06
359.838	3.86
360.207	4.09
360.576	4.2
360.945	3.6
361.314	3.99
361.682	4.04
362.051	4.1
362.42	4.14
362.788	4.01
363.157	4.46
363.525	4.03
363.894	3.83
364.262	3.94
364.631	3.84
364.999	4.16
365.367	4.06
365.735	3.87
366.104	4.19
366.472	4.13
366.84	4.1
367.208	4.05
367.576	4.26
367.944	3.96
368.312	3.84
368.68	4.19
369.048	4.25
369.416	3.84
369.783	4.17
370.151	3.91
370.519	4
370.886	4.07
371.254	3.82
371.621	4.11
371.989	3.81
372.356	4.31
372.724	3.95
373.091	4.23
373.458	3.92
373.826	4.05
374.193	3.78
374.56	4.09
374.927	4.23
375.294	3.6
375.661	4.31
376.028	4.15
376.395	4.31
376.762	4.36
377.129	4.12
377.496	4.42
377.863	4.09
378.229	4.17
378.596	3.81
378.963	4.3
379.329	4.1
379.696	3.83
380.062	4.31
380.429	3.97
380.795	4.03
381.161	4.48
381.528	4.16
381.894	4.14
382.26	4.15
382.626	3.97
382.993	4.24
383.359	4.09
383.725	3.92
384.091	4.03
384.457	3.88
384.823	4.25
385.188	4.25
385.554	4.2
385.92	4.26
386.286	4.22
386.651	4.2
387.017	4.57
387.383	4.21
387.748	3.96
388.114	4.42
388.479	4.17
388.845	4.23
389.21	4.16
389.575	4.06
389.94	4.21
390.306	4.15
390.671	4.15
391.036	4.2
391.401	4.48
391.766	4.1
392.131	4.38
392.496	4.15
392.861	4.04
393.226	4.24
393.591	4.39
393.956	4.04
394.32	4.23
394.685	4.21
395.05	3.91
395.414	4
395.779	4.27
396.143	4.4
396.508	4.11
396.872	4.29
397.236	4.22
397.601	4.1
397.965	4.25
398.329	4.35
398.694	4.09
399.058	4.56
399.422	3.98
399.786	4.43
400.15	4.01
400.514	4.57
400.878	4.28
401.242	4.31
401.605	4.34
401.969	4.28
402.333	4.33
402.697	4.42
403.06	4.31
403.424	4.26
403.787	4.22
404.151	4.66
404.514	4.24
404.878	4.27
405.241	4.25
405.604	4.22
405.968	4.37
406.331	4.46
406.694	4.58
407.057	4.17
407.42	4.29
407.783	4.22
408.146	4.41
408.509	4.11
408.872	4.36
409.235	4.14
409.598	4.33
409.961	4.42
410.323	4.26
410.686	4.34
411.049	4.3
411.411	4.38
411.774	4.41
412.136	4.61
412.499	4.65
412.861	4.34
413.223	4.67
413.586	4.23
413.948	4.48
414.31	4.42
414.672	4.41
415.035	4.37
415.397	4.45
415.759	4.45
416.121	4.5
416.483	4.48
416.845	4.34
417.206	4.42
417.568	4.48
417.93	4.5
418.292	4.32
418.653	4.46
419.015	4.46
419.377	4.26
419.738	4.33
420.1	4.38
420.461	4.41
420.822	4.45
421.184	4.4
421.545	4.6
421.906	4.3
422.267	4.27
422.629	4.3
422.99	4.35
423.351	4.36
423.712	4.33
424.073	4.39
424.434	4.3
424.795	4.27
425.155	4.3
425.516	4.2
425.877	4.39
426.238	4.3
426.598	4.36
426.959	4.44
427.32	4.45
427.68	4.38
428.041	4.43
428.401	4.31
428.761	4.43
429.122	4.51
429.482	4.56
429.842	4.52
430.202	4.55
430.563	4.58
430.923	4.5
431.283	4.52
431.643	4.49
432.003	4.47
432.363	4.56
432.722	4.32
433.082	4.56
433.442	4.5
433.802	4.53
434.161	4.55
434.521	4.47
434.881	4.46
435.24	4.61
435.6	4.48
435.959	4.47
436.319	4.55
436.678	4.67
437.037	4.45
437.396	4.43
437.756	4.5
438.115	4.59
438.474	4.53
438.833	4.59
439.192	4.66
439.551	4.35
439.91	4.3
440.269	4.54
440.628	4.47
440.987	4.45
441.345	4.47
441.704	4.58
442.063	4.6
442.421	4.6
442.78	4.59
443.138	4.45
443.497	4.6
443.855	4.57
444.214	4.61
444.572	4.66
444.93	4.47
445.288	4.24
445.647	4.68
446.005	4.52
446.363	4.46
446.721	4.57
447.079	4.58
447.437	4.45
447.795	4.58
448.153	4.47
448.51	4.62
448.868	4.61
449.226	4.59
449.584	4.56
449.941	4.64
450.299	4.61
450.656	4.55
451.014	4.61
451.371	4.57
451.729	4.64
452.086	4.58
452.443	4.91
452.801	4.66
453.158	4.63
453.515	4.73
453.872	4.68
454.229	4.69
454.586	4.61
454.943	4.49
455.3	4.63
455.657	4.69
456.014	4.86
456.371	4.75
456.727	4.75
457.084	4.78
457.441	4.51
457.797	4.69
458.154	4.62
458.51	4.46
458.867	4.78
459.223	4.76
459.58	4.81
459.936	4.57
460.292	4.78
460.648	4.77
461.005	4.69
461.361	4.54
461.717	4.71
462.073	4.64
462.429	4.6
462.785	4.72
463.141	4.76
463.496	4.61
463.852	4.94
464.208	4.69
464.564	4.7
464.919	4.97
465.275	4.87
465.631	5.08
465.986	4.87
466.342	4.51
466.697	4.77
467.052	5.01
467.408	4.81
467.763	4.78
468.118	4.91
468.473	4.84
468.829	5
469.184	4.63
469.539	4.76
469.894	4.79
470.249	4.87
470.603	4.98
470.958	4.89
471.313	5.04
471.668	4.94
472.023	4.86
472.377	4.97
472.732	4.87
473.086	4.94
473.441	4.98
473.795	4.89
474.15	4.94
474.504	4.69
474.859	5
475.213	4.8
475.567	4.8
475.921	4.87
476.275	4.82
476.63	5.13
476.984	4.92
477.338	4.92
477.692	4.87
478.045	4.85
478.399	4.76
478.753	4.85
479.107	4.83
479.461	4.93
479.814	4.86
480.168	4.73
480.521	4.8
480.875	4.92
481.228	4.86
481.582	4.8
481.935	4.98
482.289	4.94
482.642	4.96
482.995	4.9
483.348	4.85
483.701	5.15
484.055	4.97
484.408	4.9
484.761	4.9
485.114	4.78
485.466	4.71
485.819	4.67
486.172	4.65
486.525	4.69
486.878	4.69
487.23	4.76
487.583	4.8
487.936	4.88
488.288	4.9
488.641	4.8
488.993	4.78
489.345	4.82
489.698	4.76
490.05	4.79
490.402	4.8
490.754	4.8
491.107	4.8
491.459	5
491.811	4.98
492.163	4.9
492.515	5
492.866	4.9
493.218	4.83
493.57	4.85
493.922	4.83
494.274	4.91
494.625	4.97
494.977	5.01
495.328	5.03
495.68	5.09
496.031	5.14
496.383	5.06
496.734	5.02
497.086	5.02
497.437	5.21
497.788	5.1
498.139	5.09
498.49	5.22
498.842	4.94
499.193	5.08
499.544	5.06
499.894	5.08
500.245	5.2
500.596	5.14
500.947	5.13
501.298	5.21
501.648	5.14
501.999	5.16
502.35	5.19
502.7	5.18
503.051	5.17
503.401	5.22
503.752	5.4
504.102	5.36
504.452	5.24
504.803	5.19
505.153	5.34
505.503	5.29
505.853	5.28
506.203	5.31
506.553	5.17
506.903	5.17
507.253	5.21
507.603	5.3
507.953	5.27
508.303	5.17
508.652	5.28
509.002	5.29
509.352	5.32
509.701	5.3
510.051	5.32
510.4	5.29
510.75	5.2
511.099	5.28
511.449	5.26
511.798	5.26
512.147	5.39
512.496	5.49
512.846	5.39
513.195	5.25
513.544	5.35
513.893	5.31
514.242	5.26
514.591	5.33
514.939	5.33
515.288	5.18
515.637	5.34
515.986	5.45
516.334	5.46
516.683	5.49
517.032	5.54
517.38	5.45
517.729	5.52
518.077	5.46
518.426	5.42
518.774	5.43
519.122	5.44
519.47	5.41
519.819	5.35
520.167	5.34
520.515	5.31
520.863	5.42
521.211	5.39
521.559	5.41
521.907	5.42
522.255	5.5
522.602	5.58
522.95	5.54
523.298	5.61
523.645	5.72
523.993	5.68
524.341	5.69
524.688	5.59
525.036	5.69
525.383	5.57
525.73	5.52
526.078	5.64
526.425	5.61
526.772	5.49
527.119	5.45
527.466	5.57
527.814	5.41
528.161	5.59
528.508	5.54
528.854	5.59
529.201	5.63
529.548	5.6
529.895	5.52
530.242	5.47
530.588	5.43
530.935	5.47
531.282	5.48
531.628	5.53
531.975	5.49
532.321	5.61
532.667	5.63
533.014	5.71
533.36	5.7
533.706	5.66
534.052	5.76
534.399	5.69
534.745	5.74
535.091	5.65
535.437	5.69
535.783	5.7
536.129	5.74
536.474	5.78
536.82	5.79
537.166	5.94
537.512	5.79
537.857	5.92
538.203	5.94
538.549	5.88
538.894	5.84
539.239	5.92
539.585	5.96
539.93	5.94
540.276	5.99
540.621	6.1
540.966	5.88
541.311	6.08
541.656	6.1
542.001	6.04
542.346	5.93
542.691	5.99
543.036	5.88
543.381	5.83
543.726	5.88
544.071	5.93
544.415	5.91
544.76	6.09
545.105	6.07
545.449	6.08
545.794	6.17
546.138	6.06
546.483	6.25
546.827	6.16
547.171	6.31
547.516	6.25
547.86	6.36
548.204	6.28
548.548	6.29
548.892	6.19
549.236	6.27
549.58	6.35
549.924	6.39
550.268	6.44
550.612	6.37
550.956	6.42
551.3	6.49
551.643	6.6
551.987	6.76
552.33	6.63
552.674	6.63
553.017	6.86
553.361	6.82
553.704	6.46
554.048	6.63
554.391	6.71
554.734	6.75
555.077	6.69
555.42	6.61
555.764	6.78
556.107	6.83
556.45	6.62
556.793	6.54
557.135	6.76
557.478	6.7
557.821	6.61
558.164	6.93
558.507	6.84
558.849	6.94
559.192	7.01
559.534	6.82
559.877	6.83
560.219	7.02
560.562	7.02
560.904	7.13
561.246	7
561.589	7.13
561.931	7.09
562.273	6.95
562.615	6.98
562.957	7.07
563.299	7.11
563.641	6.9
563.983	7.11
564.325	7.11
564.667	7.11
565.008	7.07
565.35	7.03
565.692	7.16
566.033	7.43
566.375	7.21
566.716	7.16
567.058	7.36
567.399	7.44
567.741	7.29
568.082	7.29
568.423	7.27
568.764	7.16
569.105	7.2
569.447	7.45
569.788	7.27
570.129	7.4
570.47	7.39
570.811	7.38
571.151	7.63
571.492	7.65
571.833	7.71
572.174	7.54
572.514	7.56
572.855	7.59
573.195	7.52
573.536	7.57
573.876	7.64
574.217	7.68
574.557	7.52
574.898	7.57
575.238	7.7
575.578	7.8
575.918	7.75
576.258	7.71
576.598	7.75
576.938	7.66
577.278	7.7
577.618	8.03
577.958	7.72
578.298	7.96
578.638	7.85
578.977	8
579.317	7.92
579.657	8.15
579.996	8.05
580.336	7.91
580.675	7.97
581.014	8.14
581.354	8.05
581.693	8.16
582.032	8.01
582.372	8.26
582.711	8.28
583.05	8.25
583.389	8.29
583.728	8.45
584.067	8.4
584.406	8.4
584.745	8.47
585.083	8.12
585.422	8.74
585.761	8.72
586.1	8.59
586.438	8.74
586.777	8.74
587.115	8.59
587.454	8.7
587.792	8.44
588.13	8.81
588.469	8.73
588.807	8.75
589.145	8.91
589.483	8.82
589.821	8.84
590.159	9
590.497	8.88
590.835	8.65
591.173	8.83
591.511	8.87
591.849	8.91
592.187	8.97
592.524	8.88
592.862	8.95
593.2	8.76
593.537	8.74
593.875	9.08
594.212	9.23
594.55	9.37
594.887	9.42
595.224	9.08
595.561	9.35
595.899	9.29
596.236	9.2
596.573	9.43
596.91	9.6
597.247	9.32
597.584	9.54
597.921	9.22
598.258	9.49
598.594	9.41
598.931	9.45
599.268	9.36
599.604	9.56
599.941	9.64
600.277	9.46
600.614	9.55
600.95	9.56
601.287	9.59
601.623	9.68
601.959	9.79
602.296	9.59
602.632	9.77
602.968	9.75
603.304	9.44
603.64	9.61
603.976	9.86
604.312	9.73
604.648	10.03
604.984	9.98
605.319	9.87
605.655	9.86
605.991	9.95
606.326	9.94
606.662	10.07
606.998	9.96
607.333	10.02
607.668	10.18
608.004	10.16
608.339	10.16
608.674	10.03
609.01	10.12
609.345	10.64
609.68	10.26
610.015	10.18
610.35	10.44
610.685	10.46
611.02	10.47
611.355	10.41
611.689	10.44
612.024	10.39
612.359	10.49
612.694	10.41
613.028	10.77
613.363	10.52
613.697	10.8
614.032	10.92
614.366	10.96
614.7	10.93
615.035	10.93
615.369	10.72
615.703	10.89
616.037	10.68
616.371	10.47
616.705	10.86
617.039	10.95
617.373	10.8
617.707	10.99
618.041	11.03
618.375	10.89
618.709	10.73
619.042	11.29
619.376	11.16
619.71	11.22
620.043	11.51
620.377	11.43
620.71	10.85
621.043	11.38
621.377	11.09
621.71	11.26
622.043	11.66
622.376	11.77
622.709	11.65
623.043	11.35
623.376	11.91
623.709	11.65
624.041	11.42
624.374	11.85
624.707	11.6
625.04	11.75
625.373	11.8
625.705	11.9
626.038	11.91
626.37	11.86
626.703	11.82
627.035	11.86
627.368	12.04
627.7	11.69
628.032	12.01
628.365	11.97
628.697	11.84
629.029	11.86
629.361	11.89
629.693	12.09
630.025	11.71
630.357	12.12
630.689	11.97
631.021	12.19
631.353	12.46
631.684	12.26
632.016	12.11
632.348	12.36
632.679	11.75
633.011	12.28
633.342	12.56
633.674	12.14
634.005	12.49
634.336	12.5
634.668	12.34
634.999	12.64
635.33	12.64
635.661	12.73
635.992	12.71
636.323	12.51
636.654	12.63
636.985	12.72
637.316	12.55
637.647	12.73
637.977	12.9
638.308	13.01
638.639	12.9
638.969	12.93
639.3	12.85
639.63	13.41
639.961	13.15
640.291	12.76
640.622	13.23
640.952	13.23
641.282	13.31
641.612	13.6
641.943	13.21
642.273	12.93
642.603	13.73
642.933	13.07
643.263	12.71
643.592	13.15
643.922	13.36
644.252	13.68
644.582	13.34
644.911	13.64
645.241	13.48
645.571	13.69
645.9	13.42
646.23	13.41
646.559	13.77
646.888	13.71
647.218	13.65
647.547	13.54
647.876	13.83
648.205	13.71
648.534	13.64
648.863	13.88
649.192	14.27
649.521	14.14
649.85	13.41
650.179	14.21
650.508	14.22
650.837	13.94
651.165	14.01
651.494	14.02
651.822	13.62
652.151	13.86
652.479	14
652.808	14.19
653.136	14.73
653.465	14.27
653.793	13.96
654.121	14.44
654.449	13.95
654.777	14.58
655.105	14.5
655.433	14.99
655.761	14.71
656.089	14.55
656.417	14.68
656.745	14.55
657.073	14.47
657.4	14.59
657.728	14.78
658.056	14.91
658.383	13.88
658.711	14.85
659.038	14.63
659.365	14.8
659.693	14.73
660.02	14.38
660.347	14.77
660.674	14.95
661.001	15.26
661.329	15.28
661.656	14.75
661.982	14.78
662.309	15.34
662.636	15.04
662.963	15.33
663.29	15.26
663.616	15.02
663.943	15.26
664.27	15.56
664.596	15.17
664.923	15.43
665.249	14.95
665.576	15.96
665.902	15.72
666.228	16.04
666.554	15.62
666.881	14.81
667.207	15.52
667.533	15.97
667.859	15.83
668.185	15.59
668.511	16.27
668.837	15.75
669.162	16.38
669.488	15.72
669.814	15.91
670.139	15.93
670.465	15.8
670.791	15.8
671.116	15.74
671.442	16.12
671.767	16.29
672.092	16.49
672.418	16.63
672.743	16.4
673.068	15.8
673.393	16.16
673.718	16.2
674.043	16.33
674.368	15.88
674.693	16.19
675.018	16.31
675.343	15.96
675.667	16.43
675.992	16.53
676.317	15.89
676.641	16.32
676.966	16.49
677.29	15.75
677.615	16.38
677.939	15.86
678.264	17.38
678.588	16.84
678.912	17.02
679.236	16.58
679.56	17.06
679.885	16.69
680.209	16.75
680.532	17.1
680.856	16.84
681.18	16.76
681.504	17.05
681.828	16.96
682.152	17.14
682.475	16.96
682.799	17.09
683.122	17.14
683.446	17.44
683.769	18.43
684.093	17.19
684.416	17.52
684.739	17.4
685.062	17.39
685.386	17.2
685.709	17.68
686.032	17.37
686.355	16.46
686.678	17.71
687.001	17.93
687.324	17.52
687.646	17.67
