Data from 438_crown_Reflection__4__146.txt Node

Date: Tue Dec 12 19:35:18 CST 2023
User: ToomeyLab
Spectrometer: FLMS14357
Trigger mode: 0
Integration Time (sec): 1.000000E-2
Scans to average: 100
Electric dark correction enabled: true
Nonlinearity correction enabled: false
Boxcar width: 0
XAxis mode: Wavelengths
Number of Pixels in Spectrum: 2048
>>>>>Begin Spectral Data<<<<<
189.047	692.33
189.435	692.33
189.823	692.33
190.211	-22.91
190.599	803.38
190.987	220.32
191.375	194.42
191.763	37.01
192.151	96.16
192.538	-396.55
192.926	187.75
193.314	-101.28
193.702	-37.29
194.089	-59.45
194.477	-32.63
194.864	166.5
195.252	-166.92
195.639	-50.63
196.027	-1897.97
196.414	62.59
196.801	-477.88
197.189	-40.74
197.576	-259.65
197.963	9.68
198.351	80.69
198.738	37.32
199.125	-3.99
199.512	-21.17
199.899	19.21
200.286	2.22
200.673	34.4
201.06	60.47
201.447	-56.87
201.833	6.69
202.22	41.1
202.607	-117.05
202.994	-32.69
203.38	37.47
203.767	-0.3
204.154	20.81
204.54	19.07
204.927	17.57
205.313	-18.96
205.699	-19.86
206.086	12.02
206.472	7.06
206.858	9.26
207.245	38.31
207.631	-11.89
208.017	11.44
208.403	13.13
208.789	19.46
209.175	-59
209.561	-8.55
209.947	-19.07
210.333	16.16
210.719	-22.81
211.105	-0.73
211.491	30.68
211.876	41.82
212.262	11.23
212.648	-35.13
213.034	-43.12
213.419	33.27
213.805	-6.76
214.19	13.33
214.576	6.03
214.961	13.89
215.346	-9.47
215.732	36.48
216.117	-3.64
216.502	1.77
216.888	-12.59
217.273	15.65
217.658	-15.51
218.043	4.18
218.428	28.11
218.813	29.98
219.198	-26.23
219.583	-4.43
219.968	12.87
220.353	-6.75
220.738	5.04
221.122	-0.52
221.507	9.63
221.892	3.29
222.276	-3.43
222.661	24.7
223.046	2.24
223.43	19.8
223.815	8.23
224.199	6.34
224.583	-1.46
224.968	9.71
225.352	0.28
225.736	9.08
226.121	-0.13
226.505	7.94
226.889	4.42
227.273	5.78
227.657	11.36
228.041	11.83
228.425	8.08
228.809	5.7
229.193	3.1
229.577	6.23
229.961	5.5
230.344	6.5
230.728	7.24
231.112	6.54
231.495	6.4
231.879	6.5
232.263	6.67
232.646	6.55
233.03	5.83
233.413	6.87
233.797	4.8
234.18	3.75
234.563	6.09
234.946	9.79
235.33	6.26
235.713	7.3
236.096	6.36
236.479	7.83
236.862	6.06
237.245	5.82
237.628	6.52
238.011	6.78
238.394	6.74
238.777	5.56
239.16	4.62
239.543	5.67
239.925	6.92
240.308	6.3
240.691	6.52
241.073	7.4
241.456	6.96
241.838	6.46
242.221	6.17
242.603	7
242.986	6.26
243.368	7.06
243.75	6.41
244.133	6.91
244.515	6.81
244.897	6.41
245.279	6.6
245.661	6.38
246.043	6.15
246.425	6.84
246.807	5.89
247.189	7.2
247.571	6.51
247.953	6.32
248.335	6.41
248.717	6.52
249.098	6.69
249.48	6.03
249.862	6.34
250.243	6.61
250.625	6.63
251.006	6.64
251.388	6.14
251.769	6.58
252.151	6.83
252.532	5.49
252.913	7.12
253.295	6.83
253.676	5.57
254.057	5.85
254.438	6.83
254.819	5.99
255.2	5.6
255.581	6.07
255.962	6.14
256.343	6.27
256.724	5.95
257.105	7.41
257.486	5.32
257.867	5.77
258.247	5.76
258.628	6.96
259.009	5.56
259.389	5.74
259.77	6.01
260.15	6.43
260.531	6.21
260.911	6.33
261.292	5.78
261.672	5.9
262.052	5.98
262.432	6.12
262.813	6.03
263.193	6.29
263.573	5.87
263.953	6.53
264.333	6.95
264.713	6.6
265.093	6.08
265.473	6.66
265.853	5.3
266.233	5.18
266.612	5.49
266.992	5.91
267.372	6.3
267.752	6.95
268.131	5.53
268.511	5.9
268.89	4.82
269.27	5.27
269.649	5.95
270.029	5.86
270.408	6.08
270.787	5.66
271.167	5.94
271.546	6.04
271.925	5.98
272.304	5.89
272.683	5.06
273.062	5.78
273.441	6.3
273.82	5.59
274.199	5.81
274.578	6.47
274.957	5.78
275.336	6.05
275.715	5.65
276.093	4.99
276.472	6.11
276.851	5.85
277.229	4.69
277.608	6.05
277.986	5.59
278.365	6.28
278.743	5.99
279.122	6.18
279.5	5.18
279.878	5.02
280.257	5.65
280.635	5.52
281.013	5.55
281.391	5.97
281.769	5.23
282.147	5.97
282.525	5.26
282.903	5.23
283.281	5.12
283.659	5.74
284.037	5.91
284.415	5.47
284.792	5.53
285.17	5.65
285.548	5.72
285.925	5.25
286.303	5.64
286.68	5.43
287.058	5.67
287.435	5.29
287.813	5.34
288.19	5.59
288.567	5.64
288.945	5.57
289.322	5.22
289.699	5.25
290.076	5.09
290.453	5.62
290.83	5.64
291.207	5.35
291.584	5.44
291.961	5.53
292.338	5.23
292.715	5.55
293.092	5.36
293.469	5.69
293.845	5.61
294.222	5.43
294.599	6.11
294.975	5.19
295.352	5.59
295.728	5.98
296.105	5.41
296.481	5.37
296.858	5.57
297.234	5.59
297.61	5.7
297.986	5.64
298.363	5.7
298.739	4.98
299.115	5.11
299.491	5.33
299.867	5.13
300.243	5.17
300.619	5.57
300.995	5.48
301.371	5.69
301.746	5.47
302.122	5.87
302.498	5.16
302.874	5.31
303.249	5.88
303.625	4.98
304	5.26
304.376	5.52
304.751	5.9
305.127	5.4
305.502	5.85
305.878	5.31
306.253	5.32
306.628	5.42
307.003	5.16
307.378	5.54
307.754	5.66
308.129	5.66
308.504	6.13
308.879	5.43
309.254	5.57
309.629	4.83
310.003	5.58
310.378	5.6
310.753	5.4
311.128	5.51
311.502	4.86
311.877	4.96
312.252	5.17
312.626	5.29
313.001	5.01
313.375	4.89
313.75	5.39
314.124	5.52
314.498	5.09
314.873	5.54
315.247	5.35
315.621	5.19
315.995	5.67
316.369	5.45
316.743	5.21
317.117	4.58
317.491	5.32
317.865	5.07
318.239	5
318.613	5.59
318.987	6.26
319.361	5.09
319.734	5.19
320.108	5.26
320.482	4.79
320.855	5.14
321.229	5.1
321.602	5.17
321.976	5.49
322.349	5.54
322.723	4.82
323.096	5.04
323.469	5.35
323.843	6.04
324.216	5.87
324.589	5.1
324.962	5.67
325.335	5.73
325.708	5.21
326.081	5.14
326.454	5.35
326.827	5.4
327.2	5.3
327.573	5.05
327.945	5.46
328.318	5.64
328.691	4.73
329.063	5.5
329.436	5.29
329.809	5
330.181	4.76
330.553	4.89
330.926	5.13
331.298	4.91
331.671	5.59
332.043	5.25
332.415	5.4
332.787	5.03
333.159	4.69
333.532	5.38
333.904	5.09
334.276	5.37
334.648	4.85
335.02	4.53
335.391	5.01
335.763	4.97
336.135	5.35
336.507	5.7
336.879	5.05
337.25	4.98
337.622	5.08
337.993	4.78
338.365	4.98
338.736	5.27
339.108	5.43
339.479	5.31
339.851	4.69
340.222	4.77
340.593	4.84
340.964	4.89
341.336	5.33
341.707	4.65
342.078	4.55
342.449	4.92
342.82	5.37
343.191	4.99
343.562	4.99
343.933	5.15
344.303	5.25
344.674	5.29
345.045	4.95
345.416	5.4
345.786	5.29
346.157	4.94
346.527	5.42
346.898	4.63
347.268	5.08
347.639	5.02
348.009	4.86
348.38	5.28
348.75	5.65
349.12	5.41
349.49	4.62
349.861	5.23
350.231	4.89
350.601	5.49
350.971	5.3
351.341	5.15
351.711	5.17
352.081	4.91
352.45	4.99
352.82	5.61
353.19	4.88
353.56	5
353.929	4.6
354.299	5.2
354.669	4.89
355.038	4.58
355.408	4.72
355.777	5.34
356.147	4.81
356.516	5.06
356.885	4.96
357.254	5.21
357.624	4.65
357.993	5.04
358.362	4.8
358.731	5.14
359.1	4.69
359.469	4.93
359.838	4.93
360.207	5.01
360.576	5.35
360.945	5.08
361.314	5.1
361.682	5.23
362.051	5.5
362.42	5.2
362.788	5.05
363.157	5.51
363.525	5.19
363.894	5.08
364.262	4.94
364.631	4.88
364.999	4.98
365.367	5.25
365.735	4.96
366.104	4.99
366.472	4.99
366.84	5.15
367.208	4.92
367.576	4.81
367.944	5.01
368.312	5.26
368.68	4.92
369.048	5.42
369.416	5.08
369.783	5.17
370.151	5.05
370.519	5.19
370.886	5.03
371.254	4.94
371.621	5.46
371.989	5.23
372.356	5.31
372.724	4.86
373.091	5.11
373.458	5.06
373.826	5.31
374.193	4.91
374.56	4.85
374.927	5.41
375.294	5.46
375.661	5.14
376.028	5.44
376.395	5.66
376.762	5.62
377.129	5.13
377.496	5.15
377.863	5.04
378.229	5.3
378.596	4.88
378.963	5.44
379.329	5.12
379.696	5.04
380.062	5.31
380.429	5.25
380.795	5.46
381.161	5.37
381.528	5.25
381.894	5.36
382.26	5.16
382.626	5.66
382.993	5.4
383.359	4.94
383.725	5.4
384.091	5.33
384.457	5.16
384.823	5.24
385.188	5.54
385.554	5.19
385.92	5.53
386.286	5.5
386.651	5.33
387.017	5.71
387.383	5.34
387.748	5.53
388.114	5.31
388.479	5.38
388.845	5.51
389.21	5.26
389.575	5.22
389.94	5.3
390.306	5.49
390.671	5.66
391.036	5.87
391.401	5.63
391.766	5.71
392.131	5.6
392.496	5.53
392.861	5.43
393.226	5.52
393.591	5.5
393.956	5.17
394.32	5.49
394.685	5.47
395.05	5.24
395.414	5.83
395.779	5.37
396.143	5.73
396.508	5.49
396.872	5.47
397.236	5.49
397.601	5.48
397.965	5.26
398.329	5.62
398.694	5.34
399.058	5.68
399.422	5.48
399.786	5.38
400.15	5.29
400.514	5.89
400.878	5.73
401.242	5.33
401.605	5.53
401.969	5.57
402.333	5.61
402.697	5.15
403.06	5.42
403.424	5.78
403.787	5.49
404.151	5.72
404.514	5.23
404.878	5.43
405.241	5.78
405.604	5.51
405.968	5.61
406.331	5.66
406.694	5.76
407.057	5.48
407.42	5.57
407.783	5.61
408.146	5.61
408.509	5.6
408.872	5.83
409.235	5.54
409.598	5.44
409.961	5.63
410.323	5.6
410.686	5.61
411.049	5.93
411.411	5.87
411.774	5.69
412.136	5.74
412.499	5.48
412.861	5.72
413.223	5.87
413.586	5.5
413.948	5.64
414.31	5.83
414.672	5.68
415.035	5.76
415.397	5.66
415.759	5.82
416.121	5.82
416.483	5.87
416.845	5.55
417.206	5.92
417.568	5.48
417.93	5.85
418.292	5.62
418.653	5.86
419.015	5.65
419.377	5.72
419.738	5.65
420.1	5.67
420.461	5.68
420.822	5.74
421.184	5.66
421.545	5.76
421.906	5.58
422.267	5.6
422.629	5.69
422.99	5.73
423.351	5.65
423.712	5.64
424.073	5.63
424.434	5.76
424.795	5.81
425.155	5.61
425.516	5.61
425.877	5.62
426.238	5.71
426.598	5.62
426.959	5.75
427.32	5.73
427.68	5.71
428.041	5.78
428.401	5.71
428.761	5.81
429.122	5.8
429.482	5.95
429.842	5.8
430.202	5.69
430.563	5.91
430.923	5.78
431.283	5.93
431.643	5.91
432.003	5.79
432.363	5.94
432.722	5.85
433.082	5.92
433.442	6.03
433.802	5.92
434.161	5.9
434.521	6.07
434.881	5.82
435.24	5.9
435.6	5.89
435.959	5.88
436.319	5.98
436.678	6.03
437.037	5.85
437.396	5.91
437.756	5.98
438.115	6.03
438.474	6.02
438.833	5.95
439.192	6.02
439.551	5.88
439.91	5.8
440.269	5.95
440.628	5.87
440.987	5.75
441.345	5.97
441.704	5.97
442.063	5.86
442.421	6
442.78	5.92
443.138	5.94
443.497	5.9
443.855	5.95
444.214	6.09
444.572	6.1
444.93	6.16
445.288	5.74
445.647	6.18
446.005	5.96
446.363	5.76
446.721	5.85
447.079	6.07
447.437	5.85
447.795	5.96
448.153	5.88
448.51	5.93
448.868	5.92
449.226	6.01
449.584	5.93
449.941	5.98
450.299	6.1
450.656	5.94
451.014	6.08
451.371	6.02
451.729	6.1
452.086	6.07
452.443	6.21
452.801	6.08
453.158	6.15
453.515	6.03
453.872	6.1
454.229	6.18
454.586	5.92
454.943	6.09
455.3	6.07
455.657	5.99
456.014	6.26
456.371	6.07
456.727	6.07
457.084	6.07
457.441	6.11
457.797	6.12
458.154	5.99
458.51	5.97
458.867	6.24
459.223	6.2
459.58	6.22
459.936	6.1
460.292	6.24
460.648	6.31
461.005	6.26
461.361	6.16
461.717	6.14
462.073	6.02
462.429	6.04
462.785	6.07
463.141	6.1
463.496	6.16
463.852	6.38
464.208	6.34
464.564	6.22
464.919	6.32
465.275	6.35
465.631	6.34
465.986	6.17
466.342	6.12
466.697	6.31
467.052	6.25
467.408	6.51
467.763	6.34
468.118	6.32
468.473	6.56
468.829	6.4
469.184	6.24
469.539	6.43
469.894	6.4
470.249	6.38
470.603	6.47
470.958	6.21
471.313	6.4
471.668	6.46
472.023	6.26
472.377	6.4
472.732	6.41
473.086	6.37
473.441	6.57
473.795	6.27
474.15	6.41
474.504	6.3
474.859	6.31
475.213	6.3
475.567	6.32
475.921	6.44
476.275	6.32
476.63	6.31
476.984	6.57
477.338	6.42
477.692	6.34
478.045	6.52
478.399	6.51
478.753	6.45
479.107	6.6
479.461	6.53
479.814	6.44
480.168	6.37
480.521	6.3
480.875	6.39
481.228	6.61
481.582	6.27
481.935	6.58
482.289	6.49
482.642	6.48
482.995	6.4
483.348	6.34
483.701	6.65
484.055	6.4
484.408	6.4
484.761	6.29
485.114	6.19
485.466	6.16
485.819	6.1
486.172	6.06
486.525	6.11
486.878	6.13
487.23	6.21
487.583	6.23
487.936	6.35
488.288	6.32
488.641	6.37
488.993	6.24
489.345	6.28
489.698	6.2
490.05	6.22
490.402	6.21
490.754	6.23
491.107	6.25
491.459	6.3
491.811	6.44
492.163	6.33
492.515	6.47
492.866	6.32
493.218	6.3
493.57	6.23
493.922	6.27
494.274	6.22
494.625	6.33
494.977	6.56
495.328	6.56
495.68	6.42
496.031	6.62
496.383	6.62
496.734	6.49
497.086	6.49
497.437	6.56
497.788	6.57
498.139	6.57
498.49	6.63
498.842	6.46
499.193	6.56
499.544	6.53
499.894	6.46
500.245	6.64
500.596	6.6
500.947	6.51
501.298	6.59
501.648	6.69
501.999	6.66
502.35	6.6
502.7	6.64
503.051	6.56
503.401	6.45
503.752	6.62
504.102	6.7
504.452	6.65
504.803	6.74
505.153	6.64
505.503	6.73
505.853	6.76
506.203	6.78
506.553	6.64
506.903	6.71
507.253	6.73
507.603	6.61
507.953	6.78
508.303	6.85
508.652	6.71
509.002	6.8
509.352	6.56
509.701	6.69
510.051	6.77
510.4	6.77
510.75	6.71
511.099	6.66
511.449	6.73
511.798	6.64
512.147	6.72
512.496	6.83
512.846	6.73
513.195	6.8
513.544	6.81
513.893	6.79
514.242	6.64
514.591	6.73
514.939	6.84
515.288	6.72
515.637	6.64
515.986	6.7
516.334	6.86
516.683	6.78
517.032	6.76
517.38	6.84
517.729	6.87
518.077	6.79
518.426	6.9
518.774	6.82
519.122	6.83
519.47	6.7
519.819	6.72
520.167	6.71
520.515	6.63
520.863	6.78
521.211	6.62
521.559	6.81
521.907	6.7
522.255	6.78
522.602	6.77
522.95	6.83
523.298	6.86
523.645	6.84
523.993	6.93
524.341	6.88
524.688	6.77
525.036	6.98
525.383	6.81
525.73	6.85
526.078	6.93
526.425	6.8
526.772	6.82
527.119	6.77
527.466	6.81
527.814	6.65
528.161	6.87
528.508	6.75
528.854	6.73
529.201	6.82
529.548	6.79
529.895	6.64
530.242	6.55
530.588	6.55
530.935	6.6
531.282	6.61
531.628	6.62
531.975	6.64
532.321	6.66
532.667	6.74
533.014	6.76
533.36	6.8
533.706	6.87
534.052	6.77
534.399	6.91
534.745	6.85
535.091	6.73
535.437	6.81
535.783	6.75
536.129	6.8
536.474	6.82
536.82	6.88
537.166	6.94
537.512	6.97
537.857	6.99
538.203	6.96
538.549	6.79
538.894	6.91
539.239	6.89
539.585	6.88
539.93	6.95
540.276	6.9
540.621	6.9
540.966	6.9
541.311	6.99
541.656	7.05
542.001	6.98
542.346	6.91
542.691	6.85
543.036	6.77
543.381	6.79
543.726	6.82
544.071	6.79
544.415	6.83
544.76	6.89
545.105	6.89
545.449	6.96
545.794	7.04
546.138	6.91
546.483	7.01
546.827	7.09
547.171	7.1
547.516	6.94
547.86	7
548.204	7.05
548.548	7
548.892	7.16
549.236	7.03
549.58	7.14
549.924	7.04
550.268	7.17
550.612	7.1
550.956	7.19
551.3	7.32
551.643	7.27
551.987	7.33
552.33	7.17
552.674	7.26
553.017	7.31
553.361	7.47
553.704	7.15
554.048	7.25
554.391	7.19
554.734	7.24
555.077	7.23
555.42	7.18
555.764	7.31
556.107	7.26
556.45	7.03
556.793	7.08
557.135	7.24
557.478	7.13
557.821	7.18
558.164	7.23
558.507	7.19
558.849	7.19
559.192	7.17
559.534	7.24
559.877	7.14
560.219	7.39
560.562	7.23
560.904	7.26
561.246	7.37
561.589	7.25
561.931	7.28
562.273	7.07
562.615	7.36
562.957	7.29
563.299	7.4
563.641	7.42
563.983	7.36
564.325	7.27
564.667	7.43
565.008	7.21
565.35	7.11
565.692	7.3
566.033	7.41
566.375	7.26
566.716	7.26
567.058	7.37
567.399	7.51
567.741	7.34
568.082	7.37
568.423	7.26
568.764	7.34
569.105	7.24
569.447	7.43
569.788	7.31
570.129	7.44
570.47	7.4
570.811	7.43
571.151	7.45
571.492	7.37
571.833	7.52
572.174	7.5
572.514	7.4
572.855	7.51
573.195	7.39
573.536	7.35
573.876	7.36
574.217	7.4
574.557	7.15
574.898	7.41
575.238	7.55
575.578	7.32
575.918	7.36
576.258	7.5
576.598	7.48
576.938	7.34
577.278	7.45
577.618	7.64
577.958	7.45
578.298	7.49
578.638	7.24
578.977	7.31
579.317	7.3
579.657	7.51
579.996	7.53
580.336	7.49
580.675	7.45
581.014	7.78
581.354	7.48
581.693	7.58
582.032	7.5
582.372	7.61
582.711	7.62
583.05	7.69
583.389	7.57
583.728	7.57
584.067	7.66
584.406	7.65
584.745	7.53
585.083	7.4
585.422	7.75
585.761	7.87
586.1	7.4
586.438	7.75
586.777	7.55
587.115	7.29
587.454	7.62
587.792	7.31
588.13	7.84
588.469	7.46
588.807	7.65
589.145	7.54
589.483	7.53
589.821	7.85
590.159	7.75
590.497	7.57
590.835	7.73
591.173	7.49
591.511	7.65
591.849	7.56
592.187	7.46
592.524	7.65
592.862	7.44
593.2	7.46
593.537	7.75
593.875	7.75
594.212	7.69
594.55	7.98
594.887	7.99
595.224	7.64
595.561	7.67
595.899	7.63
596.236	7.66
596.573	7.51
596.91	7.73
597.247	7.51
597.584	7.46
597.921	7.54
598.258	7.73
598.594	7.86
598.931	7.68
599.268	7.44
599.604	7.49
599.941	7.5
600.277	7.73
600.614	7.66
600.95	7.97
601.287	7.51
601.623	7.7
601.959	7.85
602.296	7.79
602.632	7.53
602.968	7.72
603.304	7.57
603.64	7.78
603.976	7.74
604.312	7.5
604.648	7.85
604.984	7.73
605.319	7.57
605.655	7.72
605.991	7.68
606.326	7.47
606.662	7.77
606.998	7.53
607.333	7.8
607.668	7.84
608.004	7.77
608.339	7.64
608.674	7.72
609.01	7.61
609.345	7.78
609.68	7.79
610.015	7.41
610.35	7.77
610.685	7.83
611.02	7.71
611.355	7.66
611.689	7.69
612.024	7.76
612.359	7.72
612.694	7.78
613.028	7.84
613.363	7.78
613.697	7.83
614.032	7.85
614.366	8.03
614.7	7.65
615.035	7.96
615.369	7.59
615.703	7.89
616.037	7.61
616.371	7.87
616.705	7.79
617.039	7.82
617.373	8.17
617.707	7.67
618.041	8.14
618.375	7.82
618.709	7.62
619.042	7.72
619.376	7.75
619.71	7.53
620.043	7.42
620.377	7.79
620.71	7.65
621.043	7.4
621.377	7.32
621.71	7.83
622.043	8.1
622.376	7.78
622.709	7.97
623.043	7.73
623.376	8.11
623.709	8.02
624.041	8.18
624.374	7.72
624.707	7.81
625.04	7.79
625.373	8.38
625.705	7.96
626.038	7.74
626.37	7.85
626.703	8.07
627.035	7.98
627.368	7.94
627.7	7.9
628.032	7.49
628.365	7.9
628.697	8.21
629.029	7.68
629.361	7.64
629.693	7.72
630.025	7.81
630.357	7.86
630.689	7.45
631.021	8.06
631.353	8.26
631.684	7.92
632.016	7.87
632.348	7.92
632.679	7.52
633.011	8.34
633.342	8.11
633.674	7.84
634.005	7.85
634.336	7.9
634.668	7.98
634.999	8.11
635.33	8.09
635.661	8.24
635.992	7.9
636.323	7.86
636.654	8.14
636.985	7.68
637.316	7.81
637.647	7.67
637.977	8.11
638.308	7.89
638.639	8.01
638.969	8.16
639.3	7.91
639.63	8.1
639.961	8.01
640.291	7.6
640.622	8.02
640.952	8.31
641.282	8.05
641.612	7.89
641.943	8.22
642.273	8.28
642.603	8.62
642.933	8.32
643.263	7.62
643.592	8.26
643.922	8.4
644.252	8.62
644.582	7.76
644.911	8.04
645.241	8.03
645.571	8.59
645.9	7.69
646.23	8.08
646.559	7.98
646.888	7.87
647.218	8.26
647.547	7.91
647.876	8.17
648.205	7.87
648.534	8.3
648.863	7.7
649.192	8.16
649.521	8.57
649.85	7.84
650.179	8.49
650.508	7.88
650.837	8.11
651.165	7.99
651.494	7.91
651.822	8.08
652.151	8.69
652.479	8.59
652.808	8.05
653.136	7.88
653.465	8.57
653.793	8.32
654.121	8.44
654.449	8.4
654.777	8.19
655.105	8.6
655.433	8.85
655.761	8.69
656.089	8.22
656.417	8.67
656.745	7.98
657.073	7.99
657.4	8.3
657.728	7.88
658.056	8.09
658.383	8.17
658.711	8.43
659.038	8.22
659.365	7.86
659.693	7.79
660.02	8.32
660.347	8.39
660.674	8.47
661.001	8.57
661.329	8.58
661.656	8.43
661.982	8.25
662.309	8.22
662.636	8.18
662.963	7.97
663.29	8.55
663.616	7.89
663.943	8.43
664.27	8.3
664.596	8.81
664.923	8.82
665.249	7.62
665.576	8.3
665.902	9.18
666.228	8.27
666.554	8.25
666.881	7.97
667.207	8.81
667.533	8.48
667.859	8.19
668.185	8.22
668.511	8.53
668.837	7.81
669.162	8.71
669.488	8.27
669.814	8.74
670.139	8.18
670.465	8.33
670.791	8.41
671.116	8.29
671.442	8.33
671.767	8.38
672.092	9.1
672.418	8.46
672.743	9.27
673.068	7.85
673.393	8.38
673.718	8.45
674.043	8.46
674.368	7.73
674.693	7.83
675.018	8.3
675.343	8.53
675.667	8.51
675.992	8.13
676.317	8.12
676.641	8.38
676.966	8.39
677.29	7.82
677.615	8.56
677.939	8.41
678.264	9.15
678.588	8.66
678.912	8.77
679.236	8.43
679.56	8.7
679.885	8.48
680.209	7.96
680.532	8.65
680.856	8.59
681.18	7.98
681.504	8.58
681.828	8.9
682.152	8.65
682.475	8.68
682.799	8.3
683.122	8.67
683.446	8.59
683.769	9.15
684.093	8.43
684.416	8.74
684.739	9.03
685.062	8.25
685.386	8.82
685.709	9.08
686.032	8.59
686.355	8.8
686.678	9
687.001	8.78
687.324	8.81
687.646	9.01
687.969	7.75
688.292	8.75
688.614	8.92
688.937	8.71
689.26	8.07
689.582	8.11
689.904	8.3
690.227	8.43
690.549	8.27
690.871	7.62
691.194	8.93
691.516	8.18
691.838	8.38
692.16	8.23
692.482	8.91
692.804	8.39
