Data from 438_crown_Reflection__1__143.txt Node

Date: Tue Dec 12 19:34:39 CST 2023
User: ToomeyLab
Spectrometer: FLMS14357
Trigger mode: 0
Integration Time (sec): 1.000000E-2
Scans to average: 100
Electric dark correction enabled: true
Nonlinearity correction enabled: false
Boxcar width: 0
XAxis mode: Wavelengths
Number of Pixels in Spectrum: 2048
>>>>>Begin Spectral Data<<<<<
189.047	393.45
189.435	393.45
189.823	393.45
190.211	-0.89
190.599	-120.68
190.987	275.73
191.375	-431.51
191.763	45.2
192.151	85.59
192.538	585.16
192.926	124.43
193.314	-845.84
193.702	4.88
194.089	-32.04
194.477	-122.04
194.864	339.19
195.252	-165.04
195.639	-54.34
196.027	739.59
196.414	47.16
196.801	-1101.81
197.189	-55.49
197.576	191.57
197.963	30.26
198.351	6.11
198.738	34.85
199.125	26.71
199.512	-39.79
199.899	-9.36
200.286	19.61
200.673	-55.3
201.06	-29.61
201.447	-79.63
201.833	-30.71
202.22	-2.43
202.607	-88.84
202.994	38.12
203.38	25.64
203.767	5.18
204.154	-8.79
204.54	19.78
204.927	-11.25
205.313	29.1
205.699	3.13
206.086	7.08
206.472	30.12
206.858	-40.96
207.245	-13.7
207.631	9.59
208.017	13.4
208.403	-13.57
208.789	13.79
209.175	9.07
209.561	-5.36
209.947	-8.51
210.333	3.01
210.719	-20.69
211.105	-0.56
211.491	26.74
211.876	34.67
212.262	5.96
212.648	-33.58
213.034	-82.72
213.419	6.44
213.805	21.66
214.19	46.36
214.576	7.13
214.961	18.62
215.346	-6.52
215.732	51.29
216.117	10.02
216.502	-37.28
216.888	10.15
217.273	-13.48
217.658	-12.54
218.043	-31.51
218.428	17.38
218.813	-4.27
219.198	-31.76
219.583	4.32
219.968	22.75
220.353	3.75
220.738	12.97
221.122	1.28
221.507	-11.57
221.892	-9.8
222.276	-5.37
222.661	-3.14
223.046	-9.04
223.43	-3.65
223.815	0.76
224.199	4.13
224.583	-0.6
224.968	9
225.352	4.5
225.736	16.06
226.121	3.03
226.505	8.74
226.889	4.93
227.273	6.67
227.657	11.11
228.041	10.41
228.425	11.53
228.809	10.3
229.193	4.95
229.577	9.38
229.961	9.21
230.344	10.53
230.728	10.32
231.112	10.6
231.495	9.57
231.879	9.64
232.263	8.69
232.646	8.76
233.03	8.08
233.413	7.59
233.797	8.94
234.18	7.1
234.563	9.62
234.946	10.3
235.33	11.2
235.713	8.98
236.096	7.81
236.479	9.68
236.862	8.08
237.245	8.95
237.628	8.76
238.011	9.59
238.394	8.74
238.777	10.72
239.16	8.11
239.543	9.24
239.925	9.55
240.308	9.04
240.691	9.93
241.073	9.46
241.456	9.94
241.838	8.18
242.221	9.52
242.603	10.05
242.986	8.31
243.368	9.99
243.75	8.6
244.133	9.11
244.515	9.43
244.897	9.66
245.279	9.77
245.661	9.05
246.043	8.18
246.425	9.42
246.807	7.91
247.189	8.5
247.571	9.73
247.953	8.55
248.335	8.75
248.717	8.9
249.098	8.78
249.48	8.58
249.862	8.46
250.243	8.41
250.625	9.12
251.006	8.74
251.388	8.62
251.769	8.83
252.151	7.63
252.532	8.29
252.913	9.24
253.295	9.07
253.676	8.54
254.057	8.13
254.438	9.09
254.819	8.14
255.2	7.83
255.581	7.3
255.962	7.78
256.343	7.72
256.724	8.34
257.105	8.17
257.486	6.89
257.867	7.77
258.247	8.13
258.628	8.73
259.009	7.57
259.389	7.79
259.77	7.8
260.15	8.04
260.531	9.13
260.911	8.63
261.292	7.62
261.672	8.12
262.052	8.26
262.432	8.25
262.813	8.4
263.193	8.51
263.573	8.1
263.953	8.49
264.333	8.58
264.713	8.63
265.093	8.25
265.473	8.19
265.853	6.77
266.233	8.05
266.612	6.93
266.992	8.13
267.372	8.61
267.752	8.49
268.131	7.15
268.511	7.95
268.89	7.65
269.27	7.5
269.649	7.85
270.029	7.52
270.408	7.99
270.787	7.29
271.167	7.99
271.546	8.51
271.925	7.45
272.304	7.65
272.683	7.61
273.062	7.63
273.441	7.92
273.82	7.51
274.199	7.24
274.578	7.78
274.957	7.47
275.336	7.69
275.715	7.93
276.093	7.23
276.472	8.23
276.851	7.85
277.229	7
277.608	7.3
277.986	7.18
278.365	7.76
278.743	8
279.122	7.94
279.5	7.45
279.878	6.86
280.257	7.64
280.635	6.79
281.013	7.19
281.391	7.13
281.769	7.32
282.147	7.73
282.525	7.2
282.903	7.25
283.281	7.02
283.659	7.48
284.037	7.28
284.415	7.43
284.792	7.61
285.17	7.24
285.548	7.43
285.925	7.24
286.303	7.05
286.68	7.45
287.058	7.22
287.435	7.22
287.813	6.94
288.19	7.36
288.567	7.37
288.945	7.24
289.322	6.8
289.699	7.03
290.076	7.25
290.453	7.32
290.83	7.45
291.207	7.84
291.584	7.5
291.961	6.74
292.338	7.06
292.715	7.14
293.092	7.01
293.469	6.73
293.845	7.06
294.222	7.08
294.599	6.75
294.975	6.66
295.352	7.09
295.728	7.06
296.105	6.63
296.481	7.3
296.858	7.12
297.234	7.56
297.61	6.6
297.986	7.34
298.363	6.92
298.739	6.79
299.115	6.48
299.491	6.61
299.867	6.78
300.243	6.41
300.619	6.97
300.995	6.79
301.371	6.98
301.746	6.82
302.122	7.53
302.498	6.78
302.874	7.01
303.249	7.01
303.625	6.54
304	6.97
304.376	6.58
304.751	6.47
305.127	6.49
305.502	6.92
305.878	6.53
306.253	6.38
306.628	6.39
307.003	6.75
307.378	6.04
307.754	6.98
308.129	6.41
308.504	6.71
308.879	6.47
309.254	7
309.629	6.14
310.003	6.74
310.378	6.86
310.753	6.56
311.128	7.04
311.502	6.43
311.877	6.07
312.252	6.26
312.626	6.18
313.001	6.29
313.375	6.32
313.75	6.26
314.124	6.43
314.498	6.36
314.873	6.38
315.247	6.29
315.621	6.81
315.995	6.7
316.369	6.35
316.743	6.33
317.117	5.73
317.491	6.42
317.865	6.13
318.239	6.66
318.613	6.9
318.987	6.87
319.361	5.63
319.734	6.55
320.108	6.67
320.482	6.35
320.855	6.18
321.229	6.38
321.602	6.52
321.976	5.91
322.349	6.22
322.723	6.08
323.096	5.97
323.469	6.38
323.843	7.05
324.216	6.22
324.589	6.18
324.962	6.15
325.335	5.89
325.708	6.6
326.081	6.46
326.454	5.98
326.827	6.78
327.2	6.28
327.573	5.9
327.945	6.04
328.318	6.69
328.691	5.16
329.063	6.36
329.436	6.47
329.809	5.99
330.181	5.77
330.553	5.92
330.926	6.78
331.298	6.03
331.671	5.98
332.043	5.54
332.415	6.18
332.787	5.88
333.159	5.99
333.532	5.96
333.904	6.01
334.276	6.4
334.648	5.15
335.02	5.6
335.391	6.09
335.763	5.9
336.135	6.47
336.507	6.54
336.879	5.65
337.25	6.16
337.622	5.84
337.993	5.81
338.365	5.85
338.736	6.19
339.108	5.96
339.479	5.48
339.851	5.46
340.222	5.59
340.593	6.33
340.964	5.98
341.336	6.07
341.707	5.75
342.078	5.91
342.449	5.77
342.82	6.43
343.191	6.27
343.562	5.84
343.933	6.44
344.303	5.95
344.674	5.93
345.045	6.05
345.416	6.75
345.786	5.85
346.157	6.06
346.527	6.38
346.898	6.44
347.268	5.8
347.639	6.37
348.009	5.97
348.38	6.1
348.75	6.42
349.12	6.31
349.49	5.95
349.861	6.52
350.231	6.22
350.601	6.4
350.971	6.1
351.341	5.95
351.711	6.53
352.081	6.27
352.45	6.26
352.82	6.24
353.19	6.21
353.56	6.04
353.929	5.79
354.299	5.89
354.669	5.82
355.038	5.94
355.408	5.98
355.777	6.29
356.147	6.13
356.516	6.31
356.885	6.41
357.254	6.32
357.624	6.07
357.993	6.04
358.362	6.35
358.731	6.27
359.1	5.81
359.469	6.16
359.838	6.25
360.207	6.18
360.576	6.56
360.945	5.88
361.314	6.54
361.682	6.49
362.051	6.42
362.42	6.79
362.788	6.24
363.157	6.59
363.525	6.55
363.894	6.21
364.262	6.35
364.631	5.97
364.999	6.28
365.367	6.67
365.735	6.16
366.104	5.99
366.472	6.33
366.84	6.53
367.208	6.53
367.576	6.13
367.944	6.55
368.312	6.38
368.68	6.46
369.048	6.52
369.416	6.3
369.783	6.11
370.151	6.41
370.519	6.29
370.886	6.45
371.254	6.4
371.621	6.51
371.989	6.29
372.356	6.52
372.724	6.5
373.091	6.5
373.458	6.58
373.826	6.78
374.193	6.09
374.56	6.73
374.927	6.65
375.294	6.5
375.661	6.64
376.028	6.65
376.395	7
376.762	6.69
377.129	6.47
377.496	6.56
377.863	6.43
378.229	6.52
378.596	6.6
378.963	6.77
379.329	6.56
379.696	6.44
380.062	7.04
380.429	6.43
380.795	6.84
381.161	6.84
381.528	6.66
381.894	6.95
382.26	6.41
382.626	6.69
382.993	6.62
383.359	6.53
383.725	6.47
384.091	6.8
384.457	6.72
384.823	6.84
385.188	6.73
385.554	6.8
385.92	6.67
386.286	7.04
386.651	6.8
387.017	7.06
387.383	6.66
387.748	6.96
388.114	6.95
388.479	7.32
388.845	6.79
389.21	6.73
389.575	6.54
389.94	6.8
390.306	7.04
390.671	6.87
391.036	6.91
391.401	6.8
391.766	7.06
392.131	6.91
392.496	6.95
392.861	6.77
393.226	7.13
393.591	7.01
393.956	6.83
394.32	6.92
394.685	7.06
395.05	6.69
395.414	6.99
395.779	6.68
396.143	7.11
396.508	6.95
396.872	7.08
397.236	6.95
397.601	7.16
397.965	7.14
398.329	7.35
398.694	6.98
399.058	7.05
399.422	7
399.786	7.16
400.15	6.81
400.514	7.28
400.878	6.95
401.242	6.82
401.605	7.17
401.969	7.05
402.333	7.27
402.697	6.95
403.06	6.94
403.424	7
403.787	6.95
404.151	7.07
404.514	6.81
404.878	7.14
405.241	7.16
405.604	7.14
405.968	7.03
406.331	7.33
406.694	7.38
407.057	7.16
407.42	7.12
407.783	7.13
408.146	7.21
408.509	7.1
408.872	7.28
409.235	7.34
409.598	7.35
409.961	7.26
410.323	7.31
410.686	7.46
411.049	7.41
411.411	7.4
411.774	7.33
412.136	7.51
412.499	7.31
412.861	7.27
413.223	7.69
413.586	7.33
413.948	7.39
414.31	7.4
414.672	7.13
415.035	7.39
415.397	7.27
415.759	7.49
416.121	7.34
416.483	7.37
416.845	7.22
417.206	7.65
417.568	7.21
417.93	7.4
418.292	7.29
418.653	7.54
419.015	7.39
419.377	7.53
419.738	7.38
420.1	7.28
420.461	7.44
420.822	7.3
421.184	7.38
421.545	7.55
421.906	7.4
422.267	7.33
422.629	7.34
422.99	7.38
423.351	7.31
423.712	7.34
424.073	7.39
424.434	7.48
424.795	7.39
425.155	7.29
425.516	7.29
425.877	7.35
426.238	7.26
426.598	7.26
426.959	7.34
427.32	7.52
427.68	7.47
428.041	7.52
428.401	7.59
428.761	7.6
429.122	7.55
429.482	7.75
429.842	7.52
430.202	7.67
430.563	7.61
430.923	7.82
431.283	7.41
431.643	7.62
432.003	7.53
432.363	7.62
432.722	7.54
433.082	7.68
433.442	7.67
433.802	7.75
434.161	7.62
434.521	7.66
434.881	7.62
435.24	7.62
435.6	7.64
435.959	7.72
436.319	7.61
436.678	7.71
437.037	7.82
437.396	7.56
437.756	7.79
438.115	7.74
438.474	7.7
438.833	7.71
439.192	7.89
439.551	7.62
439.91	7.62
440.269	7.59
440.628	7.65
440.987	7.68
441.345	7.82
441.704	7.64
442.063	7.77
442.421	7.63
442.78	7.66
443.138	7.7
443.497	7.67
443.855	7.72
444.214	7.73
444.572	7.77
444.93	7.73
445.288	7.57
445.647	7.77
446.005	7.71
446.363	7.64
446.721	7.71
447.079	7.85
447.437	7.54
447.795	7.78
448.153	7.58
448.51	7.7
448.868	7.59
449.226	7.7
449.584	7.65
449.941	7.66
450.299	7.79
450.656	7.67
451.014	7.81
451.371	7.81
451.729	7.88
452.086	7.82
452.443	7.83
452.801	7.7
453.158	7.74
453.515	7.91
453.872	7.97
454.229	7.87
454.586	7.77
454.943	7.73
455.3	7.91
455.657	7.89
456.014	7.87
456.371	7.88
456.727	7.94
457.084	7.9
457.441	7.89
457.797	7.93
458.154	7.86
458.51	7.89
458.867	8.09
459.223	8.04
459.58	7.91
459.936	7.86
460.292	7.95
460.648	7.86
461.005	7.78
461.361	7.73
461.717	7.85
462.073	7.73
462.429	7.82
462.785	7.75
463.141	7.89
463.496	7.88
463.852	8.13
464.208	8.05
464.564	8
464.919	8.1
465.275	8.11
465.631	8.24
465.986	7.99
466.342	7.78
466.697	7.9
467.052	8.17
467.408	8.02
467.763	8.07
468.118	8.15
468.473	8.15
468.829	8.02
469.184	7.96
469.539	8.06
469.894	8.04
470.249	8.22
470.603	8
470.958	7.98
471.313	8.29
471.668	8.23
472.023	7.94
472.377	7.92
472.732	8.11
473.086	8.08
473.441	8.15
473.795	8.13
474.15	8.17
474.504	8.03
474.859	8.1
475.213	7.91
475.567	7.96
475.921	8.12
476.275	7.93
476.63	8.05
476.984	8.22
477.338	8.17
477.692	8.04
478.045	8.03
478.399	8.06
478.753	8.05
479.107	8.06
479.461	8.01
479.814	8.07
480.168	7.87
480.521	8.02
480.875	8.13
481.228	7.95
481.582	8.04
481.935	8
482.289	8.09
482.642	8.11
482.995	7.91
483.348	7.92
483.701	8.16
484.055	7.98
484.408	7.95
484.761	7.92
485.114	7.77
485.466	7.71
485.819	7.63
486.172	7.6
486.525	7.63
486.878	7.65
487.23	7.72
487.583	7.82
487.936	7.9
488.288	7.86
488.641	7.91
488.993	7.82
489.345	7.79
489.698	7.71
490.05	7.76
490.402	7.79
490.754	7.74
491.107	7.86
491.459	8.01
491.811	7.99
492.163	7.99
492.515	7.99
492.866	7.95
493.218	7.79
493.57	7.79
493.922	7.73
494.274	7.8
494.625	7.85
494.977	8
495.328	8.04
495.68	8
496.031	8.1
496.383	8.11
496.734	8.13
497.086	8.02
497.437	8.17
497.788	8.17
498.139	8.05
498.49	8.24
498.842	8.02
499.193	8.19
499.544	8.02
499.894	7.98
500.245	8.15
500.596	8.17
500.947	8.11
501.298	8.11
501.648	8.12
501.999	8.1
502.35	8.22
502.7	8.22
503.051	8.12
503.401	8.13
503.752	8.2
504.102	8.2
504.452	8.18
504.803	8.25
505.153	8.27
505.503	8.19
505.853	8.32
506.203	8.26
506.553	8.14
506.903	8.21
507.253	8.2
507.603	8.2
507.953	8.17
508.303	8.34
508.652	8.13
509.002	8.25
509.352	8.33
509.701	8.28
510.051	8.25
510.4	8.24
510.75	8.16
511.099	8.14
511.449	8.18
511.798	8.17
512.147	8.08
512.496	8.27
512.846	8.26
513.195	8.16
513.544	8.26
513.893	8.27
514.242	8.21
514.591	8.13
514.939	8.04
515.288	8.2
515.637	8.16
515.986	8.35
516.334	8.22
516.683	8.19
517.032	8.35
517.38	8.17
517.729	8.27
518.077	8.16
518.426	8.3
518.774	8.29
519.122	8.23
519.47	8.2
519.819	8.13
520.167	8.07
520.515	8.03
520.863	8.15
521.211	8.09
521.559	8.16
521.907	8.14
522.255	8.16
522.602	8.27
522.95	8.18
523.298	8.21
523.645	8.25
523.993	8.43
524.341	8.3
524.688	8.26
525.036	8.27
525.383	8.22
525.73	8.3
526.078	8.18
526.425	8.21
526.772	8.18
527.119	8.2
527.466	8.15
527.814	8.15
528.161	8.2
528.508	8.1
528.854	8.17
529.201	8.19
529.548	8.11
529.895	8.05
530.242	7.97
530.588	7.92
530.935	7.93
531.282	7.88
531.628	7.95
531.975	8.01
532.321	7.96
532.667	8.05
533.014	8.14
533.36	8.14
533.706	8.09
534.052	8.2
534.399	8.23
534.745	8.22
535.091	8.08
535.437	8.04
535.783	8
536.129	8.11
536.474	8.08
536.82	8.13
537.166	8.31
537.512	8.26
537.857	8.27
538.203	8.18
538.549	8.17
538.894	8.19
539.239	8.18
539.585	8.19
539.93	8.29
540.276	8.28
540.621	8.3
540.966	8.15
541.311	8.31
541.656	8.26
542.001	8.31
542.346	8.19
542.691	8.18
543.036	8.02
543.381	7.98
543.726	8.04
544.071	8.03
544.415	7.99
544.76	8.04
545.105	8.09
545.449	8.17
545.794	8.22
546.138	8.07
546.483	8.28
546.827	8.24
547.171	8.17
547.516	8.3
547.86	8.24
548.204	8.18
548.548	8.28
548.892	8.31
549.236	8.21
549.58	8.27
549.924	8.26
550.268	8.33
550.612	8.23
550.956	8.32
551.3	8.5
551.643	8.39
551.987	8.51
552.33	8.46
552.674	8.56
553.017	8.45
553.361	8.54
553.704	8.43
554.048	8.52
554.391	8.28
554.734	8.35
555.077	8.42
555.42	8.24
555.764	8.37
556.107	8.45
556.45	8.1
556.793	8.44
557.135	8.3
557.478	8.39
557.821	8.48
558.164	8.37
558.507	8.45
558.849	8.46
559.192	8.51
559.534	8.42
559.877	8.33
560.219	8.38
560.562	8.4
560.904	8.48
561.246	8.44
561.589	8.22
561.931	8.4
562.273	8.34
562.615	8.25
562.957	8.3
563.299	8.43
563.641	8.51
563.983	8.41
564.325	8.34
564.667	8.55
565.008	8.17
565.35	8.2
565.692	8.56
566.033	8.44
566.375	8.29
566.716	8.22
567.058	8.44
567.399	8.48
567.741	8.37
568.082	8.39
568.423	8.39
568.764	8.3
569.105	8.4
569.447	8.44
569.788	8.34
570.129	8.27
570.47	8.48
570.811	8.46
571.151	8.55
571.492	8.62
571.833	8.36
572.174	8.27
572.514	8.25
572.855	8.37
573.195	8.33
573.536	8.29
573.876	8.35
574.217	8.31
574.557	8.24
574.898	8.12
575.238	8.2
575.578	8.02
575.918	8.23
576.258	8.47
576.598	8.25
576.938	8.33
577.278	8.16
577.618	8.48
577.958	8.25
578.298	8.26
578.638	8.37
578.977	8.22
579.317	8.24
579.657	8.45
579.996	8.36
580.336	8.32
580.675	8.16
581.014	8.45
581.354	8.36
581.693	8.36
582.032	8.22
582.372	8.47
582.711	8.48
583.05	8.34
583.389	8.35
583.728	8.42
584.067	8.58
584.406	8.41
584.745	8.55
585.083	8.1
585.422	8.52
585.761	8.22
586.1	8.43
586.438	8.57
586.777	8.24
587.115	8.38
587.454	8
587.792	8.24
588.13	8.46
588.469	8.42
588.807	8.35
589.145	8.39
589.483	8.46
589.821	8.45
590.159	8.53
590.497	8.32
590.835	8.36
591.173	8.19
591.511	8.07
591.849	8.37
592.187	8.35
592.524	7.88
592.862	8.46
593.2	8.07
593.537	8.28
593.875	8.35
594.212	8.31
594.55	8.51
594.887	8.54
595.224	8.25
595.561	8.46
595.899	8.1
596.236	8.25
596.573	8.04
596.91	8.38
597.247	8.27
597.584	8.25
597.921	8.35
598.258	8.39
598.594	8.35
598.931	8.2
599.268	8.12
599.604	8.06
599.941	8.14
600.277	8.06
600.614	8.23
600.95	8.26
601.287	8.26
601.623	8.18
601.959	8.27
602.296	8.15
602.632	8.21
602.968	8.25
603.304	7.96
603.64	8.32
603.976	7.92
604.312	8.31
604.648	8.31
604.984	8.33
605.319	8.18
605.655	8.17
605.991	8.17
606.326	8.02
606.662	8.23
606.998	7.94
607.333	8.12
607.668	8.03
608.004	8.16
608.339	8.34
608.674	7.96
609.01	8.01
609.345	8.23
609.68	8.33
610.015	7.82
610.35	8.15
610.685	8.04
611.02	8.15
611.355	8.1
611.689	8.05
612.024	7.95
612.359	8.28
612.694	7.86
613.028	8.1
613.363	7.95
613.697	8.14
614.032	8.2
614.366	8.44
614.7	7.87
615.035	8.01
615.369	7.97
615.703	8.19
616.037	8.07
616.371	7.94
616.705	8.17
617.039	7.98
617.373	8.06
617.707	8.29
618.041	8.23
618.375	8.03
618.709	8.15
619.042	8.03
619.376	7.83
619.71	7.77
620.043	7.98
620.377	7.74
620.71	7.58
621.043	7.67
621.377	7.89
621.71	8.17
622.043	8.39
622.376	8.09
622.709	8.27
623.043	8.24
623.376	8.21
623.709	8.17
624.041	8.36
624.374	7.92
624.707	8.02
625.04	8.02
625.373	8.03
625.705	8.01
626.038	7.67
626.37	8.38
626.703	8.19
627.035	8.24
627.368	8.14
627.7	7.93
628.032	7.83
628.365	8.1
628.697	8.03
629.029	7.75
629.361	7.91
629.693	7.93
630.025	7.76
630.357	7.91
630.689	7.81
631.021	8.07
631.353	8.12
631.684	8.04
632.016	7.63
632.348	8.36
632.679	7.74
633.011	8.21
633.342	7.99
633.674	8.03
634.005	7.92
634.336	8.2
634.668	7.89
634.999	8.26
635.33	8.22
635.661	8.01
635.992	8.05
636.323	8.17
636.654	8.15
636.985	8.16
637.316	8.19
637.647	7.85
637.977	8.18
638.308	7.61
638.639	8.14
638.969	8.04
639.3	7.95
639.63	8.13
639.961	8.02
640.291	7.65
640.622	8.01
640.952	8.57
641.282	8.25
641.612	7.82
641.943	8.15
642.273	7.94
642.603	8.19
642.933	8.03
643.263	7.88
643.592	8.04
643.922	8.21
644.252	8.05
644.582	7.4
644.911	8.22
645.241	7.1
645.571	7.93
645.9	7.93
646.23	8.09
646.559	8.14
646.888	7.79
647.218	8.04
647.547	7.71
647.876	8.27
648.205	7.56
648.534	8.17
648.863	7.69
649.192	8.26
649.521	8.01
649.85	7.77
650.179	8.09
650.508	7.99
650.837	7.95
651.165	7.38
651.494	7.89
651.822	7.85
652.151	8.17
652.479	8.07
652.808	7.75
653.136	8.02
653.465	7.56
653.793	8.1
654.121	8.09
654.449	7.5
654.777	8.24
655.105	7.91
655.433	7.92
655.761	7.82
656.089	7.59
656.417	8.03
656.745	7.82
657.073	7.59
657.4	8.25
657.728	7.23
658.056	7.8
658.383	7.56
658.711	7.67
659.038	7.53
659.365	7.63
659.693	7.92
660.02	7.79
660.347	7.87
660.674	8.04
661.001	7.92
661.329	7.65
661.656	7.67
661.982	7.74
662.309	8.07
662.636	7.77
662.963	7.89
663.29	8.07
663.616	7.54
663.943	8.16
664.27	8.52
664.596	7.87
664.923	8.38
665.249	7.28
665.576	7.85
665.902	7.92
666.228	7.43
666.554	7.79
666.881	7.08
667.207	7.96
667.533	7.43
667.859	7.69
668.185	8.29
668.511	7.93
668.837	7.88
669.162	8.47
669.488	7.55
669.814	8.35
670.139	7.77
670.465	7.48
670.791	7.54
671.116	8.14
671.442	7.79
671.767	8.06
672.092	8.17
672.418	8.02
672.743	7.75
673.068	7.44
673.393	7.16
673.718	7.86
674.043	7.78
674.368	7.39
674.693	7.12
675.018	7.23
675.343	7.4
675.667	8.1
675.992	7.65
676.317	7.44
676.641	7.83
676.966	7.07
677.29	7.01
677.615	8.12
677.939	7.77
678.264	8.18
678.588	7.79
678.912	8.32
679.236	7.19
679.56	7.63
679.885	7.92
680.209	7.9
680.532	8.19
680.856	7.3
681.18	7.37
681.504	8.14
681.828	7.75
682.152	7.11
682.475	7.56
682.799	7.56
683.122	7.78
683.446	8
683.769	8.73
684.093	8.01
684.416	7.62
684.739	8.31
685.062	7.68
685.386	8.41
685.709	7.49
686.032	7.68
686.355	7.55
686.678	8.3
687.001	7.62
687.324	7.51
687.646	8.21
687.969	7.68
688.292	7.53
688.614	7.32
688.937	7.56
689.26	8
689.582	7.28
689.904	7.67
690.227	7.99
690.549	7.77
690.871	7.6
691.194	7.98
691.516	7.71
691.838	7.5
692.16	7.83
692.482	6.99
