Data from 438_chest_Reflection__2__139.txt Node

Date: Tue Dec 12 19:32:54 CST 2023
User: ToomeyLab
Spectrometer: FLMS14357
Trigger mode: 0
Integration Time (sec): 1.000000E-2
Scans to average: 100
Electric dark correction enabled: true
Nonlinearity correction enabled: false
Boxcar width: 0
XAxis mode: Wavelengths
Number of Pixels in Spectrum: 2048
>>>>>Begin Spectral Data<<<<<
189.047	158.24
189.435	158.24
189.823	158.24
190.211	-62.4
190.599	203.77
190.987	114.37
191.375	-245.84
191.763	352.28
192.151	77.95
192.538	335.38
192.926	347.76
193.314	498.72
193.702	26.37
194.089	415.43
194.477	7.73
194.864	16.03
195.252	434.58
195.639	-72.53
196.027	-1630.96
196.414	-6.72
196.801	-1152.82
197.189	0.58
197.576	-167.43
197.963	66.51
198.351	21.51
198.738	-3.89
199.125	-41.93
199.512	-75.14
199.899	4.18
200.286	-6.45
200.673	-27.06
201.06	-15.85
201.447	-92.63
201.833	-78
202.22	-22.35
202.607	-197.65
202.994	32.14
203.38	3.18
203.767	-5.47
204.154	31.61
204.54	28.82
204.927	-22.51
205.313	3.95
205.699	0.2
206.086	-83.42
206.472	23.59
206.858	19.56
207.245	-59.42
207.631	0.32
208.017	-10.63
208.403	-25.33
208.789	24.39
209.175	-42.46
209.561	5.05
209.947	-31.31
210.333	34.73
210.719	-13.96
211.105	-17.57
211.491	40.19
211.876	46.64
212.262	6.34
212.648	-61.19
213.034	-146.23
213.419	-5.39
213.805	-3.93
214.19	28.66
214.576	6.22
214.961	25.21
215.346	-12.39
215.732	34.26
216.117	-2.4
216.502	-18.39
216.888	-25.5
217.273	-25.16
217.658	-10.12
218.043	-23.22
218.428	5.86
218.813	-1.18
219.198	-28.1
219.583	16.53
219.968	13.11
220.353	-32.01
220.738	4.57
221.122	-2.8
221.507	-10.55
221.892	5.64
222.276	-3.73
222.661	2.19
223.046	-16.39
223.43	-6.12
223.815	4.6
224.199	16.66
224.583	1.44
224.968	5.22
225.352	0.68
225.736	5.01
226.121	-4.33
226.505	7.21
226.889	-0.3
227.273	1.69
227.657	9.67
228.041	3.55
228.425	3.32
228.809	3.62
229.193	5.11
229.577	5.81
229.961	4.68
230.344	5.91
230.728	5.98
231.112	5.57
231.495	5.62
231.879	6.67
232.263	4.24
232.646	5.27
233.03	5.09
233.413	4.4
233.797	4.28
234.18	2.49
234.563	3.79
234.946	7.77
235.33	5.45
235.713	5.66
236.096	5.18
236.479	6.27
236.862	7.04
237.245	5.12
237.628	5.87
238.011	5.68
238.394	4.41
238.777	4.27
239.16	5.08
239.543	6.12
239.925	5.66
240.308	5.34
240.691	5.57
241.073	6.09
241.456	4.51
241.838	5.19
242.221	6.75
242.603	6.28
242.986	4.28
243.368	5.79
243.75	5.04
244.133	5.28
244.515	5.47
244.897	5.44
245.279	5.61
245.661	4.84
246.043	3.67
246.425	5.13
246.807	4.89
247.189	5.5
247.571	4.87
247.953	5.18
248.335	5.06
248.717	4.99
249.098	5.24
249.48	4.93
249.862	4.73
250.243	4.58
250.625	4.93
251.006	5
251.388	4.99
251.769	4.33
252.151	4.79
252.532	5.78
252.913	5.06
253.295	5.45
253.676	4.68
254.057	5.03
254.438	5.5
254.819	4.25
255.2	3.81
255.581	4.18
255.962	4.12
256.343	4.57
256.724	4.67
257.105	5.56
257.486	4.4
257.867	4.11
258.247	4.93
258.628	4.58
259.009	4.1
259.389	4.76
259.77	4.77
260.15	4.93
260.531	5.53
260.911	4.68
261.292	4.39
261.672	4.83
262.052	4.79
262.432	4.57
262.813	4.75
263.193	4.71
263.573	4.93
263.953	5.31
264.333	5.5
264.713	5.14
265.093	4.7
265.473	5.56
265.853	4.6
266.233	4.42
266.612	4.45
266.992	4.99
267.372	4.52
267.752	5.16
268.131	4.32
268.511	4.18
268.89	4.12
269.27	4.18
269.649	4.34
270.029	3.98
270.408	5
270.787	3.93
271.167	4.83
271.546	4.21
271.925	4.56
272.304	4.57
272.683	4.42
273.062	4.9
273.441	4.83
273.82	3.87
274.199	4.55
274.578	4.1
274.957	4.44
275.336	4.88
275.715	4.8
276.093	3.73
276.472	4.52
276.851	4.43
277.229	4.37
277.608	4.17
277.986	4.22
278.365	4.85
278.743	4.42
279.122	4.93
279.5	3.67
279.878	3.89
280.257	4.51
280.635	4
281.013	4.72
281.391	4.38
281.769	4.65
282.147	4.82
282.525	3.95
282.903	4.1
283.281	4.41
283.659	4.99
284.037	4.46
284.415	4.48
284.792	4.77
285.17	4.19
285.548	4.2
285.925	4.63
286.303	4.11
286.68	4.37
287.058	4.7
287.435	4.4
287.813	3.87
288.19	4.42
288.567	4.26
288.945	4.63
289.322	4.06
289.699	4.13
290.076	3.82
290.453	4.53
290.83	4
291.207	4.5
291.584	4.55
291.961	4.49
292.338	4.2
292.715	4.17
293.092	4.16
293.469	4.29
293.845	4.5
294.222	4.23
294.599	4.22
294.975	4.1
295.352	4.28
295.728	4.69
296.105	4.65
296.481	4.45
296.858	3.95
297.234	4.46
297.61	4.47
297.986	4.54
298.363	4.09
298.739	4.22
299.115	3.86
299.491	4.36
299.867	4.11
300.243	3.96
300.619	4.07
300.995	4.35
301.371	3.99
301.746	4.32
302.122	4.67
302.498	3.97
302.874	4.31
303.249	4.5
303.625	4.02
304	4.31
304.376	4.35
304.751	4.84
305.127	3.93
305.502	4.78
305.878	4.04
306.253	4.4
306.628	4.57
307.003	4.36
307.378	4.72
307.754	4.59
308.129	4.16
308.504	5.24
308.879	3.91
309.254	3.8
309.629	4.26
310.003	4.13
310.378	4.23
310.753	4.47
311.128	4.34
311.502	3.69
311.877	3.93
312.252	3.83
312.626	4.12
313.001	3.95
313.375	3.81
313.75	4.2
314.124	4.12
314.498	4.45
314.873	4.01
315.247	4.18
315.621	3.78
315.995	4.16
316.369	4.22
316.743	3.83
317.117	3.33
317.491	3.78
317.865	3.8
318.239	3.97
318.613	4.19
318.987	4.58
319.361	3.91
319.734	3.75
320.108	4.19
320.482	3.5
320.855	3.93
321.229	4.14
321.602	4.29
321.976	4.3
322.349	4.29
322.723	4.22
323.096	4.07
323.469	4.07
323.843	4.71
324.216	4.06
324.589	4.26
324.962	4
325.335	4.6
325.708	4.51
326.081	4.42
326.454	3.93
326.827	4.31
327.2	4.52
327.573	3.59
327.945	4.31
328.318	4.36
328.691	3.59
329.063	3.84
329.436	4.59
329.809	4.35
330.181	3.89
330.553	4.23
330.926	4.84
331.298	4.06
331.671	4.09
332.043	3.85
332.415	4.32
332.787	4.38
333.159	4.51
333.532	4.2
333.904	4.15
334.276	4.99
334.648	3.77
335.02	3.52
335.391	4.19
335.763	4.03
336.135	3.91
336.507	4.6
336.879	3.83
337.25	4.37
337.622	4.22
337.993	4.19
338.365	3.48
338.736	4.11
339.108	4.02
339.479	4.49
339.851	3.61
340.222	3.4
340.593	4.23
340.964	3.77
341.336	3.81
341.707	3.54
342.078	3.6
342.449	4.41
342.82	4.47
343.191	4.2
343.562	4.21
343.933	4.39
344.303	4.4
344.674	4.29
345.045	3.71
345.416	4.49
345.786	3.63
346.157	4.03
346.527	4.53
346.898	3.83
347.268	4.24
347.639	4.29
348.009	3.98
348.38	4.23
348.75	4.16
349.12	4.23
349.49	4.29
349.861	4.51
350.231	3.7
350.601	4.88
350.971	4.54
351.341	4.28
351.711	4.36
352.081	4.27
352.45	3.77
352.82	4.31
353.19	4.38
353.56	3.66
353.929	3.96
354.299	3.53
354.669	4.13
355.038	3.39
355.408	4.19
355.777	4.4
356.147	3.97
356.516	4.43
356.885	4.09
357.254	4.03
357.624	3.89
357.993	4.25
358.362	4.19
358.731	4.16
359.1	3.85
359.469	4.06
359.838	4.07
360.207	4.1
360.576	4.29
360.945	4.04
361.314	4.34
361.682	4.26
362.051	4.28
362.42	4.27
362.788	4.05
363.157	4.48
363.525	4.22
363.894	3.99
364.262	4.02
364.631	4.09
364.999	4.37
365.367	4.18
365.735	4.17
366.104	4.12
366.472	4.01
366.84	4.3
367.208	4.2
367.576	4.1
367.944	4.31
368.312	3.99
368.68	3.99
369.048	4.26
369.416	4.3
369.783	4.48
370.151	4.47
370.519	3.85
370.886	4.26
371.254	4.23
371.621	4.45
371.989	4.2
372.356	3.97
372.724	3.86
373.091	4.41
373.458	4.03
373.826	3.95
374.193	4.39
374.56	4.52
374.927	4.3
375.294	4.35
375.661	4.6
376.028	4.61
376.395	4.57
376.762	4.63
377.129	4.11
377.496	4.2
377.863	4.24
378.229	4.18
378.596	4.15
378.963	4.53
379.329	4.02
379.696	4.26
380.062	4.53
380.429	4.52
380.795	4.28
381.161	4.56
381.528	4.25
381.894	4.81
382.26	4.11
382.626	4.28
382.993	4.57
383.359	4.16
383.725	4.35
384.091	4.59
384.457	4.29
384.823	4.62
385.188	4.28
385.554	4.3
385.92	4.36
386.286	4.43
386.651	4.68
387.017	4.72
387.383	4.4
387.748	4.33
388.114	4.34
388.479	4.43
388.845	4.29
389.21	4.42
389.575	4.44
389.94	4.28
390.306	4.39
390.671	4.32
391.036	4.58
391.401	4.4
391.766	4.44
392.131	4.28
392.496	4.17
392.861	4.2
393.226	4.49
393.591	4.17
393.956	4.32
394.32	4.44
394.685	4.46
395.05	4.17
395.414	4.37
395.779	4.33
396.143	4.63
396.508	4.43
396.872	4.58
397.236	4.11
397.601	4.36
397.965	4.33
398.329	4.48
398.694	4.28
399.058	4.6
399.422	4.49
399.786	4.39
400.15	4.37
400.514	4.71
400.878	4.5
401.242	4.39
401.605	4.52
401.969	4.38
402.333	4.55
402.697	4.48
403.06	4.29
403.424	4.6
403.787	4.4
404.151	4.77
404.514	4.12
404.878	4.31
405.241	4.59
405.604	4.39
405.968	4.27
406.331	4.62
406.694	4.63
407.057	4.17
407.42	4.41
407.783	4.4
408.146	4.58
408.509	4.58
408.872	4.4
409.235	4.49
409.598	4.4
409.961	4.51
410.323	4.48
410.686	4.47
411.049	4.57
411.411	4.69
411.774	4.52
412.136	4.74
412.499	4.45
412.861	4.52
413.223	4.82
413.586	4.53
413.948	4.55
414.31	4.62
414.672	4.58
415.035	4.65
415.397	4.6
415.759	4.51
416.121	4.55
416.483	4.41
416.845	4.49
417.206	4.81
417.568	4.68
417.93	4.65
418.292	4.38
418.653	4.72
419.015	4.72
419.377	4.55
419.738	4.42
420.1	4.5
420.461	4.52
420.822	4.58
421.184	4.45
421.545	4.68
421.906	4.62
422.267	4.46
422.629	4.48
422.99	4.45
423.351	4.46
423.712	4.47
424.073	4.56
424.434	4.63
424.795	4.6
425.155	4.4
425.516	4.42
425.877	4.47
426.238	4.46
426.598	4.49
426.959	4.53
427.32	4.6
427.68	4.6
428.041	4.75
428.401	4.64
428.761	4.53
429.122	4.71
429.482	4.77
429.842	4.7
430.202	4.57
430.563	4.74
430.923	4.78
431.283	4.59
431.643	4.76
432.003	4.4
432.363	4.85
432.722	4.65
433.082	4.82
433.442	4.53
433.802	4.63
434.161	4.65
434.521	4.62
434.881	4.65
435.24	4.76
435.6	4.53
435.959	4.59
436.319	4.57
436.678	4.76
437.037	4.7
437.396	4.64
437.756	4.6
438.115	4.75
438.474	4.56
438.833	4.77
439.192	4.97
439.551	4.6
439.91	4.52
440.269	4.76
440.628	4.71
440.987	4.62
441.345	4.71
441.704	4.6
442.063	4.76
442.421	4.81
442.78	4.74
443.138	4.65
443.497	4.64
443.855	4.68
444.214	4.68
444.572	4.87
444.93	4.78
445.288	4.59
445.647	4.85
446.005	4.75
446.363	4.64
446.721	4.56
447.079	4.78
447.437	4.57
447.795	4.7
448.153	4.61
448.51	4.71
448.868	4.66
449.226	4.75
449.584	4.75
449.941	4.75
450.299	4.76
450.656	4.64
451.014	4.75
451.371	4.75
451.729	4.86
452.086	4.69
452.443	4.89
452.801	4.84
453.158	4.55
453.515	4.82
453.872	4.83
454.229	4.96
454.586	4.65
454.943	4.73
455.3	4.81
455.657	4.6
456.014	4.94
456.371	4.87
456.727	4.97
457.084	4.81
457.441	4.89
457.797	4.83
458.154	4.79
458.51	4.76
458.867	4.96
459.223	4.86
459.58	4.8
459.936	4.55
460.292	4.85
460.648	4.78
461.005	4.87
461.361	4.69
461.717	4.74
462.073	4.65
462.429	4.77
462.785	4.77
463.141	4.79
463.496	4.75
463.852	5.02
464.208	4.99
464.564	4.9
464.919	4.99
465.275	4.91
465.631	5.01
465.986	4.79
466.342	4.86
466.697	4.77
467.052	5.23
467.408	4.94
467.763	5.02
468.118	5.08
468.473	4.92
468.829	4.95
469.184	4.83
469.539	4.96
469.894	5.04
470.249	5.02
470.603	4.78
470.958	4.81
471.313	5.07
471.668	5.08
472.023	4.84
472.377	4.9
472.732	4.96
473.086	5.04
473.441	5.18
473.795	5.11
474.15	5.05
474.504	4.8
474.859	4.85
475.213	4.73
475.567	4.93
475.921	4.9
476.275	4.82
476.63	4.84
476.984	5.05
477.338	5.01
477.692	5.02
478.045	5.03
478.399	4.85
478.753	4.97
479.107	5
479.461	4.91
479.814	4.95
480.168	4.77
480.521	4.86
480.875	5.02
481.228	5.03
481.582	4.92
481.935	4.94
482.289	4.98
482.642	5.05
482.995	4.95
483.348	4.92
483.701	5.16
484.055	5.03
484.408	4.9
484.761	4.87
485.114	4.78
485.466	4.7
485.819	4.69
486.172	4.67
486.525	4.68
486.878	4.72
487.23	4.79
487.583	4.81
487.936	4.98
488.288	4.8
488.641	4.83
488.993	4.82
489.345	4.8
489.698	4.8
490.05	4.78
490.402	4.84
490.754	4.8
491.107	4.83
491.459	4.99
491.811	5.02
492.163	4.97
492.515	4.9
492.866	4.9
493.218	4.81
493.57	4.85
493.922	4.76
494.274	4.82
494.625	4.97
494.977	4.96
495.328	5.05
495.68	4.94
496.031	5.15
496.383	4.95
496.734	5.07
497.086	5.04
497.437	5.03
497.788	5.18
498.139	5.07
498.49	5.2
498.842	5.1
499.193	5.04
499.544	5.07
499.894	5.02
500.245	5.12
500.596	5.12
500.947	5.19
501.298	5.15
501.648	5.21
501.999	5.11
502.35	5.12
502.7	5.16
503.051	5.1
503.401	5.18
503.752	5.22
504.102	5.21
504.452	5.18
504.803	5.23
505.153	5.16
505.503	5.09
505.853	5.28
506.203	5.35
506.553	5.15
506.903	5.3
507.253	5.16
507.603	5.19
507.953	5.16
508.303	5.22
508.652	5.17
509.002	5.28
509.352	5.27
509.701	5.27
510.051	5.18
510.4	5.16
510.75	5.2
511.099	5.25
511.449	5.18
511.798	5.14
512.147	5.21
512.496	5.35
512.846	5.26
513.195	5.26
513.544	5.25
513.893	5.39
514.242	5.25
514.591	5.19
514.939	5.32
515.288	5.23
515.637	5.22
515.986	5.3
516.334	5.44
516.683	5.37
517.032	5.44
517.38	5.26
517.729	5.43
518.077	5.31
518.426	5.44
518.774	5.36
519.122	5.26
519.47	5.29
519.819	5.23
520.167	5.22
520.515	5.21
520.863	5.23
521.211	5.26
521.559	5.22
521.907	5.29
522.255	5.26
522.602	5.48
522.95	5.53
523.298	5.46
523.645	5.58
523.993	5.48
524.341	5.5
524.688	5.4
525.036	5.59
525.383	5.48
525.73	5.32
526.078	5.49
526.425	5.33
526.772	5.44
527.119	5.41
527.466	5.39
527.814	5.36
528.161	5.47
528.508	5.37
528.854	5.35
529.201	5.37
529.548	5.38
529.895	5.31
530.242	5.26
530.588	5.24
530.935	5.29
531.282	5.25
531.628	5.29
531.975	5.32
532.321	5.34
532.667	5.41
533.014	5.46
533.36	5.44
533.706	5.44
534.052	5.53
534.399	5.52
534.745	5.47
535.091	5.43
535.437	5.43
535.783	5.4
536.129	5.58
536.474	5.4
536.82	5.48
537.166	5.57
537.512	5.52
537.857	5.62
538.203	5.57
538.549	5.61
538.894	5.65
539.239	5.57
539.585	5.6
539.93	5.75
540.276	5.65
540.621	5.79
540.966	5.7
541.311	5.81
541.656	5.78
542.001	5.74
542.346	5.59
542.691	5.68
543.036	5.58
543.381	5.55
543.726	5.64
544.071	5.6
544.415	5.63
544.76	5.69
545.105	5.67
545.449	5.66
545.794	5.87
546.138	5.72
546.483	5.8
546.827	5.78
547.171	5.9
547.516	5.88
547.86	5.93
548.204	5.96
548.548	5.91
548.892	5.92
549.236	5.91
549.58	6.08
549.924	5.89
550.268	6
550.612	6.09
550.956	6.14
551.3	6.14
551.643	6.09
551.987	6.31
552.33	6.24
552.674	6.19
553.017	6.17
553.361	6.3
553.704	6.19
554.048	6.24
554.391	6.01
554.734	6.12
555.077	6.36
555.42	6.02
555.764	6.33
556.107	6.28
556.45	6.16
556.793	6.2
557.135	6.14
557.478	6.31
557.821	6.16
558.164	6.45
558.507	6.45
558.849	6.54
559.192	6.36
559.534	6.48
559.877	6.36
560.219	6.44
560.562	6.51
560.904	6.4
561.246	6.37
561.589	6.5
561.931	6.49
562.273	6.2
562.615	6.46
562.957	6.52
563.299	6.75
563.641	6.51
563.983	6.58
564.325	6.58
564.667	6.43
565.008	6.45
565.35	6.49
565.692	6.55
566.033	6.66
566.375	6.73
566.716	6.54
567.058	6.81
567.399	6.71
567.741	6.65
568.082	6.66
568.423	6.75
568.764	6.81
569.105	6.62
569.447	6.76
569.788	6.73
570.129	6.82
570.47	7.01
570.811	6.82
571.151	6.89
571.492	6.98
571.833	6.91
572.174	6.86
572.514	6.84
572.855	6.97
573.195	6.81
573.536	6.8
573.876	6.93
574.217	6.84
574.557	6.9
574.898	7.05
575.238	7.05
575.578	6.92
575.918	7.17
576.258	7.22
576.598	7.09
576.938	7.17
577.278	7.13
577.618	7.28
577.958	7.06
578.298	7.13
578.638	7.17
578.977	7.21
579.317	7.21
579.657	7.4
579.996	7.44
580.336	7.26
580.675	7.32
581.014	7.39
581.354	7.3
581.693	7.36
582.032	7.31
582.372	7.48
582.711	7.53
583.05	7.46
583.389	7.56
583.728	7.69
584.067	7.73
584.406	7.75
584.745	7.71
585.083	7.42
585.422	7.78
585.761	7.82
586.1	7.61
586.438	7.83
586.777	7.8
587.115	7.77
587.454	7.65
587.792	7.55
588.13	8.01
588.469	7.75
588.807	7.7
589.145	7.92
589.483	7.85
589.821	7.98
590.159	7.8
590.497	7.96
590.835	8.04
591.173	7.71
591.511	7.82
591.849	7.91
592.187	8.06
592.524	7.96
592.862	8.04
593.2	7.95
593.537	7.8
593.875	8.2
594.212	8.32
594.55	8.18
594.887	8.49
595.224	8.33
595.561	8.41
595.899	8.3
596.236	8.18
596.573	8.18
596.91	8.27
597.247	8.29
597.584	8.54
597.921	8.36
598.258	8.6
598.594	8.49
598.931	8.37
599.268	8.45
599.604	8.4
599.941	8.54
600.277	8.49
600.614	8.72
600.95	8.68
601.287	8.75
601.623	8.68
601.959	8.4
602.296	8.67
602.632	8.53
602.968	8.73
603.304	8.54
603.64	8.98
603.976	8.51
604.312	8.72
604.648	8.85
604.984	8.93
605.319	8.74
605.655	8.72
605.991	8.77
606.326	8.75
606.662	8.93
606.998	8.73
607.333	8.86
607.668	8.85
608.004	9.1
608.339	9.23
608.674	9.23
609.01	9.33
609.345	9.38
609.68	9.47
610.015	9.16
610.35	9.43
610.685	9.31
611.02	9.42
611.355	9.24
611.689	9.21
612.024	9.17
612.359	9.43
612.694	9.34
613.028	9.49
613.363	9.31
613.697	9.37
614.032	9.39
614.366	9.96
614.7	9.24
615.035	9.72
615.369	9.44
615.703	9.83
616.037	9.63
616.371	9.62
616.705	9.76
617.039	9.79
617.373	9.92
617.707	9.43
618.041	9.58
618.375	9.53
618.709	10.02
619.042	9.64
619.376	9.5
619.71	9.64
620.043	9.79
620.377	9.98
620.71	9.91
621.043	9.89
621.377	9.78
621.71	9.88
622.043	10.41
622.376	10.14
622.709	10.29
623.043	10.26
623.376	10.42
623.709	9.92
624.041	10.49
624.374	10.28
624.707	10.28
625.04	10.48
625.373	10.65
625.705	10.98
626.038	10.66
626.37	10.43
626.703	10.83
627.035	10.78
627.368	10.56
627.7	10.42
628.032	10.65
628.365	10.67
628.697	10.47
629.029	10.73
629.361	10.45
629.693	10.66
630.025	10.47
630.357	10.7
630.689	10.69
631.021	11.06
631.353	11.13
631.684	10.73
632.016	10.89
632.348	11.01
632.679	10.82
633.011	11.27
633.342	11.03
633.674	10.84
634.005	11.02
634.336	11.27
634.668	11.27
634.999	11.48
635.33	11.12
635.661	11.06
635.992	11.27
636.323	11.04
636.654	11.32
636.985	11.37
637.316	11.09
637.647	10.85
637.977	11.63
638.308	11.4
638.639	11.33
638.969	11.77
639.3	11.55
639.63	11.54
639.961	11.59
640.291	11.22
640.622	11.71
640.952	11.87
641.282	12.16
641.612	11.83
641.943	12.21
642.273	11.84
642.603	11.96
642.933	11.88
643.263	11.49
643.592	11.94
643.922	12.47
644.252	12.15
644.582	11.7
644.911	12.06
645.241	11.95
645.571	12.41
645.9	11.86
646.23	12.01
646.559	12.29
646.888	12.36
647.218	12.12
647.547	12.2
647.876	12.42
648.205	12.33
648.534	12.5
648.863	12.58
649.192	12.66
649.521	12.54
649.85	12.05
650.179	12.37
650.508	12.82
650.837	12.77
651.165	12.42
651.494	12.29
651.822	12.63
652.151	12.9
652.479	12.96
652.808	12.75
653.136	12.6
653.465	12.73
653.793	12.49
654.121	12.87
654.449	13.09
654.777	12.87
655.105	12.89
655.433	13.12
655.761	12.94
656.089	13.27
656.417	13.19
656.745	13.38
657.073	13.02
657.4	12.74
657.728	12.81
658.056	13.06
658.383	13
658.711	13.17
659.038	12.9
659.365	13.32
659.693	13.1
660.02	12.75
660.347	13.51
660.674	13.45
661.001	13.55
661.329	13.82
661.656	13.4
661.982	13.28
662.309	13.76
662.636	13.84
662.963	13.64
663.29	14.07
663.616	13.59
663.943	14.05
664.27	13.85
664.596	13.76
664.923	14.66
665.249	13.39
665.576	13.53
665.902	13.78
666.228	13.91
666.554	14.08
666.881	13.13
667.207	14.03
667.533	14.48
667.859	14.05
668.185	13.83
668.511	13.91
668.837	13.64
669.162	14.96
669.488	14.57
669.814	13.93
670.139	13.51
670.465	14.08
670.791	14.35
671.116	14.32
671.442	14.39
671.767	14.13
672.092	15.33
672.418	14.38
672.743	15
673.068	14.18
673.393	14.15
673.718	14.43
674.043	14.54
674.368	14.21
674.693	14.52
675.018	14.43
675.343	14.77
675.667	15.32
675.992	14.5
676.317	14.98
676.641	14.84
676.966	14.88
677.29	15.32
677.615	15.18
677.939	15.38
678.264	15.52
678.588	15.07
678.912	15.06
679.236	14.82
679.56	15.46
679.885	14.84
680.209	15.53
680.532	15.48
680.856	14.83
681.18	15.64
681.504	15.47
681.828	15.74
682.152	15.21
682.475	15.84
682.799	15.3
683.122	15.41
683.446	15.67
683.769	16.48
684.093	15.2
684.416	15.33
684.739	15.66
685.062	15.88
685.386	16.01
685.709	16.52
686.032	15.78
686.355	15.67
686.678	16.18
687.001	15.94
687.324	16.05
687.646	16.52
