Data from 438_chest_Reflection__4__141.txt Node

Date: Tue Dec 12 19:33:19 CST 2023
User: ToomeyLab
Spectrometer: FLMS14357
Trigger mode: 0
Integration Time (sec): 1.000000E-2
Scans to average: 100
Electric dark correction enabled: true
Nonlinearity correction enabled: false
Boxcar width: 0
XAxis mode: Wavelengths
Number of Pixels in Spectrum: 2048
>>>>>Begin Spectral Data<<<<<
189.047	-936.79
189.435	-936.79
189.823	-936.79
190.211	-3.6
190.599	-306.67
190.987	180.77
191.375	-385.46
191.763	480.31
192.151	73.13
192.538	3.9
192.926	238.74
193.314	-281.88
193.702	94.6
194.089	49.13
194.477	-86.39
194.864	121.63
195.252	174.88
195.639	42.42
196.027	76.14
196.414	21.83
196.801	-257.79
197.189	68.68
197.576	-39.34
197.963	53.2
198.351	51.36
198.738	41.33
199.125	32.89
199.512	-66.24
199.899	18.25
200.286	-3.79
200.673	-51.46
201.06	-17.03
201.447	-81.26
201.833	-31.59
202.22	-29.36
202.607	-178.7
202.994	15.13
203.38	20.14
203.767	-9.42
204.154	2.3
204.54	11.64
204.927	-12.06
205.313	-6.04
205.699	-20.21
206.086	-37.45
206.472	14.61
206.858	14.88
207.245	36.56
207.631	21.5
208.017	-8.62
208.403	-12.57
208.789	-14.38
209.175	-40.25
209.561	-11.3
209.947	-20.24
210.333	33.8
210.719	-8.06
211.105	-24.51
211.491	13.78
211.876	13.37
212.262	11.61
212.648	-2.86
213.034	-113.33
213.419	-17.47
213.805	-9.96
214.19	36.25
214.576	4.12
214.961	-18.36
215.346	-32.48
215.732	12.77
216.117	-5.62
216.502	11.54
216.888	-14.67
217.273	-10.32
217.658	-75.87
218.043	-20.76
218.428	-14.51
218.813	-2.51
219.198	-30.7
219.583	8.24
219.968	2.28
220.353	-17.12
220.738	-5.09
221.122	5.26
221.507	-11.15
221.892	-11.27
222.276	-0.14
222.661	8.13
223.046	-7.14
223.43	0.77
223.815	2.35
224.199	3.25
224.583	-1.18
224.968	13.72
225.352	-9.41
225.736	2.22
226.121	2.13
226.505	-3.97
226.889	5.83
227.273	3.97
227.657	6.29
228.041	3.55
228.425	-0.42
228.809	3.04
229.193	0.94
229.577	2.7
229.961	1.82
230.344	5
230.728	4.36
231.112	3.83
231.495	3.75
231.879	5.09
232.263	3.53
232.646	3.08
233.03	3.33
233.413	1.48
233.797	2.9
234.18	1.67
234.563	2.38
234.946	3.31
235.33	4.46
235.713	2.95
236.096	2.92
236.479	3.8
236.862	4.32
237.245	4.12
237.628	4.63
238.011	4.02
238.394	2.15
238.777	3.7
239.16	4.37
239.543	3.23
239.925	4.11
240.308	4.41
240.691	4.26
241.073	3.9
241.456	4.16
241.838	2.65
242.221	2.49
242.603	3.77
242.986	3.11
243.368	4.18
243.75	3.67
244.133	4.2
244.515	4.07
244.897	3.94
245.279	4.54
245.661	3.02
246.043	3.01
246.425	4.98
246.807	3.54
247.189	4.76
247.571	4.51
247.953	3.43
248.335	4.01
248.717	3.99
249.098	4.14
249.48	3.95
249.862	3.79
250.243	3.65
250.625	4.25
251.006	3.88
251.388	3.76
251.769	4.82
252.151	2.93
252.532	4.12
252.913	4.9
253.295	5.25
253.676	3.27
254.057	3.16
254.438	4.38
254.819	3.74
255.2	3.11
255.581	2.97
255.962	3.03
256.343	3.2
256.724	2.34
257.105	3.11
257.486	4.17
257.867	2.09
258.247	2.86
258.628	3.77
259.009	2.99
259.389	4.16
259.77	3.34
260.15	4.42
260.531	4.91
260.911	3.83
261.292	3.72
261.672	3.69
262.052	3.67
262.432	3.88
262.813	4.14
263.193	3.27
263.573	3.81
263.953	4.06
264.333	4.83
264.713	3.64
265.093	3.47
265.473	3.34
265.853	3.63
266.233	3.65
266.612	3.38
266.992	3.64
267.372	3.78
267.752	5.02
268.131	3.87
268.511	3.88
268.89	2.95
269.27	3.46
269.649	3.34
270.029	3.57
270.408	3.98
270.787	4.08
271.167	3.71
271.546	3.37
271.925	3.97
272.304	3.9
272.683	2.99
273.062	3.6
273.441	3.75
273.82	3.15
274.199	3.38
274.578	3.61
274.957	3.34
275.336	3.95
275.715	4.27
276.093	2.77
276.472	3.53
276.851	3.71
277.229	3.46
277.608	3.74
277.986	3.01
278.365	3.55
278.743	3.51
279.122	3.41
279.5	2.87
279.878	3.27
280.257	3.67
280.635	3.64
281.013	3.48
281.391	3.08
281.769	2.93
282.147	3.26
282.525	3.35
282.903	3
283.281	3.27
283.659	3.46
284.037	3.77
284.415	3.26
284.792	3.86
285.17	3.5
285.548	4.02
285.925	3.44
286.303	3.61
286.68	3.19
287.058	3.46
287.435	3.74
287.813	3.35
288.19	3.79
288.567	3.6
288.945	3.39
289.322	3.21
289.699	3.6
290.076	3.05
290.453	3.82
290.83	3.62
291.207	3.89
291.584	3.87
291.961	3.68
292.338	3.63
292.715	3.67
293.092	3.09
293.469	3.26
293.845	4.07
294.222	3.69
294.599	3.95
294.975	3.43
295.352	3.78
295.728	3.67
296.105	3.17
296.481	4.03
296.858	4
297.234	3.79
297.61	3.85
297.986	4.17
298.363	3.81
298.739	3.94
299.115	3.57
299.491	3.61
299.867	3.76
300.243	3.75
300.619	3.73
300.995	3.6
301.371	3.64
301.746	4.22
302.122	3.84
302.498	4
302.874	3.84
303.249	4.02
303.625	3.93
304	3.92
304.376	4.19
304.751	4.26
305.127	3.65
305.502	4.08
305.878	3.87
306.253	3.87
306.628	3.97
307.003	3.52
307.378	3.8
307.754	3.71
308.129	3.8
308.504	4.51
308.879	3.61
309.254	4.03
309.629	4.16
310.003	4.22
310.378	3.73
310.753	4.34
311.128	4.2
311.502	3.47
311.877	3.34
312.252	3.54
312.626	3.66
313.001	3.7
313.375	4.05
313.75	4.16
314.124	4.14
314.498	4.12
314.873	3.67
315.247	4.11
315.621	3.39
315.995	4.17
316.369	3.74
316.743	3.42
317.117	3.32
317.491	3.45
317.865	4.53
318.239	3.97
318.613	4.36
318.987	4.39
319.361	3.63
319.734	3.71
320.108	3.68
320.482	3.64
320.855	3.39
321.229	3.8
321.602	4.39
321.976	4.19
322.349	4.16
322.723	4.02
323.096	3.77
323.469	4.05
323.843	5.11
324.216	4.07
324.589	4.3
324.962	4.4
325.335	4.56
325.708	3.64
326.081	3.75
326.454	4.25
326.827	4.44
327.2	3.91
327.573	3.82
327.945	3.85
328.318	4.44
328.691	3.44
329.063	4.15
329.436	3.9
329.809	4.03
330.181	3.9
330.553	3.92
330.926	4.68
331.298	3.92
331.671	4.38
332.043	3.55
332.415	4.18
332.787	4.1
333.159	4.03
333.532	3.78
333.904	3.51
334.276	4.68
334.648	4
335.02	3.72
335.391	3.87
335.763	4.21
336.135	4.16
336.507	4.05
336.879	3.69
337.25	4.12
337.622	4.03
337.993	3.83
338.365	3.63
338.736	3.78
339.108	3.56
339.479	4.17
339.851	3.91
340.222	3.82
340.593	4.11
340.964	3.97
341.336	4.41
341.707	3.83
342.078	3.8
342.449	3.96
342.82	3.92
343.191	4.06
343.562	4.06
343.933	4.37
344.303	4.37
344.674	4.25
345.045	4.22
345.416	4.39
345.786	4.11
346.157	4.04
346.527	4.56
346.898	3.53
347.268	3.93
347.639	4.39
348.009	3.9
348.38	4.8
348.75	4.4
349.12	3.97
349.49	3.58
349.861	4.59
350.231	4.07
350.601	4.16
350.971	4.3
351.341	4.32
351.711	4.33
352.081	4.2
352.45	3.72
352.82	4.41
353.19	3.77
353.56	4.12
353.929	3.72
354.299	3.85
354.669	3.81
355.038	3.72
355.408	4.32
355.777	4.18
356.147	4.12
356.516	4.4
356.885	4.12
357.254	4.29
357.624	3.93
357.993	4.41
358.362	4.12
358.731	4.46
359.1	3.89
359.469	4
359.838	4.31
360.207	4.07
360.576	4.53
360.945	4.31
361.314	4.56
361.682	4.17
362.051	4.42
362.42	4.44
362.788	4.26
363.157	4.47
363.525	4.44
363.894	4.15
364.262	4.26
364.631	4
364.999	4.34
365.367	4.35
365.735	3.98
366.104	4.11
366.472	4.08
366.84	4.31
367.208	4.38
367.576	4
367.944	4.35
368.312	4.23
368.68	4.17
369.048	4.54
369.416	4.24
369.783	4.13
370.151	4.03
370.519	4.38
370.886	4.6
371.254	3.93
371.621	4.57
371.989	4.3
372.356	3.91
372.724	4.37
373.091	4.11
373.458	4.15
373.826	4.4
374.193	4
374.56	4.44
374.927	4.62
375.294	4.2
375.661	4.28
376.028	4.28
376.395	4.61
376.762	4.82
377.129	3.94
377.496	4.53
377.863	4.46
378.229	4.31
378.596	3.76
378.963	4.49
379.329	4.24
379.696	4.13
380.062	4.66
380.429	4.38
380.795	4.45
381.161	4.78
381.528	4.13
381.894	4.44
382.26	4.16
382.626	4.4
382.993	4.48
383.359	4.31
383.725	4.13
384.091	4.34
384.457	4.33
384.823	4.46
385.188	4.28
385.554	4.4
385.92	4.51
386.286	4.63
386.651	4.55
387.017	4.75
387.383	4.3
387.748	4.4
388.114	4.54
388.479	4.71
388.845	4.38
389.21	4.51
389.575	4.22
389.94	4.54
390.306	4.42
390.671	4.54
391.036	4.52
391.401	4.63
391.766	4.59
392.131	4.56
392.496	4.34
392.861	4.39
393.226	4.79
393.591	4.24
393.956	4.43
394.32	4.64
394.685	4.65
395.05	4.24
395.414	4.48
395.779	4.28
396.143	4.56
396.508	4.57
396.872	4.69
397.236	4.42
397.601	4.53
397.965	4.48
398.329	4.56
398.694	4.42
399.058	4.69
399.422	4.58
399.786	4.78
400.15	4.35
400.514	4.49
400.878	4.69
401.242	4.43
401.605	4.8
401.969	4.69
402.333	4.66
402.697	4.54
403.06	4.52
403.424	4.37
403.787	4.51
404.151	4.63
404.514	4.37
404.878	4.54
405.241	4.59
405.604	4.48
405.968	4.54
406.331	4.71
406.694	4.83
407.057	4.52
407.42	4.56
407.783	4.51
408.146	4.6
408.509	4.84
408.872	4.53
409.235	4.55
409.598	4.38
409.961	4.67
410.323	4.61
410.686	4.82
411.049	4.7
411.411	4.75
411.774	4.62
412.136	4.7
412.499	4.71
412.861	4.76
413.223	4.9
413.586	4.52
413.948	4.56
414.31	4.69
414.672	4.89
415.035	4.6
415.397	4.77
415.759	4.59
416.121	4.46
416.483	4.67
416.845	4.55
417.206	4.85
417.568	4.54
417.93	4.58
418.292	4.68
418.653	4.66
419.015	4.7
419.377	4.67
419.738	4.61
420.1	4.61
420.461	4.71
420.822	4.62
421.184	4.67
421.545	4.83
421.906	4.68
422.267	4.64
422.629	4.65
422.99	4.69
423.351	4.6
423.712	4.78
424.073	4.66
424.434	4.7
424.795	4.7
425.155	4.59
425.516	4.5
425.877	4.69
426.238	4.67
426.598	4.63
426.959	4.64
427.32	4.7
427.68	4.67
428.041	4.67
428.401	4.61
428.761	4.62
429.122	4.93
429.482	4.96
429.842	4.98
430.202	4.74
430.563	4.8
430.923	4.89
431.283	4.67
431.643	4.98
432.003	4.76
432.363	4.91
432.722	4.81
433.082	4.53
433.442	4.87
433.802	4.81
434.161	4.7
434.521	4.84
434.881	4.86
435.24	4.87
435.6	4.74
435.959	4.9
436.319	4.82
436.678	4.97
437.037	4.83
437.396	4.7
437.756	4.72
438.115	4.76
438.474	4.85
438.833	5
439.192	4.94
439.551	4.75
439.91	4.66
440.269	4.68
440.628	4.72
440.987	4.63
441.345	4.92
441.704	4.81
442.063	4.84
442.421	4.97
442.78	4.86
443.138	4.83
443.497	4.91
443.855	4.87
444.214	4.81
444.572	4.94
444.93	4.91
445.288	4.69
445.647	5.02
446.005	4.9
446.363	4.76
446.721	4.9
447.079	4.87
447.437	4.85
447.795	4.9
448.153	4.77
448.51	4.85
448.868	4.95
449.226	4.92
449.584	4.96
449.941	4.93
450.299	4.82
450.656	4.87
451.014	4.95
451.371	4.95
451.729	4.99
452.086	4.85
452.443	5.09
452.801	4.9
453.158	5.04
453.515	5.03
453.872	4.9
454.229	5.05
454.586	4.78
454.943	4.89
455.3	4.91
455.657	4.95
456.014	5.05
456.371	4.94
456.727	5.08
457.084	4.98
457.441	5.1
457.797	5.04
458.154	4.97
458.51	5.02
458.867	5.31
459.223	5.06
459.58	4.96
459.936	4.76
460.292	4.97
460.648	5.08
461.005	4.94
461.361	5
461.717	5.06
462.073	4.97
462.429	5.01
462.785	4.94
463.141	5
463.496	5.07
463.852	5.2
464.208	5.06
464.564	5.18
464.919	5.24
465.275	5.06
465.631	5.1
465.986	5.24
466.342	4.95
466.697	5.13
467.052	5.29
467.408	5.17
467.763	5.18
468.118	5.15
468.473	5.19
468.829	5.17
469.184	5.01
469.539	5.23
469.894	5.19
470.249	5.25
470.603	5.16
470.958	5.25
471.313	5.41
471.668	5.31
472.023	5.14
472.377	5.14
472.732	5.14
473.086	5.11
473.441	5.26
473.795	5.15
474.15	5.26
474.504	5.02
474.859	5.23
475.213	5.1
475.567	5.25
475.921	5.3
476.275	5.08
476.63	5.26
476.984	5.37
477.338	5.29
477.692	5.25
478.045	5.38
478.399	5.19
478.753	5.35
479.107	5.22
479.461	5.23
479.814	5.42
480.168	5.29
480.521	5.2
480.875	5.26
481.228	5.5
481.582	5.3
481.935	5.31
482.289	5.39
482.642	5.42
482.995	5.22
483.348	5.17
483.701	5.42
484.055	5.27
484.408	5.2
484.761	5.21
485.114	5.12
485.466	5.05
485.819	4.98
486.172	5.01
486.525	5.09
486.878	5.1
487.23	5.09
487.583	5.15
487.936	5.27
488.288	5.14
488.641	5.17
488.993	5.17
489.345	5.13
489.698	5.11
490.05	5.1
490.402	5.17
490.754	5.19
491.107	5.22
491.459	5.26
491.811	5.42
492.163	5.33
492.515	5.37
492.866	5.29
493.218	5.14
493.57	5.13
493.922	5.14
494.274	5.28
494.625	5.32
494.977	5.45
495.328	5.47
495.68	5.4
496.031	5.59
496.383	5.56
496.734	5.5
497.086	5.49
497.437	5.47
497.788	5.61
498.139	5.47
498.49	5.55
498.842	5.42
499.193	5.52
499.544	5.51
499.894	5.46
500.245	5.57
500.596	5.56
500.947	5.5
501.298	5.68
501.648	5.68
501.999	5.59
502.35	5.55
502.7	5.51
503.051	5.44
503.401	5.69
503.752	5.83
504.102	5.62
504.452	5.6
504.803	5.71
505.153	5.57
505.503	5.81
505.853	5.67
506.203	5.69
506.553	5.61
506.903	5.81
507.253	5.85
507.603	5.71
507.953	5.75
508.303	5.66
508.652	5.66
509.002	5.74
509.352	5.75
509.701	5.84
510.051	5.76
510.4	5.73
510.75	5.68
511.099	5.58
511.449	5.78
511.798	5.65
512.147	5.79
512.496	5.76
512.846	5.77
513.195	5.67
513.544	5.92
513.893	5.77
514.242	5.68
514.591	5.72
514.939	5.84
515.288	5.78
515.637	5.7
515.986	5.85
516.334	6.04
516.683	5.85
517.032	5.88
517.38	5.84
517.729	5.91
518.077	5.82
518.426	5.93
518.774	5.87
519.122	6
519.47	5.83
519.819	5.83
520.167	5.85
520.515	5.85
520.863	5.93
521.211	5.92
521.559	5.98
521.907	5.93
522.255	6.03
522.602	6.01
522.95	6.08
523.298	5.94
523.645	6.1
523.993	6.07
524.341	6.1
524.688	6.05
525.036	6.15
525.383	6.15
525.73	6
526.078	6.02
526.425	6.04
526.772	6.02
527.119	6.08
527.466	6.07
527.814	5.95
528.161	6.09
528.508	6.1
528.854	6.07
529.201	6.03
529.548	6
529.895	5.94
530.242	5.9
530.588	5.86
530.935	5.91
531.282	5.93
531.628	6.02
531.975	6.06
532.321	6.1
532.667	6.06
533.014	6.24
533.36	6.22
533.706	6.2
534.052	6.23
534.399	6.22
534.745	6.18
535.091	6.06
535.437	6.18
535.783	6.13
536.129	6.22
536.474	6.28
536.82	6.36
537.166	6.45
537.512	6.33
537.857	6.35
538.203	6.39
538.549	6.32
538.894	6.4
539.239	6.38
539.585	6.49
539.93	6.45
540.276	6.51
540.621	6.46
540.966	6.44
541.311	6.55
541.656	6.56
542.001	6.49
542.346	6.4
542.691	6.49
543.036	6.45
543.381	6.34
543.726	6.44
544.071	6.37
544.415	6.46
544.76	6.45
545.105	6.55
545.449	6.59
545.794	6.57
546.138	6.5
546.483	6.71
546.827	6.69
547.171	6.77
547.516	6.74
547.86	6.9
548.204	6.88
548.548	6.78
548.892	6.84
549.236	6.71
549.58	6.85
549.924	6.74
550.268	6.95
550.612	6.79
550.956	6.91
551.3	7.03
551.643	7.04
551.987	6.98
552.33	7.2
552.674	6.84
553.017	7.28
553.361	7.21
553.704	7.09
554.048	7.03
554.391	7
554.734	7.02
555.077	7.14
555.42	6.95
555.764	7.21
556.107	7.31
556.45	7.12
556.793	7.21
557.135	7.34
557.478	7.16
557.821	7.31
558.164	7.29
558.507	7.25
558.849	7.38
559.192	7.37
559.534	7.47
559.877	7.51
560.219	7.38
560.562	7.51
560.904	7.55
561.246	7.42
561.589	7.42
561.931	7.37
562.273	7.31
562.615	7.32
562.957	7.4
563.299	7.51
563.641	7.73
563.983	7.61
564.325	7.64
564.667	7.54
565.008	7.37
565.35	7.52
565.692	7.72
566.033	7.66
566.375	7.65
566.716	7.56
567.058	7.92
567.399	7.84
567.741	7.74
568.082	7.63
568.423	7.71
568.764	7.8
569.105	7.75
569.447	8.07
569.788	7.81
570.129	7.83
570.47	8.08
570.811	7.8
571.151	7.98
571.492	8.04
571.833	8.07
572.174	7.97
572.514	8.04
572.855	8.09
573.195	7.97
573.536	7.94
573.876	7.95
574.217	8.13
574.557	7.85
574.898	8.18
575.238	8.16
575.578	8.01
575.918	8.09
576.258	8.2
576.598	8.08
576.938	8.36
577.278	8.28
577.618	8.27
577.958	8.25
578.298	8.42
578.638	8.19
578.977	8.35
579.317	8.42
579.657	8.48
579.996	8.59
580.336	8.33
580.675	8.44
581.014	8.59
581.354	8.51
581.693	8.48
582.032	8.8
582.372	8.79
582.711	8.53
583.05	8.6
583.389	8.73
583.728	8.7
584.067	8.83
584.406	9.04
584.745	8.78
585.083	8.51
585.422	9.03
585.761	9.04
586.1	8.97
586.438	8.89
586.777	8.91
587.115	8.81
587.454	9.02
587.792	8.81
588.13	9.08
588.469	9.01
588.807	9.05
589.145	8.98
589.483	9.11
589.821	9.3
590.159	8.96
590.497	8.89
590.835	8.99
591.173	9.21
591.511	9.08
591.849	9.09
592.187	9.32
592.524	9.26
592.862	9.39
593.2	9.33
593.537	9.34
593.875	9.66
594.212	9.59
594.55	9.45
594.887	9.69
595.224	9.53
595.561	9.77
595.899	9.42
596.236	9.65
596.573	9.66
596.91	9.67
597.247	9.53
597.584	9.54
597.921	9.51
598.258	9.73
598.594	9.82
598.931	9.68
599.268	9.69
599.604	9.67
599.941	9.84
600.277	9.86
600.614	9.94
600.95	9.75
601.287	9.76
601.623	10.13
601.959	9.79
602.296	10.06
602.632	9.97
602.968	10.16
603.304	9.81
603.64	10.14
603.976	10.16
604.312	10.06
604.648	10.04
604.984	10.13
605.319	10.2
605.655	10.07
605.991	10.34
606.326	10.2
606.662	10.17
606.998	10.13
607.333	10.19
607.668	10.19
608.004	10.32
608.339	10.48
608.674	10.46
609.01	10.39
609.345	10.53
609.68	10.72
610.015	10.1
610.35	10.55
610.685	10.65
611.02	10.56
611.355	10.62
611.689	10.45
612.024	10.62
612.359	10.63
612.694	10.68
613.028	10.88
613.363	10.48
613.697	10.8
614.032	10.81
614.366	10.94
614.7	10.94
615.035	10.77
615.369	10.88
615.703	11.07
616.037	11.01
616.371	11.06
616.705	11.21
617.039	10.9
617.373	11.25
617.707	10.97
618.041	11.4
618.375	10.91
618.709	11.04
619.042	11.36
619.376	11.04
619.71	11.29
620.043	11.46
620.377	11.2
620.71	11.2
621.043	11.4
621.377	11.24
621.71	11.32
622.043	11.65
622.376	11.64
622.709	11.8
623.043	11.37
623.376	11.62
623.709	11.73
624.041	11.48
624.374	11.42
624.707	11.53
625.04	11.77
625.373	11.78
625.705	11.96
626.038	11.65
626.37	11.84
626.703	11.77
627.035	11.65
627.368	11.96
627.7	12.15
628.032	11.96
628.365	11.9
628.697	12.16
629.029	11.95
629.361	11.85
629.693	12.13
630.025	11.82
630.357	12.36
630.689	11.99
631.021	12.73
631.353	12.36
631.684	12.25
632.016	12.05
632.348	12.49
632.679	12.18
633.011	13
633.342	12.53
633.674	12.46
634.005	12.17
634.336	12.65
634.668	12.33
634.999	12.64
635.33	12.86
635.661	12.97
635.992	12.5
636.323	12.4
636.654	12.83
636.985	13.01
637.316	12.58
637.647	12.56
637.977	12.63
638.308	13.16
638.639	12.86
638.969	12.85
639.3	12.95
639.63	13.09
639.961	13.06
640.291	12.78
640.622	13.01
640.952	13.04
641.282	13
641.612	12.74
641.943	13.11
642.273	13.37
642.603	13.67
642.933	13.51
643.263	13.04
643.592	13.29
643.922	13.49
644.252	13.94
644.582	12.84
644.911	13.56
645.241	13.14
645.571	13.72
645.9	12.97
646.23	13.07
646.559	13.85
646.888	13.52
647.218	13.44
647.547	14.13
647.876	13.75
648.205	13.54
648.534	13.96
648.863	13.97
649.192	14.43
649.521	14.17
649.85	13.37
650.179	14.13
650.508	14.36
650.837	14.44
651.165	14.29
651.494	13.84
651.822	13.75
652.151	14.56
652.479	14.42
652.808	13.99
653.136	14.27
653.465	14.76
653.793	14.57
654.121	14.28
654.449	13.94
654.777	14.38
655.105	14.92
655.433	14.82
655.761	14.58
656.089	14.59
656.417	15.14
656.745	14.35
657.073	14.19
657.4	14.72
657.728	14.08
658.056	14.66
658.383	14.37
658.711	14.57
659.038	14.55
659.365	14.66
659.693	14.55
660.02	14.39
660.347	14.82
660.674	14.72
661.001	14.97
661.329	15.16
661.656	14.95
661.982	14.91
662.309	15.23
662.636	15.13
662.963	15.04
663.29	15.04
663.616	15.26
663.943	15.21
664.27	15.24
664.596	15.49
664.923	15.74
665.249	14.88
665.576	15.27
665.902	15.46
666.228	15.42
666.554	15.23
666.881	14.49
667.207	15.55
667.533	15.87
667.859	15.21
668.185	15.94
668.511	16.05
668.837	15.48
669.162	16.14
669.488	15.66
669.814	15.84
670.139	15.48
670.465	15.17
670.791	16.12
671.116	15.82
671.442	15.94
671.767	16.41
672.092	16.72
672.418	16.13
672.743	16.58
673.068	15.52
673.393	15.94
673.718	16.23
674.043	16.18
674.368	15.63
674.693	15.75
675.018	15.56
675.343	16.32
675.667	16.48
675.992	16.09
676.317	16.2
676.641	15.99
676.966	16.9
677.29	16.59
677.615	16.81
677.939	16.57
678.264	17.13
678.588	16.47
678.912	17.13
679.236	16.56
679.56	16.56
679.885	16.93
680.209	16.07
680.532	16.84
680.856	16.72
681.18	16.61
681.504	16.65
681.828	16.8
682.152	16.7
682.475	17.16
682.799	16.95
683.122	17.37
683.446	16.84
683.769	18.17
684.093	16.88
684.416	17.35
684.739	17.31
685.062	17.22
685.386	17.88
685.709	17.45
686.032	17.56
686.355	17.54
686.678	17.91
