Data from 0379_chest_Reflection__1__121.txt Node

Date: Mon Dec 11 19:02:20 CST 2023
User: ToomeyLab
Spectrometer: FLMS14357
Trigger mode: 0
Integration Time (sec): 1.000000E-2
Scans to average: 100
Electric dark correction enabled: true
Nonlinearity correction enabled: false
Boxcar width: 0
XAxis mode: Wavelengths
Number of Pixels in Spectrum: 2048
>>>>>Begin Spectral Data<<<<<
189.047	102.9
189.435	102.9
189.823	102.9
190.211	64.48
190.599	160.84
190.987	-227.64
191.375	95.16
191.763	110.59
192.151	-102.91
192.538	107.28
192.926	-504.37
193.314	181.78
193.702	71.23
194.089	86.33
194.477	41.21
194.864	182.42
195.252	231.29
195.639	-588.89
196.027	-241.68
196.414	167.56
196.801	72.9
197.189	-172.89
197.576	122.84
197.963	-57.61
198.351	-100.42
198.738	-38.33
199.125	-19.68
199.512	-8.52
199.899	-45.29
200.286	29.13
200.673	-312.95
201.06	10.48
201.447	-9.11
201.833	9.17
202.22	39.12
202.607	25.53
202.994	-81.73
203.38	-76.28
203.767	43.07
204.154	27.21
204.54	-13.68
204.927	-38.52
205.313	38.51
205.699	-47.21
206.086	-28.56
206.472	-0.17
206.858	16.81
207.245	5.21
207.631	7.02
208.017	1.86
208.403	7.48
208.789	-14.53
209.175	22.46
209.561	-28.13
209.947	-4.28
210.333	33.17
210.719	23.69
211.105	24.24
211.491	23.76
211.876	13.29
212.262	-48.66
212.648	-21.6
213.034	-0.04
213.419	4.52
213.805	-14.66
214.19	4.18
214.576	-20.22
214.961	-7.91
215.346	-20
215.732	0.93
216.117	24.41
216.502	-20.65
216.888	-25.39
217.273	1.66
217.658	25.15
218.043	-8.09
218.428	34.66
218.813	4.74
219.198	3.47
219.583	-5.55
219.968	-13.64
220.353	-19.56
220.738	25.99
221.122	0.74
221.507	29.8
221.892	-2.04
222.276	-7.93
222.661	-6.22
223.046	5.3
223.43	14.23
223.815	-6.13
224.199	2.5
224.583	-17.57
224.968	5.57
225.352	11.62
225.736	7.06
226.121	-0.75
226.505	-8.26
226.889	0.04
227.273	0.06
227.657	7.44
228.041	-1.92
228.425	-0.19
228.809	-1.69
229.193	3.42
229.577	4.68
229.961	1.35
230.344	2.03
230.728	1.83
231.112	2.07
231.495	2.6
231.879	2.24
232.263	1.82
232.646	2.43
233.03	1.37
233.413	1.51
233.797	3.56
234.18	1.51
234.563	3.65
234.946	1.42
235.33	1.69
235.713	1.15
236.096	3.99
236.479	3.92
236.862	-0.49
237.245	2.23
237.628	1.53
238.011	1.09
238.394	1.97
238.777	2.45
239.16	0.8
239.543	2.11
239.925	1.32
240.308	1.36
240.691	2.34
241.073	2.16
241.456	1.94
241.838	3.29
242.221	1.65
242.603	2.03
242.986	1.47
243.368	2.29
243.75	2.72
244.133	2.34
244.515	2.29
244.897	2.17
245.279	2.05
245.661	2.23
246.043	2.18
246.425	2.52
246.807	3.23
247.189	2.61
247.571	2.84
247.953	1.48
248.335	2.74
248.717	2.45
249.098	2.41
249.48	2.28
249.862	2.88
250.243	2.56
250.625	2.5
251.006	1.95
251.388	2.39
251.769	2.55
252.151	3.45
252.532	1.94
252.913	2.54
253.295	3.19
253.676	2.5
254.057	2.53
254.438	2.69
254.819	1.88
255.2	1.68
255.581	1.51
255.962	0.96
256.343	2.71
256.724	3.04
257.105	1.52
257.486	2.52
257.867	4.64
258.247	2.26
258.628	2.67
259.009	2.89
259.389	3.06
259.77	1.66
260.15	2.04
260.531	2.81
260.911	1.67
261.292	1.74
261.672	2.14
262.052	2.4
262.432	2.34
262.813	2.26
263.193	2.09
263.573	2.03
263.953	1.66
264.333	1.69
264.713	2.36
265.093	2.27
265.473	2.88
265.853	2.06
266.233	1.45
266.612	2.92
266.992	2.56
267.372	3.86
267.752	2.71
268.131	2.29
268.511	2.1
268.89	2.94
269.27	2.51
269.649	2.13
270.029	2.3
270.408	2.55
270.787	2.04
271.167	1.58
271.546	2.2
271.925	2.42
272.304	1.92
272.683	2.3
273.062	1.85
273.441	1.88
273.82	1.49
274.199	1.96
274.578	2.28
274.957	2.33
275.336	2.2
275.715	1.77
276.093	2.62
276.472	2.16
276.851	2.53
277.229	2.11
277.608	2.28
277.986	2.51
278.365	2.05
278.743	2.61
279.122	1.49
279.5	2.37
279.878	2.02
280.257	2.25
280.635	2.02
281.013	1.9
281.391	2.47
281.769	2.15
282.147	1.91
282.525	1.61
282.903	2.87
283.281	2.05
283.659	1.94
284.037	2.22
284.415	2.01
284.792	2.6
285.17	1.95
285.548	2.7
285.925	1.84
286.303	2.18
286.68	2.41
287.058	2
287.435	2.07
287.813	2.52
288.19	2.07
288.567	2.11
288.945	1.93
289.322	1.75
289.699	2.36
290.076	1.96
290.453	2.12
290.83	2.54
291.207	2.1
291.584	1.93
291.961	1.98
292.338	2.32
292.715	2.8
293.092	2.17
293.469	2.27
293.845	1.91
294.222	2.96
294.599	2.31
294.975	1.87
295.352	2.35
295.728	2.13
296.105	2.17
296.481	2.44
296.858	2.17
297.234	2.72
297.61	2.71
297.986	2.92
298.363	2.33
298.739	2.66
299.115	2.43
299.491	2.53
299.867	2.72
300.243	2.46
300.619	2.5
300.995	2.32
301.371	1.95
301.746	2.12
302.122	2.57
302.498	2.88
302.874	2.55
303.249	2.54
303.625	2.58
304	2.54
304.376	2.51
304.751	2.55
305.127	2.8
305.502	2.93
305.878	3.08
306.253	2.71
306.628	3.17
307.003	2.93
307.378	2.44
307.754	2.8
308.129	2.35
308.504	2.65
308.879	2.23
309.254	3.59
309.629	2.98
310.003	2.79
310.378	2.55
310.753	2.54
311.128	2.69
311.502	2.27
311.877	2.59
312.252	3.42
312.626	2.83
313.001	3.21
313.375	2.4
313.75	2.93
314.124	2.45
314.498	2.97
314.873	3.04
315.247	2.81
315.621	3.45
315.995	2.96
316.369	2.85
316.743	2.89
317.117	2.76
317.491	3.42
317.865	2.55
318.239	2.93
318.613	3.35
318.987	2.91
319.361	3.97
319.734	2.7
320.108	2.9
320.482	3.17
320.855	3.08
321.229	2.92
321.602	2.88
321.976	3.57
322.349	2.94
322.723	2.27
323.096	2.95
323.469	3.9
323.843	3.37
324.216	3.01
324.589	3.67
324.962	3.18
325.335	2.93
325.708	3
326.081	3.63
326.454	2.78
326.827	3.03
327.2	2.98
327.573	2.95
327.945	2.96
328.318	3.33
328.691	3.27
329.063	3.11
329.436	2.98
329.809	2.96
330.181	2.75
330.553	3.02
330.926	2.76
331.298	3.64
331.671	3.22
332.043	3.48
332.415	2.98
332.787	3.5
333.159	2.89
333.532	3.25
333.904	3.59
334.276	3.59
334.648	3.63
335.02	3.31
335.391	2.99
335.763	3.6
336.135	3.3
336.507	3.31
336.879	3.46
337.25	3.95
337.622	3.09
337.993	2.8
338.365	3.23
338.736	3.39
339.108	3.49
339.479	3.17
339.851	3.21
340.222	3.22
340.593	2.85
340.964	3.42
341.336	3.22
341.707	3.17
342.078	3.41
342.449	3.39
342.82	3.06
343.191	2.88
343.562	3.3
343.933	3.54
344.303	2.96
344.674	3.36
345.045	3.42
345.416	2.74
345.786	3.88
346.157	3.15
346.527	3.38
346.898	3.59
347.268	3.31
347.639	3.43
348.009	3.71
348.38	3.01
348.75	3.08
349.12	3.77
349.49	2.99
349.861	3.03
350.231	3.5
350.601	3.84
350.971	3.61
351.341	2.87
351.711	3.28
352.081	2.83
352.45	3.3
352.82	3.01
353.19	3.35
353.56	3.19
353.929	3.27
354.299	3.38
354.669	3.38
355.038	3.44
355.408	3.17
355.777	3.16
356.147	3.47
356.516	3.62
356.885	3.33
357.254	3.5
357.624	3.8
357.993	3.3
358.362	3.65
358.731	3.26
359.1	3.37
359.469	2.88
359.838	3.33
360.207	3.47
360.576	3.24
360.945	3.54
361.314	3.49
361.682	3.41
362.051	3.41
362.42	3.2
362.788	3.09
363.157	3.19
363.525	3.09
363.894	3.37
364.262	3.31
364.631	3.52
364.999	3.41
365.367	3.58
365.735	3.4
366.104	3.27
366.472	3.48
366.84	3.24
367.208	3.35
367.576	3.61
367.944	3.58
368.312	3.45
368.68	3.69
369.048	3.3
369.416	3.11
369.783	3.33
370.151	3.81
370.519	3.98
370.886	3.24
371.254	3.62
371.621	3.56
371.989	3.49
372.356	3.76
372.724	3.92
373.091	3.76
373.458	3.21
373.826	3.87
374.193	3.47
374.56	3.73
374.927	3.66
375.294	3.34
375.661	3.61
376.028	3.74
376.395	3.55
376.762	3.54
377.129	4.11
377.496	3.35
377.863	3.68
378.229	3.51
378.596	3.63
378.963	3.48
379.329	3.45
379.696	3.73
380.062	3
380.429	3.63
380.795	3.61
381.161	3.54
381.528	3.4
381.894	3.65
382.26	3.65
382.626	3.58
382.993	3.59
383.359	3.38
383.725	3.46
384.091	3.73
384.457	3.3
384.823	3.85
385.188	3.51
385.554	3.57
385.92	3.3
386.286	3.73
386.651	3.86
387.017	3.51
387.383	3.58
387.748	3.69
388.114	3.71
388.479	3.73
388.845	3.46
389.21	3.57
389.575	3.73
389.94	3.53
390.306	3.49
390.671	3.92
391.036	3.43
391.401	3.82
391.766	3.54
392.131	4
392.496	3.63
392.861	3.87
393.226	3.75
393.591	4.16
393.956	3.68
394.32	3.87
394.685	3.66
395.05	3.66
395.414	4.08
395.779	3.48
396.143	3.51
396.508	3.73
396.872	3.61
397.236	3.68
397.601	3.74
397.965	3.99
398.329	3.76
398.694	3.69
399.058	3.7
399.422	3.67
399.786	3.89
400.15	3.76
400.514	3.97
400.878	3.74
401.242	4.04
401.605	4.1
401.969	3.58
402.333	3.89
402.697	3.76
403.06	3.98
403.424	3.76
403.787	4.24
404.151	3.72
404.514	3.66
404.878	3.79
405.241	3.78
405.604	3.63
405.968	3.84
406.331	3.52
406.694	3.67
407.057	3.77
407.42	4.06
407.783	3.73
408.146	3.91
408.509	3.55
408.872	3.74
409.235	3.91
409.598	3.85
409.961	3.91
410.323	4.09
410.686	4.09
411.049	3.94
411.411	3.8
411.774	3.98
412.136	3.82
412.499	4.26
412.861	3.9
413.223	3.96
413.586	4.01
413.948	3.83
414.31	3.9
414.672	3.6
415.035	3.82
415.397	3.68
415.759	3.96
416.121	3.92
416.483	3.93
416.845	3.71
417.206	3.8
417.568	4
417.93	4.05
418.292	4.06
418.653	3.73
419.015	3.83
419.377	4.08
419.738	3.97
420.1	3.86
420.461	3.9
420.822	3.83
421.184	3.79
421.545	3.84
421.906	3.84
422.267	4
422.629	3.67
422.99	3.86
423.351	3.74
423.712	3.78
424.073	3.85
424.434	3.86
424.795	3.92
425.155	3.96
425.516	3.9
425.877	3.79
426.238	3.98
426.598	3.87
426.959	3.86
427.32	3.84
427.68	3.94
428.041	3.72
428.401	3.77
428.761	3.76
429.122	3.9
429.482	3.98
429.842	3.99
430.202	3.99
430.563	3.96
430.923	3.97
431.283	4.05
431.643	4.04
432.003	4.22
432.363	4.21
432.722	4.01
433.082	4.22
433.442	3.97
433.802	3.94
434.161	4.29
434.521	4
434.881	4.02
435.24	4.02
435.6	3.97
435.959	4.03
436.319	4.05
436.678	4.06
437.037	4.15
437.396	4.21
437.756	4.05
438.115	4.32
438.474	4.28
438.833	4.11
439.192	4.03
439.551	4.15
439.91	4.09
440.269	4.19
440.628	4.04
440.987	4.21
441.345	3.94
441.704	4.19
442.063	4.02
442.421	4.01
442.78	4.06
443.138	4.09
443.497	4.08
443.855	3.9
444.214	4.25
444.572	4.09
444.93	4.3
445.288	4.2
445.647	4.45
446.005	3.98
446.363	4.17
446.721	4.33
447.079	4.14
447.437	4.12
447.795	4.06
448.153	4.13
448.51	4.11
448.868	4.08
449.226	4.05
449.584	4.16
449.941	4.19
450.299	4.22
450.656	4.22
451.014	4.29
451.371	4.22
451.729	4.46
452.086	4.34
452.443	4.38
452.801	4.29
453.158	4.19
453.515	4.32
453.872	4.42
454.229	4.31
454.586	4.33
454.943	4.39
455.3	4.21
455.657	4.37
456.014	4.3
456.371	4.41
456.727	4.47
457.084	4.4
457.441	4.38
457.797	4.39
458.154	4.29
458.51	4.33
458.867	4.2
459.223	4.38
459.58	4.31
459.936	4.38
460.292	4.37
460.648	4.32
461.005	4.25
461.361	4.38
461.717	4.28
462.073	4.26
462.429	4.26
462.785	4.19
463.141	4.34
463.496	4.51
463.852	4.3
464.208	4.36
464.564	4.46
464.919	4.47
465.275	4.29
465.631	4.53
465.986	4.63
466.342	4.47
466.697	4.41
467.052	4.57
467.408	4.63
467.763	4.47
468.118	4.36
468.473	4.36
468.829	4.67
469.184	4.66
469.539	4.51
469.894	4.4
470.249	4.44
470.603	4.4
470.958	4.58
471.313	4.52
471.668	4.75
472.023	4.64
472.377	4.52
472.732	4.47
473.086	4.64
473.441	4.61
473.795	4.63
474.15	4.59
474.504	4.56
474.859	4.51
475.213	4.49
475.567	4.62
475.921	4.68
476.275	4.58
476.63	4.48
476.984	4.67
477.338	4.41
477.692	4.65
478.045	4.54
478.399	4.4
478.753	4.36
479.107	4.56
479.461	4.61
479.814	4.6
480.168	4.72
480.521	4.81
480.875	4.67
481.228	4.59
481.582	4.86
481.935	4.53
482.289	4.65
482.642	4.69
482.995	4.65
483.348	4.54
483.701	4.58
484.055	4.62
484.408	4.57
484.761	4.53
485.114	4.52
485.466	4.42
485.819	4.32
486.172	4.36
486.525	4.41
486.878	4.48
487.23	4.54
487.583	4.6
487.936	4.56
488.288	4.68
488.641	4.55
488.993	4.49
489.345	4.55
489.698	4.49
490.05	4.56
490.402	4.53
490.754	4.6
491.107	4.66
491.459	4.7
491.811	4.74
492.163	4.84
492.515	4.89
492.866	4.72
493.218	4.55
493.57	4.64
493.922	4.65
494.274	4.71
494.625	4.78
494.977	4.92
495.328	4.87
495.68	5
496.031	4.97
496.383	4.85
496.734	5.02
497.086	4.9
497.437	5
497.788	5.06
498.139	4.91
498.49	5
498.842	4.91
499.193	4.95
499.544	4.81
499.894	4.99
500.245	4.92
500.596	5.1
500.947	5.02
501.298	5.12
501.648	4.98
501.999	5.02
502.35	5.07
502.7	5.17
503.051	5.05
503.401	5.08
503.752	5.16
504.102	5.02
504.452	5.19
504.803	5.2
505.153	5.08
505.503	5.3
505.853	5.3
506.203	5.05
506.553	5.23
506.903	5.08
507.253	5.28
507.603	5.14
507.953	5.2
508.303	5.16
508.652	5.24
509.002	5.26
509.352	5.43
509.701	5.25
510.051	5.2
510.4	5.19
510.75	5.13
511.099	5.13
511.449	5.35
511.798	5.22
512.147	5.37
512.496	5.25
512.846	5.33
513.195	5.31
513.544	5.36
513.893	5.35
514.242	5.37
514.591	5.27
514.939	5.2
515.288	5.41
515.637	5.39
515.986	5.41
516.334	5.52
516.683	5.63
517.032	5.51
517.38	5.48
517.729	5.45
518.077	5.56
518.426	5.61
518.774	5.51
519.122	5.51
519.47	5.55
519.819	5.44
520.167	5.52
520.515	5.43
520.863	5.38
521.211	5.54
521.559	5.6
521.907	5.54
522.255	5.49
522.602	5.53
522.95	5.77
523.298	5.77
523.645	5.68
523.993	5.77
524.341	5.77
524.688	5.65
525.036	5.83
525.383	5.63
525.73	5.71
526.078	5.86
526.425	5.83
526.772	5.75
527.119	5.73
527.466	5.67
527.814	5.69
528.161	5.64
528.508	5.74
528.854	5.76
529.201	5.78
529.548	5.75
529.895	5.72
530.242	5.59
530.588	5.58
530.935	5.63
531.282	5.63
531.628	5.71
531.975	5.8
532.321	5.83
532.667	5.79
533.014	5.81
533.36	5.95
533.706	6.05
534.052	5.99
534.399	6.03
534.745	5.93
535.091	5.85
535.437	5.88
535.783	5.93
536.129	6.05
536.474	6.05
536.82	6.01
537.166	6.21
537.512	6.21
537.857	6.21
538.203	6.1
538.549	6.16
538.894	6.14
539.239	6.29
539.585	6.26
539.93	6.28
540.276	6.4
540.621	6.3
540.966	6.41
541.311	6.39
541.656	6.42
542.001	6.52
542.346	6.45
542.691	6.36
543.036	6.27
543.381	6.19
543.726	6.22
544.071	6.25
544.415	6.37
544.76	6.42
545.105	6.46
545.449	6.4
545.794	6.5
546.138	6.55
546.483	6.58
546.827	6.76
547.171	6.74
547.516	6.64
547.86	6.71
548.204	6.8
548.548	6.69
548.892	6.73
549.236	6.73
549.58	6.83
549.924	6.92
550.268	6.92
550.612	6.85
550.956	6.93
551.3	7.15
551.643	6.94
551.987	7.04
552.33	7.15
552.674	7.11
553.017	7.11
553.361	7
553.704	7.07
554.048	7.38
554.391	7.05
554.734	7.12
555.077	7.37
555.42	7.33
555.764	7.31
556.107	7.45
556.45	7.44
556.793	7.36
557.135	7.44
557.478	7.56
557.821	7.47
558.164	7.66
558.507	7.52
558.849	7.63
559.192	7.69
559.534	7.67
559.877	7.76
560.219	7.79
560.562	7.68
560.904	7.76
561.246	7.71
561.589	7.78
561.931	7.73
562.273	7.73
562.615	7.68
562.957	7.77
563.299	7.95
563.641	7.84
563.983	8.2
564.325	8.04
564.667	8.09
565.008	8.18
565.35	8.3
565.692	8.07
566.033	8.23
566.375	8.37
566.716	8.17
567.058	8.22
567.399	8.21
567.741	8.17
568.082	8.29
568.423	8.2
568.764	8.23
569.105	8.32
569.447	8.43
569.788	8.19
570.129	8.44
570.47	8.34
570.811	8.34
571.151	8.35
571.492	8.77
571.833	8.43
572.174	8.54
572.514	8.56
572.855	8.51
573.195	8.67
573.536	8.6
573.876	8.72
574.217	8.67
574.557	8.63
574.898	8.87
575.238	8.88
575.578	8.89
575.918	8.99
576.258	9.07
576.598	8.85
576.938	9.06
577.278	9.08
577.618	8.97
577.958	8.8
578.298	9.22
578.638	9.34
578.977	9.31
579.317	9.28
579.657	9.26
579.996	9.24
580.336	9.58
580.675	9.43
581.014	9.36
581.354	9.56
581.693	9.7
582.032	9.41
582.372	9.6
582.711	9.35
583.05	9.92
583.389	9.75
583.728	9.8
584.067	9.72
584.406	9.57
584.745	9.9
585.083	9.83
585.422	9.98
585.761	9.81
586.1	9.89
586.438	9.99
586.777	10.16
587.115	9.67
587.454	9.92
587.792	10
588.13	10.18
588.469	10.39
588.807	10.44
589.145	10.59
589.483	10.43
589.821	10.03
590.159	10.4
590.497	10.19
590.835	10.41
591.173	10.42
591.511	10.64
591.849	10.49
592.187	10.31
592.524	10.7
592.862	10.44
593.2	10.64
593.537	10.61
593.875	10.87
594.212	11.04
594.55	10.92
594.887	10.93
595.224	10.6
595.561	10.84
595.899	10.9
596.236	10.88
596.573	11.17
596.91	11.1
597.247	11.19
597.584	10.99
597.921	11.02
598.258	11.01
598.594	10.96
598.931	11.12
599.268	11.18
599.604	11.29
599.941	11.38
600.277	11.24
600.614	11.58
600.95	11.47
601.287	11.52
601.623	11.72
601.959	11.57
602.296	11.61
602.632	11.6
602.968	11.49
603.304	11.83
603.64	11.78
603.976	12.18
604.312	11.88
604.648	11.72
604.984	12
605.319	12.04
605.655	11.82
605.991	11.86
606.326	12.09
606.662	11.65
606.998	11.81
607.333	12.09
607.668	12.14
608.004	11.89
608.339	12.38
608.674	12.44
609.01	12.13
609.345	12.2
609.68	12.55
610.015	12.29
610.35	12.52
610.685	12.27
611.02	12.53
611.355	12.61
611.689	12.56
612.024	12.48
612.359	12.57
612.694	12.73
613.028	12.87
613.363	12.68
613.697	12.86
614.032	12.77
614.366	12.9
614.7	12.78
615.035	13.44
615.369	13.33
615.703	13.23
616.037	13.32
616.371	13.14
616.705	13.12
617.039	13.38
617.373	13.15
617.707	13.48
618.041	13.52
618.375	13.61
618.709	13.57
619.042	13.37
619.376	13.82
619.71	13.7
620.043	13.92
620.377	13.54
620.71	13.78
621.043	13.48
621.377	13.46
621.71	13.97
622.043	13.63
622.376	13.73
622.709	14.47
623.043	14.25
623.376	13.96
623.709	14.28
624.041	14.2
624.374	14.27
624.707	13.73
625.04	14.47
625.373	14.11
625.705	14.56
626.038	14.34
626.37	14.29
626.703	14.66
627.035	14.37
627.368	14.75
627.7	14.5
628.032	14.74
628.365	14.74
628.697	14.48
629.029	14.93
629.361	14.58
629.693	15
630.025	14.81
630.357	14.71
630.689	14.67
631.021	14.72
631.353	14.98
631.684	14.68
632.016	14.92
632.348	15.28
632.679	15.6
633.011	15.29
633.342	15.44
633.674	15.11
634.005	15.51
634.336	15.67
634.668	15.25
634.999	15.71
635.33	15.13
635.661	15.53
635.992	15.67
636.323	15.31
636.654	15.48
636.985	15.51
637.316	15.49
637.647	15.64
637.977	15.91
638.308	16.11
638.639	15.82
638.969	15.76
639.3	16.21
639.63	16.06
639.961	16.2
640.291	16.29
640.622	16.03
640.952	16.28
641.282	16.19
641.612	16.45
641.943	15.86
642.273	16.41
642.603	16.78
642.933	16.66
643.263	16.34
643.592	16.41
643.922	16.54
644.252	16.2
644.582	16.55
644.911	16.58
645.241	16.63
645.571	16.9
645.9	16.08
646.23	16.76
646.559	16.9
646.888	16.75
647.218	17.31
647.547	16.77
647.876	17.03
648.205	17.11
648.534	16.98
648.863	17.13
649.192	16.84
649.521	17.36
649.85	16.78
650.179	17.39
650.508	17.28
650.837	17.13
651.165	17.08
651.494	17.46
651.822	17.29
652.151	17.55
652.479	17.6
652.808	17.46
653.136	17.47
653.465	17.5
653.793	17.38
654.121	17.85
654.449	17.76
654.777	17.66
655.105	17.63
655.433	17.46
655.761	18.05
656.089	17.76
656.417	17.65
656.745	18.17
657.073	18.23
657.4	18.25
657.728	18.22
658.056	19.35
658.383	17.84
658.711	18.29
659.038	18.18
659.365	18.3
659.693	18.59
660.02	18.01
660.347	18.13
660.674	18.47
661.001	18.28
661.329	18.62
661.656	18.62
661.982	18.6
662.309	18.63
662.636	18.97
662.963	19.19
663.29	18.83
663.616	18.77
663.943	18.46
664.27	19.4
664.596	19.26
664.923	18.95
665.249	18.78
665.576	18.91
665.902	19.22
666.228	19.45
666.554	19.62
666.881	18.99
667.207	18.98
667.533	19.73
667.859	19.3
668.185	19.96
668.511	19.44
668.837	19.6
669.162	19.77
669.488	19.79
669.814	19.25
670.139	19.67
670.465	19.71
670.791	19.86
671.116	20.1
671.442	20.18
671.767	20.4
672.092	19.81
672.418	19.87
672.743	19.5
673.068	19.87
673.393	20.16
673.718	20.46
674.043	20.89
674.368	19.61
674.693	19.95
675.018	20.43
675.343	19.69
675.667	20.48
675.992	20.8
676.317	19.9
676.641	20.84
676.966	20.51
677.29	19.74
677.615	21.01
677.939	20.38
678.264	20.54
678.588	21.21
678.912	20.78
679.236	20.51
679.56	20.75
679.885	20.59
680.209	20.44
680.532	20.97
680.856	21.65
681.18	20.64
681.504	20.6
681.828	20.88
682.152	20.91
682.475	21.03
682.799	21.51
683.122	21
683.446	20.61
683.769	21
684.093	21.44
684.416	20.96
684.739	21.36
685.062	21.73
685.386	21.71
685.709	21.06
