Data from 0379_chest_Reflection__2__122.txt Node

Date: Mon Dec 11 19:02:30 CST 2023
User: ToomeyLab
Spectrometer: FLMS14357
Trigger mode: 0
Integration Time (sec): 1.000000E-2
Scans to average: 100
Electric dark correction enabled: true
Nonlinearity correction enabled: false
Boxcar width: 0
XAxis mode: Wavelengths
Number of Pixels in Spectrum: 2048
>>>>>Begin Spectral Data<<<<<
189.047	36.86
189.435	36.86
189.823	36.86
190.211	110.08
190.599	51.64
190.987	-28.97
191.375	97.74
191.763	37.26
192.151	27.51
192.538	120.96
192.926	-653.01
193.314	149.17
193.702	58.69
194.089	21.23
194.477	127.38
194.864	-85.49
195.252	93.87
195.639	328.94
196.027	146.43
196.414	-83
196.801	72.4
197.189	-172.89
197.576	89.03
197.963	-13.55
198.351	22.13
198.738	17.47
199.125	-87.16
199.512	13.98
199.899	-33.41
200.286	20.78
200.673	-73.63
201.06	33.43
201.447	22.98
201.833	18.4
202.22	41.76
202.607	35.53
202.994	46.42
203.38	-62.57
203.767	56.35
204.154	60.4
204.54	27.03
204.927	-48.77
205.313	27.91
205.699	-50.32
206.086	-37.26
206.472	16.16
206.858	23.08
207.245	-8.57
207.631	21.6
208.017	13.65
208.403	-38.6
208.789	-25.06
209.175	10.1
209.561	-28.53
209.947	14.18
210.333	3.63
210.719	-1.41
211.105	53.05
211.491	15.25
211.876	10.5
212.262	1.17
212.648	-18.62
213.034	-0.13
213.419	-3.26
213.805	-17.52
214.19	42.4
214.576	10.31
214.961	-5.52
215.346	17.65
215.732	23.25
216.117	19.54
216.502	19.69
216.888	-17.78
217.273	38.77
217.658	-4.67
218.043	-46.98
218.428	16.07
218.813	25.15
219.198	-10.95
219.583	27.29
219.968	-3.78
220.353	-17.16
220.738	9.89
221.122	4.1
221.507	25.65
221.892	6.19
222.276	13.48
222.661	17.66
223.046	-3.69
223.43	5.27
223.815	0.82
224.199	11.34
224.583	1.17
224.968	2.85
225.352	2.48
225.736	-0.4
226.121	-0.43
226.505	0.65
226.889	9.86
227.273	11.57
227.657	10.11
228.041	7.53
228.425	-0.31
228.809	2.04
229.193	1.12
229.577	3.41
229.961	2.47
230.344	3.21
230.728	2.25
231.112	2.76
231.495	3.02
231.879	3.14
232.263	1.43
232.646	4.22
233.03	3.02
233.413	2.42
233.797	3.35
234.18	4.13
234.563	5.27
234.946	5.1
235.33	4.6
235.713	2.69
236.096	3.82
236.479	3.99
236.862	2.95
237.245	1.36
237.628	2.72
238.011	1.57
238.394	0.96
238.777	3.17
239.16	2.3
239.543	1.42
239.925	1.78
240.308	3.27
240.691	0.33
241.073	3.28
241.456	3.73
241.838	3.9
242.221	3.38
242.603	2.34
242.986	1.85
243.368	2.41
243.75	3.08
244.133	3.14
244.515	2.52
244.897	2.72
245.279	2.8
245.661	3.18
246.043	2.7
246.425	2.12
246.807	2.54
247.189	4.07
247.571	3.33
247.953	2.25
248.335	2.98
248.717	2.74
249.098	2.92
249.48	2.59
249.862	3.16
250.243	3.1
250.625	3.06
251.006	2.54
251.388	3.15
251.769	3.15
252.151	4.37
252.532	2.63
252.913	2.53
253.295	3.06
253.676	2.47
254.057	2.48
254.438	2.99
254.819	2.33
255.2	1.73
255.581	2.49
255.962	2.45
256.343	3.01
256.724	3.14
257.105	2.98
257.486	2.42
257.867	4.02
258.247	0.82
258.628	2.83
259.009	2.96
259.389	3.44
259.77	2.15
260.15	1.95
260.531	2.9
260.911	2.33
261.292	2.07
261.672	2.59
262.052	2.86
262.432	2.67
262.813	2.81
263.193	2.47
263.573	3.01
263.953	2.45
264.333	2.18
264.713	3.2
265.093	2.56
265.473	3.34
265.853	2.41
266.233	1.44
266.612	2.95
266.992	2.8
267.372	3.7
267.752	2.91
268.131	2.53
268.511	2.64
268.89	2.75
269.27	3.19
269.649	2.5
270.029	3
270.408	2.17
270.787	2.27
271.167	2.05
271.546	1.94
271.925	2.77
272.304	2.56
272.683	2.74
273.062	2.15
273.441	2.43
273.82	2.38
274.199	2.8
274.578	2.48
274.957	2.34
275.336	2.89
275.715	2.91
276.093	2.85
276.472	3.07
276.851	2.9
277.229	3.09
277.608	2.72
277.986	3.03
278.365	2.87
278.743	2.44
279.122	2.57
279.5	2.92
279.878	2.48
280.257	2.43
280.635	2.37
281.013	2.32
281.391	3.13
281.769	2.37
282.147	2.37
282.525	2.4
282.903	2.44
283.281	2.34
283.659	2.37
284.037	2.05
284.415	2.47
284.792	3.05
285.17	2.66
285.548	2.19
285.925	2.51
286.303	2.71
286.68	2.31
287.058	2.55
287.435	2.51
287.813	2.67
288.19	2.57
288.567	2.33
288.945	2.4
289.322	1.96
289.699	2.25
290.076	2.32
290.453	2.91
290.83	2.96
291.207	2.55
291.584	2.31
291.961	2.29
292.338	2.81
292.715	3.01
293.092	2.64
293.469	2.67
293.845	2.57
294.222	3.05
294.599	2.02
294.975	2.69
295.352	2.55
295.728	2.69
296.105	2.47
296.481	2.18
296.858	2.62
297.234	3.18
297.61	3.01
297.986	3.11
298.363	2.45
298.739	2.66
299.115	2.51
299.491	2.79
299.867	2.64
300.243	2.78
300.619	2.82
300.995	2.12
301.371	2.44
301.746	2.86
302.122	3.07
302.498	3.01
302.874	2.55
303.249	2.71
303.625	2.8
304	3.27
304.376	2.66
304.751	2.61
305.127	3.52
305.502	3
305.878	3.21
306.253	3.41
306.628	3.36
307.003	2.79
307.378	2.59
307.754	2.7
308.129	3.27
308.504	2.82
308.879	2.38
309.254	3.49
309.629	3.18
310.003	3.16
310.378	2.77
310.753	2.81
311.128	2.92
311.502	2.71
311.877	2.95
312.252	2.75
312.626	3.08
313.001	2.99
313.375	2.37
313.75	2.51
314.124	2.85
314.498	2.77
314.873	2.95
315.247	2.74
315.621	3.13
315.995	3.67
316.369	2.93
316.743	3.36
317.117	3.19
317.491	3.03
317.865	2.67
318.239	3.22
318.613	3.1
318.987	2.58
319.361	3.42
319.734	3.08
320.108	2.71
320.482	2.55
320.855	2.77
321.229	2.59
321.602	2.88
321.976	3.87
322.349	2.89
322.723	3.02
323.096	3.5
323.469	3.42
323.843	2.75
324.216	3.22
324.589	3.1
324.962	2.63
325.335	2.79
325.708	3.36
326.081	3.7
326.454	2.98
326.827	3.3
327.2	2.9
327.573	2.81
327.945	3.23
328.318	2.79
328.691	2.76
329.063	3.15
329.436	3.44
329.809	3.32
330.181	3.62
330.553	3.08
330.926	3.11
331.298	3.46
331.671	3.19
332.043	3.32
332.415	3.35
332.787	3.2
333.159	3.1
333.532	3.65
333.904	3.48
334.276	3.54
334.648	3.72
335.02	3.01
335.391	2.98
335.763	3.71
336.135	3.27
336.507	3.17
336.879	3.41
337.25	2.67
337.622	2.84
337.993	3.39
338.365	3.19
338.736	3.57
339.108	3.65
339.479	3.18
339.851	3.09
340.222	3.01
340.593	3.26
340.964	3.39
341.336	3.22
341.707	2.81
342.078	3.53
342.449	3.08
342.82	2.92
343.191	2.9
343.562	3.27
343.933	3.3
344.303	2.83
344.674	3.53
345.045	3.1
345.416	2.75
345.786	3.35
346.157	3.16
346.527	3.09
346.898	3.37
347.268	3.13
347.639	3.45
348.009	3.4
348.38	2.56
348.75	3.16
349.12	3.33
349.49	2.91
349.861	3.35
350.231	2.93
350.601	3.9
350.971	3.11
351.341	2.74
351.711	3.34
352.081	3.06
352.45	3.32
352.82	2.76
353.19	3.11
353.56	3.02
353.929	3.44
354.299	3.06
354.669	3.7
355.038	3
355.408	2.86
355.777	3.13
356.147	3.48
356.516	3.29
356.885	3.16
357.254	3.52
357.624	3.34
357.993	3.15
358.362	3.22
358.731	3.02
359.1	3.12
359.469	3.24
359.838	3.14
360.207	2.85
360.576	3.31
360.945	3.48
361.314	3.68
361.682	3.18
362.051	3.06
362.42	2.97
362.788	3.12
363.157	3.1
363.525	2.97
363.894	3.22
364.262	3.43
364.631	3.1
364.999	3.18
365.367	3.41
365.735	3.34
366.104	3.12
366.472	3.15
366.84	3.1
367.208	3.38
367.576	3.38
367.944	3.29
368.312	3.46
368.68	3.21
369.048	3.18
369.416	3.01
369.783	3.13
370.151	3.41
370.519	3.61
370.886	3.24
371.254	3.5
371.621	3.52
371.989	3.37
372.356	3.39
372.724	3.39
373.091	3.61
373.458	3.26
373.826	3.05
374.193	3.35
374.56	3.37
374.927	3.33
375.294	3.27
375.661	3.26
376.028	3.43
376.395	3.71
376.762	3.21
377.129	3.71
377.496	3.42
377.863	3.52
378.229	3.57
378.596	3.25
378.963	3.74
379.329	3.36
379.696	3.56
380.062	3.01
380.429	3.16
380.795	3.47
381.161	3.51
381.528	3.51
381.894	3.3
382.26	3.17
382.626	3.58
382.993	3.5
383.359	3.5
383.725	3.4
384.091	3.29
384.457	2.88
384.823	3.75
385.188	3.29
385.554	3.04
385.92	3.31
386.286	3.51
386.651	3.44
387.017	3.43
387.383	3.36
387.748	3.51
388.114	3.47
388.479	3.45
388.845	3.42
389.21	3.33
389.575	3.45
389.94	3.63
390.306	3.44
390.671	3.38
391.036	3.43
391.401	3.65
391.766	3.42
392.131	3.52
392.496	3.4
392.861	3.71
393.226	3.51
393.591	3.69
393.956	3.45
394.32	3.43
394.685	3.24
395.05	3.66
395.414	3.55
395.779	3.46
396.143	3.14
396.508	3.44
396.872	3.53
397.236	3.48
397.601	3.48
397.965	3.57
398.329	3.5
398.694	3.58
399.058	3.62
399.422	3.51
399.786	3.5
400.15	3.36
400.514	3.73
400.878	3.71
401.242	3.54
401.605	3.54
401.969	3.43
402.333	3.21
402.697	3.67
403.06	3.39
403.424	3.68
403.787	3.81
404.151	3.36
404.514	3.37
404.878	3.64
405.241	3.46
405.604	3.57
405.968	3.62
406.331	3.41
406.694	3.62
407.057	3.41
407.42	3.65
407.783	3.52
408.146	3.85
408.509	3.53
408.872	3.65
409.235	3.36
409.598	3.49
409.961	3.74
410.323	3.77
410.686	3.79
411.049	3.58
411.411	3.52
411.774	3.75
412.136	3.64
412.499	3.78
412.861	3.35
413.223	3.61
413.586	3.86
413.948	3.73
414.31	3.55
414.672	3.37
415.035	3.65
415.397	3.75
415.759	3.73
416.121	3.74
416.483	3.5
416.845	3.69
417.206	3.63
417.568	3.65
417.93	3.61
418.292	3.48
418.653	3.44
419.015	3.47
419.377	3.54
419.738	3.67
420.1	3.67
420.461	3.55
420.822	3.54
421.184	3.55
421.545	3.56
421.906	3.42
422.267	3.54
422.629	3.49
422.99	3.55
423.351	3.41
423.712	3.4
424.073	3.51
424.434	3.5
424.795	3.51
425.155	3.63
425.516	3.51
425.877	3.4
426.238	3.52
426.598	3.48
426.959	3.55
427.32	3.57
427.68	3.65
428.041	3.48
428.401	3.47
428.761	3.6
429.122	3.53
429.482	3.66
429.842	3.76
430.202	3.66
430.563	3.73
430.923	3.76
431.283	3.66
431.643	3.73
432.003	3.6
432.363	3.72
432.722	3.62
433.082	3.68
433.442	3.7
433.802	3.52
434.161	3.72
434.521	3.51
434.881	3.69
435.24	3.6
435.6	3.49
435.959	3.68
436.319	3.54
436.678	3.59
437.037	3.56
437.396	3.95
437.756	3.82
438.115	3.68
438.474	3.89
438.833	3.56
439.192	3.5
439.551	3.75
439.91	3.74
440.269	3.86
440.628	3.57
440.987	3.82
441.345	3.61
441.704	3.74
442.063	3.7
442.421	3.71
442.78	3.54
443.138	3.73
443.497	3.65
443.855	3.52
444.214	3.9
444.572	3.66
444.93	3.88
445.288	3.76
445.647	3.7
446.005	3.44
446.363	3.66
446.721	3.72
447.079	3.64
447.437	3.63
447.795	3.66
448.153	3.8
448.51	3.67
448.868	3.61
449.226	3.55
449.584	3.69
449.941	3.66
450.299	3.7
450.656	3.66
451.014	3.71
451.371	3.57
451.729	3.85
452.086	3.74
452.443	3.92
452.801	3.81
453.158	3.84
453.515	3.71
453.872	3.78
454.229	3.72
454.586	3.6
454.943	3.87
455.3	3.9
455.657	3.96
456.014	3.89
456.371	3.97
456.727	3.86
457.084	3.86
457.441	4.01
457.797	3.81
458.154	3.93
458.51	3.94
458.867	3.67
459.223	3.8
459.58	3.87
459.936	3.87
460.292	3.77
460.648	3.85
461.005	3.78
461.361	3.65
461.717	3.71
462.073	3.75
462.429	3.73
462.785	3.73
463.141	3.75
463.496	3.83
463.852	3.79
464.208	3.72
464.564	3.77
464.919	3.9
465.275	3.75
465.631	3.86
465.986	3.83
466.342	3.85
466.697	3.94
467.052	3.8
467.408	3.97
467.763	3.88
468.118	3.69
468.473	3.75
468.829	3.94
469.184	4.02
469.539	3.89
469.894	3.73
470.249	3.94
470.603	3.9
470.958	4.02
471.313	3.89
471.668	4.01
472.023	4.09
472.377	3.8
472.732	3.85
473.086	4.13
473.441	4.03
473.795	3.99
474.15	3.86
474.504	3.95
474.859	3.99
475.213	4.01
475.567	3.86
475.921	4.04
476.275	3.99
476.63	3.99
476.984	3.83
477.338	3.95
477.692	3.86
478.045	3.75
478.399	3.69
478.753	3.77
479.107	3.95
479.461	3.94
479.814	3.95
480.168	3.98
480.521	3.99
480.875	3.9
481.228	3.81
481.582	4.03
481.935	3.92
482.289	3.97
482.642	3.94
482.995	3.93
483.348	3.98
483.701	3.82
484.055	3.9
484.408	3.79
484.761	3.87
485.114	3.87
485.466	3.71
485.819	3.64
486.172	3.68
486.525	3.73
486.878	3.78
487.23	3.84
487.583	3.84
487.936	3.88
488.288	3.87
488.641	3.74
488.993	3.78
489.345	3.85
489.698	3.77
490.05	3.8
490.402	3.79
490.754	3.89
491.107	3.92
491.459	3.84
491.811	4.02
492.163	3.96
492.515	3.99
492.866	3.85
493.218	3.78
493.57	3.84
493.922	3.88
494.274	3.92
494.625	3.97
494.977	4.11
495.328	4.03
495.68	4.13
496.031	4.02
496.383	4.05
496.734	4.15
497.086	4.21
497.437	4.17
497.788	4.14
498.139	4.13
498.49	4.09
498.842	4.18
499.193	4.2
499.544	4.1
499.894	4.2
500.245	4.11
500.596	4.19
500.947	4.06
501.298	4.3
501.648	4.16
501.999	4.05
502.35	4.31
502.7	4.28
503.051	4.14
503.401	4.15
503.752	4.13
504.102	4.28
504.452	4.19
504.803	4.27
505.153	4.32
505.503	4.27
505.853	4.29
506.203	4.17
506.553	4.29
506.903	4.26
507.253	4.27
507.603	4.2
507.953	4.2
508.303	4.32
508.652	4.23
509.002	4.28
509.352	4.35
509.701	4.3
510.051	4.17
510.4	4.18
510.75	4.26
511.099	4.26
511.449	4.3
511.798	4.27
512.147	4.39
512.496	4.27
512.846	4.33
513.195	4.36
513.544	4.42
513.893	4.35
514.242	4.44
514.591	4.25
514.939	4.3
515.288	4.47
515.637	4.42
515.986	4.31
516.334	4.37
516.683	4.47
517.032	4.45
517.38	4.41
517.729	4.43
518.077	4.54
518.426	4.55
518.774	4.48
519.122	4.4
519.47	4.39
519.819	4.34
520.167	4.34
520.515	4.27
520.863	4.34
521.211	4.39
521.559	4.5
521.907	4.52
522.255	4.44
522.602	4.48
522.95	4.65
523.298	4.5
523.645	4.59
523.993	4.6
524.341	4.54
524.688	4.6
525.036	4.49
525.383	4.55
525.73	4.74
526.078	4.73
526.425	4.59
526.772	4.71
527.119	4.51
527.466	4.56
527.814	4.53
528.161	4.55
528.508	4.54
528.854	4.56
529.201	4.52
529.548	4.51
529.895	4.51
530.242	4.42
530.588	4.36
530.935	4.46
531.282	4.45
531.628	4.52
531.975	4.55
532.321	4.6
532.667	4.64
533.014	4.59
533.36	4.69
533.706	4.84
534.052	4.71
534.399	4.71
534.745	4.71
535.091	4.58
535.437	4.59
535.783	4.67
536.129	4.69
536.474	4.85
536.82	4.8
537.166	4.78
537.512	4.82
537.857	4.87
538.203	4.88
538.549	4.83
538.894	4.76
539.239	4.84
539.585	4.74
539.93	4.76
540.276	5.01
540.621	5.03
540.966	5.07
541.311	4.98
541.656	4.92
542.001	5.05
542.346	4.92
542.691	4.97
543.036	4.81
543.381	4.8
543.726	4.87
544.071	4.88
544.415	4.92
544.76	4.91
545.105	4.93
545.449	5.02
545.794	5.02
546.138	5.1
546.483	5.06
546.827	5.18
547.171	5.18
547.516	5.12
547.86	5.21
548.204	5.26
548.548	5.07
548.892	5.17
549.236	5.15
549.58	5.28
549.924	5.33
550.268	5.22
550.612	5.27
550.956	5.28
551.3	5.36
551.643	5.41
551.987	5.57
552.33	5.47
552.674	5.46
553.017	5.33
553.361	5.39
553.704	5.37
554.048	5.45
554.391	5.44
554.734	5.53
555.077	5.52
555.42	5.72
555.764	5.6
556.107	5.6
556.45	5.7
556.793	5.47
557.135	5.63
557.478	5.7
557.821	5.72
558.164	5.69
558.507	5.57
558.849	5.66
559.192	5.73
559.534	5.68
559.877	5.84
560.219	5.8
560.562	5.83
560.904	5.82
561.246	5.86
561.589	5.74
561.931	5.89
562.273	5.74
562.615	5.87
562.957	5.89
563.299	6.08
563.641	5.86
563.983	6.14
564.325	6.17
564.667	6.01
565.008	6.23
565.35	6.06
565.692	6.16
566.033	6.24
566.375	6.32
566.716	6.15
567.058	6.18
567.399	6.11
567.741	5.96
568.082	6.11
568.423	6.11
568.764	6.26
569.105	6.23
569.447	6.21
569.788	6.17
570.129	6.27
570.47	6.09
570.811	6.26
571.151	6.24
571.492	6.47
571.833	6.38
572.174	6.57
572.514	6.37
572.855	6.21
573.195	6.43
573.536	6.35
573.876	6.54
574.217	6.44
574.557	6.39
574.898	6.55
575.238	6.63
575.578	6.6
575.918	6.69
576.258	6.68
576.598	6.68
576.938	6.8
577.278	6.54
577.618	6.71
577.958	6.52
578.298	6.73
578.638	6.98
578.977	6.92
579.317	6.9
579.657	6.77
579.996	6.75
580.336	6.97
580.675	7.06
581.014	6.9
581.354	6.93
581.693	7.15
582.032	6.89
582.372	7.43
582.711	6.93
583.05	7.18
583.389	7.32
583.728	7.37
584.067	7.15
584.406	7.21
584.745	7.24
585.083	7.4
585.422	7.27
585.761	7.47
586.1	7.28
586.438	7.32
586.777	7.55
587.115	7.03
587.454	7.18
587.792	7.45
588.13	7.5
588.469	7.52
588.807	7.56
589.145	7.54
589.483	7.7
589.821	7.38
590.159	7.68
590.497	7.57
590.835	7.57
591.173	7.54
591.511	8.03
591.849	7.94
592.187	7.54
592.524	7.76
592.862	7.72
593.2	7.76
593.537	7.77
593.875	7.89
594.212	7.92
594.55	7.81
594.887	8.01
595.224	8.01
595.561	8.06
595.899	7.99
596.236	7.97
596.573	7.83
596.91	8.02
597.247	8.12
597.584	8.02
597.921	7.79
598.258	8.03
598.594	7.88
598.931	8.06
599.268	8.36
599.604	8.41
599.941	8.36
600.277	8.18
600.614	8.44
600.95	8.36
601.287	8.39
601.623	8.56
601.959	8.52
602.296	8.3
602.632	8.39
602.968	8.57
603.304	8.81
603.64	8.75
603.976	8.65
604.312	8.39
604.648	8.66
604.984	8.77
605.319	8.71
605.655	8.57
605.991	8.79
606.326	8.66
606.662	8.56
606.998	8.73
607.333	8.85
607.668	8.89
608.004	8.76
608.339	9.11
608.674	9.27
609.01	9.16
609.345	9.09
609.68	8.85
610.015	9.18
610.35	9.23
610.685	9.15
611.02	9.32
611.355	9.42
611.689	9.07
612.024	9.16
612.359	9.12
612.694	9.44
613.028	9.36
613.363	9.23
613.697	9.39
614.032	9.28
614.366	9.63
614.7	9.48
615.035	9.6
615.369	9.73
615.703	9.65
616.037	9.61
616.371	9.83
616.705	9.81
617.039	9.77
617.373	9.84
617.707	10.11
618.041	10.03
618.375	9.87
618.709	9.83
619.042	9.7
619.376	10.2
619.71	10
620.043	10.01
620.377	9.87
620.71	10.26
621.043	10.34
621.377	9.68
621.71	10.21
622.043	9.63
622.376	10.13
622.709	10.21
623.043	10.33
623.376	10.29
623.709	10.57
624.041	10.42
624.374	10.53
624.707	10.21
625.04	10.64
625.373	10.62
625.705	10.53
626.038	10.27
626.37	10.97
626.703	10.91
627.035	10.66
627.368	10.54
627.7	10.27
628.032	10.71
628.365	11.11
628.697	10.61
629.029	10.82
629.361	10.7
629.693	10.8
630.025	10.68
630.357	10.66
630.689	10.7
631.021	10.9
631.353	11.2
631.684	11.17
632.016	11.42
632.348	11.27
632.679	11.63
633.011	11.1
633.342	11.29
633.674	11.56
634.005	11.56
634.336	11.45
634.668	11.71
634.999	11.81
635.33	11.25
635.661	11.66
635.992	11.56
636.323	11.34
636.654	11.7
636.985	11.44
637.316	11.34
637.647	11.7
637.977	11.89
638.308	11.64
638.639	11.75
638.969	11.97
639.3	11.98
639.63	11.99
639.961	12
640.291	12.12
640.622	11.64
640.952	12.37
641.282	12.29
641.612	12.31
641.943	12.39
642.273	11.76
642.603	12.62
642.933	12.12
643.263	12.18
643.592	12.02
643.922	12.16
644.252	11.89
644.582	12.66
644.911	12.72
645.241	12.37
645.571	12.55
645.9	11.74
646.23	12.44
646.559	12.19
646.888	12.46
647.218	12.61
647.547	12.7
647.876	12.99
648.205	12.75
648.534	12.67
648.863	12.9
649.192	12.75
649.521	12.82
649.85	12.72
650.179	12.76
650.508	12.69
650.837	12.64
651.165	13.08
651.494	13.44
651.822	12.86
652.151	13.14
652.479	12.97
652.808	13.58
653.136	13.2
653.465	13.28
653.793	13.09
654.121	12.97
654.449	12.96
654.777	13.5
655.105	13.02
655.433	13.46
655.761	13.37
656.089	13.37
656.417	13.37
656.745	13.62
657.073	13.86
657.4	13.81
657.728	13.25
658.056	13.85
658.383	13.6
658.711	13.55
659.038	13.82
659.365	13.97
659.693	13.84
660.02	13.87
660.347	13.71
660.674	13.37
661.001	13.79
661.329	14.14
661.656	14.15
661.982	14.02
662.309	13.96
662.636	14.34
662.963	14.44
663.29	14.03
663.616	13.72
663.943	14.23
664.27	14.29
664.596	14.69
664.923	14.36
665.249	13.98
665.576	14.15
665.902	13.78
666.228	14.82
666.554	14.74
666.881	14.93
667.207	14.94
667.533	14.38
667.859	14.46
668.185	14.95
668.511	14.41
668.837	15.3
669.162	14.52
669.488	14.99
669.814	14.45
670.139	14.49
670.465	15.37
670.791	15.41
671.116	14.85
671.442	14.86
671.767	15.64
672.092	15.22
672.418	15.1
672.743	14.66
673.068	15.35
673.393	15.63
673.718	15.13
674.043	15.36
674.368	15.24
674.693	15.27
675.018	15.38
675.343	15.56
675.667	15.77
675.992	15.93
676.317	15.28
676.641	16.37
676.966	15.94
677.29	15.37
677.615	16.57
677.939	15.69
678.264	15.54
678.588	15.92
678.912	16.23
679.236	15.93
679.56	15.41
679.885	15.61
680.209	15.95
680.532	16.47
680.856	16.45
681.18	16.23
681.504	15.99
681.828	15.62
682.152	15.53
682.475	16.51
682.799	16.11
683.122	16.7
683.446	15.53
683.769	16.28
684.093	16.5
684.416	16.35
684.739	16.97
685.062	16.65
685.386	16.39
685.709	16.61
686.032	16.73
686.355	16.6
686.678	16.73
687.001	17.05
687.324	16.29
