Data from 0379_crown_Reflection__3__128.txt Node

Date: Mon Dec 11 19:04:46 CST 2023
User: ToomeyLab
Spectrometer: FLMS14357
Trigger mode: 0
Integration Time (sec): 1.000000E-2
Scans to average: 100
Electric dark correction enabled: true
Nonlinearity correction enabled: false
Boxcar width: 0
XAxis mode: Wavelengths
Number of Pixels in Spectrum: 2048
>>>>>Begin Spectral Data<<<<<
189.047	-31.67
189.435	-31.67
189.823	-31.67
190.211	77.81
190.599	214.65
190.987	-425.9
191.375	77.72
191.763	128.61
192.151	-63.17
192.538	17.05
192.926	-429.51
193.314	138.17
193.702	-15.19
194.089	-23.68
194.477	108.97
194.864	141.95
195.252	2801.23
195.639	-139.02
196.027	282.63
196.414	-111.41
196.801	-1.16
197.189	49.83
197.576	136.08
197.963	-74.28
198.351	-82.49
198.738	3.76
199.125	-50.35
199.512	-6.22
199.899	-86.06
200.286	12.59
200.673	-105.78
201.06	-10.25
201.447	-98.96
201.833	-4.7
202.22	20.61
202.607	-40.27
202.994	-174.59
203.38	-117.84
203.767	21.3
204.154	27.4
204.54	-0.24
204.927	-23.16
205.313	-86.99
205.699	-50.34
206.086	-50.01
206.472	9.27
206.858	33.76
207.245	-33.03
207.631	-9.29
208.017	-9
208.403	49.32
208.789	-40.02
209.175	7.34
209.561	-35.04
209.947	-42.38
210.333	22.33
210.719	41.52
211.105	16.16
211.491	9.98
211.876	-6.87
212.262	-6.31
212.648	-52.65
213.034	-12.95
213.419	18.29
213.805	-14.58
214.19	-12.95
214.576	-36.92
214.961	-18.19
215.346	-24.15
215.732	-14.43
216.117	3.81
216.502	-3.21
216.888	-1.04
217.273	17.19
217.658	-1.54
218.043	-63.45
218.428	-20
218.813	11.89
219.198	10.66
219.583	-1.99
219.968	-24.28
220.353	-35.99
220.738	25.75
221.122	-32.61
221.507	15.54
221.892	-2.11
222.276	13.12
222.661	-13.03
223.046	-21.97
223.43	-7.06
223.815	-8.06
224.199	5.65
224.583	0.93
224.968	1.65
225.352	2.44
225.736	1.09
226.121	-2.42
226.505	-12.4
226.889	2.22
227.273	-3.51
227.657	8.05
228.041	0.75
228.425	-4.97
228.809	-1.33
229.193	0.78
229.577	0.82
229.961	0.33
230.344	1.56
230.728	1.08
231.112	1.35
231.495	1.92
231.879	0.98
232.263	0.41
232.646	2.41
233.03	0.93
233.413	0.15
233.797	2.6
234.18	0.1
234.563	3.05
234.946	-0.72
235.33	2.1
235.713	1.19
236.096	-0.01
236.479	1.29
236.862	-1.52
237.245	1.9
237.628	1.88
238.011	-0.3
238.394	-0.48
238.777	-1.18
239.16	0.09
239.543	2.97
239.925	-1.62
240.308	1.81
240.691	0.3
241.073	1.36
241.456	1.54
241.838	2.34
242.221	2.55
242.603	0.08
242.986	1.58
243.368	0.91
243.75	2.09
244.133	1.36
244.515	0.83
244.897	1.1
245.279	1.39
245.661	1.71
246.043	0.72
246.425	1.43
246.807	0.97
247.189	1.07
247.571	1.3
247.953	1.02
248.335	1.37
248.717	1.17
249.098	1.11
249.48	1.15
249.862	1.88
250.243	1.05
250.625	1.7
251.006	1.1
251.388	1.55
251.769	1.42
252.151	2.36
252.532	0.92
252.913	0.76
253.295	1.92
253.676	1.18
254.057	1.18
254.438	1.77
254.819	0.88
255.2	0.59
255.581	1.13
255.962	0.9
256.343	0.02
256.724	1.53
257.105	0.75
257.486	0.82
257.867	1.84
258.247	-0.08
258.628	1.8
259.009	1.26
259.389	1.22
259.77	1.45
260.15	0.9
260.531	1.49
260.911	1.13
261.292	1.07
261.672	1.19
262.052	1.32
262.432	1.48
262.813	1.36
263.193	1.03
263.573	0.93
263.953	1.54
264.333	0.51
264.713	1.5
265.093	0.74
265.473	1.12
265.853	1.04
266.233	0.47
266.612	0.92
266.992	1.19
267.372	1.98
267.752	0.93
268.131	1.14
268.511	1.32
268.89	1.57
269.27	1.89
269.649	1.44
270.029	1.31
270.408	1.19
270.787	1.06
271.167	0.57
271.546	1.15
271.925	1.12
272.304	1.16
272.683	1.18
273.062	0.9
273.441	1.18
273.82	0.74
274.199	0.96
274.578	1.03
274.957	1.38
275.336	1.3
275.715	1.12
276.093	1.51
276.472	1.31
276.851	1.67
277.229	1.28
277.608	1.45
277.986	1.15
278.365	0.86
278.743	1.11
279.122	1.46
279.5	1.45
279.878	1.22
280.257	1.5
280.635	0.96
281.013	0.48
281.391	1.42
281.769	0.93
282.147	0.6
282.525	0.44
282.903	1.65
283.281	0.9
283.659	0.63
284.037	0.89
284.415	0.9
284.792	1.9
285.17	1.15
285.548	0.89
285.925	0.62
286.303	0.78
286.68	1.35
287.058	1.16
287.435	1.21
287.813	1.45
288.19	1.19
288.567	0.87
288.945	1.12
289.322	1.03
289.699	0.95
290.076	1.07
290.453	1.45
290.83	1.71
291.207	1.43
291.584	1.56
291.961	1.23
292.338	1.55
292.715	1.52
293.092	0.97
293.469	1.29
293.845	1.31
294.222	1.03
294.599	1.14
294.975	0.88
295.352	0.58
295.728	1.3
296.105	0.97
296.481	1.32
296.858	1.25
297.234	1.66
297.61	1.63
297.986	1.76
298.363	1.21
298.739	1.56
299.115	1.12
299.491	1.36
299.867	1.27
300.243	1.3
300.619	1.07
300.995	0.97
301.371	1.2
301.746	1.47
302.122	0.99
302.498	1.05
302.874	1.58
303.249	1.72
303.625	1.2
304	1.79
304.376	1.11
304.751	0.49
305.127	1.13
305.502	1.85
305.878	1.04
306.253	1.55
306.628	1.3
307.003	1.22
307.378	1
307.754	1.66
308.129	1.15
308.504	0.83
308.879	0.4
309.254	1.87
309.629	1.75
310.003	1.59
310.378	0.75
310.753	1.49
311.128	1.1
311.502	0.88
311.877	1.47
312.252	1.68
312.626	1.35
313.001	1.62
313.375	1.04
313.75	1.63
314.124	1.31
314.498	1.62
314.873	1.46
315.247	1.22
315.621	2.36
315.995	1.76
316.369	1.45
316.743	1.84
317.117	1.8
317.491	1.58
317.865	1.16
318.239	1.69
318.613	1.55
318.987	1.1
319.361	1.5
319.734	1.15
320.108	0.91
320.482	1.63
320.855	1.07
321.229	1.6
321.602	1.73
321.976	1.73
322.349	1.33
322.723	1.09
323.096	2.13
323.469	1.62
323.843	1.67
324.216	1.9
324.589	2.15
324.962	1.59
325.335	1.28
325.708	1.48
326.081	1.82
326.454	2.12
326.827	1.61
327.2	1.25
327.573	1.12
327.945	2.12
328.318	1.3
328.691	1.59
329.063	1.54
329.436	1.28
329.809	1.22
330.181	1.79
330.553	1.6
330.926	1.11
331.298	1.94
331.671	1.51
332.043	1.73
332.415	1.58
332.787	1.78
333.159	1.46
333.532	1.39
333.904	1.69
334.276	2.32
334.648	1.52
335.02	1.29
335.391	1.29
335.763	1.83
336.135	1.76
336.507	1.3
336.879	1.73
337.25	1.36
337.622	1.4
337.993	1.59
338.365	1.51
338.736	1.68
339.108	1.61
339.479	1.59
339.851	1.85
340.222	1.71
340.593	0.93
340.964	1.79
341.336	1.77
341.707	1.37
342.078	1.93
342.449	1.82
342.82	1.28
343.191	1.38
343.562	1.7
343.933	1.23
344.303	1.32
344.674	0.98
345.045	1.52
345.416	1.44
345.786	1.51
346.157	1.65
346.527	1.92
346.898	1.55
347.268	1.6
347.639	1.64
348.009	2.01
348.38	1.24
348.75	1.48
349.12	2.15
349.49	1.58
349.861	1.6
350.231	1.37
350.601	1.99
350.971	1.78
351.341	1.6
351.711	1.73
352.081	1.57
352.45	1.61
352.82	1.31
353.19	1.44
353.56	1.49
353.929	1.26
354.299	2.25
354.669	2.05
355.038	1.78
355.408	1.2
355.777	1.45
356.147	1.65
356.516	1.29
356.885	1.47
357.254	2.03
357.624	1.91
357.993	1.36
358.362	1.84
358.731	1.69
359.1	1.45
359.469	1.65
359.838	1.75
360.207	1.57
360.576	1.68
360.945	2
361.314	1.84
361.682	1.75
362.051	1.78
362.42	1.43
362.788	1.34
363.157	1.66
363.525	1.45
363.894	1.71
364.262	1.78
364.631	1.85
364.999	1.84
365.367	1.93
365.735	1.91
366.104	1.51
366.472	1.42
366.84	1.31
367.208	1.46
367.576	2.06
367.944	1.85
368.312	1.78
368.68	1.93
369.048	1.66
369.416	1.27
369.783	1.79
370.151	1.77
370.519	2.18
370.886	1.76
371.254	1.95
371.621	2.03
371.989	2.01
372.356	1.75
372.724	1.91
373.091	1.8
373.458	1.6
373.826	1.78
374.193	1.97
374.56	1.89
374.927	2.01
375.294	2.14
375.661	1.74
376.028	1.81
376.395	1.79
376.762	1.93
377.129	2.03
377.496	1.86
377.863	1.9
378.229	1.85
378.596	2.28
378.963	1.88
379.329	1.68
379.696	1.99
380.062	1.55
380.429	1.75
380.795	2.04
381.161	1.68
381.528	2.04
381.894	1.91
382.26	2.02
382.626	1.56
382.993	1.78
383.359	1.78
383.725	1.63
384.091	1.58
384.457	1.82
384.823	2.1
385.188	1.78
385.554	1.56
385.92	1.63
386.286	1.82
386.651	1.63
387.017	1.74
387.383	1.72
387.748	1.84
388.114	1.56
388.479	1.79
388.845	1.82
389.21	1.52
389.575	1.74
389.94	1.82
390.306	1.88
390.671	1.76
391.036	1.8
391.401	2.01
391.766	1.63
392.131	1.9
392.496	2.2
392.861	1.83
393.226	1.81
393.591	2.03
393.956	1.71
394.32	2.01
394.685	1.82
395.05	1.96
395.414	2.04
395.779	1.67
396.143	1.6
396.508	1.85
396.872	1.78
397.236	1.91
397.601	1.93
397.965	2.05
398.329	1.75
398.694	1.75
399.058	1.7
399.422	1.83
399.786	1.94
400.15	1.77
400.514	2.1
400.878	1.76
401.242	1.82
401.605	1.92
401.969	1.71
402.333	1.9
402.697	1.84
403.06	1.85
403.424	1.96
403.787	2.17
404.151	1.87
404.514	1.88
404.878	1.96
405.241	1.96
405.604	1.92
405.968	1.69
406.331	1.74
406.694	1.85
407.057	1.92
407.42	2.06
407.783	1.97
408.146	2.03
408.509	1.77
408.872	1.92
409.235	1.74
409.598	1.68
409.961	1.94
410.323	1.91
410.686	2.06
411.049	1.97
411.411	1.97
411.774	1.88
412.136	1.91
412.499	1.94
412.861	1.77
413.223	1.95
413.586	2
413.948	2.06
414.31	1.86
414.672	1.66
415.035	1.92
415.397	1.73
415.759	1.99
416.121	1.92
416.483	1.75
416.845	2.1
417.206	1.93
417.568	1.89
417.93	1.97
418.292	1.84
418.653	1.88
419.015	1.82
419.377	1.95
419.738	1.9
420.1	1.82
420.461	1.86
420.822	1.81
421.184	1.85
421.545	1.72
421.906	1.88
422.267	2.01
422.629	1.82
422.99	1.84
423.351	1.81
423.712	1.78
424.073	1.9
424.434	1.88
424.795	2
425.155	1.94
425.516	1.87
425.877	1.71
426.238	1.81
426.598	1.81
426.959	1.88
427.32	1.93
427.68	1.8
428.041	1.74
428.401	1.87
428.761	1.97
429.122	1.86
429.482	1.82
429.842	1.85
430.202	1.92
430.563	1.83
430.923	1.88
431.283	1.84
431.643	1.88
432.003	1.96
432.363	2.14
432.722	1.87
433.082	1.95
433.442	2.05
433.802	1.9
434.161	2.18
434.521	1.83
434.881	2.02
435.24	1.89
435.6	1.88
435.959	1.93
436.319	1.9
436.678	1.97
437.037	1.81
437.396	1.85
437.756	1.99
438.115	2.14
438.474	1.97
438.833	1.98
439.192	1.97
439.551	2.07
439.91	1.88
440.269	1.91
440.628	1.76
440.987	2.03
441.345	1.9
441.704	1.93
442.063	1.88
442.421	1.96
442.78	1.88
443.138	1.95
443.497	1.88
443.855	1.85
444.214	1.96
444.572	1.94
444.93	2.02
445.288	1.96
445.647	2.08
446.005	1.7
446.363	1.95
446.721	1.98
447.079	1.92
447.437	1.88
447.795	1.87
448.153	2
448.51	1.9
448.868	1.77
449.226	1.79
449.584	1.94
449.941	2.02
450.299	1.99
450.656	1.95
451.014	1.95
451.371	1.83
451.729	2.16
452.086	1.97
452.443	2.05
452.801	2.01
453.158	1.95
453.515	1.91
453.872	2.02
454.229	1.97
454.586	1.88
454.943	2
455.3	2.07
455.657	1.99
456.014	1.97
456.371	2.15
456.727	2.08
457.084	1.88
457.441	1.91
457.797	2.05
458.154	2.07
458.51	2.1
458.867	1.88
459.223	2.07
459.58	1.87
459.936	1.96
460.292	1.87
460.648	1.98
461.005	1.91
461.361	1.91
461.717	1.9
462.073	1.85
462.429	1.98
462.785	1.89
463.141	2.01
463.496	1.98
463.852	1.92
464.208	1.85
464.564	2.03
464.919	2.07
465.275	1.94
465.631	1.81
465.986	1.94
466.342	2.1
466.697	1.92
467.052	1.88
467.408	2.12
467.763	2.06
468.118	1.9
468.473	1.95
468.829	2.05
469.184	2.29
469.539	2
469.894	1.76
470.249	1.92
470.603	2.08
470.958	1.99
471.313	1.97
471.668	2.01
472.023	2.07
472.377	1.93
472.732	2.01
473.086	2.1
473.441	2.07
473.795	1.9
474.15	2.02
474.504	2.04
474.859	2.05
475.213	2.06
475.567	1.99
475.921	1.89
476.275	2.05
476.63	1.94
476.984	2.06
477.338	1.89
477.692	1.99
478.045	2.02
478.399	1.91
478.753	1.82
479.107	1.93
479.461	2.11
479.814	1.94
480.168	2.07
480.521	2.09
480.875	2
481.228	1.86
481.582	2.18
481.935	2.01
482.289	2.02
482.642	1.98
482.995	1.92
483.348	1.83
483.701	1.81
484.055	2.05
484.408	1.97
484.761	1.92
485.114	1.85
485.466	1.87
485.819	1.79
486.172	1.81
486.525	1.86
486.878	1.91
487.23	1.93
487.583	1.94
487.936	1.93
488.288	1.93
488.641	1.88
488.993	1.84
489.345	1.9
489.698	1.85
490.05	1.85
490.402	1.83
490.754	1.92
491.107	1.89
491.459	1.92
491.811	2.04
492.163	2.11
492.515	1.95
492.866	1.98
493.218	1.78
493.57	1.86
493.922	1.89
494.274	1.97
494.625	2.01
494.977	2
495.328	2.03
495.68	2.08
496.031	2.04
496.383	1.98
496.734	2.15
497.086	2.09
497.437	2.04
497.788	2.03
498.139	2.14
498.49	2.01
498.842	2.09
499.193	2.03
499.544	1.99
499.894	1.95
500.245	2.02
500.596	2.12
500.947	2.03
501.298	1.96
501.648	2.02
501.999	1.96
502.35	2.03
502.7	2.14
503.051	1.88
503.401	1.95
503.752	1.9
504.102	2.14
504.452	1.99
504.803	2.21
505.153	2.06
505.503	2.11
505.853	2.13
506.203	1.89
506.553	2.09
506.903	1.94
507.253	1.98
507.603	2
507.953	2.14
508.303	1.95
508.652	1.98
509.002	2.12
509.352	2.16
509.701	2.09
510.051	2
510.4	2.01
510.75	1.96
511.099	2.08
511.449	2.07
511.798	2.09
512.147	2.11
512.496	1.98
512.846	2.07
513.195	2.08
513.544	2.1
513.893	1.98
514.242	2.07
514.591	1.95
514.939	1.92
515.288	2.08
515.637	1.93
515.986	1.9
516.334	2
516.683	2.09
517.032	2.13
517.38	2.18
517.729	2.04
518.077	2.07
518.426	2.21
518.774	2.13
519.122	2.04
519.47	1.99
519.819	1.94
520.167	1.91
520.515	1.96
520.863	1.95
521.211	1.98
521.559	2.07
521.907	2.07
522.255	1.98
522.602	2.02
522.95	2.1
523.298	2.03
523.645	2.19
523.993	1.98
524.341	2.12
524.688	1.97
525.036	2.02
525.383	2.01
525.73	2.23
526.078	2.11
526.425	2
526.772	2.02
527.119	1.95
527.466	2
527.814	2.06
528.161	1.95
528.508	2.01
528.854	1.99
529.201	1.94
529.548	1.97
529.895	1.97
530.242	1.96
530.588	1.9
530.935	1.93
531.282	1.99
531.628	1.95
531.975	2
532.321	2.06
532.667	2
533.014	1.91
533.36	2.01
533.706	2.02
534.052	2.04
534.399	2
534.745	2.02
535.091	1.93
535.437	1.93
535.783	1.98
536.129	2.09
536.474	2.03
536.82	2.01
537.166	2.01
537.512	2.14
537.857	2.06
538.203	2.02
538.549	2.11
538.894	2.06
539.239	2.11
539.585	2.04
539.93	1.99
540.276	2.06
540.621	1.98
540.966	2.15
541.311	2.03
541.656	2.09
542.001	2.16
542.346	2.01
542.691	1.99
543.036	1.94
543.381	1.91
543.726	1.93
544.071	2.02
544.415	1.94
544.76	1.97
545.105	2.03
545.449	1.92
545.794	2.07
546.138	2.05
546.483	2.05
546.827	2.17
547.171	1.95
547.516	2.01
547.86	2.03
548.204	2.07
548.548	1.94
548.892	2.06
549.236	2.03
549.58	2.06
549.924	2.12
550.268	2.03
550.612	2.16
550.956	2.03
551.3	2.16
551.643	2.15
551.987	2.21
552.33	2.27
552.674	2.25
553.017	2.13
553.361	1.98
553.704	2.02
554.048	2.32
554.391	2.01
554.734	1.99
555.077	2.12
555.42	2.2
555.764	2.07
556.107	2.12
556.45	2.04
556.793	2.03
557.135	2.14
557.478	2.03
557.821	2.05
558.164	2.21
558.507	1.92
558.849	2.27
559.192	2.08
559.534	2.03
559.877	2.09
560.219	2.25
560.562	2.11
560.904	2.24
561.246	2.17
561.589	2.2
561.931	2.03
562.273	2.01
562.615	2.12
562.957	2.12
563.299	2.3
563.641	2.12
563.983	2.43
564.325	2.29
564.667	2.17
565.008	2.09
565.35	2.25
565.692	2.06
566.033	2.12
566.375	2.35
566.716	2.16
567.058	2.14
567.399	2
567.741	1.92
568.082	2.03
568.423	2.02
568.764	2.06
569.105	2.07
569.447	2.15
569.788	2.12
570.129	2.15
570.47	1.85
570.811	1.97
571.151	2.13
571.492	2.18
571.833	2.07
572.174	2.36
572.514	2.03
572.855	1.9
573.195	2.05
573.536	2.09
573.876	2.02
574.217	2.2
574.557	2.01
574.898	2.02
575.238	2.23
575.578	2.15
575.918	2.22
576.258	2.2
576.598	2.18
576.938	2.26
577.278	2.16
577.618	2.09
577.958	2.14
578.298	2.31
578.638	2.19
578.977	2.28
579.317	2.16
579.657	1.98
579.996	2.04
580.336	2.31
580.675	2.34
581.014	2.4
581.354	2.26
581.693	2.23
582.032	1.91
582.372	2.38
582.711	2.1
583.05	2.1
583.389	2.15
583.728	2.48
584.067	2.34
584.406	2.07
584.745	2.28
585.083	2.01
585.422	2.21
585.761	2.19
586.1	2.19
586.438	2.04
586.777	2.2
587.115	1.85
587.454	2.12
587.792	2.21
588.13	2.18
588.469	2.09
588.807	2.2
589.145	2.23
589.483	2.14
589.821	1.95
590.159	2.1
590.497	2.14
590.835	2.28
591.173	2.05
591.511	2.22
591.849	2.2
592.187	1.9
592.524	2.35
592.862	2.32
593.2	2.12
593.537	2.15
593.875	2.17
594.212	2.23
594.55	2.33
594.887	2.25
595.224	2.19
595.561	1.96
595.899	2.12
596.236	1.97
596.573	2.12
596.91	1.69
597.247	2.18
597.584	2.13
597.921	1.99
598.258	2.04
598.594	2.21
598.931	2.04
599.268	2.1
599.604	2.19
599.941	2.31
600.277	2.06
600.614	2.33
600.95	2.02
601.287	2.23
601.623	2.1
601.959	2.26
602.296	2.23
602.632	2.15
602.968	1.9
603.304	2.39
603.64	2.08
603.976	2.23
604.312	2.16
604.648	2.07
604.984	2.29
605.319	2.24
605.655	2.06
605.991	2.04
606.326	2.2
606.662	2.2
606.998	2.09
607.333	2.17
607.668	2.15
608.004	2
608.339	2.49
608.674	2.31
609.01	2.18
609.345	2.23
609.68	2.12
610.015	2.12
610.35	2.24
610.685	2.06
611.02	2.09
611.355	2.2
611.689	2.23
612.024	2.07
612.359	2
612.694	2.28
613.028	2.05
613.363	2.12
613.697	2.17
614.032	2.19
614.366	2.22
614.7	2.37
615.035	2.34
615.369	2.31
615.703	2.15
616.037	2.18
616.371	2.32
616.705	2.1
617.039	2.15
617.373	2.2
617.707	2.34
618.041	2.32
618.375	2.54
618.709	2.34
619.042	2.25
619.376	2.48
619.71	2.18
620.043	2.23
620.377	2.53
620.71	2.38
621.043	2.18
621.377	1.63
621.71	2.35
622.043	1.88
622.376	2.16
622.709	2.39
623.043	2.5
623.376	2.16
623.709	2.32
624.041	2.03
624.374	2.26
624.707	2.07
625.04	2.32
625.373	2.24
625.705	1.89
626.038	1.83
626.37	2.05
626.703	2.08
627.035	2.14
627.368	1.99
627.7	2.05
628.032	2.07
628.365	2.24
628.697	2.1
629.029	2.22
629.361	2.16
629.693	2.38
630.025	2.35
630.357	1.91
630.689	2.08
631.021	2.25
631.353	2.04
631.684	2.15
632.016	2.34
632.348	2.3
632.679	2.61
633.011	2.25
633.342	2.27
633.674	2.41
634.005	2.32
634.336	2.15
634.668	2.31
634.999	2.71
635.33	1.8
635.661	2.37
635.992	2.4
636.323	2.34
636.654	2.5
636.985	2.17
637.316	2.34
637.647	2.32
637.977	2.31
638.308	2.45
638.639	2.58
638.969	2.2
639.3	2.58
639.63	1.92
639.961	2.1
640.291	2.54
640.622	2.53
640.952	2.87
641.282	1.92
641.612	2.74
641.943	2.43
642.273	1.99
642.603	2.41
642.933	2.2
643.263	2.25
643.592	2.08
643.922	2.58
644.252	1.85
644.582	2.29
644.911	2.34
645.241	2.42
645.571	2.7
645.9	2.26
646.23	1.92
646.559	2.24
646.888	2.37
647.218	2.31
647.547	2.15
647.876	2.32
648.205	1.85
648.534	2.39
648.863	2.82
649.192	2.21
649.521	2.1
649.85	2.12
650.179	2.17
650.508	2.32
650.837	1.78
651.165	2.89
651.494	2.31
651.822	2.29
652.151	2.34
652.479	1.99
652.808	2.13
653.136	2.12
653.465	2.31
653.793	2.1
654.121	2.29
654.449	2.51
654.777	2.49
655.105	2.31
655.433	2.29
655.761	2.66
656.089	2.14
656.417	2.11
656.745	2.37
657.073	2.27
657.4	2.34
657.728	3.03
658.056	2.58
658.383	2.02
658.711	2.92
659.038	2.46
659.365	2.61
659.693	2.37
660.02	2.41
660.347	2.85
660.674	2.05
661.001	2.12
661.329	2.18
661.656	2.42
661.982	2.58
662.309	2.51
662.636	2.42
662.963	2.48
663.29	2.19
663.616	2.02
663.943	2.36
664.27	2.8
664.596	2.44
664.923	1.8
665.249	2.58
665.576	2.17
665.902	1.9
666.228	1.79
666.554	2.37
666.881	2.12
667.207	2.52
667.533	2.64
667.859	2.36
668.185	2.98
668.511	2.81
668.837	2.97
669.162	2.62
669.488	2.17
669.814	1.9
670.139	2.25
670.465	2.74
670.791	2.09
671.116	2.74
671.442	2.9
671.767	2.64
672.092	2.64
672.418	2.18
672.743	2.37
673.068	2.58
673.393	2.7
673.718	2.22
674.043	2.5
674.368	2.61
674.693	2.2
675.018	2.46
675.343	2.61
675.667	2.4
675.992	3.16
676.317	2.3
676.641	2.94
676.966	2.71
677.29	1.83
677.615	2.81
677.939	2.33
678.264	2.02
678.588	3.05
678.912	2.07
679.236	2.21
679.56	2.39
679.885	2.31
680.209	2.3
680.532	2.74
680.856	2.59
681.18	2.07
681.504	2.25
681.828	1.99
682.152	2.1
682.475	2.78
682.799	2.46
683.122	2.25
683.446	2.08
683.769	2.37
684.093	2.53
684.416	2.45
684.739	3
685.062	2.42
685.386	2.38
685.709	2.31
686.032	2.69
686.355	2.34
686.678	2.32
687.001	2.93
687.324	1.98
687.646	2.16
687.969	2.65
688.292	3.63
688.614	2.88
688.937	2.48
689.26	2.65
689.582	1.7
689.904	2.81
690.227	3.14
690.549	2.76
690.871	1.71
691.194	2.21
691.516	1.99
691.838	3.05
692.16	3.17
692.482	3.2
