Data from 0379_forehead_Reflection__2__133.txt Node

Date: Mon Dec 11 19:06:04 CST 2023
User: ToomeyLab
Spectrometer: FLMS14357
Trigger mode: 0
Integration Time (sec): 1.000000E-2
Scans to average: 100
Electric dark correction enabled: true
Nonlinearity correction enabled: false
Boxcar width: 0
XAxis mode: Wavelengths
Number of Pixels in Spectrum: 2048
>>>>>Begin Spectral Data<<<<<
189.047	74.62
189.435	74.62
189.823	74.62
190.211	-32.46
190.599	148.06
190.987	-690.79
191.375	-29.6
191.763	75.67
192.151	41.63
192.538	63.96
192.926	-273.88
193.314	162.63
193.702	22.42
194.089	-54.56
194.477	11.72
194.864	-82.79
195.252	838.04
195.639	183.46
196.027	239.23
196.414	191.65
196.801	66.81
197.189	-57.21
197.576	75.64
197.963	-18.72
198.351	40.61
198.738	27.97
199.125	28.65
199.512	-14.11
199.899	-34.03
200.286	11.64
200.673	-64.89
201.06	29.86
201.447	86.27
201.833	58.5
202.22	27.81
202.607	-6.77
202.994	54.85
203.38	-47.13
203.767	38.05
204.154	16.69
204.54	16.28
204.927	-8.54
205.313	-42.31
205.699	-17.78
206.086	-57.41
206.472	52.22
206.858	26.08
207.245	-5.34
207.631	-5.89
208.017	57.65
208.403	43.64
208.789	13.26
209.175	19.71
209.561	6.14
209.947	5
210.333	42.51
210.719	36.59
211.105	20.55
211.491	25.08
211.876	23.22
212.262	-16.86
212.648	53.42
213.034	9.4
213.419	-13.56
213.805	-11.29
214.19	8.38
214.576	-3.99
214.961	31.11
215.346	-45.64
215.732	-17.53
216.117	4.61
216.502	13.38
216.888	5.14
217.273	22.4
217.658	-27.12
218.043	-19.16
218.428	21.87
218.813	21.08
219.198	18.15
219.583	15.17
219.968	5.13
220.353	-20.18
220.738	35.44
221.122	16.31
221.507	34.15
221.892	4.11
222.276	5.43
222.661	4.11
223.046	-1.81
223.43	14.86
223.815	2.43
224.199	8.82
224.583	3.64
224.968	-0.89
225.352	1.62
225.736	8.4
226.121	6.18
226.505	-3.55
226.889	6.77
227.273	2.71
227.657	11.82
228.041	6.35
228.425	0.41
228.809	-2.33
229.193	2.15
229.577	2.85
229.961	5
230.344	3.06
230.728	2.03
231.112	2.68
231.495	2.6
231.879	2.16
232.263	2.33
232.646	1.86
233.03	2.63
233.413	3.31
233.797	3.9
234.18	2.48
234.563	1.41
234.946	4.22
235.33	4.3
235.713	1.81
236.096	2.88
236.479	3.41
236.862	1.49
237.245	3.27
237.628	1.46
238.011	0.85
238.394	3.26
238.777	3.53
239.16	1.68
239.543	2.03
239.925	1.89
240.308	4.61
240.691	1.35
241.073	3.49
241.456	5.2
241.838	5.56
242.221	3.04
242.603	1.33
242.986	2.11
243.368	2.36
243.75	2.89
244.133	2.44
244.515	2.42
244.897	2.37
245.279	2.56
245.661	2.69
246.043	2.69
246.425	3.46
246.807	2.76
247.189	2.19
247.571	3.22
247.953	2.47
248.335	2.8
248.717	2.6
249.098	2.48
249.48	2.36
249.862	2.81
250.243	2.4
250.625	2.72
251.006	2.28
251.388	2.84
251.769	3.23
252.151	3.67
252.532	2.52
252.913	2.42
253.295	2.99
253.676	2.88
254.057	2.68
254.438	3.13
254.819	3.34
255.2	2.52
255.581	1.62
255.962	2.21
256.343	2.68
256.724	2.7
257.105	2.89
257.486	3.12
257.867	4.02
258.247	2.91
258.628	2.44
259.009	3.22
259.389	3.8
259.77	2.66
260.15	2.24
260.531	2.7
260.911	2.28
261.292	2.35
261.672	2.79
262.052	2.73
262.432	2.63
262.813	2.74
263.193	2
263.573	3.08
263.953	2.37
264.333	2.5
264.713	3.24
265.093	2.5
265.473	3.23
265.853	3.19
266.233	2.86
266.612	3.35
266.992	2.98
267.372	3.72
267.752	3.38
268.131	3.54
268.511	2.28
268.89	3.11
269.27	3
269.649	3.31
270.029	3.73
270.408	2.52
270.787	2.12
271.167	2.14
271.546	2.27
271.925	2.99
272.304	2.73
272.683	2.5
273.062	2.57
273.441	2.63
273.82	2.69
274.199	2.15
274.578	2.8
274.957	2.42
275.336	2.57
275.715	2.32
276.093	3.35
276.472	2.32
276.851	3.23
277.229	2.8
277.608	2.62
277.986	3.04
278.365	2.57
278.743	2.77
279.122	2.28
279.5	2.66
279.878	2.38
280.257	2.67
280.635	2.28
281.013	2.5
281.391	2.97
281.769	2.35
282.147	2.27
282.525	2.05
282.903	2.84
283.281	2.48
283.659	2.02
284.037	2.2
284.415	2.45
284.792	2.79
285.17	2.81
285.548	2.54
285.925	2.26
286.303	3.17
286.68	2.87
287.058	2.67
287.435	2.55
287.813	3.06
288.19	2.47
288.567	2.62
288.945	3.03
289.322	2.35
289.699	2.6
290.076	2.1
290.453	2.73
290.83	3.17
291.207	2.9
291.584	2.84
291.961	3.17
292.338	2.49
292.715	3.17
293.092	2.75
293.469	2.56
293.845	2.96
294.222	3.23
294.599	2.63
294.975	2.81
295.352	2.46
295.728	3.34
296.105	2.8
296.481	2.91
296.858	3.25
297.234	3.31
297.61	3.58
297.986	3.3
298.363	2.97
298.739	3.29
299.115	3.02
299.491	3.14
299.867	3.37
300.243	3.78
300.619	3.26
300.995	3.21
301.371	3.27
301.746	3.02
302.122	3.46
302.498	3.79
302.874	3.36
303.249	3.52
303.625	3.52
304	3.3
304.376	3.69
304.751	3.35
305.127	3.44
305.502	3.85
305.878	3.7
306.253	3.88
306.628	3.75
307.003	3.67
307.378	3.9
307.754	4.32
308.129	3.77
308.504	3.72
308.879	3.86
309.254	4.31
309.629	4.14
310.003	4.2
310.378	3.94
310.753	4.25
311.128	4.04
311.502	4.28
311.877	4.33
312.252	4.51
312.626	4.22
313.001	4.72
313.375	4.23
313.75	4.21
314.124	4.36
314.498	4.18
314.873	4.78
315.247	4.35
315.621	5.16
315.995	5.18
316.369	4.57
316.743	5.69
317.117	4.55
317.491	5.35
317.865	4.58
318.239	5.93
318.613	5.3
318.987	5.51
319.361	5.52
319.734	4.88
320.108	5.06
320.482	5.12
320.855	5.15
321.229	4.98
321.602	5.35
321.976	5.97
322.349	5.27
322.723	4.74
323.096	5.91
323.469	5.62
323.843	5.66
324.216	5.83
324.589	5.93
324.962	4.96
325.335	5.89
325.708	6.21
326.081	6.33
326.454	5.79
326.827	5.36
327.2	5.42
327.573	5.34
327.945	5.96
328.318	5.9
328.691	5.73
329.063	5.89
329.436	5.79
329.809	5.5
330.181	6.52
330.553	5.64
330.926	6.01
331.298	6.28
331.671	5.74
332.043	5.99
332.415	6.11
332.787	6.51
333.159	6.33
333.532	6.26
333.904	6.42
334.276	6.93
334.648	6.87
335.02	6.51
335.391	6.46
335.763	7.04
336.135	6.69
336.507	6.66
336.879	6.77
337.25	6.79
337.622	6.37
337.993	6.86
338.365	6.41
338.736	6.97
339.108	7.21
339.479	6.69
339.851	6.54
340.222	6.4
340.593	6.33
340.964	7.09
341.336	7.05
341.707	6.68
342.078	7.01
342.449	6.68
342.82	6.92
343.191	7.19
343.562	6.76
343.933	7.08
344.303	6.94
344.674	7.15
345.045	7.32
345.416	6.79
345.786	7.11
346.157	7.39
346.527	7.21
346.898	7.38
347.268	6.98
347.639	7.58
348.009	7.49
348.38	7.2
348.75	7.43
349.12	7.58
349.49	7.34
349.861	7.2
350.231	7.16
350.601	8
350.971	7.54
351.341	7.25
351.711	8.15
352.081	7.58
352.45	8.06
352.82	7.18
353.19	7.6
353.56	7.57
353.929	8.06
354.299	7.65
354.669	8.16
355.038	7.93
355.408	7.36
355.777	8.11
356.147	8.41
356.516	8.13
356.885	8.34
357.254	8.42
357.624	8.15
357.993	8.3
358.362	8.07
358.731	7.74
359.1	8.09
359.469	8.21
359.838	8.06
360.207	8.1
360.576	8.51
360.945	8.38
361.314	8.87
361.682	8.4
362.051	8.16
362.42	8.38
362.788	7.98
363.157	8.16
363.525	8.12
363.894	8.59
364.262	8.5
364.631	8.42
364.999	8.39
365.367	8.63
365.735	8.87
366.104	8.53
366.472	8.59
366.84	8.52
367.208	8.55
367.576	9.05
367.944	8.6
368.312	9.11
368.68	8.83
369.048	8.83
369.416	8.79
369.783	8.83
370.151	9.21
370.519	9.6
370.886	8.8
371.254	9.02
371.621	9.39
371.989	9.15
372.356	9.58
372.724	9.5
373.091	9.45
373.458	9.28
373.826	9.35
374.193	9.46
374.56	9.44
374.927	9.72
375.294	9.38
375.661	9.7
376.028	10
376.395	9.84
376.762	9.79
377.129	10.06
377.496	9.5
377.863	9.74
378.229	9.46
378.596	9.91
378.963	9.94
379.329	9.55
379.696	9.82
380.062	9.63
380.429	10.06
380.795	10.49
381.161	9.98
381.528	10.12
381.894	10
382.26	9.96
382.626	10.1
382.993	10.49
383.359	10.35
383.725	10.17
384.091	10.12
384.457	10.07
384.823	10.73
385.188	10.16
385.554	10.19
385.92	10.27
386.286	10.5
386.651	10.72
387.017	10.83
387.383	10.57
387.748	10.64
388.114	10.63
388.479	10.76
388.845	10.73
389.21	10.93
389.575	10.75
389.94	10.88
390.306	11.02
390.671	11.04
391.036	10.77
391.401	11
391.766	10.91
392.131	11.05
392.496	11.29
392.861	11.04
393.226	10.98
393.591	11.08
393.956	11.08
394.32	11.26
394.685	11.11
395.05	11.33
395.414	11.23
395.779	11.29
396.143	11.11
396.508	11.24
396.872	11.45
397.236	11.38
397.601	11.36
397.965	11.35
398.329	11.74
398.694	11.53
399.058	11.74
399.422	11.82
399.786	11.36
400.15	11.97
400.514	11.94
400.878	11.77
401.242	11.52
401.605	11.74
401.969	11.76
402.333	12.02
402.697	11.8
403.06	11.85
403.424	11.96
403.787	12.07
404.151	11.82
404.514	11.73
404.878	12.13
405.241	12.05
405.604	11.99
405.968	11.82
406.331	11.99
406.694	12.18
407.057	12.29
407.42	12.41
407.783	12.29
408.146	12.23
408.509	12.23
408.872	12.3
409.235	12.17
409.598	12.24
409.961	12.51
410.323	12.64
410.686	12.65
411.049	12.88
411.411	12.53
411.774	12.77
412.136	12.4
412.499	12.63
412.861	12.51
413.223	12.65
413.586	12.98
413.948	12.88
414.31	12.63
414.672	12.63
415.035	12.71
415.397	12.96
415.759	13.02
416.121	13.12
416.483	12.96
416.845	13
417.206	13.06
417.568	13.14
417.93	13.16
418.292	12.8
418.653	12.99
419.015	13.15
419.377	13.28
419.738	13.18
420.1	13.08
420.461	13.09
420.822	13.15
421.184	13.01
421.545	13.09
421.906	13.09
422.267	13.15
422.629	13.17
422.99	13.16
423.351	13.19
423.712	13.21
424.073	13.3
424.434	13.34
424.795	13.49
425.155	13.45
425.516	13.46
425.877	13.38
426.238	13.45
426.598	13.41
426.959	13.45
427.32	13.58
427.68	13.57
428.041	13.62
428.401	13.57
428.761	13.95
429.122	13.62
429.482	13.8
429.842	14.04
430.202	14.01
430.563	14.06
430.923	14.16
431.283	14.21
431.643	14.17
432.003	14.34
432.363	14.15
432.722	14.27
433.082	14.31
433.442	14.22
433.802	14.49
434.161	14.42
434.521	14.11
434.881	14.44
435.24	14.49
435.6	14.29
435.959	14.47
436.319	14.53
436.678	14.43
437.037	14.6
437.396	14.63
437.756	14.7
438.115	14.79
438.474	14.99
438.833	14.73
439.192	14.83
439.551	14.98
439.91	14.91
440.269	14.93
440.628	14.78
440.987	14.98
441.345	14.91
441.704	14.97
442.063	15.04
442.421	14.82
442.78	14.91
443.138	14.97
443.497	14.98
443.855	15.01
444.214	15.11
444.572	15.16
444.93	15.24
445.288	15.37
445.647	15.39
446.005	15.22
446.363	15.31
446.721	15.31
447.079	15.21
447.437	15.43
447.795	15.29
448.153	15.32
448.51	15.36
448.868	15.07
449.226	15.09
449.584	15.45
449.941	15.46
450.299	15.55
450.656	15.52
451.014	15.79
451.371	15.69
451.729	15.94
452.086	15.86
452.443	15.97
452.801	16.01
453.158	15.9
453.515	15.81
453.872	16.15
454.229	16.12
454.586	16.15
454.943	16.08
455.3	16.22
455.657	16.22
456.014	16.29
456.371	16.37
456.727	16.43
457.084	16.47
457.441	16.35
457.797	16.28
458.154	16.38
458.51	16.72
458.867	16.23
459.223	16.58
459.58	16.59
459.936	16.67
460.292	16.58
460.648	16.44
461.005	16.57
461.361	16.53
461.717	16.43
462.073	16.35
462.429	16.48
462.785	16.55
463.141	16.56
463.496	16.9
463.852	16.82
464.208	16.96
464.564	16.99
464.919	16.93
465.275	16.86
465.631	17.08
465.986	17.27
466.342	17.17
466.697	17.13
467.052	17.42
467.408	17.4
467.763	17.3
468.118	17.21
468.473	17.09
468.829	17.46
469.184	17.54
469.539	17.47
469.894	17.37
470.249	17.53
470.603	17.45
470.958	17.59
471.313	17.66
471.668	17.58
472.023	17.77
472.377	17.82
472.732	17.6
473.086	17.92
473.441	17.93
473.795	17.88
474.15	17.87
474.504	18.01
474.859	18
475.213	17.85
475.567	18.06
475.921	17.96
476.275	17.94
476.63	18.14
476.984	18.18
477.338	18.14
477.692	18.34
478.045	18.43
478.399	18.19
478.753	18.29
479.107	18.17
479.461	18.39
479.814	18.32
480.168	18.4
480.521	18.53
480.875	18.51
481.228	18.39
481.582	18.62
481.935	18.55
482.289	18.5
482.642	18.63
482.995	18.56
483.348	18.67
483.701	18.44
484.055	18.55
484.408	18.32
484.761	18.38
485.114	18.36
485.466	17.99
485.819	17.9
486.172	17.89
486.525	17.9
486.878	18.01
487.23	18.13
487.583	18.36
487.936	18.46
488.288	18.64
488.641	18.56
488.993	18.41
489.345	18.39
489.698	18.37
490.05	18.37
490.402	18.37
490.754	18.6
491.107	18.69
491.459	18.93
491.811	19.09
492.163	19.19
492.515	19.25
492.866	19.15
493.218	18.92
493.57	18.81
493.922	18.87
494.274	18.96
494.625	19.05
494.977	19.32
495.328	19.38
495.68	19.62
496.031	19.65
496.383	19.87
496.734	19.79
497.086	19.93
497.437	20.08
497.788	20.09
498.139	19.94
498.49	19.98
498.842	20.01
499.193	20.13
499.544	19.95
499.894	20.11
500.245	20.04
500.596	20.35
500.947	20.21
501.298	20.44
501.648	20.35
501.999	20.34
502.35	20.6
502.7	20.7
503.051	20.53
503.401	20.61
503.752	20.65
504.102	20.64
504.452	20.66
504.803	20.83
505.153	21.03
505.503	21.02
505.853	20.9
506.203	20.84
506.553	21.03
506.903	20.96
507.253	21.02
507.603	20.97
507.953	21.06
508.303	21.1
508.652	21.13
509.002	21.04
509.352	21.28
509.701	21.26
510.051	21.12
510.4	21.21
510.75	21.14
511.099	21.31
511.449	21.22
511.798	21.2
512.147	21.41
512.496	21.3
512.846	21.43
513.195	21.48
513.544	21.45
513.893	21.45
514.242	21.52
514.591	21.48
514.939	21.59
515.288	21.79
515.637	21.79
515.986	21.62
516.334	21.92
516.683	22.02
517.032	21.96
517.38	22.06
517.729	22.07
518.077	22.08
518.426	22.22
518.774	22.04
519.122	22.1
519.47	22.17
519.819	21.96
520.167	21.87
520.515	21.87
520.863	21.93
521.211	22.02
521.559	22.06
521.907	22.09
522.255	22.16
522.602	22.44
522.95	22.45
523.298	22.61
523.645	22.67
523.993	22.68
524.341	22.7
524.688	22.82
525.036	22.78
525.383	22.9
525.73	22.93
526.078	23.04
526.425	22.83
526.772	22.76
527.119	22.64
527.466	22.53
527.814	22.54
528.161	22.62
528.508	22.68
528.854	22.69
529.201	22.79
529.548	22.81
529.895	22.57
530.242	22.35
530.588	22.36
530.935	22.37
531.282	22.41
531.628	22.48
531.975	22.55
532.321	22.8
532.667	22.85
533.014	22.97
533.36	23.22
533.706	23.29
534.052	23.25
534.399	23.26
534.745	23.2
535.091	23.09
535.437	22.96
535.783	23.1
536.129	23.26
536.474	23.35
536.82	23.51
537.166	23.57
537.512	23.81
537.857	23.77
538.203	23.77
538.549	23.65
538.894	23.74
539.239	23.81
539.585	23.81
539.93	24.03
540.276	24.17
540.621	24.29
540.966	24.63
541.311	24.3
541.656	24.51
542.001	24.46
542.346	24.45
542.691	24.2
543.036	23.84
543.381	23.79
543.726	23.91
544.071	23.83
544.415	24.08
544.76	24.11
545.105	24.27
545.449	24.35
545.794	24.39
546.138	24.61
546.483	24.66
546.827	24.87
547.171	24.86
547.516	24.87
547.86	25.05
548.204	24.95
548.548	24.9
548.892	24.93
549.236	24.94
549.58	25.21
549.924	25.12
550.268	25.27
550.612	25.44
550.956	25.55
551.3	25.47
551.643	25.74
551.987	25.86
552.33	25.98
552.674	25.84
553.017	25.87
553.361	25.9
553.704	25.89
554.048	26.07
554.391	26.11
554.734	26.06
555.077	26.1
555.42	26.14
555.764	25.86
556.107	26.13
556.45	26.25
556.793	26.3
557.135	26.32
557.478	26.39
557.821	26.4
558.164	26.53
558.507	26.33
558.849	26.62
559.192	26.64
559.534	26.4
559.877	26.63
560.219	26.46
560.562	26.67
560.904	26.9
561.246	26.97
561.589	26.89
561.931	27
562.273	26.76
562.615	26.91
562.957	27.13
563.299	27.15
563.641	26.93
563.983	27.32
564.325	27.36
564.667	27.29
565.008	27.24
565.35	27.27
565.692	27.36
566.033	27.43
566.375	27.54
566.716	27.45
567.058	27.51
567.399	27.58
567.741	27.47
568.082	27.34
568.423	27.56
568.764	27.59
569.105	27.45
569.447	27.66
569.788	27.63
570.129	27.56
570.47	27.76
570.811	27.85
571.151	27.96
571.492	28.18
571.833	27.96
572.174	27.9
572.514	28.1
572.855	28.02
573.195	28.25
573.536	27.95
573.876	28.03
574.217	28.12
574.557	28.2
574.898	28.21
575.238	28.36
575.578	28.29
575.918	28.37
576.258	28.41
576.598	28.31
576.938	28.66
577.278	28.46
577.618	28.61
577.958	28.62
578.298	28.82
578.638	28.93
578.977	28.95
579.317	28.85
579.657	28.74
579.996	28.75
580.336	28.79
580.675	28.96
581.014	29.25
581.354	28.98
581.693	29.43
582.032	28.95
582.372	29.15
582.711	29.04
583.05	29.29
583.389	29.48
583.728	29.28
584.067	29.5
584.406	29.2
584.745	29.62
585.083	29.37
585.422	29.84
585.761	29.85
586.1	29.78
586.438	29.57
586.777	29.93
587.115	29.61
587.454	29.82
587.792	30.08
588.13	29.91
588.469	29.79
588.807	30.28
589.145	30.39
589.483	30.26
589.821	29.66
590.159	30.33
590.497	30.12
590.835	30.3
591.173	30.37
591.511	30.59
591.849	30.64
592.187	30.29
592.524	30.35
592.862	30.3
593.2	30.69
593.537	30.56
593.875	30.62
594.212	30.72
594.55	30.33
594.887	30.56
595.224	30.82
595.561	30.92
595.899	30.64
596.236	30.84
596.573	30.76
596.91	30.83
597.247	30.58
597.584	30.95
597.921	30.59
598.258	31.07
598.594	30.86
598.931	30.68
599.268	30.89
599.604	30.9
599.941	30.89
600.277	30.88
600.614	31.41
600.95	31.33
601.287	31.48
601.623	31.47
601.959	31.01
602.296	31.42
602.632	31.51
602.968	31.36
603.304	31.85
603.64	31.38
603.976	31.66
604.312	31.65
604.648	31.58
604.984	31.75
605.319	31.78
605.655	31.63
605.991	31.73
606.326	31.6
606.662	31.39
606.998	31.33
607.333	31.29
607.668	31.6
608.004	31.73
608.339	31.77
608.674	31.82
609.01	31.98
609.345	32.21
609.68	32.08
610.015	32.18
610.35	32.15
610.685	32.42
611.02	32.07
611.355	32.57
611.689	32.31
612.024	32.34
612.359	32.28
612.694	32.05
613.028	32.38
613.363	32.35
613.697	32.52
614.032	32.67
614.366	33.01
614.7	32.74
615.035	33.06
615.369	32.91
615.703	32.67
616.037	32.74
616.371	32.77
616.705	32.82
617.039	33.5
617.373	32.93
617.707	33.17
618.041	33.27
618.375	33.27
618.709	33.11
619.042	33.25
619.376	33.67
619.71	33.33
620.043	33.07
620.377	33.29
620.71	33.43
621.043	33.59
621.377	33.1
621.71	33.41
622.043	33.49
622.376	33.73
622.709	33.77
623.043	33.45
623.376	33.84
623.709	34.23
624.041	33.54
624.374	33.64
624.707	33.44
625.04	34.44
625.373	34.15
625.705	33.91
626.038	33.97
626.37	34.15
626.703	34.09
627.035	34.32
627.368	34.27
627.7	33.53
628.032	33.62
628.365	34.1
628.697	34.13
629.029	34.44
629.361	34
629.693	34.29
630.025	34.15
630.357	34.38
630.689	34.19
631.021	34.28
631.353	34.51
631.684	34.7
632.016	34.58
632.348	34.57
632.679	34.9
633.011	34.83
633.342	34.62
633.674	34.94
634.005	35.01
634.336	34.76
634.668	34.88
634.999	35.11
635.33	35.32
635.661	35.02
635.992	34.62
636.323	35.23
636.654	35.38
636.985	34.76
637.316	35.01
637.647	35.08
637.977	35.26
638.308	35.53
638.639	35.11
638.969	35.42
639.3	35.36
639.63	35.14
639.961	35.24
640.291	35.61
640.622	35.52
640.952	35.83
641.282	35.47
641.612	35.53
641.943	35.38
642.273	35.76
642.603	35.85
642.933	36.01
643.263	35.54
643.592	35.56
643.922	35.59
644.252	35.21
644.582	36.44
644.911	36.11
645.241	35.94
645.571	36.46
645.9	35.32
646.23	36.18
646.559	35.98
646.888	36.83
647.218	36.51
647.547	36.16
647.876	35.71
648.205	36.2
648.534	36.47
648.863	36.09
649.192	35.82
649.521	36.18
649.85	36.41
650.179	36.15
650.508	35.85
650.837	36.63
651.165	36.71
651.494	36.58
651.822	36.2
652.151	36.6
652.479	36.64
652.808	36.84
653.136	36.16
653.465	36.75
653.793	36.68
654.121	36.89
654.449	36.8
654.777	36.86
655.105	36.37
655.433	36.79
655.761	36.91
656.089	37.22
656.417	36.8
656.745	37.43
657.073	36.97
657.4	37
657.728	37
658.056	37.21
658.383	36.78
658.711	36.89
659.038	37
659.365	37.52
659.693	37.65
660.02	37.04
660.347	38.05
660.674	37.17
661.001	37.01
661.329	37.47
661.656	37.52
661.982	37.55
662.309	37.67
662.636	37.89
662.963	38.01
663.29	37.51
663.616	37.82
663.943	37.62
664.27	38.21
664.596	37.87
664.923	38.14
665.249	38.16
665.576	37.73
665.902	37.37
666.228	37.72
666.554	38.33
666.881	37.83
667.207	38.33
667.533	38.31
667.859	38.36
668.185	38.81
668.511	38.43
668.837	38.46
669.162	38.17
669.488	38.28
669.814	38.54
670.139	38
670.465	38.27
670.791	38.45
671.116	38.57
671.442	38.29
671.767	38.45
672.092	38.08
672.418	38.33
672.743	37.93
