Data from 0379_chest_Reflection__3__123.txt Node

Date: Mon Dec 11 19:02:43 CST 2023
User: ToomeyLab
Spectrometer: FLMS14357
Trigger mode: 0
Integration Time (sec): 1.000000E-2
Scans to average: 100
Electric dark correction enabled: true
Nonlinearity correction enabled: false
Boxcar width: 0
XAxis mode: Wavelengths
Number of Pixels in Spectrum: 2048
>>>>>Begin Spectral Data<<<<<
189.047	5.35
189.435	5.35
189.823	5.35
190.211	-10.76
190.599	288.06
190.987	-689.19
191.375	112.67
191.763	52.78
192.151	-63.37
192.538	75.98
192.926	-112.57
193.314	-5.01
193.702	-50.27
194.089	143.87
194.477	148.2
194.864	114.05
195.252	2224.54
195.639	201.03
196.027	185.6
196.414	116.18
196.801	8.47
197.189	-9.89
197.576	90.87
197.963	135.9
198.351	5.67
198.738	44.65
199.125	-0.55
199.512	16.19
199.899	-11.76
200.286	-18.28
200.673	-200.46
201.06	23.15
201.447	98.55
201.833	52.94
202.22	39.12
202.607	29.05
202.994	16.19
203.38	21.15
203.767	38.17
204.154	17.86
204.54	-33.52
204.927	-44.09
205.313	15.3
205.699	-46.26
206.086	-23.72
206.472	54.85
206.858	11.93
207.245	42.55
207.631	26.29
208.017	-7.05
208.403	-10.18
208.789	-15.78
209.175	15.44
209.561	-19.91
209.947	22.76
210.333	28.27
210.719	40.08
211.105	35.72
211.491	36.57
211.876	2.02
212.262	-62
212.648	-25.79
213.034	22.05
213.419	-17.23
213.805	-22.6
214.19	7.03
214.576	-12.36
214.961	9.62
215.346	-4.88
215.732	6.47
216.117	1.75
216.502	-3.51
216.888	5.88
217.273	50.71
217.658	27.91
218.043	-29.81
218.428	-5.08
218.813	10.75
219.198	18.18
219.583	0.9
219.968	13.83
220.353	-35.97
220.738	41.95
221.122	26.92
221.507	45.22
221.892	14.09
222.276	4.62
222.661	4.12
223.046	-20.01
223.43	-1.7
223.815	5.6
224.199	-1.66
224.583	0.7
224.968	11.19
225.352	0.55
225.736	3.18
226.121	6.16
226.505	-7.74
226.889	-1.01
227.273	6.58
227.657	16.93
228.041	-1.01
228.425	1.67
228.809	-0.69
229.193	5.21
229.577	1.97
229.961	1.85
230.344	2.98
230.728	1.17
231.112	2.15
231.495	2.18
231.879	1.29
232.263	-0.07
232.646	1
233.03	0.58
233.413	0.87
233.797	4.01
234.18	3.04
234.563	1.97
234.946	3.05
235.33	4.74
235.713	1.83
236.096	1.52
236.479	2.77
236.862	-0.37
237.245	0.21
237.628	0.27
238.011	0.5
238.394	2.18
238.777	1.77
239.16	2.38
239.543	2.13
239.925	0.87
240.308	2.56
240.691	0.1
241.073	2.56
241.456	1.86
241.838	2.94
242.221	2.54
242.603	0.8
242.986	1.59
243.368	1.81
243.75	2.15
244.133	1.83
244.515	1.55
244.897	1.47
245.279	1.44
245.661	2.43
246.043	1.5
246.425	2.64
246.807	1.5
247.189	1.28
247.571	1.8
247.953	2
248.335	1.65
248.717	1.84
249.098	1.68
249.48	1.52
249.862	1.83
250.243	2
250.625	1.48
251.006	1.3
251.388	2.04
251.769	2.86
252.151	3.39
252.532	2.4
252.913	1.98
253.295	2.24
253.676	1.7
254.057	1.4
254.438	1.7
254.819	1.85
255.2	1.29
255.581	1.17
255.962	1.76
256.343	0.11
256.724	1.5
257.105	0.66
257.486	1.6
257.867	2.31
258.247	1.81
258.628	2.98
259.009	2.66
259.389	2.21
259.77	1.98
260.15	1.62
260.531	1.88
260.911	1.56
261.292	1.5
261.672	1.75
262.052	1.65
262.432	1.58
262.813	1.95
263.193	1.12
263.573	2.14
263.953	1.94
264.333	1.34
264.713	1.92
265.093	1.63
265.473	2.18
265.853	1.57
266.233	0.47
266.612	1.48
266.992	1.77
267.372	2.93
267.752	1.95
268.131	1.81
268.511	1.18
268.89	1.52
269.27	1.87
269.649	1.92
270.029	2.3
270.408	1.76
270.787	0.32
271.167	0.7
271.546	1.6
271.925	1.45
272.304	1.57
272.683	1.55
273.062	0.96
273.441	1.66
273.82	1.38
274.199	1.27
274.578	1.47
274.957	1.82
275.336	1.25
275.715	1.55
276.093	2.18
276.472	1.64
276.851	2.07
277.229	2.02
277.608	2.05
277.986	2.22
278.365	1.4
278.743	1.45
279.122	1.82
279.5	2.21
279.878	1.49
280.257	0.99
280.635	1.57
281.013	1.07
281.391	1.59
281.769	1.1
282.147	0.95
282.525	1.3
282.903	1.9
283.281	2.09
283.659	1.1
284.037	1.21
284.415	1.14
284.792	1.55
285.17	2.07
285.548	1.67
285.925	1.46
286.303	1.56
286.68	1.38
287.058	1.49
287.435	2.06
287.813	1.75
288.19	1.44
288.567	1.27
288.945	1.76
289.322	1.28
289.699	1.46
290.076	1.36
290.453	1.91
290.83	2.02
291.207	1.85
291.584	1.75
291.961	1.63
292.338	1.86
292.715	2.2
293.092	1.95
293.469	1.87
293.845	1.38
294.222	2.44
294.599	1.7
294.975	1.33
295.352	1.23
295.728	1.84
296.105	1.83
296.481	1.37
296.858	2.09
297.234	2.38
297.61	1.58
297.986	1.72
298.363	2.16
298.739	1.94
299.115	1.48
299.491	1.94
299.867	2.02
300.243	1.93
300.619	1.91
300.995	2.22
301.371	2.07
301.746	1.44
302.122	1.91
302.498	2.37
302.874	1.9
303.249	2.15
303.625	2.05
304	1.83
304.376	2.51
304.751	1.65
305.127	1.81
305.502	2.19
305.878	2.09
306.253	1.94
306.628	2.64
307.003	2.29
307.378	2.14
307.754	2.3
308.129	2.13
308.504	1.72
308.879	1.02
309.254	2.26
309.629	2.44
310.003	2.21
310.378	2.09
310.753	2.42
311.128	2.29
311.502	1.77
311.877	2.1
312.252	2.24
312.626	2.35
313.001	2.36
313.375	1.75
313.75	1.75
314.124	2.13
314.498	2.25
314.873	2.26
315.247	2.44
315.621	2.62
315.995	2.66
316.369	2.19
316.743	2.76
317.117	2.34
317.491	2.64
317.865	1.92
318.239	2.42
318.613	2.73
318.987	2.08
319.361	3.02
319.734	1.58
320.108	2.35
320.482	2.57
320.855	2.11
321.229	1.79
321.602	2.73
321.976	3.34
322.349	1.65
322.723	2.11
323.096	2.75
323.469	2.39
323.843	2.77
324.216	2.54
324.589	2.24
324.962	2.48
325.335	2.31
325.708	2.76
326.081	2.63
326.454	2.48
326.827	2.51
327.2	2.09
327.573	2.08
327.945	2.29
328.318	2.55
328.691	2.57
329.063	2.61
329.436	1.71
329.809	1.92
330.181	2.94
330.553	1.93
330.926	2.84
331.298	3.03
331.671	2.61
332.043	3.58
332.415	2.09
332.787	3.03
333.159	2.91
333.532	2.5
333.904	2.3
334.276	2.36
334.648	2.76
335.02	2.48
335.391	2.79
335.763	2.76
336.135	3.18
336.507	2.49
336.879	2.8
337.25	1.85
337.622	2.7
337.993	2.37
338.365	1.98
338.736	2.29
339.108	2.86
339.479	2.14
339.851	2.6
340.222	2.81
340.593	1.51
340.964	2.89
341.336	2.62
341.707	2.26
342.078	2.73
342.449	2.55
342.82	2.32
343.191	2.71
343.562	2.69
343.933	2.56
344.303	2.19
344.674	2.41
345.045	3
345.416	2.28
345.786	2.88
346.157	2.55
346.527	2.79
346.898	2.35
347.268	2.77
347.639	2.82
348.009	2.82
348.38	2.21
348.75	2.65
349.12	3.08
349.49	2.55
349.861	2.72
350.231	2.42
350.601	2.64
350.971	2.54
351.341	2.14
351.711	2.49
352.081	2.44
352.45	2.38
352.82	2.24
353.19	2.51
353.56	2.2
353.929	2.39
354.299	2.65
354.669	2.6
355.038	2.39
355.408	2.56
355.777	3.02
356.147	2.79
356.516	2.37
356.885	2.59
357.254	2.46
357.624	2.59
357.993	2.58
358.362	2.86
358.731	2.67
359.1	2.71
359.469	2.52
359.838	3.15
360.207	2.39
360.576	2.5
360.945	2.85
361.314	3.07
361.682	2.25
362.051	2.76
362.42	2.53
362.788	2.31
363.157	2.49
363.525	2.44
363.894	2.64
364.262	2.83
364.631	2.66
364.999	2.49
365.367	3.01
365.735	2.67
366.104	2.41
366.472	2.81
366.84	2.26
367.208	2.44
367.576	3.11
367.944	2.57
368.312	2.4
368.68	2.78
369.048	2.65
369.416	2.49
369.783	2.63
370.151	3.09
370.519	3.23
370.886	2.58
371.254	3.18
371.621	2.67
371.989	2.72
372.356	2.91
372.724	3.03
373.091	3.08
373.458	2.54
373.826	2.76
374.193	2.55
374.56	3.05
374.927	2.82
375.294	2.99
375.661	2.76
376.028	2.97
376.395	2.86
376.762	2.71
377.129	3
377.496	2.77
377.863	2.94
378.229	2.63
378.596	2.94
378.963	2.81
379.329	2.68
379.696	3.12
380.062	2.33
380.429	2.63
380.795	3.15
381.161	2.94
381.528	2.88
381.894	3.05
382.26	3.01
382.626	2.73
382.993	2.8
383.359	2.7
383.725	2.81
384.091	2.71
384.457	2.5
384.823	3.17
385.188	2.6
385.554	2.41
385.92	2.79
386.286	2.66
386.651	2.82
387.017	2.76
387.383	2.76
387.748	2.83
388.114	2.69
388.479	2.96
388.845	2.79
389.21	2.89
389.575	2.74
389.94	3.2
390.306	2.92
390.671	3
391.036	3.08
391.401	2.78
391.766	2.96
392.131	2.77
392.496	3.01
392.861	3.09
393.226	3.03
393.591	2.88
393.956	2.99
394.32	3.1
394.685	2.85
395.05	3.02
395.414	3.15
395.779	2.87
396.143	2.73
396.508	2.89
396.872	2.76
397.236	2.74
397.601	2.76
397.965	3.08
398.329	3.18
398.694	3.11
399.058	2.92
399.422	2.92
399.786	2.89
400.15	3.03
400.514	3.26
400.878	3.03
401.242	3.11
401.605	2.99
401.969	2.72
402.333	2.76
402.697	3
403.06	2.93
403.424	3.09
403.787	3.24
404.151	2.69
404.514	2.84
404.878	2.97
405.241	3.09
405.604	3.04
405.968	3.16
406.331	2.89
406.694	2.99
407.057	2.95
407.42	3.24
407.783	2.97
408.146	3.41
408.509	3.09
408.872	2.73
409.235	3.06
409.598	3.19
409.961	3.29
410.323	3.04
410.686	3.08
411.049	3.27
411.411	2.76
411.774	3.13
412.136	2.99
412.499	3
412.861	3.01
413.223	3.08
413.586	3.25
413.948	3.09
414.31	2.8
414.672	2.78
415.035	3.12
415.397	3.1
415.759	3.09
416.121	3.14
416.483	2.78
416.845	3.28
417.206	3.02
417.568	3.27
417.93	3.11
418.292	3.09
418.653	2.9
419.015	3.13
419.377	3.29
419.738	3
420.1	3.14
420.461	2.92
420.822	2.9
421.184	3.1
421.545	2.99
421.906	3.05
422.267	3.1
422.629	2.94
422.99	3.03
423.351	2.88
423.712	2.95
424.073	2.96
424.434	2.97
424.795	3.09
425.155	2.99
425.516	2.97
425.877	2.86
426.238	3.01
426.598	3.01
426.959	3.09
427.32	3.13
427.68	3.1
428.041	2.98
428.401	3.02
428.761	3.08
429.122	3.05
429.482	3.19
429.842	3.17
430.202	3.04
430.563	3.02
430.923	3.21
431.283	3.12
431.643	3.22
432.003	3.26
432.363	3.3
432.722	3.05
433.082	3.26
433.442	3.2
433.802	3.18
434.161	3.19
434.521	2.97
434.881	3.08
435.24	3.25
435.6	3.19
435.959	3.09
436.319	3.15
436.678	3.13
437.037	3.24
437.396	3.15
437.756	3.39
438.115	3.44
438.474	3.37
438.833	3.23
439.192	3.03
439.551	3.24
439.91	3.25
440.269	3.31
440.628	3.12
440.987	3.37
441.345	3.19
441.704	3.17
442.063	3.21
442.421	3.16
442.78	3.2
443.138	3.21
443.497	3.17
443.855	3.18
444.214	3.34
444.572	3.25
444.93	3.31
445.288	3.32
445.647	3.35
446.005	2.96
446.363	3.22
446.721	3.26
447.079	3.17
447.437	3.12
447.795	3.16
448.153	3.3
448.51	3.28
448.868	3.24
449.226	3.18
449.584	3.27
449.941	3.36
450.299	3.27
450.656	3.21
451.014	3.42
451.371	3.16
451.729	3.35
452.086	3.32
452.443	3.37
452.801	3.32
453.158	3.27
453.515	3.29
453.872	3.33
454.229	3.32
454.586	3.39
454.943	3.31
455.3	3.45
455.657	3.53
456.014	3.48
456.371	3.46
456.727	3.31
457.084	3.48
457.441	3.51
457.797	3.39
458.154	3.34
458.51	3.57
458.867	3.38
459.223	3.41
459.58	3.33
459.936	3.41
460.292	3.32
460.648	3.4
461.005	3.33
461.361	3.37
461.717	3.32
462.073	3.31
462.429	3.28
462.785	3.31
463.141	3.37
463.496	3.47
463.852	3.49
464.208	3.43
464.564	3.45
464.919	3.41
465.275	3.32
465.631	3.27
465.986	3.63
466.342	3.56
466.697	3.5
467.052	3.39
467.408	3.52
467.763	3.51
468.118	3.34
468.473	3.51
468.829	3.62
469.184	3.68
469.539	3.52
469.894	3.44
470.249	3.49
470.603	3.53
470.958	3.54
471.313	3.51
471.668	3.74
472.023	3.62
472.377	3.61
472.732	3.64
473.086	3.76
473.441	3.64
473.795	3.5
474.15	3.62
474.504	3.52
474.859	3.58
475.213	3.51
475.567	3.71
475.921	3.74
476.275	3.65
476.63	3.51
476.984	3.5
477.338	3.39
477.692	3.49
478.045	3.59
478.399	3.6
478.753	3.32
479.107	3.61
479.461	3.57
479.814	3.54
480.168	3.59
480.521	3.71
480.875	3.51
481.228	3.68
481.582	3.91
481.935	3.61
482.289	3.67
482.642	3.62
482.995	3.71
483.348	3.58
483.701	3.51
484.055	3.63
484.408	3.63
484.761	3.63
485.114	3.5
485.466	3.47
485.819	3.37
486.172	3.38
486.525	3.41
486.878	3.47
487.23	3.54
487.583	3.57
487.936	3.55
488.288	3.67
488.641	3.53
488.993	3.49
489.345	3.57
489.698	3.53
490.05	3.52
490.402	3.5
490.754	3.55
491.107	3.62
491.459	3.61
491.811	3.69
492.163	3.78
492.515	3.75
492.866	3.64
493.218	3.54
493.57	3.54
493.922	3.6
494.274	3.66
494.625	3.73
494.977	3.84
495.328	3.77
495.68	3.93
496.031	3.79
496.383	3.68
496.734	3.88
497.086	3.84
497.437	3.97
497.788	3.89
498.139	3.82
498.49	3.92
498.842	3.92
499.193	3.82
499.544	3.77
499.894	3.86
500.245	3.81
500.596	3.93
500.947	3.85
501.298	4.03
501.648	3.9
501.999	3.96
502.35	4.07
502.7	4.15
503.051	3.95
503.401	3.94
503.752	3.93
504.102	4
504.452	3.97
504.803	4.1
505.153	4.1
505.503	4.06
505.853	4.19
506.203	3.99
506.553	4.11
506.903	3.89
507.253	4.05
507.603	3.99
507.953	4.33
508.303	4.04
508.652	4.08
509.002	3.98
509.352	4.27
509.701	4.16
510.051	4.1
510.4	3.98
510.75	4
511.099	4.16
511.449	4.12
511.798	4
512.147	4.24
512.496	4.03
512.846	4.18
513.195	4.29
513.544	4.22
513.893	3.99
514.242	4.13
514.591	4.07
514.939	4.17
515.288	4.28
515.637	4.17
515.986	4.06
516.334	4.32
516.683	4.33
517.032	4.32
517.38	4.37
517.729	4.29
518.077	4.32
518.426	4.34
518.774	4.23
519.122	4.32
519.47	4.23
519.819	4.2
520.167	4.27
520.515	4.19
520.863	4.17
521.211	4.19
521.559	4.33
521.907	4.32
522.255	4.24
522.602	4.32
522.95	4.47
523.298	4.35
523.645	4.53
523.993	4.43
524.341	4.42
524.688	4.4
525.036	4.37
525.383	4.42
525.73	4.58
526.078	4.52
526.425	4.33
526.772	4.48
527.119	4.53
527.466	4.47
527.814	4.39
528.161	4.39
528.508	4.46
528.854	4.46
529.201	4.5
529.548	4.48
529.895	4.41
530.242	4.37
530.588	4.32
530.935	4.37
531.282	4.4
531.628	4.45
531.975	4.41
532.321	4.56
532.667	4.56
533.014	4.57
533.36	4.62
533.706	4.75
534.052	4.49
534.399	4.66
534.745	4.58
535.091	4.51
535.437	4.52
535.783	4.5
536.129	4.65
536.474	4.72
536.82	4.69
537.166	4.68
537.512	4.7
537.857	4.82
538.203	4.75
538.549	4.83
538.894	4.79
539.239	4.82
539.585	4.86
539.93	4.77
540.276	4.93
540.621	4.89
540.966	4.96
541.311	4.93
541.656	4.93
542.001	5.05
542.346	5.01
542.691	4.96
543.036	4.79
543.381	4.8
543.726	4.81
544.071	4.92
544.415	4.83
544.76	4.91
545.105	4.91
545.449	4.99
545.794	5.04
546.138	5.09
546.483	5.12
546.827	5.13
547.171	5.12
547.516	5.17
547.86	5.15
548.204	5.25
548.548	5.16
548.892	5.3
549.236	5.21
549.58	5.38
549.924	5.34
550.268	5.26
550.612	5.33
550.956	5.32
551.3	5.43
551.643	5.45
551.987	5.43
552.33	5.59
552.674	5.63
553.017	5.48
553.361	5.37
553.704	5.53
554.048	5.58
554.391	5.43
554.734	5.49
555.077	5.66
555.42	5.74
555.764	5.62
556.107	5.72
556.45	5.76
556.793	5.54
557.135	5.58
557.478	5.76
557.821	5.66
558.164	5.74
558.507	5.77
558.849	5.98
559.192	5.75
559.534	5.87
559.877	6.1
560.219	5.89
560.562	6.08
560.904	6.07
561.246	6.03
561.589	5.97
561.931	6.18
562.273	5.95
562.615	5.86
562.957	6.14
563.299	6.09
563.641	6.02
563.983	6.42
564.325	6.21
564.667	6.17
565.008	6.24
565.35	6.4
565.692	6.34
566.033	6.36
566.375	6.6
566.716	6.36
567.058	6.27
567.399	6.31
567.741	6.16
568.082	6.34
568.423	6.35
568.764	6.4
569.105	6.53
569.447	6.46
569.788	6.38
570.129	6.62
570.47	6.45
570.811	6.29
571.151	6.63
571.492	6.44
571.833	6.79
572.174	6.77
572.514	6.67
572.855	6.62
573.195	6.66
573.536	6.7
573.876	6.83
574.217	6.74
574.557	6.73
574.898	6.78
575.238	6.89
575.578	6.85
575.918	6.92
576.258	6.87
576.598	6.96
576.938	7.06
577.278	6.96
577.618	6.96
577.958	6.88
578.298	6.99
578.638	7.09
578.977	7.05
579.317	7.13
579.657	7.07
579.996	7.09
580.336	7.34
580.675	7.31
581.014	7.15
581.354	7.2
581.693	7.38
582.032	6.96
582.372	7.27
582.711	7.2
583.05	7.5
583.389	7.61
583.728	7.75
584.067	7.47
584.406	7.42
584.745	7.49
585.083	7.63
585.422	7.73
585.761	7.9
586.1	7.68
586.438	7.67
586.777	7.92
587.115	7.71
587.454	7.81
587.792	7.71
588.13	8.05
588.469	7.88
588.807	8.01
589.145	8.18
589.483	8.12
589.821	8
590.159	8.1
590.497	8.08
590.835	8.05
591.173	7.97
591.511	8.29
591.849	8.21
592.187	8.08
592.524	8.04
592.862	8.11
593.2	8.28
593.537	8.32
593.875	8.38
594.212	8.31
594.55	8.23
594.887	8.51
595.224	8.35
595.561	8.76
595.899	8.44
596.236	8.48
596.573	8.49
596.91	8.35
597.247	8.48
597.584	8.46
597.921	8.42
598.258	8.62
598.594	8.53
598.931	8.52
599.268	8.66
599.604	8.7
599.941	8.92
600.277	8.85
600.614	8.93
600.95	8.63
601.287	9.06
601.623	9.02
601.959	8.91
602.296	8.98
602.632	9
602.968	9.02
603.304	9.25
603.64	9.08
603.976	9.28
604.312	9.41
604.648	9.06
604.984	9.41
605.319	9.11
605.655	9.25
605.991	9.03
606.326	9.32
606.662	9.25
606.998	9.2
607.333	9.37
607.668	9.43
608.004	9.33
608.339	9.74
608.674	9.63
609.01	9.66
609.345	9.77
609.68	9.68
610.015	9.79
610.35	9.88
610.685	9.54
611.02	9.81
611.355	9.83
611.689	9.88
612.024	9.82
612.359	9.76
612.694	9.87
613.028	9.89
613.363	9.9
613.697	9.82
614.032	10.06
614.366	10.33
614.7	9.96
615.035	10.27
615.369	10.32
615.703	10.25
616.037	10.35
616.371	10.36
616.705	10.59
617.039	10.63
617.373	10.16
617.707	10.7
618.041	10.73
618.375	10.49
618.709	10.58
619.042	10.45
619.376	10.86
619.71	10.51
620.043	10.65
620.377	10.59
620.71	10.85
621.043	10.81
621.377	10.59
621.71	11.06
622.043	10.75
622.376	10.96
622.709	11.33
623.043	11.26
623.376	11.23
623.709	11.2
624.041	11.23
624.374	11.24
624.707	11.47
625.04	11.62
625.373	11.35
625.705	11.52
626.038	11.38
626.37	11.27
626.703	11.74
627.035	11.43
627.368	11.87
627.7	11.24
628.032	11.44
628.365	11.56
628.697	11.47
629.029	11.7
629.361	11.38
629.693	11.76
630.025	12.02
630.357	11.6
630.689	11.55
631.021	12.12
631.353	11.58
631.684	12.05
632.016	12.03
632.348	12.19
632.679	12.29
633.011	12.35
633.342	12.08
633.674	12.58
634.005	12.39
634.336	12.53
634.668	12.52
634.999	12.8
635.33	12.57
635.661	12.47
635.992	12.81
636.323	12.45
636.654	12.6
636.985	12.28
637.316	12.6
637.647	12.69
637.977	13.04
638.308	12.83
638.639	12.87
638.969	12.65
639.3	12.75
639.63	12.85
639.961	12.8
640.291	13.42
640.622	12.52
640.952	13.24
641.282	13.18
641.612	13.25
641.943	13.45
642.273	13.26
642.603	13.39
642.933	13.52
643.263	13.39
643.592	13.18
643.922	13.63
644.252	13.3
644.582	13.59
644.911	13.57
645.241	13.59
645.571	13.95
645.9	13.73
646.23	13.75
646.559	13.46
646.888	13.52
647.218	14.03
647.547	13.62
647.876	13.83
648.205	13.83
648.534	13.7
648.863	14
649.192	13.96
649.521	14.03
649.85	13.85
650.179	14.33
650.508	14.06
650.837	14.08
651.165	14.64
651.494	14.33
651.822	14.38
652.151	14.62
652.479	14.39
652.808	14.94
653.136	13.88
653.465	14.29
653.793	14.7
654.121	14.53
654.449	14.88
654.777	14.52
655.105	14.35
655.433	14.72
655.761	15.2
656.089	14.84
656.417	14.93
656.745	15.58
657.073	15.09
657.4	15.18
657.728	15.23
658.056	15.66
658.383	14.82
658.711	15.18
659.038	15.37
659.365	15.66
659.693	14.95
660.02	15.18
660.347	15.17
660.674	15.44
661.001	14.99
661.329	15.55
661.656	15.45
661.982	15.41
662.309	15.62
662.636	15.87
662.963	16.17
663.29	15.77
663.616	15.77
663.943	15.39
664.27	16.27
664.596	16.33
664.923	15.48
665.249	16.37
665.576	16.28
665.902	15.54
666.228	16.18
666.554	16.59
666.881	16.09
667.207	16.83
667.533	16.8
667.859	16.83
668.185	16.83
668.511	16.77
668.837	16.24
669.162	16.93
669.488	16.89
669.814	16.39
670.139	16.77
670.465	16.76
670.791	16.37
671.116	17.38
671.442	17.19
671.767	16.89
672.092	16.64
672.418	16.76
672.743	16.64
673.068	16.67
673.393	17.47
673.718	16.94
674.043	17.86
674.368	18.02
674.693	17.87
675.018	17.11
675.343	17.19
675.667	17.15
675.992	17.66
676.317	17.12
676.641	17.77
676.966	17.82
677.29	16.75
677.615	18.53
677.939	17.52
678.264	18.05
678.588	18
678.912	18.41
679.236	17.71
679.56	18.28
679.885	18.21
680.209	17.52
680.532	18.57
680.856	18.4
681.18	18.1
681.504	17.68
681.828	17.86
682.152	18.08
682.475	17.88
682.799	18.27
683.122	18.28
683.446	18.18
683.769	18.23
684.093	18.22
684.416	18.56
684.739	18.29
685.062	18.38
685.386	18.21
685.709	18.32
686.032	18.27
686.355	19.17
686.678	18.8
687.001	19.22
687.324	17.82
