Data from 0379_forehead_Reflection__0__131.txt Node

Date: Mon Dec 11 19:05:44 CST 2023
User: ToomeyLab
Spectrometer: FLMS14357
Trigger mode: 0
Integration Time (sec): 1.000000E-2
Scans to average: 100
Electric dark correction enabled: true
Nonlinearity correction enabled: false
Boxcar width: 0
XAxis mode: Wavelengths
Number of Pixels in Spectrum: 2048
>>>>>Begin Spectral Data<<<<<
189.047	83.52
189.435	83.52
189.823	83.52
190.211	44.88
190.599	-50.52
190.987	-350.6
191.375	96.42
191.763	57.76
192.151	-178.65
192.538	138.33
192.926	-244.59
193.314	65.99
193.702	70.73
194.089	-9.29
194.477	75.94
194.864	305.3
195.252	-1000
195.639	-49.1
196.027	-56.86
196.414	521.25
196.801	52.65
197.189	14.48
197.576	46.06
197.963	56.24
198.351	14.28
198.738	19.79
199.125	-64.92
199.512	-15.88
199.899	19.51
200.286	12.73
200.673	-138.89
201.06	11.37
201.447	67.89
201.833	45.04
202.22	15.86
202.607	-11.2
202.994	-43.81
203.38	-52.99
203.767	51.21
204.154	21.03
204.54	-5.2
204.927	-1.19
205.313	42.44
205.699	-15.52
206.086	-44.25
206.472	0.72
206.858	26.52
207.245	19.94
207.631	6.11
208.017	-15.48
208.403	58.11
208.789	26.43
209.175	24.1
209.561	-9.39
209.947	0.16
210.333	31.67
210.719	28.05
211.105	28.58
211.491	10.91
211.876	7.54
212.262	-20.01
212.648	-12.72
213.034	-7.94
213.419	-23.16
213.805	-16.83
214.19	41.4
214.576	-8.27
214.961	-12.04
215.346	-39.41
215.732	13.5
216.117	2.4
216.502	-9.75
216.888	-7.87
217.273	53.56
217.658	-31.97
218.043	-24.23
218.428	12.33
218.813	12.89
219.198	19.84
219.583	19.42
219.968	2.99
220.353	-12.4
220.738	28.56
221.122	-18.85
221.507	28.98
221.892	12.16
222.276	-17.18
222.661	8.92
223.046	0.48
223.43	-1.13
223.815	-0.34
224.199	20.99
224.583	-1.96
224.968	5.26
225.352	13.88
225.736	-1.97
226.121	-6.46
226.505	-8.42
226.889	-4.09
227.273	1.79
227.657	8.1
228.041	0.25
228.425	3.39
228.809	-4.25
229.193	1.37
229.577	1.34
229.961	3
230.344	0.63
230.728	1.37
231.112	1.43
231.495	2.05
231.879	1.48
232.263	-0.67
232.646	0.61
233.03	1.51
233.413	2.11
233.797	2.77
234.18	1.5
234.563	2.45
234.946	1.32
235.33	3.07
235.713	1.37
236.096	2.12
236.479	2.91
236.862	-0.19
237.245	0.18
237.628	1.98
238.011	3.18
238.394	1.3
238.777	1.05
239.16	0.07
239.543	2.7
239.925	1.61
240.308	3.18
240.691	2.14
241.073	2.24
241.456	2.74
241.838	3.38
242.221	3.17
242.603	1.25
242.986	1.29
243.368	1.89
243.75	1.59
244.133	2.03
244.515	1.76
244.897	1.46
245.279	1.71
245.661	1.14
246.043	1.16
246.425	1.88
246.807	1.5
247.189	1.93
247.571	1.88
247.953	1.7
248.335	2.32
248.717	1.9
249.098	2
249.48	1.47
249.862	2.13
250.243	2.16
250.625	1.49
251.006	1.56
251.388	2.1
251.769	1.7
252.151	2.99
252.532	2.84
252.913	1.6
253.295	2.17
253.676	1.86
254.057	1.38
254.438	2.15
254.819	1.71
255.2	1.3
255.581	0.56
255.962	0.64
256.343	0.85
256.724	3.14
257.105	2.37
257.486	1.8
257.867	2.5
258.247	2.31
258.628	2.27
259.009	2.15
259.389	2.04
259.77	2.14
260.15	1
260.531	1.85
260.911	1.25
261.292	1.5
261.672	2.08
262.052	1.88
262.432	1.86
262.813	2.07
263.193	1.62
263.573	2.26
263.953	1.58
264.333	1.13
264.713	2.66
265.093	2.07
265.473	2.86
265.853	1.84
266.233	2.17
266.612	2.13
266.992	3.68
267.372	2.85
267.752	2.21
268.131	1.51
268.511	1.02
268.89	2.02
269.27	2.64
269.649	2.19
270.029	2.68
270.408	1.88
270.787	1.6
271.167	1.27
271.546	2.23
271.925	1.97
272.304	1.57
272.683	1.85
273.062	1.73
273.441	1.51
273.82	1.31
274.199	1.58
274.578	1.88
274.957	2.17
275.336	1.89
275.715	1.89
276.093	2.45
276.472	2.49
276.851	2.35
277.229	1.54
277.608	2.4
277.986	1.95
278.365	1.65
278.743	1.91
279.122	1.67
279.5	2.2
279.878	2.09
280.257	1.28
280.635	1.6
281.013	1.85
281.391	2.03
281.769	1.89
282.147	2.12
282.525	1.97
282.903	2.59
283.281	1.71
283.659	1.75
284.037	1.73
284.415	2.03
284.792	2.42
285.17	1.6
285.548	2.11
285.925	1.33
286.303	2.24
286.68	1.85
287.058	1.86
287.435	1.88
287.813	2.24
288.19	1.72
288.567	1.71
288.945	2.2
289.322	1.49
289.699	1.68
290.076	2.24
290.453	1.88
290.83	2.86
291.207	2.08
291.584	2.1
291.961	1.88
292.338	2.37
292.715	2.53
293.092	1.89
293.469	2.5
293.845	2.11
294.222	2.63
294.599	2.1
294.975	2.05
295.352	2.09
295.728	2.35
296.105	1.75
296.481	2.12
296.858	2.11
297.234	2.9
297.61	2.55
297.986	2.79
298.363	2.39
298.739	2.33
299.115	2.02
299.491	2.63
299.867	2.26
300.243	2.58
300.619	2.51
300.995	2.25
301.371	2.34
301.746	2.04
302.122	2.03
302.498	2.37
302.874	2.43
303.249	3.38
303.625	2.54
304	2.25
304.376	2.44
304.751	2.07
305.127	2.76
305.502	2.53
305.878	2.45
306.253	2.99
306.628	3.09
307.003	2.8
307.378	2.58
307.754	2.83
308.129	2.95
308.504	2.69
308.879	2.54
309.254	3.39
309.629	3.11
310.003	3.22
310.378	2.51
310.753	3.5
311.128	2.85
311.502	2.62
311.877	2.99
312.252	2.88
312.626	2.94
313.001	3.18
313.375	2.83
313.75	3.25
314.124	2.96
314.498	3.16
314.873	3.41
315.247	3.39
315.621	3.12
315.995	3.82
316.369	3.8
316.743	3.4
317.117	2.82
317.491	3.52
317.865	3.28
318.239	3.88
318.613	3.55
318.987	3.66
319.361	3.86
319.734	2.94
320.108	3.41
320.482	3.23
320.855	2.71
321.229	3.33
321.602	3.78
321.976	4
322.349	3.43
322.723	3.44
323.096	4.01
323.469	4.59
323.843	4.26
324.216	3.94
324.589	4.04
324.962	3.84
325.335	4.03
325.708	3.69
326.081	4.65
326.454	4.16
326.827	3.93
327.2	3.53
327.573	3.83
327.945	4.6
328.318	4.29
328.691	3.81
329.063	4.06
329.436	4.07
329.809	4.36
330.181	4.33
330.553	4.15
330.926	3.72
331.298	4.65
331.671	3.86
332.043	4.61
332.415	4.18
332.787	4.61
333.159	4.3
333.532	4.08
333.904	4.77
334.276	4.46
334.648	4.99
335.02	4.11
335.391	4.39
335.763	4.56
336.135	4.61
336.507	4.59
336.879	5.07
337.25	4.62
337.622	4.32
337.993	4.66
338.365	4.25
338.736	4.81
339.108	4.44
339.479	4.34
339.851	4.76
340.222	4.69
340.593	4.45
340.964	4.77
341.336	4.99
341.707	4.69
342.078	4.76
342.449	4.57
342.82	4.57
343.191	4.97
343.562	5.27
343.933	5.14
344.303	4.99
344.674	4.76
345.045	4.88
345.416	4.8
345.786	5.56
346.157	4.96
346.527	5.07
346.898	5.52
347.268	4.85
347.639	5.3
348.009	5.13
348.38	4.69
348.75	5.33
349.12	5.64
349.49	4.87
349.861	4.77
350.231	4.98
350.601	5.4
350.971	5.65
351.341	4.97
351.711	5.59
352.081	5.08
352.45	5.13
352.82	4.96
353.19	5.4
353.56	5.25
353.929	5.51
354.299	5.39
354.669	5.47
355.038	5.6
355.408	4.97
355.777	5.66
356.147	5.62
356.516	5.47
356.885	5.66
357.254	5.57
357.624	5.65
357.993	5.24
358.362	5.98
358.731	5.6
359.1	5.98
359.469	5.75
359.838	5.75
360.207	6.11
360.576	6.08
360.945	6.1
361.314	6.27
361.682	5.57
362.051	5.76
362.42	5.99
362.788	5.62
363.157	5.72
363.525	5.63
363.894	5.97
364.262	6.06
364.631	6.23
364.999	5.85
365.367	6.2
365.735	6.01
366.104	5.85
366.472	6.42
366.84	6.06
367.208	5.73
367.576	6.51
367.944	6.39
368.312	6.13
368.68	6.29
369.048	6.15
369.416	6.05
369.783	6.49
370.151	6.67
370.519	6.87
370.886	6.31
371.254	6.83
371.621	6.79
371.989	6.65
372.356	7.1
372.724	7
373.091	6.9
373.458	6.64
373.826	6.49
374.193	6.32
374.56	6.84
374.927	6.89
375.294	6.79
375.661	6.87
376.028	7.36
376.395	6.87
376.762	6.79
377.129	7.45
377.496	6.85
377.863	7.21
378.229	7.17
378.596	7.05
378.963	7.11
379.329	7.12
379.696	7.01
380.062	6.91
380.429	6.99
380.795	7.38
381.161	7.04
381.528	7.21
381.894	7.44
382.26	7.17
382.626	7.18
382.993	7.55
383.359	7.43
383.725	7.26
384.091	7.17
384.457	7.23
384.823	7.8
385.188	7.44
385.554	7.17
385.92	7.22
386.286	7.38
386.651	7.48
387.017	7.52
387.383	7.56
387.748	7.39
388.114	7.53
388.479	7.49
388.845	7.59
389.21	7.87
389.575	8.08
389.94	7.93
390.306	7.88
390.671	7.89
391.036	7.76
391.401	8.18
391.766	8.06
392.131	7.58
392.496	8.01
392.861	7.98
393.226	8.01
393.591	8.13
393.956	7.9
394.32	7.99
394.685	8.06
395.05	8.12
395.414	8.41
395.779	8.21
396.143	8.02
396.508	8.37
396.872	8.12
397.236	8.48
397.601	8.26
397.965	8.31
398.329	8.26
398.694	8.42
399.058	8.32
399.422	8.48
399.786	8.4
400.15	8.18
400.514	8.29
400.878	8.49
401.242	8.55
401.605	8.47
401.969	8.29
402.333	8.42
402.697	8.43
403.06	8.79
403.424	8.79
403.787	8.78
404.151	8.59
404.514	8.39
404.878	8.76
405.241	8.54
405.604	8.67
405.968	8.65
406.331	8.62
406.694	8.81
407.057	8.67
407.42	9.01
407.783	9.03
408.146	8.86
408.509	8.54
408.872	9.08
409.235	9.1
409.598	8.64
409.961	8.98
410.323	8.88
410.686	9.13
411.049	9.34
411.411	9.38
411.774	9.28
412.136	9.06
412.499	9.33
412.861	9.04
413.223	9.25
413.586	9.31
413.948	9.23
414.31	9.24
414.672	9.1
415.035	9.31
415.397	9.52
415.759	9.4
416.121	9.5
416.483	9.29
416.845	9.47
417.206	9.45
417.568	9.4
417.93	9.54
418.292	9.35
418.653	9.23
419.015	9.32
419.377	9.47
419.738	9.38
420.1	9.41
420.461	9.43
420.822	9.36
421.184	9.49
421.545	9.45
421.906	9.61
422.267	9.57
422.629	9.42
422.99	9.54
423.351	9.45
423.712	9.5
424.073	9.65
424.434	9.57
424.795	9.81
425.155	9.71
425.516	9.69
425.877	9.65
426.238	9.69
426.598	9.7
426.959	9.81
427.32	9.87
427.68	9.83
428.041	9.88
428.401	9.96
428.761	10.03
429.122	10
429.482	10.07
429.842	10.12
430.202	10.17
430.563	10.08
430.923	10.31
431.283	10.28
431.643	10.34
432.003	10.41
432.363	10.45
432.722	10.37
433.082	10.42
433.442	10.48
433.802	10.27
434.161	10.71
434.521	10.36
434.881	10.51
435.24	10.37
435.6	10.53
435.959	10.45
436.319	10.6
436.678	10.69
437.037	10.58
437.396	10.64
437.756	10.92
438.115	10.91
438.474	10.83
438.833	10.68
439.192	10.67
439.551	10.96
439.91	10.91
440.269	10.98
440.628	10.73
440.987	11
441.345	11.06
441.704	10.97
442.063	11.03
442.421	10.92
442.78	10.86
443.138	10.98
443.497	10.98
443.855	11
444.214	11.34
444.572	11.23
444.93	11.46
445.288	11.28
445.647	11.42
446.005	11.14
446.363	11.19
446.721	11.29
447.079	11.15
447.437	11.17
447.795	11.2
448.153	11.28
448.51	11.29
448.868	11.16
449.226	11.23
449.584	11.42
449.941	11.5
450.299	11.39
450.656	11.47
451.014	11.58
451.371	11.73
451.729	11.79
452.086	11.7
452.443	11.82
452.801	12.01
453.158	11.64
453.515	11.75
453.872	11.86
454.229	11.84
454.586	11.85
454.943	12.01
455.3	11.9
455.657	11.96
456.014	12.09
456.371	11.98
456.727	12.02
457.084	12.12
457.441	12.34
457.797	12.17
458.154	12.11
458.51	12.33
458.867	11.99
459.223	12.14
459.58	12.32
459.936	12.45
460.292	12.35
460.648	12.4
461.005	12.21
461.361	12.32
461.717	12.05
462.073	12.12
462.429	12.14
462.785	12.32
463.141	12.2
463.496	12.38
463.852	12.41
464.208	12.43
464.564	12.67
464.919	12.72
465.275	12.69
465.631	12.63
465.986	13
466.342	12.7
466.697	12.78
467.052	12.66
467.408	12.94
467.763	12.81
468.118	12.72
468.473	12.86
468.829	12.98
469.184	12.89
469.539	12.98
469.894	12.88
470.249	13.07
470.603	13.07
470.958	13.07
471.313	13.06
471.668	13.21
472.023	13.27
472.377	13.31
472.732	13.07
473.086	13.32
473.441	13.35
473.795	13.08
474.15	13.12
474.504	13.29
474.859	13.29
475.213	13.36
475.567	13.41
475.921	13.36
476.275	13.54
476.63	13.5
476.984	13.36
477.338	13.46
477.692	13.44
478.045	13.62
478.399	13.47
478.753	13.24
479.107	13.52
479.461	13.66
479.814	13.54
480.168	13.62
480.521	13.77
480.875	13.79
481.228	13.64
481.582	13.91
481.935	13.59
482.289	13.86
482.642	13.69
482.995	13.78
483.348	13.73
483.701	13.67
484.055	13.63
484.408	13.54
484.761	13.54
485.114	13.43
485.466	13.11
485.819	12.96
486.172	13.07
486.525	13.23
486.878	13.41
487.23	13.44
487.583	13.62
487.936	13.63
488.288	13.75
488.641	13.58
488.993	13.54
489.345	13.63
489.698	13.52
490.05	13.46
490.402	13.63
490.754	13.74
491.107	13.84
491.459	13.94
491.811	14.13
492.163	14.27
492.515	14.13
492.866	14.12
493.218	13.85
493.57	13.9
493.922	13.83
494.274	14.07
494.625	14.19
494.977	14.38
495.328	14.41
495.68	14.65
496.031	14.6
496.383	14.66
496.734	14.74
497.086	14.78
497.437	14.86
497.788	14.78
498.139	14.7
498.49	14.72
498.842	14.77
499.193	14.78
499.544	14.79
499.894	14.93
500.245	14.8
500.596	15.02
500.947	14.88
501.298	15.06
501.648	15.15
501.999	15.02
502.35	15.11
502.7	15.23
503.051	15.2
503.401	15.27
503.752	15.32
504.102	15.36
504.452	15.34
504.803	15.46
505.153	15.4
505.503	15.46
505.853	15.46
506.203	15.31
506.553	15.38
506.903	15.25
507.253	15.61
507.603	15.53
507.953	15.64
508.303	15.54
508.652	15.54
509.002	15.58
509.352	15.7
509.701	15.64
510.051	15.52
510.4	15.52
510.75	15.57
511.099	15.62
511.449	15.66
511.798	15.52
512.147	15.72
512.496	15.69
512.846	15.68
513.195	15.81
513.544	15.89
513.893	15.77
514.242	15.74
514.591	15.82
514.939	15.86
515.288	16.1
515.637	15.94
515.986	16.05
516.334	16.05
516.683	16
517.032	16.06
517.38	16.12
517.729	16.13
518.077	16.3
518.426	16.33
518.774	16.27
519.122	16.11
519.47	16.22
519.819	16.13
520.167	16.05
520.515	16.02
520.863	16.01
521.211	16.03
521.559	16.13
521.907	16.2
522.255	16.3
522.602	16.46
522.95	16.42
523.298	16.51
523.645	16.74
523.993	16.61
524.341	16.62
524.688	16.62
525.036	16.63
525.383	16.58
525.73	16.82
526.078	16.84
526.425	16.67
526.772	16.69
527.119	16.58
527.466	16.46
527.814	16.47
528.161	16.52
528.508	16.55
528.854	16.48
529.201	16.55
529.548	16.56
529.895	16.29
530.242	16.1
530.588	16.04
530.935	16.11
531.282	16.2
531.628	16.34
531.975	16.44
532.321	16.58
532.667	16.68
533.014	16.78
533.36	16.83
533.706	16.94
534.052	16.93
534.399	17
534.745	16.62
535.091	16.6
535.437	16.62
535.783	16.7
536.129	16.88
536.474	16.99
536.82	17.07
537.166	17.17
537.512	17.23
537.857	17.17
538.203	17.18
538.549	17.17
538.894	17.11
539.239	17.28
539.585	17.24
539.93	17.33
540.276	17.64
540.621	17.53
540.966	17.63
541.311	17.65
541.656	17.65
542.001	17.77
542.346	17.55
542.691	17.37
543.036	17.07
543.381	17.05
543.726	17.08
544.071	17.23
544.415	17.35
544.76	17.53
545.105	17.5
545.449	17.4
545.794	17.68
546.138	17.75
546.483	17.83
546.827	17.99
547.171	17.92
547.516	18.03
547.86	17.99
548.204	18.01
548.548	18.01
548.892	18
549.236	18.01
549.58	18.23
549.924	18.36
550.268	18.29
550.612	18.35
550.956	18.38
551.3	18.39
551.643	18.58
551.987	18.62
552.33	18.57
552.674	18.69
553.017	18.78
553.361	18.59
553.704	18.63
554.048	18.79
554.391	18.56
554.734	18.66
555.077	18.66
555.42	18.68
555.764	18.79
556.107	18.75
556.45	19.09
556.793	18.76
557.135	19.11
557.478	18.95
557.821	18.84
558.164	18.96
558.507	18.91
558.849	18.95
559.192	19.07
559.534	18.91
559.877	19.2
560.219	19.2
560.562	19.47
560.904	19.07
561.246	19.21
561.589	19.4
561.931	19.3
562.273	19.19
562.615	19.23
562.957	19.33
563.299	19.42
563.641	19.42
563.983	19.64
564.325	19.33
564.667	19.54
565.008	19.32
565.35	19.48
565.692	19.84
566.033	19.39
566.375	19.89
566.716	19.63
567.058	19.61
567.399	19.66
567.741	19.57
568.082	19.46
568.423	19.61
568.764	19.4
569.105	19.64
569.447	19.7
569.788	19.73
570.129	19.76
570.47	19.88
570.811	19.55
571.151	19.95
571.492	20.08
571.833	19.83
572.174	20.08
572.514	19.91
572.855	19.84
573.195	19.82
573.536	19.87
573.876	19.74
574.217	20.08
574.557	20.02
574.898	20
575.238	20.22
575.578	20.13
575.918	20.29
576.258	20.23
576.598	20.12
576.938	20.25
577.278	20.31
577.618	20.35
577.958	20.27
578.298	20.47
578.638	20.57
578.977	20.59
579.317	20.24
579.657	20.24
579.996	20.35
580.336	20.52
580.675	20.72
581.014	20.6
581.354	20.59
581.693	20.98
582.032	20.52
582.372	20.88
582.711	20.5
583.05	20.73
583.389	20.67
583.728	20.82
584.067	20.71
584.406	20.7
584.745	20.97
585.083	21
585.422	20.88
585.761	21.15
586.1	21.16
586.438	21.2
586.777	21.17
587.115	20.91
587.454	21.1
587.792	21.05
588.13	21.44
588.469	21
588.807	21.44
589.145	21.18
589.483	21.44
589.821	21.24
590.159	21.18
590.497	21.18
590.835	21.41
591.173	21.13
591.511	21.46
591.849	21.42
592.187	21.03
592.524	21.31
592.862	21.41
593.2	21.29
593.537	21.26
593.875	21.4
594.212	21.53
594.55	21.51
594.887	21.37
595.224	21.79
595.561	21.74
595.899	21.67
596.236	21.79
596.573	21.72
596.91	21.42
597.247	21.69
597.584	21.6
597.921	21.61
598.258	21.47
598.594	21.52
598.931	21.52
599.268	21.49
599.604	21.44
599.941	21.96
600.277	21.88
600.614	22.15
600.95	21.9
601.287	21.96
601.623	22.21
601.959	21.97
602.296	22.04
602.632	22.22
602.968	22.03
603.304	22.47
603.64	21.86
603.976	21.95
604.312	22.34
604.648	22.31
604.984	22.33
605.319	22.18
605.655	22.06
605.991	22.11
606.326	22.18
606.662	21.99
606.998	22.13
607.333	22.17
607.668	22.12
608.004	22.13
608.339	22.47
608.674	22.72
609.01	22.28
609.345	22.42
609.68	22.49
610.015	22.58
610.35	22.77
610.685	22.45
611.02	22.39
611.355	22.83
611.689	22.37
612.024	22.37
612.359	22.64
612.694	22.57
613.028	22.61
613.363	22.68
613.697	22.48
614.032	22.59
614.366	23.36
614.7	22.68
615.035	23.25
615.369	22.77
615.703	22.75
616.037	22.69
616.371	23.12
616.705	22.89
617.039	23.19
617.373	23.2
617.707	23.27
618.041	23.31
618.375	23.25
618.709	22.69
619.042	22.91
619.376	23.2
619.71	23.25
620.043	23.2
620.377	23.16
620.71	23.62
621.043	23.11
621.377	22.79
621.71	23.13
622.043	23.3
622.376	23.43
622.709	23.67
623.043	23.58
623.376	23.84
623.709	23.52
624.041	23.9
624.374	23.76
624.707	23.62
625.04	24.1
625.373	23.84
625.705	23.78
626.038	23.65
626.37	23.86
626.703	23.75
627.035	23.85
627.368	23.47
627.7	23.71
628.032	23.69
628.365	23.95
628.697	23.81
629.029	24.08
629.361	23.62
629.693	24.01
630.025	24.02
630.357	23.54
630.689	24.11
631.021	23.8
631.353	23.9
631.684	24.07
632.016	24.2
632.348	23.81
632.679	24.64
633.011	24.25
633.342	24.26
633.674	24.58
634.005	24.62
634.336	24.38
634.668	23.99
634.999	24.44
635.33	24.35
635.661	24.22
635.992	24.36
636.323	24.32
636.654	24.54
636.985	24.45
637.316	24.29
637.647	24.54
637.977	25.09
638.308	24.35
638.639	24.63
638.969	24.33
639.3	24.67
639.63	24.32
639.961	24.48
640.291	24.85
640.622	24.5
640.952	24.85
641.282	24.68
641.612	25.02
641.943	24.75
642.273	24.93
642.603	24.92
642.933	24.82
643.263	24.57
643.592	24.47
643.922	24.8
644.252	24.97
644.582	24.82
644.911	24.6
645.241	24.7
645.571	25.17
645.9	24.93
646.23	25.14
646.559	25.1
646.888	25.67
647.218	25.25
647.547	25.18
647.876	25.21
648.205	25.36
648.534	24.87
648.863	25.21
649.192	25.46
649.521	25.66
649.85	25.15
650.179	25.5
650.508	25.26
650.837	25.36
651.165	25.24
651.494	25.13
651.822	25.37
652.151	25.62
652.479	25.65
652.808	25.14
653.136	24.75
653.465	25.53
653.793	25.74
654.121	25.38
654.449	25.41
654.777	25.08
655.105	25.64
655.433	25.64
655.761	26.13
656.089	25.56
656.417	25.8
656.745	25.7
657.073	25.51
657.4	25.76
657.728	25.95
658.056	26.06
658.383	25.77
658.711	26.01
659.038	26.07
659.365	25.89
659.693	26.21
660.02	25.5
660.347	26.42
660.674	25.42
661.001	25.2
661.329	26.09
661.656	26.27
661.982	26.14
662.309	25.92
662.636	26.06
662.963	26.42
663.29	26.16
663.616	25.6
663.943	25.88
664.27	26.69
664.596	26.72
664.923	25.93
665.249	26.32
665.576	25.79
665.902	26.18
666.228	26.47
666.554	26.1
666.881	26.31
667.207	26.47
667.533	26.74
667.859	26.58
668.185	26.78
668.511	26.44
668.837	26.77
669.162	26.47
669.488	26.12
669.814	26.87
670.139	26.62
670.465	26.68
670.791	27.1
671.116	27.29
671.442	27.46
671.767	26.92
672.092	26.71
672.418	26.94
672.743	26.21
673.068	27.05
673.393	26.84
673.718	26.92
674.043	27.49
674.368	27.22
674.693	26.65
675.018	26.95
675.343	26.68
675.667	27.58
