Data from 0379_chest_Reflection__0__120.txt Node

Date: Mon Dec 11 19:02:10 CST 2023
User: ToomeyLab
Spectrometer: FLMS14357
Trigger mode: 0
Integration Time (sec): 1.000000E-2
Scans to average: 100
Electric dark correction enabled: true
Nonlinearity correction enabled: false
Boxcar width: 0
XAxis mode: Wavelengths
Number of Pixels in Spectrum: 2048
>>>>>Begin Spectral Data<<<<<
189.047	-18.28
189.435	-18.28
189.823	-18.28
190.211	50.9
190.599	34.91
190.987	-355.54
191.375	15.77
191.763	82.94
192.151	196.07
192.538	54.56
192.926	131.91
193.314	-8.54
193.702	9.9
194.089	-130.57
194.477	63.6
194.864	-26.14
195.252	1388.34
195.639	650.9
196.027	179.08
196.414	13.8
196.801	14.96
197.189	-66.75
197.576	74.93
197.963	-33.71
198.351	-61.01
198.738	-24.13
199.125	-35.14
199.512	24.64
199.899	-28.95
200.286	14.5
200.673	-13.27
201.06	40.63
201.447	22.52
201.833	28.59
202.22	25.72
202.607	0.6
202.994	-10.73
203.38	-5.61
203.767	32.28
204.154	38.75
204.54	1.08
204.927	-9.13
205.313	-22.61
205.699	-28.18
206.086	-16.03
206.472	16.73
206.858	5.86
207.245	-11.85
207.631	-4.04
208.017	-8.44
208.403	21.14
208.789	-76.8
209.175	21.28
209.561	-10.27
209.947	-33.5
210.333	32.26
210.719	10.23
211.105	30.57
211.491	26.23
211.876	11.22
212.262	-46.81
212.648	-5.09
213.034	-8.53
213.419	-4.88
213.805	-26.22
214.19	4.27
214.576	-43.67
214.961	-17.58
215.346	-5.26
215.732	24.6
216.117	-3.34
216.502	-12.31
216.888	-20.3
217.273	3.45
217.658	-5.17
218.043	-22.51
218.428	11.47
218.813	8.57
219.198	-4.99
219.583	7.41
219.968	-1.24
220.353	-21.07
220.738	31.33
221.122	26.22
221.507	20.91
221.892	8.87
222.276	-2.33
222.661	0.23
223.046	-11.62
223.43	2.15
223.815	-8.31
224.199	0.19
224.583	0.52
224.968	2.81
225.352	3.15
225.736	9.72
226.121	5.08
226.505	-5.33
226.889	3.15
227.273	9.06
227.657	8.72
228.041	4.87
228.425	-3.45
228.809	-3.12
229.193	5.63
229.577	1.83
229.961	2.17
230.344	2.86
230.728	2.32
231.112	3.04
231.495	3.03
231.879	1.97
232.263	0.86
232.646	2.1
233.03	1.36
233.413	1.17
233.797	4.41
234.18	2.68
234.563	2.51
234.946	2.56
235.33	2.92
235.713	1.91
236.096	4.83
236.479	3.06
236.862	3.66
237.245	1.39
237.628	3.3
238.011	3.21
238.394	2.45
238.777	1.56
239.16	1.67
239.543	2.91
239.925	0.46
240.308	1.19
240.691	2.61
241.073	2.71
241.456	5.02
241.838	4.99
242.221	2.7
242.603	1.44
242.986	2.36
243.368	2.45
243.75	3.19
244.133	3.23
244.515	2.84
244.897	2.99
245.279	2.93
245.661	2.3
246.043	2.8
246.425	3.9
246.807	2.79
247.189	2.83
247.571	2.45
247.953	2.95
248.335	3.49
248.717	2.84
249.098	2.97
249.48	2.82
249.862	3.12
250.243	3.3
250.625	3.12
251.006	3.01
251.388	2.71
251.769	3.32
252.151	4.15
252.532	2.49
252.913	2.54
253.295	3.2
253.676	2.52
254.057	2.8
254.438	3.49
254.819	2.33
255.2	2.48
255.581	1.76
255.962	2.66
256.343	3.58
256.724	2.46
257.105	1.83
257.486	2.21
257.867	3.42
258.247	2.27
258.628	3.13
259.009	4.05
259.389	3.64
259.77	3.14
260.15	2.44
260.531	3.32
260.911	2.44
261.292	2.55
261.672	2.73
262.052	2.84
262.432	2.88
262.813	3.24
263.193	2.28
263.573	2.64
263.953	2.78
264.333	1.97
264.713	3.44
265.093	2.71
265.473	3.23
265.853	2.61
266.233	2.52
266.612	2.94
266.992	3.02
267.372	3.35
267.752	3.04
268.131	3.04
268.511	2.33
268.89	2.86
269.27	3.04
269.649	2.72
270.029	2.87
270.408	2.47
270.787	2.98
271.167	1.63
271.546	2.77
271.925	2.21
272.304	2.75
272.683	2.76
273.062	2.91
273.441	2.29
273.82	2.58
274.199	2.57
274.578	2.89
274.957	2.69
275.336	3.05
275.715	2.56
276.093	3.68
276.472	2.92
276.851	2.69
277.229	2.45
277.608	2.77
277.986	3.18
278.365	3.07
278.743	2.7
279.122	2.69
279.5	2.22
279.878	2.32
280.257	2.64
280.635	2.26
281.013	2.56
281.391	2.91
281.769	3.1
282.147	3.22
282.525	2.21
282.903	2.94
283.281	2.75
283.659	2.21
284.037	2.07
284.415	2.7
284.792	2.75
285.17	2.87
285.548	2.85
285.925	2.56
286.303	2.84
286.68	2.4
287.058	2.61
287.435	2.64
287.813	2.9
288.19	2.45
288.567	2.52
288.945	2.58
289.322	2.57
289.699	2.42
290.076	2.59
290.453	3.14
290.83	3.05
291.207	2.89
291.584	3.25
291.961	2.83
292.338	2.78
292.715	3.22
293.092	2.79
293.469	2.91
293.845	2.9
294.222	3.28
294.599	2.34
294.975	2.39
295.352	2.45
295.728	2.97
296.105	3.15
296.481	3.25
296.858	3.42
297.234	3.08
297.61	3.25
297.986	3.12
298.363	3.04
298.739	3.24
299.115	3.11
299.491	3.7
299.867	3.22
300.243	3.64
300.619	3.48
300.995	3.06
301.371	3.2
301.746	3.32
302.122	3.22
302.498	3.48
302.874	3.62
303.249	3.37
303.625	3.18
304	3.94
304.376	3.32
304.751	2.72
305.127	3.03
305.502	3.96
305.878	3.59
306.253	3.47
306.628	3.9
307.003	3.74
307.378	3.15
307.754	3.97
308.129	3.77
308.504	3.37
308.879	3.57
309.254	4.31
309.629	4
310.003	3.41
310.378	3.56
310.753	3.79
311.128	3.54
311.502	3.53
311.877	3.76
312.252	4.14
312.626	3.75
313.001	3.8
313.375	3.4
313.75	3.39
314.124	3.46
314.498	3.87
314.873	3.89
315.247	3.86
315.621	3.69
315.995	4.27
316.369	3.8
316.743	4.05
317.117	3.75
317.491	3.82
317.865	3.66
318.239	4.38
318.613	3.97
318.987	3.9
319.361	4.17
319.734	3.89
320.108	3.61
320.482	4.1
320.855	4.3
321.229	3.05
321.602	3.81
321.976	4.4
322.349	3.31
322.723	3.87
323.096	4.44
323.469	4.62
323.843	4.16
324.216	4.05
324.589	4.45
324.962	3.91
325.335	3.87
325.708	4
326.081	4.44
326.454	4.02
326.827	4.15
327.2	4.01
327.573	3.73
327.945	4.06
328.318	4.03
328.691	3.71
329.063	4.18
329.436	3.96
329.809	3.9
330.181	4.29
330.553	4.47
330.926	3.72
331.298	4.64
331.671	3.81
332.043	4.42
332.415	4.16
332.787	4.68
333.159	3.99
333.532	4.31
333.904	4.08
334.276	4.49
334.648	4.66
335.02	4.05
335.391	3.69
335.763	3.98
336.135	4.8
336.507	4.62
336.879	4.13
337.25	3.7
337.622	3.78
337.993	4.31
338.365	3.58
338.736	4.39
339.108	4.43
339.479	4.25
339.851	4.25
340.222	4.22
340.593	4.21
340.964	4.64
341.336	4.33
341.707	4.11
342.078	4.23
342.449	4.26
342.82	3.85
343.191	4.29
343.562	3.94
343.933	4.1
344.303	3.69
344.674	4.03
345.045	4.38
345.416	3.67
345.786	4.36
346.157	4.59
346.527	4.25
346.898	4.15
347.268	4.05
347.639	4.32
348.009	4.56
348.38	3.43
348.75	3.94
349.12	4.55
349.49	3.9
349.861	3.98
350.231	4.1
350.601	4.59
350.971	4.05
351.341	4.17
351.711	4.36
352.081	3.88
352.45	4.15
352.82	3.55
353.19	4.1
353.56	3.81
353.929	4.5
354.299	4.2
354.669	4.44
355.038	4.23
355.408	3.72
355.777	4.26
356.147	4.13
356.516	4.42
356.885	4.36
357.254	4.34
357.624	4.49
357.993	3.84
358.362	4.38
358.731	4.1
359.1	4.5
359.469	3.97
359.838	4.18
360.207	4.18
360.576	4.56
360.945	4.55
361.314	4.64
361.682	4.14
362.051	4.22
362.42	4.14
362.788	4.04
363.157	4.17
363.525	4.18
363.894	4.19
364.262	4.25
364.631	4.36
364.999	4.28
365.367	4.59
365.735	4.63
366.104	3.97
366.472	4.34
366.84	3.91
367.208	4.08
367.576	4.48
367.944	4.73
368.312	4.38
368.68	4.25
369.048	4.27
369.416	4.54
369.783	4.22
370.151	4.69
370.519	4.76
370.886	4.44
371.254	4.5
371.621	4.51
371.989	4.56
372.356	5.04
372.724	4.8
373.091	4.79
373.458	4.63
373.826	4.31
374.193	4.78
374.56	4.51
374.927	4.83
375.294	3.98
375.661	4.49
376.028	4.71
376.395	4.37
376.762	4.47
377.129	4.72
377.496	4.61
377.863	4.59
378.229	4.36
378.596	4.64
378.963	4.37
379.329	4.24
379.696	4.41
380.062	4.16
380.429	4.55
380.795	4.65
381.161	4.52
381.528	4.75
381.894	4.49
382.26	4.3
382.626	4.57
382.993	4.79
383.359	4.41
383.725	4.49
384.091	4.49
384.457	4.18
384.823	4.74
385.188	4.26
385.554	4.37
385.92	4.25
386.286	4.6
386.651	4.48
387.017	4.68
387.383	4.18
387.748	4.57
388.114	4.68
388.479	4.5
388.845	4.28
389.21	4.72
389.575	4.71
389.94	4.63
390.306	4.48
390.671	4.65
391.036	4.75
391.401	4.71
391.766	4.46
392.131	4.48
392.496	4.86
392.861	4.96
393.226	4.66
393.591	4.63
393.956	4.62
394.32	4.5
394.685	4.5
395.05	4.7
395.414	4.65
395.779	4.53
396.143	4.57
396.508	4.54
396.872	4.74
397.236	4.62
397.601	4.28
397.965	4.65
398.329	4.74
398.694	4.55
399.058	4.57
399.422	4.65
399.786	4.67
400.15	4.63
400.514	4.8
400.878	4.67
401.242	4.74
401.605	4.67
401.969	4.5
402.333	4.48
402.697	4.57
403.06	4.64
403.424	4.81
403.787	5.02
404.151	4.48
404.514	4.74
404.878	4.94
405.241	4.63
405.604	5.01
405.968	4.72
406.331	4.52
406.694	4.63
407.057	4.66
407.42	4.93
407.783	4.77
408.146	4.86
408.509	4.4
408.872	4.72
409.235	4.74
409.598	5
409.961	4.67
410.323	4.83
410.686	4.79
411.049	4.83
411.411	4.85
411.774	4.95
412.136	4.77
412.499	4.93
412.861	4.8
413.223	4.81
413.586	5
413.948	4.81
414.31	4.58
414.672	4.65
415.035	5.05
415.397	4.76
415.759	4.97
416.121	4.86
416.483	4.82
416.845	4.91
417.206	5
417.568	4.99
417.93	5.02
418.292	4.78
418.653	4.69
419.015	4.85
419.377	4.88
419.738	4.73
420.1	4.81
420.461	4.83
420.822	4.71
421.184	4.87
421.545	4.74
421.906	4.7
422.267	4.82
422.629	4.71
422.99	4.84
423.351	4.72
423.712	4.77
424.073	4.79
424.434	4.78
424.795	4.95
425.155	4.78
425.516	4.76
425.877	4.67
426.238	4.79
426.598	4.77
426.959	4.78
427.32	4.85
427.68	4.96
428.041	4.79
428.401	4.73
428.761	5.04
429.122	4.79
429.482	4.98
429.842	5.01
430.202	5.06
430.563	4.98
430.923	4.84
431.283	5.02
431.643	5.09
432.003	5.12
432.363	5.11
432.722	4.98
433.082	5.07
433.442	5.03
433.802	4.9
434.161	5.2
434.521	4.85
434.881	5.11
435.24	4.95
435.6	4.95
435.959	5.03
436.319	4.95
436.678	5.11
437.037	5.06
437.396	4.95
437.756	5.04
438.115	5.28
438.474	5.14
438.833	5.12
439.192	5.12
439.551	5.08
439.91	5.11
440.269	5.21
440.628	4.68
440.987	5.25
441.345	5.02
441.704	5.13
442.063	5.09
442.421	5.03
442.78	5.13
443.138	5.08
443.497	4.97
443.855	5.11
444.214	5.22
444.572	5.04
444.93	5.23
445.288	5.26
445.647	5.19
446.005	5.09
446.363	5.12
446.721	5.12
447.079	5.09
447.437	5.07
447.795	5.1
448.153	5.2
448.51	5.09
448.868	5
449.226	5.07
449.584	5.13
449.941	5.27
450.299	5.23
450.656	5.18
451.014	5.25
451.371	5.14
451.729	5.35
452.086	5.2
452.443	5.22
452.801	5.27
453.158	5.22
453.515	5.2
453.872	5.17
454.229	5.43
454.586	5.17
454.943	5.36
455.3	5.44
455.657	5.3
456.014	5.28
456.371	5.51
456.727	5.4
457.084	5.27
457.441	5.46
457.797	5.43
458.154	5.38
458.51	5.51
458.867	5.32
459.223	5.2
459.58	5.36
459.936	5.45
460.292	5.28
460.648	5.5
461.005	5.3
461.361	5.38
461.717	5.32
462.073	5.27
462.429	5.25
462.785	5.29
463.141	5.36
463.496	5.55
463.852	5.43
464.208	5.41
464.564	5.39
464.919	5.43
465.275	5.33
465.631	5.38
465.986	5.43
466.342	5.5
466.697	5.47
467.052	5.48
467.408	5.7
467.763	5.42
468.118	5.26
468.473	5.37
468.829	5.48
469.184	5.64
469.539	5.4
469.894	5.49
470.249	5.42
470.603	5.65
470.958	5.69
471.313	5.55
471.668	5.63
472.023	5.55
472.377	5.57
472.732	5.34
473.086	5.59
473.441	5.64
473.795	5.44
474.15	5.56
474.504	5.51
474.859	5.67
475.213	5.78
475.567	5.81
475.921	5.58
476.275	5.63
476.63	5.62
476.984	5.58
477.338	5.48
477.692	5.76
478.045	5.56
478.399	5.74
478.753	5.44
479.107	5.6
479.461	5.63
479.814	5.66
480.168	5.74
480.521	5.75
480.875	5.66
481.228	5.56
481.582	5.77
481.935	5.74
482.289	5.77
482.642	5.59
482.995	5.71
483.348	5.66
483.701	5.55
484.055	5.73
484.408	5.61
484.761	5.6
485.114	5.61
485.466	5.48
485.819	5.43
486.172	5.42
486.525	5.43
486.878	5.51
487.23	5.56
487.583	5.64
487.936	5.68
488.288	5.72
488.641	5.61
488.993	5.57
489.345	5.68
489.698	5.6
490.05	5.6
490.402	5.59
490.754	5.61
491.107	5.7
491.459	5.69
491.811	5.84
492.163	5.89
492.515	5.76
492.866	5.8
493.218	5.63
493.57	5.68
493.922	5.68
494.274	5.73
494.625	5.76
494.977	5.85
495.328	5.87
495.68	6.05
496.031	5.86
496.383	5.96
496.734	5.97
497.086	6.08
497.437	6.08
497.788	6.03
498.139	5.99
498.49	6.09
498.842	6.02
499.193	6.03
499.544	6.03
499.894	6.02
500.245	6.05
500.596	6.15
500.947	6.09
501.298	6.19
501.648	5.97
501.999	6.15
502.35	6.17
502.7	6.17
503.051	6.01
503.401	6.06
503.752	6.17
504.102	6.22
504.452	6.01
504.803	6.25
505.153	6.4
505.503	6.33
505.853	6.32
506.203	6.16
506.553	6.29
506.903	6.21
507.253	6.19
507.603	6.32
507.953	6.31
508.303	6.22
508.652	6.25
509.002	6.25
509.352	6.44
509.701	6.41
510.051	6.29
510.4	6.38
510.75	6.42
511.099	6.3
511.449	6.33
511.798	6.28
512.147	6.51
512.496	6.3
512.846	6.49
513.195	6.48
513.544	6.44
513.893	6.39
514.242	6.51
514.591	6.41
514.939	6.35
515.288	6.44
515.637	6.5
515.986	6.48
516.334	6.62
516.683	6.57
517.032	6.59
517.38	6.55
517.729	6.57
518.077	6.54
518.426	6.57
518.774	6.66
519.122	6.59
519.47	6.58
519.819	6.6
520.167	6.43
520.515	6.53
520.863	6.42
521.211	6.63
521.559	6.65
521.907	6.65
522.255	6.68
522.602	6.56
522.95	6.71
523.298	6.65
523.645	6.91
523.993	6.78
524.341	6.63
524.688	6.77
525.036	6.9
525.383	6.81
525.73	6.84
526.078	6.93
526.425	6.8
526.772	6.76
527.119	6.85
527.466	6.79
527.814	6.77
528.161	6.8
528.508	6.81
528.854	6.81
529.201	6.81
529.548	6.87
529.895	6.78
530.242	6.72
530.588	6.69
530.935	6.72
531.282	6.79
531.628	6.79
531.975	6.81
532.321	6.9
532.667	6.9
533.014	6.95
533.36	7.06
533.706	7.08
534.052	7.05
534.399	7.04
534.745	7.04
535.091	6.95
535.437	6.92
535.783	7.04
536.129	7.14
536.474	7.17
536.82	7.2
537.166	7.2
537.512	7.24
537.857	7.26
538.203	7.23
538.549	7.27
538.894	7.32
539.239	7.35
539.585	7.41
539.93	7.31
540.276	7.44
540.621	7.51
540.966	7.46
541.311	7.42
541.656	7.49
542.001	7.6
542.346	7.4
542.691	7.45
543.036	7.29
543.381	7.36
543.726	7.33
544.071	7.38
544.415	7.4
544.76	7.45
545.105	7.56
545.449	7.48
545.794	7.51
546.138	7.65
546.483	7.66
546.827	7.8
547.171	7.73
547.516	7.78
547.86	7.85
548.204	7.87
548.548	7.65
548.892	7.81
549.236	7.89
549.58	7.94
549.924	7.92
550.268	7.97
550.612	7.95
550.956	7.92
551.3	7.91
551.643	8.17
551.987	8.15
552.33	8.08
552.674	8.06
553.017	8.14
553.361	8.17
553.704	8.1
554.048	8.2
554.391	8.1
554.734	8.2
555.077	8.32
555.42	8.31
555.764	8.13
556.107	8.35
556.45	8.27
556.793	8.31
557.135	8.43
557.478	8.4
557.821	8.39
558.164	8.72
558.507	8.45
558.849	8.55
559.192	8.48
559.534	8.58
559.877	8.72
560.219	8.49
560.562	8.75
560.904	8.62
561.246	8.78
561.589	8.63
561.931	8.66
562.273	8.63
562.615	8.64
562.957	8.79
563.299	8.7
563.641	8.74
563.983	8.86
564.325	9.03
564.667	9.09
565.008	9.01
565.35	9.04
565.692	9.06
566.033	8.89
566.375	8.95
566.716	8.95
567.058	8.96
567.399	9.03
567.741	8.9
568.082	9.3
568.423	9.15
568.764	9.04
569.105	9.05
569.447	9.31
569.788	8.84
570.129	9.21
570.47	9.18
570.811	9.22
571.151	9.24
571.492	9.39
571.833	9.3
572.174	9.53
572.514	9.4
572.855	9.33
573.195	9.43
573.536	9.39
573.876	9.64
574.217	9.54
574.557	9.39
574.898	9.5
575.238	9.7
575.578	9.63
575.918	9.58
576.258	9.75
576.598	9.76
576.938	9.91
577.278	9.78
577.618	9.8
577.958	9.66
578.298	9.89
578.638	9.89
578.977	10.01
579.317	9.79
579.657	9.63
579.996	9.93
580.336	10
580.675	9.82
581.014	9.95
581.354	9.97
581.693	10.27
582.032	9.92
582.372	10.38
582.711	10.03
583.05	10.36
583.389	10.41
583.728	10.44
584.067	10.41
584.406	10.42
584.745	10.45
585.083	10.49
585.422	10.45
585.761	10.45
586.1	10.33
586.438	10.39
586.777	10.43
587.115	10.44
587.454	10.45
587.792	10.54
588.13	10.52
588.469	10.65
588.807	10.58
589.145	10.93
589.483	10.95
589.821	10.4
590.159	10.77
590.497	10.83
590.835	10.72
591.173	10.78
591.511	11.01
591.849	10.96
592.187	10.62
592.524	10.89
592.862	10.91
593.2	10.94
593.537	10.98
593.875	11.07
594.212	11.14
594.55	11.15
594.887	11.19
595.224	11.34
595.561	11.15
595.899	10.98
596.236	11.26
596.573	11.1
596.91	10.98
597.247	11.13
597.584	10.93
597.921	11.28
598.258	11.31
598.594	11.27
598.931	11.17
599.268	11.38
599.604	11.33
599.941	11.48
600.277	11.2
600.614	11.65
600.95	11.39
601.287	11.61
601.623	11.63
601.959	11.51
602.296	11.4
602.632	11.82
602.968	11.71
603.304	11.71
603.64	11.79
603.976	12.2
604.312	11.9
604.648	11.83
604.984	12.12
605.319	11.88
605.655	11.8
605.991	11.84
606.326	11.89
606.662	11.88
606.998	11.91
607.333	12.05
607.668	11.83
608.004	11.91
608.339	12.5
608.674	12.37
609.01	12.08
609.345	12.16
609.68	12.18
610.015	12.56
610.35	12.26
610.685	12.44
611.02	12.17
611.355	12.48
611.689	12.37
612.024	12.23
612.359	12.34
612.694	12.56
613.028	12.44
613.363	12.43
613.697	12.27
614.032	12.67
614.366	12.73
614.7	12.55
615.035	12.84
615.369	12.96
615.703	12.75
616.037	12.47
616.371	12.6
616.705	12.94
617.039	12.98
617.373	12.69
617.707	13.17
618.041	13.03
618.375	13.45
618.709	13
619.042	13.1
619.376	13.36
619.71	13.07
620.043	12.71
620.377	13.51
620.71	13.38
621.043	13.05
621.377	12.64
621.71	13.39
622.043	13.39
622.376	13.24
622.709	13.54
623.043	13.47
623.376	13.48
623.709	13.57
624.041	13.5
624.374	13.39
624.707	13.02
625.04	13.95
625.373	13.42
625.705	13.93
626.038	14.13
626.37	13.73
626.703	14.08
627.035	13.71
627.368	13.76
627.7	13.53
628.032	13.84
628.365	13.89
628.697	13.64
629.029	13.91
629.361	13.91
629.693	13.93
630.025	13.99
630.357	13.7
630.689	13.93
631.021	13.8
631.353	14.05
631.684	13.99
632.016	14.35
632.348	14.31
632.679	14.09
633.011	14.27
633.342	14.2
633.674	14.38
634.005	14.75
634.336	14.12
634.668	14.2
634.999	14.77
635.33	14.37
635.661	14.45
635.992	14.65
636.323	14.33
636.654	14.47
636.985	14.06
637.316	14.57
637.647	14.59
637.977	15.37
638.308	14.56
638.639	14.54
638.969	14.21
639.3	14.66
639.63	14.88
639.961	14.83
640.291	15.24
640.622	14.84
640.952	15
641.282	14.68
641.612	15.01
641.943	15.08
642.273	14.75
642.603	15.32
642.933	15.19
643.263	15.45
643.592	15.08
643.922	15.08
644.252	14.87
644.582	15.19
644.911	15.19
645.241	15.41
645.571	15.58
645.9	15.15
646.23	15.48
646.559	15.26
646.888	15.22
647.218	15.5
647.547	15.15
647.876	15.84
648.205	15.21
648.534	15.16
648.863	15.67
649.192	15.28
649.521	15.85
649.85	15.46
650.179	15.46
650.508	15.51
650.837	15.51
651.165	15.82
651.494	15.62
651.822	15.78
652.151	16.11
652.479	16.12
652.808	16.32
653.136	15.46
653.465	15.73
653.793	16.28
654.121	16.24
654.449	15.74
654.777	16
655.105	16.04
655.433	16.1
655.761	16.33
656.089	15.9
656.417	15.89
656.745	17.15
657.073	16.27
657.4	16.72
657.728	16.11
658.056	16.79
658.383	16.57
658.711	16.55
659.038	16.78
659.365	16.54
659.693	16.33
660.02	16.23
660.347	16.51
660.674	16.63
661.001	16.55
661.329	16.57
661.656	16.53
661.982	16.73
662.309	16.77
662.636	16.48
662.963	16.87
663.29	16.7
663.616	16.05
663.943	16.48
664.27	17.15
664.596	16.97
664.923	16.99
665.249	17.45
665.576	16.77
665.902	16.86
666.228	16.68
666.554	16.95
666.881	16.92
667.207	17.58
667.533	17.11
667.859	17.45
668.185	17.62
668.511	17.03
668.837	17.55
669.162	17.36
669.488	16.89
669.814	16.89
670.139	17.57
670.465	17.48
670.791	17.28
671.116	17.93
671.442	17.89
671.767	17.11
672.092	17.03
672.418	17.92
672.743	16.92
673.068	17.21
673.393	18.14
673.718	17.42
674.043	18.03
674.368	17.64
674.693	17.57
675.018	17.43
675.343	17.09
675.667	17.6
675.992	18.14
676.317	17.61
676.641	17.98
676.966	18.39
677.29	17.44
677.615	18.24
677.939	17.85
678.264	18.02
678.588	18.47
678.912	17.46
679.236	18.69
679.56	18.25
679.885	18.03
680.209	18.14
680.532	18.42
680.856	18.47
681.18	18.68
681.504	18.21
681.828	17.74
682.152	17.52
682.475	18.03
682.799	18.57
683.122	18.11
683.446	17.72
683.769	18.13
684.093	18.18
684.416	18.4
684.739	18.73
685.062	18.58
685.386	18.74
