Data from 0379_forehead_Reflection__4__135.txt Node

Date: Mon Dec 11 19:06:23 CST 2023
User: ToomeyLab
Spectrometer: FLMS14357
Trigger mode: 0
Integration Time (sec): 1.000000E-2
Scans to average: 100
Electric dark correction enabled: true
Nonlinearity correction enabled: false
Boxcar width: 0
XAxis mode: Wavelengths
Number of Pixels in Spectrum: 2048
>>>>>Begin Spectral Data<<<<<
189.047	-32.96
189.435	-32.96
189.823	-32.96
190.211	2.77
190.599	310.2
190.987	-324.43
191.375	74.36
191.763	71.66
192.151	-81.42
192.538	61.03
192.926	-110.38
193.314	165.01
193.702	4.48
194.089	161.19
194.477	56.96
194.864	849.67
195.252	165.64
195.639	-471.83
196.027	38.5
196.414	189.86
196.801	-35.28
197.189	-71.99
197.576	79.69
197.963	29.34
198.351	-14.09
198.738	35.64
199.125	-6.48
199.512	25.39
199.899	50.44
200.286	15.53
200.673	-216.61
201.06	55.95
201.447	94.59
201.833	29.76
202.22	41.51
202.607	28.21
202.994	-47.97
203.38	-28.55
203.767	29.53
204.154	45.14
204.54	13.6
204.927	27.58
205.313	-13.41
205.699	-39.87
206.086	30.89
206.472	27.32
206.858	21.03
207.245	33.56
207.631	26.18
208.017	15.89
208.403	55.74
208.789	1.71
209.175	45.02
209.561	-3.59
209.947	42.12
210.333	50.14
210.719	79.59
211.105	15.73
211.491	32.01
211.876	24.74
212.262	-17.25
212.648	4.59
213.034	-3.19
213.419	20.33
213.805	-8.7
214.19	12.87
214.576	-4.59
214.961	28.17
215.346	31.97
215.732	32.7
216.117	14.8
216.502	31.43
216.888	-5.75
217.273	51.43
217.658	-3.26
218.043	13.07
218.428	29.99
218.813	15.26
219.198	32.43
219.583	12.57
219.968	-3.92
220.353	-24.93
220.738	33.34
221.122	12.91
221.507	39.6
221.892	-0.06
222.276	23.48
222.661	5.36
223.046	11.7
223.43	21.17
223.815	8.27
224.199	14.3
224.583	-4.92
224.968	15.37
225.352	18.49
225.736	8.14
226.121	8.12
226.505	-0.06
226.889	5.91
227.273	8.27
227.657	11.66
228.041	-0.18
228.425	0.26
228.809	1.58
229.193	1.73
229.577	5.26
229.961	2.22
230.344	3.18
230.728	2.18
231.112	2.23
231.495	2.93
231.879	2.36
232.263	2.25
232.646	1.6
233.03	2.78
233.413	2.37
233.797	6.34
234.18	0.97
234.563	3.25
234.946	4.67
235.33	4.08
235.713	3.18
236.096	3.44
236.479	3.57
236.862	3.94
237.245	1.7
237.628	1.22
238.011	2.65
238.394	3.42
238.777	2.91
239.16	2.47
239.543	3.71
239.925	1.42
240.308	3.52
240.691	3.98
241.073	4.63
241.456	4.42
241.838	4.93
242.221	3.12
242.603	2.22
242.986	1.82
243.368	2.35
243.75	2.69
244.133	2.81
244.515	2.35
244.897	2.39
245.279	2.68
245.661	2.28
246.043	2.46
246.425	4.2
246.807	3.42
247.189	3.22
247.571	2.62
247.953	2.26
248.335	3
248.717	2.78
249.098	2.24
249.48	2.4
249.862	2.71
250.243	2.69
250.625	2.75
251.006	2.38
251.388	2.17
251.769	3.32
252.151	4.33
252.532	2.66
252.913	2.6
253.295	3.07
253.676	3.24
254.057	2.49
254.438	3.23
254.819	2.68
255.2	2.05
255.581	3.08
255.962	2.71
256.343	3.13
256.724	3.56
257.105	3.22
257.486	2.59
257.867	4.38
258.247	2.75
258.628	2.23
259.009	3.68
259.389	3.38
259.77	2.69
260.15	3.29
260.531	3.01
260.911	2.08
261.292	2.36
261.672	2.64
262.052	2.68
262.432	2.55
262.813	2.71
263.193	2.76
263.573	2.95
263.953	2.41
264.333	2.26
264.713	3.12
265.093	2.59
265.473	3.5
265.853	2.61
266.233	1.98
266.612	2.21
266.992	3.16
267.372	4.4
267.752	3.9
268.131	2.94
268.511	2.18
268.89	3.46
269.27	3.06
269.649	3.03
270.029	2.94
270.408	2.71
270.787	2.44
271.167	2.03
271.546	3.5
271.925	2.97
272.304	2.97
272.683	2.68
273.062	2.53
273.441	2.53
273.82	2.35
274.199	2.08
274.578	2.57
274.957	3.11
275.336	2.31
275.715	2.19
276.093	2.79
276.472	3.04
276.851	3
277.229	3.23
277.608	2.91
277.986	3.18
278.365	2.21
278.743	2.54
279.122	2.63
279.5	3.13
279.878	2.46
280.257	2.37
280.635	2.78
281.013	3.12
281.391	3.16
281.769	2.44
282.147	2.4
282.525	2.61
282.903	2.68
283.281	2.31
283.659	2.58
284.037	2.03
284.415	2.29
284.792	2.72
285.17	2.73
285.548	2.61
285.925	2.58
286.303	2.64
286.68	2.77
287.058	2.68
287.435	2.84
287.813	3.02
288.19	2.27
288.567	2.43
288.945	2.55
289.322	2.43
289.699	2.45
290.076	2.82
290.453	3.31
290.83	3.31
291.207	2.73
291.584	2.95
291.961	2.77
292.338	2.49
292.715	3.08
293.092	2.75
293.469	3.14
293.845	2.97
294.222	3.26
294.599	2.66
294.975	2.99
295.352	3.23
295.728	3.49
296.105	2.94
296.481	2.9
296.858	3.06
297.234	3.75
297.61	3.99
297.986	3.66
298.363	3.08
298.739	3.15
299.115	3.23
299.491	2.88
299.867	3.34
300.243	3.28
300.619	3.7
300.995	3.07
301.371	3.44
301.746	2.82
302.122	3.86
302.498	3.84
302.874	3.54
303.249	3.32
303.625	3.53
304	3.96
304.376	3.61
304.751	3.47
305.127	4.19
305.502	4.43
305.878	3.94
306.253	4.37
306.628	4.24
307.003	4.36
307.378	3.98
307.754	4.49
308.129	4.53
308.504	4.19
308.879	4.01
309.254	4.51
309.629	4.45
310.003	4.93
310.378	3.84
310.753	4.77
311.128	4.6
311.502	4.16
311.877	4.68
312.252	4.38
312.626	4.66
313.001	4.93
313.375	4.68
313.75	4.73
314.124	5.11
314.498	4.79
314.873	4.82
315.247	4.86
315.621	5.46
315.995	6
316.369	5.09
316.743	5.12
317.117	5.25
317.491	6.18
317.865	5.09
318.239	6.02
318.613	5.91
318.987	5.7
319.361	5.58
319.734	5.35
320.108	5.79
320.482	5.3
320.855	5.82
321.229	5.68
321.602	5.82
321.976	6.7
322.349	5.8
322.723	5.42
323.096	6.2
323.469	6.61
323.843	6.14
324.216	6.51
324.589	6.79
324.962	6.25
325.335	6.62
325.708	6.78
326.081	7.16
326.454	6.74
326.827	6.42
327.2	6.49
327.573	6.5
327.945	7.25
328.318	6.95
328.691	6.15
329.063	6.8
329.436	6.78
329.809	6.44
330.181	7.51
330.553	7.16
330.926	7.22
331.298	7.48
331.671	7.05
332.043	7.46
332.415	7.25
332.787	7.74
333.159	7.57
333.532	7.51
333.904	8.2
334.276	7.87
334.648	7.44
335.02	7.76
335.391	7.19
335.763	7.74
336.135	8.04
336.507	7.57
336.879	8.43
337.25	8.01
337.622	7.42
337.993	8.2
338.365	8.16
338.736	8.03
339.108	8.08
339.479	7.75
339.851	7.67
340.222	7.83
340.593	7.44
340.964	8.02
341.336	8.23
341.707	8.07
342.078	8.21
342.449	8.41
342.82	7.75
343.191	8.29
343.562	7.98
343.933	8.12
344.303	8.65
344.674	8.74
345.045	8.45
345.416	8.18
345.786	8.94
346.157	8.46
346.527	8.78
346.898	8.67
347.268	9.1
347.639	9.11
348.009	8.89
348.38	8.61
348.75	9.05
349.12	9.15
349.49	8.89
349.861	9.11
350.231	8.95
350.601	9.37
350.971	9.27
351.341	9.26
351.711	9.71
352.081	9.37
352.45	9.16
352.82	8.88
353.19	9.58
353.56	9.29
353.929	9.89
354.299	9.81
354.669	10.09
355.038	9.86
355.408	9.26
355.777	9.79
356.147	9.64
356.516	10.36
356.885	9.93
357.254	10.47
357.624	9.98
357.993	9.9
358.362	10.19
358.731	10.08
359.1	10.34
359.469	10.31
359.838	10.12
360.207	9.92
360.576	10.37
360.945	10.65
361.314	10.4
361.682	10.46
362.051	10.43
362.42	10.51
362.788	10.52
363.157	10.67
363.525	10.17
363.894	10.69
364.262	10.76
364.631	10.79
364.999	10.96
365.367	11.15
365.735	11.13
366.104	10.96
366.472	11.31
366.84	11.16
367.208	10.89
367.576	11.37
367.944	11.1
368.312	11.23
368.68	11.36
369.048	11.4
369.416	10.99
369.783	11.43
370.151	11.9
370.519	12.23
370.886	11.58
371.254	12.06
371.621	12.05
371.989	12.02
372.356	11.91
372.724	12.31
373.091	12.47
373.458	12.05
373.826	12.24
374.193	12.37
374.56	12.59
374.927	12.46
375.294	12.44
375.661	12.35
376.028	12.81
376.395	12.55
376.762	12.47
377.129	12.9
377.496	12.5
377.863	12.75
378.229	12.77
378.596	12.82
378.963	12.89
379.329	12.52
379.696	12.82
380.062	12.72
380.429	13.08
380.795	13.38
381.161	13.07
381.528	13.45
381.894	13.41
382.26	13.25
382.626	13.38
382.993	13.68
383.359	13.59
383.725	13.37
384.091	13.86
384.457	13.49
384.823	13.97
385.188	13.48
385.554	13.61
385.92	13.8
386.286	13.78
386.651	13.94
387.017	13.98
387.383	13.61
387.748	14.05
388.114	14.06
388.479	14.35
388.845	14.01
389.21	14.47
389.575	14.13
389.94	14.41
390.306	14.27
390.671	14.35
391.036	14.33
391.401	14.8
391.766	14.42
392.131	14.76
392.496	14.8
392.861	14.73
393.226	14.84
393.591	14.94
393.956	14.45
394.32	15.07
394.685	14.96
395.05	15.06
395.414	15.25
395.779	14.99
396.143	14.76
396.508	14.93
396.872	15.13
397.236	15.3
397.601	15.28
397.965	15.38
398.329	15.44
398.694	15.51
399.058	15.26
399.422	15.32
399.786	15.63
400.15	15.64
400.514	15.76
400.878	15.83
401.242	15.37
401.605	16.02
401.969	15.71
402.333	15.68
402.697	15.83
403.06	15.9
403.424	15.94
403.787	16.18
404.151	16.21
404.514	15.84
404.878	16.07
405.241	16.35
405.604	16.38
405.968	16.22
406.331	15.97
406.694	16.24
407.057	16.24
407.42	16.49
407.783	16.44
408.146	16.6
408.509	16.41
408.872	16.5
409.235	16.86
409.598	16.76
409.961	16.79
410.323	16.96
410.686	17.11
411.049	17.05
411.411	17.18
411.774	17.17
412.136	16.79
412.499	17.19
412.861	17.08
413.223	17.19
413.586	17.46
413.948	17.3
414.31	17.25
414.672	17.37
415.035	17.34
415.397	17.2
415.759	17.5
416.121	17.54
416.483	17.79
416.845	17.56
417.206	17.57
417.568	17.77
417.93	17.89
418.292	17.73
418.653	17.71
419.015	17.8
419.377	17.8
419.738	17.81
420.1	17.51
420.461	17.71
420.822	17.72
421.184	17.78
421.545	17.88
421.906	17.88
422.267	17.88
422.629	17.88
422.99	17.82
423.351	17.74
423.712	18.05
424.073	18.14
424.434	18.26
424.795	18.37
425.155	18.17
425.516	18.17
425.877	18.23
426.238	18.31
426.598	18.29
426.959	18.33
427.32	18.53
427.68	18.63
428.041	18.75
428.401	18.86
428.761	18.85
429.122	18.86
429.482	19
429.842	19.26
430.202	19.3
430.563	19.34
430.923	19.25
431.283	19.32
431.643	19.48
432.003	19.63
432.363	19.55
432.722	19.65
433.082	19.7
433.442	19.77
433.802	19.9
434.161	19.78
434.521	19.52
434.881	19.72
435.24	19.75
435.6	19.84
435.959	19.93
436.319	19.96
436.678	20.03
437.037	20.13
437.396	20.25
437.756	20.24
438.115	20.59
438.474	20.33
438.833	20.5
439.192	20.41
439.551	20.67
439.91	20.56
440.269	20.61
440.628	20.5
440.987	20.67
441.345	20.64
441.704	20.57
442.063	20.65
442.421	20.53
442.78	20.52
443.138	20.74
443.497	20.76
443.855	20.75
444.214	21.18
444.572	20.99
444.93	21.14
445.288	21.36
445.647	21.27
446.005	21.13
446.363	21.11
446.721	21.14
447.079	21.32
447.437	21.32
447.795	21.15
448.153	21.27
448.51	21.13
448.868	21.03
449.226	21.26
449.584	21.32
449.941	21.61
450.299	21.66
450.656	21.72
451.014	21.93
451.371	21.77
451.729	22.2
452.086	22.02
452.443	22.21
452.801	22.36
453.158	22.33
453.515	22.48
453.872	22.49
454.229	22.35
454.586	22.43
454.943	22.44
455.3	22.67
455.657	22.65
456.014	22.61
456.371	22.99
456.727	22.68
457.084	22.94
457.441	23.06
457.797	22.81
458.154	22.93
458.51	23.11
458.867	23.06
459.223	23.31
459.58	23.25
459.936	23.17
460.292	23.22
460.648	23.23
461.005	23.25
461.361	23.07
461.717	23
462.073	22.98
462.429	23.21
462.785	23.32
463.141	23.27
463.496	23.41
463.852	23.62
464.208	23.71
464.564	23.82
464.919	24.03
465.275	24
465.631	24.03
465.986	23.94
466.342	24.38
466.697	24.3
467.052	24.21
467.408	24.74
467.763	24.31
468.118	24.3
468.473	24.23
468.829	24.62
469.184	24.57
469.539	24.49
469.894	24.39
470.249	24.71
470.603	24.79
470.958	24.86
471.313	24.93
471.668	24.89
472.023	24.79
472.377	24.8
472.732	25.29
473.086	25.01
473.441	25.12
473.795	25.16
474.15	25.31
474.504	25.26
474.859	25.28
475.213	25.31
475.567	25.59
475.921	25.58
476.275	25.58
476.63	25.58
476.984	25.9
477.338	25.56
477.692	25.84
478.045	25.87
478.399	25.64
478.753	25.7
479.107	25.69
479.461	25.79
479.814	25.91
480.168	25.97
480.521	26.3
480.875	26.13
481.228	26.07
481.582	26.27
481.935	26.3
482.289	26.06
482.642	26.14
482.995	26.19
483.348	26.21
483.701	26.15
484.055	26.08
484.408	25.88
484.761	25.8
485.114	25.57
485.466	25.24
485.819	25.08
486.172	25.27
486.525	25.43
486.878	25.68
487.23	25.79
487.583	25.95
487.936	26.14
488.288	26.28
488.641	26.19
488.993	25.95
489.345	25.95
489.698	25.95
490.05	26.01
490.402	26.06
490.754	26.35
491.107	26.6
491.459	26.67
491.811	27.03
492.163	27.1
492.515	27.1
492.866	26.99
493.218	26.58
493.57	26.58
493.922	26.59
494.274	26.97
494.625	27.08
494.977	27.32
495.328	27.62
495.68	27.76
496.031	27.94
496.383	28.1
496.734	28.25
497.086	28.09
497.437	28.41
497.788	28.4
498.139	28.33
498.49	28.15
498.842	28.31
499.193	28.39
499.544	28.21
499.894	28.43
500.245	28.56
500.596	28.59
500.947	28.56
501.298	28.96
501.648	28.67
501.999	28.99
502.35	28.97
502.7	29.12
503.051	29.06
503.401	29.29
503.752	29.29
504.102	29.56
504.452	29.42
504.803	29.52
505.153	29.65
505.503	29.57
505.853	29.66
506.203	29.53
506.553	29.65
506.903	29.58
507.253	29.72
507.603	29.88
507.953	29.86
508.303	29.84
508.652	29.73
509.002	29.96
509.352	29.99
509.701	30.14
510.051	29.92
510.4	29.86
510.75	30.08
511.099	30.13
511.449	30.13
511.798	30.05
512.147	30.33
512.496	30.19
512.846	30.25
513.195	30.4
513.544	30.39
513.893	30.35
514.242	30.5
514.591	30.48
514.939	30.49
515.288	30.72
515.637	30.77
515.986	30.76
516.334	30.88
516.683	31.05
517.032	31.12
517.38	30.98
517.729	31.33
518.077	31.21
518.426	31.46
518.774	31.32
519.122	31.09
519.47	31.23
519.819	31.2
520.167	30.86
520.515	30.83
520.863	30.87
521.211	31.1
521.559	31.29
521.907	31.35
522.255	31.38
522.602	31.58
522.95	31.73
523.298	31.9
523.645	31.91
523.993	32.03
524.341	32.01
524.688	32.07
525.036	32.07
525.383	32.21
525.73	32.27
526.078	32.31
526.425	32.35
526.772	32.16
527.119	31.93
527.466	31.84
527.814	31.8
528.161	31.94
528.508	31.98
528.854	32.07
529.201	32.17
529.548	31.96
529.895	31.88
530.242	31.42
530.588	31.33
530.935	31.66
531.282	31.87
531.628	31.96
531.975	32.04
532.321	32.2
532.667	32.34
533.014	32.55
533.36	32.71
533.706	32.88
534.052	32.77
534.399	32.91
534.745	32.78
535.091	32.48
535.437	32.37
535.783	32.66
536.129	32.85
536.474	33.07
536.82	33.15
537.166	33.25
537.512	33.46
537.857	33.61
538.203	33.51
538.549	33.32
538.894	33.48
539.239	33.57
539.585	33.72
539.93	33.75
540.276	34.15
540.621	34.16
540.966	34.3
541.311	34.32
541.656	34.41
542.001	34.54
542.346	34.18
542.691	34.03
543.036	33.68
543.381	33.42
543.726	33.55
544.071	33.74
544.415	33.96
544.76	34.05
545.105	34.23
545.449	34.21
545.794	34.38
546.138	34.61
546.483	34.94
546.827	34.99
547.171	34.95
547.516	35.02
547.86	35.05
548.204	35.34
548.548	34.94
548.892	35.17
549.236	35.1
549.58	35.35
549.924	35.41
550.268	35.54
550.612	35.78
550.956	35.88
551.3	35.9
551.643	36.17
551.987	36.3
552.33	36.28
552.674	36.16
553.017	36.42
553.361	36.37
553.704	36.28
554.048	36.53
554.391	36.37
554.734	36.42
555.077	36.31
555.42	36.52
555.764	36.69
556.107	36.76
556.45	36.87
556.793	36.87
557.135	37.18
557.478	37.14
557.821	37.33
558.164	37.28
558.507	37.33
558.849	37.08
559.192	37.36
559.534	37.16
559.877	37.51
560.219	37.45
560.562	37.31
560.904	37.48
561.246	37.69
561.589	37.86
561.931	38.11
562.273	37.64
562.615	37.66
562.957	37.79
563.299	37.63
563.641	37.72
563.983	37.72
564.325	37.78
564.667	38.22
565.008	38.36
565.35	38.15
565.692	38.61
566.033	38.52
566.375	38.5
566.716	38.5
567.058	38.23
567.399	38.32
567.741	38.19
568.082	38.21
568.423	38.49
568.764	38.49
569.105	38.45
569.447	38.47
569.788	38.67
570.129	38.77
570.47	38.76
570.811	38.84
571.151	38.81
571.492	39.1
571.833	39.02
572.174	39.05
572.514	38.98
572.855	39.04
573.195	39.19
573.536	38.99
573.876	39.14
574.217	39.12
574.557	39.09
574.898	39.37
575.238	39.48
575.578	39.58
575.918	39.51
576.258	39.36
576.598	39.65
576.938	39.7
577.278	39.6
577.618	39.58
577.958	39.53
578.298	39.93
578.638	39.98
578.977	40.05
579.317	39.97
579.657	39.91
579.996	39.94
580.336	40.7
580.675	40.32
581.014	40.66
581.354	40.28
581.693	40.94
582.032	40.8
582.372	40.88
582.711	40.79
583.05	40.96
583.389	41.12
583.728	41.27
584.067	41.09
584.406	41.35
584.745	41.3
585.083	41.26
585.422	41.27
585.761	41.37
586.1	41.3
586.438	41.4
586.777	41.5
587.115	41.54
587.454	41.58
587.792	41.57
588.13	41.68
588.469	41.64
588.807	41.86
589.145	41.75
589.483	41.83
589.821	42.02
590.159	41.93
590.497	41.9
590.835	42.32
591.173	42
591.511	41.96
591.849	42.2
592.187	42.12
592.524	41.99
592.862	42.08
593.2	42.33
593.537	42.29
593.875	42.6
594.212	42.67
594.55	42.59
594.887	42.65
595.224	42.62
595.561	42.64
595.899	42.46
596.236	42.53
596.573	42.48
596.91	42.62
597.247	42.72
597.584	42.55
597.921	42.7
598.258	42.69
598.594	42.55
598.931	42.5
599.268	42.43
599.604	42.74
599.941	42.82
600.277	43.12
600.614	43.45
600.95	43.2
601.287	43.33
601.623	43.89
601.959	43.47
602.296	43.56
602.632	43.66
602.968	44.02
603.304	43.99
603.64	43.57
603.976	44.16
604.312	43.77
604.648	43.44
604.984	43.69
605.319	43.84
605.655	43.77
605.991	43.73
606.326	43.71
606.662	43.35
606.998	43.64
607.333	43.42
607.668	43.78
608.004	43.53
608.339	44.04
608.674	44.44
609.01	44.37
609.345	44.62
609.68	44.32
610.015	44.67
610.35	44.69
610.685	44.27
611.02	44.5
611.355	44.9
611.689	44.58
612.024	44.32
612.359	44.31
612.694	44.49
613.028	44.98
613.363	44.75
613.697	44.74
614.032	45.3
614.366	45.41
614.7	45.24
615.035	45.15
615.369	45.23
615.703	44.97
616.037	45.46
616.371	45.63
616.705	45.54
617.039	45.4
617.373	45.72
617.707	46.28
618.041	45.83
618.375	45.6
618.709	45.87
619.042	46.12
619.376	46.25
619.71	46.2
620.043	45.65
620.377	45.65
620.71	46.26
621.043	46.03
621.377	45.88
621.71	46.47
622.043	46.43
622.376	46.27
622.709	46.65
623.043	46.83
623.376	46.85
623.709	46.8
624.041	46.96
624.374	46.58
624.707	46.51
625.04	47.28
625.373	46.92
625.705	46.89
626.038	46.94
626.37	46.96
626.703	47.54
627.035	46.88
627.368	47.04
627.7	46.43
628.032	46.88
628.365	47.05
628.697	47.1
629.029	47.21
629.361	46.9
629.693	47.11
630.025	47.17
630.357	47.11
630.689	47.41
631.021	47.24
631.353	47.23
631.684	47.74
632.016	48.02
632.348	47.46
632.679	47.84
633.011	47.9
633.342	47.75
633.674	47.97
634.005	47.54
634.336	47.95
634.668	47.94
634.999	48.1
635.33	48.31
635.661	48.11
635.992	48.35
636.323	48.06
636.654	48.54
636.985	48.12
637.316	48.28
637.647	48.55
637.977	48.6
638.308	48.83
638.639	48.49
638.969	48.25
639.3	48.9
639.63	49.29
639.961	48.62
640.291	48.64
640.622	48.77
640.952	48.57
641.282	48.64
641.612	48.82
641.943	48.2
642.273	48.78
642.603	49.27
642.933	49.17
643.263	49.36
643.592	48.93
643.922	48.78
644.252	49.46
644.582	50.17
644.911	49.77
645.241	49.76
645.571	49.63
645.9	49.67
646.23	49.63
646.559	49.73
646.888	50.18
647.218	49.52
647.547	49.47
647.876	50.11
648.205	50.06
648.534	49.41
648.863	49.66
649.192	49.33
649.521	50.29
649.85	49.68
650.179	49.71
650.508	50.28
650.837	50.12
651.165	50.09
651.494	50.32
651.822	49.96
652.151	50.57
652.479	50.73
652.808	50.13
653.136	50.19
653.465	50.21
653.793	51.02
654.121	50.23
654.449	50.49
654.777	50.39
655.105	50.75
655.433	50.77
655.761	50.92
656.089	50.75
656.417	50.51
656.745	51.05
657.073	50.59
657.4	50.61
657.728	51.15
658.056	51.58
658.383	50.62
658.711	50.81
659.038	51.05
659.365	50.95
659.693	51.34
660.02	50.96
660.347	51.56
660.674	51.2
661.001	51.06
661.329	51.34
661.656	50.73
661.982	51.51
662.309	51.89
662.636	51.82
662.963	51.15
663.29	50.75
663.616	51.05
663.943	51.41
664.27	51.87
664.596	52.08
664.923	52.01
665.249	51.85
665.576	51.92
665.902	51.6
666.228	52.59
666.554	52.17
666.881	51.35
667.207	51.82
667.533	52.43
667.859	51.71
668.185	52.97
668.511	52.62
668.837	52.05
669.162	52.5
669.488	52.02
669.814	51.56
670.139	52.36
670.465	52.27
670.791	52.47
671.116	52.48
