Data from 0379_crown_Reflection__2__127.txt Node

Date: Mon Dec 11 19:04:36 CST 2023
User: ToomeyLab
Spectrometer: FLMS14357
Trigger mode: 0
Integration Time (sec): 1.000000E-2
Scans to average: 100
Electric dark correction enabled: true
Nonlinearity correction enabled: false
Boxcar width: 0
XAxis mode: Wavelengths
Number of Pixels in Spectrum: 2048
>>>>>Begin Spectral Data<<<<<
189.047	49.53
189.435	49.53
189.823	49.53
190.211	-19.4
190.599	100.54
190.987	-226.44
191.375	171.3
191.763	24.04
192.151	26.39
192.538	89.13
192.926	-416.17
193.314	71.34
193.702	-25.42
194.089	32.55
194.477	109.4
194.864	384
195.252	4436.81
195.639	219.12
196.027	188.63
196.414	81.13
196.801	-10.57
197.189	-59.91
197.576	64.84
197.963	59.71
198.351	-40.54
198.738	-29.93
199.125	-2.3
199.512	8.93
199.899	19.1
200.286	42.3
200.673	-101.77
201.06	5.8
201.447	-21.12
201.833	4.75
202.22	24.4
202.607	-7.72
202.994	-50.65
203.38	-125.55
203.767	8.47
204.154	10.3
204.54	-47.67
204.927	-1.36
205.313	-33.32
205.699	-12.43
206.086	-36.86
206.472	11.6
206.858	-7.56
207.245	8.9
207.631	17.56
208.017	22.08
208.403	14.94
208.789	-74.19
209.175	14.19
209.561	-23.31
209.947	-2.32
210.333	19.17
210.719	9.24
211.105	30.4
211.491	21.03
211.876	-6.19
212.262	-8.85
212.648	24.25
213.034	-17.66
213.419	-25.83
213.805	-22.03
214.19	18.37
214.576	-8.18
214.961	17.83
215.346	-14.87
215.732	-20.09
216.117	-2.88
216.502	-24.18
216.888	20.34
217.273	20.96
217.658	-11.71
218.043	-31.69
218.428	5.49
218.813	24.16
219.198	-32.92
219.583	-2.48
219.968	-12.33
220.353	-16.41
220.738	24.96
221.122	-10.85
221.507	7.23
221.892	2.35
222.276	-8.45
222.661	-11.9
223.046	-14.43
223.43	4.06
223.815	-9.22
224.199	0.65
224.583	-5.05
224.968	-3.55
225.352	-2.35
225.736	1.91
226.121	2.93
226.505	-7.19
226.889	8.31
227.273	4.78
227.657	8.88
228.041	4.12
228.425	0.38
228.809	-2.67
229.193	2.37
229.577	3.79
229.961	1.71
230.344	1.21
230.728	1.13
231.112	1.74
231.495	2.52
231.879	1.71
232.263	1.26
232.646	0.91
233.03	0.59
233.413	2.41
233.797	2.7
234.18	3.54
234.563	3.83
234.946	2.98
235.33	1.72
235.713	1.73
236.096	2.68
236.479	2.3
236.862	2.2
237.245	0.22
237.628	1.97
238.011	2.27
238.394	1.65
238.777	2.15
239.16	1.6
239.543	2.28
239.925	0.94
240.308	0.89
240.691	1.84
241.073	2.73
241.456	2.73
241.838	2.75
242.221	1.75
242.603	0.08
242.986	1.72
243.368	1.67
243.75	1.91
244.133	1.87
244.515	1.96
244.897	1.51
245.279	2.01
245.661	1.29
246.043	1.5
246.425	2.63
246.807	1.2
247.189	2.06
247.571	2.19
247.953	0.88
248.335	2.37
248.717	2.01
249.098	1.78
249.48	1.56
249.862	2.02
250.243	1.86
250.625	1.66
251.006	1.81
251.388	1.89
251.769	2.26
252.151	2.16
252.532	2.36
252.913	2.39
253.295	2.44
253.676	1.79
254.057	1.54
254.438	2.29
254.819	1.48
255.2	0.92
255.581	0.38
255.962	1
256.343	0.69
256.724	0.78
257.105	0.91
257.486	1.06
257.867	1.46
258.247	1.36
258.628	1.91
259.009	2.49
259.389	2.55
259.77	1.72
260.15	1.32
260.531	1.81
260.911	1.28
261.292	1.33
261.672	1.65
262.052	1.73
262.432	1.72
262.813	1.49
263.193	1.39
263.573	1.46
263.953	1.02
264.333	1.23
264.713	1.83
265.093	1.15
265.473	2.06
265.853	0.67
266.233	1.44
266.612	0.69
266.992	1.56
267.372	2.05
267.752	1.87
268.131	1.67
268.511	1.14
268.89	1.82
269.27	2
269.649	2.43
270.029	2.02
270.408	1.72
270.787	1.33
271.167	0.85
271.546	1.42
271.925	1.39
272.304	1.3
272.683	1.3
273.062	1.3
273.441	1.41
273.82	0.85
274.199	1.14
274.578	1.78
274.957	1.75
275.336	1.51
275.715	1.42
276.093	2.41
276.472	1.76
276.851	2.14
277.229	2.03
277.608	1.71
277.986	1.85
278.365	1.07
278.743	1.96
279.122	1.58
279.5	1.75
279.878	1.71
280.257	1.01
280.635	1.49
281.013	1.48
281.391	2.16
281.769	0.85
282.147	1.23
282.525	1.07
282.903	2.01
283.281	1.55
283.659	1.13
284.037	0.79
284.415	1.53
284.792	1.66
285.17	1.58
285.548	0.88
285.925	1.27
286.303	1.47
286.68	1.32
287.058	1.32
287.435	1.53
287.813	1.42
288.19	1.31
288.567	1.23
288.945	1.6
289.322	0.86
289.699	0.72
290.076	0.85
290.453	1.65
290.83	1.93
291.207	1.73
291.584	1.79
291.961	1.61
292.338	1.23
292.715	1.93
293.092	1.69
293.469	1.49
293.845	1.18
294.222	1.85
294.599	1.56
294.975	0.89
295.352	1.02
295.728	1.34
296.105	1.38
296.481	1.55
296.858	1.4
297.234	1.87
297.61	1.88
297.986	1.64
298.363	1.63
298.739	1.43
299.115	1.49
299.491	1.83
299.867	1.64
300.243	1.86
300.619	1.15
300.995	0.82
301.371	1.41
301.746	0.74
302.122	1.31
302.498	1.74
302.874	1.67
303.249	1.8
303.625	1.93
304	1.52
304.376	1.66
304.751	1.07
305.127	1.96
305.502	1.43
305.878	1.37
306.253	1.81
306.628	1.97
307.003	1.44
307.378	1.26
307.754	1.66
308.129	1.51
308.504	1.52
308.879	1.36
309.254	2.45
309.629	1.73
310.003	1.46
310.378	0.98
310.753	1.7
311.128	1.5
311.502	1.03
311.877	1.73
312.252	2.19
312.626	1.38
313.001	1.65
313.375	1.38
313.75	1.47
314.124	1.73
314.498	1.22
314.873	1.5
315.247	1.28
315.621	2.08
315.995	1.82
316.369	1.21
316.743	2.1
317.117	1.8
317.491	1.74
317.865	1.26
318.239	1.61
318.613	1.75
318.987	1.59
319.361	1.78
319.734	0.81
320.108	1.6
320.482	1.43
320.855	1.61
321.229	1.71
321.602	2.01
321.976	2.2
322.349	1.55
322.723	1.5
323.096	2.14
323.469	2.11
323.843	2.25
324.216	1.9
324.589	2.05
324.962	1.75
325.335	1.77
325.708	1.64
326.081	1.8
326.454	1.83
326.827	1.75
327.2	1.26
327.573	1.29
327.945	1.93
328.318	1.73
328.691	1.26
329.063	1.39
329.436	1.48
329.809	1.73
330.181	2.17
330.553	1.28
330.926	1.85
331.298	1.39
331.671	1.56
332.043	2.13
332.415	2.15
332.787	1.88
333.159	1.59
333.532	1.94
333.904	1.99
334.276	2.04
334.648	1.67
335.02	1.68
335.391	1.45
335.763	2.22
336.135	2.29
336.507	1.27
336.879	2.28
337.25	2.26
337.622	1.56
337.993	1.72
338.365	1.67
338.736	2.08
339.108	2.36
339.479	1.39
339.851	1.91
340.222	1.9
340.593	1.29
340.964	1.9
341.336	1.91
341.707	2.06
342.078	2.02
342.449	2.08
342.82	1.1
343.191	1.39
343.562	1.67
343.933	1.81
344.303	1.37
344.674	1.92
345.045	2.07
345.416	1.65
345.786	2.09
346.157	1.76
346.527	1.75
346.898	1.7
347.268	2.08
347.639	2.19
348.009	2.22
348.38	1.72
348.75	2.05
349.12	1.85
349.49	1.42
349.861	1.27
350.231	1.61
350.601	2.21
350.971	2.02
351.341	1.47
351.711	1.75
352.081	1.27
352.45	1.91
352.82	1.78
353.19	2.16
353.56	1.93
353.929	1.99
354.299	2.12
354.669	2
355.038	1.67
355.408	1.36
355.777	1.69
356.147	1.96
356.516	1.89
356.885	1.8
357.254	1.8
357.624	1.58
357.993	1.57
358.362	1.78
358.731	2.19
359.1	1.76
359.469	1.78
359.838	1.71
360.207	1.71
360.576	1.86
360.945	2.15
361.314	2.41
361.682	1.58
362.051	2.04
362.42	1.98
362.788	1.9
363.157	2.07
363.525	1.58
363.894	1.87
364.262	1.82
364.631	2.05
364.999	1.7
365.367	1.95
365.735	2.32
366.104	1.6
366.472	2
366.84	1.52
367.208	1.54
367.576	2.1
367.944	2.04
368.312	1.96
368.68	1.85
369.048	1.72
369.416	1.35
369.783	1.76
370.151	1.94
370.519	2.28
370.886	1.98
371.254	1.94
371.621	2.19
371.989	1.91
372.356	1.94
372.724	2.3
373.091	2.2
373.458	1.82
373.826	1.78
374.193	1.74
374.56	2.02
374.927	2.23
375.294	1.78
375.661	2.04
376.028	1.99
376.395	1.82
376.762	1.94
377.129	2.09
377.496	1.91
377.863	2.1
378.229	2.24
378.596	2.05
378.963	1.96
379.329	1.89
379.696	1.99
380.062	1.85
380.429	2.17
380.795	2.43
381.161	2.01
381.528	1.81
381.894	2.02
382.26	2.05
382.626	2.08
382.993	2.09
383.359	1.82
383.725	1.83
384.091	2.16
384.457	1.77
384.823	1.91
385.188	1.98
385.554	1.98
385.92	1.95
386.286	2.19
386.651	2.07
387.017	2.14
387.383	1.78
387.748	2.03
388.114	2.01
388.479	2.17
388.845	1.78
389.21	1.84
389.575	2.09
389.94	2.08
390.306	2.25
390.671	2.01
391.036	2.05
391.401	2.17
391.766	2.03
392.131	2.12
392.496	2.44
392.861	2.43
393.226	1.99
393.591	2.18
393.956	2
394.32	2.05
394.685	2.04
395.05	2.12
395.414	2.12
395.779	1.93
396.143	1.83
396.508	2.02
396.872	2.19
397.236	2.21
397.601	1.77
397.965	2.05
398.329	2.08
398.694	1.89
399.058	2.08
399.422	2.07
399.786	2.03
400.15	2.18
400.514	2.44
400.878	2.11
401.242	2
401.605	1.97
401.969	2.01
402.333	2
402.697	2.05
403.06	2.22
403.424	2.08
403.787	2.43
404.151	1.85
404.514	2.13
404.878	1.96
405.241	1.89
405.604	2.21
405.968	2.1
406.331	1.92
406.694	1.98
407.057	1.96
407.42	2.21
407.783	1.77
408.146	2.19
408.509	2.07
408.872	2.17
409.235	1.88
409.598	1.91
409.961	2.24
410.323	2.14
410.686	2.11
411.049	1.99
411.411	1.91
411.774	2.39
412.136	2.04
412.499	2.29
412.861	1.89
413.223	2.09
413.586	2.26
413.948	2.11
414.31	2.23
414.672	1.86
415.035	2.11
415.397	2.18
415.759	2.15
416.121	2.1
416.483	2.17
416.845	2.13
417.206	2.07
417.568	2.13
417.93	2.33
418.292	2.2
418.653	2.03
419.015	2.04
419.377	2.12
419.738	2.11
420.1	2.18
420.461	2.09
420.822	2.06
421.184	2.14
421.545	2.04
421.906	2
422.267	2.06
422.629	2.02
422.99	2.05
423.351	2.03
423.712	2.04
424.073	2.15
424.434	2.1
424.795	2.16
425.155	2.07
425.516	1.96
425.877	1.96
426.238	2.12
426.598	2.03
426.959	2.13
427.32	2.01
427.68	2.13
428.041	2.03
428.401	2.04
428.761	2.21
429.122	2.08
429.482	2.13
429.842	2.06
430.202	2.24
430.563	2.08
430.923	2.08
431.283	2.12
431.643	2.02
432.003	2.2
432.363	2.37
432.722	2
433.082	2.28
433.442	2.16
433.802	2.05
434.161	2.35
434.521	2.01
434.881	2.13
435.24	2.13
435.6	2.13
435.959	2.14
436.319	2.08
436.678	2.14
437.037	2.19
437.396	2.11
437.756	2.32
438.115	2.27
438.474	2.23
438.833	2.27
439.192	2.25
439.551	2.26
439.91	2.14
440.269	2.23
440.628	1.89
440.987	2.25
441.345	2.13
441.704	2.18
442.063	2.14
442.421	2.08
442.78	2.15
443.138	2.06
443.497	2.04
443.855	2.07
444.214	2.3
444.572	2.19
444.93	2.35
445.288	2.21
445.647	2.28
446.005	2
446.363	2.08
446.721	2.18
447.079	2.17
447.437	2.16
447.795	2.1
448.153	2.25
448.51	2.15
448.868	2.01
449.226	2.11
449.584	2.11
449.941	2.23
450.299	2.13
450.656	2.19
451.014	2.32
451.371	1.99
451.729	2.31
452.086	2.25
452.443	2.36
452.801	2.2
453.158	2.08
453.515	2.12
453.872	2.27
454.229	2.13
454.586	2.11
454.943	2.26
455.3	2.43
455.657	2.25
456.014	2.33
456.371	2.31
456.727	2.26
457.084	2.12
457.441	2.25
457.797	2.22
458.154	2.23
458.51	2.27
458.867	2.08
459.223	2.19
459.58	2.31
459.936	2.4
460.292	2.24
460.648	2.27
461.005	2.11
461.361	2.17
461.717	2.08
462.073	2.16
462.429	2.22
462.785	2.16
463.141	2.21
463.496	2.22
463.852	2.22
464.208	2.18
464.564	2.29
464.919	2.22
465.275	2.11
465.631	2.02
465.986	2.33
466.342	2.27
466.697	2.32
467.052	2.19
467.408	2.4
467.763	2.22
468.118	2.09
468.473	2.15
468.829	2.3
469.184	2.42
469.539	2.45
469.894	2.2
470.249	2.24
470.603	2.19
470.958	2.22
471.313	2.14
471.668	2.37
472.023	2.44
472.377	2.28
472.732	2.24
473.086	2.35
473.441	2.32
473.795	2.29
474.15	2.19
474.504	2.24
474.859	2.39
475.213	2.32
475.567	2.37
475.921	2.14
476.275	2.19
476.63	2.08
476.984	2.38
477.338	2.19
477.692	2.34
478.045	2.32
478.399	2.08
478.753	2.05
479.107	2.26
479.461	2.22
479.814	2.17
480.168	2.27
480.521	2.39
480.875	2.08
481.228	2.19
481.582	2.34
481.935	2.3
482.289	2.17
482.642	2.17
482.995	2.19
483.348	2.18
483.701	2.06
484.055	2.22
484.408	2.16
484.761	2.19
485.114	2.17
485.466	2.05
485.819	2
486.172	2.08
486.525	2.12
486.878	2.13
487.23	2.16
487.583	2.15
487.936	2.15
488.288	2.23
488.641	2.09
488.993	2.05
489.345	2.18
489.698	2.11
490.05	2.13
490.402	2.15
490.754	2.17
491.107	2.19
491.459	2.21
491.811	2.25
492.163	2.23
492.515	2.24
492.866	2.25
493.218	2.08
493.57	2.14
493.922	2.14
494.274	2.19
494.625	2.21
494.977	2.31
495.328	2.28
495.68	2.32
496.031	2.22
496.383	2.17
496.734	2.37
497.086	2.28
497.437	2.33
497.788	2.28
498.139	2.21
498.49	2.26
498.842	2.25
499.193	2.32
499.544	2.22
499.894	2.3
500.245	2.2
500.596	2.28
500.947	2.29
501.298	2.31
501.648	2.33
501.999	2.23
502.35	2.21
502.7	2.35
503.051	2.18
503.401	2.27
503.752	2.32
504.102	2.16
504.452	2.31
504.803	2.37
505.153	2.3
505.503	2.46
505.853	2.26
506.203	2.13
506.553	2.36
506.903	2.23
507.253	2.43
507.603	2.32
507.953	2.31
508.303	2.2
508.652	2.21
509.002	2.24
509.352	2.38
509.701	2.37
510.051	2.21
510.4	2.23
510.75	2.28
511.099	2.19
511.449	2.3
511.798	2.22
512.147	2.38
512.496	2.14
512.846	2.28
513.195	2.37
513.544	2.3
513.893	2.25
514.242	2.25
514.591	2.18
514.939	2.26
515.288	2.34
515.637	2.29
515.986	2.31
516.334	2.31
516.683	2.46
517.032	2.34
517.38	2.36
517.729	2.26
518.077	2.26
518.426	2.28
518.774	2.25
519.122	2.32
519.47	2.25
519.819	2.24
520.167	2.25
520.515	2.21
520.863	2.22
521.211	2.28
521.559	2.25
521.907	2.22
522.255	2.19
522.602	2.24
522.95	2.41
523.298	2.32
523.645	2.44
523.993	2.35
524.341	2.34
524.688	2.25
525.036	2.18
525.383	2.24
525.73	2.32
526.078	2.4
526.425	2.24
526.772	2.31
527.119	2.18
527.466	2.22
527.814	2.22
528.161	2.21
528.508	2.23
528.854	2.24
529.201	2.24
529.548	2.27
529.895	2.15
530.242	2.18
530.588	2.15
530.935	2.16
531.282	2.22
531.628	2.17
531.975	2.23
532.321	2.24
532.667	2.21
533.014	2.13
533.36	2.2
533.706	2.32
534.052	2.33
534.399	2.32
534.745	2.25
535.091	2.16
535.437	2.2
535.783	2.19
536.129	2.33
536.474	2.32
536.82	2.33
537.166	2.3
537.512	2.31
537.857	2.32
538.203	2.18
538.549	2.26
538.894	2.27
539.239	2.35
539.585	2.3
539.93	2.2
540.276	2.39
540.621	2.33
540.966	2.32
541.311	2.32
541.656	2.28
542.001	2.32
542.346	2.28
542.691	2.16
543.036	2.24
543.381	2.15
543.726	2.2
544.071	2.24
544.415	2.24
544.76	2.24
545.105	2.3
545.449	2.16
545.794	2.28
546.138	2.2
546.483	2.2
546.827	2.35
547.171	2.29
547.516	2.27
547.86	2.26
548.204	2.28
548.548	2.21
548.892	2.32
549.236	2.35
549.58	2.34
549.924	2.41
550.268	2.27
550.612	2.33
550.956	2.47
551.3	2.29
551.643	2.48
551.987	2.44
552.33	2.36
552.674	2.48
553.017	2.27
553.361	2.24
553.704	2.34
554.048	2.44
554.391	2.3
554.734	2.23
555.077	2.45
555.42	2.46
555.764	2.38
556.107	2.4
556.45	2.38
556.793	2.25
557.135	2.44
557.478	2.43
557.821	2.29
558.164	2.52
558.507	2.33
558.849	2.33
559.192	2.4
559.534	2.36
559.877	2.49
560.219	2.24
560.562	2.32
560.904	2.36
561.246	2.45
561.589	2.43
561.931	2.56
562.273	2.2
562.615	2.3
562.957	2.46
563.299	2.5
563.641	2.32
563.983	2.51
564.325	2.41
564.667	2.48
565.008	2.48
565.35	2.51
565.692	2.39
566.033	2.45
566.375	2.62
566.716	2.32
567.058	2.28
567.399	2.3
567.741	2.24
568.082	2.42
568.423	2.41
568.764	2.3
569.105	2.38
569.447	2.58
569.788	2.38
570.129	2.41
570.47	2.35
570.811	2.26
571.151	2.39
571.492	2.43
571.833	2.41
572.174	2.52
572.514	2.37
572.855	2.25
573.195	2.38
573.536	2.44
573.876	2.39
574.217	2.33
574.557	2.42
574.898	2.48
575.238	2.56
575.578	2.48
575.918	2.46
576.258	2.34
576.598	2.35
576.938	2.46
577.278	2.42
577.618	2.4
577.958	2.37
578.298	2.64
578.638	2.55
578.977	2.39
579.317	2.34
579.657	2.41
579.996	2.43
580.336	2.44
580.675	2.39
581.014	2.48
581.354	2.3
581.693	2.6
582.032	2.12
582.372	2.55
582.711	2.19
583.05	2.34
583.389	2.27
583.728	2.76
584.067	2.57
584.406	2.31
584.745	2.38
585.083	2.57
585.422	2.49
585.761	2.69
586.1	2.4
586.438	2.44
586.777	2.65
587.115	2.35
587.454	2.37
587.792	2.53
588.13	2.65
588.469	2.41
588.807	2.56
589.145	2.79
589.483	2.68
589.821	2.4
590.159	2.51
590.497	2.51
590.835	2.27
591.173	2.47
591.511	2.63
591.849	2.36
592.187	2.24
592.524	2.48
592.862	2.67
593.2	2.36
593.537	2.31
593.875	2.61
594.212	2.47
594.55	2.2
594.887	2.29
595.224	2.59
595.561	2.64
595.899	2.15
596.236	2.55
596.573	2.48
596.91	2.48
597.247	2.45
597.584	2.55
597.921	2.39
598.258	2.39
598.594	2.48
598.931	2.41
599.268	2.65
599.604	2.51
599.941	2.61
600.277	2.39
600.614	2.62
600.95	2.51
601.287	2.47
601.623	2.59
601.959	2.82
602.296	2.62
602.632	2.38
602.968	2.51
603.304	2.69
603.64	2.49
603.976	2.58
604.312	2.52
604.648	2.6
604.984	2.83
605.319	2.48
605.655	2.51
605.991	2.37
606.326	2.57
606.662	2.51
606.998	2.43
607.333	2.5
607.668	2.49
608.004	2.47
608.339	2.7
608.674	2.73
609.01	2.45
609.345	2.35
609.68	2.48
610.015	2.72
610.35	2.61
610.685	2.48
611.02	2.29
611.355	2.67
611.689	2.28
612.024	2.53
612.359	2.55
612.694	2.49
613.028	2.54
613.363	2.45
613.697	2.46
614.032	2.39
614.366	2.79
614.7	2.57
615.035	2.68
615.369	2.75
615.703	2.52
616.037	2.38
616.371	2.75
616.705	2.5
617.039	2.97
617.373	2.36
617.707	2.88
618.041	2.94
618.375	2.67
618.709	2.43
619.042	2.47
619.376	2.62
619.71	2.51
620.043	2.42
620.377	2.69
620.71	2.57
621.043	2.58
621.377	2.2
621.71	2.73
622.043	2.42
622.376	2.56
622.709	2.8
623.043	2.95
623.376	2.63
623.709	2.9
624.041	2.31
624.374	2.59
624.707	2.62
625.04	2.84
625.373	2.64
625.705	2.54
626.038	2.58
626.37	2.67
626.703	2.76
627.035	2.64
627.368	2.75
627.7	2.24
628.032	2.43
628.365	2.59
628.697	2.52
629.029	2.6
629.361	2.35
629.693	2.6
630.025	2.54
630.357	2.21
630.689	2.19
631.021	2.53
631.353	2.22
631.684	2.76
632.016	2.85
632.348	2.89
632.679	2.87
633.011	2.51
633.342	2.18
633.674	2.88
634.005	2.6
634.336	2.41
634.668	2.26
634.999	2.53
635.33	2.5
635.661	2.3
635.992	2.6
636.323	2.51
636.654	2.58
636.985	2.28
637.316	2.62
637.647	2.68
637.977	2.9
638.308	2.5
638.639	2.54
638.969	2.57
639.3	2.64
639.63	1.86
639.961	2.4
640.291	2.89
640.622	2.28
640.952	2.99
641.282	2.72
641.612	3.35
641.943	2.6
642.273	2.42
642.603	2.87
642.933	2.77
643.263	2.52
643.592	2.63
643.922	2.94
644.252	2.2
644.582	2.7
644.911	2.69
645.241	2.59
645.571	3.06
645.9	2.31
646.23	2.91
646.559	2.78
646.888	2.6
647.218	2.78
647.547	2.66
647.876	3.05
648.205	2.06
648.534	2.98
648.863	3
649.192	2.63
649.521	2.25
649.85	2.73
650.179	3
650.508	2.4
650.837	2.58
651.165	3.09
651.494	2.53
651.822	2.58
652.151	3.26
652.479	2.82
652.808	2.57
653.136	2.2
653.465	2.97
653.793	3.19
654.121	2.56
654.449	2.45
654.777	3
655.105	2.63
655.433	2.62
655.761	2.74
656.089	2.32
656.417	2.77
656.745	3.05
657.073	3.26
657.4	2.87
657.728	2.92
658.056	3.02
658.383	2.84
658.711	2.75
659.038	2.83
659.365	2.86
659.693	2.84
660.02	2.76
660.347	2.82
660.674	2.56
661.001	2.7
661.329	3.07
661.656	2.79
661.982	2.83
662.309	2.82
662.636	2.87
662.963	3.1
663.29	2.77
663.616	2.42
663.943	2.38
664.27	2.74
664.596	3.07
664.923	2.96
665.249	2.95
665.576	2.76
665.902	2.26
666.228	2.9
666.554	2.94
666.881	2.82
667.207	2.86
667.533	2.57
667.859	1.88
668.185	2.72
668.511	2.81
668.837	3.27
669.162	2.58
669.488	3.08
669.814	2.43
670.139	2.56
670.465	2.52
670.791	2.78
671.116	3.19
671.442	3.2
671.767	3.23
672.092	3.54
672.418	3.19
672.743	2.71
673.068	2.69
673.393	2.56
673.718	3.19
674.043	3.42
674.368	2.63
674.693	2.68
675.018	3.02
675.343	2.02
675.667	2.84
675.992	2.9
676.317	2.45
676.641	3.61
676.966	3.41
677.29	2.45
677.615	3.53
677.939	3.03
678.264	2.45
678.588	3.01
678.912	2.75
679.236	2.66
679.56	3.12
679.885	2.65
680.209	2.72
680.532	3.09
680.856	3.38
681.18	3.3
681.504	2.9
681.828	2.76
682.152	2.36
682.475	2.75
682.799	2.94
683.122	2.79
683.446	2.35
683.769	2.95
684.093	3.28
684.416	3.17
684.739	2.96
685.062	3.16
685.386	2.61
685.709	2.26
686.032	2.83
686.355	2.8
686.678	2.86
687.001	2.97
687.324	2.47
687.646	3.12
687.969	3.39
688.292	3.55
688.614	3.41
688.937	3.17
689.26	3.23
689.582	3.26
689.904	2.86
690.227	2.77
690.549	3.17
690.871	2.45
691.194	3.18
691.516	3.22
691.838	3.07
692.16	4.19
692.482	3.29
