Data from 0379_forehead_Reflection__3__134.txt Node

Date: Mon Dec 11 19:06:13 CST 2023
User: ToomeyLab
Spectrometer: FLMS14357
Trigger mode: 0
Integration Time (sec): 1.000000E-2
Scans to average: 100
Electric dark correction enabled: true
Nonlinearity correction enabled: false
Boxcar width: 0
XAxis mode: Wavelengths
Number of Pixels in Spectrum: 2048
>>>>>Begin Spectral Data<<<<<
189.047	56.01
189.435	56.01
189.823	56.01
190.211	-34.52
190.599	259.3
190.987	-148.33
191.375	167.46
191.763	56.72
192.151	-8.88
192.538	33.06
192.926	-516.83
193.314	56.69
193.702	18.96
194.089	72.25
194.477	89.8
194.864	287.91
195.252	1358.9
195.639	233.33
196.027	77.26
196.414	97.32
196.801	65.32
197.189	235.2
197.576	126.57
197.963	24.41
198.351	4.15
198.738	39.25
199.125	-81.89
199.512	11.53
199.899	40.23
200.286	23.41
200.673	-185.68
201.06	19.22
201.447	-20.13
201.833	-10.85
202.22	30
202.607	-60.08
202.994	-72.25
203.38	-163.27
203.767	51.52
204.154	29.8
204.54	22.96
204.927	4.29
205.313	6.93
205.699	-26.56
206.086	-7.5
206.472	-19.94
206.858	31.21
207.245	-0.32
207.631	-0.22
208.017	-4.19
208.403	12.72
208.789	-16.75
209.175	64.49
209.561	17.8
209.947	-17.52
210.333	64.03
210.719	1.41
211.105	9.94
211.491	22.12
211.876	16.55
212.262	-19.8
212.648	12.39
213.034	10.2
213.419	26.09
213.805	35.95
214.19	17.68
214.576	-23.39
214.961	-22.26
215.346	-4.55
215.732	13.24
216.117	1.93
216.502	-15.03
216.888	24.32
217.273	37.65
217.658	-12.16
218.043	-44.36
218.428	0.05
218.813	14.43
219.198	8.1
219.583	5.16
219.968	26.99
220.353	-6.26
220.738	21.02
221.122	-1.34
221.507	36.97
221.892	7.36
222.276	15.97
222.661	-11.67
223.046	-4.7
223.43	9.67
223.815	-0.37
224.199	5.18
224.583	2.69
224.968	4.08
225.352	-2.04
225.736	-7.89
226.121	5.91
226.505	-6.84
226.889	4.36
227.273	8.43
227.657	13.88
228.041	0.3
228.425	-2.34
228.809	-3.91
229.193	0.44
229.577	3.94
229.961	1.66
230.344	2.57
230.728	1.71
231.112	2.48
231.495	2.87
231.879	2.28
232.263	1.61
232.646	2.55
233.03	4.01
233.413	2.48
233.797	2.15
234.18	3.24
234.563	1.66
234.946	2.59
235.33	3.2
235.713	1.24
236.096	2.96
236.479	3.32
236.862	1.55
237.245	1.26
237.628	2.48
238.011	2.5
238.394	0.21
238.777	1.26
239.16	2.01
239.543	3.05
239.925	2.55
240.308	1.26
240.691	0.81
241.073	5.2
241.456	4.54
241.838	6.33
242.221	2.63
242.603	1.93
242.986	1.7
243.368	1.76
243.75	2.69
244.133	3.2
244.515	2.47
244.897	2.65
245.279	2.88
245.661	2.32
246.043	2.79
246.425	2.78
246.807	3.7
247.189	2.67
247.571	1.87
247.953	2.54
248.335	3
248.717	2.87
249.098	2.5
249.48	2.67
249.862	2.97
250.243	3.07
250.625	2.94
251.006	2.83
251.388	2.37
251.769	3.35
252.151	3.59
252.532	2.25
252.913	2.29
253.295	3.27
253.676	3.31
254.057	2.67
254.438	2.69
254.819	2.69
255.2	2.1
255.581	1.86
255.962	2.12
256.343	3.29
256.724	3.16
257.105	2.67
257.486	2.48
257.867	3.84
258.247	0.55
258.628	3
259.009	3.69
259.389	3.7
259.77	2.81
260.15	1.69
260.531	2.95
260.911	2.43
261.292	2.32
261.672	2.71
262.052	2.91
262.432	2.8
262.813	2.85
263.193	2.65
263.573	2.75
263.953	2.63
264.333	2.34
264.713	3.48
265.093	2.74
265.473	3.05
265.853	2.83
266.233	2.93
266.612	1.85
266.992	3.86
267.372	3.19
267.752	3.2
268.131	2.8
268.511	2.29
268.89	3.44
269.27	2.84
269.649	2.9
270.029	3.1
270.408	2.69
270.787	2.8
271.167	1.59
271.546	3.14
271.925	2.7
272.304	2.61
272.683	2.69
273.062	2.62
273.441	2.73
273.82	2.61
274.199	2.52
274.578	3.26
274.957	2.95
275.336	2.76
275.715	2.81
276.093	3.52
276.472	2.97
276.851	2.41
277.229	2.87
277.608	2.97
277.986	3.02
278.365	2.9
278.743	2.32
279.122	2.44
279.5	3.03
279.878	3.19
280.257	2.51
280.635	2.53
281.013	1.9
281.391	2.65
281.769	2.37
282.147	2.39
282.525	2.42
282.903	2.78
283.281	2.27
283.659	2.37
284.037	2.59
284.415	2.5
284.792	2.78
285.17	2.5
285.548	2.47
285.925	2.13
286.303	3
286.68	2.89
287.058	2.66
287.435	2.99
287.813	2.99
288.19	2.89
288.567	2.69
288.945	2.73
289.322	2.31
289.699	2.68
290.076	2.47
290.453	2.76
290.83	3.02
291.207	2.93
291.584	2.85
291.961	3.22
292.338	2.98
292.715	3.17
293.092	3.31
293.469	2.85
293.845	2.72
294.222	3.61
294.599	3.05
294.975	2.84
295.352	3.24
295.728	3.44
296.105	3.63
296.481	2.91
296.858	3.33
297.234	3.09
297.61	3.81
297.986	4.11
298.363	3.51
298.739	3.62
299.115	3.28
299.491	3.52
299.867	3.57
300.243	3.44
300.619	3.64
300.995	3.14
301.371	3.46
301.746	3.4
302.122	3.27
302.498	3.96
302.874	3.67
303.249	4
303.625	3.64
304	3.42
304.376	3.56
304.751	3.38
305.127	3.92
305.502	4.06
305.878	3.81
306.253	4.18
306.628	4.06
307.003	4.23
307.378	3.94
307.754	4.48
308.129	3.98
308.504	3.95
308.879	3.97
309.254	4.52
309.629	4.21
310.003	4.58
310.378	4.12
310.753	4.27
311.128	3.81
311.502	4.25
311.877	4.54
312.252	4.72
312.626	4.4
313.001	4.44
313.375	3.96
313.75	4.19
314.124	4.33
314.498	4.55
314.873	3.81
315.247	4.38
315.621	4.83
315.995	4.84
316.369	4.85
316.743	4.85
317.117	5.25
317.491	4.55
317.865	4.94
318.239	5.24
318.613	5
318.987	5.24
319.361	5.69
319.734	5.29
320.108	4.8
320.482	4.74
320.855	4.98
321.229	4.81
321.602	4.7
321.976	5.86
322.349	5.12
322.723	4.4
323.096	5.27
323.469	6.06
323.843	5.34
324.216	5.59
324.589	6.07
324.962	5.23
325.335	5.38
325.708	5.41
326.081	5.84
326.454	5.63
326.827	5.31
327.2	5.38
327.573	5.35
327.945	6.15
328.318	5.8
328.691	5.43
329.063	5.72
329.436	5.8
329.809	5.61
330.181	5.96
330.553	6.08
330.926	5.27
331.298	5.75
331.671	5.99
332.043	6.32
332.415	6.03
332.787	5.99
333.159	6.05
333.532	5.88
333.904	6.37
334.276	6.18
334.648	6
335.02	6.05
335.391	5.52
335.763	5.52
336.135	6.76
336.507	5.9
336.879	6.06
337.25	5.79
337.622	5.73
337.993	6.46
338.365	5.67
338.736	6.32
339.108	6.42
339.479	6.07
339.851	6.19
340.222	6.43
340.593	5.63
340.964	6.16
341.336	6.41
341.707	6.36
342.078	6.25
342.449	6.25
342.82	5.93
343.191	6.31
343.562	6.2
343.933	6.47
344.303	6.1
344.674	6.25
345.045	6.4
345.416	5.97
345.786	6.47
346.157	6.25
346.527	6.58
346.898	6.58
347.268	6.41
347.639	6.54
348.009	6.72
348.38	6.44
348.75	6.62
349.12	6.61
349.49	6.48
349.861	6.28
350.231	6.8
350.601	6.46
350.971	7.11
351.341	6.46
351.711	6.92
352.081	6.64
352.45	6.82
352.82	6.59
353.19	6.54
353.56	6.78
353.929	6.89
354.299	7.22
354.669	7.22
355.038	6.96
355.408	6.54
355.777	6.83
356.147	7.16
356.516	6.97
356.885	7.19
357.254	6.92
357.624	6.95
357.993	6.85
358.362	6.86
358.731	7.03
359.1	7.06
359.469	7.3
359.838	6.91
360.207	7.18
360.576	7.11
360.945	7.07
361.314	7.68
361.682	7.04
362.051	7
362.42	7.06
362.788	7.1
363.157	7.29
363.525	6.92
363.894	7.34
364.262	7.38
364.631	7.47
364.999	7.35
365.367	7.56
365.735	7.36
366.104	7.18
366.472	7.77
366.84	7.46
367.208	7.55
367.576	7.49
367.944	7.31
368.312	7.55
368.68	8.09
369.048	7.73
369.416	7.56
369.783	7.23
370.151	7.79
370.519	8.16
370.886	7.89
371.254	7.75
371.621	8.08
371.989	7.88
372.356	8.2
372.724	8.41
373.091	8.18
373.458	7.75
373.826	7.99
374.193	8.14
374.56	7.97
374.927	8.18
375.294	7.86
375.661	7.62
376.028	8.22
376.395	8.14
376.762	8.12
377.129	8.59
377.496	8.13
377.863	7.79
378.229	8.06
378.596	8.03
378.963	8.47
379.329	8.11
379.696	8.51
380.062	8.11
380.429	8.17
380.795	8.53
381.161	8.43
381.528	8.61
381.894	8.26
382.26	8.45
382.626	8.64
382.993	8.2
383.359	8.26
383.725	8.3
384.091	8.38
384.457	8.43
384.823	8.81
385.188	8.37
385.554	8.57
385.92	8.71
386.286	8.54
386.651	8.48
387.017	8.74
387.383	8.34
387.748	8.65
388.114	8.59
388.479	8.52
388.845	8.48
389.21	8.89
389.575	9.17
389.94	8.9
390.306	8.53
390.671	8.69
391.036	8.97
391.401	8.93
391.766	8.77
392.131	8.87
392.496	9.01
392.861	9.17
393.226	8.95
393.591	9.09
393.956	9.15
394.32	9.05
394.685	9.06
395.05	9.26
395.414	9.21
395.779	9.05
396.143	9
396.508	8.89
396.872	9.13
397.236	9.29
397.601	9.04
397.965	9.16
398.329	8.94
398.694	9.15
399.058	9.33
399.422	9.3
399.786	9.35
400.15	9.13
400.514	9.43
400.878	9.4
401.242	9.25
401.605	9.36
401.969	9.39
402.333	9.38
402.697	9.28
403.06	9.59
403.424	9.66
403.787	9.66
404.151	9.37
404.514	9.24
404.878	9.47
405.241	9.54
405.604	9.44
405.968	9.5
406.331	9.51
406.694	9.49
407.057	9.57
407.42	9.54
407.783	9.43
408.146	9.66
408.509	9.63
408.872	9.57
409.235	9.8
409.598	9.73
409.961	10.03
410.323	9.87
410.686	9.89
411.049	10.05
411.411	9.74
411.774	9.95
412.136	9.56
412.499	10.04
412.861	9.94
413.223	9.76
413.586	10.03
413.948	10.18
414.31	10.01
414.672	9.82
415.035	9.78
415.397	9.97
415.759	10.01
416.121	9.95
416.483	9.96
416.845	10.33
417.206	9.9
417.568	10.33
417.93	10.29
418.292	10.04
418.653	9.88
419.015	9.85
419.377	10.2
419.738	10.17
420.1	10.24
420.461	10.02
420.822	10.11
421.184	10.07
421.545	10.15
421.906	10.18
422.267	10.31
422.629	10.14
422.99	10.19
423.351	10.01
423.712	10.2
424.073	10.17
424.434	10.19
424.795	10.33
425.155	10.34
425.516	10.27
425.877	10.19
426.238	10.28
426.598	10.24
426.959	10.38
427.32	10.45
427.68	10.6
428.041	10.4
428.401	10.45
428.761	10.6
429.122	10.58
429.482	10.62
429.842	10.72
430.202	10.81
430.563	10.82
430.923	10.98
431.283	10.94
431.643	10.74
432.003	10.85
432.363	10.89
432.722	10.79
433.082	10.99
433.442	10.88
433.802	11.03
434.161	11.22
434.521	10.84
434.881	10.78
435.24	10.83
435.6	11.01
435.959	10.94
436.319	10.89
436.678	10.99
437.037	11.06
437.396	11.08
437.756	11.18
438.115	11.24
438.474	11.21
438.833	11.08
439.192	11.08
439.551	11.32
439.91	11.28
440.269	11.38
440.628	11.13
440.987	11.36
441.345	11.19
441.704	11.23
442.063	11.34
442.421	11.17
442.78	11.14
443.138	11.17
443.497	11.28
443.855	11.28
444.214	11.52
444.572	11.3
444.93	11.51
445.288	11.47
445.647	11.58
446.005	11.38
446.363	11.57
446.721	11.48
447.079	11.51
447.437	11.54
447.795	11.47
448.153	11.56
448.51	11.47
448.868	11.28
449.226	11.42
449.584	11.66
449.941	11.8
450.299	11.65
450.656	11.74
451.014	11.74
451.371	11.76
451.729	11.98
452.086	11.79
452.443	12.03
452.801	11.92
453.158	12.08
453.515	11.87
453.872	12.04
454.229	11.89
454.586	12.03
454.943	11.9
455.3	12.14
455.657	11.96
456.014	12.01
456.371	12.21
456.727	12.15
457.084	12.03
457.441	12.13
457.797	12.23
458.154	12.29
458.51	12.37
458.867	12.13
459.223	12.29
459.58	12.36
459.936	12.26
460.292	12.39
460.648	12.27
461.005	12.32
461.361	12.16
461.717	12.09
462.073	12.18
462.429	12.28
462.785	12.32
463.141	12.31
463.496	12.44
463.852	12.38
464.208	12.59
464.564	12.52
464.919	12.75
465.275	12.51
465.631	12.45
465.986	12.71
466.342	12.91
466.697	12.76
467.052	12.72
467.408	12.86
467.763	12.82
468.118	12.75
468.473	12.59
468.829	12.85
469.184	13.07
469.539	12.77
469.894	12.67
470.249	12.84
470.603	13.04
470.958	12.98
471.313	12.73
471.668	13.07
472.023	13.05
472.377	12.89
472.732	12.89
473.086	13.13
473.441	13.15
473.795	12.95
474.15	13.17
474.504	13.27
474.859	13.27
475.213	13.37
475.567	13.07
475.921	13.16
476.275	13.05
476.63	13.12
476.984	13.23
477.338	13.17
477.692	13.17
478.045	13.21
478.399	13.26
478.753	13.17
479.107	13.27
479.461	13.21
479.814	13.27
480.168	13.4
480.521	13.58
480.875	13.34
481.228	13.36
481.582	13.56
481.935	13.51
482.289	13.5
482.642	13.34
482.995	13.67
483.348	13.42
483.701	13.43
484.055	13.45
484.408	13.45
484.761	13.24
485.114	13.21
485.466	12.99
485.819	12.91
486.172	12.88
486.525	12.94
486.878	13.08
487.23	13.21
487.583	13.42
487.936	13.33
488.288	13.51
488.641	13.41
488.993	13.35
489.345	13.35
489.698	13.23
490.05	13.29
490.402	13.32
490.754	13.42
491.107	13.58
491.459	13.64
491.811	13.72
492.163	13.89
492.515	13.82
492.866	13.84
493.218	13.67
493.57	13.62
493.922	13.57
494.274	13.72
494.625	13.83
494.977	14.07
495.328	14.07
495.68	14.11
496.031	14.1
496.383	14.16
496.734	14.27
497.086	14.25
497.437	14.39
497.788	14.43
498.139	14.42
498.49	14.31
498.842	14.39
499.193	14.41
499.544	14.32
499.894	14.5
500.245	14.49
500.596	14.66
500.947	14.61
501.298	14.58
501.648	14.67
501.999	14.68
502.35	14.72
502.7	14.84
503.051	14.58
503.401	14.67
503.752	14.86
504.102	14.8
504.452	14.88
504.803	14.93
505.153	14.95
505.503	15.14
505.853	15.1
506.203	14.91
506.553	15.01
506.903	14.93
507.253	15.08
507.603	14.92
507.953	15.09
508.303	15.11
508.652	15.11
509.002	15.05
509.352	15.29
509.701	15.32
510.051	15.02
510.4	15.13
510.75	15.09
511.099	15.25
511.449	15.09
511.798	15.27
512.147	15.35
512.496	15.3
512.846	15.3
513.195	15.38
513.544	15.4
513.893	15.28
514.242	15.36
514.591	15.32
514.939	15.35
515.288	15.5
515.637	15.38
515.986	15.47
516.334	15.53
516.683	15.63
517.032	15.62
517.38	15.65
517.729	15.79
518.077	15.57
518.426	15.82
518.774	15.76
519.122	15.63
519.47	15.74
519.819	15.7
520.167	15.57
520.515	15.61
520.863	15.57
521.211	15.61
521.559	15.73
521.907	15.75
522.255	15.75
522.602	15.76
522.95	16
523.298	16.11
523.645	16.23
523.993	16.17
524.341	16.14
524.688	16.17
525.036	16.16
525.383	16.22
525.73	16.35
526.078	16.37
526.425	16.26
526.772	16.31
527.119	16.05
527.466	16.12
527.814	16.08
528.161	15.97
528.508	16.13
528.854	16.12
529.201	16.14
529.548	16.23
529.895	16.04
530.242	15.91
530.588	15.76
530.935	15.81
531.282	15.96
531.628	15.95
531.975	16.04
532.321	16.16
532.667	16.27
533.014	16.42
533.36	16.47
533.706	16.58
534.052	16.64
534.399	16.56
534.745	16.56
535.091	16.36
535.437	16.35
535.783	16.42
536.129	16.53
536.474	16.65
536.82	16.63
537.166	16.8
537.512	16.82
537.857	16.89
538.203	16.9
538.549	16.9
538.894	16.9
539.239	16.95
539.585	16.82
539.93	16.91
540.276	17.16
540.621	17.16
540.966	17.46
541.311	17.37
541.656	17.35
542.001	17.44
542.346	17.4
542.691	17.13
543.036	16.93
543.381	16.82
543.726	16.85
544.071	16.88
544.415	17
544.76	17.1
545.105	17.21
545.449	17.25
545.794	17.35
546.138	17.4
546.483	17.52
546.827	17.7
547.171	17.68
547.516	17.63
547.86	17.7
548.204	17.69
548.548	17.7
548.892	17.74
549.236	17.7
549.58	17.98
549.924	17.91
550.268	17.88
550.612	17.93
550.956	18.15
551.3	18.34
551.643	18.02
551.987	18.24
552.33	18.44
552.674	18.54
553.017	18.25
553.361	18.21
553.704	18.49
554.048	18.39
554.391	18.28
554.734	18.39
555.077	18.35
555.42	18.5
555.764	18.45
556.107	18.49
556.45	18.56
556.793	18.39
557.135	18.47
557.478	18.71
557.821	18.69
558.164	18.82
558.507	18.58
558.849	18.62
559.192	18.69
559.534	18.81
559.877	18.9
560.219	18.74
560.562	18.96
560.904	18.92
561.246	18.92
561.589	18.96
561.931	19.07
562.273	18.96
562.615	18.93
562.957	19.21
563.299	19.22
563.641	19.02
563.983	19.25
564.325	19.26
564.667	19.17
565.008	19.1
565.35	19.42
565.692	19.46
566.033	19.23
566.375	19.62
566.716	19.42
567.058	19.33
567.399	19.63
567.741	19.32
568.082	19.46
568.423	19.54
568.764	19.55
569.105	19.46
569.447	19.58
569.788	19.47
570.129	19.4
570.47	19.57
570.811	19.65
571.151	19.75
571.492	19.77
571.833	19.8
572.174	19.91
572.514	19.76
572.855	19.73
573.195	19.93
573.536	19.91
573.876	19.72
574.217	20.06
574.557	19.85
574.898	20.03
575.238	20.13
575.578	19.78
575.918	20.22
576.258	20.01
576.598	20.06
576.938	20.2
577.278	20.09
577.618	20.18
577.958	19.95
578.298	20.26
578.638	20.36
578.977	20.2
579.317	20.24
579.657	20.19
579.996	20.33
580.336	20.45
580.675	20.45
581.014	20.51
581.354	20.57
581.693	20.6
582.032	20.28
582.372	20.81
582.711	20.57
583.05	20.65
583.389	20.59
583.728	20.87
584.067	20.63
584.406	20.75
584.745	20.91
585.083	20.73
585.422	21.16
585.761	20.88
586.1	20.98
586.438	20.74
586.777	21.08
587.115	20.92
587.454	21.2
587.792	21.07
588.13	21.19
588.469	21.01
588.807	21.23
589.145	21.24
589.483	21.07
589.821	21.26
590.159	21.36
590.497	21.48
590.835	21.11
591.173	21.33
591.511	21.55
591.849	21.38
592.187	21.53
592.524	21.2
592.862	21.27
593.2	21.37
593.537	21.53
593.875	21.57
594.212	21.49
594.55	21.55
594.887	21.64
595.224	21.69
595.561	21.79
595.899	21.54
596.236	21.59
596.573	21.66
596.91	21.55
597.247	21.63
597.584	21.7
597.921	21.68
598.258	21.89
598.594	21.55
598.931	21.69
599.268	21.7
599.604	21.65
599.941	21.88
600.277	21.82
600.614	22.22
600.95	21.59
601.287	21.84
601.623	22.06
601.959	22.08
602.296	22.14
602.632	22.07
602.968	22.22
603.304	22.13
603.64	22.31
603.976	22.23
604.312	22.43
604.648	22.29
604.984	22.54
605.319	22.43
605.655	22.16
605.991	22.3
606.326	22.26
606.662	22.26
606.998	22.24
607.333	22.27
607.668	22.29
608.004	22.06
608.339	22.5
608.674	22.75
609.01	22.62
609.345	22.6
609.68	22.69
610.015	22.7
610.35	22.77
610.685	22.6
611.02	22.66
611.355	22.93
611.689	22.76
612.024	22.44
612.359	22.59
612.694	22.94
613.028	22.68
613.363	22.93
613.697	22.99
614.032	22.93
614.366	22.8
614.7	22.64
615.035	22.79
615.369	23.04
615.703	23.17
616.037	23.1
616.371	23.45
616.705	23.19
617.039	23.1
617.373	23.12
617.707	23.31
618.041	23.42
618.375	23.54
618.709	23.18
619.042	23.26
619.376	23.49
619.71	23.3
620.043	22.92
620.377	23.3
620.71	23.39
621.043	23.48
621.377	23.05
621.71	23.5
622.043	23.5
622.376	23.33
622.709	23.66
623.043	24.15
623.376	23.69
623.709	23.92
624.041	23.75
624.374	23.87
624.707	23.66
625.04	24.13
625.373	23.86
625.705	23.8
626.038	23.85
626.37	23.65
626.703	24.19
627.035	23.89
627.368	24.34
627.7	23.74
628.032	24.07
628.365	24.17
628.697	23.78
629.029	24.03
629.361	23.92
629.693	24.4
630.025	23.8
630.357	24.07
630.689	24.04
631.021	24.17
631.353	24.22
631.684	24.39
632.016	24.33
632.348	23.99
632.679	24.54
633.011	24.5
633.342	24.08
633.674	24.52
634.005	24.51
634.336	24.51
634.668	24.52
634.999	24.55
635.33	23.91
635.661	24.3
635.992	24.58
636.323	24.22
636.654	24.74
636.985	24.45
637.316	24.7
637.647	24.7
637.977	24.61
638.308	24.78
638.639	24.83
638.969	24.72
639.3	24.57
639.63	24.62
639.961	24.94
640.291	25.2
640.622	24.73
640.952	24.8
641.282	24.92
641.612	25.18
641.943	24.9
642.273	24.83
642.603	24.97
642.933	25.34
643.263	25.1
643.592	25.2
643.922	25.11
644.252	25.19
644.582	25.4
644.911	25.91
645.241	25.42
645.571	25.67
645.9	24.77
646.23	25.52
646.559	25.08
646.888	25.63
647.218	25.33
647.547	25.03
647.876	25.59
648.205	25.14
648.534	25.22
648.863	25.54
649.192	25.26
649.521	25.69
649.85	25.71
650.179	25.42
650.508	25.41
650.837	25.13
651.165	26
651.494	25.71
651.822	25.92
652.151	26.23
652.479	25.95
652.808	25.49
653.136	25.67
653.465	25.9
653.793	25.96
654.121	25.8
654.449	25.85
654.777	25.79
655.105	26.14
655.433	26.31
655.761	26.19
656.089	26.45
656.417	26.2
656.745	25.93
657.073	26.4
657.4	26.14
657.728	26.47
658.056	26.41
658.383	26.1
658.711	26.17
659.038	26.49
659.365	26.45
659.693	25.85
660.02	26.07
660.347	26.2
660.674	25.85
661.001	25.84
661.329	26.83
661.656	26.16
661.982	26.07
662.309	26.65
662.636	26.59
662.963	26.6
663.29	26.08
663.616	25.89
663.943	25.73
664.27	26.69
664.596	27
664.923	26.6
665.249	26.42
665.576	26.72
665.902	27
666.228	25.97
666.554	26.96
666.881	26.48
667.207	26.83
667.533	26.74
667.859	26.54
668.185	27.83
668.511	26.72
668.837	27.48
669.162	26.36
669.488	26.92
669.814	26.72
670.139	26.51
670.465	27.45
670.791	26.97
671.116	27.55
671.442	26.91
671.767	26.83
672.092	26.39
672.418	27.37
672.743	27.05
673.068	26.94
673.393	26.92
673.718	27.42
674.043	27.62
674.368	26.94
674.693	27.37
675.018	27.72
675.343	26.67
