Data from 0379_crown_Reflection__0__125.txt Node

Date: Mon Dec 11 19:04:18 CST 2023
User: ToomeyLab
Spectrometer: FLMS14357
Trigger mode: 0
Integration Time (sec): 1.000000E-2
Scans to average: 100
Electric dark correction enabled: true
Nonlinearity correction enabled: false
Boxcar width: 0
XAxis mode: Wavelengths
Number of Pixels in Spectrum: 2048
>>>>>Begin Spectral Data<<<<<
189.047	-4.71
189.435	-4.71
189.823	-4.71
190.211	64.96
190.599	109.28
190.987	-132.71
191.375	117.06
191.763	52.91
192.151	-190.3
192.538	15.59
192.926	-74.97
193.314	-143.27
193.702	65.51
194.089	-176.21
194.477	27.05
194.864	300.84
195.252	-460.12
195.639	-1049.61
196.027	-25.14
196.414	178.82
196.801	37.8
197.189	284.47
197.576	147.49
197.963	-138.54
198.351	-17.56
198.738	4.83
199.125	-96.7
199.512	-13.44
199.899	14.44
200.286	-7.56
200.673	-155.62
201.06	25.45
201.447	-1.17
201.833	38.89
202.22	13.67
202.607	-17.52
202.994	-62.84
203.38	-124.06
203.767	39.85
204.154	16.24
204.54	-41.71
204.927	-19.43
205.313	-15.62
205.699	-18.36
206.086	5.65
206.472	-3.06
206.858	-10.8
207.245	-9.63
207.631	30.04
208.017	-18.22
208.403	8.02
208.789	-41.48
209.175	21.24
209.561	-9.91
209.947	8.01
210.333	3.92
210.719	23.64
211.105	34.32
211.491	-15.19
211.876	-0.23
212.262	-54.62
212.648	-6.62
213.034	-10.23
213.419	-25.63
213.805	-35.15
214.19	-15.61
214.576	-2.82
214.961	-11.74
215.346	-24.42
215.732	4.48
216.117	-4.96
216.502	-3.46
216.888	8.7
217.273	22.88
217.658	-25.38
218.043	-46.43
218.428	12.44
218.813	-2.02
219.198	-6.25
219.583	-12.26
219.968	-33.15
220.353	-27.31
220.738	12.15
221.122	6.38
221.507	18.4
221.892	13.05
222.276	-12.53
222.661	-5.98
223.046	-22.17
223.43	7.82
223.815	-12.76
224.199	6.34
224.583	-0.81
224.968	7.36
225.352	6.61
225.736	11.17
226.121	-2.31
226.505	-1.14
226.889	-1.41
227.273	-2.6
227.657	5.52
228.041	2.39
228.425	-3.13
228.809	-1.9
229.193	-1.37
229.577	-0.26
229.961	1.32
230.344	2.35
230.728	2.07
231.112	0.95
231.495	2.86
231.879	0.94
232.263	1.42
232.646	1.64
233.03	0.88
233.413	1.03
233.797	3.93
234.18	1.74
234.563	2.37
234.946	2.44
235.33	2.88
235.713	-0.27
236.096	4
236.479	2.39
236.862	-0.76
237.245	1.45
237.628	3.02
238.011	1.33
238.394	1.14
238.777	1.2
239.16	2.11
239.543	2.38
239.925	-0.41
240.308	1.64
240.691	1.35
241.073	2.16
241.456	2.89
241.838	3.7
242.221	1.28
242.603	1.96
242.986	1.2
243.368	0.66
243.75	1.91
244.133	1.74
244.515	1.5
244.897	1.76
245.279	1.67
245.661	1.64
246.043	1.94
246.425	2.28
246.807	1.85
247.189	1.99
247.571	1.27
247.953	1.26
248.335	2.15
248.717	2.18
249.098	1.73
249.48	1.7
249.862	2.17
250.243	2.03
250.625	1.57
251.006	1.09
251.388	1.61
251.769	2.24
252.151	2.45
252.532	1.59
252.913	1.58
253.295	2.46
253.676	1.82
254.057	1.5
254.438	1.8
254.819	0.83
255.2	0.81
255.581	1.63
255.962	0.82
256.343	0.56
256.724	1.67
257.105	1.68
257.486	1.99
257.867	2.5
258.247	0.54
258.628	1.5
259.009	3.29
259.389	1.86
259.77	1.56
260.15	1.38
260.531	2.31
260.911	0.6
261.292	1.26
261.672	1.77
262.052	1.73
262.432	1.46
262.813	1.59
263.193	1.35
263.573	2.15
263.953	2.35
264.333	1.83
264.713	1.93
265.093	1.78
265.473	1.41
265.853	1.82
266.233	1.24
266.612	1.01
266.992	2.41
267.372	2.21
267.752	2.14
268.131	1.76
268.511	1.07
268.89	2.16
269.27	2
269.649	2
270.029	1.93
270.408	1.52
270.787	1.4
271.167	0.53
271.546	1.25
271.925	1.13
272.304	1.34
272.683	1.64
273.062	1.37
273.441	1.31
273.82	1.28
274.199	1.18
274.578	1.79
274.957	1.75
275.336	1.69
275.715	1.46
276.093	2.69
276.472	1.45
276.851	1.71
277.229	1.97
277.608	1.04
277.986	1.2
278.365	1.3
278.743	1.3
279.122	1.43
279.5	1.82
279.878	1.22
280.257	1.14
280.635	1.46
281.013	0.99
281.391	1.95
281.769	1.44
282.147	1.17
282.525	0.92
282.903	1.24
283.281	1.21
283.659	1.27
284.037	1.25
284.415	1.51
284.792	1.42
285.17	1.42
285.548	1.05
285.925	1.2
286.303	1.37
286.68	1.29
287.058	1.3
287.435	1.8
287.813	1.29
288.19	1.34
288.567	1.11
288.945	1.52
289.322	0.97
289.699	0.95
290.076	0.71
290.453	1.32
290.83	1.55
291.207	1.51
291.584	1.29
291.961	1.3
292.338	1.1
292.715	1.92
293.092	1.48
293.469	1.31
293.845	1
294.222	1.46
294.599	1.14
294.975	0.99
295.352	1.52
295.728	1.35
296.105	1.62
296.481	1.23
296.858	1.28
297.234	1.61
297.61	1.48
297.986	1.49
298.363	1.31
298.739	1.97
299.115	1.57
299.491	1.57
299.867	1.55
300.243	1.41
300.619	1.39
300.995	1.06
301.371	1.07
301.746	0.93
302.122	1.39
302.498	1.64
302.874	1.65
303.249	1.13
303.625	1.44
304	1.26
304.376	1.43
304.751	1.31
305.127	1.25
305.502	1.61
305.878	1.11
306.253	1.58
306.628	1.61
307.003	1.43
307.378	1.14
307.754	1.43
308.129	1.03
308.504	1.55
308.879	0.59
309.254	1.61
309.629	1.77
310.003	1.41
310.378	0.91
310.753	1.59
311.128	1.41
311.502	1.08
311.877	1.12
312.252	1.68
312.626	1.54
313.001	1.49
313.375	1.01
313.75	1.09
314.124	1.39
314.498	0.88
314.873	1.36
315.247	1.5
315.621	2.2
315.995	1.64
316.369	1.33
316.743	2.26
317.117	1.7
317.491	1.29
317.865	1.21
318.239	1.65
318.613	1.28
318.987	1.54
319.361	1.48
319.734	1.49
320.108	0.62
320.482	1.27
320.855	1.79
321.229	0.9
321.602	1.45
321.976	1.4
322.349	1.37
322.723	1.47
323.096	1.85
323.469	1.57
323.843	1.83
324.216	1.99
324.589	1.74
324.962	1.4
325.335	1.69
325.708	1.59
326.081	1.81
326.454	1.35
326.827	1.91
327.2	0.89
327.573	1.69
327.945	1.77
328.318	1.7
328.691	1.36
329.063	0.99
329.436	1.21
329.809	1.19
330.181	1.95
330.553	1.31
330.926	0.46
331.298	1.94
331.671	1.67
332.043	1.42
332.415	2
332.787	1.36
333.159	1.23
333.532	1.59
333.904	1.39
334.276	2.05
334.648	1.96
335.02	1.6
335.391	1.5
335.763	1.41
336.135	1.94
336.507	1.47
336.879	1.76
337.25	1.76
337.622	1.11
337.993	1.23
338.365	1.13
338.736	1.96
339.108	1.64
339.479	1.33
339.851	1.37
340.222	1.15
340.593	1.43
340.964	1.69
341.336	1.56
341.707	1.45
342.078	1.63
342.449	1.12
342.82	1.67
343.191	1.72
343.562	1.78
343.933	1.17
344.303	1.34
344.674	1.22
345.045	1.81
345.416	1.22
345.786	1.78
346.157	1.88
346.527	1.71
346.898	1.51
347.268	1.55
347.639	1.94
348.009	1.72
348.38	1.25
348.75	1.5
349.12	1.62
349.49	1.28
349.861	0.89
350.231	1.26
350.601	1.82
350.971	1.82
351.341	1.14
351.711	1.63
352.081	1.21
352.45	1.09
352.82	1.37
353.19	1.69
353.56	1.47
353.929	1.74
354.299	1.98
354.669	1.66
355.038	1.76
355.408	1.38
355.777	1.55
356.147	1.77
356.516	1.6
356.885	1.5
357.254	1.72
357.624	1.54
357.993	1.39
358.362	1.85
358.731	1.56
359.1	1.99
359.469	1.9
359.838	1.63
360.207	1.75
360.576	1.9
360.945	2.16
361.314	2
361.682	1.34
362.051	1.55
362.42	1.56
362.788	1.27
363.157	1.45
363.525	1.24
363.894	1.76
364.262	1.48
364.631	1.83
364.999	1.82
365.367	1.57
365.735	1.99
366.104	1.32
366.472	1.79
366.84	1.45
367.208	1.23
367.576	1.94
367.944	1.73
368.312	1.58
368.68	1.66
369.048	1.55
369.416	1.35
369.783	1.76
370.151	1.75
370.519	2.18
370.886	1.65
371.254	1.85
371.621	1.94
371.989	1.74
372.356	1.9
372.724	1.8
373.091	1.9
373.458	1.73
373.826	1.91
374.193	1.78
374.56	2.12
374.927	1.86
375.294	1.72
375.661	1.49
376.028	1.85
376.395	1.71
376.762	1.87
377.129	2
377.496	1.76
377.863	1.46
378.229	1.81
378.596	1.75
378.963	1.86
379.329	1.85
379.696	1.77
380.062	1.96
380.429	1.87
380.795	2.06
381.161	1.74
381.528	2.02
381.894	1.72
382.26	2
382.626	1.67
382.993	1.94
383.359	1.84
383.725	1.43
384.091	1.92
384.457	1.76
384.823	1.88
385.188	1.97
385.554	1.6
385.92	1.7
386.286	1.71
386.651	1.67
387.017	1.82
387.383	1.88
387.748	1.68
388.114	1.6
388.479	1.94
388.845	1.59
389.21	1.76
389.575	2.1
389.94	1.75
390.306	2.12
390.671	1.92
391.036	1.88
391.401	2.21
391.766	1.83
392.131	1.97
392.496	2.04
392.861	2.14
393.226	1.93
393.591	2.03
393.956	1.88
394.32	2.09
394.685	1.71
395.05	1.94
395.414	2.07
395.779	1.69
396.143	1.84
396.508	1.84
396.872	1.85
397.236	1.8
397.601	1.77
397.965	2.15
398.329	1.68
398.694	1.89
399.058	1.79
399.422	1.66
399.786	2.04
400.15	1.82
400.514	2.05
400.878	1.75
401.242	1.96
401.605	1.86
401.969	1.72
402.333	1.77
402.697	1.79
403.06	1.8
403.424	2.01
403.787	2.02
404.151	2
404.514	1.81
404.878	1.92
405.241	2.06
405.604	1.78
405.968	2.02
406.331	1.83
406.694	1.88
407.057	1.92
407.42	1.95
407.783	1.89
408.146	2.1
408.509	1.92
408.872	1.81
409.235	1.65
409.598	1.87
409.961	1.83
410.323	2.07
410.686	1.85
411.049	2.04
411.411	1.78
411.774	2
412.136	1.75
412.499	2.12
412.861	2.04
413.223	2
413.586	2.3
413.948	1.97
414.31	1.85
414.672	1.58
415.035	1.85
415.397	2
415.759	2
416.121	2.02
416.483	1.96
416.845	1.9
417.206	1.9
417.568	1.92
417.93	1.96
418.292	2
418.653	1.69
419.015	1.89
419.377	2
419.738	2
420.1	1.93
420.461	1.81
420.822	1.79
421.184	1.92
421.545	1.86
421.906	1.87
422.267	1.9
422.629	1.98
422.99	1.76
423.351	1.79
423.712	1.85
424.073	1.84
424.434	1.88
424.795	1.93
425.155	1.78
425.516	1.86
425.877	1.78
426.238	1.85
426.598	1.9
426.959	1.9
427.32	1.86
427.68	1.87
428.041	1.8
428.401	1.85
428.761	1.85
429.122	1.84
429.482	1.96
429.842	1.92
430.202	1.87
430.563	1.89
430.923	1.94
431.283	1.97
431.643	1.88
432.003	1.99
432.363	1.94
432.722	1.8
433.082	1.85
433.442	1.86
433.802	1.84
434.161	1.92
434.521	1.83
434.881	2
435.24	1.89
435.6	1.86
435.959	1.94
436.319	1.87
436.678	2
437.037	1.87
437.396	1.92
437.756	2.03
438.115	2.15
438.474	2.02
438.833	1.94
439.192	1.94
439.551	1.94
439.91	1.94
440.269	1.96
440.628	1.9
440.987	1.97
441.345	1.91
441.704	1.97
442.063	1.91
442.421	1.99
442.78	1.92
443.138	1.89
443.497	1.91
443.855	1.78
444.214	2.06
444.572	1.78
444.93	2.07
445.288	1.92
445.647	2.07
446.005	1.77
446.363	1.77
446.721	1.83
447.079	1.81
447.437	1.95
447.795	1.77
448.153	2.03
448.51	1.93
448.868	1.89
449.226	1.76
449.584	1.95
449.941	1.98
450.299	1.95
450.656	1.87
451.014	2.06
451.371	1.82
451.729	1.96
452.086	2.03
452.443	2.01
452.801	2.02
453.158	1.9
453.515	1.77
453.872	1.94
454.229	2.02
454.586	1.89
454.943	2.01
455.3	1.95
455.657	1.97
456.014	1.79
456.371	2.07
456.727	1.96
457.084	1.99
457.441	1.93
457.797	2.01
458.154	1.91
458.51	2.09
458.867	1.81
459.223	1.89
459.58	1.77
459.936	2.02
460.292	1.98
460.648	1.84
461.005	1.87
461.361	1.95
461.717	1.86
462.073	1.92
462.429	1.93
462.785	1.86
463.141	1.94
463.496	2
463.852	1.86
464.208	1.97
464.564	1.9
464.919	1.91
465.275	1.85
465.631	1.62
465.986	2
466.342	1.96
466.697	1.86
467.052	1.97
467.408	2.1
467.763	1.91
468.118	1.99
468.473	2
468.829	2.03
469.184	2.14
469.539	2.07
469.894	1.83
470.249	1.9
470.603	1.86
470.958	1.97
471.313	1.87
471.668	1.95
472.023	2.22
472.377	2.04
472.732	1.95
473.086	2.03
473.441	1.97
473.795	1.94
474.15	1.88
474.504	1.82
474.859	2.03
475.213	1.95
475.567	1.93
475.921	1.88
476.275	1.85
476.63	1.96
476.984	1.92
477.338	1.79
477.692	1.92
478.045	2.03
478.399	1.87
478.753	1.77
479.107	1.82
479.461	1.96
479.814	1.92
480.168	1.96
480.521	2.02
480.875	1.96
481.228	1.86
481.582	2.04
481.935	2
482.289	1.92
482.642	1.85
482.995	1.96
483.348	1.81
483.701	1.82
484.055	1.86
484.408	1.89
484.761	1.86
485.114	1.86
485.466	1.76
485.819	1.75
486.172	1.8
486.525	1.8
486.878	1.87
487.23	1.87
487.583	1.88
487.936	1.86
488.288	1.94
488.641	1.83
488.993	1.78
489.345	1.86
489.698	1.88
490.05	1.85
490.402	1.78
490.754	1.85
491.107	1.85
491.459	1.85
491.811	1.94
492.163	1.94
492.515	2.06
492.866	1.91
493.218	1.77
493.57	1.83
493.922	1.82
494.274	1.86
494.625	1.91
494.977	2.02
495.328	1.96
495.68	1.98
496.031	1.82
496.383	1.86
496.734	2.04
497.086	1.91
497.437	1.91
497.788	1.97
498.139	1.88
498.49	1.95
498.842	1.95
499.193	1.96
499.544	1.91
499.894	1.95
500.245	1.96
500.596	1.92
500.947	1.98
501.298	1.96
501.648	1.92
501.999	1.91
502.35	2
502.7	2.01
503.051	1.93
503.401	1.97
503.752	1.88
504.102	1.95
504.452	1.96
504.803	2.08
505.153	1.97
505.503	2.02
505.853	1.98
506.203	1.96
506.553	1.99
506.903	1.81
507.253	2.01
507.603	1.84
507.953	2.04
508.303	1.78
508.652	1.92
509.002	1.93
509.352	1.97
509.701	2
510.051	1.88
510.4	1.89
510.75	1.89
511.099	1.89
511.449	1.94
511.798	1.84
512.147	2.02
512.496	1.96
512.846	1.92
513.195	1.9
513.544	1.91
513.893	1.88
514.242	1.91
514.591	1.91
514.939	1.83
515.288	1.95
515.637	1.88
515.986	1.84
516.334	2.03
516.683	1.97
517.032	1.95
517.38	1.93
517.729	1.89
518.077	1.93
518.426	2.14
518.774	1.98
519.122	1.91
519.47	1.91
519.819	1.92
520.167	1.89
520.515	1.82
520.863	1.92
521.211	1.97
521.559	1.88
521.907	2.01
522.255	1.87
522.602	1.85
522.95	2.03
523.298	1.96
523.645	2.03
523.993	2
524.341	2.02
524.688	1.88
525.036	1.93
525.383	1.92
525.73	2
526.078	1.96
526.425	1.85
526.772	1.87
527.119	1.92
527.466	1.89
527.814	1.95
528.161	1.81
528.508	1.89
528.854	1.88
529.201	1.82
529.548	1.83
529.895	1.82
530.242	1.81
530.588	1.79
530.935	1.82
531.282	1.87
531.628	1.89
531.975	1.9
532.321	1.88
532.667	1.88
533.014	1.85
533.36	1.82
533.706	1.91
534.052	1.82
534.399	1.94
534.745	1.76
535.091	1.83
535.437	1.83
535.783	1.84
536.129	1.94
536.474	1.91
536.82	1.87
537.166	1.93
537.512	1.86
537.857	1.91
538.203	1.88
538.549	1.91
538.894	1.98
539.239	1.93
539.585	2.03
539.93	1.86
540.276	1.93
540.621	1.89
540.966	2.1
541.311	1.9
541.656	1.89
542.001	1.91
542.346	2.01
542.691	1.94
543.036	1.81
543.381	1.76
543.726	1.78
544.071	1.85
544.415	1.81
544.76	1.89
545.105	1.9
545.449	1.85
545.794	1.89
546.138	1.88
546.483	1.99
546.827	1.88
547.171	1.86
547.516	1.83
547.86	1.97
548.204	1.9
548.548	1.83
548.892	1.88
549.236	1.87
549.58	1.97
549.924	2.06
550.268	1.87
550.612	1.88
550.956	1.86
551.3	1.89
551.643	1.92
551.987	2.06
552.33	1.98
552.674	1.97
553.017	2.02
553.361	1.87
553.704	1.87
554.048	2.02
554.391	1.88
554.734	2.01
555.077	1.94
555.42	2.1
555.764	2
556.107	1.98
556.45	1.94
556.793	1.99
557.135	1.97
557.478	1.92
557.821	1.85
558.164	1.98
558.507	1.85
558.849	2.02
559.192	1.88
559.534	1.86
559.877	1.89
560.219	1.87
560.562	2.02
560.904	2.04
561.246	2.01
561.589	1.87
561.931	1.97
562.273	1.74
562.615	1.95
562.957	1.84
563.299	1.98
563.641	1.71
563.983	2.01
564.325	2.14
564.667	1.99
565.008	1.95
565.35	2.13
565.692	1.95
566.033	2.08
566.375	2.11
566.716	1.89
567.058	1.92
567.399	1.94
567.741	1.81
568.082	1.87
568.423	1.92
568.764	1.92
569.105	2.04
569.447	2.03
569.788	1.86
570.129	1.93
570.47	1.95
570.811	1.74
571.151	1.86
571.492	2.07
571.833	1.77
572.174	1.96
572.514	1.84
572.855	1.92
573.195	1.94
573.536	2.06
573.876	1.78
574.217	1.93
574.557	1.88
574.898	1.98
575.238	2.01
575.578	1.94
575.918	2.04
576.258	1.9
576.598	1.9
576.938	2.04
577.278	1.93
577.618	1.92
577.958	1.92
578.298	2.04
578.638	1.89
578.977	1.96
579.317	1.94
579.657	1.87
579.996	1.73
580.336	2.01
580.675	2.04
581.014	2.1
581.354	1.98
581.693	2.13
582.032	1.44
582.372	2.15
582.711	1.88
583.05	1.84
583.389	2.05
583.728	2.03
584.067	1.86
584.406	1.96
584.745	2.07
585.083	1.9
585.422	1.92
585.761	2.02
586.1	1.81
586.438	1.82
586.777	2.03
587.115	1.63
587.454	2.01
587.792	1.88
588.13	1.94
588.469	1.79
588.807	1.91
589.145	2.11
589.483	2.04
589.821	1.84
590.159	1.79
590.497	1.81
590.835	2.1
591.173	1.91
591.511	1.97
591.849	1.88
592.187	1.74
592.524	1.93
592.862	1.83
593.2	1.8
593.537	1.87
593.875	2.06
594.212	2.01
594.55	1.81
594.887	2.06
595.224	2.03
595.561	1.89
595.899	1.77
596.236	2
596.573	1.91
596.91	1.76
597.247	2.01
597.584	1.93
597.921	2.1
598.258	2.07
598.594	1.85
598.931	1.9
599.268	1.78
599.604	1.87
599.941	2.13
600.277	1.86
600.614	2.22
600.95	1.9
601.287	2.1
601.623	2
601.959	2.03
602.296	1.87
602.632	1.95
602.968	2.03
603.304	2.33
603.64	1.86
603.976	2.07
604.312	1.8
604.648	1.95
604.984	2.17
605.319	1.81
605.655	1.82
605.991	1.86
606.326	1.94
606.662	1.85
606.998	1.8
607.333	1.94
607.668	1.94
608.004	1.87
608.339	2.14
608.674	2.24
609.01	2.07
609.345	1.94
609.68	1.79
610.015	1.79
610.35	1.88
610.685	1.86
611.02	1.58
611.355	1.99
611.689	2.02
612.024	2.08
612.359	1.61
612.694	1.96
613.028	1.89
613.363	1.83
613.697	1.96
614.032	1.88
614.366	1.92
614.7	2.04
615.035	2.02
615.369	2.09
615.703	2.04
616.037	1.73
616.371	2.06
616.705	1.85
617.039	2.55
617.373	1.9
617.707	2.16
618.041	2.41
618.375	2.09
618.709	1.78
619.042	1.78
619.376	2.27
619.71	1.94
620.043	1.67
620.377	1.98
620.71	1.74
621.043	1.94
621.377	1.65
621.71	1.92
622.043	1.71
622.376	1.87
622.709	2
623.043	1.97
623.376	1.92
623.709	2.12
624.041	1.7
624.374	1.92
624.707	1.94
625.04	2.54
625.373	1.56
625.705	1.88
626.038	1.87
626.37	2.25
626.703	2.07
627.035	1.81
627.368	2.34
627.7	2.11
628.032	1.99
628.365	2.1
628.697	1.87
629.029	2.24
629.361	1.99
629.693	2.01
630.025	1.85
630.357	1.71
630.689	1.8
631.021	1.83
631.353	1.85
631.684	1.91
632.016	1.83
632.348	2.16
632.679	2.06
633.011	1.9
633.342	2.02
633.674	2.06
634.005	2.41
634.336	2.15
634.668	1.8
634.999	2
635.33	2.11
635.661	1.89
635.992	2.25
636.323	1.82
636.654	2.05
636.985	2.2
637.316	1.79
637.647	1.9
637.977	1.83
638.308	2.11
638.639	1.99
638.969	1.87
639.3	2.09
639.63	1.72
639.961	2.05
640.291	2.36
640.622	1.86
640.952	2.15
641.282	1.9
641.612	2.21
641.943	1.48
642.273	1.8
642.603	2.27
642.933	2.08
643.263	2.12
643.592	1.87
643.922	1.92
644.252	1.81
644.582	2.28
644.911	2.2
645.241	2.05
645.571	2.54
645.9	1.68
646.23	1.67
646.559	2.06
646.888	1.84
647.218	1.83
647.547	1.45
647.876	1.81
648.205	1.46
648.534	1.92
648.863	1.87
649.192	2.18
649.521	2.25
649.85	1.73
650.179	2.18
650.508	2.09
650.837	1.42
651.165	2.56
651.494	2.03
651.822	1.72
652.151	2.1
652.479	1.71
652.808	2.28
653.136	1.51
653.465	1.97
653.793	1.72
654.121	2.27
654.449	2.23
654.777	2.18
655.105	1.78
655.433	2.31
655.761	2.06
656.089	1.68
656.417	1.93
656.745	2.1
657.073	2.21
657.4	2.38
657.728	2.37
658.056	2.23
658.383	1.72
658.711	1.83
659.038	1.84
659.365	1.56
659.693	2.07
660.02	1.65
660.347	2.12
660.674	2.09
661.001	1.87
661.329	1.79
661.656	2.29
661.982	2.05
662.309	2.31
662.636	2.19
662.963	2.45
663.29	1.76
663.616	1.3
663.943	1.8
664.27	2.1
664.596	2.54
664.923	1.63
665.249	2.11
665.576	1.63
665.902	1.18
666.228	1.82
666.554	2.3
666.881	1.55
667.207	2.46
667.533	1.83
667.859	2
668.185	2.22
668.511	2.26
668.837	2.47
669.162	1.89
669.488	1.93
669.814	1.73
670.139	1.81
670.465	2.1
670.791	2.07
671.116	2.83
671.442	2.51
671.767	2.03
672.092	1.65
672.418	1.76
672.743	1.71
673.068	1.6
673.393	2.39
673.718	1.3
674.043	1.69
674.368	2.2
674.693	2.26
675.018	2.02
675.343	1.19
675.667	2.06
675.992	2.67
676.317	2.14
676.641	2.4
676.966	2.17
677.29	1.61
677.615	2.9
677.939	1.62
678.264	1.76
678.588	2.55
678.912	1.71
679.236	1.84
679.56	2.33
679.885	2.4
680.209	2.08
680.532	2.7
680.856	2.12
681.18	2.54
681.504	2.07
681.828	1.36
682.152	1.59
682.475	2.39
682.799	2.34
683.122	1.85
683.446	1.61
683.769	1.83
684.093	1.91
684.416	1.34
684.739	1.88
685.062	1.98
685.386	1.92
685.709	2.35
686.032	2.45
686.355	1.95
686.678	2.32
687.001	2
687.324	1.16
687.646	1.77
687.969	1.85
688.292	2.88
688.614	2.41
688.937	1.92
689.26	1.89
689.582	1.62
689.904	1.67
690.227	2.75
690.549	2.05
690.871	1.97
691.194	2.24
691.516	1.47
691.838	1.21
692.16	2.55
692.482	2.34
692.804	1.87
693.126	2.31
