Data from 0379_crown_Reflection__4__129.txt Node

Date: Mon Dec 11 19:04:57 CST 2023
User: ToomeyLab
Spectrometer: FLMS14357
Trigger mode: 0
Integration Time (sec): 1.000000E-2
Scans to average: 100
Electric dark correction enabled: true
Nonlinearity correction enabled: false
Boxcar width: 0
XAxis mode: Wavelengths
Number of Pixels in Spectrum: 2048
>>>>>Begin Spectral Data<<<<<
189.047	122.96
189.435	122.96
189.823	122.96
190.211	-19.97
190.599	131.63
190.987	-445.79
191.375	104.39
191.763	43.54
192.151	8.01
192.538	148.67
192.926	-679.02
193.314	105.77
193.702	100.52
194.089	-112.42
194.477	66.91
194.864	154.33
195.252	428.83
195.639	1090.18
196.027	226.45
196.414	-89.11
196.801	-22.49
197.189	-165.6
197.576	48.47
197.963	37.9
198.351	-4.32
198.738	-20.2
199.125	-73.77
199.512	-1.08
199.899	5.59
200.286	-2.15
200.673	-166.98
201.06	43.03
201.447	37.65
201.833	44.7
202.22	30.84
202.607	-10.75
202.994	44.76
203.38	-165.7
203.767	64.35
204.154	10.37
204.54	1.26
204.927	-45.74
205.313	18.35
205.699	-50.3
206.086	4.78
206.472	25.05
206.858	12.75
207.245	6.98
207.631	-6.98
208.017	-2.24
208.403	-14.8
208.789	-20.64
209.175	20.01
209.561	-17.65
209.947	-33.47
210.333	19.25
210.719	16.67
211.105	10.46
211.491	19.47
211.876	-9.99
212.262	-28.61
212.648	-7.36
213.034	6.51
213.419	-19.52
213.805	-19.84
214.19	-28.22
214.576	-3.85
214.961	-9.09
215.346	17.67
215.732	6.57
216.117	-8.88
216.502	27.94
216.888	-7.73
217.273	8.99
217.658	-3.18
218.043	-16.96
218.428	-4.18
218.813	2.36
219.198	-1.93
219.583	-2.35
219.968	-21.37
220.353	-11.14
220.738	-6.13
221.122	-7.26
221.507	16.67
221.892	8.04
222.276	1.02
222.661	-25.66
223.046	-14.27
223.43	3.74
223.815	-6.77
224.199	6.53
224.583	-0.35
224.968	17.61
225.352	8.49
225.736	-1.29
226.121	5.21
226.505	-5.17
226.889	5.98
227.273	-3.36
227.657	9.04
228.041	1.63
228.425	-0.9
228.809	-1.63
229.193	5.19
229.577	5.68
229.961	2.59
230.344	3.74
230.728	3.66
231.112	4.53
231.495	5.16
231.879	3.87
232.263	4.25
232.646	2.82
233.03	3.68
233.413	4.68
233.797	6.61
234.18	2.94
234.563	2.37
234.946	5.93
235.33	6.33
235.713	4.3
236.096	6.76
236.479	5.29
236.862	3.93
237.245	4.03
237.628	3.73
238.011	4.22
238.394	3.75
238.777	2.66
239.16	4.14
239.543	3.86
239.925	4.34
240.308	4.97
240.691	3.08
241.073	4.43
241.456	3.73
241.838	5.47
242.221	5.16
242.603	3.93
242.986	3.98
243.368	4.21
243.75	4.26
244.133	4.45
244.515	3.9
244.897	4.19
245.279	4.24
245.661	3.93
246.043	3.54
246.425	4.03
246.807	3.93
247.189	4.1
247.571	4.19
247.953	3.4
248.335	4.09
248.717	4.14
249.098	4.01
249.48	4.01
249.862	4.28
250.243	4.26
250.625	3.64
251.006	3.83
251.388	3.78
251.769	4.13
252.151	4.51
252.532	3.9
252.913	4.5
253.295	4.34
253.676	4.51
254.057	3.85
254.438	4.46
254.819	3.23
255.2	2.49
255.581	2.17
255.962	2.7
256.343	3.31
256.724	3.75
257.105	4.08
257.486	2.12
257.867	3.99
258.247	2.05
258.628	3.95
259.009	4.63
259.389	4.43
259.77	3.39
260.15	3.04
260.531	2.99
260.911	3.01
261.292	3.56
261.672	3.8
262.052	3.57
262.432	3.47
262.813	3.62
263.193	3.43
263.573	3.59
263.953	3.85
264.333	3.55
264.713	3.74
265.093	3.17
265.473	4.02
265.853	2.9
266.233	3.36
266.612	2.97
266.992	3.67
267.372	4.66
267.752	3.98
268.131	3.91
268.511	3.41
268.89	3.87
269.27	3.59
269.649	3.71
270.029	3.52
270.408	3.02
270.787	3.15
271.167	2.89
271.546	3.12
271.925	3.36
272.304	3.41
272.683	3.43
273.062	2.56
273.441	3
273.82	3.12
274.199	3.02
274.578	3.5
274.957	3.53
275.336	3.08
275.715	2.78
276.093	4
276.472	3.34
276.851	3.73
277.229	3.73
277.608	2.62
277.986	3.11
278.365	3.06
278.743	3.52
279.122	3.07
279.5	2.37
279.878	2.67
280.257	3.08
280.635	3.21
281.013	3.21
281.391	3.14
281.769	2.77
282.147	3.05
282.525	2.33
282.903	3.41
283.281	2.89
283.659	2.88
284.037	2.71
284.415	3.23
284.792	3.34
285.17	3.27
285.548	3.15
285.925	2.82
286.303	2.84
286.68	2.71
287.058	3.15
287.435	3.15
287.813	3.36
288.19	2.73
288.567	3.02
288.945	3.08
289.322	2.72
289.699	2.65
290.076	2.19
290.453	3.5
290.83	3.45
291.207	3.51
291.584	3.28
291.961	3.05
292.338	3.5
292.715	3.52
293.092	3
293.469	3.13
293.845	3.25
294.222	3.16
294.599	3.05
294.975	2.93
295.352	2.52
295.728	3.14
296.105	2.87
296.481	3.12
296.858	2.82
297.234	2.89
297.61	3.13
297.986	3.77
298.363	3.09
298.739	3.27
299.115	3.23
299.491	3.41
299.867	3.27
300.243	2.87
300.619	3.33
300.995	2.93
301.371	2.81
301.746	3.11
302.122	3.26
302.498	3.86
302.874	2.91
303.249	3.31
303.625	3.08
304	3.18
304.376	3.04
304.751	2.97
305.127	3.16
305.502	2.77
305.878	3.28
306.253	3.53
306.628	3.24
307.003	3.39
307.378	2.98
307.754	3.27
308.129	2.77
308.504	3.63
308.879	2.71
309.254	3.44
309.629	3.11
310.003	3.25
310.378	2.41
310.753	3.1
311.128	2.99
311.502	2.57
311.877	3.44
312.252	3.54
312.626	3.21
313.001	3.61
313.375	2.8
313.75	3.07
314.124	3.06
314.498	3.15
314.873	3.15
315.247	2.98
315.621	3.67
315.995	3.32
316.369	3.58
316.743	3.12
317.117	3.27
317.491	3.37
317.865	3.22
318.239	3.12
318.613	3.5
318.987	3.5
319.361	3.14
319.734	3.19
320.108	3.46
320.482	3.26
320.855	3.07
321.229	3.39
321.602	3.49
321.976	3.42
322.349	3.6
322.723	3.16
323.096	3.39
323.469	3.05
323.843	3.68
324.216	3.6
324.589	2.95
324.962	2.78
325.335	3.41
325.708	3.44
326.081	3.79
326.454	3.22
326.827	3.06
327.2	2.99
327.573	2.98
327.945	3.46
328.318	3.1
328.691	3.05
329.063	3.59
329.436	3.23
329.809	2.65
330.181	2.96
330.553	3.5
330.926	3.59
331.298	3.75
331.671	2.49
332.043	3.7
332.415	3.42
332.787	3.45
333.159	3.17
333.532	3.33
333.904	3.14
334.276	3.74
334.648	4.06
335.02	2.93
335.391	3.47
335.763	3.38
336.135	3.59
336.507	3.27
336.879	3.58
337.25	3.23
337.622	3.09
337.993	3.47
338.365	3.49
338.736	3.85
339.108	3.46
339.479	3.17
339.851	3.7
340.222	3.64
340.593	3.13
340.964	3.55
341.336	3.47
341.707	3.53
342.078	4.1
342.449	3.49
342.82	2.71
343.191	3.19
343.562	3.4
343.933	3.1
344.303	3.02
344.674	3.43
345.045	3.66
345.416	2.85
345.786	3.46
346.157	3.65
346.527	3.51
346.898	3.92
347.268	3.38
347.639	3.84
348.009	3.79
348.38	3.09
348.75	3.39
349.12	3.45
349.49	3.39
349.861	2.95
350.231	3.27
350.601	3.56
350.971	3.55
351.341	2.76
351.711	3.89
352.081	3.44
352.45	3.67
352.82	3.01
353.19	3.36
353.56	3.35
353.929	3.46
354.299	3.95
354.669	3.84
355.038	3.42
355.408	2.6
355.777	3.29
356.147	3.6
356.516	3.19
356.885	3.65
357.254	3.5
357.624	3.46
357.993	3.34
358.362	3.69
358.731	3.22
359.1	3.71
359.469	3.69
359.838	3.36
360.207	3.37
360.576	3.46
360.945	3.79
361.314	3.88
361.682	3.26
362.051	3.48
362.42	3.47
362.788	3.4
363.157	3.66
363.525	3.2
363.894	3.54
364.262	3.65
364.631	3.8
364.999	3.56
365.367	3.86
365.735	3.7
366.104	3.22
366.472	3.64
366.84	3.55
367.208	3.54
367.576	3.76
367.944	3.42
368.312	3.62
368.68	3.6
369.048	3.49
369.416	3.71
369.783	3.65
370.151	3.73
370.519	3.99
370.886	3.62
371.254	3.86
371.621	3.94
371.989	3.58
372.356	3.88
372.724	4.26
373.091	4.15
373.458	3.59
373.826	3.73
374.193	3.69
374.56	4.06
374.927	3.88
375.294	3.88
375.661	3.94
376.028	3.94
376.395	3.72
376.762	3.94
377.129	3.93
377.496	3.85
377.863	3.77
378.229	3.99
378.596	4.17
378.963	4
379.329	3.78
379.696	4.07
380.062	3.56
380.429	3.79
380.795	3.83
381.161	3.85
381.528	3.8
381.894	3.81
382.26	3.84
382.626	3.82
382.993	3.94
383.359	3.83
383.725	3.56
384.091	3.89
384.457	3.44
384.823	4.18
385.188	3.75
385.554	3.72
385.92	3.75
386.286	3.92
386.651	3.93
387.017	4.01
387.383	3.72
387.748	3.98
388.114	3.82
388.479	3.96
388.845	3.92
389.21	4.12
389.575	3.67
389.94	4.05
390.306	3.82
390.671	3.93
391.036	3.85
391.401	4.1
391.766	4
392.131	3.83
392.496	4.05
392.861	4.19
393.226	3.9
393.591	4.1
393.956	4.01
394.32	4.05
394.685	3.81
395.05	4.16
395.414	4.08
395.779	3.72
396.143	3.85
396.508	3.91
396.872	4.05
397.236	3.78
397.601	4
397.965	4.18
398.329	3.89
398.694	4.04
399.058	3.86
399.422	3.93
399.786	3.85
400.15	4.05
400.514	4.12
400.878	3.94
401.242	3.94
401.605	3.83
401.969	3.81
402.333	3.98
402.697	3.91
403.06	3.93
403.424	3.85
403.787	4.37
404.151	3.85
404.514	3.94
404.878	4.07
405.241	4.08
405.604	3.86
405.968	3.95
406.331	3.7
406.694	3.84
407.057	4.09
407.42	4.32
407.783	3.84
408.146	4.28
408.509	3.78
408.872	3.79
409.235	3.82
409.598	4.09
409.961	4.31
410.323	3.97
410.686	3.9
411.049	3.99
411.411	3.94
411.774	4.16
412.136	3.91
412.499	4.2
412.861	3.8
413.223	3.85
413.586	4.19
413.948	4.04
414.31	3.91
414.672	3.73
415.035	3.98
415.397	3.95
415.759	4.08
416.121	4.22
416.483	4.05
416.845	4.17
417.206	4.21
417.568	4.02
417.93	4.09
418.292	3.9
418.653	3.65
419.015	3.86
419.377	4.08
419.738	3.92
420.1	4.02
420.461	4.02
420.822	3.83
421.184	4.01
421.545	4.03
421.906	3.93
422.267	3.98
422.629	3.95
422.99	3.91
423.351	3.83
423.712	3.89
424.073	4.02
424.434	3.85
424.795	4.03
425.155	4.05
425.516	3.81
425.877	3.82
426.238	3.96
426.598	3.89
426.959	3.94
427.32	3.88
427.68	3.92
428.041	3.84
428.401	3.94
428.761	4.01
429.122	3.9
429.482	4.04
429.842	4
430.202	3.99
430.563	4.02
430.923	4.05
431.283	4.07
431.643	4.09
432.003	4.08
432.363	4.03
432.722	3.96
433.082	4.22
433.442	4.1
433.802	3.86
434.161	4.27
434.521	3.9
434.881	3.98
435.24	3.94
435.6	4
435.959	3.91
436.319	4.03
436.678	3.97
437.037	4.09
437.396	4.02
437.756	4.24
438.115	4.04
438.474	4.08
438.833	4
439.192	4.03
439.551	4.09
439.91	4.11
440.269	4.21
440.628	3.87
440.987	4.15
441.345	4.07
441.704	4.06
442.063	3.97
442.421	3.95
442.78	3.94
443.138	4.06
443.497	3.83
443.855	3.92
444.214	4.18
444.572	3.97
444.93	4.16
445.288	3.99
445.647	4.22
446.005	3.8
446.363	4.05
446.721	3.96
447.079	3.95
447.437	4
447.795	3.95
448.153	4.05
448.51	3.96
448.868	3.89
449.226	3.8
449.584	3.96
449.941	4.05
450.299	3.99
450.656	4.01
451.014	4.04
451.371	4.01
451.729	4.2
452.086	4.13
452.443	4.16
452.801	4.1
453.158	4.09
453.515	3.97
453.872	4.11
454.229	4.04
454.586	4.03
454.943	4.1
455.3	3.93
455.657	4.15
456.014	3.85
456.371	4.27
456.727	4.05
457.084	4.04
457.441	4.05
457.797	3.93
458.154	3.92
458.51	4.15
458.867	3.95
459.223	3.98
459.58	3.99
459.936	4.16
460.292	4.04
460.648	4.19
461.005	3.94
461.361	4.08
461.717	3.94
462.073	3.95
462.429	3.94
462.785	3.93
463.141	3.92
463.496	4.05
463.852	4.11
464.208	4.02
464.564	4.01
464.919	3.94
465.275	3.84
465.631	4.09
465.986	4.17
466.342	4.11
466.697	4.02
467.052	4.06
467.408	4.16
467.763	4.03
468.118	3.79
468.473	3.98
468.829	4.13
469.184	4.32
469.539	4.17
469.894	4.04
470.249	3.95
470.603	4.03
470.958	4.08
471.313	3.96
471.668	4.14
472.023	4.14
472.377	3.9
472.732	4.03
473.086	4.22
473.441	4.15
473.795	4.07
474.15	4.11
474.504	3.99
474.859	4.23
475.213	4.02
475.567	4.1
475.921	4.13
476.275	4.03
476.63	4.1
476.984	4.21
477.338	3.92
477.692	3.97
478.045	3.95
478.399	3.93
478.753	3.88
479.107	3.99
479.461	4.12
479.814	4.01
480.168	4.08
480.521	4.12
480.875	4.04
481.228	4.04
481.582	4.25
481.935	4.03
482.289	4.2
482.642	3.93
482.995	3.98
483.348	3.84
483.701	3.9
484.055	4.04
484.408	3.95
484.761	4.02
485.114	3.9
485.466	3.79
485.819	3.76
486.172	3.76
486.525	3.75
486.878	3.85
487.23	3.86
487.583	3.91
487.936	3.87
488.288	3.97
488.641	3.82
488.993	3.82
489.345	3.87
489.698	3.78
490.05	3.79
490.402	3.8
490.754	3.81
491.107	3.88
491.459	3.83
491.811	4.01
492.163	3.98
492.515	4
492.866	3.99
493.218	3.79
493.57	3.84
493.922	3.83
494.274	3.86
494.625	3.9
494.977	4
495.328	3.98
495.68	4.07
496.031	4.04
496.383	4.1
496.734	4
497.086	4.04
497.437	4.09
497.788	4.03
498.139	3.86
498.49	4
498.842	4.09
499.193	4.03
499.544	3.93
499.894	4.12
500.245	4.05
500.596	4.07
500.947	4.03
501.298	4.05
501.648	3.98
501.999	3.99
502.35	4.03
502.7	4.07
503.051	4.06
503.401	4.05
503.752	3.98
504.102	3.96
504.452	4.03
504.803	4.12
505.153	4.13
505.503	4.13
505.853	4.12
506.203	4.03
506.553	4.13
506.903	3.85
507.253	4.19
507.603	3.87
507.953	4.13
508.303	3.96
508.652	4.07
509.002	3.94
509.352	4.12
509.701	3.98
510.051	4.03
510.4	3.89
510.75	3.95
511.099	4
511.449	4.08
511.798	4
512.147	4.12
512.496	3.83
512.846	4.02
513.195	4.13
513.544	4.03
513.893	3.94
514.242	4.07
514.591	3.88
514.939	3.88
515.288	3.98
515.637	4
515.986	4
516.334	3.99
516.683	4.04
517.032	4
517.38	4.14
517.729	3.95
518.077	4
518.426	4.12
518.774	4.09
519.122	3.99
519.47	4.05
519.819	3.95
520.167	3.96
520.515	3.86
520.863	3.85
521.211	3.95
521.559	3.95
521.907	4.02
522.255	3.88
522.602	4.05
522.95	4.04
523.298	4.05
523.645	4.14
523.993	4
524.341	4.01
524.688	3.95
525.036	4.03
525.383	4.02
525.73	3.99
526.078	4
526.425	3.96
526.772	3.96
527.119	3.94
527.466	3.95
527.814	3.96
528.161	3.92
528.508	3.82
528.854	3.85
529.201	3.85
529.548	3.86
529.895	3.81
530.242	3.77
530.588	3.75
530.935	3.78
531.282	3.75
531.628	3.77
531.975	3.84
532.321	3.92
532.667	3.94
533.014	3.9
533.36	3.96
533.706	3.96
534.052	3.89
534.399	3.9
534.745	3.89
535.091	3.8
535.437	3.78
535.783	3.84
536.129	3.93
536.474	3.89
536.82	3.89
537.166	3.9
537.512	3.87
537.857	3.93
538.203	3.93
538.549	3.9
538.894	3.9
539.239	3.98
539.585	3.83
539.93	3.86
540.276	4
540.621	4.05
540.966	4.08
541.311	4.09
541.656	3.89
542.001	4.03
542.346	3.87
542.691	3.85
543.036	3.76
543.381	3.76
543.726	3.77
544.071	3.83
544.415	3.83
544.76	3.89
545.105	3.97
545.449	3.87
545.794	3.85
546.138	3.9
546.483	3.88
546.827	3.98
547.171	3.87
547.516	3.94
547.86	4
548.204	3.97
548.548	3.88
548.892	3.87
549.236	3.87
549.58	3.97
549.924	3.97
550.268	3.9
550.612	3.96
550.956	3.88
551.3	3.85
551.643	4.11
551.987	4.16
552.33	4.15
552.674	4.23
553.017	3.95
553.361	3.9
553.704	4
554.048	4.15
554.391	3.89
554.734	4.01
555.077	4.05
555.42	4.1
555.764	3.99
556.107	4
556.45	3.96
556.793	3.81
557.135	4.11
557.478	4.12
557.821	3.95
558.164	4.02
558.507	3.79
558.849	4.03
559.192	4.01
559.534	4.15
559.877	3.91
560.219	4.13
560.562	4.18
560.904	4.05
561.246	3.93
561.589	3.97
561.931	4.06
562.273	3.85
562.615	4
562.957	4.1
563.299	4.13
563.641	3.75
563.983	4.1
564.325	4.21
564.667	4.2
565.008	3.99
565.35	4.17
565.692	4.07
566.033	4.13
566.375	4.25
566.716	4.1
567.058	4.05
567.399	3.94
567.741	3.88
568.082	3.97
568.423	3.97
568.764	3.95
569.105	3.88
569.447	4.07
569.788	4.02
570.129	3.94
570.47	3.98
570.811	3.89
571.151	3.91
571.492	3.89
571.833	3.98
572.174	4.13
572.514	3.97
572.855	3.89
573.195	4.07
573.536	3.95
573.876	3.91
574.217	3.87
574.557	3.84
574.898	4.05
575.238	4.07
575.578	4
575.918	4.04
576.258	3.95
576.598	3.99
576.938	4.09
577.278	4.01
577.618	4
577.958	3.88
578.298	4.18
578.638	4.18
578.977	4.09
579.317	4.15
579.657	3.94
579.996	3.91
580.336	4.07
580.675	4.1
581.014	4.03
581.354	4.08
581.693	4.17
582.032	3.67
582.372	4.1
582.711	3.93
583.05	4.14
583.389	4.01
583.728	4.24
584.067	3.84
584.406	3.83
584.745	3.87
585.083	3.97
585.422	3.92
585.761	4.2
586.1	4.06
586.438	3.79
586.777	3.97
587.115	3.86
587.454	3.98
587.792	3.98
588.13	4.1
588.469	3.88
588.807	4.03
589.145	4.19
589.483	4.02
589.821	3.82
590.159	3.88
590.497	3.86
590.835	3.9
591.173	3.89
591.511	3.93
591.849	4
592.187	3.79
592.524	3.99
592.862	3.99
593.2	3.8
593.537	3.94
593.875	4
594.212	3.93
594.55	3.82
594.887	4.19
595.224	3.96
595.561	4.04
595.899	3.89
596.236	3.87
596.573	3.97
596.91	3.71
597.247	3.96
597.584	3.97
597.921	3.68
598.258	4.08
598.594	4.05
598.931	3.75
599.268	4.08
599.604	3.84
599.941	4.14
600.277	3.96
600.614	4.08
600.95	3.93
601.287	4.07
601.623	3.83
601.959	3.86
602.296	4.04
602.632	3.91
602.968	3.79
603.304	4.05
603.64	3.97
603.976	4.21
604.312	4.03
604.648	3.75
604.984	3.94
605.319	3.92
605.655	3.9
605.991	3.87
606.326	3.92
606.662	3.73
606.998	3.67
607.333	4.05
607.668	4.03
608.004	3.66
608.339	4.07
608.674	4.16
609.01	3.9
609.345	3.86
609.68	3.82
610.015	3.91
610.35	3.89
610.685	3.73
611.02	3.81
611.355	4
611.689	3.93
612.024	3.88
612.359	3.79
612.694	4.08
613.028	3.87
613.363	4.04
613.697	3.74
614.032	3.94
614.366	3.97
614.7	3.97
615.035	3.94
615.369	4.04
615.703	4.15
616.037	3.86
616.371	3.92
616.705	3.76
617.039	4.09
617.373	4.16
617.707	4.1
618.041	4.4
618.375	4.1
618.709	3.85
619.042	3.84
619.376	4.08
619.71	3.79
620.043	3.8
620.377	3.83
620.71	3.88
621.043	3.84
621.377	3.68
621.71	4.02
622.043	3.67
622.376	3.68
622.709	3.97
623.043	4.04
623.376	3.91
623.709	4.13
624.041	4.09
624.374	3.84
624.707	3.82
625.04	4.26
625.373	3.81
625.705	4.1
626.038	3.96
626.37	3.96
626.703	4.02
627.035	3.95
627.368	3.76
627.7	3.93
628.032	3.99
628.365	4.09
628.697	4.1
629.029	4.26
629.361	4.07
629.693	4
630.025	3.79
630.357	3.75
630.689	3.68
631.021	4.02
631.353	3.66
631.684	4.15
632.016	3.86
632.348	4.23
632.679	4.21
633.011	3.75
633.342	3.77
633.674	4.3
634.005	4.21
634.336	4.11
634.668	3.92
634.999	4.5
635.33	3.62
635.661	3.77
635.992	4.07
636.323	3.86
636.654	4.18
636.985	3.83
637.316	4.33
637.647	4.23
637.977	3.98
638.308	4.3
638.639	3.8
638.969	3.72
639.3	3.9
639.63	3.77
639.961	3.92
640.291	4.26
640.622	3.81
640.952	4.45
641.282	3.8
641.612	4.34
641.943	3.73
642.273	3.94
642.603	4.19
642.933	4.2
643.263	3.89
643.592	4.21
643.922	4.47
644.252	3.52
644.582	4.31
644.911	4.16
645.241	3.41
645.571	3.78
645.9	4.04
646.23	3.79
646.559	3.98
646.888	3.97
647.218	4.01
647.547	3.74
647.876	3.8
648.205	3.6
648.534	4.06
648.863	4.16
649.192	4.14
649.521	4.37
649.85	3.69
650.179	3.94
650.508	4.44
650.837	3.8
651.165	4.55
651.494	4.14
651.822	3.8
652.151	4.19
652.479	4.37
652.808	4.1
653.136	3.84
653.465	4.32
653.793	4.23
654.121	4.16
654.449	3.97
654.777	4.02
655.105	3.9
655.433	3.65
655.761	4.36
656.089	3.87
656.417	3.79
656.745	4.16
657.073	4.24
657.4	4.33
657.728	4.23
658.056	4.34
658.383	4.09
658.711	4.51
659.038	4.07
659.365	4.29
659.693	4.35
660.02	3.91
660.347	4.39
660.674	4.22
661.001	3.53
661.329	4.28
661.656	4.18
661.982	4.08
662.309	4.42
662.636	4.18
662.963	4.47
663.29	3.81
663.616	3.62
663.943	3.68
664.27	4.82
664.596	4.61
664.923	4.31
665.249	4.55
665.576	4.02
665.902	3.81
666.228	3.94
666.554	4.34
666.881	4.23
667.207	4.24
667.533	3.72
667.859	4
668.185	4.62
668.511	4.25
668.837	4.9
669.162	4.51
669.488	4.51
669.814	3.97
670.139	4.01
670.465	4.42
670.791	4.22
671.116	4.42
671.442	4.49
671.767	4.74
672.092	4.02
672.418	4.21
672.743	3.45
673.068	3.89
673.393	4.42
673.718	4.26
674.043	4.56
674.368	4.27
674.693	4.14
675.018	4.26
675.343	4.09
675.667	4.23
675.992	4.24
676.317	3.85
676.641	4.86
676.966	4.79
677.29	4.27
677.615	5.5
677.939	3.84
678.264	4.07
678.588	5.03
678.912	3.39
679.236	4.3
679.56	4.32
679.885	4.06
680.209	3.86
680.532	4.76
680.856	4.67
681.18	4.5
681.504	3.83
681.828	4.13
682.152	4.09
682.475	4.29
682.799	4.33
683.122	4.16
683.446	3.53
683.769	4.23
684.093	4.63
684.416	4.12
684.739	4.34
685.062	4.5
685.386	4.71
685.709	3.75
686.032	4.25
686.355	4.21
686.678	4.39
687.001	4.58
687.324	3.84
687.646	4.31
687.969	4.3
688.292	5.04
688.614	4.93
688.937	4.81
689.26	4.15
689.582	4.36
689.904	4
690.227	5.2
690.549	4.78
690.871	3.92
691.194	4.52
691.516	3.88
691.838	4.5
692.16	5.19
692.482	5.19
692.804	4.31
693.126	4.59
693.448	4.48
693.769	3.58
