Data from 0371_forehead_Reflection__1__180.txt Node

Date: Fri Dec 15 18:09:08 CST 2023
User: ToomeyLab
Spectrometer: FLMS14357
Trigger mode: 0
Integration Time (sec): 1.000000E-2
Scans to average: 100
Electric dark correction enabled: true
Nonlinearity correction enabled: false
Boxcar width: 0
XAxis mode: Wavelengths
Number of Pixels in Spectrum: 2048
>>>>>Begin Spectral Data<<<<<
189.047	-95.13
189.435	-95.13
189.823	-95.13
190.211	-26.74
190.599	776.43
190.987	38.91
191.375	154.98
191.763	-28.85
192.151	-41.94
192.538	95.76
192.926	78.85
193.314	158.16
193.702	32.6
194.089	74.33
194.477	-84.68
194.864	-60.53
195.252	16.33
195.639	107.47
196.027	137.56
196.414	1528.14
196.801	-30.86
197.189	117.17
197.576	92.68
197.963	-83.32
198.351	-94.31
198.738	-43.69
199.125	6.53
199.512	-21.04
199.899	-24.87
200.286	40.34
200.673	4.9
201.06	-37.75
201.447	-42.37
201.833	4.17
202.22	35.77
202.607	20.89
202.994	-17.19
203.38	49.37
203.767	0.78
204.154	59.41
204.54	26.3
204.927	-60.93
205.313	-107.74
205.699	9.87
206.086	28.62
206.472	26.93
206.858	14.15
207.245	-133.6
207.631	8.35
208.017	31.9
208.403	-1.34
208.789	30.84
209.175	11.97
209.561	-52.81
209.947	3.24
210.333	-117.07
210.719	25.72
211.105	25.19
211.491	-47.26
211.876	35.25
212.262	-8.02
212.648	12.04
213.034	45.47
213.419	18.9
213.805	1.14
214.19	-63.93
214.576	10.56
214.961	-8.38
215.346	-57.75
215.732	25.79
216.117	7.13
216.502	-42.59
216.888	9.4
217.273	26.69
217.658	-16.54
218.043	8.86
218.428	-27.24
218.813	-26.94
219.198	-8.64
219.583	0.67
219.968	-2.13
220.353	-9.21
220.738	28.26
221.122	14.49
221.507	-17.93
221.892	-7.99
222.276	-18.92
222.661	-0.73
223.046	24.58
223.43	15.21
223.815	12.66
224.199	-3.35
224.583	-3.2
224.968	-2.07
225.352	-3.79
225.736	4.26
226.121	-5.25
226.505	13.57
226.889	9.58
227.273	-0.67
227.657	5.08
228.041	4.25
228.425	-0.71
228.809	4.59
229.193	7.2
229.577	2.22
229.961	3.98
230.344	3.89
230.728	3.57
231.112	4.48
231.495	3.83
231.879	1.98
232.263	4.27
232.646	5.51
233.03	2.96
233.413	3.43
233.797	3.86
234.18	1.73
234.563	5.54
234.946	-0.4
235.33	5.17
235.713	4.57
236.096	3.9
236.479	5.18
236.862	2.65
237.245	4.5
237.628	2.62
238.011	4.84
238.394	4.64
238.777	3.84
239.16	3.91
239.543	4.61
239.925	4.21
240.308	4.35
240.691	7.04
241.073	5.57
241.456	4.72
241.838	4.77
242.221	4.88
242.603	5.14
242.986	4.65
243.368	4.62
243.75	4.9
244.133	4.69
244.515	4.98
244.897	4.95
245.279	5.03
245.661	5.21
246.043	3.89
246.425	4.07
246.807	5.64
247.189	5.14
247.571	4.6
247.953	4.9
248.335	4.85
248.717	4.88
249.098	4.88
249.48	4.97
249.862	4.36
250.243	4.63
250.625	4.96
251.006	5.61
251.388	3.65
251.769	4.51
252.151	4.92
252.532	4.54
252.913	4.33
253.295	4.66
253.676	4.95
254.057	4.89
254.438	4.64
254.819	4.85
255.2	4.9
255.581	6.52
255.962	4.97
256.343	5.42
256.724	4.31
257.105	4.89
257.486	3.34
257.867	4.98
258.247	4.85
258.628	5.69
259.009	4.37
259.389	5.07
259.77	3.88
260.15	4.21
260.531	4.36
260.911	5.14
261.292	4.85
261.672	5.04
262.052	4.73
262.432	5.06
262.813	5.07
263.193	4.82
263.573	4.13
263.953	4.56
264.333	4.97
264.713	4.91
265.093	4.85
265.473	5.43
265.853	4.07
266.233	4.91
266.612	3.51
266.992	2.78
267.372	4.89
267.752	5.14
268.131	5.06
268.511	5.06
268.89	5.09
269.27	3.94
269.649	4.16
270.029	4.38
270.408	5.59
270.787	5.05
271.167	5.64
271.546	4.81
271.925	3.97
272.304	5
272.683	4.88
273.062	4.13
273.441	4.91
273.82	4.32
274.199	4.69
274.578	4.82
274.957	4.76
275.336	4.28
275.715	4.53
276.093	4.42
276.472	4.9
276.851	5.01
277.229	3.53
277.608	4.3
277.986	4.68
278.365	4.95
278.743	4.07
279.122	4.31
279.5	4.44
279.878	4.57
280.257	4.4
280.635	4.33
281.013	4.42
281.391	4.89
281.769	5.2
282.147	4.81
282.525	5.25
282.903	4.45
283.281	4.78
283.659	4.62
284.037	4.31
284.415	4.53
284.792	5.15
285.17	4.42
285.548	4.67
285.925	5.07
286.303	4.95
286.68	4.67
287.058	5.01
287.435	4.4
287.813	5.38
288.19	4.73
288.567	4.78
288.945	5.12
289.322	4.91
289.699	5.2
290.076	4.94
290.453	4.8
290.83	4.61
291.207	5.08
291.584	5.34
291.961	5.28
292.338	5.09
292.715	5.5
293.092	5.24
293.469	5.32
293.845	5.52
294.222	4.88
294.599	5.53
294.975	5.24
295.352	5.42
295.728	4.87
296.105	6.07
296.481	6.28
296.858	5.79
297.234	5.67
297.61	5.83
297.986	5.45
298.363	6.11
298.739	6.27
299.115	5.78
299.491	5.69
299.867	6.02
300.243	6.41
300.619	6.15
300.995	6.49
301.371	6.6
301.746	6.75
302.122	6.7
302.498	6.5
302.874	6.48
303.249	6.91
303.625	6.3
304	6.6
304.376	5.89
304.751	6.26
305.127	7.36
305.502	6.61
305.878	6.62
306.253	6.85
306.628	7.65
307.003	6.87
307.378	7.5
307.754	7.33
308.129	6.61
308.504	6.79
308.879	7.2
309.254	8.56
309.629	7.54
310.003	6.81
310.378	7.6
310.753	7.25
311.128	7.26
311.502	7.24
311.877	7.68
312.252	7.13
312.626	7.68
313.001	7.26
313.375	7.57
313.75	7.16
314.124	7.95
314.498	7.51
314.873	7.68
315.247	7.64
315.621	7.46
315.995	7.46
316.369	7.94
316.743	8.31
317.117	8.45
317.491	7.97
317.865	7.78
318.239	8.32
318.613	8.14
318.987	8.1
319.361	7.49
319.734	8.77
320.108	8.04
320.482	8.19
320.855	8.23
321.229	8.24
321.602	8.41
321.976	8.7
322.349	8.08
322.723	8.58
323.096	8.73
323.469	7.66
323.843	9.11
324.216	8.89
324.589	8.47
324.962	8.79
325.335	8.79
325.708	8.39
326.081	8.91
326.454	9.06
326.827	8.83
327.2	9.01
327.573	9.75
327.945	8.85
328.318	9.09
328.691	8.57
329.063	8.92
329.436	8.91
329.809	9.53
330.181	9.03
330.553	9.49
330.926	9.79
331.298	9.34
331.671	8.71
332.043	9.58
332.415	9.72
332.787	9.53
333.159	9.58
333.532	10.16
333.904	9.2
334.276	9.16
334.648	9.39
335.02	9.61
335.391	9.92
335.763	9.44
336.135	9.08
336.507	10.14
336.879	9.08
337.25	9.77
337.622	9.65
337.993	9.51
338.365	9.47
338.736	9.87
339.108	9.91
339.479	9.91
339.851	9.67
340.222	9.66
340.593	9.83
340.964	9.65
341.336	9.99
341.707	10.17
342.078	10.11
342.449	9.95
342.82	10.08
343.191	9.76
343.562	10.61
343.933	10.29
344.303	10.07
344.674	10.05
345.045	10.3
345.416	10.71
345.786	9.98
346.157	10.44
346.527	9.94
346.898	9.83
347.268	10.14
347.639	10.54
348.009	10.65
348.38	10.4
348.75	10.4
349.12	10.46
349.49	10.92
349.861	10.64
350.231	10.22
350.601	10.59
350.971	11.2
351.341	10.67
351.711	10.75
352.081	10.59
352.45	10.69
352.82	10.94
353.19	10.78
353.56	10.65
353.929	11.04
354.299	11.13
354.669	10.69
355.038	11.37
355.408	10.77
355.777	11.23
356.147	10.9
356.516	11.35
356.885	11.26
357.254	10.96
357.624	11.14
357.993	11.18
358.362	11.22
358.731	10.57
359.1	11.21
359.469	11.18
359.838	11.18
360.207	11.05
360.576	11.08
360.945	11.58
361.314	11.83
361.682	11.23
362.051	11.25
362.42	11.48
362.788	11.66
363.157	11.36
363.525	11.59
363.894	11.43
364.262	11.6
364.631	11.55
364.999	11.7
365.367	11.58
365.735	12.18
366.104	11.91
366.472	11.7
366.84	11.79
367.208	11.79
367.576	12.19
367.944	12.07
368.312	11.68
368.68	11.87
369.048	12.37
369.416	11.86
369.783	11.91
370.151	12.13
370.519	12.95
370.886	12.59
371.254	12.11
371.621	12.77
371.989	12.54
372.356	11.68
372.724	12.31
373.091	12.26
373.458	12.31
373.826	12.45
374.193	12.33
374.56	12.63
374.927	12.56
375.294	12.77
375.661	12.53
376.028	12.27
376.395	12.47
376.762	12.53
377.129	12.79
377.496	12.74
377.863	12.71
378.229	12.51
378.596	12.91
378.963	12.75
379.329	12.65
379.696	13.31
380.062	12.96
380.429	13.1
380.795	12.91
381.161	13.25
381.528	13.29
381.894	13.26
382.26	12.8
382.626	13.06
382.993	12.85
383.359	13.47
383.725	13.21
384.091	13.29
384.457	13.48
384.823	12.79
385.188	13.25
385.554	13.39
385.92	13.33
386.286	13.43
386.651	13.58
387.017	13.69
387.383	13.47
387.748	13.43
388.114	13.77
388.479	13.48
388.845	13.67
389.21	13.3
389.575	13.74
389.94	13.64
390.306	13.89
390.671	14.08
391.036	13.32
391.401	13.68
391.766	13.7
392.131	13.68
392.496	14.22
392.861	13.89
393.226	14.01
393.591	13.92
393.956	13.78
394.32	14.04
394.685	13.94
395.05	14.3
395.414	14.26
395.779	13.93
396.143	14.25
396.508	14.24
396.872	14.36
397.236	14.23
397.601	14.03
397.965	13.89
398.329	14.4
398.694	14.45
399.058	14.51
399.422	14.28
399.786	14.66
400.15	14.66
400.514	14.47
400.878	14.74
401.242	14.99
401.605	14.61
401.969	14.62
402.333	14.59
402.697	14.97
403.06	14.94
403.424	15.25
403.787	14.97
404.151	14.72
404.514	15
404.878	14.94
405.241	15.16
405.604	14.77
405.968	14.96
406.331	15.01
406.694	15.22
407.057	15.08
407.42	15.09
407.783	14.86
408.146	15.34
408.509	15.2
408.872	15.24
409.235	15.11
409.598	15.42
409.961	15.29
410.323	15.37
410.686	15.36
411.049	15.21
411.411	15.52
411.774	15.44
412.136	15.24
412.499	15.33
412.861	15.51
413.223	15.62
413.586	15.68
413.948	15.77
414.31	15.87
414.672	15.58
415.035	15.5
415.397	15.89
415.759	15.89
416.121	16.1
416.483	15.74
416.845	15.72
417.206	15.61
417.568	16.06
417.93	15.75
418.292	15.78
418.653	15.78
419.015	15.89
419.377	15.88
419.738	15.86
420.1	15.86
420.461	15.86
420.822	15.95
421.184	15.82
421.545	16.04
421.906	15.79
422.267	15.99
422.629	15.95
422.99	15.9
423.351	15.93
423.712	15.96
424.073	16.21
424.434	16.18
424.795	16.25
425.155	16.23
425.516	16.1
425.877	16.18
426.238	16.05
426.598	16.39
426.959	16.39
427.32	16.4
427.68	16.46
428.041	16.38
428.401	16.7
428.761	16.78
429.122	16.76
429.482	16.62
429.842	16.99
430.202	16.82
430.563	16.97
430.923	17
431.283	17.27
431.643	16.76
432.003	16.93
432.363	17.1
432.722	17.12
433.082	17.25
433.442	17.24
433.802	16.79
434.161	16.95
434.521	17.08
434.881	17.2
435.24	17.15
435.6	16.94
435.959	17.17
436.319	17.32
436.678	17.4
437.037	17.21
437.396	17.59
437.756	17.58
438.115	17.34
438.474	17.57
438.833	17.29
439.192	17.51
439.551	17.64
439.91	17.5
440.269	17.49
440.628	17.46
440.987	17.53
441.345	17.44
441.704	17.65
442.063	17.6
442.421	17.59
442.78	17.6
443.138	17.51
443.497	17.79
443.855	17.78
444.214	17.94
444.572	18.08
444.93	18.02
445.288	18.07
445.647	18.1
446.005	17.92
446.363	18.06
446.721	17.93
447.079	17.75
447.437	18
447.795	17.96
448.153	17.97
448.51	18.04
448.868	18.05
449.226	18.14
449.584	18.26
449.941	18.21
450.299	18.35
450.656	18.4
451.014	18.5
451.371	18.48
451.729	18.61
452.086	18.58
452.443	18.7
452.801	18.72
453.158	18.66
453.515	18.46
453.872	18.71
454.229	18.63
454.586	18.56
454.943	18.67
455.3	19.02
455.657	18.85
456.014	18.95
456.371	19.08
456.727	19.07
457.084	19.17
457.441	18.99
457.797	19.19
458.154	19.37
458.51	19.21
458.867	19.23
459.223	18.95
459.58	19.27
459.936	19.21
460.292	19.17
460.648	19.16
461.005	19.05
461.361	19.14
461.717	18.93
462.073	18.96
462.429	19.13
462.785	19.41
463.141	19.42
463.496	19.53
463.852	19.76
464.208	19.64
464.564	19.97
464.919	19.64
465.275	19.78
465.631	19.99
465.986	19.86
466.342	19.77
466.697	19.79
467.052	19.87
467.408	19.95
467.763	19.81
468.118	19.98
468.473	19.85
468.829	19.99
469.184	19.99
469.539	20.24
469.894	20
470.249	20.48
470.603	20.28
470.958	20.24
471.313	20.51
471.668	20.45
472.023	20.31
472.377	20.36
472.732	20.4
473.086	20.26
473.441	20.26
473.795	20.73
474.15	20.51
474.504	20.62
474.859	20.7
475.213	20.58
475.567	20.55
475.921	20.56
476.275	20.71
476.63	20.66
476.984	21.04
477.338	21.08
477.692	20.66
478.045	20.73
478.399	20.77
478.753	20.93
479.107	21
479.461	20.82
479.814	20.93
480.168	21
480.521	20.86
480.875	21.08
481.228	21.13
481.582	21.1
481.935	21.2
482.289	21.24
482.642	20.95
482.995	21.14
483.348	21.07
483.701	21.17
484.055	21.1
484.408	21.11
484.761	20.76
485.114	20.49
485.466	20.11
485.819	20.13
486.172	20.46
486.525	20.81
486.878	21.01
487.23	21.12
487.583	21.41
487.936	21.29
488.288	21.29
488.641	21.18
488.993	20.86
489.345	20.86
489.698	20.91
490.05	20.97
490.402	21.25
490.754	21.39
491.107	21.68
491.459	21.74
491.811	21.83
492.163	22.01
492.515	21.73
492.866	21.71
493.218	21.39
493.57	21.06
493.922	21.43
494.274	21.81
494.625	22.2
494.977	22.3
495.328	22.36
495.68	22.58
496.031	22.66
496.383	22.51
496.734	22.64
497.086	22.58
497.437	22.69
497.788	22.59
498.139	22.38
498.49	22.78
498.842	22.47
499.193	22.68
499.544	22.7
499.894	22.82
500.245	22.66
500.596	22.8
500.947	22.93
501.298	22.96
501.648	23.03
501.999	23.12
502.35	23.22
502.7	23.24
503.051	23.23
503.401	23.45
503.752	23.36
504.102	23.29
504.452	23.41
504.803	23.42
505.153	23.57
505.503	23.44
505.853	23.63
506.203	23.62
506.553	23.58
506.903	23.42
507.253	23.44
507.603	23.73
507.953	23.89
508.303	24
508.652	23.78
509.002	23.94
509.352	23.94
509.701	23.87
510.051	23.78
510.4	23.74
510.75	23.81
511.099	24
511.449	23.85
511.798	23.96
512.147	24.15
512.496	24.2
512.846	24.05
513.195	24.19
513.544	24.27
513.893	24.27
514.242	24.25
514.591	24.51
514.939	24.43
515.288	24.28
515.637	24.54
515.986	24.77
516.334	24.7
516.683	24.7
517.032	24.71
517.38	24.91
517.729	24.96
518.077	24.75
518.426	25.12
518.774	24.88
519.122	24.63
519.47	24.69
519.819	24.49
520.167	24.66
520.515	24.61
520.863	24.73
521.211	24.96
521.559	24.97
521.907	25.11
522.255	25.26
522.602	25.27
522.95	25.23
523.298	25.47
523.645	25.5
523.993	25.32
524.341	25.64
524.688	25.45
525.036	25.56
525.383	25.63
525.73	25.82
526.078	25.79
526.425	25.61
526.772	25.55
527.119	25.51
527.466	25.21
527.814	25.48
528.161	25.36
528.508	25.75
528.854	25.66
529.201	25.53
529.548	25.44
529.895	25.24
530.242	24.95
530.588	24.74
530.935	25.07
531.282	25.43
531.628	25.65
531.975	25.74
532.321	25.97
532.667	26.23
533.014	26.21
533.36	26.25
533.706	26.21
534.052	26.21
534.399	26.11
534.745	26.01
535.091	25.79
535.437	25.84
535.783	26.28
536.129	26.42
536.474	26.6
536.82	26.77
537.166	26.71
537.512	26.85
537.857	26.84
538.203	26.7
538.549	26.57
538.894	26.8
539.239	26.95
539.585	27.18
539.93	27.11
540.276	27.47
540.621	27.52
540.966	27.51
541.311	27.36
541.656	27.3
542.001	27.32
542.346	27.34
542.691	26.9
543.036	26.63
543.381	26.55
543.726	26.91
544.071	27.15
544.415	27.36
544.76	27.62
545.105	27.4
545.449	27.49
545.794	27.88
546.138	27.91
546.483	28.07
546.827	28.09
547.171	28.33
547.516	28.12
547.86	28.04
548.204	27.92
548.548	28.02
548.892	28.21
549.236	28.45
549.58	28.18
549.924	28.45
550.268	28.7
550.612	28.67
550.956	29.07
551.3	29.07
551.643	29.03
551.987	29.11
552.33	29.07
552.674	29.25
553.017	29.11
553.361	29.17
553.704	29.23
554.048	29.13
554.391	28.96
554.734	28.97
555.077	29.21
555.42	29.46
555.764	29.35
556.107	29.47
556.45	29.31
556.793	29.48
557.135	29.78
557.478	29.76
557.821	30.15
558.164	29.84
558.507	29.93
558.849	30.06
559.192	30.07
559.534	30.32
559.877	30.12
560.219	29.75
560.562	30.28
560.904	29.97
561.246	29.98
561.589	30.57
561.931	30.34
562.273	30.37
562.615	30.59
562.957	30.68
563.299	30.09
563.641	30.75
563.983	30.77
564.325	30.41
564.667	30.72
565.008	30.73
565.35	30.58
565.692	30.58
566.033	31.01
566.375	31.1
566.716	30.96
567.058	30.71
567.399	30.71
567.741	30.62
568.082	31.01
568.423	30.86
568.764	30.76
569.105	30.93
569.447	31.12
569.788	31.16
570.129	31.56
570.47	31.37
570.811	31.51
571.151	31.39
571.492	31.43
571.833	31.41
572.174	31.57
572.514	31.56
572.855	31.81
573.195	31.68
573.536	31.53
573.876	31.46
574.217	31.66
574.557	31.61
574.898	31.84
575.238	32.2
575.578	31.94
575.918	32.29
576.258	32.07
576.598	32.14
576.938	31.87
577.278	32.23
577.618	32.35
577.958	32.28
578.298	32.18
578.638	32.38
578.977	32.7
579.317	32.34
579.657	32.62
579.996	32.65
580.336	32.93
580.675	33.04
581.014	32.73
581.354	33.23
581.693	32.94
582.032	32.97
582.372	32.87
582.711	32.83
583.05	32.85
583.389	33.27
583.728	33.07
584.067	33.17
584.406	33.18
584.745	33.63
585.083	33.72
585.422	33.59
585.761	33.27
586.1	33.6
586.438	33.63
586.777	33.26
587.115	33.71
587.454	33.56
587.792	33.62
588.13	34.01
588.469	33.46
588.807	33.79
589.145	33.67
589.483	34.21
589.821	33.93
590.159	33.95
590.497	34.23
590.835	34.2
591.173	33.76
591.511	34.33
591.849	33.78
592.187	34.19
592.524	34.36
592.862	34.46
593.2	34.44
593.537	34.59
593.875	34.38
594.212	34.58
594.55	34.34
594.887	34.95
595.224	34.63
595.561	34.7
595.899	34.57
596.236	35
596.573	34.78
596.91	34.52
597.247	34.49
597.584	35.4
597.921	34.84
598.258	34.86
598.594	34.9
598.931	34.62
599.268	34.82
599.604	34.79
599.941	35.22
600.277	35.68
600.614	35.22
600.95	35.04
601.287	35.31
601.623	35.35
601.959	35.49
602.296	35.19
602.632	35.43
602.968	35.8
603.304	35.68
603.64	35.75
603.976	35.51
604.312	35.58
604.648	35.28
604.984	35.9
605.319	35.68
605.655	35.81
605.991	35.61
606.326	35.8
606.662	35.93
606.998	35.8
607.333	35.82
607.668	36.04
608.004	36.23
608.339	36.37
608.674	36.64
609.01	36.35
609.345	36.34
609.68	36.45
610.015	35.94
610.35	36.33
610.685	36.4
611.02	36.27
611.355	35.97
611.689	36.47
612.024	36.45
612.359	36.56
612.694	36.61
613.028	36.56
613.363	36.96
613.697	36.78
614.032	36.43
614.366	36.71
614.7	37.36
615.035	36.99
615.369	36.75
615.703	37.04
616.037	37.41
616.371	36.52
616.705	36.68
617.039	37.22
617.373	37.2
617.707	37.38
618.041	37.21
618.375	37.19
618.709	37.48
619.042	37.06
619.376	37.42
619.71	37.53
620.043	37.57
620.377	37.92
620.71	37.65
621.043	37.24
621.377	37.57
621.71	37.87
622.043	37.92
622.376	37.77
622.709	37.87
623.043	37.99
623.376	37.9
623.709	37.61
624.041	37.8
624.374	37.89
624.707	37.9
625.04	38.03
625.373	37.66
625.705	37.91
626.038	37.96
626.37	38.15
626.703	38.44
627.035	38.72
627.368	38.73
627.7	38.25
628.032	38.52
628.365	38.17
628.697	38.27
629.029	38.57
629.361	38.37
629.693	38.47
630.025	38.27
630.357	39.06
630.689	38.89
631.021	38.69
631.353	38.9
631.684	38.21
632.016	38.85
632.348	39.31
632.679	39.02
633.011	39.14
633.342	39.11
633.674	39.02
634.005	39.72
634.336	39.47
634.668	39.67
634.999	38.93
635.33	39.45
635.661	39.66
635.992	39.28
636.323	39.65
636.654	39.41
636.985	39.49
637.316	39.12
637.647	39.09
637.977	39.55
638.308	39.36
638.639	39.81
638.969	39.37
639.3	39.77
639.63	39.98
639.961	39.75
640.291	39.31
640.622	40.42
640.952	39.99
641.282	40.28
641.612	39.91
641.943	40.01
642.273	39.88
642.603	40.36
642.933	40.38
643.263	39.81
643.592	40.29
643.922	39.95
644.252	40.04
644.582	40.24
644.911	39.99
645.241	40.23
645.571	40.18
645.9	40.61
646.23	39.58
646.559	40.77
646.888	40.26
647.218	40.52
647.547	41.14
647.876	40.3
648.205	40.63
648.534	40.74
648.863	40.69
649.192	40.63
649.521	41.16
649.85	40.43
650.179	40.02
650.508	40.41
650.837	39.92
651.165	41.01
651.494	40.69
651.822	41.06
652.151	41.19
652.479	40.77
652.808	40.74
653.136	41.36
653.465	40.34
653.793	40.83
654.121	41.32
654.449	41.23
654.777	41.59
655.105	41.18
655.433	41.33
655.761	41.52
656.089	41.3
656.417	41.66
656.745	41.37
657.073	40.98
657.4	41.7
657.728	41.95
658.056	41.53
658.383	41.64
658.711	41.95
659.038	41.98
659.365	41.52
659.693	42.04
660.02	41.66
660.347	41.29
660.674	42.16
661.001	41.82
661.329	41.33
661.656	41.09
661.982	41.92
662.309	41.59
662.636	41.59
662.963	41.95
663.29	42.4
663.616	42.11
663.943	41.97
664.27	42.28
664.596	42.17
664.923	42.27
665.249	42.26
665.576	42.95
665.902	42.67
666.228	42.58
666.554	42.3
666.881	42.96
667.207	42.8
667.533	42.21
667.859	42.73
668.185	42.38
668.511	42.74
668.837	42.2
669.162	41.67
669.488	42.56
669.814	43.32
670.139	43.48
