Data from 0371_chest_Reflection__4__173.txt Node

Date: Fri Dec 15 18:06:58 CST 2023
User: ToomeyLab
Spectrometer: FLMS14357
Trigger mode: 0
Integration Time (sec): 1.000000E-2
Scans to average: 100
Electric dark correction enabled: true
Nonlinearity correction enabled: false
Boxcar width: 0
XAxis mode: Wavelengths
Number of Pixels in Spectrum: 2048
>>>>>Begin Spectral Data<<<<<
189.047	-5.06
189.435	-5.06
189.823	-5.06
190.211	313.76
190.599	-313.12
190.987	88.25
191.375	-468.01
191.763	290.36
192.151	8.5
192.538	178.32
192.926	46.77
193.314	227.59
193.702	76.28
194.089	155
194.477	211.11
194.864	4.79
195.252	139.76
195.639	90.13
196.027	48.3
196.414	956.06
196.801	191.47
197.189	240.32
197.576	34.55
197.963	-76.77
198.351	-164.11
198.738	31.4
199.125	15.69
199.512	-16.52
199.899	13.99
200.286	22.79
200.673	-23.83
201.06	-20.06
201.447	-24.35
201.833	9.85
202.22	4.17
202.607	32.67
202.994	-14.65
203.38	16.54
203.767	14.07
204.154	11.96
204.54	65.4
204.927	-99.75
205.313	-53.73
205.699	-8.31
206.086	13.03
206.472	-16.43
206.858	21.2
207.245	-152.25
207.631	19.52
208.017	31.41
208.403	-8.63
208.789	29.23
209.175	17.85
209.561	-44.45
209.947	35.38
210.333	-31.82
210.719	27.03
211.105	2.45
211.491	-50.73
211.876	22.9
212.262	-6.89
212.648	1.72
213.034	10.28
213.419	-30.05
213.805	-13.25
214.19	-18.3
214.576	21.05
214.961	-22.16
215.346	-72.66
215.732	-17.14
216.117	-10.99
216.502	-14.74
216.888	15.03
217.273	13.89
217.658	-19.85
218.043	29.11
218.428	-26.59
218.813	-55.63
219.198	-39.7
219.583	-6.46
219.968	11.83
220.353	-3.78
220.738	21.76
221.122	-1.72
221.507	-36.45
221.892	-43.64
222.276	-12
222.661	-4.87
223.046	17.54
223.43	14.8
223.815	6.42
224.199	-11.9
224.583	-14.05
224.968	-1.9
225.352	-7.27
225.736	0.29
226.121	-10.72
226.505	3.86
226.889	4.72
227.273	-5.06
227.657	-1.01
228.041	-2.39
228.425	-1.81
228.809	3.39
229.193	-0.92
229.577	0.14
229.961	1.27
230.344	1.1
230.728	1.2
231.112	1.56
231.495	1.61
231.879	-0.58
232.263	1.35
232.646	1.92
233.03	0.13
233.413	-0.3
233.797	-0.39
234.18	0.56
234.563	0.71
234.946	0.48
235.33	0.96
235.713	-0.09
236.096	-0.35
236.479	1.59
236.862	-0.75
237.245	1.93
237.628	2.16
238.011	0.6
238.394	2.36
238.777	1.4
239.16	-0.56
239.543	0.65
239.925	2.09
240.308	2.68
240.691	3.28
241.073	4.07
241.456	1.97
241.838	1.04
242.221	1.83
242.603	2.1
242.986	1.48
243.368	1.4
243.75	2.1
244.133	1.78
244.515	1.38
244.897	1.29
245.279	1.84
245.661	1.29
246.043	1.05
246.425	0.01
246.807	2.31
247.189	2.47
247.571	1.53
247.953	1.32
248.335	1.3
248.717	1.44
249.098	1.28
249.48	1.58
249.862	1.44
250.243	1.65
250.625	1.69
251.006	2.11
251.388	0.13
251.769	1.49
252.151	1.6
252.532	1.86
252.913	0.83
253.295	0.66
253.676	1.29
254.057	2.06
254.438	1.54
254.819	1.13
255.2	0.44
255.581	1.64
255.962	-0.85
256.343	0.23
256.724	1.46
257.105	0.86
257.486	0.6
257.867	2.75
258.247	2
258.628	1.35
259.009	1.68
259.389	1.69
259.77	0.92
260.15	1.03
260.531	0.93
260.911	2.05
261.292	1.53
261.672	1.71
262.052	1.72
262.432	1.84
262.813	1.83
263.193	1.77
263.573	1.61
263.953	2.15
264.333	1.15
264.713	1.64
265.093	0.92
265.473	1.67
265.853	0.22
266.233	1.89
266.612	-0.04
266.992	0.12
267.372	1.64
267.752	2.04
268.131	2.12
268.511	1.7
268.89	2.06
269.27	1.21
269.649	1.05
270.029	0.56
270.408	2.78
270.787	1.59
271.167	2.32
271.546	1.52
271.925	1.21
272.304	1.23
272.683	2.19
273.062	1.22
273.441	1.58
273.82	1.27
274.199	1.74
274.578	1.35
274.957	1.1
275.336	1.66
275.715	1.13
276.093	1.31
276.472	1.54
276.851	1.37
277.229	0.54
277.608	1.37
277.986	1.64
278.365	1.58
278.743	1.11
279.122	1.31
279.5	1.26
279.878	1.5
280.257	1.19
280.635	1.12
281.013	1.42
281.391	1.54
281.769	1.43
282.147	1.91
282.525	2.21
282.903	0.93
283.281	2.03
283.659	1.91
284.037	1.71
284.415	1.96
284.792	1.71
285.17	1.12
285.548	0.86
285.925	1.27
286.303	1.86
286.68	1.17
287.058	1.67
287.435	1.26
287.813	1.47
288.19	1.16
288.567	1.59
288.945	2.22
289.322	1.91
289.699	1.62
290.076	1.59
290.453	1.67
290.83	1.56
291.207	1.53
291.584	1.71
291.961	2.19
292.338	1.47
292.715	1.82
293.092	1.72
293.469	1.55
293.845	1.62
294.222	1.35
294.599	2.32
294.975	1.39
295.352	1.69
295.728	1.35
296.105	2.08
296.481	1.6
296.858	1.44
297.234	1.57
297.61	1.51
297.986	1.83
298.363	2.14
298.739	2.14
299.115	1.58
299.491	1.76
299.867	2.2
300.243	2.18
300.619	1.79
300.995	2.34
301.371	2.39
301.746	1.61
302.122	2.45
302.498	2.22
302.874	2.09
303.249	2.18
303.625	1.84
304	2.3
304.376	1.88
304.751	1.4
305.127	3.55
305.502	1.74
305.878	1.5
306.253	2.17
306.628	2.66
307.003	2.12
307.378	2.55
307.754	2.6
308.129	1.74
308.504	2.49
308.879	2.38
309.254	2.95
309.629	2.32
310.003	1.9
310.378	2.79
310.753	2.42
311.128	2.46
311.502	2.39
311.877	2.8
312.252	1.98
312.626	2.34
313.001	2.56
313.375	2.64
313.75	2.05
314.124	2.46
314.498	2.36
314.873	2.49
315.247	2.05
315.621	2.54
315.995	2.14
316.369	2.73
316.743	2.31
317.117	2.94
317.491	2.59
317.865	3
318.239	2.58
318.613	2.82
318.987	2.7
319.361	2.52
319.734	3.37
320.108	2.85
320.482	2.63
320.855	3.13
321.229	2.14
321.602	2.99
321.976	2.76
322.349	2.58
322.723	2.52
323.096	3.26
323.469	1.96
323.843	2.43
324.216	2.97
324.589	2.97
324.962	3.08
325.335	2.49
325.708	2.55
326.081	2.78
326.454	2.88
326.827	2.64
327.2	2.69
327.573	3.3
327.945	2.94
328.318	2.92
328.691	2
329.063	3.21
329.436	2.69
329.809	2.99
330.181	2.46
330.553	3.23
330.926	3.13
331.298	3.68
331.671	2.4
332.043	3.72
332.415	3.26
332.787	2.76
333.159	3.55
333.532	3.15
333.904	3.29
334.276	2.79
334.648	2.94
335.02	2.73
335.391	2.88
335.763	2.54
336.135	3.11
336.507	3.17
336.879	2.8
337.25	2.6
337.622	2.9
337.993	3.24
338.365	3.66
338.736	3.22
339.108	3.05
339.479	2.85
339.851	3.2
340.222	3.62
340.593	2.93
340.964	2.83
341.336	3.75
341.707	2.89
342.078	3.04
342.449	2.97
342.82	2.6
343.191	3.29
343.562	3.08
343.933	3.55
344.303	3.03
344.674	3.29
345.045	3.1
345.416	3.73
345.786	2.56
346.157	3.44
346.527	2.77
346.898	2.44
347.268	3.39
347.639	3.17
348.009	3.25
348.38	3.27
348.75	2.83
349.12	3.04
349.49	3.85
349.861	3.94
350.231	2.99
350.601	3.23
350.971	3.49
351.341	3.39
351.711	3.49
352.081	3.14
352.45	2.8
352.82	3.77
353.19	3.24
353.56	3.32
353.929	3.28
354.299	3.25
354.669	3.32
355.038	3.16
355.408	3.58
355.777	3.1
356.147	3.16
356.516	3.45
356.885	3.38
357.254	3.36
357.624	3.36
357.993	3.67
358.362	3.12
358.731	3.16
359.1	3.23
359.469	3.6
359.838	3.27
360.207	3.21
360.576	3.01
360.945	3.52
361.314	3.88
361.682	3.35
362.051	3.34
362.42	3.65
362.788	3.27
363.157	3.45
363.525	3.48
363.894	3.47
364.262	3.34
364.631	3.08
364.999	3.34
365.367	2.95
365.735	4.03
366.104	3.54
366.472	3.67
366.84	3.48
367.208	3.55
367.576	4.03
367.944	3.91
368.312	3.42
368.68	3.42
369.048	3.42
369.416	3.34
369.783	3.1
370.151	3.83
370.519	4.04
370.886	3.76
371.254	3.37
371.621	3.68
371.989	3.42
372.356	3.15
372.724	3.45
373.091	3.34
373.458	3.65
373.826	3.42
374.193	3.4
374.56	3.8
374.927	3.84
375.294	3.58
375.661	3.42
376.028	3.57
376.395	3.86
376.762	3.78
377.129	3.3
377.496	3.18
377.863	3.6
378.229	3.28
378.596	3.91
378.963	3.59
379.329	3.48
379.696	3.66
380.062	3.97
380.429	3.59
380.795	3.51
381.161	3.93
381.528	4.23
381.894	3.69
382.26	3.47
382.626	3.69
382.993	3.55
383.359	4.05
383.725	3.63
384.091	3.86
384.457	4.2
384.823	3.53
385.188	4.11
385.554	3.74
385.92	3.58
386.286	3.75
386.651	3.86
387.017	3.9
387.383	4.02
387.748	3.65
388.114	4.09
388.479	3.66
388.845	4.08
389.21	3.98
389.575	4.07
389.94	3.96
390.306	4.08
390.671	4.08
391.036	3.58
391.401	3.46
391.766	4.17
392.131	4.06
392.496	3.88
392.861	3.85
393.226	4.02
393.591	3.86
393.956	3.9
394.32	3.97
394.685	3.65
395.05	3.69
395.414	3.83
395.779	3.72
396.143	3.89
396.508	3.81
396.872	4.02
397.236	4.03
397.601	3.72
397.965	3.9
398.329	3.92
398.694	4.03
399.058	4.03
399.422	3.8
399.786	4.09
400.15	4.06
400.514	3.89
400.878	3.88
401.242	4.5
401.605	4.12
401.969	4.14
402.333	3.99
402.697	4.19
403.06	3.93
403.424	3.73
403.787	3.79
404.151	4.2
404.514	4.32
404.878	3.68
405.241	4.33
405.604	4.18
405.968	4.35
406.331	3.89
406.694	4.21
407.057	4.14
407.42	4.14
407.783	4.07
408.146	4.12
408.509	3.99
408.872	3.93
409.235	4.04
409.598	4.51
409.961	4.02
410.323	4.39
410.686	3.91
411.049	3.85
411.411	3.96
411.774	4.1
412.136	4.02
412.499	4.04
412.861	4.11
413.223	3.92
413.586	4.15
413.948	4.1
414.31	4.06
414.672	3.9
415.035	4.03
415.397	4.33
415.759	3.9
416.121	4.32
416.483	3.94
416.845	4.23
417.206	4.17
417.568	4.5
417.93	4.01
418.292	4.01
418.653	4.21
419.015	4.16
419.377	4.23
419.738	4.29
420.1	4.01
420.461	4.24
420.822	4.31
421.184	4.14
421.545	4.15
421.906	4.01
422.267	4.16
422.629	4.21
422.99	4.27
423.351	4.08
423.712	4.08
424.073	4.2
424.434	4.04
424.795	4.15
425.155	4.27
425.516	4.08
425.877	4.24
426.238	4.15
426.598	4.31
426.959	4.22
427.32	4.07
427.68	4.09
428.041	4.21
428.401	4.26
428.761	4.35
429.122	4.44
429.482	4.4
429.842	4.41
430.202	4.1
430.563	4.48
430.923	4.29
431.283	4.5
431.643	4.38
432.003	4.52
432.363	4.39
432.722	4.4
433.082	4.4
433.442	4.41
433.802	4.26
434.161	4.34
434.521	4.58
434.881	4.44
435.24	4.36
435.6	4.47
435.959	4.43
436.319	4.47
436.678	4.4
437.037	4.37
437.396	4.51
437.756	4.43
438.115	4.46
438.474	4.49
438.833	4.28
439.192	4.38
439.551	4.6
439.91	4.53
440.269	4.47
440.628	4.34
440.987	4.5
441.345	4.48
441.704	4.58
442.063	4.52
442.421	4.44
442.78	4.46
443.138	4.45
443.497	4.44
443.855	4.43
444.214	4.5
444.572	4.61
444.93	4.39
445.288	4.51
445.647	4.68
446.005	4.54
446.363	4.59
446.721	4.63
447.079	4.42
447.437	4.52
447.795	4.69
448.153	4.49
448.51	4.58
448.868	4.6
449.226	4.53
449.584	4.47
449.941	4.58
450.299	4.57
450.656	4.58
451.014	4.6
451.371	4.65
451.729	4.45
452.086	4.85
452.443	4.54
452.801	4.75
453.158	4.64
453.515	4.68
453.872	4.75
454.229	4.63
454.586	4.61
454.943	4.73
455.3	4.88
455.657	4.65
456.014	4.67
456.371	4.56
456.727	4.7
457.084	4.89
457.441	4.49
457.797	4.75
458.154	4.94
458.51	4.7
458.867	4.9
459.223	4.78
459.58	4.91
459.936	4.82
460.292	4.93
460.648	4.61
461.005	4.56
461.361	4.9
461.717	4.73
462.073	4.54
462.429	4.61
462.785	4.72
463.141	4.78
463.496	4.89
463.852	5
464.208	4.78
464.564	4.89
464.919	4.75
465.275	4.86
465.631	4.92
465.986	4.81
466.342	4.8
466.697	4.7
467.052	4.88
467.408	4.88
467.763	4.82
468.118	4.8
468.473	4.88
468.829	4.87
469.184	4.93
469.539	4.93
469.894	4.95
470.249	5.07
470.603	4.98
470.958	4.98
471.313	5.21
471.668	5.08
472.023	5
472.377	5.03
472.732	4.94
473.086	4.99
473.441	4.96
473.795	4.97
474.15	5.24
474.504	5.16
474.859	5.03
475.213	4.95
475.567	5.21
475.921	5.09
476.275	5.15
476.63	5.12
476.984	5.15
477.338	5.32
477.692	4.95
478.045	5.14
478.399	5.14
478.753	5.17
479.107	5.3
479.461	4.96
479.814	5.11
480.168	5.29
480.521	5.01
480.875	5.15
481.228	5.08
481.582	5.19
481.935	5.23
482.289	5.33
482.642	5.13
482.995	5
483.348	5.06
483.701	5.09
484.055	5.28
484.408	5.17
484.761	5.03
485.114	5.03
485.466	4.94
485.819	4.88
486.172	4.9
486.525	4.94
486.878	4.96
487.23	5
487.583	5.07
487.936	5.06
488.288	5.13
488.641	5.2
488.993	5.09
489.345	4.94
489.698	5.04
490.05	5.03
490.402	5.12
490.754	5.07
491.107	5.23
491.459	5.18
491.811	5.34
492.163	5.26
492.515	5.24
492.866	5.38
493.218	5.22
493.57	5.14
493.922	5.2
494.274	5.22
494.625	5.3
494.977	5.42
495.328	5.44
495.68	5.45
496.031	5.54
496.383	5.48
496.734	5.53
497.086	5.59
497.437	5.51
497.788	5.51
498.139	5.51
498.49	5.6
498.842	5.54
499.193	5.43
499.544	5.56
499.894	5.43
500.245	5.6
500.596	5.49
500.947	5.53
501.298	5.45
501.648	5.62
501.999	5.92
502.35	5.45
502.7	5.57
503.051	5.59
503.401	5.67
503.752	5.87
504.102	5.64
504.452	5.87
504.803	5.74
505.153	5.58
505.503	5.79
505.853	5.75
506.203	5.71
506.553	5.79
506.903	5.77
507.253	5.67
507.603	5.65
507.953	5.86
508.303	5.94
508.652	5.71
509.002	6.03
509.352	5.78
509.701	5.76
510.051	5.79
510.4	5.75
510.75	5.92
511.099	5.77
511.449	5.81
511.798	5.83
512.147	5.88
512.496	5.88
512.846	6.02
513.195	5.98
513.544	6.01
513.893	5.97
514.242	5.86
514.591	6.19
514.939	5.94
515.288	5.93
515.637	6.03
515.986	6.1
516.334	6.05
516.683	6.12
517.032	6.03
517.38	6.2
517.729	6
518.077	6.01
518.426	6.17
518.774	6.23
519.122	6.12
519.47	6.27
519.819	5.93
520.167	6.06
520.515	6.13
520.863	6.11
521.211	6.21
521.559	6.27
521.907	6.09
522.255	6.09
522.602	6.31
522.95	6.21
523.298	6.29
523.645	6.48
523.993	6.29
524.341	6.36
524.688	6.41
525.036	6.35
525.383	6.47
525.73	6.54
526.078	6.39
526.425	6.4
526.772	6.45
527.119	6.41
527.466	6.42
527.814	6.46
528.161	6.4
528.508	6.44
528.854	6.43
529.201	6.41
529.548	6.41
529.895	6.35
530.242	6.3
530.588	6.27
530.935	6.33
531.282	6.33
531.628	6.42
531.975	6.4
532.321	6.46
532.667	6.53
533.014	6.59
533.36	6.72
533.706	6.66
534.052	6.58
534.399	6.55
534.745	6.62
535.091	6.64
535.437	6.63
535.783	6.66
536.129	6.73
536.474	6.79
536.82	6.7
537.166	6.79
537.512	6.86
537.857	6.95
538.203	7
538.549	6.98
538.894	6.95
539.239	6.99
539.585	7.04
539.93	6.79
540.276	7.11
540.621	7.14
540.966	7.2
541.311	7.11
541.656	7.03
542.001	7.13
542.346	7.23
542.691	7.07
543.036	7.04
543.381	6.94
543.726	7.02
544.071	7.15
544.415	7.19
544.76	7.17
545.105	7.18
545.449	7.24
545.794	7.4
546.138	7.39
546.483	7.41
546.827	7.47
547.171	7.42
547.516	7.63
547.86	7.52
548.204	7.43
548.548	7.43
548.892	7.62
549.236	7.49
549.58	7.48
549.924	7.61
550.268	7.69
550.612	7.65
550.956	7.98
551.3	7.78
551.643	8
551.987	8.08
552.33	7.81
552.674	8.09
553.017	7.91
553.361	7.88
553.704	8.07
554.048	7.98
554.391	7.95
554.734	8.05
555.077	8.12
555.42	7.99
555.764	8.05
556.107	7.85
556.45	8.05
556.793	8.16
557.135	8.3
557.478	8.39
557.821	8.22
558.164	8.04
558.507	8.17
558.849	8.13
559.192	8.32
559.534	8.46
559.877	8.54
560.219	8.36
560.562	8.5
560.904	8.42
561.246	8.54
561.589	8.5
561.931	8.53
562.273	8.63
562.615	8.55
562.957	8.76
563.299	8.61
563.641	8.42
563.983	8.66
564.325	8.45
564.667	8.6
565.008	8.77
565.35	8.72
565.692	8.76
566.033	9.03
566.375	9.24
566.716	9.13
567.058	9.02
567.399	8.98
567.741	8.76
568.082	9.01
568.423	8.99
568.764	9.06
569.105	9.17
569.447	9.03
569.788	8.99
570.129	9.18
570.47	9.3
570.811	9.28
571.151	9.32
571.492	9.25
571.833	9.38
572.174	9.4
572.514	9.36
572.855	9.42
573.195	9.5
573.536	9.56
573.876	9.25
574.217	9.52
574.557	9.61
574.898	9.73
575.238	9.71
575.578	9.35
575.918	9.71
576.258	9.53
576.598	9.76
576.938	9.61
577.278	9.88
577.618	9.86
577.958	9.76
578.298	9.76
578.638	9.87
578.977	9.82
579.317	9.88
579.657	10.08
579.996	10.2
580.336	10.2
580.675	9.95
581.014	10.15
581.354	10.45
581.693	10.41
582.032	10.38
582.372	10.35
582.711	10.4
583.05	10.15
583.389	10.57
583.728	10.15
584.067	10.59
584.406	10.55
584.745	10.44
585.083	10.74
585.422	10.53
585.761	10.73
586.1	10.6
586.438	10.51
586.777	11.03
587.115	10.74
587.454	10.71
587.792	10.48
588.13	10.73
588.469	10.49
588.807	10.86
589.145	11.02
589.483	11.38
589.821	11.33
590.159	11.08
590.497	11.37
590.835	11.47
591.173	11.02
591.511	11.64
591.849	11.52
592.187	11.28
592.524	11.45
592.862	11.62
593.2	11.43
593.537	11.29
593.875	11.31
594.212	11.24
594.55	11.38
594.887	11.81
595.224	11.57
595.561	11.67
595.899	11.65
596.236	11.86
596.573	11.61
596.91	11.41
597.247	11.69
597.584	11.91
597.921	11.81
598.258	11.79
598.594	11.81
598.931	11.79
599.268	12.04
599.604	11.9
599.941	12.05
600.277	11.93
600.614	12.07
600.95	11.98
601.287	12.06
601.623	11.87
601.959	11.84
602.296	12.35
602.632	12.48
602.968	12.45
603.304	12.11
603.64	12.34
603.976	12.72
604.312	12.32
604.648	12.13
604.984	12.61
605.319	12.58
605.655	12.6
605.991	12.74
606.326	12.46
606.662	12.67
606.998	12.48
607.333	12.5
607.668	12.54
608.004	12.82
608.339	13.27
608.674	12.89
609.01	12.78
609.345	12.83
609.68	13.21
610.015	12.87
610.35	12.88
610.685	13.19
611.02	13.22
611.355	13.08
611.689	13.18
612.024	13.2
612.359	13.14
612.694	13.6
613.028	13.01
613.363	13.64
613.697	13.5
614.032	13.33
614.366	13.38
614.7	13.64
615.035	13.75
615.369	13.4
615.703	13.56
616.037	13.55
616.371	13.23
616.705	13.66
617.039	13.47
617.373	13.72
617.707	13.67
618.041	13.86
618.375	13.76
618.709	13.94
619.042	14.07
619.376	14.21
619.71	14.41
620.043	14.51
620.377	13.94
620.71	14.28
621.043	14.2
621.377	14.34
621.71	14.1
622.043	13.92
622.376	14.16
622.709	14.55
623.043	14.4
623.376	14.65
623.709	14.15
624.041	14.83
624.374	14.33
624.707	14.53
625.04	14.84
625.373	13.81
625.705	14.66
626.038	14.82
626.37	14.53
626.703	14.39
627.035	15.05
627.368	15.14
627.7	14.87
628.032	14.61
628.365	15.04
628.697	15.07
629.029	15.06
629.361	15.11
629.693	15.05
630.025	14.72
630.357	15.54
630.689	15.43
631.021	15.06
631.353	15.34
631.684	14.91
632.016	14.84
632.348	15.71
632.679	15.15
633.011	15.81
633.342	15.98
633.674	15.24
634.005	16.07
634.336	15.45
634.668	15.87
634.999	15.39
635.33	15.93
635.661	15.81
635.992	15.39
636.323	15.88
636.654	15.9
636.985	15.85
637.316	15.8
637.647	15.94
637.977	16.05
638.308	16.52
638.639	16
638.969	15.76
639.3	15.52
639.63	15.89
639.961	16.15
640.291	16.32
640.622	16.47
640.952	16.16
641.282	16.54
641.612	16.23
641.943	16.05
642.273	16.57
642.603	16.48
642.933	16.21
643.263	16.79
643.592	16.61
643.922	16.21
644.252	16.47
644.582	17.09
644.911	16.17
645.241	16.79
645.571	16.32
645.9	16.29
646.23	16.64
646.559	16.99
646.888	16.93
647.218	16.58
647.547	17.6
647.876	16.97
648.205	16.87
648.534	16.92
648.863	16.66
649.192	17.12
649.521	17.39
649.85	17.04
650.179	16.86
650.508	16.9
650.837	16.57
651.165	17.25
651.494	17.43
651.822	17.18
652.151	17.05
652.479	17.17
652.808	16.99
653.136	17.57
653.465	16.89
653.793	17.47
654.121	16.96
654.449	17.7
654.777	17.57
655.105	17.77
655.433	17.57
655.761	17.78
656.089	17.75
656.417	18.05
656.745	17.87
657.073	17.45
657.4	18.6
657.728	18.15
658.056	18.16
658.383	17.93
658.711	18.23
659.038	18.56
659.365	18.24
659.693	18.08
660.02	18.01
660.347	17.93
660.674	18.1
661.001	18.37
661.329	17.42
661.656	18.25
661.982	18.6
662.309	18.16
662.636	17.89
662.963	18.47
663.29	18.35
663.616	18.41
663.943	18.3
664.27	18.49
664.596	18.4
664.923	18.18
665.249	19.18
665.576	18.84
665.902	19.54
666.228	18.99
666.554	19.07
666.881	18.63
667.207	18.59
667.533	18.69
667.859	18.9
668.185	19.15
668.511	18.42
668.837	17.6
669.162	19.31
669.488	18.55
669.814	19.31
670.139	18.91
670.465	19.3
670.791	18.95
671.116	20.05
671.442	18.8
671.767	19.76
672.092	19.47
672.418	19.6
672.743	19.71
673.068	19.1
673.393	19.42
673.718	20.11
674.043	19.48
674.368	19.82
674.693	19.77
675.018	19.23
675.343	19.57
675.667	19.6
675.992	19.98
676.317	20.23
676.641	19.91
676.966	19.73
677.29	19.7
677.615	19.46
677.939	20.46
678.264	20.27
678.588	20.14
678.912	19.82
679.236	20.14
679.56	19.95
679.885	20.84
680.209	20.69
680.532	20.15
680.856	20.81
681.18	20
681.504	20.43
681.828	20.42
682.152	19.46
682.475	20.82
682.799	20.82
683.122	20.59
683.446	20.53
683.769	20.87
684.093	20.38
684.416	20.75
684.739	21.31
