Data from 0371_forehead_Reflection__2__181.txt Node

Date: Fri Dec 15 18:09:17 CST 2023
User: ToomeyLab
Spectrometer: FLMS14357
Trigger mode: 0
Integration Time (sec): 1.000000E-2
Scans to average: 100
Electric dark correction enabled: true
Nonlinearity correction enabled: false
Boxcar width: 0
XAxis mode: Wavelengths
Number of Pixels in Spectrum: 2048
>>>>>Begin Spectral Data<<<<<
189.047	76.47
189.435	76.47
189.823	76.47
190.211	39.39
190.599	-196.39
190.987	68.1
191.375	-379.58
191.763	138.17
192.151	-9.85
192.538	179.79
192.926	22.21
193.314	135.12
193.702	336.64
194.089	75.21
194.477	19.17
194.864	-40.09
195.252	156.76
195.639	184.61
196.027	78.44
196.414	749.57
196.801	101.39
197.189	134.81
197.576	75.27
197.963	-60.29
198.351	-27.74
198.738	-3.49
199.125	48.64
199.512	-43.72
199.899	6.59
200.286	32.49
200.673	39.77
201.06	50.13
201.447	11.3
201.833	7.17
202.22	48.07
202.607	-7.82
202.994	27.27
203.38	47.92
203.767	24.62
204.154	50.27
204.54	56.66
204.927	-35.69
205.313	-28.05
205.699	11.24
206.086	30.45
206.472	21.83
206.858	28.52
207.245	23.16
207.631	59.17
208.017	29.53
208.403	5.43
208.789	45.38
209.175	39.46
209.561	-6.56
209.947	34.95
210.333	9.82
210.719	34.91
211.105	12.88
211.491	-16.97
211.876	19.34
212.262	16.43
212.648	20.74
213.034	36.53
213.419	-6.62
213.805	8.12
214.19	14.25
214.576	39.76
214.961	28.42
215.346	-21.77
215.732	19.19
216.117	16.39
216.502	5.35
216.888	19.87
217.273	32.72
217.658	11.81
218.043	33.26
218.428	-19.42
218.813	-7.92
219.198	-38.65
219.583	14.93
219.968	14.64
220.353	-10.1
220.738	48.08
221.122	21.65
221.507	-20.4
221.892	-1.69
222.276	6.86
222.661	4.25
223.046	19.17
223.43	22.82
223.815	11.87
224.199	-4.79
224.583	5.34
224.968	14.2
225.352	17.09
225.736	9.97
226.121	-1.62
226.505	11.85
226.889	21.41
227.273	8.53
227.657	11.7
228.041	6.24
228.425	3.2
228.809	8.6
229.193	5.82
229.577	6.65
229.961	6.43
230.344	5.4
230.728	4.06
231.112	4.78
231.495	5.54
231.879	3.84
232.263	5.42
232.646	5.54
233.03	4.33
233.413	1.96
233.797	3.66
234.18	3.65
234.563	8.15
234.946	1.2
235.33	7.66
235.713	7.11
236.096	7.36
236.479	6.74
236.862	3.78
237.245	5.36
237.628	2.17
238.011	6.94
238.394	4.64
238.777	4.87
239.16	3.1
239.543	5.61
239.925	5.25
240.308	7.21
240.691	5.27
241.073	6.51
241.456	4.82
241.838	5.07
242.221	5.05
242.603	6.69
242.986	5.91
243.368	5.48
243.75	5.51
244.133	5.02
244.515	5.48
244.897	5.18
245.279	4.59
245.661	5.34
246.043	4.27
246.425	4.68
246.807	6.56
247.189	5.78
247.571	5.48
247.953	5.53
248.335	5.4
248.717	5.7
249.098	5.27
249.48	5.24
249.862	5.06
250.243	5.08
250.625	5.03
251.006	5.37
251.388	3.59
251.769	5.58
252.151	6.72
252.532	5.85
252.913	4.97
253.295	5.87
253.676	5.27
254.057	5.58
254.438	4.86
254.819	5.49
255.2	5.91
255.581	5.96
255.962	4.24
256.343	6.24
256.724	5.96
257.105	6.05
257.486	4.75
257.867	7.34
258.247	4.84
258.628	4.91
259.009	5.76
259.389	5.28
259.77	5.05
260.15	4.08
260.531	4.32
260.911	5.89
261.292	5.54
261.672	5.51
262.052	5.34
262.432	5.53
262.813	5.67
263.193	5.71
263.573	5.13
263.953	5.21
264.333	6.71
264.713	5.37
265.093	4.16
265.473	5.55
265.853	4.23
266.233	5.07
266.612	3.49
266.992	3.82
267.372	5.45
267.752	5.88
268.131	5.24
268.511	6.2
268.89	5.73
269.27	4.96
269.649	4.54
270.029	4.82
270.408	6.01
270.787	5.47
271.167	6.05
271.546	6.24
271.925	4.37
272.304	4.38
272.683	5.19
273.062	5.17
273.441	5.84
273.82	4.74
274.199	5.21
274.578	5.23
274.957	5.19
275.336	5.05
275.715	4.83
276.093	4.73
276.472	5.61
276.851	5.18
277.229	5.07
277.608	4.87
277.986	5.69
278.365	5.44
278.743	4.08
279.122	5.12
279.5	6.22
279.878	5.81
280.257	5.37
280.635	5.22
281.013	5.1
281.391	5.86
281.769	5.77
282.147	5.19
282.525	5.81
282.903	4.91
283.281	5.15
283.659	5.43
284.037	5.73
284.415	5.28
284.792	5.64
285.17	4.69
285.548	5.34
285.925	5.22
286.303	5.46
286.68	5.32
287.058	5.56
287.435	5.46
287.813	5.56
288.19	5.03
288.567	4.99
288.945	5.57
289.322	5.28
289.699	5.47
290.076	5.36
290.453	5.24
290.83	5.46
291.207	5.65
291.584	5.33
291.961	5.74
292.338	5.93
292.715	6.33
293.092	5.72
293.469	5.71
293.845	5.92
294.222	5.3
294.599	5.85
294.975	5.89
295.352	6.65
295.728	6.11
296.105	6.16
296.481	6.51
296.858	5.67
297.234	5.81
297.61	6.12
297.986	6.27
298.363	6.69
298.739	6.54
299.115	6.03
299.491	6.13
299.867	6.7
300.243	6.86
300.619	6.42
300.995	6.7
301.371	6.72
301.746	6.6
302.122	7.2
302.498	6.61
302.874	6.97
303.249	6.93
303.625	7.26
304	7.36
304.376	7.22
304.751	6.7
305.127	8.19
305.502	6.77
305.878	7.27
306.253	6.89
306.628	8.12
307.003	7.18
307.378	8.11
307.754	7.88
308.129	7.02
308.504	7.55
308.879	7.91
309.254	8.43
309.629	8.06
310.003	7.07
310.378	7.6
310.753	8.52
311.128	8.17
311.502	7.73
311.877	8.44
312.252	7.41
312.626	8.12
313.001	8.36
313.375	8.64
313.75	7.95
314.124	8.59
314.498	7.81
314.873	8.11
315.247	8.47
315.621	9.22
315.995	8.45
316.369	8.41
316.743	8.54
317.117	8.89
317.491	8.35
317.865	8.98
318.239	9.26
318.613	9.18
318.987	8.95
319.361	8.92
319.734	9.42
320.108	9.62
320.482	9.08
320.855	9.42
321.229	9.22
321.602	9.66
321.976	9.42
322.349	9.42
322.723	9.62
323.096	10.25
323.469	9.25
323.843	9.55
324.216	9.65
324.589	10.08
324.962	9.92
325.335	9.42
325.708	9.5
326.081	9.57
326.454	10.08
326.827	9.57
327.2	10.26
327.573	10.81
327.945	9.86
328.318	10.25
328.691	9.79
329.063	10.39
329.436	9.63
329.809	10.35
330.181	9.88
330.553	10.56
330.926	10.75
331.298	10.53
331.671	10.52
332.043	10.56
332.415	11.22
332.787	10.29
333.159	11.23
333.532	10.3
333.904	10.79
334.276	10.7
334.648	10.96
335.02	10.83
335.391	11.03
335.763	10.89
336.135	11.07
336.507	11.27
336.879	10.98
337.25	11.14
337.622	10.51
337.993	11.15
338.365	11.55
338.736	11.39
339.108	11.68
339.479	11.43
339.851	11.27
340.222	11.42
340.593	11.67
340.964	11.11
341.336	12.05
341.707	11.29
342.078	12.13
342.449	12.01
342.82	11.47
343.191	12.12
343.562	11.84
343.933	12.04
344.303	11.99
344.674	12.09
345.045	12.13
345.416	11.88
345.786	11.66
346.157	12.39
346.527	11.87
346.898	11.57
347.268	12.36
347.639	12.29
348.009	12.31
348.38	11.86
348.75	12.32
349.12	12.03
349.49	13.22
349.861	12.77
350.231	12.14
350.601	12.7
350.971	12.84
351.341	12.68
351.711	12.5
352.081	12.44
352.45	12.77
352.82	13.25
353.19	13.29
353.56	12.86
353.929	12.98
354.299	12.85
354.669	12.61
355.038	13.53
355.408	12.88
355.777	13.12
356.147	12.46
356.516	13.13
356.885	13.37
357.254	12.98
357.624	13.5
357.993	13.22
358.362	13.25
358.731	13.41
359.1	13.34
359.469	13.77
359.838	13.71
360.207	13.15
360.576	13.15
360.945	13.71
361.314	13.94
361.682	13.39
362.051	13.7
362.42	13.64
362.788	13.94
363.157	13.79
363.525	14.04
363.894	13.58
364.262	14.07
364.631	13.95
364.999	14.28
365.367	13.7
365.735	14.84
366.104	14.24
366.472	14.59
366.84	13.89
367.208	14.11
367.576	14.49
367.944	14.17
368.312	14.22
368.68	14.23
369.048	14.4
369.416	14.4
369.783	14.05
370.151	14.43
370.519	14.88
370.886	15.26
371.254	14.84
371.621	15.33
371.989	14.96
372.356	14.57
372.724	15.18
373.091	15.02
373.458	15.08
373.826	15.16
374.193	14.83
374.56	15.1
374.927	15.35
375.294	15.09
375.661	15.39
376.028	15.23
376.395	15.55
376.762	15.82
377.129	15.71
377.496	15.54
377.863	15.43
378.229	15.42
378.596	15.73
378.963	15.36
379.329	15.31
379.696	15.79
380.062	15.86
380.429	15.66
380.795	15.99
381.161	16.04
381.528	16.12
381.894	15.92
382.26	15.65
382.626	15.95
382.993	16.07
383.359	16.33
383.725	15.94
384.091	16.23
384.457	16.67
384.823	16.48
385.188	16.48
385.554	16.63
385.92	16.58
386.286	16.69
386.651	16.72
387.017	16.54
387.383	16.73
387.748	16.57
388.114	16.81
388.479	16.74
388.845	16.66
389.21	16.83
389.575	16.84
389.94	16.72
390.306	16.96
390.671	16.95
391.036	16.64
391.401	16.7
391.766	17.07
392.131	17.04
392.496	17.17
392.861	17.56
393.226	17.47
393.591	17.3
393.956	17.27
394.32	17.34
394.685	17.1
395.05	17.34
395.414	17.54
395.779	17.35
396.143	17.7
396.508	17.56
396.872	17.74
397.236	17.67
397.601	17.37
397.965	17.76
398.329	17.83
398.694	18.18
399.058	17.89
399.422	17.91
399.786	17.97
400.15	18.33
400.514	18.25
400.878	17.84
401.242	18.3
401.605	18.22
401.969	18.39
402.333	18.44
402.697	18.43
403.06	18.6
403.424	18.54
403.787	18.32
404.151	18.55
404.514	18.75
404.878	18.72
405.241	18.73
405.604	18.63
405.968	18.41
406.331	18.64
406.694	19.09
407.057	18.68
407.42	19.02
407.783	18.87
408.146	18.94
408.509	18.87
408.872	18.84
409.235	19.15
409.598	19.27
409.961	19.27
410.323	19.38
410.686	19.42
411.049	18.81
411.411	19.44
411.774	19.39
412.136	19.49
412.499	19.41
412.861	19.5
413.223	19.36
413.586	19.61
413.948	19.55
414.31	19.77
414.672	19.61
415.035	19.78
415.397	19.87
415.759	19.68
416.121	20.19
416.483	19.57
416.845	19.83
417.206	20.03
417.568	20.18
417.93	19.9
418.292	20.2
418.653	19.96
419.015	20.05
419.377	20.37
419.738	20.24
420.1	20.18
420.461	20.17
420.822	20.06
421.184	19.98
421.545	20.05
421.906	19.93
422.267	20.27
422.629	20.23
422.99	20.07
423.351	20.22
423.712	20.12
424.073	20.4
424.434	20.32
424.795	20.41
425.155	20.64
425.516	20.64
425.877	20.66
426.238	20.4
426.598	20.62
426.959	20.74
427.32	20.73
427.68	20.87
428.041	20.78
428.401	21.11
428.761	21.05
429.122	21.17
429.482	21.28
429.842	21.47
430.202	21.27
430.563	21.67
430.923	21.47
431.283	21.54
431.643	21.39
432.003	21.82
432.363	21.95
432.722	21.66
433.082	21.9
433.442	22.08
433.802	21.62
434.161	21.8
434.521	21.91
434.881	22
435.24	21.86
435.6	21.93
435.959	21.94
436.319	22.02
436.678	22
437.037	22.14
437.396	22.15
437.756	22.1
438.115	22.33
438.474	22.45
438.833	22.3
439.192	22.19
439.551	22.36
439.91	22.42
440.269	22.62
440.628	22.61
440.987	22.61
441.345	22.53
441.704	22.82
442.063	22.5
442.421	22.61
442.78	22.54
443.138	22.62
443.497	22.75
443.855	22.78
444.214	22.73
444.572	23.13
444.93	23.06
445.288	23.06
445.647	23.21
446.005	23.21
446.363	23.17
446.721	23.31
447.079	23.04
447.437	23.09
447.795	23.22
448.153	23.14
448.51	23.16
448.868	23.25
449.226	23.31
449.584	23.32
449.941	23.53
450.299	23.58
450.656	23.42
451.014	23.8
451.371	23.67
451.729	23.8
452.086	23.99
452.443	23.94
452.801	24.15
453.158	24.04
453.515	23.97
453.872	24.46
454.229	24.35
454.586	24.21
454.943	24.36
455.3	24.49
455.657	24.46
456.014	24.54
456.371	24.63
456.727	24.69
457.084	24.45
457.441	24.76
457.797	24.61
458.154	24.86
458.51	24.96
458.867	24.92
459.223	24.93
459.58	24.95
459.936	25.2
460.292	25.03
460.648	25.09
461.005	24.83
461.361	24.93
461.717	24.76
462.073	24.76
462.429	24.71
462.785	24.98
463.141	25.22
463.496	25.06
463.852	25.45
464.208	25.52
464.564	25.74
464.919	25.76
465.275	25.68
465.631	26.07
465.986	26.11
466.342	25.89
466.697	25.84
467.052	26.11
467.408	26.1
467.763	25.94
468.118	26.43
468.473	26.13
468.829	26.28
469.184	26.21
469.539	26.2
469.894	26.21
470.249	26.62
470.603	26.54
470.958	26.67
471.313	26.61
471.668	26.83
472.023	26.65
472.377	26.68
472.732	26.76
473.086	26.82
473.441	26.8
473.795	27.02
474.15	27.15
474.504	27.01
474.859	27.2
475.213	27.06
475.567	27.28
475.921	27.03
476.275	27.23
476.63	27.41
476.984	27.36
477.338	27.37
477.692	27.16
478.045	27.34
478.399	27.34
478.753	27.32
479.107	27.35
479.461	27.5
479.814	27.56
480.168	27.57
480.521	27.51
480.875	27.62
481.228	27.59
481.582	27.68
481.935	27.9
482.289	27.92
482.642	27.93
482.995	27.88
483.348	27.88
483.701	27.85
484.055	27.9
484.408	27.88
484.761	27.62
485.114	27.45
485.466	27.23
485.819	27.13
486.172	27.14
486.525	27.14
486.878	27.32
487.23	27.45
487.583	27.74
487.936	27.86
488.288	28.02
488.641	28.03
488.993	27.69
489.345	27.78
489.698	27.67
490.05	27.77
490.402	27.89
490.754	27.96
491.107	28.25
491.459	28.32
491.811	28.61
492.163	28.88
492.515	28.72
492.866	28.82
493.218	28.59
493.57	28.46
493.922	28.42
494.274	28.6
494.625	28.82
494.977	29.01
495.328	29.36
495.68	29.44
496.031	29.72
496.383	29.57
496.734	29.93
497.086	29.91
497.437	29.86
497.788	30
498.139	29.85
498.49	29.95
498.842	29.95
499.193	29.98
499.544	29.98
499.894	30.2
500.245	30.27
500.596	30.1
500.947	30.24
501.298	30.27
501.648	30.55
501.999	30.54
502.35	30.56
502.7	30.67
503.051	30.75
503.401	30.75
503.752	30.89
504.102	30.91
504.452	31.16
504.803	30.92
505.153	30.9
505.503	31.11
505.853	31.12
506.203	31.16
506.553	31.16
506.903	31.1
507.253	31.11
507.603	31.15
507.953	31.62
508.303	31.6
508.652	31.52
509.002	31.52
509.352	31.43
509.701	31.82
510.051	31.75
510.4	31.54
510.75	31.65
511.099	31.76
511.449	31.72
511.798	31.69
512.147	32.05
512.496	31.94
512.846	32.05
513.195	32.01
513.544	31.95
513.893	32.08
514.242	32.05
514.591	32.45
514.939	32.28
515.288	32.48
515.637	32.55
515.986	32.57
516.334	32.73
516.683	32.8
517.032	32.79
517.38	32.88
517.729	32.94
518.077	32.88
518.426	33.04
518.774	33.11
519.122	33.05
519.47	33.24
519.819	32.79
520.167	33.04
520.515	32.95
520.863	33.06
521.211	33.1
521.559	33.18
521.907	33.26
522.255	33.31
522.602	33.53
522.95	33.55
523.298	33.63
523.645	33.61
523.993	33.73
524.341	34.05
524.688	33.8
525.036	33.99
525.383	33.99
525.73	34.23
526.078	34.04
526.425	34.15
526.772	34.13
527.119	34.17
527.466	33.91
527.814	33.93
528.161	33.82
528.508	34.05
528.854	34.11
529.201	34.24
529.548	33.91
529.895	34.07
530.242	33.9
530.588	33.78
530.935	33.78
531.282	33.83
531.628	33.83
531.975	34.01
532.321	34.32
532.667	34.4
533.014	34.75
533.36	34.86
533.706	35.05
534.052	35.16
534.399	34.83
534.745	34.8
535.091	34.83
535.437	34.89
535.783	34.8
536.129	34.94
536.474	35.11
536.82	35.34
537.166	35.36
537.512	35.65
537.857	35.65
538.203	35.8
538.549	35.61
538.894	35.71
539.239	35.8
539.585	35.87
539.93	35.86
540.276	36.34
540.621	36.31
540.966	36.36
541.311	36.39
541.656	36.42
542.001	36.37
542.346	36.55
542.691	36.3
543.036	36.08
543.381	36.07
543.726	36.11
544.071	36.22
544.415	36.16
544.76	36.31
545.105	36.39
545.449	36.57
545.794	36.97
546.138	36.87
546.483	36.89
546.827	37.23
547.171	37.46
547.516	37.48
547.86	37.51
548.204	37.5
548.548	37.53
548.892	37.41
549.236	37.63
549.58	37.52
549.924	37.72
550.268	38.07
550.612	37.83
550.956	38.23
551.3	38.41
551.643	38.07
551.987	38.3
552.33	38.39
552.674	38.67
553.017	38.64
553.361	38.62
553.704	39.09
554.048	39.1
554.391	38.77
554.734	38.81
555.077	38.71
555.42	38.69
555.764	38.77
556.107	39.03
556.45	39.26
556.793	39.2
557.135	39.45
557.478	39.51
557.821	39.45
558.164	39.58
558.507	39.95
558.849	39.88
559.192	40
559.534	39.89
559.877	40.02
560.219	39.92
560.562	40.04
560.904	40.15
561.246	40.23
561.589	40.23
561.931	40.22
562.273	40.35
562.615	40.68
562.957	40.65
563.299	40.3
563.641	40.6
563.983	40.27
564.325	40.6
564.667	40.74
565.008	40.77
565.35	40.68
565.692	40.68
566.033	40.73
566.375	41.09
566.716	40.97
567.058	41.24
567.399	41.17
567.741	41.27
568.082	41.07
568.423	41.1
568.764	40.95
569.105	41.39
569.447	41.29
569.788	41.38
570.129	41.4
570.47	41.7
570.811	42.17
571.151	42.01
571.492	41.59
571.833	41.99
572.174	41.96
572.514	41.96
572.855	41.95
573.195	41.93
573.536	41.75
573.876	41.81
574.217	42.34
574.557	42.06
574.898	42.04
575.238	41.98
575.578	42.17
575.918	42.63
576.258	42.56
576.598	42.4
576.938	42.77
577.278	42.58
577.618	42.84
577.958	42.62
578.298	42.5
578.638	42.79
578.977	43.09
579.317	43.08
579.657	43.39
579.996	43.06
580.336	43.43
580.675	43.54
581.014	43.35
581.354	43.74
581.693	43.72
582.032	43.83
582.372	43.54
582.711	44.27
583.05	43.84
583.389	44.03
583.728	44.1
584.067	43.84
584.406	44.31
584.745	44.28
585.083	44.43
585.422	44.27
585.761	44.15
586.1	44.39
586.438	44.54
586.777	44.22
587.115	44.68
587.454	44.58
587.792	44.58
588.13	44.55
588.469	45.08
588.807	44.86
589.145	44.81
589.483	44.66
589.821	45.33
590.159	44.96
590.497	45.32
590.835	45.48
591.173	45.17
591.511	45.62
591.849	44.99
592.187	45.54
592.524	45.39
592.862	45.56
593.2	45.57
593.537	45.56
593.875	45.56
594.212	45.23
594.55	45.77
594.887	46.17
595.224	45.75
595.561	45.62
595.899	45.86
596.236	46.1
596.573	46.04
596.91	45.98
597.247	45.8
597.584	46.27
597.921	46.2
598.258	46.32
598.594	46.1
598.931	46.37
599.268	46.32
599.604	46.17
599.941	46.34
600.277	46.45
600.614	46.27
600.95	46.2
601.287	46.6
601.623	46.83
601.959	47.04
602.296	46.67
602.632	46.94
602.968	47.31
603.304	47.26
603.64	47.14
603.976	47.59
604.312	47.26
604.648	47.32
604.984	48.01
605.319	47.43
605.655	47.33
605.991	47.49
606.326	47.36
606.662	47.42
606.998	47.6
607.333	47.24
607.668	47.26
608.004	47.3
608.339	47.52
608.674	47.91
609.01	48.03
609.345	48.09
609.68	48.24
610.015	48.27
610.35	48.05
610.685	48.31
611.02	48.2
611.355	48.1
611.689	48.15
612.024	47.97
612.359	48.27
612.694	48.67
613.028	48.41
613.363	48.38
613.697	48.58
614.032	48.66
614.366	49
614.7	48.77
615.035	49.14
615.369	49.1
615.703	49.56
616.037	48.7
616.371	48.76
616.705	49.12
617.039	49.21
617.373	48.57
617.707	49.3
618.041	49.19
618.375	49.47
618.709	48.87
619.042	49.26
619.376	49.89
619.71	49.64
620.043	49.5
620.377	49.7
620.71	49.72
621.043	50.04
621.377	50.09
621.71	49.76
622.043	50.17
622.376	49.81
622.709	50.36
623.043	49.86
623.376	50.39
623.709	50.01
624.041	50.34
624.374	50.59
624.707	50.46
625.04	50.35
625.373	50.54
625.705	50.6
626.038	50.58
626.37	50.44
626.703	50.71
627.035	51.2
627.368	51.05
627.7	50.7
628.032	50.86
628.365	50.97
628.697	50.55
629.029	50.95
629.361	50.78
629.693	50.59
630.025	50.89
630.357	51.23
630.689	51.29
631.021	51.25
631.353	51.09
631.684	51.43
632.016	51.65
632.348	51.31
632.679	51.47
633.011	51.66
633.342	51.96
633.674	51.37
634.005	51.86
634.336	51.28
634.668	52.35
634.999	51.36
635.33	52.2
635.661	52.26
635.992	51.43
636.323	51.97
636.654	52.13
636.985	52.34
637.316	52.1
637.647	51.83
637.977	52.17
638.308	51.97
638.639	52.31
638.969	51.9
639.3	52.05
639.63	52.03
639.961	52.52
640.291	52.45
640.622	52.56
640.952	52.75
641.282	53.12
641.612	52.45
641.943	52.98
642.273	52.77
642.603	53.31
642.933	53.4
643.263	53.29
643.592	52.5
643.922	53.55
644.252	53.15
644.582	53.04
644.911	52.88
645.241	52.78
645.571	53.64
645.9	53.1
646.23	53.13
646.559	53.82
646.888	53.52
647.218	53.49
647.547	53.32
647.876	53.67
648.205	53.82
648.534	53.77
648.863	53.8
649.192	53.84
649.521	53.57
649.85	53.63
650.179	53.68
650.508	53.69
650.837	53.76
651.165	54.07
651.494	53.93
651.822	54.3
652.151	53.64
652.479	54.19
652.808	53.91
653.136	54.47
653.465	54.35
653.793	54.34
654.121	54.5
654.449	54.27
654.777	54.31
655.105	54.53
655.433	54.54
655.761	54.03
656.089	55
656.417	54.57
656.745	54.9
657.073	54.91
657.4	55.26
657.728	54.7
658.056	54.07
658.383	54.92
658.711	55.26
659.038	55.12
659.365	55.19
659.693	55.42
660.02	55.31
660.347	55.14
660.674	55.32
661.001	55.49
661.329	55.46
661.656	55.51
661.982	55.15
662.309	55.34
662.636	55.09
662.963	55.43
663.29	55.78
663.616	55.78
663.943	55.38
664.27	56.09
664.596	55.85
664.923	55.76
665.249	55.12
665.576	56.34
665.902	56.77
666.228	55.75
666.554	55.3
666.881	56.35
667.207	56.76
667.533	56.22
667.859	56.12
668.185	56.36
668.511	56.34
668.837	55.82
669.162	56.21
