Data from 0371_forehead_Reflection__4__183.txt Node

Date: Fri Dec 15 18:09:34 CST 2023
User: ToomeyLab
Spectrometer: FLMS14357
Trigger mode: 0
Integration Time (sec): 1.000000E-2
Scans to average: 100
Electric dark correction enabled: true
Nonlinearity correction enabled: false
Boxcar width: 0
XAxis mode: Wavelengths
Number of Pixels in Spectrum: 2048
>>>>>Begin Spectral Data<<<<<
189.047	65.23
189.435	65.23
189.823	65.23
190.211	118.73
190.599	11.22
190.987	110.36
191.375	24.92
191.763	-87.76
192.151	84.58
192.538	121.64
192.926	68.4
193.314	31.71
193.702	369.24
194.089	73.91
194.477	-167.04
194.864	-2.3
195.252	220.61
195.639	56.87
196.027	108.42
196.414	1204.11
196.801	128.18
197.189	23
197.576	62.38
197.963	-57.29
198.351	-52.91
198.738	-46.92
199.125	71.03
199.512	83.78
199.899	20.71
200.286	53.06
200.673	14.24
201.06	50.6
201.447	39.09
201.833	37.88
202.22	14.33
202.607	24.74
202.994	19.71
203.38	40.15
203.767	36.44
204.154	13.78
204.54	58.87
204.927	-19.59
205.313	-12.21
205.699	20.5
206.086	37.21
206.472	63.58
206.858	39.75
207.245	34.72
207.631	42.37
208.017	30.94
208.403	15.59
208.789	62.53
209.175	19.05
209.561	23.94
209.947	62.82
210.333	38.14
210.719	54.57
211.105	36.23
211.491	11.71
211.876	20.87
212.262	44.07
212.648	3.2
213.034	37.56
213.419	-1.73
213.805	-8.53
214.19	-18.44
214.576	39.72
214.961	8.01
215.346	0.69
215.732	32.31
216.117	22.11
216.502	-44.46
216.888	5.41
217.273	11.25
217.658	28.19
218.043	45.97
218.428	-29.2
218.813	14.29
219.198	-17.29
219.583	27.39
219.968	14.52
220.353	22.66
220.738	30.9
221.122	28.65
221.507	13.49
221.892	0.61
222.276	-17.07
222.661	4.56
223.046	22.78
223.43	7.1
223.815	16.42
224.199	4.73
224.583	14.98
224.968	10.11
225.352	21.77
225.736	0.39
226.121	-3.11
226.505	8.91
226.889	16.88
227.273	4.21
227.657	12.01
228.041	11.2
228.425	10.7
228.809	10.47
229.193	7.8
229.577	5.39
229.961	7.69
230.344	5.93
230.728	5.68
231.112	6.48
231.495	5.36
231.879	4.1
232.263	6.46
232.646	4.12
233.03	7.05
233.413	3.67
233.797	6.89
234.18	4.98
234.563	7.3
234.946	4.33
235.33	8.47
235.713	6.03
236.096	5.43
236.479	6.14
236.862	4.07
237.245	6.24
237.628	5.85
238.011	7.37
238.394	9.12
238.777	6.55
239.16	7.16
239.543	7.62
239.925	8.51
240.308	6.65
240.691	7.19
241.073	8.84
241.456	5.12
241.838	6.99
242.221	4.82
242.603	7.59
242.986	5.68
243.368	7.12
243.75	6.55
244.133	6.09
244.515	6.69
244.897	6.78
245.279	6.21
245.661	6.06
246.043	7.23
246.425	6.28
246.807	6.98
247.189	7.29
247.571	7.74
247.953	7.43
248.335	6.62
248.717	6.38
249.098	6.59
249.48	6.55
249.862	6.73
250.243	6.89
250.625	6.45
251.006	7.37
251.388	6.1
251.769	6.21
252.151	7.48
252.532	7
252.913	6.43
253.295	7.16
253.676	6.39
254.057	7.33
254.438	6.51
254.819	6.88
255.2	6.63
255.581	7.27
255.962	5.52
256.343	6.7
256.724	7.18
257.105	6.96
257.486	7.22
257.867	7.39
258.247	5.87
258.628	5
259.009	6.35
259.389	7.01
259.77	6.38
260.15	6.12
260.531	6.17
260.911	7.35
261.292	6.6
261.672	6.61
262.052	6.59
262.432	6.67
262.813	6.01
263.193	6.5
263.573	6.83
263.953	6.58
264.333	7.85
264.713	7.5
265.093	6.73
265.473	6.52
265.853	6.13
266.233	7.51
266.612	5.32
266.992	6.5
267.372	7.21
267.752	6.58
268.131	6.2
268.511	7.36
268.89	6.48
269.27	6.09
269.649	6.37
270.029	5.68
270.408	6.76
270.787	7.11
271.167	7.32
271.546	6.36
271.925	5.9
272.304	6.62
272.683	6.61
273.062	6.25
273.441	6.03
273.82	5.55
274.199	6.13
274.578	6.55
274.957	5.97
275.336	6.19
275.715	6.46
276.093	5.87
276.472	6
276.851	6.34
277.229	6.29
277.608	5.69
277.986	6.54
278.365	6.01
278.743	5.72
279.122	5.9
279.5	6.14
279.878	6.77
280.257	6.71
280.635	5.89
281.013	6.86
281.391	6.84
281.769	6.34
282.147	6.64
282.525	6.64
282.903	6.27
283.281	6.07
283.659	6.76
284.037	6.64
284.415	6.68
284.792	6.84
285.17	5.62
285.548	6.61
285.925	6.38
286.303	6.2
286.68	6.4
287.058	6.39
287.435	6.63
287.813	6.1
288.19	6.2
288.567	6.37
288.945	6.53
289.322	6.63
289.699	6.26
290.076	7.41
290.453	6.76
290.83	6.62
291.207	6.41
291.584	7.06
291.961	7.13
292.338	6.95
292.715	7.27
293.092	7.35
293.469	6.97
293.845	7.7
294.222	6.8
294.599	7.49
294.975	6.91
295.352	7.44
295.728	7.71
296.105	8.11
296.481	8.28
296.858	7.6
297.234	7.13
297.61	7.86
297.986	7.82
298.363	8.04
298.739	7.91
299.115	7.88
299.491	7.55
299.867	8.09
300.243	8.09
300.619	7.8
300.995	7.8
301.371	8.89
301.746	8.21
302.122	8.83
302.498	8.82
302.874	8.78
303.249	9.01
303.625	8.69
304	9.04
304.376	8.75
304.751	7.96
305.127	9.76
305.502	8.54
305.878	8.48
306.253	9.13
306.628	9.62
307.003	8.69
307.378	9.23
307.754	9.44
308.129	9.12
308.504	9.34
308.879	9.08
309.254	10.08
309.629	9.46
310.003	9.91
310.378	10.37
310.753	10.06
311.128	10.02
311.502	9.79
311.877	10.22
312.252	9.59
312.626	10.22
313.001	9.8
313.375	10.81
313.75	9.83
314.124	10.3
314.498	10.23
314.873	10.12
315.247	10.24
315.621	10.4
315.995	9.87
316.369	10.92
316.743	10.75
317.117	11.07
317.491	10.8
317.865	11.06
318.239	10.96
318.613	11.12
318.987	11.38
319.361	10.67
319.734	11.64
320.108	11.43
320.482	11.14
320.855	11.89
321.229	11.36
321.602	11.66
321.976	11.72
322.349	11.16
322.723	11.7
323.096	12
323.469	11.23
323.843	11.84
324.216	12.4
324.589	12.14
324.962	11.84
325.335	11.22
325.708	11.78
326.081	12.02
326.454	12
326.827	12.12
327.2	11.98
327.573	12.37
327.945	12.32
328.318	11.63
328.691	11.8
329.063	12.45
329.436	12.38
329.809	12.17
330.181	12.42
330.553	13.02
330.926	13.08
331.298	12.76
331.671	12.64
332.043	13.93
332.415	13.3
332.787	13.35
333.159	14.02
333.532	12.88
333.904	13.11
334.276	13.04
334.648	13.03
335.02	12.95
335.391	13.26
335.763	12.97
336.135	13.04
336.507	13.79
336.879	12.67
337.25	13.46
337.622	13.85
337.993	13.09
338.365	14.11
338.736	13.85
339.108	14.02
339.479	13.26
339.851	13.52
340.222	13.89
340.593	13.82
340.964	14.03
341.336	14.64
341.707	14.02
342.078	14.48
342.449	14.53
342.82	14.16
343.191	14.1
343.562	14.28
343.933	14.53
344.303	14.42
344.674	14.41
345.045	14.11
345.416	14.88
345.786	14.79
346.157	14.82
346.527	14.22
346.898	14.34
347.268	14.66
347.639	14.66
348.009	14.95
348.38	15.26
348.75	14.8
349.12	14.52
349.49	15.25
349.861	15
350.231	14.81
350.601	14.87
350.971	15.75
351.341	15.12
351.711	15.56
352.081	15.39
352.45	15.35
352.82	15.83
353.19	15.11
353.56	15.87
353.929	16.05
354.299	15.17
354.669	15.18
355.038	15.92
355.408	15.63
355.777	16.19
356.147	15.76
356.516	16.22
356.885	15.92
357.254	15.89
357.624	15.88
357.993	15.98
358.362	15.78
358.731	15.88
359.1	15.78
359.469	16.17
359.838	16.32
360.207	16.1
360.576	15.87
360.945	16.22
361.314	16.77
361.682	16.21
362.051	16.52
362.42	16.79
362.788	16.46
363.157	16.6
363.525	16.63
363.894	16.73
364.262	16.59
364.631	16.64
364.999	16.47
365.367	16.42
365.735	17.43
366.104	17.05
366.472	17.51
366.84	16.94
367.208	17.07
367.576	17.55
367.944	17.18
368.312	17.14
368.68	17.21
369.048	17.47
369.416	17.34
369.783	17.21
370.151	17.56
370.519	18
370.886	18.38
371.254	17.5
371.621	17.63
371.989	17.5
372.356	17.62
372.724	17.98
373.091	17.52
373.458	17.62
373.826	17.6
374.193	17.31
374.56	18.33
374.927	18.07
375.294	18.26
375.661	18.17
376.028	18.37
376.395	18.11
376.762	18.3
377.129	18.45
377.496	18.2
377.863	18.41
378.229	18.23
378.596	18.41
378.963	18.63
379.329	18.25
379.696	18.87
380.062	18.96
380.429	18.23
380.795	18.77
381.161	18.69
381.528	19.08
381.894	19.03
382.26	18.77
382.626	19.05
382.993	18.85
383.359	19.54
383.725	18.62
384.091	19.12
384.457	19.29
384.823	18.74
385.188	19.52
385.554	19.57
385.92	19.47
386.286	19.39
386.651	19.44
387.017	19.5
387.383	19.54
387.748	19.19
388.114	19.78
388.479	19.55
388.845	19.92
389.21	19.77
389.575	19.72
389.94	19.97
390.306	19.94
390.671	20.16
391.036	19.68
391.401	19.5
391.766	19.97
392.131	20.01
392.496	20.26
392.861	20.36
393.226	20.2
393.591	20.35
393.956	20.12
394.32	20.26
394.685	20.26
395.05	20.14
395.414	20.48
395.779	20.21
396.143	20.73
396.508	20.6
396.872	20.75
397.236	20.49
397.601	20.42
397.965	20.68
398.329	20.52
398.694	20.56
399.058	21.04
399.422	21.06
399.786	20.81
400.15	20.79
400.514	21.14
400.878	21.27
401.242	21.37
401.605	21.49
401.969	21.19
402.333	21.14
402.697	21.04
403.06	21.14
403.424	21.18
403.787	21.17
404.151	21.8
404.514	21.34
404.878	21.68
405.241	21.84
405.604	21.35
405.968	21.87
406.331	21.69
406.694	21.99
407.057	22.02
407.42	21.84
407.783	21.38
408.146	21.66
408.509	21.78
408.872	21.9
409.235	21.96
409.598	22.22
409.961	21.88
410.323	22.03
410.686	22.22
411.049	22.04
411.411	22.5
411.774	22.32
412.136	22.12
412.499	22.5
412.861	22.27
413.223	22.39
413.586	22.48
413.948	22.53
414.31	22.51
414.672	22.29
415.035	22.43
415.397	22.75
415.759	22.79
416.121	22.88
416.483	22.65
416.845	22.72
417.206	23.06
417.568	22.85
417.93	22.82
418.292	22.87
418.653	22.91
419.015	23.01
419.377	22.93
419.738	23.09
420.1	22.96
420.461	23.08
420.822	23.13
421.184	22.97
421.545	22.87
421.906	23.01
422.267	23.09
422.629	23.2
422.99	23.01
423.351	23.03
423.712	23.03
424.073	23.34
424.434	23.16
424.795	23.23
425.155	23.47
425.516	23.31
425.877	23.46
426.238	23.31
426.598	23.51
426.959	23.36
427.32	23.37
427.68	23.6
428.041	23.55
428.401	23.64
428.761	23.78
429.122	23.74
429.482	23.87
429.842	24.44
430.202	24.06
430.563	24.17
430.923	24.26
431.283	24.31
431.643	24.17
432.003	24.3
432.363	24.47
432.722	24.35
433.082	24.48
433.442	24.38
433.802	24.51
434.161	24.51
434.521	24.81
434.881	24.56
435.24	24.74
435.6	24.56
435.959	24.62
436.319	24.69
436.678	24.74
437.037	24.78
437.396	24.85
437.756	25.02
438.115	24.88
438.474	25.14
438.833	25
439.192	24.85
439.551	25.05
439.91	25.06
440.269	25.12
440.628	24.93
440.987	25.26
441.345	25.27
441.704	25.35
442.063	25
442.421	25.17
442.78	25.21
443.138	25.12
443.497	25.29
443.855	25.26
444.214	25.41
444.572	25.61
444.93	25.77
445.288	25.64
445.647	25.9
446.005	25.63
446.363	25.92
446.721	25.82
447.079	25.65
447.437	25.78
447.795	25.85
448.153	25.69
448.51	25.73
448.868	25.75
449.226	25.68
449.584	25.81
449.941	25.92
450.299	26.06
450.656	25.81
451.014	26.31
451.371	26.23
451.729	26.14
452.086	26.52
452.443	26.42
452.801	26.3
453.158	26.34
453.515	26.41
453.872	26.6
454.229	26.37
454.586	26.58
454.943	26.53
455.3	26.87
455.657	26.66
456.014	26.92
456.371	26.7
456.727	26.89
457.084	27.05
457.441	26.97
457.797	27.02
458.154	27.15
458.51	27.3
458.867	27.23
459.223	27.36
459.58	27.32
459.936	27.36
460.292	27.15
460.648	27.22
461.005	27.35
461.361	27.22
461.717	27.19
462.073	27.06
462.429	27.01
462.785	27.19
463.141	27.19
463.496	27.36
463.852	27.69
464.208	27.68
464.564	27.99
464.919	27.68
465.275	27.81
465.631	27.97
465.986	27.79
466.342	27.92
466.697	27.75
467.052	28.19
467.408	28.14
467.763	28.12
468.118	28.29
468.473	28.18
468.829	28.34
469.184	28.25
469.539	28.14
469.894	28.32
470.249	28.19
470.603	28.56
470.958	28.32
471.313	28.59
471.668	28.44
472.023	28.55
472.377	28.56
472.732	28.69
473.086	28.66
473.441	28.7
473.795	29.08
474.15	28.75
474.504	28.97
474.859	29.18
475.213	28.95
475.567	29.01
475.921	28.97
476.275	28.98
476.63	29.23
476.984	29.23
477.338	29.2
477.692	29.08
478.045	29.11
478.399	29.34
478.753	29.36
479.107	29.11
479.461	29.29
479.814	29.24
480.168	29.61
480.521	29.28
480.875	29.35
481.228	29.37
481.582	29.32
481.935	29.46
482.289	29.52
482.642	29.34
482.995	29.57
483.348	29.41
483.701	29.57
484.055	29.66
484.408	29.55
484.761	29.31
485.114	29.21
485.466	29.03
485.819	29.02
486.172	28.94
486.525	28.84
486.878	28.8
487.23	29
487.583	29.24
487.936	29.37
488.288	29.55
488.641	29.66
488.993	29.44
489.345	29.46
489.698	29.49
490.05	29.42
490.402	29.44
490.754	29.44
491.107	29.6
491.459	29.81
491.811	29.96
492.163	30.12
492.515	30.19
492.866	30.37
493.218	30.13
493.57	30.07
493.922	30.15
494.274	30.02
494.625	30.13
494.977	30.35
495.328	30.61
495.68	30.74
496.031	30.9
496.383	30.87
496.734	31.13
497.086	31.27
497.437	31.4
497.788	31.29
498.139	31.27
498.49	31.17
498.842	31.14
499.193	31.29
499.544	31.14
499.894	31.4
500.245	31.45
500.596	31.32
500.947	31.54
501.298	31.56
501.648	31.57
501.999	31.77
502.35	31.87
502.7	31.81
503.051	31.67
503.401	31.77
503.752	31.91
504.102	32.04
504.452	32.1
504.803	31.94
505.153	32.06
505.503	31.99
505.853	32.33
506.203	31.85
506.553	32.26
506.903	32.11
507.253	32.01
507.603	32.16
507.953	32.5
508.303	32.5
508.652	32.31
509.002	32.67
509.352	32.47
509.701	32.4
510.051	32.47
510.4	32.69
510.75	32.62
511.099	32.59
511.449	32.52
511.798	32.54
512.147	32.75
512.496	32.75
512.846	32.88
513.195	32.9
513.544	32.9
513.893	32.9
514.242	32.81
514.591	33.09
514.939	32.94
515.288	33.07
515.637	33.15
515.986	33.25
516.334	33.34
516.683	33.31
517.032	33.31
517.38	33.48
517.729	33.41
518.077	33.38
518.426	33.7
518.774	33.75
519.122	33.61
519.47	33.6
519.819	33.44
520.167	33.58
520.515	33.32
520.863	33.45
521.211	33.6
521.559	33.54
521.907	33.61
522.255	33.86
522.602	33.89
522.95	33.96
523.298	34.07
523.645	34.16
523.993	34.06
524.341	34.46
524.688	34.34
525.036	34.13
525.383	34.43
525.73	34.5
526.078	34.35
526.425	34.47
526.772	34.41
527.119	34.41
527.466	34.11
527.814	34.17
528.161	34.23
528.508	34.39
528.854	34.45
529.201	34.41
529.548	34.44
529.895	34.24
530.242	34.02
530.588	34
530.935	34.16
531.282	34.14
531.628	34.01
531.975	34.22
532.321	34.46
532.667	34.63
533.014	34.72
533.36	34.74
533.706	35.15
534.052	35.1
534.399	34.92
534.745	34.94
535.091	34.92
535.437	34.86
535.783	34.98
536.129	34.93
536.474	34.98
536.82	35.19
537.166	35.4
537.512	35.53
537.857	35.7
538.203	35.64
538.549	35.61
538.894	35.68
539.239	35.68
539.585	35.84
539.93	35.72
540.276	36.01
540.621	36.17
540.966	36.27
541.311	36.05
541.656	36.22
542.001	36.13
542.346	36.35
542.691	36.13
543.036	35.99
543.381	35.79
543.726	35.91
544.071	35.89
544.415	35.98
544.76	36.07
545.105	36.11
545.449	36.27
545.794	36.56
546.138	36.6
546.483	36.63
546.827	36.85
547.171	36.86
547.516	36.97
547.86	36.92
548.204	36.98
548.548	37.05
548.892	37.04
549.236	37.29
549.58	37.12
549.924	37.06
550.268	37.41
550.612	37.49
550.956	37.54
551.3	37.5
551.643	37.47
551.987	37.86
552.33	37.73
552.674	37.83
553.017	37.93
553.361	37.7
553.704	38.38
554.048	37.79
554.391	38.08
554.734	38.1
555.077	38.05
555.42	38.05
555.764	38.27
556.107	38.08
556.45	38.18
556.793	38.27
557.135	38.41
557.478	38.68
557.821	38.71
558.164	38.73
558.507	38.78
558.849	38.65
559.192	38.87
559.534	39.11
559.877	39.02
560.219	38.86
560.562	38.95
560.904	38.86
561.246	39.2
561.589	39.5
561.931	39.13
562.273	39.1
562.615	39.38
562.957	39.37
563.299	39.06
563.641	39.49
563.983	39.37
564.325	39.34
564.667	39.48
565.008	39.38
565.35	39.48
565.692	39.56
566.033	39.61
566.375	39.56
566.716	39.64
567.058	39.75
567.399	39.29
567.741	39.67
568.082	39.82
568.423	39.97
568.764	39.73
569.105	40
569.447	39.82
569.788	39.92
570.129	40.03
570.47	40.07
570.811	40.1
571.151	40.26
571.492	40.36
571.833	40.26
572.174	40.29
572.514	40.54
572.855	40.22
573.195	40.28
573.536	40.48
573.876	40.14
574.217	40.47
574.557	40.38
574.898	40.68
575.238	40.81
575.578	40.32
575.918	40.71
576.258	40.62
576.598	40.49
576.938	41.1
577.278	40.66
577.618	41.08
577.958	41.05
578.298	41.02
578.638	41.05
578.977	41.08
579.317	40.94
579.657	41.36
579.996	41.38
580.336	41.33
580.675	41.55
581.014	41.4
581.354	41.68
581.693	41.91
582.032	41.6
582.372	41.75
582.711	41.91
583.05	41.7
583.389	41.64
583.728	41.78
584.067	41.93
584.406	41.91
584.745	41.65
585.083	42.2
585.422	42.26
585.761	42.32
586.1	42.19
586.438	42.28
586.777	42.1
587.115	42.4
587.454	42.22
587.792	42.22
588.13	42.42
588.469	42.37
588.807	42.58
589.145	42.71
589.483	42.61
589.821	42.69
590.159	42.63
590.497	43.17
590.835	42.63
591.173	42.66
591.511	43.25
591.849	42.82
592.187	43.2
592.524	42.98
592.862	43.18
593.2	43
593.537	43.1
593.875	43.23
594.212	42.85
594.55	43.35
594.887	43.78
595.224	43.45
595.561	43.73
595.899	43.12
596.236	43.5
596.573	43.16
596.91	43.29
597.247	43.42
597.584	43.8
597.921	43.59
598.258	43.33
598.594	43.42
598.931	43.5
599.268	43.53
599.604	43.62
599.941	43.74
600.277	43.64
600.614	43.97
600.95	43.61
601.287	44.03
601.623	43.93
601.959	43.95
602.296	44.23
602.632	44.05
602.968	44.28
603.304	44.04
603.64	44.44
603.976	44.29
604.312	44.18
604.648	44.37
604.984	44.43
605.319	44.37
605.655	44.35
605.991	44.36
606.326	44.43
606.662	44.23
606.998	44.31
607.333	44.44
607.668	44.37
608.004	44.47
608.339	44.91
608.674	45.17
609.01	45.02
609.345	44.78
609.68	45.1
610.015	44.43
610.35	45.02
610.685	44.78
611.02	45.23
611.355	44.89
611.689	44.99
612.024	44.59
612.359	45.14
612.694	45.11
613.028	45.27
613.363	45.45
613.697	45.25
614.032	45.19
614.366	45.54
614.7	45.32
615.035	45.8
615.369	45.62
615.703	45.53
616.037	45.56
616.371	45.13
616.705	45.8
617.039	45.56
617.373	45.36
617.707	45.73
618.041	45.72
618.375	45.88
618.709	45.72
619.042	45.68
619.376	45.88
619.71	45.99
620.043	45.79
620.377	46.42
620.71	46.83
621.043	46.34
621.377	46.22
621.71	46.4
622.043	46.92
622.376	45.95
622.709	46.2
623.043	46.53
623.376	46.17
623.709	45.96
624.041	46.82
624.374	47.04
624.707	46.54
625.04	47.02
625.373	46.26
625.705	46.4
626.038	47.27
626.37	46.77
626.703	46.79
627.035	46.94
627.368	46.95
627.7	46.97
628.032	46.68
628.365	47.14
628.697	47.07
629.029	46.88
629.361	47.02
629.693	46.95
630.025	46.83
630.357	47.12
630.689	47.12
631.021	47.25
631.353	47.48
631.684	47.37
632.016	47.38
632.348	47.17
632.679	46.83
633.011	47.22
633.342	47.65
633.674	46.95
634.005	47.92
634.336	47.28
634.668	48.11
634.999	47.39
635.33	48.19
635.661	47.74
635.992	47.83
636.323	47.93
636.654	47.92
636.985	48.25
637.316	48.12
637.647	48.62
637.977	47.87
638.308	47.92
638.639	48.32
638.969	47.69
639.3	48.41
639.63	47.73
639.961	47.9
640.291	48
640.622	48.23
640.952	48.47
641.282	48.45
641.612	47.71
641.943	48.13
642.273	48.62
642.603	48.43
642.933	48.44
643.263	48.38
643.592	47.74
643.922	48.72
644.252	48.55
644.582	48.95
644.911	48.97
645.241	48.73
645.571	49.08
645.9	48.19
646.23	48.68
646.559	49.34
646.888	48.58
647.218	48.5
647.547	49.28
647.876	48.28
648.205	48.81
648.534	49.45
648.863	48.53
649.192	48.98
649.521	48.47
649.85	49.15
650.179	49.08
650.508	49.3
650.837	48.73
651.165	49.34
651.494	49.27
651.822	49.15
652.151	49.27
652.479	49.77
652.808	49.21
653.136	49.56
653.465	49.29
653.793	49.28
654.121	49.06
654.449	49.67
654.777	49.2
655.105	49.56
655.433	49.89
655.761	49.76
656.089	49.42
656.417	49.94
656.745	50.32
657.073	49.73
657.4	50.44
657.728	50.01
658.056	49.64
658.383	50.1
658.711	49.61
659.038	49.78
659.365	50.33
659.693	49.89
660.02	49.75
660.347	49.81
660.674	50.34
661.001	50.41
661.329	49.83
661.656	49.84
661.982	50.37
662.309	50.24
662.636	50.41
662.963	50.61
663.29	50.58
663.616	50.76
663.943	49.73
664.27	50.62
664.596	50.33
664.923	50.08
665.249	50.04
665.576	50.43
665.902	50.51
666.228	50.74
666.554	50.17
666.881	50.55
667.207	50.83
667.533	50.45
667.859	50.7
668.185	51.04
668.511	50.33
668.837	49.46
