Data from 0371_chest_Reflection__1__170.txt Node

Date: Fri Dec 15 18:06:30 CST 2023
User: ToomeyLab
Spectrometer: FLMS14357
Trigger mode: 0
Integration Time (sec): 1.000000E-2
Scans to average: 100
Electric dark correction enabled: true
Nonlinearity correction enabled: false
Boxcar width: 0
XAxis mode: Wavelengths
Number of Pixels in Spectrum: 2048
>>>>>Begin Spectral Data<<<<<
189.047	-92.45
189.435	-92.45
189.823	-92.45
190.211	245.25
190.599	-65.21
190.987	137.12
191.375	225.24
191.763	427.15
192.151	31.16
192.538	81.38
192.926	-32.94
193.314	78.15
193.702	15.79
194.089	-175.3
194.477	-73.57
194.864	-188.6
195.252	211.2
195.639	135.62
196.027	370.4
196.414	1110.17
196.801	97.65
197.189	269.43
197.576	77.83
197.963	69.88
198.351	-25.28
198.738	-45.33
199.125	27.95
199.512	-13.57
199.899	6.4
200.286	20.52
200.673	-14.27
201.06	15.89
201.447	13.25
201.833	7.42
202.22	28.64
202.607	41.57
202.994	29.17
203.38	21.12
203.767	27.57
204.154	-3.34
204.54	51.85
204.927	45.99
205.313	-9.53
205.699	50.68
206.086	39.53
206.472	44.91
206.858	16.17
207.245	-75.43
207.631	53.52
208.017	-32.79
208.403	22.54
208.789	35.91
209.175	4.33
209.561	-22.88
209.947	28.54
210.333	14.32
210.719	6.11
211.105	20.25
211.491	36.5
211.876	7.09
212.262	4.36
212.648	12.11
213.034	25.11
213.419	-19.64
213.805	16.16
214.19	-5.68
214.576	29.71
214.961	12.33
215.346	-59.72
215.732	32.09
216.117	39.05
216.502	-3.84
216.888	39.31
217.273	19.25
217.658	10.8
218.043	9
218.428	33.09
218.813	-11.82
219.198	-9.36
219.583	-8.14
219.968	8.02
220.353	-8.37
220.738	17.49
221.122	5.49
221.507	-13.83
221.892	12.67
222.276	-22.95
222.661	16.24
223.046	1.13
223.43	16.1
223.815	21.37
224.199	4.59
224.583	2.58
224.968	15.49
225.352	19.92
225.736	2.71
226.121	-12.78
226.505	11.48
226.889	15.74
227.273	-1.39
227.657	12.27
228.041	9.26
228.425	2.43
228.809	9.59
229.193	9.76
229.577	5.42
229.961	5.93
230.344	5.22
230.728	5.67
231.112	6.03
231.495	5.95
231.879	5.39
232.263	6.34
232.646	4.75
233.03	6.06
233.413	5.27
233.797	6.4
234.18	6.46
234.563	6.18
234.946	5.22
235.33	5.41
235.713	6.6
236.096	5.74
236.479	7.54
236.862	4.65
237.245	7.63
237.628	4.95
238.011	7.1
238.394	5.5
238.777	7.52
239.16	6.34
239.543	5.37
239.925	5.18
240.308	5.7
240.691	6.66
241.073	6.23
241.456	4.45
241.838	5.72
242.221	4.94
242.603	6.57
242.986	6.87
243.368	5.64
243.75	5.91
244.133	5.8
244.515	5.57
244.897	5.97
245.279	6.32
245.661	4.99
246.043	5.41
246.425	4.09
246.807	6.98
247.189	5.48
247.571	5.4
247.953	6.22
248.335	5.97
248.717	5.47
249.098	5.21
249.48	5.19
249.862	5.59
250.243	5.58
250.625	5.31
251.006	5.5
251.388	4.79
251.769	5.37
252.151	5.87
252.532	6.06
252.913	4.6
253.295	4.62
253.676	4.93
254.057	5.3
254.438	5.17
254.819	4.69
255.2	5.05
255.581	5.53
255.962	4.4
256.343	5.1
256.724	5.11
257.105	4.14
257.486	4.51
257.867	6.72
258.247	5.53
258.628	4.96
259.009	5.02
259.389	5.72
259.77	4.33
260.15	4.91
260.531	4.13
260.911	5.86
261.292	5.22
261.672	5.45
262.052	5.09
262.432	5.17
262.813	5.11
263.193	4.77
263.573	5.06
263.953	4.44
264.333	5.28
264.713	4.74
265.093	4.64
265.473	4.38
265.853	4.08
266.233	4.75
266.612	3.38
266.992	3.97
267.372	5.41
267.752	4.65
268.131	4.94
268.511	5.59
268.89	5.72
269.27	4.92
269.649	4.72
270.029	4.72
270.408	5.14
270.787	5.16
271.167	5.5
271.546	5.54
271.925	4.26
272.304	5.31
272.683	4.99
273.062	4.53
273.441	4.74
273.82	4.44
274.199	5.08
274.578	4.77
274.957	4.96
275.336	4.82
275.715	4.55
276.093	4.51
276.472	4.28
276.851	3.84
277.229	4.25
277.608	4.01
277.986	4.31
278.365	4.72
278.743	4.28
279.122	5.02
279.5	4.66
279.878	4.87
280.257	5.42
280.635	4.12
281.013	3.94
281.391	4.94
281.769	5.04
282.147	5.04
282.525	5.48
282.903	4.27
283.281	4.63
283.659	4.63
284.037	4.59
284.415	4.85
284.792	4.44
285.17	3.84
285.548	4.22
285.925	4.18
286.303	4.87
286.68	4.29
287.058	4.54
287.435	4.54
287.813	4.68
288.19	4.61
288.567	4.41
288.945	4.88
289.322	4.5
289.699	4.47
290.076	4.3
290.453	4.56
290.83	4.49
291.207	4.36
291.584	4.97
291.961	4.72
292.338	4.81
292.715	4.96
293.092	4.59
293.469	4.67
293.845	5.38
294.222	4.43
294.599	4.8
294.975	4.41
295.352	4.33
295.728	4.56
296.105	4.82
296.481	4.9
296.858	4.46
297.234	4.19
297.61	4.21
297.986	4.78
298.363	5.18
298.739	4.69
299.115	4.15
299.491	4.5
299.867	4.62
300.243	4.47
300.619	4.33
300.995	4.17
301.371	4.58
301.746	4.46
302.122	4.8
302.498	4.55
302.874	4.95
303.249	4.61
303.625	4.95
304	5.05
304.376	4.73
304.751	4.44
305.127	5.84
305.502	4.09
305.878	3.95
306.253	4.51
306.628	4.96
307.003	5.07
307.378	4.78
307.754	4.61
308.129	4.26
308.504	4.61
308.879	4.49
309.254	4.88
309.629	4.86
310.003	4.74
310.378	4.76
310.753	4.47
311.128	4.73
311.502	4.69
311.877	5.13
312.252	4.15
312.626	5.05
313.001	4.54
313.375	4.84
313.75	4.1
314.124	4.07
314.498	4.59
314.873	4.55
315.247	4.19
315.621	4.16
315.995	4.03
316.369	4.54
316.743	4.79
317.117	4.94
317.491	4.21
317.865	4.69
318.239	5.22
318.613	5.09
318.987	4.55
319.361	4.26
319.734	4.83
320.108	4.54
320.482	4.4
320.855	5.13
321.229	4.85
321.602	4.14
321.976	5.38
322.349	4.18
322.723	4.77
323.096	5
323.469	3.74
323.843	4.49
324.216	4.93
324.589	4.6
324.962	4.52
325.335	4.47
325.708	4.72
326.081	4.52
326.454	4.31
326.827	4.28
327.2	4.93
327.573	4.46
327.945	4.44
328.318	4.79
328.691	4.49
329.063	4.79
329.436	4.67
329.809	5.06
330.181	4.14
330.553	4.71
330.926	4.93
331.298	5.42
331.671	4.61
332.043	5.39
332.415	5.08
332.787	5.11
333.159	5.51
333.532	4.52
333.904	4.04
334.276	4.55
334.648	4.99
335.02	4.66
335.391	4.32
335.763	4.59
336.135	4.33
336.507	4.69
336.879	4.65
337.25	4.1
337.622	4.41
337.993	4.81
338.365	5.09
338.736	4.88
339.108	4.37
339.479	4.1
339.851	5.04
340.222	5.15
340.593	5.06
340.964	4.7
341.336	5.49
341.707	4.21
342.078	4.75
342.449	4.98
342.82	4.7
343.191	5.12
343.562	4.79
343.933	4.84
344.303	4.71
344.674	4.96
345.045	4.8
345.416	5.34
345.786	4.96
346.157	4.95
346.527	4.61
346.898	4.39
347.268	5.1
347.639	4.66
348.009	4.79
348.38	4.69
348.75	4.65
349.12	4.74
349.49	5.35
349.861	4.69
350.231	4.43
350.601	4.73
350.971	5.06
351.341	5.02
351.711	4.95
352.081	4.91
352.45	4.37
352.82	5.18
353.19	4.97
353.56	4.49
353.929	4.9
354.299	5
354.669	4.56
355.038	5.15
355.408	4.73
355.777	5.28
356.147	5.01
356.516	4.62
356.885	4.9
357.254	5.37
357.624	5.34
357.993	4.63
358.362	4.61
358.731	4.24
359.1	4.81
359.469	5
359.838	4.75
360.207	4.56
360.576	4.29
360.945	5.01
361.314	5.49
361.682	4.67
362.051	4.81
362.42	5.23
362.788	4.69
363.157	4.88
363.525	5.12
363.894	5.08
364.262	4.71
364.631	4.94
364.999	5.25
365.367	4.66
365.735	5.79
366.104	4.98
366.472	5.47
366.84	4.58
367.208	4.94
367.576	5.31
367.944	4.84
368.312	5.03
368.68	4.74
369.048	5.32
369.416	4.95
369.783	4.3
370.151	5.04
370.519	5.38
370.886	5.34
371.254	4.82
371.621	4.95
371.989	5.02
372.356	4.66
372.724	4.97
373.091	4.94
373.458	5.09
373.826	5.03
374.193	5.12
374.56	5.33
374.927	5.49
375.294	4.79
375.661	4.85
376.028	5.06
376.395	4.81
376.762	5.44
377.129	4.99
377.496	5.18
377.863	4.91
378.229	4.62
378.596	4.93
378.963	4.73
379.329	5.05
379.696	5.12
380.062	5.15
380.429	4.86
380.795	4.78
381.161	4.93
381.528	5.25
381.894	4.89
382.26	4.87
382.626	5.09
382.993	4.81
383.359	5.51
383.725	5.09
384.091	5.1
384.457	5.36
384.823	5.02
385.188	5.19
385.554	5.3
385.92	5.37
386.286	5.22
386.651	5.04
387.017	5.18
387.383	5.08
387.748	4.86
388.114	5.33
388.479	4.81
388.845	5.29
389.21	5.02
389.575	5.23
389.94	5.14
390.306	5.29
390.671	5.33
391.036	4.8
391.401	4.83
391.766	5
392.131	5.07
392.496	5.46
392.861	5.2
393.226	5.37
393.591	4.97
393.956	5.22
394.32	5.28
394.685	5.13
395.05	4.9
395.414	5.23
395.779	4.98
396.143	5.05
396.508	4.99
396.872	5.4
397.236	5.32
397.601	4.91
397.965	5.03
398.329	5.17
398.694	5.42
399.058	5.02
399.422	4.88
399.786	5.46
400.15	5.25
400.514	5.21
400.878	5.32
401.242	5.4
401.605	5.42
401.969	5.31
402.333	5.25
402.697	4.89
403.06	5.05
403.424	5.34
403.787	5.11
404.151	5.12
404.514	5.44
404.878	5.19
405.241	5.49
405.604	5.06
405.968	5.36
406.331	5.12
406.694	5.34
407.057	5.25
407.42	5.39
407.783	5.07
408.146	5.31
408.509	5.1
408.872	4.89
409.235	5.11
409.598	5.18
409.961	5.05
410.323	5.46
410.686	5.06
411.049	5.23
411.411	5.44
411.774	5.22
412.136	4.97
412.499	5.07
412.861	5.28
413.223	5.26
413.586	5.23
413.948	5.27
414.31	5.13
414.672	5.06
415.035	5.17
415.397	5.51
415.759	5.25
416.121	5.38
416.483	5.37
416.845	5.28
417.206	5.24
417.568	5.31
417.93	5
418.292	5.34
418.653	5.19
419.015	5.26
419.377	5.23
419.738	5.23
420.1	5.31
420.461	5.22
420.822	5.39
421.184	5.15
421.545	5.34
421.906	5.1
422.267	5.15
422.629	5.17
422.99	5.21
423.351	5.02
423.712	5.14
424.073	5.13
424.434	5.16
424.795	5.16
425.155	5.2
425.516	5.24
425.877	5.16
426.238	5.1
426.598	5.27
426.959	5.12
427.32	5.17
427.68	5.1
428.041	5.21
428.401	5.24
428.761	5.08
429.122	5.3
429.482	5.23
429.842	5.32
430.202	5.36
430.563	5.15
430.923	5.39
431.283	5.35
431.643	5.17
432.003	5.29
432.363	5.45
432.722	5.42
433.082	5.46
433.442	5.3
433.802	5.38
434.161	5.31
434.521	5.52
434.881	5.4
435.24	5.11
435.6	5.25
435.959	5.13
436.319	5.51
436.678	5.18
437.037	5.13
437.396	5.27
437.756	5.38
438.115	5.15
438.474	5.46
438.833	5.2
439.192	5.2
439.551	5.32
439.91	5.4
440.269	5.24
440.628	5.31
440.987	5.23
441.345	5.19
441.704	5.31
442.063	5.33
442.421	5.37
442.78	5.29
443.138	5.31
443.497	5.36
443.855	5.24
444.214	5.33
444.572	5.3
444.93	5.37
445.288	5.39
445.647	5.48
446.005	5.32
446.363	5.36
446.721	5.46
447.079	5.18
447.437	5.26
447.795	5.44
448.153	5.19
448.51	5.23
448.868	5.3
449.226	5.28
449.584	5.22
449.941	5.29
450.299	5.31
450.656	5.39
451.014	5.41
451.371	5.36
451.729	5.15
452.086	5.47
452.443	5.34
452.801	5.38
453.158	5.35
453.515	5.25
453.872	5.61
454.229	5.47
454.586	5.46
454.943	5.35
455.3	5.53
455.657	5.34
456.014	5.31
456.371	5.49
456.727	5.53
457.084	5.41
457.441	5.46
457.797	5.37
458.154	5.66
458.51	5.36
458.867	5.49
459.223	5.61
459.58	5.69
459.936	5.67
460.292	5.39
460.648	5.39
461.005	5.49
461.361	5.46
461.717	5.42
462.073	5.31
462.429	5.32
462.785	5.36
463.141	5.36
463.496	5.47
463.852	5.56
464.208	5.39
464.564	5.6
464.919	5.48
465.275	5.54
465.631	5.46
465.986	5.39
466.342	5.56
466.697	5.37
467.052	5.6
467.408	5.45
467.763	5.44
468.118	5.62
468.473	5.46
468.829	5.57
469.184	5.35
469.539	5.58
469.894	5.54
470.249	5.66
470.603	5.61
470.958	5.56
471.313	5.87
471.668	5.62
472.023	5.64
472.377	5.64
472.732	5.49
473.086	5.45
473.441	5.54
473.795	5.64
474.15	5.59
474.504	5.55
474.859	5.6
475.213	5.67
475.567	5.55
475.921	5.49
476.275	5.53
476.63	5.7
476.984	5.71
477.338	5.76
477.692	5.6
478.045	5.51
478.399	5.63
478.753	5.6
479.107	5.73
479.461	5.62
479.814	5.67
480.168	5.69
480.521	5.4
480.875	5.46
481.228	5.54
481.582	5.55
481.935	5.53
482.289	5.58
482.642	5.64
482.995	5.58
483.348	5.46
483.701	5.58
484.055	5.61
484.408	5.59
484.761	5.46
485.114	5.48
485.466	5.3
485.819	5.34
486.172	5.28
486.525	5.25
486.878	5.23
487.23	5.36
487.583	5.4
487.936	5.48
488.288	5.4
488.641	5.52
488.993	5.36
489.345	5.38
489.698	5.42
490.05	5.34
490.402	5.44
490.754	5.35
491.107	5.42
491.459	5.52
491.811	5.51
492.163	5.64
492.515	5.57
492.866	5.68
493.218	5.58
493.57	5.44
493.922	5.43
494.274	5.47
494.625	5.5
494.977	5.64
495.328	5.6
495.68	5.61
496.031	5.9
496.383	5.67
496.734	5.78
497.086	5.7
497.437	5.85
497.788	5.64
498.139	5.7
498.49	5.81
498.842	5.63
499.193	5.73
499.544	5.66
499.894	5.82
500.245	5.77
500.596	5.75
500.947	5.85
501.298	5.63
501.648	5.9
501.999	5.95
502.35	5.78
502.7	5.93
503.051	5.63
503.401	5.71
503.752	5.75
504.102	5.9
504.452	5.79
504.803	5.85
505.153	5.93
505.503	5.89
505.853	5.84
506.203	5.74
506.553	5.89
506.903	5.87
507.253	5.71
507.603	5.78
507.953	5.93
508.303	6.07
508.652	5.72
509.002	5.83
509.352	5.85
509.701	5.89
510.051	5.82
510.4	6
510.75	5.87
511.099	5.99
511.449	5.84
511.798	5.95
512.147	6.05
512.496	5.93
512.846	5.89
513.195	5.9
513.544	5.89
513.893	5.95
514.242	5.74
514.591	6.12
514.939	5.95
515.288	5.87
515.637	5.99
515.986	5.97
516.334	5.89
516.683	6
517.032	6.02
517.38	6.02
517.729	6.1
518.077	5.79
518.426	6.12
518.774	6.08
519.122	6.07
519.47	6.03
519.819	5.93
520.167	5.98
520.515	6.04
520.863	6.11
521.211	6.03
521.559	6.02
521.907	5.94
522.255	6.04
522.602	6.1
522.95	6.03
523.298	6.1
523.645	6.08
523.993	6.1
524.341	6.23
524.688	6.19
525.036	6.21
525.383	6.34
525.73	6.38
526.078	6.27
526.425	6.12
526.772	6.34
527.119	6.22
527.466	6.2
527.814	6.12
528.161	6.11
528.508	6.09
528.854	6.13
529.201	6.06
529.548	6.03
529.895	6.15
530.242	6.02
530.588	6
530.935	6.01
531.282	6.07
531.628	5.96
531.975	6.12
532.321	6.24
532.667	6.28
533.014	6.33
533.36	6.29
533.706	6.35
534.052	6.41
534.399	6.2
534.745	6.28
535.091	6.36
535.437	6.31
535.783	6.33
536.129	6.3
536.474	6.32
536.82	6.28
537.166	6.43
537.512	6.55
537.857	6.53
538.203	6.58
538.549	6.49
538.894	6.48
539.239	6.52
539.585	6.59
539.93	6.36
540.276	6.59
540.621	6.64
540.966	6.66
541.311	6.55
541.656	6.59
542.001	6.77
542.346	6.74
542.691	6.55
543.036	6.59
543.381	6.46
543.726	6.46
544.071	6.54
544.415	6.63
544.76	6.54
545.105	6.68
545.449	6.72
545.794	6.72
546.138	6.62
546.483	6.77
546.827	6.85
547.171	6.85
547.516	6.92
547.86	6.81
548.204	6.81
548.548	6.84
548.892	6.88
549.236	6.83
549.58	6.9
549.924	6.94
550.268	7.09
550.612	7.08
550.956	7.3
551.3	7.1
551.643	7.37
551.987	7.33
552.33	7.17
552.674	7.23
553.017	7.22
553.361	7.2
553.704	7.25
554.048	7.09
554.391	7.31
554.734	7.15
555.077	7.36
555.42	7.15
555.764	7.19
556.107	7.02
556.45	7.21
556.793	7.34
557.135	7.35
557.478	7.65
557.821	7.61
558.164	7.48
558.507	7.6
558.849	7.33
559.192	7.49
559.534	7.66
559.877	7.55
560.219	7.48
560.562	7.66
560.904	7.74
561.246	7.63
561.589	7.7
561.931	7.49
562.273	7.56
562.615	7.79
562.957	7.52
563.299	7.58
563.641	7.83
563.983	7.91
564.325	7.61
564.667	7.67
565.008	7.77
565.35	7.78
565.692	7.71
566.033	7.91
566.375	8.07
566.716	8.29
567.058	7.98
567.399	7.94
567.741	7.86
568.082	7.88
568.423	7.88
568.764	7.89
569.105	8.16
569.447	8.02
569.788	8.09
570.129	8.22
570.47	7.95
570.811	8.29
571.151	8.2
571.492	8.26
571.833	8.28
572.174	8.25
572.514	8.46
572.855	8.26
573.195	8.37
573.536	8.39
573.876	8.31
574.217	8.43
574.557	8.48
574.898	8.57
575.238	8.7
575.578	8.49
575.918	8.66
576.258	8.66
576.598	8.46
576.938	8.43
577.278	8.73
577.618	8.68
577.958	8.67
578.298	8.77
578.638	8.64
578.977	8.65
579.317	8.63
579.657	8.71
579.996	8.84
580.336	9.01
580.675	8.99
581.014	9.17
581.354	8.98
581.693	9.28
582.032	8.83
582.372	9.02
582.711	9.24
583.05	8.92
583.389	9.13
583.728	8.83
584.067	9.19
584.406	9.25
584.745	9.43
585.083	9.41
585.422	9.33
585.761	9.59
586.1	9.71
586.438	9.36
586.777	9.46
587.115	9.32
587.454	9.57
587.792	9.63
588.13	9.86
588.469	9.54
588.807	9.93
589.145	9.48
589.483	9.88
589.821	9.81
590.159	9.89
590.497	9.99
590.835	10.14
591.173	10.13
591.511	10.16
591.849	9.89
592.187	10.06
592.524	10.15
592.862	10.1
593.2	10.14
593.537	10.06
593.875	9.93
594.212	10.05
594.55	10.03
594.887	10.44
595.224	10.22
595.561	10.26
595.899	10.18
596.236	10.21
596.573	10.37
596.91	10.18
597.247	10.1
597.584	10.65
597.921	10.17
598.258	10.38
598.594	10.46
598.931	10.26
599.268	10.6
599.604	10.43
599.941	10.59
600.277	10.72
600.614	10.49
600.95	10.52
601.287	10.72
601.623	10.6
601.959	10.63
602.296	11.1
602.632	10.9
602.968	11.1
603.304	11.11
603.64	11.09
603.976	11.42
604.312	10.86
604.648	11.02
604.984	11.08
605.319	11.1
605.655	11.07
605.991	11.31
606.326	11.31
606.662	11.23
606.998	11.15
607.333	11.26
607.668	11.44
608.004	11.29
608.339	11.58
608.674	11.56
609.01	11.45
609.345	11.21
609.68	11.68
610.015	11.46
610.35	11.49
610.685	11.74
611.02	11.67
611.355	11.82
611.689	11.74
612.024	11.83
612.359	11.75
612.694	11.94
613.028	11.85
613.363	11.96
613.697	12.19
614.032	12.14
614.366	12.42
614.7	12.13
615.035	12.38
615.369	12
615.703	12.32
616.037	12.68
616.371	12.36
616.705	12.23
617.039	12.44
617.373	12.24
617.707	12.46
618.041	12.24
618.375	12.44
618.709	12.41
619.042	12.37
619.376	12.32
619.71	13.07
620.043	12.83
620.377	12.76
620.71	13.08
621.043	12.91
621.377	12.65
621.71	12.81
622.043	12.86
622.376	12.57
622.709	13.28
623.043	13.26
623.376	13.06
623.709	13.07
624.041	13.51
624.374	13.01
624.707	13.21
625.04	13.56
625.373	12.85
625.705	13.13
626.038	13.14
626.37	13.54
626.703	13.05
627.035	13.51
627.368	13.85
627.7	13.64
628.032	13.61
628.365	14.03
628.697	13.63
629.029	13.53
629.361	13.68
629.693	13.44
630.025	13.78
630.357	14.12
630.689	13.86
631.021	13.89
631.353	14.02
631.684	14.08
632.016	14.01
632.348	14.54
632.679	14.03
633.011	14.42
633.342	14.55
633.674	13.94
634.005	14.66
634.336	14.08
634.668	15.09
634.999	14.2
635.33	14.76
635.661	14.49
635.992	14.44
636.323	14.48
636.654	14.73
636.985	14.52
637.316	14.28
637.647	14.67
637.977	14.91
638.308	14.85
638.639	14.57
638.969	15.01
639.3	15.04
639.63	14.81
639.961	14.96
640.291	15.26
640.622	15.21
640.952	15.14
641.282	15.16
641.612	15.41
641.943	15.02
642.273	14.98
642.603	15.53
642.933	15.83
643.263	15.99
643.592	15.27
643.922	15.63
644.252	15.82
644.582	15.8
644.911	15.44
645.241	15.94
645.571	15.44
645.9	15.39
646.23	15.47
646.559	16.09
646.888	15.52
647.218	15.85
647.547	15.82
647.876	15.36
648.205	15.87
648.534	15.95
648.863	15.53
649.192	16.61
649.521	16.31
649.85	16.21
650.179	15.92
650.508	16.1
650.837	15.84
651.165	16.1
651.494	15.96
651.822	16.46
652.151	16.41
652.479	16.32
652.808	16.08
653.136	16.9
653.465	16.21
653.793	16.15
654.121	16.32
654.449	16.83
654.777	16.82
655.105	17.19
655.433	16.38
655.761	16.63
656.089	17.28
656.417	16.46
656.745	16.47
657.073	16.9
657.4	17.92
657.728	17.71
658.056	16.92
658.383	17.13
658.711	17.32
659.038	17.47
659.365	17.82
659.693	17.6
660.02	17.16
660.347	17.21
660.674	17.32
661.001	17.53
661.329	16.99
661.656	17.33
661.982	17.33
662.309	17.64
662.636	17.21
662.963	17.92
663.29	17.91
663.616	17.99
663.943	17.7
664.27	17.8
664.596	18.21
664.923	17.66
665.249	17.67
665.576	18.11
665.902	18.89
666.228	18.49
666.554	17.98
666.881	18.44
667.207	18.47
667.533	18.69
667.859	18.8
668.185	18.57
668.511	18.2
668.837	17.89
669.162	18.45
669.488	18.12
669.814	18.96
670.139	19.22
670.465	19.32
670.791	18.92
671.116	19.81
671.442	19.09
671.767	18.96
672.092	19.1
672.418	19.14
672.743	19.28
673.068	19.07
673.393	19.5
673.718	19.76
674.043	19.59
674.368	18.98
674.693	19.73
675.018	19.41
675.343	18.85
675.667	19.43
675.992	19.9
676.317	20.16
676.641	20.19
676.966	20.1
677.29	19.88
677.615	20.28
677.939	19.64
678.264	20.55
678.588	20.08
678.912	19.84
679.236	20.59
679.56	19.75
679.885	21
680.209	20.13
680.532	20.03
680.856	20.95
681.18	20
681.504	20.5
681.828	20.78
682.152	20.43
682.475	21.03
682.799	21.01
683.122	20.5
683.446	20.63
683.769	21.05
684.093	20.43
684.416	21.13
684.739	20.06
685.062	20.64
685.386	21.03
685.709	20.1
