Data from 0371_crown_Reflection__4__178.txt Node

Date: Fri Dec 15 18:08:34 CST 2023
User: ToomeyLab
Spectrometer: FLMS14357
Trigger mode: 0
Integration Time (sec): 1.000000E-2
Scans to average: 100
Electric dark correction enabled: true
Nonlinearity correction enabled: false
Boxcar width: 0
XAxis mode: Wavelengths
Number of Pixels in Spectrum: 2048
>>>>>Begin Spectral Data<<<<<
189.047	-332.46
189.435	-332.46
189.823	-332.46
190.211	130.94
190.599	-97.72
190.987	49.32
191.375	40.84
191.763	9.24
192.151	90.7
192.538	153.63
192.926	201.4
193.314	181.29
193.702	76.51
194.089	8.8
194.477	110.88
194.864	33.3
195.252	143.14
195.639	127.77
196.027	-11.28
196.414	674.89
196.801	221.82
197.189	265.65
197.576	151.03
197.963	-124.58
198.351	-69.82
198.738	20.03
199.125	33.83
199.512	-34.39
199.899	-5.31
200.286	42.45
200.673	-24.89
201.06	-42.2
201.447	-60.92
201.833	8.03
202.22	12.85
202.607	31.62
202.994	-9.22
203.38	25.25
203.767	32.65
204.154	-1.07
204.54	62.28
204.927	-29.24
205.313	-111.02
205.699	57.7
206.086	24.3
206.472	20.84
206.858	16.35
207.245	-117.57
207.631	24
208.017	6.4
208.403	6.42
208.789	45.66
209.175	-11.6
209.561	-18.49
209.947	5.68
210.333	57.97
210.719	-19.45
211.105	31.73
211.491	-10.91
211.876	19.15
212.262	17.11
212.648	0.92
213.034	7.37
213.419	-30.91
213.805	39.1
214.19	3.5
214.576	-5.14
214.961	-2.64
215.346	-86.14
215.732	3.3
216.117	-9.36
216.502	9.94
216.888	50.6
217.273	25.28
217.658	20.85
218.043	40.91
218.428	-27.45
218.813	-4.27
219.198	-4.05
219.583	-9.28
219.968	17.9
220.353	-8.69
220.738	35.29
221.122	5.55
221.507	-3.71
221.892	-29.33
222.276	-43.68
222.661	-8.49
223.046	0.68
223.43	14.38
223.815	6.56
224.199	-3.69
224.583	-7.81
224.968	-2.18
225.352	15.48
225.736	-14.83
226.121	2.32
226.505	1.61
226.889	10.64
227.273	10.63
227.657	13.67
228.041	7.94
228.425	7.43
228.809	12.52
229.193	10.96
229.577	8.19
229.961	9.2
230.344	9.17
230.728	8.35
231.112	10.28
231.495	9.16
231.879	8.68
232.263	10.37
232.646	9.7
233.03	8.21
233.413	7.51
233.797	6.35
234.18	7.48
234.563	9.81
234.946	6.25
235.33	9.3
235.713	8.39
236.096	7.99
236.479	8.08
236.862	8.32
237.245	10.86
237.628	7.84
238.011	7.84
238.394	9.77
238.777	7.86
239.16	7.53
239.543	7.2
239.925	10.05
240.308	8.48
240.691	8.8
241.073	9.83
241.456	8.01
241.838	8.61
242.221	8.09
242.603	9.21
242.986	8.63
243.368	9
243.75	8.41
244.133	8.53
244.515	8.52
244.897	8.51
245.279	8.44
245.661	8.13
246.043	6.61
246.425	8.95
246.807	8.31
247.189	9.13
247.571	7.99
247.953	8.79
248.335	7.97
248.717	8.33
249.098	8.12
249.48	8.23
249.862	7.75
250.243	8.27
250.625	8.14
251.006	8.08
251.388	7.09
251.769	8.08
252.151	8.23
252.532	7.93
252.913	6.8
253.295	7.57
253.676	7.79
254.057	8.01
254.438	7.36
254.819	7.34
255.2	6.96
255.581	7.74
255.962	6.04
256.343	7.79
256.724	6
257.105	6.71
257.486	7.14
257.867	6.6
258.247	6.19
258.628	6.62
259.009	6.46
259.389	7.04
259.77	7.62
260.15	6.75
260.531	7.22
260.911	7.67
261.292	7.23
261.672	7.4
262.052	7.58
262.432	7.24
262.813	7.32
263.193	7.04
263.573	7.31
263.953	6.76
264.333	7.71
264.713	6.81
265.093	6.77
265.473	6.96
265.853	7.08
266.233	7.07
266.612	5.48
266.992	5.1
267.372	6.43
267.752	6.96
268.131	6.78
268.511	7.65
268.89	6.96
269.27	7.06
269.649	6.48
270.029	6.61
270.408	7.5
270.787	7.49
271.167	7.49
271.546	7.01
271.925	6.01
272.304	6.84
272.683	6.85
273.062	6.42
273.441	6.78
273.82	5.91
274.199	6.44
274.578	6.61
274.957	6.62
275.336	6.84
275.715	5.72
276.093	6.09
276.472	6.51
276.851	6.14
277.229	5.54
277.608	6.13
277.986	6.39
278.365	6.27
278.743	6.03
279.122	6.35
279.5	6.82
279.878	6.84
280.257	6.68
280.635	5.54
281.013	6.47
281.391	6.63
281.769	6.53
282.147	6.89
282.525	6.68
282.903	6.51
283.281	7.03
283.659	7.07
284.037	6.49
284.415	6.35
284.792	6.78
285.17	5.26
285.548	6.38
285.925	6.2
286.303	6.64
286.68	6.58
287.058	6.48
287.435	6.11
287.813	6.53
288.19	5.96
288.567	6.25
288.945	6.74
289.322	6.36
289.699	6.45
290.076	6.14
290.453	6.53
290.83	5.89
291.207	5.79
291.584	6.03
291.961	6.23
292.338	6.05
292.715	6.3
293.092	6.29
293.469	5.67
293.845	6.84
294.222	5.6
294.599	6.02
294.975	5.71
295.352	6.09
295.728	5.22
296.105	5.86
296.481	6.23
296.858	6.25
297.234	6.33
297.61	5.98
297.986	5.98
298.363	6.32
298.739	6.2
299.115	5.97
299.491	5.8
299.867	6.14
300.243	6.02
300.619	5.81
300.995	5.96
301.371	6.14
301.746	5.63
302.122	5.74
302.498	5.99
302.874	6.01
303.249	5.78
303.625	6.08
304	6.5
304.376	6.04
304.751	5.46
305.127	7.36
305.502	5.36
305.878	5.48
306.253	5.93
306.628	5.88
307.003	5.95
307.378	6.11
307.754	6.36
308.129	5.26
308.504	5.78
308.879	5.75
309.254	6.53
309.629	6.17
310.003	5.61
310.378	6.25
310.753	6.18
311.128	5.92
311.502	6.11
311.877	6.39
312.252	5.57
312.626	6.04
313.001	6.07
313.375	6.16
313.75	5.7
314.124	6.19
314.498	5.78
314.873	5.91
315.247	5.78
315.621	6.2
315.995	5.31
316.369	5.53
316.743	5.43
317.117	6.11
317.491	5.14
317.865	5.78
318.239	6.22
318.613	6.07
318.987	5.94
319.361	5.4
319.734	5.86
320.108	6.38
320.482	5.43
320.855	6.01
321.229	5.84
321.602	6.34
321.976	5.84
322.349	5.51
322.723	5.81
323.096	6.17
323.469	5.58
323.843	6.09
324.216	6.29
324.589	5.66
324.962	6.38
325.335	6.13
325.708	5.82
326.081	5.63
326.454	6.57
326.827	5.94
327.2	5.56
327.573	5.96
327.945	6.03
328.318	6.09
328.691	5.37
329.063	6.21
329.436	5.71
329.809	6.21
330.181	5.06
330.553	6.11
330.926	5.63
331.298	6.47
331.671	5.7
332.043	6.26
332.415	6.38
332.787	6.36
333.159	6.85
333.532	5.91
333.904	6.18
334.276	5.89
334.648	6.28
335.02	5.78
335.391	6.04
335.763	5.98
336.135	6.03
336.507	6.6
336.879	6.2
337.25	5.47
337.622	6.45
337.993	6.3
338.365	6.03
338.736	6.24
339.108	6.37
339.479	5.92
339.851	6.32
340.222	5.82
340.593	6.49
340.964	5.74
341.336	7.19
341.707	6.01
342.078	6.29
342.449	6.44
342.82	6.33
343.191	6.08
343.562	6.14
343.933	5.99
344.303	5.76
344.674	6.68
345.045	6.72
345.416	6.36
345.786	5.7
346.157	6.44
346.527	5.57
346.898	5.77
347.268	6.55
347.639	6.39
348.009	6.74
348.38	5.9
348.75	6.16
349.12	6.48
349.49	6.94
349.861	6.58
350.231	5.79
350.601	6.34
350.971	7.01
351.341	6.59
351.711	6.58
352.081	6.5
352.45	6.43
352.82	6.28
353.19	6.31
353.56	6.64
353.929	6.59
354.299	6.12
354.669	6.67
355.038	7.22
355.408	6.27
355.777	6.75
356.147	6.62
356.516	6.37
356.885	6.47
357.254	6.33
357.624	6.87
357.993	6.84
358.362	6.33
358.731	6.28
359.1	6.46
359.469	6.77
359.838	6.68
360.207	6.53
360.576	6.79
360.945	6.69
361.314	7.12
361.682	6.74
362.051	6.69
362.42	6.76
362.788	6.68
363.157	6.48
363.525	7.02
363.894	6.77
364.262	6.77
364.631	6.62
364.999	6.67
365.367	6.27
365.735	7.24
366.104	6.75
366.472	7.28
366.84	6.44
367.208	6.83
367.576	6.96
367.944	6.97
368.312	6.55
368.68	6.6
369.048	6.96
369.416	7.06
369.783	6.52
370.151	6.95
370.519	7.56
370.886	7.66
371.254	6.54
371.621	7.21
371.989	7.2
372.356	6.45
372.724	7.07
373.091	6.77
373.458	6.84
373.826	6.86
374.193	6.93
374.56	6.93
374.927	7.18
375.294	7.08
375.661	7.2
376.028	6.92
376.395	7.16
376.762	7.49
377.129	6.94
377.496	6.93
377.863	7.07
378.229	6.87
378.596	7.12
378.963	7.11
379.329	7.11
379.696	7.25
380.062	7.2
380.429	7.2
380.795	7.11
381.161	7.33
381.528	7.06
381.894	7.17
382.26	6.76
382.626	7.38
382.993	6.63
383.359	7.28
383.725	7.06
384.091	7.18
384.457	7.64
384.823	7.16
385.188	7.28
385.554	7.18
385.92	7.71
386.286	7.38
386.651	7.43
387.017	7.78
387.383	7.24
387.748	7.32
388.114	7.39
388.479	7.02
388.845	7.47
389.21	7.33
389.575	7.48
389.94	7.44
390.306	7.38
390.671	7.66
391.036	6.78
391.401	7.02
391.766	7.26
392.131	7.61
392.496	7.52
392.861	7.55
393.226	7.52
393.591	7.56
393.956	7.16
394.32	7.43
394.685	7.37
395.05	7.35
395.414	7.38
395.779	7.29
396.143	7.58
396.508	7.46
396.872	7.51
397.236	7.82
397.601	7.13
397.965	7.52
398.329	7.51
398.694	7.88
399.058	7.68
399.422	7.24
399.786	7.67
400.15	7.68
400.514	7.37
400.878	7.5
401.242	7.93
401.605	7.36
401.969	7.55
402.333	7.54
402.697	7.57
403.06	7.67
403.424	7.66
403.787	7.33
404.151	7.64
404.514	7.61
404.878	7.45
405.241	7.79
405.604	7.7
405.968	7.61
406.331	7.66
406.694	7.96
407.057	7.43
407.42	7.83
407.783	7.38
408.146	7.65
408.509	7.65
408.872	7.53
409.235	7.69
409.598	7.97
409.961	7.73
410.323	7.87
410.686	7.71
411.049	7.53
411.411	7.71
411.774	7.85
412.136	7.63
412.499	7.42
412.861	7.53
413.223	7.69
413.586	7.55
413.948	7.61
414.31	7.66
414.672	7.81
415.035	7.47
415.397	7.96
415.759	7.59
416.121	7.94
416.483	7.6
416.845	7.91
417.206	7.56
417.568	7.95
417.93	7.6
418.292	7.4
418.653	7.65
419.015	7.99
419.377	7.7
419.738	7.74
420.1	7.73
420.461	7.7
420.822	7.72
421.184	7.56
421.545	7.66
421.906	7.49
422.267	7.61
422.629	7.55
422.99	7.55
423.351	7.54
423.712	7.54
424.073	7.56
424.434	7.61
424.795	7.57
425.155	7.78
425.516	7.57
425.877	7.65
426.238	7.47
426.598	7.64
426.959	7.59
427.32	7.62
427.68	7.69
428.041	7.68
428.401	7.67
428.761	7.72
429.122	7.75
429.482	7.62
429.842	8.15
430.202	7.91
430.563	7.63
430.923	7.72
431.283	7.9
431.643	7.95
432.003	7.48
432.363	8.03
432.722	7.8
433.082	7.93
433.442	7.67
433.802	7.88
434.161	7.81
434.521	8.18
434.881	7.84
435.24	7.67
435.6	7.6
435.959	7.78
436.319	7.75
436.678	7.85
437.037	7.49
437.396	7.82
437.756	7.85
438.115	7.57
438.474	7.9
438.833	7.56
439.192	7.7
439.551	8.05
439.91	7.76
440.269	8.02
440.628	7.91
440.987	7.88
441.345	7.55
441.704	7.86
442.063	7.71
442.421	7.83
442.78	7.79
443.138	7.72
443.497	7.7
443.855	7.64
444.214	7.81
444.572	7.8
444.93	7.9
445.288	7.82
445.647	7.87
446.005	7.88
446.363	7.76
446.721	7.86
447.079	7.6
447.437	7.73
447.795	7.98
448.153	7.6
448.51	7.79
448.868	7.81
449.226	7.69
449.584	7.68
449.941	7.84
450.299	7.78
450.656	7.82
451.014	7.69
451.371	7.72
451.729	7.69
452.086	8.13
452.443	7.91
452.801	8.02
453.158	7.81
453.515	7.67
453.872	7.94
454.229	7.75
454.586	7.7
454.943	7.84
455.3	7.93
455.657	7.73
456.014	7.85
456.371	7.88
456.727	7.79
457.084	8.06
457.441	8.02
457.797	7.83
458.154	7.88
458.51	7.96
458.867	8.08
459.223	8.18
459.58	8.05
459.936	7.93
460.292	7.92
460.648	7.85
461.005	7.64
461.361	7.78
461.717	7.82
462.073	7.65
462.429	7.7
462.785	7.77
463.141	7.7
463.496	7.77
463.852	7.97
464.208	7.94
464.564	8.03
464.919	7.72
465.275	8.06
465.631	8.06
465.986	7.97
466.342	7.82
466.697	7.71
467.052	8
467.408	7.98
467.763	7.88
468.118	7.85
468.473	7.77
468.829	7.97
469.184	8.02
469.539	7.83
469.894	7.74
470.249	8.05
470.603	7.92
470.958	7.97
471.313	8.05
471.668	7.96
472.023	7.95
472.377	7.73
472.732	7.83
473.086	7.82
473.441	7.66
473.795	8.02
474.15	7.81
474.504	7.97
474.859	8.13
475.213	7.7
475.567	7.98
475.921	7.78
476.275	7.88
476.63	7.94
476.984	7.92
477.338	7.8
477.692	7.76
478.045	7.88
478.399	7.9
478.753	7.91
479.107	7.83
479.461	7.84
479.814	7.69
480.168	7.85
480.521	7.91
480.875	7.77
481.228	7.86
481.582	7.9
481.935	7.81
482.289	7.98
482.642	7.86
482.995	7.87
483.348	7.79
483.701	7.82
484.055	7.9
484.408	7.83
484.761	7.74
485.114	7.59
485.466	7.51
485.819	7.44
486.172	7.4
486.525	7.38
486.878	7.44
487.23	7.42
487.583	7.6
487.936	7.58
488.288	7.61
488.641	7.67
488.993	7.51
489.345	7.49
489.698	7.55
490.05	7.41
490.402	7.45
490.754	7.5
491.107	7.6
491.459	7.63
491.811	7.65
492.163	7.73
492.515	7.68
492.866	7.71
493.218	7.64
493.57	7.56
493.922	7.56
494.274	7.58
494.625	7.53
494.977	7.68
495.328	7.76
495.68	7.73
496.031	7.98
496.383	7.86
496.734	7.96
497.086	7.86
497.437	7.86
497.788	7.74
498.139	7.87
498.49	7.8
498.842	7.72
499.193	7.74
499.544	7.73
499.894	7.83
500.245	7.79
500.596	7.69
500.947	7.85
501.298	7.69
501.648	7.8
501.999	8
502.35	7.8
502.7	7.78
503.051	7.57
503.401	7.76
503.752	8.16
504.102	7.74
504.452	7.98
504.803	7.89
505.153	7.74
505.503	7.82
505.853	7.84
506.203	7.78
506.553	7.68
506.903	7.86
507.253	7.83
507.603	7.73
507.953	7.89
508.303	7.89
508.652	7.74
509.002	7.81
509.352	7.91
509.701	7.86
510.051	7.74
510.4	7.85
510.75	7.69
511.099	7.89
511.449	7.72
511.798	7.75
512.147	7.77
512.496	7.75
512.846	7.81
513.195	7.82
513.544	7.67
513.893	7.88
514.242	7.81
514.591	7.9
514.939	7.82
515.288	7.82
515.637	7.91
515.986	7.85
516.334	7.93
516.683	7.88
517.032	7.76
517.38	7.82
517.729	7.78
518.077	7.72
518.426	7.92
518.774	7.82
519.122	7.66
519.47	7.9
519.819	7.6
520.167	7.75
520.515	7.77
520.863	7.77
521.211	7.75
521.559	7.75
521.907	7.64
522.255	7.77
522.602	7.84
522.95	7.63
523.298	7.82
523.645	7.85
523.993	7.83
524.341	7.95
524.688	7.96
525.036	7.85
525.383	7.82
525.73	7.96
526.078	7.77
526.425	7.8
526.772	7.87
527.119	7.76
527.466	7.73
527.814	7.7
528.161	7.65
528.508	7.77
528.854	7.62
529.201	7.66
529.548	7.63
529.895	7.59
530.242	7.49
530.588	7.44
530.935	7.47
531.282	7.5
531.628	7.48
531.975	7.5
532.321	7.65
532.667	7.69
533.014	7.76
533.36	7.81
533.706	7.81
534.052	7.73
534.399	7.68
534.745	7.67
535.091	7.62
535.437	7.62
535.783	7.67
536.129	7.62
536.474	7.51
536.82	7.64
537.166	7.72
537.512	7.72
537.857	7.73
538.203	7.77
538.549	7.67
538.894	7.68
539.239	7.7
539.585	7.79
539.93	7.78
540.276	7.78
540.621	7.91
540.966	7.82
541.311	7.75
541.656	7.68
542.001	7.68
542.346	7.72
542.691	7.63
543.036	7.65
543.381	7.57
543.726	7.54
544.071	7.61
544.415	7.6
544.76	7.56
545.105	7.68
545.449	7.64
545.794	7.82
546.138	7.64
546.483	7.75
546.827	7.81
547.171	7.7
547.516	7.99
547.86	7.76
548.204	7.75
548.548	7.69
548.892	7.75
549.236	7.82
549.58	7.7
549.924	7.83
550.268	7.95
550.612	7.82
550.956	8.02
551.3	8.03
551.643	7.87
551.987	7.97
552.33	7.88
552.674	7.82
553.017	8.03
553.361	7.83
553.704	8
554.048	7.9
554.391	7.76
554.734	7.91
555.077	7.84
555.42	7.73
555.764	7.77
556.107	7.79
556.45	7.67
556.793	7.59
557.135	7.66
557.478	7.93
557.821	8.11
558.164	7.82
558.507	7.76
558.849	7.64
559.192	8.02
559.534	7.95
559.877	8.01
560.219	7.59
560.562	7.95
560.904	7.88
561.246	8.16
561.589	7.84
561.931	7.96
562.273	7.68
562.615	7.87
562.957	8.07
563.299	7.78
563.641	7.89
563.983	7.96
564.325	7.75
564.667	7.72
565.008	7.94
565.35	7.85
565.692	7.71
566.033	7.84
566.375	8.04
566.716	8.01
567.058	7.73
567.399	7.79
567.741	7.6
568.082	7.66
568.423	7.84
568.764	7.61
569.105	7.89
569.447	7.82
569.788	7.79
570.129	7.96
570.47	7.61
570.811	7.99
571.151	7.99
571.492	7.7
571.833	7.81
572.174	7.83
572.514	7.87
572.855	7.64
573.195	7.67
573.536	7.69
573.876	7.63
574.217	7.64
574.557	7.75
574.898	7.8
575.238	7.79
575.578	7.81
575.918	7.84
576.258	7.73
576.598	7.76
576.938	7.85
577.278	7.71
577.618	7.71
577.958	7.62
578.298	7.61
578.638	7.72
578.977	7.66
579.317	7.74
579.657	7.78
579.996	7.9
580.336	7.82
580.675	7.76
581.014	7.76
581.354	7.94
581.693	7.94
582.032	7.62
582.372	7.64
582.711	7.9
583.05	7.64
583.389	7.76
583.728	7.67
584.067	7.77
584.406	7.9
584.745	7.9
585.083	7.97
585.422	7.56
585.761	7.91
586.1	7.82
586.438	7.74
586.777	7.9
587.115	7.98
587.454	7.64
587.792	7.43
588.13	7.73
588.469	7.47
588.807	7.86
589.145	7.69
589.483	7.75
589.821	7.65
590.159	7.64
590.497	7.83
590.835	8.02
591.173	7.51
591.511	7.88
591.849	7.63
592.187	7.62
592.524	7.71
592.862	7.66
593.2	7.75
593.537	7.85
593.875	7.26
594.212	7.54
594.55	7.68
594.887	7.99
595.224	7.74
595.561	7.76
595.899	7.65
596.236	7.78
596.573	7.81
596.91	7.27
597.247	7.19
597.584	7.81
597.921	7.6
598.258	7.52
598.594	7.53
598.931	7.71
599.268	7.71
599.604	7.59
599.941	7.7
600.277	7.61
600.614	7.51
600.95	7.53
601.287	7.6
601.623	7.7
601.959	7.54
602.296	7.72
602.632	7.5
602.968	7.78
603.304	7.66
603.64	7.86
603.976	7.88
604.312	7.45
604.648	7.43
604.984	7.56
605.319	7.58
605.655	7.73
605.991	7.4
606.326	7.43
606.662	7.55
606.998	7.37
607.333	7.33
607.668	7.48
608.004	7.57
608.339	7.92
608.674	7.57
609.01	7.56
609.345	7.52
609.68	7.65
610.015	7.57
610.35	7.47
610.685	7.52
611.02	7.36
611.355	7.73
611.689	7.36
612.024	7.52
612.359	7.55
612.694	7.57
613.028	7.45
613.363	7.71
613.697	7.8
614.032	7.54
614.366	7.5
614.7	7.62
615.035	7.91
615.369	7.6
615.703	7.34
616.037	7.67
616.371	7.19
616.705	7.48
617.039	7.34
617.373	7.59
617.707	7.54
618.041	7.35
618.375	7.61
618.709	7.71
619.042	7.05
619.376	7.64
619.71	7.63
620.043	7.21
620.377	7.43
620.71	7.77
621.043	7.5
621.377	7.16
621.71	7.75
622.043	7.5
622.376	7.02
622.709	7.62
623.043	7.9
623.376	7.47
623.709	7.26
624.041	8.02
624.374	7.52
624.707	7.3
625.04	7.99
625.373	7.29
625.705	7.01
626.038	7.56
626.37	7.46
626.703	7.38
627.035	7.56
627.368	8.17
627.7	7.65
628.032	7.42
628.365	7.73
628.697	7.3
629.029	7.19
629.361	7.32
629.693	7.42
630.025	7.41
630.357	7.47
630.689	7.68
631.021	7.59
631.353	7.68
631.684	7.5
632.016	7.27
632.348	7.7
632.679	7.81
633.011	7.82
633.342	7.73
633.674	7.5
634.005	7.62
634.336	7.56
634.668	7.96
634.999	7.04
635.33	7.66
635.661	7.53
635.992	7.27
636.323	7.7
636.654	7.53
636.985	7.3
637.316	7.06
637.647	7.17
637.977	7.5
638.308	7.44
638.639	7.3
638.969	7.33
639.3	7.62
639.63	7.3
639.961	7.43
640.291	7.44
640.622	7.99
640.952	7.35
641.282	8.11
641.612	7.67
641.943	7.69
642.273	7.45
642.603	7.93
642.933	7.61
643.263	7.45
643.592	7.63
643.922	7.18
644.252	7.2
644.582	7.58
644.911	7.61
645.241	7.67
645.571	7.48
645.9	7.14
646.23	7.69
646.559	7.32
646.888	7.22
647.218	7.17
647.547	8.15
647.876	7.13
648.205	7.91
648.534	7.49
648.863	6.94
649.192	7.17
649.521	7.34
649.85	7.18
650.179	7.66
650.508	7.27
650.837	7.59
651.165	6.57
651.494	7.51
651.822	7.03
652.151	7.02
652.479	7.39
652.808	7
653.136	7.2
653.465	6.76
653.793	7.21
654.121	7.04
654.449	7.35
654.777	7.76
655.105	7.4
655.433	7.1
655.761	7.1
656.089	7.43
656.417	8.01
656.745	7.5
657.073	7.27
657.4	8.12
657.728	7.1
658.056	7.49
658.383	7.29
658.711	7.15
659.038	7.6
659.365	7.67
659.693	7.08
660.02	7.51
660.347	7.1
660.674	7.33
661.001	7.38
661.329	6.68
661.656	7.46
661.982	7.45
662.309	7.26
662.636	6.9
662.963	7.45
663.29	7.89
663.616	7.69
663.943	6.95
664.27	7.08
664.596	7.65
664.923	7.9
665.249	7.24
665.576	7.39
665.902	7.71
666.228	7.57
666.554	8.22
666.881	7.95
667.207	7.31
667.533	7.58
667.859	7.7
668.185	8.14
668.511	6.5
668.837	6.54
669.162	7.58
669.488	6.96
669.814	7.58
670.139	7.75
670.465	7.34
670.791	7.44
671.116	8.36
671.442	7.3
671.767	7.59
672.092	7.61
672.418	8.05
672.743	7.94
673.068	7.18
673.393	7.29
673.718	6.93
674.043	7.41
674.368	7.78
674.693	8.38
675.018	7.46
675.343	7.24
675.667	7.44
675.992	7.42
676.317	7.49
676.641	8.07
676.966	7.81
677.29	7.71
677.615	7.47
677.939	7.24
678.264	8.07
678.588	8.07
678.912	8.04
679.236	7.8
679.56	6.35
679.885	8.41
680.209	7.32
680.532	7.99
680.856	7.85
681.18	7.41
681.504	7.7
681.828	7.96
682.152	7.42
682.475	7.15
682.799	7.78
683.122	7.38
683.446	6.85
683.769	8.57
684.093	7.06
684.416	7.54
684.739	7.48
685.062	7.47
685.386	8.12
685.709	7.42
686.032	7.28
686.355	7.77
686.678	8.1
687.001	8.71
687.324	7.98
687.646	7.42
687.969	7.84
688.292	7.19
688.614	7.64
688.937	8.31
689.26	7.7
689.582	7.77
689.904	7.8
690.227	8.01
690.549	7.44
690.871	8.03
691.194	7.14
691.516	7.42
691.838	8.2
692.16	7.36
