Data from 0371_crown_Reflection__0__174.txt Node

Date: Fri Dec 15 18:07:54 CST 2023
User: ToomeyLab
Spectrometer: FLMS14357
Trigger mode: 0
Integration Time (sec): 1.000000E-2
Scans to average: 100
Electric dark correction enabled: true
Nonlinearity correction enabled: false
Boxcar width: 0
XAxis mode: Wavelengths
Number of Pixels in Spectrum: 2048
>>>>>Begin Spectral Data<<<<<
189.047	-231.77
189.435	-231.77
189.823	-231.77
190.211	30
190.599	292.21
190.987	116.38
191.375	-321.38
191.763	98.46
192.151	16.25
192.538	116.76
192.926	39.46
193.314	79.35
193.702	176.14
194.089	-97.82
194.477	-66.68
194.864	68.9
195.252	166.96
195.639	117.34
196.027	537.94
196.414	135.28
196.801	37.02
197.189	121.02
197.576	61.57
197.963	47.9
198.351	-101.77
198.738	19.2
199.125	2.23
199.512	33.23
199.899	29.48
200.286	21.97
200.673	-18.06
201.06	-41.98
201.447	-37.06
201.833	-6.31
202.22	3.96
202.607	17.02
202.994	2.68
203.38	34.87
203.767	0.89
204.154	29.37
204.54	58.06
204.927	-51.29
205.313	-61.2
205.699	70.62
206.086	18.3
206.472	13.61
206.858	2.37
207.245	-131.06
207.631	8.12
208.017	25.67
208.403	-64.18
208.789	26.51
209.175	-2.44
209.561	-36.67
209.947	6.37
210.333	-90.89
210.719	5.47
211.105	33.56
211.491	-34.7
211.876	0.64
212.262	13.89
212.648	-15.79
213.034	11.63
213.419	-32.96
213.805	25.18
214.19	-35.42
214.576	-24.22
214.961	-17.98
215.346	-113.33
215.732	-17.26
216.117	8.86
216.502	-3.77
216.888	-27.69
217.273	-0.72
217.658	-19.52
218.043	2.98
218.428	0.37
218.813	-22.83
219.198	-20.5
219.583	27.44
219.968	-31.93
220.353	-14.51
220.738	29.81
221.122	-24.34
221.507	-13.32
221.892	-41.59
222.276	-13.4
222.661	-3.51
223.046	16.68
223.43	11.39
223.815	18.05
224.199	-6.36
224.583	-10.33
224.968	2.5
225.352	17.49
225.736	1.82
226.121	-13
226.505	-2.32
226.889	6.74
227.273	-5.03
227.657	11.68
228.041	8.83
228.425	6.27
228.809	8.92
229.193	8.11
229.577	10.16
229.961	7.97
230.344	8.84
230.728	7.5
231.112	9.34
231.495	9.09
231.879	7.88
232.263	9.68
232.646	8.11
233.03	7.94
233.413	7.22
233.797	9.49
234.18	5.12
234.563	8.46
234.946	5.55
235.33	10.04
235.713	6.65
236.096	7.82
236.479	7.14
236.862	6.37
237.245	9.88
237.628	8.92
238.011	7.53
238.394	9.08
238.777	7.91
239.16	4.42
239.543	9.17
239.925	6.61
240.308	7.49
240.691	8.36
241.073	8.34
241.456	8.08
241.838	8.26
242.221	7.71
242.603	8.01
242.986	7.05
243.368	7.37
243.75	8.08
244.133	7.88
244.515	8.07
244.897	8
245.279	7.74
245.661	7.68
246.043	6.97
246.425	6.7
246.807	7.89
247.189	9.35
247.571	7.69
247.953	7.57
248.335	7.81
248.717	7.88
249.098	7.58
249.48	7.8
249.862	7.4
250.243	7.7
250.625	7.57
251.006	7.2
251.388	6.2
251.769	6.66
252.151	8.77
252.532	5.99
252.913	6.79
253.295	6.89
253.676	7.53
254.057	7.28
254.438	7.85
254.819	6.95
255.2	6.7
255.581	6.19
255.962	5.8
256.343	7.44
256.724	5.57
257.105	7.07
257.486	7.49
257.867	6.48
258.247	6.76
258.628	6.35
259.009	6
259.389	6.96
259.77	6.54
260.15	5.66
260.531	6.24
260.911	7.16
261.292	6.8
261.672	7.19
262.052	6.99
262.432	7.22
262.813	6.98
263.193	6.35
263.573	6.05
263.953	6.71
264.333	7.24
264.713	6.66
265.093	6.06
265.473	6.36
265.853	5.55
266.233	6.73
266.612	4.31
266.992	4.32
267.372	6.59
267.752	6.6
268.131	6.99
268.511	6.45
268.89	7.18
269.27	6.24
269.649	6.39
270.029	6.37
270.408	6.87
270.787	7.12
271.167	7.05
271.546	6.58
271.925	6.79
272.304	6.38
272.683	6.41
273.062	6.17
273.441	6.29
273.82	5.79
274.199	6.25
274.578	6.37
274.957	6.12
275.336	6.3
275.715	5.89
276.093	6.63
276.472	5.93
276.851	6.5
277.229	6.77
277.608	5.95
277.986	5.87
278.365	6.77
278.743	5.9
279.122	6.78
279.5	5.9
279.878	7.18
280.257	6.69
280.635	5.31
281.013	5.86
281.391	6.76
281.769	5.58
282.147	6.1
282.525	6.83
282.903	5.78
283.281	7.18
283.659	6.33
284.037	6.49
284.415	6.44
284.792	6.61
285.17	5.73
285.548	6.16
285.925	6.37
286.303	6.1
286.68	6.01
287.058	6.4
287.435	6.16
287.813	6.65
288.19	6.21
288.567	6.35
288.945	6.49
289.322	6.5
289.699	6.07
290.076	6.37
290.453	6.41
290.83	6.04
291.207	5.69
291.584	6.21
291.961	6.43
292.338	6.08
292.715	7.03
293.092	6.12
293.469	6.33
293.845	6.64
294.222	5.35
294.599	5.9
294.975	5.79
295.352	6.33
295.728	5.96
296.105	6.21
296.481	6.76
296.858	6.59
297.234	6.67
297.61	6.45
297.986	5.81
298.363	6.48
298.739	6.3
299.115	6.05
299.491	5.71
299.867	6
300.243	6.74
300.619	5.95
300.995	6.14
301.371	6.17
301.746	6.46
302.122	6.59
302.498	5.92
302.874	6.6
303.249	6.23
303.625	5.9
304	6.06
304.376	6.33
304.751	6.02
305.127	6.95
305.502	6.14
305.878	5.6
306.253	6.03
306.628	6.4
307.003	6.28
307.378	6.29
307.754	6.5
308.129	6.09
308.504	6.51
308.879	6.04
309.254	7.29
309.629	6.44
310.003	5.83
310.378	6.23
310.753	6.37
311.128	6.83
311.502	6.47
311.877	6.54
312.252	5.63
312.626	6.2
313.001	6.33
313.375	6.82
313.75	6.29
314.124	6.37
314.498	6.2
314.873	6.05
315.247	6.16
315.621	6.68
315.995	5.38
316.369	6.21
316.743	5.65
317.117	6.43
317.491	5.88
317.865	6.13
318.239	6.75
318.613	6.81
318.987	6.81
319.361	5.74
319.734	5.74
320.108	6.41
320.482	6.39
320.855	6.8
321.229	6.32
321.602	6.21
321.976	6.64
322.349	6.42
322.723	6.29
323.096	6.57
323.469	6.85
323.843	6.65
324.216	6.88
324.589	5.84
324.962	6.52
325.335	6.09
325.708	5.85
326.081	6.13
326.454	6.41
326.827	6.68
327.2	6.26
327.573	6.58
327.945	6.21
328.318	5.9
328.691	5.71
329.063	6.85
329.436	6.12
329.809	7.32
330.181	6.37
330.553	6.33
330.926	6.89
331.298	6.79
331.671	6.4
332.043	6.97
332.415	6.49
332.787	6.57
333.159	6.8
333.532	6.53
333.904	6.3
334.276	6.66
334.648	6.58
335.02	6.77
335.391	6.32
335.763	6.24
336.135	6.33
336.507	6.78
336.879	6.67
337.25	6.38
337.622	6.58
337.993	6.57
338.365	6.68
338.736	6.48
339.108	7.03
339.479	6.88
339.851	6.88
340.222	6.59
340.593	6.73
340.964	6.45
341.336	7.6
341.707	6.46
342.078	7.42
342.449	7.02
342.82	6.89
343.191	6.88
343.562	6.63
343.933	6.76
344.303	6.6
344.674	6.73
345.045	6.88
345.416	7.44
345.786	6.28
346.157	7.25
346.527	6.48
346.898	6.35
347.268	7.12
347.639	6.68
348.009	7.68
348.38	6.77
348.75	6.95
349.12	7.32
349.49	7.34
349.861	6.87
350.231	6.82
350.601	7.03
350.971	7.17
351.341	6.87
351.711	7.06
352.081	6.81
352.45	6.9
352.82	7.17
353.19	6.82
353.56	6.24
353.929	7.76
354.299	6.98
354.669	6.8
355.038	7.52
355.408	6.99
355.777	7.2
356.147	7.05
356.516	6.81
356.885	7.32
357.254	7.43
357.624	7.23
357.993	7.34
358.362	6.98
358.731	6.75
359.1	7.09
359.469	7.1
359.838	7.51
360.207	7
360.576	7.06
360.945	7.32
361.314	7.65
361.682	6.74
362.051	7.17
362.42	7.14
362.788	7.12
363.157	7.23
363.525	7.37
363.894	7.54
364.262	7.18
364.631	7.31
364.999	7.4
365.367	7.09
365.735	7.66
366.104	7.56
366.472	7.42
366.84	7.2
367.208	6.9
367.576	7.33
367.944	7.45
368.312	6.72
368.68	6.93
369.048	7.29
369.416	7.05
369.783	7.14
370.151	7.47
370.519	7.97
370.886	7.56
371.254	7.21
371.621	7.52
371.989	7.56
372.356	7.01
372.724	7.32
373.091	7.13
373.458	7.48
373.826	7.33
374.193	7.48
374.56	7.55
374.927	7.32
375.294	7.16
375.661	7.37
376.028	7.49
376.395	7.01
376.762	7.41
377.129	7.15
377.496	6.98
377.863	7.34
378.229	6.99
378.596	7.55
378.963	7.53
379.329	7.13
379.696	7.77
380.062	7.35
380.429	7.34
380.795	7.08
381.161	7.21
381.528	7.48
381.894	7.32
382.26	7.33
382.626	7.37
382.993	6.99
383.359	7.73
383.725	7.27
384.091	7.13
384.457	7.59
384.823	7.53
385.188	7.82
385.554	7.36
385.92	7.41
386.286	7.67
386.651	7.45
387.017	7.95
387.383	7.49
387.748	7.18
388.114	7.42
388.479	7.49
388.845	7.65
389.21	7.98
389.575	7.5
389.94	7.32
390.306	7.43
390.671	7.83
391.036	7.49
391.401	7.15
391.766	7.4
392.131	7.1
392.496	7.52
392.861	7.24
393.226	7.67
393.591	7.51
393.956	7.41
394.32	7.45
394.685	7.6
395.05	7.37
395.414	7.75
395.779	7.29
396.143	7.78
396.508	7.55
396.872	7.62
397.236	7.66
397.601	7.53
397.965	7.49
398.329	7.41
398.694	7.56
399.058	7.71
399.422	7.53
399.786	7.74
400.15	7.77
400.514	7.72
400.878	7.74
401.242	7.7
401.605	7.62
401.969	7.71
402.333	7.66
402.697	7.4
403.06	7.65
403.424	7.57
403.787	7.48
404.151	7.71
404.514	7.36
404.878	7.56
405.241	7.63
405.604	7.36
405.968	7.75
406.331	7.42
406.694	7.67
407.057	7.56
407.42	7.69
407.783	7.08
408.146	7.58
408.509	7.54
408.872	7.61
409.235	7.62
409.598	7.46
409.961	7.45
410.323	7.55
410.686	7.65
411.049	7.29
411.411	7.4
411.774	7.52
412.136	7.37
412.499	7.27
412.861	7.53
413.223	7.33
413.586	7.43
413.948	7.45
414.31	7.61
414.672	7.48
415.035	7.28
415.397	7.76
415.759	7.49
416.121	7.89
416.483	7.51
416.845	7.45
417.206	7.42
417.568	7.62
417.93	7.26
418.292	7.4
418.653	7.49
419.015	7.61
419.377	7.44
419.738	7.76
420.1	7.46
420.461	7.62
420.822	7.69
421.184	7.43
421.545	7.54
421.906	7.36
422.267	7.41
422.629	7.58
422.99	7.38
423.351	7.35
423.712	7.43
424.073	7.44
424.434	7.49
424.795	7.32
425.155	7.37
425.516	7.32
425.877	7.49
426.238	7.31
426.598	7.42
426.959	7.34
427.32	7.4
427.68	7.41
428.041	7.38
428.401	7.4
428.761	7.43
429.122	7.43
429.482	7.47
429.842	7.65
430.202	7.45
430.563	7.32
430.923	7.38
431.283	7.55
431.643	7.65
432.003	7.48
432.363	7.66
432.722	7.36
433.082	7.65
433.442	7.6
433.802	7.33
434.161	7.25
434.521	7.52
434.881	7.71
435.24	7.62
435.6	7.47
435.959	7.38
436.319	7.41
436.678	7.42
437.037	7.34
437.396	7.44
437.756	7.22
438.115	7.42
438.474	7.41
438.833	7.3
439.192	7.38
439.551	7.63
439.91	7.41
440.269	7.34
440.628	7.31
440.987	7.34
441.345	7.23
441.704	7.33
442.063	7.28
442.421	7.42
442.78	7.3
443.138	7.27
443.497	7.33
443.855	7.35
444.214	7.47
444.572	7.61
444.93	7.48
445.288	7.4
445.647	7.38
446.005	7.31
446.363	7.48
446.721	7.53
447.079	7.18
447.437	7.29
447.795	7.43
448.153	7.23
448.51	7.25
448.868	7.32
449.226	7.22
449.584	7.2
449.941	7.41
450.299	7.21
450.656	7.37
451.014	7.27
451.371	7.26
451.729	7.26
452.086	7.54
452.443	7.26
452.801	7.31
453.158	7.25
453.515	7.29
453.872	7.54
454.229	7.19
454.586	7.16
454.943	7.34
455.3	7.31
455.657	7.4
456.014	7.26
456.371	7.31
456.727	7.27
457.084	7.4
457.441	7.33
457.797	7.32
458.154	7.4
458.51	7.34
458.867	7.26
459.223	7.31
459.58	7.3
459.936	7.38
460.292	7.07
460.648	7.21
461.005	7.29
461.361	7.34
461.717	7.26
462.073	7.1
462.429	7.19
462.785	7.17
463.141	7.06
463.496	7.26
463.852	7.43
464.208	7.3
464.564	7.26
464.919	7.28
465.275	7.21
465.631	7.38
465.986	7.2
466.342	7.24
466.697	7.19
467.052	7.31
467.408	7.4
467.763	7.22
468.118	7.26
468.473	7.21
468.829	7.31
469.184	7.12
469.539	7.14
469.894	6.97
470.249	7.3
470.603	7.36
470.958	7.36
471.313	7.32
471.668	7.29
472.023	7.21
472.377	7.07
472.732	7.14
473.086	7.11
473.441	7.06
473.795	7.29
474.15	7.27
474.504	7.09
474.859	7.41
475.213	6.89
475.567	7.09
475.921	7.18
476.275	7.3
476.63	7.15
476.984	7.14
477.338	7.39
477.692	7.06
478.045	7.05
478.399	7.23
478.753	7.28
479.107	7.18
479.461	6.98
479.814	7.19
480.168	7.27
480.521	7.13
480.875	6.95
481.228	7.06
481.582	7.1
481.935	7.15
482.289	7.14
482.642	7.11
482.995	7.16
483.348	6.81
483.701	7.07
484.055	7.11
484.408	7.19
484.761	6.94
485.114	6.87
485.466	6.77
485.819	6.73
486.172	6.71
486.525	6.64
486.878	6.7
487.23	6.78
487.583	6.82
487.936	6.92
488.288	6.93
488.641	6.97
488.993	6.81
489.345	6.75
489.698	6.77
490.05	6.71
490.402	6.79
490.754	6.73
491.107	6.76
491.459	6.84
491.811	6.89
492.163	6.92
492.515	6.88
492.866	6.96
493.218	6.9
493.57	6.73
493.922	6.79
494.274	6.78
494.625	6.86
494.977	6.92
495.328	7.01
495.68	6.91
496.031	7.02
496.383	7.03
496.734	7.17
497.086	7.18
497.437	6.98
497.788	7.08
498.139	6.98
498.49	6.98
498.842	6.86
499.193	6.86
499.544	6.88
499.894	6.86
500.245	6.99
500.596	6.83
500.947	6.94
501.298	6.92
501.648	6.98
501.999	7.13
502.35	7.04
502.7	7.04
503.051	6.88
503.401	6.98
503.752	7.02
504.102	7.09
504.452	6.94
504.803	7
505.153	7.09
505.503	6.94
505.853	7.14
506.203	6.83
506.553	6.85
506.903	6.76
507.253	6.83
507.603	6.82
507.953	6.97
508.303	6.9
508.652	6.73
509.002	6.91
509.352	6.96
509.701	6.88
510.051	6.7
510.4	6.8
510.75	6.72
511.099	6.99
511.449	6.84
511.798	6.84
512.147	6.94
512.496	6.77
512.846	6.82
513.195	6.75
513.544	6.86
513.893	6.99
514.242	6.92
514.591	6.94
514.939	6.73
515.288	6.83
515.637	6.96
515.986	6.82
516.334	6.91
516.683	6.81
517.032	6.83
517.38	7.01
517.729	6.9
518.077	6.8
518.426	6.96
518.774	6.95
519.122	6.72
519.47	6.62
519.819	6.68
520.167	6.65
520.515	6.74
520.863	6.73
521.211	6.77
521.559	6.74
521.907	6.7
522.255	6.72
522.602	6.72
522.95	6.64
523.298	6.8
523.645	6.83
523.993	6.69
524.341	6.73
524.688	6.8
525.036	6.79
525.383	6.85
525.73	6.99
526.078	6.76
526.425	6.68
526.772	6.85
527.119	6.73
527.466	6.56
527.814	6.61
528.161	6.56
528.508	6.7
528.854	6.62
529.201	6.63
529.548	6.53
529.895	6.53
530.242	6.53
530.588	6.41
530.935	6.39
531.282	6.44
531.628	6.41
531.975	6.56
532.321	6.5
532.667	6.6
533.014	6.65
533.36	6.55
533.706	6.64
534.052	6.52
534.399	6.41
534.745	6.5
535.091	6.51
535.437	6.55
535.783	6.54
536.129	6.53
536.474	6.56
536.82	6.57
537.166	6.67
537.512	6.62
537.857	6.58
538.203	6.61
538.549	6.57
538.894	6.52
539.239	6.51
539.585	6.53
539.93	6.48
540.276	6.63
540.621	6.57
540.966	6.74
541.311	6.65
541.656	6.59
542.001	6.54
542.346	6.69
542.691	6.59
543.036	6.47
543.381	6.35
543.726	6.44
544.071	6.49
544.415	6.49
544.76	6.31
545.105	6.47
545.449	6.46
545.794	6.57
546.138	6.45
546.483	6.51
546.827	6.57
547.171	6.6
547.516	6.63
547.86	6.6
548.204	6.59
548.548	6.47
548.892	6.64
549.236	6.41
549.58	6.46
549.924	6.53
550.268	6.64
550.612	6.61
550.956	6.8
551.3	6.48
551.643	6.61
551.987	6.68
552.33	6.47
552.674	6.76
553.017	6.46
553.361	6.42
553.704	6.62
554.048	6.37
554.391	6.34
554.734	6.44
555.077	6.54
555.42	6.39
555.764	6.45
556.107	6.33
556.45	6.4
556.793	6.52
557.135	6.49
557.478	6.52
557.821	6.48
558.164	6.53
558.507	6.47
558.849	6.39
559.192	6.81
559.534	6.53
559.877	6.61
560.219	6.54
560.562	6.65
560.904	6.34
561.246	6.53
561.589	6.53
561.931	6.5
562.273	6.52
562.615	6.52
562.957	6.39
563.299	6.38
563.641	6.31
563.983	6.58
564.325	6.38
564.667	6.37
565.008	6.44
565.35	6.45
565.692	6.27
566.033	6.4
566.375	6.63
566.716	6.68
567.058	6.44
567.399	6.31
567.741	6.25
568.082	6.45
568.423	6.62
568.764	6.39
569.105	6.37
569.447	6.44
569.788	6.35
570.129	6.5
570.47	6.32
570.811	6.51
571.151	6.6
571.492	6.46
571.833	6.31
572.174	6.29
572.514	6.62
572.855	6.45
573.195	6.3
573.536	6.31
573.876	6.38
574.217	6.33
574.557	6.54
574.898	6.55
575.238	6.44
575.578	6.39
575.918	6.54
576.258	6.25
576.598	6.5
576.938	6.27
577.278	6.42
577.618	6.32
577.958	6.3
578.298	6.23
578.638	6.21
578.977	6.35
579.317	6.46
579.657	6.42
579.996	6.34
580.336	6.29
580.675	6.43
581.014	6.25
581.354	6.51
581.693	6.48
582.032	6.1
582.372	6.01
582.711	6.3
583.05	6.28
583.389	6.43
583.728	6.13
584.067	6.33
584.406	6.6
584.745	6.39
585.083	6.55
585.422	6.51
585.761	6.27
586.1	6.46
586.438	6.3
586.777	6.12
587.115	6.38
587.454	6.25
587.792	6.07
588.13	6.28
588.469	6.15
588.807	6.15
589.145	6.02
589.483	6.32
589.821	6.07
590.159	6.35
590.497	6.84
590.835	6.75
591.173	6.18
591.511	6.5
591.849	6.38
592.187	6.39
592.524	6.32
592.862	6.48
593.2	6.48
593.537	6.37
593.875	6.14
594.212	6.04
594.55	6.46
594.887	6.49
595.224	5.96
595.561	6.15
595.899	6.09
596.236	6.22
596.573	6.32
596.91	5.85
597.247	5.9
597.584	6.33
597.921	6.23
598.258	5.88
598.594	6.03
598.931	6.19
599.268	6.23
599.604	6.1
599.941	6.31
600.277	6.27
600.614	6.11
600.95	6.17
601.287	6.28
601.623	5.86
601.959	6.17
602.296	6.33
602.632	6.39
602.968	6.25
603.304	6.01
603.64	6.41
603.976	6.33
604.312	5.99
604.648	6.13
604.984	6.17
605.319	6.22
605.655	6.24
605.991	6.35
606.326	6.29
606.662	6.11
606.998	6.04
607.333	6.18
607.668	6.23
608.004	6.21
608.339	6.36
608.674	6.31
609.01	6.12
609.345	6.22
609.68	6.58
610.015	6.05
610.35	6.11
610.685	6.25
611.02	6.12
611.355	6.3
611.689	6.01
612.024	6.23
612.359	6.12
612.694	6.03
613.028	6.1
613.363	6.19
613.697	6.4
614.032	6.05
614.366	6.06
614.7	6.22
615.035	6.03
615.369	6.23
615.703	6.37
616.037	6.02
616.371	6.02
616.705	5.96
617.039	6.18
617.373	6.1
617.707	5.78
618.041	5.98
618.375	6.21
618.709	6.29
619.042	6.22
619.376	6.39
619.71	6.15
620.043	6.22
620.377	6.37
620.71	6.03
621.043	6.01
621.377	6.24
621.71	6.23
622.043	5.98
622.376	5.77
622.709	6.33
623.043	6.45
623.376	5.97
623.709	6.05
624.041	6.44
624.374	6.31
624.707	6.06
625.04	6.56
625.373	5.49
625.705	6.17
626.038	6.03
626.37	5.52
626.703	5.98
627.035	6.14
627.368	6.61
627.7	6.28
628.032	5.67
628.365	6.09
628.697	6.27
629.029	6.06
629.361	5.96
629.693	6.14
630.025	5.93
630.357	6.46
630.689	6.26
631.021	5.88
631.353	6.47
631.684	6.02
632.016	6.07
632.348	6.29
632.679	6.57
633.011	6.34
633.342	6.44
633.674	6.17
634.005	6.52
634.336	6.42
634.668	6.89
634.999	5.96
635.33	6.21
635.661	6.46
635.992	6.27
636.323	6.15
636.654	6.03
636.985	6
637.316	6.11
637.647	5.83
637.977	6.41
638.308	6.36
638.639	5.76
638.969	5.67
639.3	5.84
639.63	5.83
639.961	6.13
640.291	6.11
640.622	6.35
640.952	6.2
641.282	6.5
641.612	5.96
641.943	5.99
642.273	6.02
642.603	6.43
642.933	6.32
643.263	6.42
643.592	6.39
643.922	5.78
644.252	6.1
644.582	5.8
644.911	5.75
645.241	6.19
645.571	5.85
645.9	5.66
646.23	6.44
646.559	6.5
646.888	5.94
647.218	6.01
647.547	6.12
647.876	5.46
648.205	6.42
648.534	6.06
648.863	5.7
649.192	6.53
649.521	6.01
649.85	5.66
650.179	6.22
650.508	6.36
650.837	5.55
651.165	6
651.494	6.24
651.822	6.04
652.151	6.02
652.479	5.78
652.808	5.54
653.136	5.82
653.465	5.46
653.793	5.66
654.121	5.89
654.449	6.03
654.777	6.29
655.105	6.11
655.433	5.56
655.761	5.75
656.089	6.21
656.417	6.06
656.745	5.73
657.073	6.19
657.4	6.75
657.728	6.24
658.056	6.28
658.383	6.23
658.711	6.29
659.038	6.14
659.365	6.23
659.693	6.42
660.02	6.23
660.347	6.48
660.674	5.97
661.001	6.38
661.329	5.58
661.656	5.97
661.982	6.54
662.309	5.98
662.636	5.77
662.963	6.73
663.29	6.23
663.616	6.51
663.943	5.65
664.27	5.66
664.596	6.3
664.923	6.03
665.249	6.25
665.576	5.79
665.902	7.07
666.228	6.3
666.554	6.39
666.881	6.06
667.207	6.18
667.533	5.89
667.859	5.52
668.185	6.38
668.511	5.14
668.837	4.79
669.162	6.43
669.488	5.51
669.814	6.1
670.139	6.91
670.465	6.58
670.791	6.63
671.116	7.06
671.442	5.59
671.767	6.82
672.092	6.39
672.418	5.85
672.743	6.52
673.068	6.04
673.393	6.86
673.718	6.15
674.043	5.86
674.368	5.66
674.693	7.54
675.018	6.16
675.343	6.34
675.667	6.03
675.992	6.2
676.317	6.12
676.641	6.41
676.966	6.51
677.29	6.47
677.615	6.69
677.939	6.72
678.264	6.24
678.588	6.05
678.912	6.54
679.236	6.84
679.56	6.05
679.885	7.18
680.209	6.37
680.532	6.58
680.856	6.67
681.18	5.87
681.504	6.07
681.828	6.38
682.152	5.83
682.475	6.49
682.799	6.18
683.122	6.63
683.446	6.18
683.769	6.45
684.093	5.67
684.416	6.93
684.739	6.1
685.062	6.08
685.386	6.59
685.709	5.79
686.032	5.74
686.355	6.74
686.678	5.9
687.001	6.31
687.324	7
687.646	5.73
687.969	5.11
688.292	6.03
688.614	6.57
688.937	7.47
689.26	5.9
689.582	6.89
689.904	5.93
690.227	6.33
690.549	6.25
690.871	6.89
691.194	5.5
691.516	5.84
691.838	5.69
692.16	5.16
