Data from 0371_forehead_Reflection__3__182.txt Node

Date: Fri Dec 15 18:09:26 CST 2023
User: ToomeyLab
Spectrometer: FLMS14357
Trigger mode: 0
Integration Time (sec): 1.000000E-2
Scans to average: 100
Electric dark correction enabled: true
Nonlinearity correction enabled: false
Boxcar width: 0
XAxis mode: Wavelengths
Number of Pixels in Spectrum: 2048
>>>>>Begin Spectral Data<<<<<
189.047	87.27
189.435	87.27
189.823	87.27
190.211	-132.27
190.599	211.79
190.987	70
191.375	-11.25
191.763	311.67
192.151	-6.05
192.538	119.12
192.926	33.33
193.314	57.08
193.702	12.19
194.089	26.41
194.477	-37.26
194.864	-108.45
195.252	84.92
195.639	97.1
196.027	104.64
196.414	919.91
196.801	193.41
197.189	254.77
197.576	123.89
197.963	39.46
198.351	32.74
198.738	-39.37
199.125	33.55
199.512	-36.69
199.899	31.89
200.286	74.35
200.673	10.63
201.06	22.02
201.447	-25.13
201.833	-7.83
202.22	46.17
202.607	33.59
202.994	26.46
203.38	-7.22
203.767	22.54
204.154	60.58
204.54	51.54
204.927	-57.27
205.313	-39.42
205.699	49.66
206.086	39.46
206.472	2.99
206.858	1.88
207.245	19.56
207.631	32.15
208.017	20.12
208.403	-5.7
208.789	49.93
209.175	26.28
209.561	14.14
209.947	17.4
210.333	-95.6
210.719	8.78
211.105	11.19
211.491	21.33
211.876	45.35
212.262	22.8
212.648	2.48
213.034	26.6
213.419	22.64
213.805	6.02
214.19	-7.32
214.576	-0.09
214.961	13.08
215.346	-21.32
215.732	3.92
216.117	22.21
216.502	26.82
216.888	30.83
217.273	7.3
217.658	-34.54
218.043	32.74
218.428	-36.53
218.813	-24.79
219.198	10.53
219.583	1.32
219.968	15.81
220.353	11.83
220.738	30.04
221.122	5.8
221.507	3.75
221.892	-11.33
222.276	1.04
222.661	16.3
223.046	-11.2
223.43	25.58
223.815	19.89
224.199	-3.11
224.583	1.18
224.968	13.75
225.352	16.7
225.736	3.75
226.121	-2.74
226.505	3.73
226.889	14.04
227.273	5.23
227.657	13.76
228.041	4.72
228.425	5.13
228.809	3.49
229.193	6.98
229.577	3.41
229.961	5.68
230.344	4
230.728	3.27
231.112	4.77
231.495	4.46
231.879	4.3
232.263	3.61
232.646	5.08
233.03	4.52
233.413	3.9
233.797	4.37
234.18	3.79
234.563	5.33
234.946	1.54
235.33	5.54
235.713	5.71
236.096	5.75
236.479	6.43
236.862	5.16
237.245	6.81
237.628	1.39
238.011	5.42
238.394	7.42
238.777	4.53
239.16	4.67
239.543	4.88
239.925	6.54
240.308	5.8
240.691	5.76
241.073	6.49
241.456	5.55
241.838	3.83
242.221	3.72
242.603	4.56
242.986	5.25
243.368	5.28
243.75	4.89
244.133	4.95
244.515	4.93
244.897	4.74
245.279	4.71
245.661	4.59
246.043	4.39
246.425	2.71
246.807	6.13
247.189	4.92
247.571	5.8
247.953	5.25
248.335	5.18
248.717	4.71
249.098	4.74
249.48	5.09
249.862	5.24
250.243	4.87
250.625	4.82
251.006	4.62
251.388	4.46
251.769	4.3
252.151	6.01
252.532	6.16
252.913	4.42
253.295	4.98
253.676	4.93
254.057	4.71
254.438	5.09
254.819	4.91
255.2	3.81
255.581	4.95
255.962	4.8
256.343	5.7
256.724	5.16
257.105	4.63
257.486	6.06
257.867	5.1
258.247	5.65
258.628	5.78
259.009	5.36
259.389	5.65
259.77	5
260.15	4.99
260.531	3.82
260.911	5.01
261.292	5.16
261.672	5.2
262.052	4.79
262.432	5.19
262.813	5.15
263.193	4.94
263.573	4.73
263.953	4.79
264.333	5.13
264.713	4.99
265.093	4.72
265.473	4.97
265.853	3.84
266.233	4.98
266.612	4.15
266.992	3.14
267.372	6.23
267.752	4.87
268.131	4.51
268.511	5.07
268.89	4.77
269.27	4.22
269.649	4.35
270.029	4.74
270.408	5.76
270.787	5.03
271.167	5.85
271.546	5.59
271.925	3.93
272.304	4.48
272.683	5.39
273.062	4.36
273.441	4.61
273.82	4.16
274.199	4.75
274.578	4.74
274.957	5.2
275.336	4.89
275.715	5.2
276.093	4.32
276.472	4.79
276.851	4.49
277.229	4.48
277.608	4.56
277.986	4.42
278.365	4.99
278.743	4.98
279.122	5.31
279.5	4.95
279.878	5.06
280.257	4.7
280.635	4.12
281.013	4.54
281.391	4.75
281.769	4.97
282.147	5.35
282.525	5.2
282.903	4.87
283.281	5.18
283.659	4.89
284.037	5.17
284.415	5.52
284.792	5.12
285.17	4.22
285.548	4.74
285.925	4.78
286.303	4.73
286.68	4.73
287.058	4.9
287.435	4.71
287.813	4.72
288.19	4.58
288.567	5.25
288.945	5.28
289.322	4.66
289.699	4.98
290.076	4.97
290.453	5.1
290.83	4.73
291.207	4.98
291.584	5.4
291.961	5.09
292.338	5.24
292.715	5.88
293.092	5.17
293.469	5.22
293.845	5.7
294.222	4.71
294.599	5.13
294.975	5.37
295.352	5.88
295.728	4.98
296.105	5.38
296.481	6.06
296.858	5.78
297.234	5.55
297.61	5.75
297.986	5.73
298.363	5.98
298.739	5.97
299.115	5.99
299.491	5.94
299.867	5.97
300.243	6.16
300.619	5.97
300.995	6.42
301.371	6.35
301.746	5.82
302.122	6.76
302.498	6.45
302.874	6.37
303.249	6.48
303.625	6.16
304	6.44
304.376	6.47
304.751	6.49
305.127	7.31
305.502	6.8
305.878	6.3
306.253	6.57
306.628	7.04
307.003	7.47
307.378	7.43
307.754	6.82
308.129	6.17
308.504	7.15
308.879	7.12
309.254	7.99
309.629	8.12
310.003	7.62
310.378	7.52
310.753	7.75
311.128	7.19
311.502	7.32
311.877	8.34
312.252	6.97
312.626	7.8
313.001	7.33
313.375	7.98
313.75	7.44
314.124	7.87
314.498	7.74
314.873	7.39
315.247	7.34
315.621	7.64
315.995	6.92
316.369	7.79
316.743	8.06
317.117	8.24
317.491	8.27
317.865	8.32
318.239	8.41
318.613	8.1
318.987	8.06
319.361	7.91
319.734	8.71
320.108	8.62
320.482	8.51
320.855	8.85
321.229	8.23
321.602	8.5
321.976	9.14
322.349	8.64
322.723	8.7
323.096	9.61
323.469	8.05
323.843	8.62
324.216	8.94
324.589	8.7
324.962	8.8
325.335	8.22
325.708	9.03
326.081	8.91
326.454	9.5
326.827	9.18
327.2	9.44
327.573	9.36
327.945	9.6
328.318	9.04
328.691	9.25
329.063	9.69
329.436	9.02
329.809	9.71
330.181	9.22
330.553	9.19
330.926	9.22
331.298	10.12
331.671	9.91
332.043	9.96
332.415	10.52
332.787	10.23
333.159	10.94
333.532	9.81
333.904	9.83
334.276	10.09
334.648	10.25
335.02	10.03
335.391	10.03
335.763	9.98
336.135	10.12
336.507	10.5
336.879	10.13
337.25	10.16
337.622	10.53
337.993	10.37
338.365	10.74
338.736	10.42
339.108	10.85
339.479	9.8
339.851	10.37
340.222	10.4
340.593	11.04
340.964	10.53
341.336	11.81
341.707	10.24
342.078	10.82
342.449	11.33
342.82	10.95
343.191	10.61
343.562	10.83
343.933	11.02
344.303	10.81
344.674	10.93
345.045	11.28
345.416	11.24
345.786	10.38
346.157	11.16
346.527	10.71
346.898	11.14
347.268	11.15
347.639	11.23
348.009	11.67
348.38	11.42
348.75	11.36
349.12	11.45
349.49	11.87
349.861	11.4
350.231	11.32
350.601	11.3
350.971	11.15
351.341	11.4
351.711	11.54
352.081	12.07
352.45	11.77
352.82	12.02
353.19	11.59
353.56	11.28
353.929	12.19
354.299	11.78
354.669	11.62
355.038	12.12
355.408	11.97
355.777	12.35
356.147	11.8
356.516	12.33
356.885	12.17
357.254	11.78
357.624	12.61
357.993	12.45
358.362	12.19
358.731	12.39
359.1	12.39
359.469	12.54
359.838	12.47
360.207	12.34
360.576	12.36
360.945	12.75
361.314	13.22
361.682	12.63
362.051	12.64
362.42	12.7
362.788	12.81
363.157	12.79
363.525	13.07
363.894	12.93
364.262	12.93
364.631	12.79
364.999	13.24
365.367	12.62
365.735	13.45
366.104	12.84
366.472	13.42
366.84	13.45
367.208	13.11
367.576	13.33
367.944	13.54
368.312	13.29
368.68	13.28
369.048	13.64
369.416	13.53
369.783	13.33
370.151	13.78
370.519	14.38
370.886	14.25
371.254	13.56
371.621	13.82
371.989	14.06
372.356	13.6
372.724	14.02
373.091	13.65
373.458	13.89
373.826	13.89
374.193	14.15
374.56	14.42
374.927	14.57
375.294	14.58
375.661	14.3
376.028	14.23
376.395	14.17
376.762	14.64
377.129	14.65
377.496	14.28
377.863	14.5
378.229	13.91
378.596	14.25
378.963	14.57
379.329	14.47
379.696	14.84
380.062	14.58
380.429	14.54
380.795	14.38
381.161	14.9
381.528	14.86
381.894	14.74
382.26	14.55
382.626	15.13
382.993	14.7
383.359	15.11
383.725	14.63
384.091	14.77
384.457	15.34
384.823	14.89
385.188	15.01
385.554	15.36
385.92	15.39
386.286	15.51
386.651	15.54
387.017	15.51
387.383	15.64
387.748	15.28
388.114	15.39
388.479	15.58
388.845	15.81
389.21	15.77
389.575	15.61
389.94	15.78
390.306	16.04
390.671	16.25
391.036	15.66
391.401	15.46
391.766	15.89
392.131	15.95
392.496	16.19
392.861	16.05
393.226	16.33
393.591	16.19
393.956	15.96
394.32	16.34
394.685	15.99
395.05	16.31
395.414	16.62
395.779	16.24
396.143	16.37
396.508	16.35
396.872	16.9
397.236	16.38
397.601	16.43
397.965	16.46
398.329	16.58
398.694	16.72
399.058	16.8
399.422	16.6
399.786	17.21
400.15	16.83
400.514	17.04
400.878	17.16
401.242	16.95
401.605	16.96
401.969	17.31
402.333	17.31
402.697	16.95
403.06	17.14
403.424	17.34
403.787	17.33
404.151	17.28
404.514	17
404.878	17.1
405.241	17.83
405.604	17.51
405.968	17.54
406.331	17.5
406.694	17.83
407.057	17.49
407.42	17.8
407.783	17.56
408.146	17.4
408.509	17.7
408.872	17.92
409.235	17.92
409.598	18.21
409.961	18
410.323	18.05
410.686	18.09
411.049	17.92
411.411	18.09
411.774	17.98
412.136	18.13
412.499	18.04
412.861	17.86
413.223	18.15
413.586	18.86
413.948	18.83
414.31	18.55
414.672	18.47
415.035	18.34
415.397	18.7
415.759	18.59
416.121	19.11
416.483	18.75
416.845	18.62
417.206	18.6
417.568	18.91
417.93	18.62
418.292	18.71
418.653	18.61
419.015	18.73
419.377	19.02
419.738	18.77
420.1	18.7
420.461	18.83
420.822	19.04
421.184	18.86
421.545	18.82
421.906	18.77
422.267	19.13
422.629	19.01
422.99	18.9
423.351	18.87
423.712	19.04
424.073	19.15
424.434	19.24
424.795	19.38
425.155	19.34
425.516	19.37
425.877	19.39
426.238	19.31
426.598	19.47
426.959	19.46
427.32	19.47
427.68	19.64
428.041	19.63
428.401	19.8
428.761	19.89
429.122	19.98
429.482	19.65
429.842	20.14
430.202	20.33
430.563	20.06
430.923	20.14
431.283	20.54
431.643	20.23
432.003	20.48
432.363	20.52
432.722	20.23
433.082	20.66
433.442	20.48
433.802	20.37
434.161	20.35
434.521	20.64
434.881	20.49
435.24	20.63
435.6	20.7
435.959	20.68
436.319	20.7
436.678	20.8
437.037	20.8
437.396	20.74
437.756	21.19
438.115	20.93
438.474	21.25
438.833	20.95
439.192	21.06
439.551	21.33
439.91	20.99
440.269	21.05
440.628	21.09
440.987	21.32
441.345	21.16
441.704	21.14
442.063	21.35
442.421	21.29
442.78	21.27
443.138	21.31
443.497	21.48
443.855	21.51
444.214	21.58
444.572	21.79
444.93	21.73
445.288	21.69
445.647	21.98
446.005	21.7
446.363	21.89
446.721	21.77
447.079	21.97
447.437	21.78
447.795	21.87
448.153	21.87
448.51	21.78
448.868	21.92
449.226	22
449.584	21.98
449.941	22.22
450.299	22.23
450.656	22.28
451.014	22.47
451.371	22.48
451.729	22.27
452.086	22.78
452.443	22.65
452.801	22.74
453.158	22.67
453.515	22.61
453.872	22.84
454.229	22.7
454.586	22.68
454.943	22.87
455.3	23.1
455.657	22.91
456.014	23.16
456.371	23.3
456.727	23.02
457.084	23.24
457.441	23.42
457.797	23.32
458.154	23.47
458.51	23.34
458.867	23.59
459.223	23.63
459.58	23.54
459.936	23.5
460.292	23.62
460.648	23.53
461.005	23.35
461.361	23.38
461.717	23.54
462.073	23.45
462.429	23.44
462.785	23.66
463.141	23.72
463.496	23.8
463.852	24.21
464.208	24.02
464.564	24.09
464.919	24.13
465.275	24.36
465.631	24.66
465.986	24.58
466.342	24.5
466.697	24.24
467.052	24.45
467.408	24.57
467.763	24.48
468.118	24.57
468.473	24.7
468.829	24.76
469.184	24.78
469.539	24.86
469.894	24.8
470.249	24.97
470.603	24.99
470.958	24.96
471.313	24.88
471.668	25.16
472.023	25.06
472.377	24.93
472.732	25.33
473.086	25.27
473.441	25.04
473.795	25.46
474.15	25.56
474.504	25.31
474.859	25.47
475.213	25.53
475.567	25.52
475.921	25.48
476.275	25.65
476.63	25.65
476.984	25.87
477.338	25.99
477.692	25.85
478.045	25.53
478.399	25.76
478.753	25.78
479.107	25.95
479.461	25.71
479.814	25.81
480.168	26.11
480.521	25.88
480.875	25.98
481.228	26.2
481.582	26.17
481.935	26.18
482.289	26.4
482.642	26.41
482.995	26.29
483.348	26.39
483.701	26.24
484.055	26.33
484.408	26.3
484.761	26.01
485.114	25.8
485.466	25.49
485.819	25.46
486.172	25.55
486.525	25.75
486.878	25.88
487.23	25.96
487.583	26.23
487.936	26.37
488.288	26.56
488.641	26.44
488.993	26.18
489.345	26.05
489.698	26.25
490.05	26.18
490.402	26.42
490.754	26.45
491.107	26.59
491.459	26.86
491.811	27.24
492.163	27.3
492.515	27.37
492.866	27.07
493.218	26.96
493.57	26.76
493.922	26.92
494.274	27.1
494.625	27.32
494.977	27.4
495.328	27.74
495.68	27.97
496.031	28.04
496.383	28.11
496.734	28.07
497.086	28.17
497.437	28.17
497.788	28.26
498.139	27.99
498.49	28.29
498.842	28.11
499.193	28.29
499.544	28.44
499.894	28.42
500.245	28.63
500.596	28.55
500.947	28.64
501.298	28.62
501.648	28.73
501.999	28.83
502.35	28.72
502.7	29.04
503.051	28.69
503.401	29.21
503.752	29.13
504.102	29.39
504.452	29.22
504.803	29.26
505.153	29.3
505.503	29.38
505.853	29.34
506.203	29.25
506.553	29.6
506.903	29.35
507.253	29.3
507.603	29.59
507.953	29.84
508.303	29.69
508.652	29.56
509.002	29.83
509.352	29.76
509.701	29.9
510.051	30.02
510.4	29.64
510.75	29.82
511.099	29.94
511.449	29.95
511.798	30.05
512.147	30.09
512.496	30.11
512.846	30.18
513.195	30.16
513.544	30.24
513.893	30.35
514.242	30.37
514.591	30.58
514.939	30.47
515.288	30.72
515.637	30.82
515.986	30.81
516.334	30.91
516.683	30.88
517.032	30.94
517.38	31.18
517.729	31.02
518.077	31.01
518.426	31.36
518.774	31.44
519.122	31.1
519.47	31.09
519.819	31.02
520.167	31.15
520.515	31.05
520.863	31.11
521.211	31.21
521.559	31.23
521.907	31.41
522.255	31.44
522.602	31.72
522.95	31.78
523.298	31.75
523.645	31.87
523.993	31.9
524.341	32.08
524.688	32.07
525.036	32.07
525.383	32.06
525.73	32.26
526.078	32.17
526.425	32.33
526.772	32.35
527.119	32.1
527.466	32.04
527.814	31.87
528.161	32.02
528.508	32.21
528.854	32.16
529.201	32.21
529.548	32.03
529.895	32.05
530.242	31.81
530.588	31.67
530.935	31.8
531.282	31.92
531.628	32.18
531.975	32.29
532.321	32.54
532.667	32.52
533.014	32.77
533.36	32.87
533.706	32.97
534.052	33.14
534.399	32.87
534.745	32.8
535.091	32.74
535.437	32.66
535.783	32.89
536.129	33.03
536.474	33.18
536.82	33.29
537.166	33.56
537.512	33.68
537.857	33.65
538.203	33.76
538.549	33.54
538.894	33.58
539.239	33.77
539.585	33.97
539.93	33.97
540.276	34.25
540.621	34.26
540.966	34.46
541.311	34.34
541.656	34.2
542.001	34.55
542.346	34.29
542.691	34.2
543.036	33.87
543.381	33.85
543.726	34.05
544.071	34.17
544.415	34.43
544.76	34.48
545.105	34.48
545.449	34.65
545.794	34.66
546.138	34.94
546.483	35
546.827	35.03
547.171	35.31
547.516	35.23
547.86	35.22
548.204	35.25
548.548	35.34
548.892	35.39
549.236	35.61
549.58	35.48
549.924	35.57
550.268	35.76
550.612	35.91
550.956	36.37
551.3	36.22
551.643	36.21
551.987	36.24
552.33	36.39
552.674	36.57
553.017	36.59
553.361	36.43
553.704	36.83
554.048	36.64
554.391	36.49
554.734	36.43
555.077	36.63
555.42	36.52
555.764	36.91
556.107	36.99
556.45	36.73
556.793	37.05
557.135	37.29
557.478	37.4
557.821	37.34
558.164	37.14
558.507	37.47
558.849	37.74
559.192	37.77
559.534	37.65
559.877	37.71
560.219	37.72
560.562	37.89
560.904	37.94
561.246	38.05
561.589	38
561.931	38.14
562.273	38.1
562.615	38.56
562.957	38.64
563.299	38.15
563.641	38.29
563.983	38.48
564.325	38.18
564.667	38.46
565.008	38.35
565.35	38.49
565.692	38.52
566.033	38.76
566.375	38.87
566.716	38.52
567.058	38.68
567.399	38.46
567.741	38.8
568.082	38.85
568.423	38.96
568.764	38.83
569.105	38.83
569.447	38.97
569.788	38.96
570.129	39.06
570.47	39.24
570.811	39.44
571.151	39.29
571.492	39.76
571.833	39.58
572.174	39.42
572.514	39.52
572.855	39.32
573.195	39.39
573.536	39.52
573.876	39.37
574.217	39.65
574.557	39.61
574.898	39.84
575.238	39.75
575.578	39.86
575.918	39.91
576.258	39.88
576.598	40.06
576.938	40
577.278	39.91
577.618	40.32
577.958	40.23
578.298	39.92
578.638	40.53
578.977	40.72
579.317	40.44
579.657	40.71
579.996	40.53
580.336	41.15
580.675	40.81
581.014	40.87
581.354	41.03
581.693	41.15
582.032	41.23
582.372	41.14
582.711	41.58
583.05	41.3
583.389	41.45
583.728	41.32
584.067	41.49
584.406	41.61
584.745	41.59
585.083	41.85
585.422	41.8
585.761	41.92
586.1	41.87
586.438	41.88
586.777	42.19
587.115	42.11
587.454	42.26
587.792	41.86
588.13	42.6
588.469	42.24
588.807	42.33
589.145	42.24
589.483	42.34
589.821	42.71
590.159	42.58
590.497	42.67
590.835	42.65
591.173	42.54
591.511	42.62
591.849	42.6
592.187	42.7
592.524	42.82
592.862	42.88
593.2	42.77
593.537	42.86
593.875	42.73
594.212	42.92
594.55	43.08
594.887	43.46
595.224	42.92
595.561	43.22
595.899	43.29
596.236	43.48
596.573	43.41
596.91	43.37
597.247	42.98
597.584	43.68
597.921	43.55
598.258	43.57
598.594	43.41
598.931	43.27
599.268	43.51
599.604	43.41
599.941	43.84
600.277	43.69
600.614	43.8
600.95	43.86
601.287	43.61
601.623	43.78
601.959	44.24
602.296	43.98
602.632	44.46
602.968	44.42
603.304	44.32
603.64	44.58
603.976	44.77
604.312	44.76
604.648	44.32
604.984	44.79
605.319	44.9
605.655	44.34
605.991	44.64
606.326	44.59
606.662	44.41
606.998	44.55
607.333	44.72
607.668	44.68
608.004	44.59
608.339	45.11
608.674	45.3
609.01	44.91
609.345	45.33
609.68	45.16
610.015	45.42
610.35	45.2
610.685	45.34
611.02	45.22
611.355	44.95
611.689	45.24
612.024	45.15
612.359	45.42
612.694	45.51
613.028	45.68
613.363	45.69
613.697	45.99
614.032	45.55
614.366	46.09
614.7	46.13
615.035	45.94
615.369	46.21
615.703	46.76
616.037	46.02
616.371	45.39
616.705	46.49
617.039	46.2
617.373	46.27
617.707	46.46
618.041	46.36
618.375	46.8
618.709	46.56
619.042	46.47
619.376	46.45
619.71	46.65
620.043	46.25
620.377	46.7
620.71	46.7
621.043	46.82
621.377	46.86
621.71	46.98
622.043	46.92
622.376	47.14
622.709	47.34
623.043	47.4
623.376	47.45
623.709	46.63
624.041	47.61
624.374	47.45
624.707	47.47
625.04	47.53
625.373	46.94
625.705	47.64
626.038	47.37
626.37	47.54
626.703	47.94
627.035	48.25
627.368	47.93
627.7	47.43
628.032	47.31
628.365	47.61
628.697	47.97
629.029	47.55
629.361	47.93
629.693	47.53
630.025	47.88
630.357	48.32
630.689	48.15
631.021	48.15
631.353	48.41
631.684	48.02
632.016	48.34
632.348	48.35
632.679	47.86
633.011	48.67
633.342	48.51
633.674	48.31
634.005	49.05
634.336	48.74
634.668	48.91
634.999	48.26
635.33	49.13
635.661	48.86
635.992	48.55
636.323	48.85
636.654	48.87
636.985	48.71
637.316	49.13
637.647	48.65
637.977	49.33
638.308	48.82
638.639	48.95
638.969	49.37
639.3	49.24
639.63	48.69
639.961	48.84
640.291	49.23
640.622	49.51
640.952	49.41
641.282	49.37
641.612	49
641.943	49.52
642.273	49.49
642.603	49.56
642.933	49.94
643.263	49.58
643.592	49.47
643.922	50.41
644.252	49.76
644.582	50.04
644.911	49.9
645.241	49.65
645.571	49.94
645.9	50.52
646.23	49.94
646.559	49.85
646.888	50.02
647.218	50.4
647.547	50.43
647.876	50.4
648.205	50.23
648.534	50.54
648.863	50.08
649.192	50.42
649.521	50.73
649.85	50.48
650.179	50.31
650.508	50.89
650.837	49.95
651.165	50.39
651.494	50.68
651.822	50.94
652.151	50.99
652.479	51.55
652.808	50.8
653.136	51.11
653.465	50.66
653.793	50.74
654.121	51.5
654.449	51.12
654.777	51.46
655.105	51.24
655.433	51
655.761	51.13
656.089	51.23
656.417	51.03
656.745	51.66
657.073	51.42
657.4	52.09
657.728	51.72
658.056	51.2
658.383	50.71
658.711	51.74
659.038	51.22
659.365	51.65
659.693	51.75
660.02	51.07
660.347	51.93
660.674	51.77
661.001	51.61
661.329	51.3
661.656	51.55
661.982	51.72
662.309	51.72
662.636	51.6
662.963	51.95
663.29	52.14
663.616	52.27
663.943	51.41
664.27	51.58
664.596	51.95
664.923	52.44
665.249	52.35
665.576	52.72
665.902	52.63
666.228	52.15
666.554	51.99
666.881	53.18
667.207	53.05
667.533	53.18
667.859	52.7
668.185	52.9
668.511	52.62
668.837	52.01
669.162	52.64
669.488	52.82
669.814	52.27
670.139	52.79
