Data from 0371_forehead_Reflection__0__179.txt Node

Date: Fri Dec 15 18:08:58 CST 2023
User: ToomeyLab
Spectrometer: FLMS14357
Trigger mode: 0
Integration Time (sec): 1.000000E-2
Scans to average: 100
Electric dark correction enabled: true
Nonlinearity correction enabled: false
Boxcar width: 0
XAxis mode: Wavelengths
Number of Pixels in Spectrum: 2048
>>>>>Begin Spectral Data<<<<<
189.047	-62.8
189.435	-62.8
189.823	-62.8
190.211	-6.96
190.599	574.52
190.987	123.95
191.375	524.44
191.763	-294.17
192.151	64.36
192.538	57.16
192.926	167.76
193.314	191.33
193.702	8.37
194.089	-252.92
194.477	-15.32
194.864	-59.39
195.252	142.2
195.639	157.24
196.027	263.21
196.414	1121.65
196.801	35.28
197.189	172.37
197.576	122.51
197.963	130.37
198.351	32.29
198.738	49.37
199.125	25.02
199.512	0.03
199.899	40.18
200.286	44.1
200.673	0.02
201.06	-18.94
201.447	8.36
201.833	-2.74
202.22	30.49
202.607	11.49
202.994	36.62
203.38	26.08
203.767	49.6
204.154	63.27
204.54	45.37
204.927	-15.42
205.313	60.01
205.699	109.11
206.086	43.85
206.472	51.41
206.858	28.58
207.245	2.87
207.631	17.84
208.017	34.3
208.403	38.18
208.789	47.4
209.175	10.06
209.561	6.5
209.947	9.14
210.333	-19.84
210.719	21.22
211.105	23.47
211.491	-13.68
211.876	39.85
212.262	31.25
212.648	25.42
213.034	19.9
213.419	11.13
213.805	6.9
214.19	-41.86
214.576	12.48
214.961	32.04
215.346	-19.59
215.732	19.61
216.117	26.82
216.502	-42.08
216.888	32.35
217.273	38.23
217.658	-0.32
218.043	29.38
218.428	2.67
218.813	-27.7
219.198	-16.62
219.583	25.83
219.968	7.26
220.353	14.81
220.738	22.25
221.122	23.17
221.507	2.23
221.892	-13.49
222.276	5.41
222.661	21.34
223.046	27
223.43	23.17
223.815	15.72
224.199	5.6
224.583	7.92
224.968	12.25
225.352	19.39
225.736	12.77
226.121	6.16
226.505	18.01
226.889	16.82
227.273	4.78
227.657	12.87
228.041	7.8
228.425	9.04
228.809	12.44
229.193	5.83
229.577	7.97
229.961	6.42
230.344	6.07
230.728	6.13
231.112	6.51
231.495	5.98
231.879	6.25
232.263	6.69
232.646	7.74
233.03	6.99
233.413	5.11
233.797	6.89
234.18	5.57
234.563	9.06
234.946	6.84
235.33	7.51
235.713	6.33
236.096	5.57
236.479	7.4
236.862	5.5
237.245	6.8
237.628	4.93
238.011	8.1
238.394	7.21
238.777	5.36
239.16	7.12
239.543	7.5
239.925	9.61
240.308	7.42
240.691	9.11
241.073	8.04
241.456	6.31
241.838	5.53
242.221	5.3
242.603	6.34
242.986	6.58
243.368	6.56
243.75	6.92
244.133	5.96
244.515	7.18
244.897	6.38
245.279	6.45
245.661	6.68
246.043	5.79
246.425	6.17
246.807	8.31
247.189	6.85
247.571	6.08
247.953	6.52
248.335	6.52
248.717	6.47
249.098	6.15
249.48	6.4
249.862	6.01
250.243	6.58
250.625	6.26
251.006	6.5
251.388	6.16
251.769	6.92
252.151	7.18
252.532	6.9
252.913	5.76
253.295	6.85
253.676	6.27
254.057	6.76
254.438	6.01
254.819	5.82
255.2	5.96
255.581	6.65
255.962	7.64
256.343	6.31
256.724	7.05
257.105	6.59
257.486	6.36
257.867	8.4
258.247	7.45
258.628	6.54
259.009	6.72
259.389	6.82
259.77	6.54
260.15	6.26
260.531	5.84
260.911	7.06
261.292	6.64
261.672	6.66
262.052	6.33
262.432	6.26
262.813	6.29
263.193	6.37
263.573	6.49
263.953	7.07
264.333	6.86
264.713	6.65
265.093	6.74
265.473	6.88
265.853	5.07
266.233	6.42
266.612	5.18
266.992	4.59
267.372	6.2
267.752	6.21
268.131	6.16
268.511	7.11
268.89	6.08
269.27	6.12
269.649	5.97
270.029	5.95
270.408	7.56
270.787	5.91
271.167	7.64
271.546	6.8
271.925	5.63
272.304	6.65
272.683	6.48
273.062	6.62
273.441	5.6
273.82	5.58
274.199	6.27
274.578	6.23
274.957	5.66
275.336	5.64
275.715	5.82
276.093	6.22
276.472	6.5
276.851	5.46
277.229	6.63
277.608	6.02
277.986	6.23
278.365	6.67
278.743	6.17
279.122	5.51
279.5	6.09
279.878	7.14
280.257	6.41
280.635	5.69
281.013	6.6
281.391	6.55
281.769	6.38
282.147	6.29
282.525	7
282.903	5.8
283.281	6.57
283.659	7.14
284.037	6.31
284.415	6.28
284.792	6.54
285.17	5.12
285.548	6.14
285.925	6.1
286.303	6.08
286.68	6.19
287.058	6.19
287.435	6.48
287.813	6.35
288.19	6
288.567	6.27
288.945	6.99
289.322	5.91
289.699	6.25
290.076	6.84
290.453	6.53
290.83	6.55
291.207	6.39
291.584	7.18
291.961	7.01
292.338	6.36
292.715	7.08
293.092	6.98
293.469	7.24
293.845	7.26
294.222	6.89
294.599	7.26
294.975	6.97
295.352	7.49
295.728	6.57
296.105	7.39
296.481	7.76
296.858	7.09
297.234	7.15
297.61	6.57
297.986	7.23
298.363	7.76
298.739	7.78
299.115	7.63
299.491	7.47
299.867	7.23
300.243	7.83
300.619	7.48
300.995	7.79
301.371	8.22
301.746	7.77
302.122	8.43
302.498	8.04
302.874	8.35
303.249	7.97
303.625	8.28
304	8.11
304.376	8.22
304.751	8.19
305.127	9.1
305.502	8.63
305.878	8.52
306.253	8.33
306.628	9.39
307.003	8.41
307.378	9.14
307.754	9.14
308.129	8.17
308.504	8.95
308.879	9.2
309.254	9.87
309.629	9.5
310.003	9.49
310.378	9.73
310.753	9.74
311.128	9.48
311.502	9.43
311.877	10.27
312.252	9.28
312.626	9.65
313.001	10
313.375	10.37
313.75	9.62
314.124	10.21
314.498	9.69
314.873	9.94
315.247	9.82
315.621	10.12
315.995	9.97
316.369	10.76
316.743	10.28
317.117	11
317.491	10.49
317.865	11
318.239	11
318.613	11.61
318.987	10.57
319.361	10.47
319.734	10.79
320.108	11.04
320.482	11.57
320.855	12.14
321.229	12.11
321.602	12.33
321.976	11.76
322.349	11.48
322.723	12.29
323.096	12.1
323.469	12.01
323.843	12.05
324.216	12.24
324.589	12.39
324.962	11.95
325.335	11.91
325.708	11.9
326.081	12.16
326.454	12.57
326.827	12.03
327.2	12.61
327.573	13.44
327.945	12.65
328.318	12.13
328.691	12.64
329.063	13.07
329.436	12.15
329.809	12.69
330.181	12.06
330.553	12.48
330.926	12.92
331.298	13.13
331.671	12.85
332.043	13.87
332.415	13.72
332.787	13.93
333.159	13.96
333.532	13.81
333.904	12.81
334.276	13.31
334.648	13.62
335.02	13.55
335.391	13.73
335.763	13.68
336.135	14.1
336.507	14.22
336.879	14.22
337.25	14.34
337.622	13.99
337.993	14.05
338.365	14.86
338.736	14.51
339.108	14.2
339.479	13.76
339.851	14.55
340.222	13.89
340.593	15.01
340.964	14.88
341.336	15.72
341.707	14.83
342.078	15.33
342.449	15.2
342.82	15.02
343.191	15.04
343.562	15.24
343.933	14.71
344.303	15.16
344.674	15.13
345.045	15.48
345.416	15.45
345.786	15.27
346.157	15.11
346.527	15.42
346.898	15.24
347.268	15.67
347.639	15.44
348.009	15.94
348.38	15.7
348.75	15.56
349.12	16.16
349.49	16.45
349.861	16.26
350.231	16.02
350.601	16.41
350.971	16.26
351.341	16.43
351.711	16.12
352.081	16.63
352.45	16.98
352.82	16.76
353.19	16.79
353.56	16.85
353.929	16.53
354.299	16.29
354.669	16.22
355.038	17.21
355.408	16.83
355.777	16.93
356.147	16.56
356.516	17.13
356.885	17.41
357.254	16.85
357.624	18.05
357.993	17.48
358.362	16.69
358.731	17.36
359.1	17.52
359.469	17.62
359.838	17.31
360.207	17.25
360.576	17.46
360.945	18.08
361.314	18.43
361.682	17.83
362.051	18.44
362.42	18.07
362.788	18.1
363.157	18.38
363.525	18.33
363.894	18.32
364.262	17.98
364.631	18.16
364.999	18.8
365.367	18.19
365.735	19.03
366.104	18.57
366.472	18.92
366.84	18.65
367.208	18.41
367.576	19.11
367.944	19.11
368.312	18.66
368.68	18.67
369.048	19.29
369.416	19.17
369.783	19.11
370.151	19.08
370.519	19.77
370.886	19.8
371.254	19.61
371.621	19.58
371.989	19.91
372.356	19.35
372.724	19.67
373.091	19.68
373.458	19.93
373.826	19.96
374.193	20.21
374.56	20.33
374.927	20.01
375.294	20.2
375.661	20.18
376.028	20.38
376.395	20.07
376.762	20.55
377.129	20.62
377.496	20.48
377.863	20.26
378.229	20.51
378.596	20.76
378.963	21.09
379.329	21.14
379.696	20.98
380.062	20.96
380.429	20.79
380.795	21
381.161	21.21
381.528	21.46
381.894	21.61
382.26	21.52
382.626	21.74
382.993	21.41
383.359	21.45
383.725	21.69
384.091	21.96
384.457	21.92
384.823	21.68
385.188	22.13
385.554	21.67
385.92	22.31
386.286	21.82
386.651	21.79
387.017	22.42
387.383	22.53
387.748	22.15
388.114	22.68
388.479	22.45
388.845	22.95
389.21	22.67
389.575	22.7
389.94	22.79
390.306	22.71
390.671	23.17
391.036	22.67
391.401	22.75
391.766	23.22
392.131	23.03
392.496	23.19
392.861	23.19
393.226	23.42
393.591	23.58
393.956	22.99
394.32	23.46
394.685	23.07
395.05	23.46
395.414	23.75
395.779	23.79
396.143	23.66
396.508	23.75
396.872	23.82
397.236	23.9
397.601	24.15
397.965	24.1
398.329	24.5
398.694	24.47
399.058	24.35
399.422	24.45
399.786	24.81
400.15	24.71
400.514	24.59
400.878	24.76
401.242	25.05
401.605	24.61
401.969	24.72
402.333	24.74
402.697	24.79
403.06	25
403.424	25.54
403.787	24.92
404.151	25.19
404.514	25.17
404.878	25.27
405.241	25.77
405.604	25.25
405.968	25.72
406.331	25.28
406.694	25.65
407.057	25.7
407.42	25.81
407.783	25.78
408.146	25.78
408.509	25.76
408.872	25.7
409.235	26.02
409.598	25.98
409.961	25.99
410.323	26.42
410.686	26.23
411.049	26.17
411.411	26.48
411.774	26.62
412.136	26.51
412.499	26.27
412.861	26.25
413.223	26.2
413.586	26.89
413.948	26.86
414.31	26.93
414.672	26.55
415.035	26.99
415.397	26.93
415.759	26.5
416.121	27.38
416.483	27.15
416.845	27.04
417.206	27.14
417.568	27.77
417.93	27.23
418.292	27.39
418.653	27.58
419.015	27.55
419.377	27.46
419.738	27.73
420.1	27.51
420.461	27.76
420.822	27.7
421.184	27.82
421.545	27.67
421.906	27.64
422.267	27.81
422.629	27.67
422.99	27.73
423.351	27.73
423.712	27.74
424.073	27.83
424.434	27.88
424.795	28.03
425.155	28.19
425.516	28.17
425.877	28.35
426.238	28.1
426.598	28.3
426.959	28.33
427.32	28.26
427.68	28.35
428.041	28.53
428.401	28.66
428.761	28.72
429.122	28.81
429.482	28.73
429.842	29.18
430.202	29.07
430.563	29.27
430.923	29.28
431.283	29.74
431.643	29.4
432.003	29.8
432.363	29.73
432.722	29.62
433.082	29.94
433.442	29.71
433.802	29.68
434.161	29.85
434.521	30.4
434.881	29.97
435.24	30.06
435.6	30
435.959	29.99
436.319	30.04
436.678	30.16
437.037	30.19
437.396	30.25
437.756	30.48
438.115	30.51
438.474	30.6
438.833	30.65
439.192	30.64
439.551	30.94
439.91	30.83
440.269	30.8
440.628	30.82
440.987	30.86
441.345	30.92
441.704	30.89
442.063	31.07
442.421	31.19
442.78	31.07
443.138	30.9
443.497	30.87
443.855	31.09
444.214	31.29
444.572	31.38
444.93	31.55
445.288	31.4
445.647	31.67
446.005	31.53
446.363	31.65
446.721	31.99
447.079	31.86
447.437	31.97
447.795	32.11
448.153	31.92
448.51	31.89
448.868	31.85
449.226	31.83
449.584	31.88
449.941	32.07
450.299	32.1
450.656	32.14
451.014	32.49
451.371	32.54
451.729	32.36
452.086	32.68
452.443	32.66
452.801	32.72
453.158	33.01
453.515	33.03
453.872	33.19
454.229	32.96
454.586	32.93
454.943	33.14
455.3	33.24
455.657	33.19
456.014	33.3
456.371	33.51
456.727	33.64
457.084	33.73
457.441	33.78
457.797	33.8
458.154	34.07
458.51	33.72
458.867	33.96
459.223	33.9
459.58	33.99
459.936	34.16
460.292	34.25
460.648	34.19
461.005	34.3
461.361	34.37
461.717	34.12
462.073	34
462.429	33.77
462.785	33.77
463.141	34.1
463.496	34.07
463.852	34.52
464.208	34.63
464.564	34.8
464.919	34.71
465.275	34.96
465.631	34.99
465.986	34.97
466.342	35.22
466.697	35.49
467.052	35.37
467.408	35.13
467.763	35.16
468.118	35.58
468.473	35.48
468.829	35.63
469.184	35.81
469.539	35.7
469.894	35.55
470.249	35.86
470.603	35.82
470.958	35.88
471.313	36.14
471.668	35.99
472.023	36.23
472.377	36.35
472.732	36.23
473.086	36.15
473.441	36.33
473.795	36.66
474.15	36.53
474.504	36.43
474.859	37.01
475.213	36.6
475.567	36.68
475.921	36.28
476.275	36.51
476.63	36.84
476.984	37.16
477.338	37.01
477.692	37.17
478.045	37.25
478.399	37.33
478.753	37.32
479.107	37.29
479.461	37.06
479.814	37.16
480.168	37.22
480.521	37.31
480.875	37.28
481.228	37.46
481.582	37.29
481.935	37.61
482.289	37.65
482.642	37.53
482.995	37.86
483.348	37.65
483.701	37.74
484.055	37.81
484.408	37.74
484.761	37.65
485.114	37.66
485.466	37.47
485.819	37.56
486.172	37.27
486.525	36.69
486.878	36.6
487.23	36.87
487.583	37.18
487.936	37.57
488.288	37.81
488.641	38.15
488.993	38.06
489.345	37.89
489.698	37.86
490.05	37.67
490.402	37.74
490.754	37.6
491.107	37.89
491.459	37.9
491.811	38.42
492.163	38.75
492.515	38.91
492.866	38.89
493.218	38.92
493.57	38.87
493.922	38.49
494.274	38.41
494.625	38.42
494.977	38.54
495.328	38.83
495.68	39.2
496.031	39.45
496.383	39.72
496.734	40.08
497.086	40.27
497.437	40.08
497.788	40.2
498.139	40.15
498.49	40.25
498.842	40.31
499.193	40.27
499.544	40.21
499.894	40.15
500.245	40.35
500.596	40.31
500.947	40.46
501.298	40.49
501.648	40.82
501.999	40.8
502.35	40.76
502.7	40.79
503.051	40.97
503.401	40.98
503.752	41.19
504.102	41.37
504.452	41.47
504.803	41.5
505.153	41.3
505.503	41.54
505.853	41.52
506.203	41.41
506.553	41.82
506.903	41.52
507.253	41.28
507.603	41.54
507.953	41.86
508.303	41.79
508.652	41.82
509.002	42.05
509.352	42.13
509.701	42.26
510.051	42.19
510.4	42.05
510.75	42.04
511.099	42.19
511.449	42.13
511.798	42.3
512.147	42.32
512.496	42.35
512.846	42.43
513.195	42.58
513.544	42.58
513.893	42.61
514.242	42.59
514.591	42.67
514.939	42.83
515.288	42.86
515.637	42.85
515.986	42.98
516.334	43.01
516.683	43.06
517.032	43.23
517.38	43.43
517.729	43.63
518.077	43.5
518.426	43.85
518.774	43.84
519.122	43.74
519.47	43.64
519.819	43.58
520.167	43.6
520.515	43.55
520.863	43.49
521.211	43.46
521.559	43.42
521.907	43.34
522.255	43.84
522.602	43.89
522.95	44.17
523.298	44.28
523.645	44.22
523.993	44.35
524.341	44.29
524.688	44.46
525.036	44.68
525.383	44.72
525.73	44.95
526.078	44.64
526.425	44.75
526.772	44.83
527.119	44.92
527.466	44.83
527.814	44.6
528.161	44.45
528.508	44.56
528.854	44.61
529.201	44.8
529.548	44.76
529.895	45
530.242	44.95
530.588	44.89
530.935	44.75
531.282	44.38
531.628	44.18
531.975	44.3
532.321	44.6
532.667	44.96
533.014	45.17
533.36	45.28
533.706	45.58
534.052	45.82
534.399	45.54
534.745	45.78
535.091	45.8
535.437	45.77
535.783	45.54
536.129	45.3
536.474	45.35
536.82	45.62
537.166	45.87
537.512	46.14
537.857	46.27
538.203	46.61
538.549	46.55
538.894	46.6
539.239	46.41
539.585	46.27
539.93	46.32
540.276	46.55
540.621	46.94
540.966	46.92
541.311	47.02
541.656	47.3
542.001	47.22
542.346	47.55
542.691	47.39
543.036	47.28
543.381	47.21
543.726	47.03
544.071	46.81
544.415	46.71
544.76	46.8
545.105	47.19
545.449	47.29
545.794	47.37
546.138	47.57
546.483	47.49
546.827	47.62
547.171	47.96
547.516	48.18
547.86	48.24
548.204	48.17
548.548	48.22
548.892	48.48
549.236	48.46
549.58	48.32
549.924	48.22
550.268	48.52
550.612	48.49
550.956	49.09
551.3	49.05
551.643	49.01
551.987	49.07
552.33	49.46
552.674	49.63
553.017	49.59
553.361	49.57
553.704	49.82
554.048	49.74
554.391	49.82
554.734	49.97
555.077	49.86
555.42	49.47
555.764	49.62
556.107	49.86
556.45	49.71
556.793	50.1
557.135	50.38
557.478	50.45
557.821	50.35
558.164	50.42
558.507	50.53
558.849	50.49
559.192	50.88
559.534	50.74
559.877	50.58
560.219	50.81
560.562	50.78
560.904	51.1
561.246	51.17
561.589	51.12
561.931	51.28
562.273	51.22
562.615	51.7
562.957	51.32
563.299	51.49
563.641	51.35
563.983	51.38
564.325	51.35
564.667	51.64
565.008	51.5
565.35	51.7
565.692	51.81
566.033	51.75
566.375	52.23
566.716	51.97
567.058	52.23
567.399	51.79
567.741	51.98
568.082	52.28
568.423	52.28
568.764	52.05
569.105	52.13
569.447	52.12
569.788	52.01
570.129	52.16
570.47	52.18
570.811	52.9
571.151	52.95
571.492	52.81
571.833	52.53
572.174	52.76
572.514	53.2
572.855	52.96
573.195	53.16
573.536	53.19
573.876	52.87
574.217	53.26
574.557	52.83
574.898	53.21
575.238	53.24
575.578	53.07
575.918	53.32
576.258	53.35
576.598	53.42
576.938	53.49
577.278	53.59
577.618	53.71
577.958	53.19
578.298	53.44
578.638	53.95
578.977	53.63
579.317	53.81
579.657	54.16
579.996	53.93
580.336	54.45
580.675	54.29
581.014	54.39
581.354	54.09
581.693	54.74
582.032	54.41
582.372	54.74
582.711	55.11
583.05	54.85
583.389	54.74
583.728	55.08
584.067	55.12
584.406	54.91
584.745	55.22
585.083	55.56
585.422	55.75
585.761	55.33
586.1	55.42
586.438	55.34
586.777	55.56
587.115	55.54
587.454	55.93
587.792	55.87
588.13	55.48
588.469	55.59
588.807	55.49
589.145	56.03
589.483	55.84
589.821	56.45
590.159	55.61
590.497	56.3
590.835	56.09
591.173	56.3
591.511	56.53
591.849	56.02
592.187	56.59
592.524	56.3
592.862	56.58
593.2	56.46
593.537	56.26
593.875	56.81
594.212	56.5
594.55	56.82
594.887	56.95
595.224	56.75
595.561	56.76
595.899	56.99
596.236	57.13
596.573	56.93
596.91	57.33
597.247	56.84
597.584	57.29
597.921	56.92
598.258	57.11
598.594	57.4
598.931	57.27
599.268	57.39
599.604	57.51
599.941	57.55
600.277	57.6
600.614	57.12
600.95	57.29
601.287	57.45
601.623	57.77
601.959	57.85
602.296	57.58
602.632	58.09
602.968	58.42
603.304	58.3
603.64	58.48
603.976	58.5
604.312	58.52
604.648	58.16
604.984	58.7
605.319	58.63
605.655	58.85
605.991	58.5
606.326	58.65
606.662	58.67
606.998	58.43
607.333	58.46
607.668	58.42
608.004	58.47
608.339	58.63
608.674	58.86
609.01	58.94
609.345	59.02
609.68	59.39
610.015	59.04
610.35	58.91
610.685	59.08
611.02	59.5
611.355	59.46
611.689	59.52
612.024	59.14
612.359	59.22
612.694	59.12
613.028	59.51
613.363	59.59
613.697	59.35
614.032	59.25
614.366	59.93
614.7	59.93
615.035	60.12
615.369	59.73
615.703	60.45
616.037	60.56
616.371	59.88
616.705	60.25
617.039	59.82
617.373	59.94
617.707	60.74
618.041	59.88
618.375	60.36
618.709	60.45
619.042	60.53
619.376	60.83
619.71	61.31
620.043	60.44
620.377	61.15
620.71	61.15
621.043	61.32
621.377	60.88
621.71	61.13
622.043	61.21
622.376	60.95
622.709	61.46
623.043	61.23
623.376	61.41
623.709	61.36
624.041	61.61
624.374	61.92
624.707	61.56
625.04	61.87
625.373	61.26
625.705	62.54
626.038	61.88
626.37	61.84
626.703	62.28
627.035	61.98
627.368	62.11
627.7	61.9
628.032	61.84
628.365	62.24
628.697	62.27
629.029	62.1
629.361	62.31
629.693	61.82
630.025	62.08
630.357	62.1
630.689	62.52
631.021	62.31
631.353	62.83
631.684	62.44
632.016	62.4
632.348	62.84
632.679	62.42
633.011	63.08
633.342	63.61
633.674	62.59
634.005	63.34
634.336	62.7
634.668	63.16
634.999	62.91
635.33	64.06
635.661	63.28
635.992	63.24
636.323	63.43
636.654	63.38
636.985	63.63
637.316	63.49
637.647	63.12
637.977	63.66
638.308	63.68
638.639	63.91
638.969	63.32
639.3	63.72
639.63	63.59
639.961	63.94
640.291	63.45
640.622	63.82
640.952	63.98
641.282	64.43
641.612	63.74
641.943	63.96
642.273	63.99
642.603	64.06
642.933	64.66
643.263	63.87
643.592	63.46
643.922	64.23
644.252	64.47
644.582	64.39
644.911	64.95
645.241	64.32
645.571	64.38
645.9	64.61
646.23	64.12
646.559	64.7
646.888	64.71
647.218	64.7
647.547	64.74
647.876	64.75
648.205	64.24
648.534	65.09
648.863	65.13
649.192	65.48
649.521	65.24
649.85	65.33
650.179	64.31
650.508	65.22
650.837	64.99
651.165	65.63
651.494	65.37
651.822	65.37
652.151	65.47
652.479	65.62
652.808	65.87
653.136	66.46
653.465	65.48
653.793	65.19
654.121	66.26
654.449	65.81
654.777	65.77
655.105	66
655.433	65.86
655.761	65.85
656.089	66.84
656.417	65.74
656.745	66.76
657.073	66.52
657.4	66.47
657.728	66.56
658.056	67.12
658.383	66.35
658.711	66.6
659.038	66.76
659.365	65.79
659.693	66.86
660.02	65.98
660.347	67.23
660.674	67.4
661.001	67.34
661.329	66.87
661.656	66.61
661.982	66.72
662.309	66.36
662.636	66.52
662.963	66.52
663.29	67.54
663.616	66.95
663.943	66.74
664.27	66.58
664.596	66.23
664.923	67.17
665.249	66.78
665.576	67.67
665.902	68.69
666.228	67.2
666.554	67.1
666.881	67.43
667.207	68.27
667.533	67.48
667.859	67.51
668.185	67.39
668.511	67.51
668.837	67.26
