Data from 0371_chest_Reflection__0__169.txt Node

Date: Fri Dec 15 18:06:21 CST 2023
User: ToomeyLab
Spectrometer: FLMS14357
Trigger mode: 0
Integration Time (sec): 1.000000E-2
Scans to average: 100
Electric dark correction enabled: true
Nonlinearity correction enabled: false
Boxcar width: 0
XAxis mode: Wavelengths
Number of Pixels in Spectrum: 2048
>>>>>Begin Spectral Data<<<<<
189.047	-159.86
189.435	-159.86
189.823	-159.86
190.211	89.23
190.599	137.07
190.987	47.32
191.375	-2.41
191.763	-88.25
192.151	42.2
192.538	172.61
192.926	47.26
193.314	203.68
193.702	48.09
194.089	-14.04
194.477	-61.6
194.864	-115.19
195.252	137.26
195.639	120.74
196.027	316.62
196.414	142.21
196.801	286.64
197.189	118.76
197.576	10.04
197.963	19.13
198.351	-68.81
198.738	-30.14
199.125	52.54
199.512	42.43
199.899	6.82
200.286	34.6
200.673	34.88
201.06	-31.02
201.447	-8.34
201.833	26.27
202.22	27.13
202.607	22.85
202.994	-25.82
203.38	22.85
203.767	37.39
204.154	44.07
204.54	46.84
204.927	-17.57
205.313	0.95
205.699	79.12
206.086	25.41
206.472	55.79
206.858	7.68
207.245	25.06
207.631	20.3
208.017	23.07
208.403	6.53
208.789	14.45
209.175	19.02
209.561	29.98
209.947	15.86
210.333	-43.47
210.719	48.12
211.105	26.71
211.491	-12.69
211.876	25.9
212.262	17.58
212.648	18.05
213.034	19.96
213.419	-17.05
213.805	-31.56
214.19	-21.07
214.576	-15.77
214.961	22.65
215.346	-55.14
215.732	-17.61
216.117	-9.08
216.502	6.76
216.888	6.67
217.273	22.53
217.658	9.42
218.043	17.16
218.428	-14.06
218.813	0.49
219.198	-18.62
219.583	-8.95
219.968	27.97
220.353	20.59
220.738	36.42
221.122	3.04
221.507	-30.91
221.892	-20.7
222.276	-3.51
222.661	0.64
223.046	15.58
223.43	16.98
223.815	16.36
224.199	-15.23
224.583	-10.72
224.968	11.19
225.352	14.48
225.736	0.49
226.121	-15.48
226.505	3.28
226.889	9.87
227.273	6.4
227.657	3.36
228.041	8.91
228.425	3.86
228.809	7.45
229.193	5.29
229.577	2.23
229.961	5.46
230.344	4.57
230.728	3.64
231.112	5.43
231.495	2.95
231.879	3.2
232.263	5.07
232.646	5.3
233.03	4.24
233.413	3.19
233.797	3.22
234.18	4.56
234.563	4.31
234.946	4.53
235.33	6.18
235.713	4.63
236.096	4.53
236.479	3.8
236.862	3.8
237.245	6.33
237.628	4.52
238.011	6.62
238.394	6.79
238.777	4.86
239.16	3.37
239.543	4.71
239.925	5.57
240.308	4.14
240.691	8.14
241.073	5.11
241.456	2.91
241.838	3.78
242.221	4.95
242.603	5.32
242.986	5.71
243.368	4.8
243.75	4.77
244.133	4.81
244.515	5.26
244.897	4.7
245.279	4.68
245.661	4.07
246.043	4.03
246.425	3.5
246.807	5.44
247.189	5.22
247.571	4.81
247.953	4.58
248.335	5.11
248.717	5.03
249.098	4.7
249.48	4.69
249.862	4.74
250.243	4.71
250.625	4.76
251.006	5.59
251.388	3.79
251.769	4.5
252.151	4.02
252.532	5.48
252.913	3.61
253.295	4
253.676	4.46
254.057	4.88
254.438	4.57
254.819	4.48
255.2	4.18
255.581	4.31
255.962	4.49
256.343	5.02
256.724	4.67
257.105	4.42
257.486	4.24
257.867	4.98
258.247	4.53
258.628	4.62
259.009	5.45
259.389	4.94
259.77	4.38
260.15	3.75
260.531	4.16
260.911	5.51
261.292	4.52
261.672	4.81
262.052	4.5
262.432	5.04
262.813	4.77
263.193	4.83
263.573	4.67
263.953	4.78
264.333	4.86
264.713	5.03
265.093	4.89
265.473	4.87
265.853	4.45
266.233	4.48
266.612	2.92
266.992	3.6
267.372	5.05
267.752	4.5
268.131	4.24
268.511	4.67
268.89	5.14
269.27	4.58
269.649	3.92
270.029	3.79
270.408	4.47
270.787	4.86
271.167	5.42
271.546	5.05
271.925	3.82
272.304	4.07
272.683	5.41
273.062	4.41
273.441	4.62
273.82	3.93
274.199	4.44
274.578	4.37
274.957	4.16
275.336	4.08
275.715	4.28
276.093	3.8
276.472	4.93
276.851	4.11
277.229	4.6
277.608	3.59
277.986	4.45
278.365	3.95
278.743	3.82
279.122	4.02
279.5	4.51
279.878	4.74
280.257	4.6
280.635	4.17
281.013	4.77
281.391	4.73
281.769	4.57
282.147	4.3
282.525	4.65
282.903	4.23
283.281	4.33
283.659	4.98
284.037	4.76
284.415	4.45
284.792	4.82
285.17	3.49
285.548	4.12
285.925	4.37
286.303	4.31
286.68	4.25
287.058	4.49
287.435	4.74
287.813	4.66
288.19	4.42
288.567	4.39
288.945	4.97
289.322	4.34
289.699	4.13
290.076	4.63
290.453	3.96
290.83	4.6
291.207	4.23
291.584	4.54
291.961	5.21
292.338	4.72
292.715	5.36
293.092	5.29
293.469	4.67
293.845	4.98
294.222	4.94
294.599	5.36
294.975	4.93
295.352	6.04
295.728	4.72
296.105	5.15
296.481	5.72
296.858	5.34
297.234	5.35
297.61	5.4
297.986	5.57
298.363	5.12
298.739	5.38
299.115	5.48
299.491	5.18
299.867	5.37
300.243	5.6
300.619	5.46
300.995	5.55
301.371	5.13
301.746	5.31
302.122	6.26
302.498	5.8
302.874	6.05
303.249	5.66
303.625	5.59
304	6.31
304.376	6.07
304.751	5.84
305.127	6.62
305.502	5.48
305.878	5.16
306.253	6.06
306.628	6.57
307.003	5.97
307.378	6.66
307.754	5.9
308.129	5.27
308.504	6.1
308.879	6.05
309.254	7.03
309.629	6.54
310.003	6.16
310.378	6.9
310.753	7.05
311.128	6.32
311.502	6.38
311.877	6.59
312.252	5.87
312.626	6.59
313.001	6.26
313.375	6.62
313.75	6.16
314.124	6.42
314.498	6.52
314.873	6.25
315.247	6.67
315.621	6.2
315.995	6.03
316.369	7.16
316.743	6.7
317.117	7.03
317.491	6.13
317.865	6.64
318.239	6.88
318.613	6.84
318.987	6.77
319.361	6.96
319.734	7.36
320.108	6.28
320.482	6.76
320.855	7.84
321.229	6.67
321.602	7.17
321.976	7.36
322.349	6.92
322.723	6.91
323.096	7.85
323.469	6.57
323.843	7.17
324.216	7.68
324.589	6.54
324.962	6.71
325.335	7.04
325.708	7.09
326.081	6.59
326.454	6.98
326.827	7.4
327.2	7.43
327.573	7.48
327.945	7.36
328.318	7.04
328.691	6.68
329.063	7.37
329.436	6.96
329.809	7.7
330.181	7.13
330.553	6.93
330.926	7.9
331.298	7.34
331.671	7.41
332.043	7.49
332.415	7.63
332.787	7.3
333.159	8.38
333.532	6.87
333.904	7.77
334.276	7.81
334.648	6.98
335.02	7.12
335.391	7.82
335.763	7.13
336.135	7.06
336.507	8.13
336.879	7.13
337.25	7.31
337.622	7.48
337.993	7.57
338.365	7.69
338.736	7.96
339.108	7.95
339.479	7.19
339.851	7.48
340.222	7.51
340.593	7.54
340.964	7.68
341.336	8.27
341.707	6.97
342.078	8.09
342.449	7.49
342.82	7.4
343.191	8.09
343.562	8.2
343.933	7.66
344.303	7.51
344.674	7.38
345.045	8.15
345.416	7.87
345.786	7.47
346.157	7.76
346.527	7.25
346.898	7.1
347.268	7.94
347.639	7.3
348.009	7.41
348.38	6.82
348.75	7.29
349.12	7.75
349.49	8.3
349.861	8.24
350.231	7.36
350.601	7.79
350.971	8.21
351.341	7.69
351.711	8.11
352.081	7.45
352.45	7.44
352.82	7.93
353.19	7.6
353.56	7.29
353.929	7.81
354.299	7.73
354.669	7.72
355.038	8.27
355.408	8.19
355.777	7.89
356.147	7.56
356.516	7.97
356.885	7.87
357.254	7.9
357.624	7.99
357.993	7.85
358.362	8.02
358.731	7.59
359.1	7.92
359.469	8
359.838	7.71
360.207	7.53
360.576	7.87
360.945	7.83
361.314	8.47
361.682	8.1
362.051	7.92
362.42	8.16
362.788	7.87
363.157	8.26
363.525	8.13
363.894	7.91
364.262	8.08
364.631	7.87
364.999	8.19
365.367	7.55
365.735	8.41
366.104	7.81
366.472	8.21
366.84	7.66
367.208	8.19
367.576	8.24
367.944	8.53
368.312	8.16
368.68	7.92
369.048	8.1
369.416	7.98
369.783	7.76
370.151	8.28
370.519	8.91
370.886	8.16
371.254	7.99
371.621	8.22
371.989	8.24
372.356	7.91
372.724	8.38
373.091	8.23
373.458	8.24
373.826	8.09
374.193	7.91
374.56	8.18
374.927	8.28
375.294	8.38
375.661	8.3
376.028	8.38
376.395	8.19
376.762	8.44
377.129	8.05
377.496	8.07
377.863	8.22
378.229	7.88
378.596	8.57
378.963	8.17
379.329	8.23
379.696	8.21
380.062	8.28
380.429	8.13
380.795	8.31
381.161	8.46
381.528	8.61
381.894	8.27
382.26	8.12
382.626	8.48
382.993	8.25
383.359	8.7
383.725	8.42
384.091	8.36
384.457	8.46
384.823	8.04
385.188	8.43
385.554	8.37
385.92	8.61
386.286	8.51
386.651	8.72
387.017	8.92
387.383	8.66
387.748	8.42
388.114	8.78
388.479	8.2
388.845	8.64
389.21	8.73
389.575	8.66
389.94	8.43
390.306	8.79
390.671	8.96
391.036	8.18
391.401	8.45
391.766	8.5
392.131	8.58
392.496	8.61
392.861	8.6
393.226	8.85
393.591	8.69
393.956	8.44
394.32	8.52
394.685	8.21
395.05	8.26
395.414	8.54
395.779	8.61
396.143	8.67
396.508	8.65
396.872	8.69
397.236	8.73
397.601	8.31
397.965	8.67
398.329	8.5
398.694	8.86
399.058	8.82
399.422	8.59
399.786	9.1
400.15	8.83
400.514	8.58
400.878	8.96
401.242	8.81
401.605	8.86
401.969	8.95
402.333	9.01
402.697	8.67
403.06	8.9
403.424	9
403.787	8.92
404.151	8.95
404.514	8.66
404.878	9.17
405.241	8.84
405.604	8.91
405.968	8.9
406.331	8.96
406.694	8.95
407.057	8.86
407.42	8.94
407.783	8.91
408.146	8.89
408.509	8.9
408.872	8.59
409.235	9
409.598	9.13
409.961	9.1
410.323	9.18
410.686	9.1
411.049	8.97
411.411	9.08
411.774	8.93
412.136	9.01
412.499	8.95
412.861	8.97
413.223	9.13
413.586	9.05
413.948	8.86
414.31	9.17
414.672	9.11
415.035	9.05
415.397	9.05
415.759	9.13
416.121	9.2
416.483	8.99
416.845	9.21
417.206	9.25
417.568	9.39
417.93	8.68
418.292	8.98
418.653	8.93
419.015	9.13
419.377	9.06
419.738	9.14
420.1	9.07
420.461	9.11
420.822	9.22
421.184	8.99
421.545	9.06
421.906	9.02
422.267	9
422.629	9.07
422.99	9.02
423.351	8.97
423.712	9.07
424.073	9.14
424.434	9.13
424.795	9.03
425.155	9.13
425.516	9.02
425.877	9.1
426.238	8.99
426.598	9.25
426.959	9.14
427.32	9.07
427.68	9.09
428.041	9.01
428.401	9.42
428.761	9.27
429.122	9.34
429.482	9.36
429.842	9.39
430.202	9.39
430.563	9.37
430.923	9.24
431.283	9.6
431.643	9.42
432.003	9.48
432.363	9.42
432.722	9.25
433.082	9.56
433.442	9.58
433.802	9.31
434.161	9.58
434.521	9.57
434.881	9.53
435.24	9.34
435.6	9.42
435.959	9.42
436.319	9.36
436.678	9.28
437.037	9.37
437.396	9.46
437.756	9.39
438.115	9.46
438.474	9.52
438.833	9.53
439.192	9.45
439.551	9.61
439.91	9.55
440.269	9.65
440.628	9.45
440.987	9.51
441.345	9.43
441.704	9.41
442.063	9.43
442.421	9.53
442.78	9.44
443.138	9.58
443.497	9.54
443.855	9.41
444.214	9.56
444.572	9.57
444.93	9.75
445.288	9.85
445.647	9.76
446.005	9.73
446.363	9.84
446.721	9.74
447.079	9.59
447.437	9.62
447.795	9.78
448.153	9.61
448.51	9.51
448.868	9.53
449.226	9.56
449.584	9.59
449.941	9.76
450.299	9.66
450.656	9.74
451.014	9.81
451.371	9.76
451.729	9.67
452.086	10.02
452.443	9.8
452.801	10.07
453.158	9.81
453.515	9.85
453.872	9.87
454.229	9.8
454.586	9.81
454.943	9.81
455.3	10.02
455.657	9.73
456.014	9.87
456.371	9.97
456.727	10.01
457.084	10.02
457.441	10.13
457.797	10.12
458.154	10.31
458.51	10.03
458.867	10.17
459.223	10.1
459.58	10.14
459.936	10.1
460.292	10.09
460.648	10.08
461.005	10
461.361	10.12
461.717	10.01
462.073	9.89
462.429	9.85
462.785	9.95
463.141	9.95
463.496	10.1
463.852	10.29
464.208	10.12
464.564	10.18
464.919	10.17
465.275	10.27
465.631	10.48
465.986	10.31
466.342	10.4
466.697	10.11
467.052	10.22
467.408	10.37
467.763	10.22
468.118	10.19
468.473	10.33
468.829	10.35
469.184	10.27
469.539	10.2
469.894	10.21
470.249	10.43
470.603	10.46
470.958	10.47
471.313	10.51
471.668	10.53
472.023	10.55
472.377	10.25
472.732	10.28
473.086	10.37
473.441	10.38
473.795	10.65
474.15	10.51
474.504	10.41
474.859	10.55
475.213	10.49
475.567	10.49
475.921	10.47
476.275	10.64
476.63	10.62
476.984	10.85
477.338	10.44
477.692	10.52
478.045	10.52
478.399	10.58
478.753	10.75
479.107	10.72
479.461	10.57
479.814	10.61
480.168	10.63
480.521	10.53
480.875	10.65
481.228	10.68
481.582	10.59
481.935	10.57
482.289	10.77
482.642	10.57
482.995	10.63
483.348	10.57
483.701	10.52
484.055	10.64
484.408	10.75
484.761	10.54
485.114	10.42
485.466	10.33
485.819	10.29
486.172	10.26
486.525	10.18
486.878	10.21
487.23	10.3
487.583	10.38
487.936	10.59
488.288	10.54
488.641	10.74
488.993	10.6
489.345	10.51
489.698	10.45
490.05	10.41
490.402	10.5
490.754	10.45
491.107	10.63
491.459	10.62
491.811	10.72
492.163	10.8
492.515	10.78
492.866	10.86
493.218	10.81
493.57	10.68
493.922	10.7
494.274	10.73
494.625	10.68
494.977	10.89
495.328	10.91
495.68	10.96
496.031	11.05
496.383	11.18
496.734	11.22
497.086	11.16
497.437	11.26
497.788	11.19
498.139	11.18
498.49	11.32
498.842	11.16
499.193	11.17
499.544	11.18
499.894	11.15
500.245	11.25
500.596	11.22
500.947	11.38
501.298	11.36
501.648	11.4
501.999	11.37
502.35	11.36
502.7	11.56
503.051	11.21
503.401	11.32
503.752	11.5
504.102	11.42
504.452	11.71
504.803	11.66
505.153	11.61
505.503	11.63
505.853	11.63
506.203	11.5
506.553	11.62
506.903	11.65
507.253	11.57
507.603	11.55
507.953	11.79
508.303	11.84
508.652	11.59
509.002	11.85
509.352	11.88
509.701	11.69
510.051	11.79
510.4	11.77
510.75	11.77
511.099	11.77
511.449	11.85
511.798	11.74
512.147	11.88
512.496	11.91
512.846	11.87
513.195	11.67
513.544	11.93
513.893	12.07
514.242	11.92
514.591	12.05
514.939	11.83
515.288	11.95
515.637	11.99
515.986	12.13
516.334	12.31
516.683	12.11
517.032	12.15
517.38	12.44
517.729	12.15
518.077	12.12
518.426	12.31
518.774	12.34
519.122	12.24
519.47	12.33
519.819	12.16
520.167	12.23
520.515	12.25
520.863	12.31
521.211	12.38
521.559	12.19
521.907	12.26
522.255	12.33
522.602	12.39
522.95	12.5
523.298	12.38
523.645	12.49
523.993	12.29
524.341	12.63
524.688	12.67
525.036	12.43
525.383	12.64
525.73	12.74
526.078	12.65
526.425	12.61
526.772	12.81
527.119	12.66
527.466	12.6
527.814	12.71
528.161	12.5
528.508	12.65
528.854	12.52
529.201	12.56
529.548	12.5
529.895	12.66
530.242	12.53
530.588	12.5
530.935	12.46
531.282	12.41
531.628	12.39
531.975	12.48
532.321	12.63
532.667	12.75
533.014	12.96
533.36	12.88
533.706	13
534.052	13.05
534.399	12.86
534.745	13.01
535.091	12.96
535.437	12.98
535.783	12.95
536.129	12.96
536.474	12.94
536.82	12.99
537.166	13.13
537.512	13.31
537.857	13.31
538.203	13.45
538.549	13.38
538.894	13.34
539.239	13.49
539.585	13.36
539.93	13.3
540.276	13.52
540.621	13.6
540.966	13.59
541.311	13.54
541.656	13.6
542.001	13.84
542.346	13.85
542.691	13.72
543.036	13.68
543.381	13.5
543.726	13.6
544.071	13.58
544.415	13.51
544.76	13.48
545.105	13.74
545.449	13.81
545.794	13.87
546.138	13.85
546.483	13.85
546.827	14.14
547.171	14.18
547.516	14.18
547.86	14.17
548.204	14.18
548.548	14.22
548.892	14.4
549.236	14.38
549.58	14.37
549.924	14.36
550.268	14.53
550.612	14.41
550.956	14.73
551.3	14.65
551.643	14.65
551.987	14.87
552.33	14.73
552.674	14.79
553.017	14.82
553.361	14.67
553.704	14.93
554.048	14.92
554.391	14.91
554.734	15.01
555.077	15.07
555.42	15.04
555.764	14.89
556.107	15.04
556.45	14.98
556.793	15.01
557.135	15.3
557.478	15.61
557.821	15.28
558.164	15.21
558.507	15.45
558.849	15.27
559.192	15.63
559.534	15.5
559.877	15.69
560.219	15.5
560.562	15.57
560.904	15.86
561.246	15.86
561.589	15.58
561.931	15.69
562.273	15.75
562.615	16.03
562.957	16.06
563.299	15.64
563.641	15.83
563.983	15.99
564.325	15.56
564.667	16.2
565.008	15.92
565.35	16.07
565.692	15.93
566.033	16.08
566.375	16.33
566.716	16.27
567.058	16.42
567.399	16.28
567.741	16.07
568.082	16.36
568.423	16.38
568.764	16.37
569.105	16.44
569.447	16.42
569.788	16.51
570.129	16.65
570.47	16.32
570.811	16.67
571.151	16.81
571.492	16.81
571.833	16.74
572.174	16.87
572.514	16.74
572.855	16.69
573.195	16.88
573.536	16.85
573.876	16.79
574.217	16.85
574.557	17.03
574.898	16.92
575.238	16.88
575.578	16.92
575.918	17.23
576.258	17.28
576.598	17.33
576.938	17.17
577.278	17.21
577.618	17.47
577.958	17.11
578.298	17.52
578.638	17.41
578.977	17.35
579.317	17.53
579.657	17.53
579.996	17.5
580.336	17.49
580.675	17.49
581.014	17.91
581.354	17.97
581.693	17.76
582.032	18.14
582.372	18.06
582.711	18.19
583.05	17.88
583.389	18.16
583.728	18.01
584.067	18.23
584.406	18.34
584.745	18.11
585.083	18.35
585.422	18.33
585.761	18.53
586.1	18.36
586.438	18.44
586.777	18.53
587.115	18.59
587.454	18.67
587.792	18.68
588.13	18.53
588.469	18.57
588.807	18.83
589.145	18.3
589.483	18.89
589.821	18.98
590.159	19.06
590.497	19.17
590.835	19.07
591.173	19.14
591.511	19.28
591.849	19.23
592.187	19.33
592.524	19.21
592.862	19.37
593.2	19.13
593.537	19.07
593.875	19.2
594.212	18.93
594.55	19.41
594.887	19.67
595.224	19.51
595.561	19.62
595.899	19.49
596.236	19.61
596.573	19.54
596.91	19.4
597.247	19.41
597.584	19.66
597.921	19.8
598.258	19.76
598.594	19.92
598.931	20.08
599.268	19.91
599.604	19.84
599.941	20
600.277	20.04
600.614	19.89
600.95	19.97
601.287	20.28
601.623	20.02
601.959	20.02
602.296	20.37
602.632	20.68
602.968	20.59
603.304	20.61
603.64	20.46
603.976	20.66
604.312	20.45
604.648	20.77
604.984	20.94
605.319	20.74
605.655	20.89
605.991	20.89
606.326	20.68
606.662	20.85
606.998	20.83
607.333	20.77
607.668	20.85
608.004	20.83
608.339	21.28
608.674	21.08
609.01	21.04
609.345	20.97
609.68	21.6
610.015	21.17
610.35	21.17
610.685	21.03
611.02	21.38
611.355	21.42
611.689	21.44
612.024	21.35
612.359	21.3
612.694	21.18
613.028	21.46
613.363	21.65
613.697	21.65
614.032	21.86
614.366	21.74
614.7	22.19
615.035	21.63
615.369	21.88
615.703	21.58
616.037	22.15
616.371	21.4
616.705	22.02
617.039	22.22
617.373	21.83
617.707	22.13
618.041	22.22
618.375	22.07
618.709	22.5
619.042	22.13
619.376	22.51
619.71	23.04
620.043	22.48
620.377	22.83
620.71	22.97
621.043	22.51
621.377	22.58
621.71	22.92
622.043	22.8
622.376	22.43
622.709	22.53
623.043	22.85
623.376	22.92
623.709	22.89
624.041	23.38
624.374	23.22
624.707	22.8
625.04	23.04
625.373	23.07
625.705	23.37
626.038	23.37
626.37	23.25
626.703	22.89
627.035	23.43
627.368	24.06
627.7	23.48
628.032	23.62
628.365	23.7
628.697	23.64
629.029	23.38
629.361	23.62
629.693	23.49
630.025	23.37
630.357	24.05
630.689	24.07
631.021	23.84
631.353	23.75
631.684	23.92
632.016	24.04
632.348	23.61
632.679	24
633.011	23.94
633.342	24.48
633.674	23.92
634.005	24.53
634.336	24.23
634.668	25.2
634.999	23.97
635.33	24.55
635.661	24.37
635.992	24.09
636.323	24.42
636.654	24.71
636.985	24.44
637.316	24.75
637.647	24.24
637.977	24.95
638.308	24.62
638.639	25.04
638.969	24.4
639.3	24.32
639.63	24.66
639.961	25.15
640.291	25.1
640.622	25.45
640.952	24.98
641.282	25.33
641.612	25.29
641.943	25.2
642.273	25.06
642.603	24.97
642.933	25.95
643.263	25.41
643.592	25.31
643.922	25.21
644.252	25.05
644.582	25.45
644.911	25.57
645.241	25.74
645.571	25.9
645.9	25.12
646.23	25.62
646.559	26.07
646.888	25.98
647.218	25.58
647.547	25.95
647.876	25.19
648.205	26.05
648.534	26.01
648.863	25.2
649.192	26.21
649.521	25.76
649.85	26.22
650.179	26.23
650.508	26.22
650.837	25.35
651.165	25.87
651.494	26.53
651.822	26.08
652.151	26.29
652.479	26.41
652.808	26.2
653.136	26.87
653.465	26.15
653.793	26.38
654.121	26.33
654.449	26.93
654.777	27.22
655.105	26.56
655.433	26.4
655.761	26.38
656.089	26.99
656.417	26.81
656.745	26.64
657.073	26.89
657.4	27.48
657.728	26.91
658.056	27.34
658.383	27.2
658.711	27.05
659.038	26.79
659.365	27.64
659.693	26.97
660.02	27.19
660.347	26.95
660.674	27.39
661.001	27.59
661.329	26.97
661.656	27.56
661.982	27.61
662.309	27.15
662.636	27.38
662.963	27.5
663.29	27.75
663.616	27.76
663.943	27.6
664.27	27.93
664.596	27.7
664.923	27.12
665.249	27.29
665.576	28.33
665.902	29.07
666.228	27.93
666.554	27.93
666.881	28.39
667.207	28.52
667.533	27.62
667.859	28.27
668.185	28.24
668.511	27.32
668.837	27.68
669.162	27.4
669.488	28
669.814	28.96
670.139	28.63
670.465	28.83
670.791	28.27
671.116	28.75
671.442	28.52
671.767	28.66
672.092	29.1
672.418	28.43
672.743	28.68
673.068	28.96
673.393	28.28
673.718	28.93
674.043	29.09
674.368	28.61
674.693	29.93
675.018	28.99
675.343	29.04
675.667	29.14
675.992	29.42
676.317	29.94
676.641	29.9
676.966	29.76
