Data from 0371_crown_Reflection__2__176.txt Node

Date: Fri Dec 15 18:08:16 CST 2023
User: ToomeyLab
Spectrometer: FLMS14357
Trigger mode: 0
Integration Time (sec): 1.000000E-2
Scans to average: 100
Electric dark correction enabled: true
Nonlinearity correction enabled: false
Boxcar width: 0
XAxis mode: Wavelengths
Number of Pixels in Spectrum: 2048
>>>>>Begin Spectral Data<<<<<
189.047	23.53
189.435	23.53
189.823	23.53
190.211	62.38
190.599	-208.56
190.987	41.37
191.375	-58.04
191.763	85.01
192.151	-16.83
192.538	178.84
192.926	46.59
193.314	209.23
193.702	78.19
194.089	84.11
194.477	168.59
194.864	-55.68
195.252	151.45
195.639	51.42
196.027	74.73
196.414	798.05
196.801	99.22
197.189	133.67
197.576	49.25
197.963	-53.9
198.351	-136.65
198.738	-123.19
199.125	-40.45
199.512	-53.63
199.899	20.76
200.286	16.7
200.673	-16.06
201.06	-31.66
201.447	-42.41
201.833	17.81
202.22	12.27
202.607	15.91
202.994	26.69
203.38	-1.6
203.767	29.37
204.154	61.7
204.54	14.6
204.927	-81.34
205.313	-66.59
205.699	62.45
206.086	2.93
206.472	0.21
206.858	19.86
207.245	12.91
207.631	21.96
208.017	16.24
208.403	-31.69
208.789	13.97
209.175	11.57
209.561	9.55
209.947	34.22
210.333	31.11
210.719	35.72
211.105	-8.65
211.491	-10.56
211.876	4.63
212.262	-1.16
212.648	19.92
213.034	-9.19
213.419	13.83
213.805	11.5
214.19	-68.14
214.576	15.55
214.961	-38.15
215.346	-43.79
215.732	4.29
216.117	-4.18
216.502	-25.93
216.888	21.66
217.273	10.77
217.658	-13.68
218.043	9.1
218.428	-17.52
218.813	-9.41
219.198	-20.63
219.583	1.08
219.968	4.64
220.353	-20.54
220.738	17.21
221.122	4.72
221.507	-16.75
221.892	-8.4
222.276	-34.04
222.661	-11.51
223.046	19.11
223.43	10.36
223.815	16.08
224.199	0.13
224.583	5.63
224.968	4.47
225.352	11.33
225.736	7.94
226.121	-9.61
226.505	9.06
226.889	13.1
227.273	8.01
227.657	12.62
228.041	7.07
228.425	7.69
228.809	14.28
229.193	7.84
229.577	10.15
229.961	10.02
230.344	8.71
230.728	9.02
231.112	9.34
231.495	8.54
231.879	9.8
232.263	9.26
232.646	8.4
233.03	7.88
233.413	8.74
233.797	8.19
234.18	10.33
234.563	10.01
234.946	6.04
235.33	8.53
235.713	9.62
236.096	8.55
236.479	9.01
236.862	7.24
237.245	10.02
237.628	8.5
238.011	8.86
238.394	8.24
238.777	8.34
239.16	6.86
239.543	8.5
239.925	10.47
240.308	7.58
240.691	11.05
241.073	7.64
241.456	7.03
241.838	8.56
242.221	6.86
242.603	9.24
242.986	8.63
243.368	8.53
243.75	8.49
244.133	8.22
244.515	8.53
244.897	8.69
245.279	8.1
245.661	7.42
246.043	6.4
246.425	7.56
246.807	9.33
247.189	8.18
247.571	8.21
247.953	7.89
248.335	8.19
248.717	8.32
249.098	7.97
249.48	8.1
249.862	8.13
250.243	7.88
250.625	7.86
251.006	8.05
251.388	6.91
251.769	7.67
252.151	7.39
252.532	8.63
252.913	7.41
253.295	7.43
253.676	7.01
254.057	8.25
254.438	7.34
254.819	7.06
255.2	6.69
255.581	8.42
255.962	6.68
256.343	6.87
256.724	6.68
257.105	6.35
257.486	6.87
257.867	6.82
258.247	5.92
258.628	7.36
259.009	7.13
259.389	6.98
259.77	6.69
260.15	6.95
260.531	6.61
260.911	7.34
261.292	7.02
261.672	7.41
262.052	7.18
262.432	7.09
262.813	7.2
263.193	6.7
263.573	6.9
263.953	6.44
264.333	7.28
264.713	7.03
265.093	6.83
265.473	6.64
265.853	5.99
266.233	7.08
266.612	4.43
266.992	5.6
267.372	6.87
267.752	6.38
268.131	6.12
268.511	7.11
268.89	6.77
269.27	6.36
269.649	5.87
270.029	6.43
270.408	6.86
270.787	6.69
271.167	6.31
271.546	6.82
271.925	5.98
272.304	6.42
272.683	6.82
273.062	6.36
273.441	6.83
273.82	6.14
274.199	6.34
274.578	6.73
274.957	6.36
275.336	6.41
275.715	6.19
276.093	5.81
276.472	6.11
276.851	5.66
277.229	6.63
277.608	6.07
277.986	6.06
278.365	6.69
278.743	5.82
279.122	5.6
279.5	6.03
279.878	6.76
280.257	5.99
280.635	5.63
281.013	5.72
281.391	6.37
281.769	6.37
282.147	6.57
282.525	6.59
282.903	6.03
283.281	6.29
283.659	6.68
284.037	6.1
284.415	6.29
284.792	6.28
285.17	5.78
285.548	5.47
285.925	6.13
286.303	6.31
286.68	5.75
287.058	6.36
287.435	6
287.813	6.18
288.19	6.42
288.567	5.95
288.945	6.27
289.322	5.69
289.699	6.03
290.076	5.8
290.453	5.95
290.83	6.52
291.207	5.34
291.584	6.3
291.961	6.21
292.338	5.76
292.715	6.38
293.092	5.84
293.469	6.1
293.845	6.01
294.222	5.95
294.599	5.72
294.975	5.8
295.352	5.94
295.728	5.71
296.105	5.46
296.481	6.11
296.858	5.44
297.234	6.08
297.61	5.68
297.986	5.81
298.363	6.11
298.739	6.11
299.115	5.56
299.491	5.79
299.867	5.6
300.243	5.73
300.619	5.79
300.995	5.49
301.371	5.67
301.746	5.35
302.122	6.2
302.498	6.03
302.874	6.1
303.249	5.4
303.625	5.83
304	5.86
304.376	5.59
304.751	5.2
305.127	6.56
305.502	5.39
305.878	5.18
306.253	5.41
306.628	6.84
307.003	5.81
307.378	5.82
307.754	5.55
308.129	5.09
308.504	5.47
308.879	5.26
309.254	6.81
309.629	6.35
310.003	5.71
310.378	6.32
310.753	5.86
311.128	5.7
311.502	6
311.877	6.61
312.252	5.45
312.626	5.7
313.001	5.99
313.375	6.2
313.75	5.23
314.124	5.68
314.498	5.78
314.873	5.71
315.247	5.64
315.621	5.86
315.995	5.19
316.369	6.22
316.743	5.59
317.117	6.14
317.491	6
317.865	6.2
318.239	5.62
318.613	6.1
318.987	6.35
319.361	5.46
319.734	6.09
320.108	5.46
320.482	5.86
320.855	6.25
321.229	5.48
321.602	6.12
321.976	5.91
322.349	5.26
322.723	5.45
323.096	6.32
323.469	5.33
323.843	6.64
324.216	6.77
324.589	5.77
324.962	5.22
325.335	5.85
325.708	5.38
326.081	5.82
326.454	5.57
326.827	6.07
327.2	5.79
327.573	5.87
327.945	5.68
328.318	5.94
328.691	5.55
329.063	6.48
329.436	5.67
329.809	6.16
330.181	5.67
330.553	5.85
330.926	6.37
331.298	6.02
331.671	6.29
332.043	6.29
332.415	5.93
332.787	6.3
333.159	6.9
333.532	5.89
333.904	5.97
334.276	6.14
334.648	5.99
335.02	6.5
335.391	5.99
335.763	5.59
336.135	5.94
336.507	6.2
336.879	6.92
337.25	5.83
337.622	6.15
337.993	6.16
338.365	6.45
338.736	6.01
339.108	6.3
339.479	5.88
339.851	6.32
340.222	6.51
340.593	6.08
340.964	6.39
341.336	6.98
341.707	5.78
342.078	6.37
342.449	6.93
342.82	6.23
343.191	6.06
343.562	6.46
343.933	6.29
344.303	6.43
344.674	6.65
345.045	6.75
345.416	6.7
345.786	6.06
346.157	6.37
346.527	5.88
346.898	5.79
347.268	6.75
347.639	6.61
348.009	6.62
348.38	6.06
348.75	6.7
349.12	6.61
349.49	6.35
349.861	6.54
350.231	6.49
350.601	6.5
350.971	6.9
351.341	6.87
351.711	6.8
352.081	6.96
352.45	6.19
352.82	6.84
353.19	6.86
353.56	6.62
353.929	6.46
354.299	6.86
354.669	6.55
355.038	7.18
355.408	6.54
355.777	7.11
356.147	6.4
356.516	6.78
356.885	6.69
357.254	6.29
357.624	6.69
357.993	7.04
358.362	6.39
358.731	6.29
359.1	6.33
359.469	6.95
359.838	6.7
360.207	6.63
360.576	6.6
360.945	6.79
361.314	7.16
361.682	6.27
362.051	6.61
362.42	6.88
362.788	6.8
363.157	6.97
363.525	7.04
363.894	6.98
364.262	6.99
364.631	6.98
364.999	7.17
365.367	6.78
365.735	7.68
366.104	7.18
366.472	6.89
366.84	6.94
367.208	6.59
367.576	7.39
367.944	7.01
368.312	6.95
368.68	6.53
369.048	7.07
369.416	7.06
369.783	6.94
370.151	6.99
370.519	7.41
370.886	7.23
371.254	7.25
371.621	6.93
371.989	7.31
372.356	6.66
372.724	6.63
373.091	6.9
373.458	7.21
373.826	7.23
374.193	7.34
374.56	6.79
374.927	7.34
375.294	7.17
375.661	6.9
376.028	7.14
376.395	7.11
376.762	7.49
377.129	7.39
377.496	6.91
377.863	7.18
378.229	6.54
378.596	6.99
378.963	7.01
379.329	7.09
379.696	7.44
380.062	7.17
380.429	7
380.795	7.09
381.161	7.21
381.528	7.27
381.894	7.19
382.26	7.22
382.626	7.3
382.993	7.05
383.359	7.41
383.725	7
384.091	7.61
384.457	7.67
384.823	7.39
385.188	7.23
385.554	7.26
385.92	7.44
386.286	7.05
386.651	7.23
387.017	7.55
387.383	7.51
387.748	7.17
388.114	7.57
388.479	7.48
388.845	7.53
389.21	7.64
389.575	7.63
389.94	7.57
390.306	7.56
390.671	7.61
391.036	6.93
391.401	6.87
391.766	7.16
392.131	7.41
392.496	7.45
392.861	7.64
393.226	7.45
393.591	7.44
393.956	7.43
394.32	7.46
394.685	7.35
395.05	7.43
395.414	7.36
395.779	7.33
396.143	7.45
396.508	7.44
396.872	7.9
397.236	7.36
397.601	7.19
397.965	7.56
398.329	7.55
398.694	7.8
399.058	7.5
399.422	7.59
399.786	7.79
400.15	7.72
400.514	7.8
400.878	7.57
401.242	7.67
401.605	7.67
401.969	7.55
402.333	7.59
402.697	7.47
403.06	7.88
403.424	7.83
403.787	7.44
404.151	7.43
404.514	7.46
404.878	7.81
405.241	7.56
405.604	7.51
405.968	7.6
406.331	7.72
406.694	7.65
407.057	7.67
407.42	7.63
407.783	7.28
408.146	7.48
408.509	7.34
408.872	7.69
409.235	7.73
409.598	7.97
409.961	7.41
410.323	7.9
410.686	7.75
411.049	7.52
411.411	7.47
411.774	7.83
412.136	7.33
412.499	7.59
412.861	7.45
413.223	7.42
413.586	7.76
413.948	7.46
414.31	7.44
414.672	7.33
415.035	7.49
415.397	7.75
415.759	7.39
416.121	7.78
416.483	7.5
416.845	7.8
417.206	7.76
417.568	7.67
417.93	7.63
418.292	7.53
418.653	7.58
419.015	7.7
419.377	7.59
419.738	7.66
420.1	7.53
420.461	7.49
420.822	7.66
421.184	7.48
421.545	7.5
421.906	7.48
422.267	7.55
422.629	7.55
422.99	7.62
423.351	7.41
423.712	7.45
424.073	7.55
424.434	7.4
424.795	7.42
425.155	7.42
425.516	7.37
425.877	7.57
426.238	7.47
426.598	7.51
426.959	7.52
427.32	7.36
427.68	7.44
428.041	7.45
428.401	7.44
428.761	7.42
429.122	7.53
429.482	7.33
429.842	7.7
430.202	7.91
430.563	7.49
430.923	7.53
431.283	7.86
431.643	7.39
432.003	7.37
432.363	7.72
432.722	7.48
433.082	7.57
433.442	7.63
433.802	7.36
434.161	7.48
434.521	7.56
434.881	7.61
435.24	7.42
435.6	7.54
435.959	7.46
436.319	7.41
436.678	7.37
437.037	7.44
437.396	7.61
437.756	7.4
438.115	7.43
438.474	7.68
438.833	7.56
439.192	7.52
439.551	7.78
439.91	7.54
440.269	7.37
440.628	7.53
440.987	7.54
441.345	7.51
441.704	7.55
442.063	7.5
442.421	7.47
442.78	7.44
443.138	7.34
443.497	7.53
443.855	7.47
444.214	7.47
444.572	7.5
444.93	7.5
445.288	7.57
445.647	7.62
446.005	7.42
446.363	7.53
446.721	7.45
447.079	7.35
447.437	7.51
447.795	7.6
448.153	7.38
448.51	7.51
448.868	7.48
449.226	7.35
449.584	7.42
449.941	7.46
450.299	7.33
450.656	7.28
451.014	7.45
451.371	7.42
451.729	7.39
452.086	7.73
452.443	7.55
452.801	7.51
453.158	7.43
453.515	7.46
453.872	7.62
454.229	7.41
454.586	7.55
454.943	7.6
455.3	7.64
455.657	7.21
456.014	7.36
456.371	7.62
456.727	7.52
457.084	7.56
457.441	7.51
457.797	7.43
458.154	7.49
458.51	7.7
458.867	7.66
459.223	7.6
459.58	7.64
459.936	7.52
460.292	7.54
460.648	7.4
461.005	7.29
461.361	7.45
461.717	7.35
462.073	7.33
462.429	7.33
462.785	7.36
463.141	7.32
463.496	7.34
463.852	7.43
464.208	7.43
464.564	7.38
464.919	7.37
465.275	7.46
465.631	7.53
465.986	7.33
466.342	7.27
466.697	7.46
467.052	7.49
467.408	7.43
467.763	7.36
468.118	7.46
468.473	7.54
468.829	7.36
469.184	7.4
469.539	7.47
469.894	7.12
470.249	7.57
470.603	7.64
470.958	7.35
471.313	7.75
471.668	7.5
472.023	7.47
472.377	7.31
472.732	7.45
473.086	7.4
473.441	7.22
473.795	7.59
474.15	7.32
474.504	7.26
474.859	7.41
475.213	7.38
475.567	7.38
475.921	7.24
476.275	7.36
476.63	7.52
476.984	7.45
477.338	7.51
477.692	7.41
478.045	7.25
478.399	7.38
478.753	7.36
479.107	7.35
479.461	7.28
479.814	7.23
480.168	7.3
480.521	7.24
480.875	7.27
481.228	7.45
481.582	7.33
481.935	7.23
482.289	7.39
482.642	7.39
482.995	7.4
483.348	7.27
483.701	7.3
484.055	7.22
484.408	7.26
484.761	7.17
485.114	7.2
485.466	7.13
485.819	6.98
486.172	6.93
486.525	6.83
486.878	6.87
487.23	6.84
487.583	6.94
487.936	7.06
488.288	7.05
488.641	7.14
488.993	7.09
489.345	7.03
489.698	6.97
490.05	6.89
490.402	6.98
490.754	6.94
491.107	7.02
491.459	7.06
491.811	7.07
492.163	7.11
492.515	7.18
492.866	7.21
493.218	7.22
493.57	7.08
493.922	7.03
494.274	7.05
494.625	7.08
494.977	7.08
495.328	7.07
495.68	7.13
496.031	7.23
496.383	7.09
496.734	7.3
497.086	7.32
497.437	7.2
497.788	7.2
498.139	7.18
498.49	7.27
498.842	7.06
499.193	7.13
499.544	7.23
499.894	7.08
500.245	7.08
500.596	7.18
500.947	7.14
501.298	7.09
501.648	7.14
501.999	7.33
502.35	7.17
502.7	7.17
503.051	7.06
503.401	7.06
503.752	7.31
504.102	7.06
504.452	7.25
504.803	7.23
505.153	7.11
505.503	7.18
505.853	7.11
506.203	7.13
506.553	7.06
506.903	6.91
507.253	7.14
507.603	7.03
507.953	7.23
508.303	7.2
508.652	6.95
509.002	7.34
509.352	7.26
509.701	7.15
510.051	6.95
510.4	7.09
510.75	7.14
511.099	7
511.449	7.1
511.798	7.04
512.147	7.19
512.496	7.07
512.846	7.09
513.195	7.03
513.544	6.88
513.893	7.12
514.242	7.08
514.591	7.23
514.939	7.23
515.288	7.09
515.637	7.1
515.986	7.05
516.334	7.04
516.683	7.12
517.032	7.15
517.38	7.08
517.729	7.16
518.077	7.07
518.426	7.1
518.774	7.14
519.122	6.89
519.47	7.02
519.819	6.94
520.167	7
520.515	7.05
520.863	6.95
521.211	6.96
521.559	7.02
521.907	6.91
522.255	7
522.602	6.95
522.95	6.89
523.298	6.94
523.645	7.05
523.993	7.16
524.341	7
524.688	7.08
525.036	7.12
525.383	7.05
525.73	7.18
526.078	7.08
526.425	6.89
526.772	7.05
527.119	7.04
527.466	6.93
527.814	6.99
528.161	6.83
528.508	6.87
528.854	6.84
529.201	6.82
529.548	6.77
529.895	6.86
530.242	6.84
530.588	6.77
530.935	6.7
531.282	6.72
531.628	6.66
531.975	6.71
532.321	6.75
532.667	6.81
533.014	6.86
533.36	6.84
533.706	6.86
534.052	6.93
534.399	6.79
534.745	6.83
535.091	6.9
535.437	6.91
535.783	6.7
536.129	6.73
536.474	6.74
536.82	6.81
537.166	6.79
537.512	6.81
537.857	6.83
538.203	6.97
538.549	6.82
538.894	6.87
539.239	6.85
539.585	6.81
539.93	6.73
540.276	6.95
540.621	6.9
540.966	6.86
541.311	6.78
541.656	6.75
542.001	6.76
542.346	6.96
542.691	6.85
543.036	6.72
543.381	6.7
543.726	6.73
544.071	6.64
544.415	6.69
544.76	6.64
545.105	6.66
545.449	6.74
545.794	6.8
546.138	6.79
546.483	6.84
546.827	6.78
547.171	6.85
547.516	6.97
547.86	6.78
548.204	6.72
548.548	6.9
548.892	6.8
549.236	6.69
549.58	6.69
549.924	6.77
550.268	6.81
550.612	6.74
550.956	7.07
551.3	6.82
551.643	6.88
551.987	6.8
552.33	6.8
552.674	6.97
553.017	6.63
553.361	6.67
553.704	6.91
554.048	6.79
554.391	6.63
554.734	6.88
555.077	6.84
555.42	6.59
555.764	6.73
556.107	6.76
556.45	6.66
556.793	6.62
557.135	6.67
557.478	7.06
557.821	6.93
558.164	6.67
558.507	6.74
558.849	6.76
559.192	6.85
559.534	6.98
559.877	6.93
560.219	6.77
560.562	6.96
560.904	6.67
561.246	6.97
561.589	6.8
561.931	6.73
562.273	6.35
562.615	6.81
562.957	6.68
563.299	6.45
563.641	6.67
563.983	6.72
564.325	6.52
564.667	6.68
565.008	6.59
565.35	6.55
565.692	6.63
566.033	6.62
566.375	6.63
566.716	7.04
567.058	6.65
567.399	6.7
567.741	6.46
568.082	6.72
568.423	6.68
568.764	6.51
569.105	6.73
569.447	6.88
569.788	6.51
570.129	6.53
570.47	6.53
570.811	6.71
571.151	6.69
571.492	6.7
571.833	6.61
572.174	6.55
572.514	6.68
572.855	6.68
573.195	6.57
573.536	6.49
573.876	6.55
574.217	6.59
574.557	6.54
574.898	6.58
575.238	6.68
575.578	6.6
575.918	6.64
576.258	6.58
576.598	6.66
576.938	6.54
577.278	6.45
577.618	6.41
577.958	6.59
578.298	6.61
578.638	6.55
578.977	6.68
579.317	6.31
579.657	6.36
579.996	6.6
580.336	6.6
580.675	6.6
581.014	6.63
581.354	6.4
581.693	6.58
582.032	6.29
582.372	6.35
582.711	6.35
583.05	6.33
583.389	6.56
583.728	6.25
584.067	6.75
584.406	6.27
584.745	6.57
585.083	6.46
585.422	6.49
585.761	6.63
586.1	6.53
586.438	6.6
586.777	6.42
587.115	6.61
587.454	6.48
587.792	6.52
588.13	6.56
588.469	6.29
588.807	6.43
589.145	6.54
589.483	6.46
589.821	6.64
590.159	6.43
590.497	6.97
590.835	6.76
591.173	6.43
591.511	6.46
591.849	6.57
592.187	6.64
592.524	6.57
592.862	6.42
593.2	6.29
593.537	6.4
593.875	6.36
594.212	6.35
594.55	6.34
594.887	6.65
595.224	6.19
595.561	6.17
595.899	6.41
596.236	6.39
596.573	6.31
596.91	6.11
597.247	6.17
597.584	6.69
597.921	6.44
598.258	6.28
598.594	6.35
598.931	6.14
599.268	6.52
599.604	6.28
599.941	6.47
600.277	6.33
600.614	6.23
600.95	6.21
601.287	6.13
601.623	6.22
601.959	5.94
602.296	6.18
602.632	5.96
602.968	6.32
603.304	6.13
603.64	6.06
603.976	6.44
604.312	6.16
604.648	6.18
604.984	6.34
605.319	6.52
605.655	6.3
605.991	6.21
606.326	6.47
606.662	6.35
606.998	6.04
607.333	6.23
607.668	6.43
608.004	6.08
608.339	6.31
608.674	6.21
609.01	6.22
609.345	6.06
609.68	6.8
610.015	6.37
610.35	5.93
610.685	6.25
611.02	5.92
611.355	6.46
611.689	6.12
612.024	6.16
612.359	6.18
612.694	6.26
613.028	6.21
613.363	6.25
613.697	6.25
614.032	6.06
614.366	6.31
614.7	5.93
615.035	6.13
615.369	6.16
615.703	6.17
616.037	6.16
616.371	5.49
616.705	6.09
617.039	5.99
617.373	6.14
617.707	5.97
618.041	6.23
618.375	6.62
618.709	6.09
619.042	6.01
619.376	5.99
619.71	6.14
620.043	6.21
620.377	6.08
620.71	5.95
621.043	5.97
621.377	6.19
621.71	5.8
622.043	6.05
622.376	5.81
622.709	6
623.043	6.09
623.376	6.05
623.709	6.23
624.041	6.36
624.374	5.91
624.707	5.78
625.04	6.24
625.373	5.72
625.705	5.73
626.038	6.2
626.37	5.8
626.703	5.87
627.035	5.93
627.368	5.99
627.7	6.35
628.032	6.07
628.365	6.21
628.697	6.2
629.029	6.01
629.361	5.99
629.693	6.22
630.025	5.88
630.357	6
630.689	6.23
631.021	5.79
631.353	5.97
631.684	5.99
632.016	6.02
632.348	5.86
632.679	6.21
633.011	6.08
633.342	5.98
633.674	5.81
634.005	6.45
634.336	6.03
634.668	6.45
634.999	5.93
635.33	6.32
635.661	5.92
635.992	6.1
636.323	5.95
636.654	6.03
636.985	5.87
637.316	6.15
637.647	5.61
637.977	6.28
638.308	6.17
638.639	5.89
638.969	6.03
639.3	5.96
639.63	5.58
639.961	5.89
640.291	6.12
640.622	6.12
640.952	5.72
641.282	6.6
641.612	6.21
641.943	5.94
642.273	6.1
642.603	6.13
642.933	6.12
643.263	6.07
643.592	6.03
643.922	5.85
644.252	5.65
644.582	6.12
644.911	5.48
645.241	5.94
645.571	5.95
645.9	5.77
646.23	6.3
646.559	6.46
646.888	6.22
647.218	5.95
647.547	6.34
647.876	5.38
648.205	5.56
648.534	6.08
648.863	5.49
649.192	5.76
649.521	5.75
649.85	5.79
650.179	5.86
650.508	5.57
650.837	5.63
651.165	5.95
651.494	5.79
651.822	6.09
652.151	5.69
652.479	5.86
652.808	5.69
653.136	5.91
653.465	5.2
653.793	5.78
654.121	5.96
654.449	5.93
654.777	5.79
655.105	5.97
655.433	5.66
655.761	6
656.089	5.68
656.417	5.74
656.745	5.77
657.073	5.91
657.4	6.18
657.728	5.84
658.056	5.87
658.383	5.75
658.711	5.75
659.038	6.31
659.365	6.24
659.693	6.24
660.02	5.8
660.347	5.83
660.674	5.92
661.001	6.07
661.329	5.49
661.656	6.07
661.982	6.21
662.309	5.72
662.636	5.6
662.963	6.18
663.29	6.09
663.616	6.37
663.943	5.78
664.27	6.06
664.596	5.97
664.923	5.69
665.249	6.42
665.576	5.5
665.902	6.53
666.228	5.67
666.554	5.99
666.881	5.48
667.207	6.78
667.533	5.79
667.859	6.5
668.185	6.34
668.511	5.24
668.837	4.66
669.162	5.2
669.488	5.81
669.814	5.73
670.139	6.05
670.465	6.11
670.791	6.09
671.116	6.41
671.442	6.02
671.767	6.42
672.092	6.16
672.418	5.81
672.743	6
673.068	5.22
673.393	5.6
673.718	5.82
674.043	5.5
674.368	5.4
674.693	6.37
675.018	6.01
675.343	5.49
675.667	6.48
675.992	6.01
676.317	5.68
676.641	5.82
676.966	6.08
677.29	5.25
677.615	5.71
677.939	5.66
678.264	6.29
678.588	5.83
678.912	6.19
679.236	6.52
679.56	5.11
679.885	6.77
680.209	6.33
680.532	6.48
680.856	5.93
681.18	5.98
681.504	6.11
681.828	6.51
682.152	5.75
682.475	5.96
682.799	6.31
683.122	6.13
683.446	5.86
683.769	6.23
684.093	6.05
684.416	6.55
684.739	5.9
685.062	5.61
685.386	6.13
685.709	5.06
686.032	5.61
686.355	5.55
686.678	5.93
687.001	6.32
687.324	5.84
687.646	5.53
687.969	5.35
688.292	5.53
688.614	6.19
688.937	6.35
689.26	5.85
689.582	7.15
689.904	6.28
690.227	6.13
690.549	5
690.871	6.29
691.194	5.96
691.516	5.92
691.838	6.07
692.16	5.18
692.482	5.78
