Data from 0371_chest_Reflection__3__172.txt Node

Date: Fri Dec 15 18:06:48 CST 2023
User: ToomeyLab
Spectrometer: FLMS14357
Trigger mode: 0
Integration Time (sec): 1.000000E-2
Scans to average: 100
Electric dark correction enabled: true
Nonlinearity correction enabled: false
Boxcar width: 0
XAxis mode: Wavelengths
Number of Pixels in Spectrum: 2048
>>>>>Begin Spectral Data<<<<<
189.047	106.62
189.435	106.62
189.823	106.62
190.211	28.95
190.599	-2.28
190.987	23.32
191.375	167.85
191.763	-17.18
192.151	105.67
192.538	145.89
192.926	-12.31
193.314	138.08
193.702	64.32
194.089	8.34
194.477	-147.78
194.864	-51.87
195.252	96.68
195.639	186.82
196.027	306.96
196.414	129
196.801	62.13
197.189	195.19
197.576	-34.9
197.963	-296.7
198.351	-54.9
198.738	-31.48
199.125	27.2
199.512	-42.26
199.899	13.12
200.286	35.54
200.673	-3.88
201.06	-68.49
201.447	-4.22
201.833	17.7
202.22	46.52
202.607	25.95
202.994	6.12
203.38	-1.22
203.767	17.29
204.154	11.94
204.54	39.63
204.927	-63.51
205.313	-34.27
205.699	12.5
206.086	25.13
206.472	21.06
206.858	26.27
207.245	16.16
207.631	81.47
208.017	11.57
208.403	-14.54
208.789	8.45
209.175	-4.9
209.561	-35.22
209.947	-0.23
210.333	-72.2
210.719	19.9
211.105	13.25
211.491	7.25
211.876	62.33
212.262	21
212.648	4.24
213.034	14.99
213.419	15.5
213.805	-15.22
214.19	-66.24
214.576	-43.01
214.961	-14.84
215.346	-20.94
215.732	-37.93
216.117	13.18
216.502	-11.61
216.888	8.32
217.273	30.14
217.658	4.63
218.043	7.15
218.428	-31.93
218.813	-40.8
219.198	-37.25
219.583	-14.39
219.968	11.63
220.353	-24.88
220.738	11.77
221.122	11.84
221.507	-23.95
221.892	-34.52
222.276	-9.92
222.661	-7.47
223.046	7.35
223.43	17.93
223.815	9.32
224.199	2.14
224.583	-1.51
224.968	5.89
225.352	2.05
225.736	-8.75
226.121	-5.53
226.505	-1.19
226.889	4.32
227.273	4.61
227.657	14.33
228.041	4.29
228.425	3.69
228.809	6.37
229.193	2.55
229.577	5.37
229.961	4.29
230.344	5.63
230.728	3.49
231.112	5.48
231.495	5.42
231.879	5.08
232.263	5.63
232.646	4.48
233.03	4.35
233.413	3.88
233.797	6.68
234.18	6.67
234.563	4.16
234.946	3.1
235.33	7.07
235.713	4.18
236.096	3.91
236.479	5.87
236.862	5.07
237.245	5.09
237.628	3.35
238.011	6.6
238.394	7.32
238.777	4.9
239.16	1.76
239.543	5.69
239.925	4.71
240.308	4.44
240.691	5.49
241.073	4.23
241.456	3.73
241.838	4.25
242.221	4.29
242.603	5.4
242.986	4.32
243.368	5
243.75	4.53
244.133	4.45
244.515	4.93
244.897	5.2
245.279	4.65
245.661	4.52
246.043	4.1
246.425	2.98
246.807	6.07
247.189	5.44
247.571	5.14
247.953	5.37
248.335	4.94
248.717	4.66
249.098	4.44
249.48	4.67
249.862	4.52
250.243	4.5
250.625	4.84
251.006	4.68
251.388	3.2
251.769	4.26
252.151	4.06
252.532	4.21
252.913	4.64
253.295	3.75
253.676	4.56
254.057	4.58
254.438	4.71
254.819	4.04
255.2	3.82
255.581	5.44
255.962	2.6
256.343	4.92
256.724	4
257.105	4.4
257.486	3.7
257.867	4.28
258.247	4.04
258.628	4.16
259.009	4.06
259.389	4.32
259.77	3.73
260.15	3.52
260.531	3.61
260.911	4.76
261.292	4.12
261.672	4.21
262.052	4.29
262.432	4.72
262.813	4.54
263.193	3.87
263.573	3.62
263.953	4.14
264.333	4.61
264.713	4.52
265.093	3.78
265.473	4.06
265.853	3.5
266.233	4.61
266.612	2.29
266.992	3.41
267.372	4.12
267.752	4.49
268.131	3.88
268.511	4.7
268.89	4.51
269.27	4.02
269.649	3.72
270.029	4.12
270.408	5.14
270.787	4.05
271.167	4.43
271.546	4.05
271.925	2.85
272.304	4.52
272.683	4.67
273.062	4.12
273.441	3.95
273.82	3.68
274.199	4.04
274.578	4.41
274.957	4.24
275.336	4.25
275.715	3.91
276.093	4.15
276.472	4.64
276.851	4.6
277.229	3.66
277.608	3.17
277.986	3.97
278.365	4.29
278.743	4.49
279.122	3.63
279.5	4.11
279.878	4.33
280.257	4.26
280.635	3.16
281.013	4.23
281.391	4.49
281.769	4.25
282.147	3.96
282.525	4.3
282.903	3.59
283.281	4.17
283.659	4.31
284.037	4.02
284.415	3.81
284.792	4.15
285.17	3.55
285.548	2.9
285.925	3.71
286.303	4.22
286.68	4.02
287.058	3.8
287.435	3.59
287.813	3.9
288.19	3.96
288.567	3.69
288.945	4.57
289.322	4.14
289.699	4.06
290.076	4.17
290.453	3.86
290.83	3.85
291.207	3.37
291.584	4.3
291.961	4.13
292.338	3.82
292.715	4.37
293.092	4.15
293.469	4.47
293.845	4.12
294.222	3.25
294.599	3.19
294.975	3.35
295.352	4.01
295.728	3.93
296.105	4.12
296.481	4.58
296.858	3.67
297.234	3.68
297.61	4.33
297.986	3.65
298.363	4.14
298.739	4.13
299.115	3.99
299.491	3.93
299.867	4.22
300.243	4.24
300.619	3.72
300.995	3.94
301.371	3.76
301.746	4.15
302.122	4.63
302.498	4.2
302.874	4.16
303.249	4.35
303.625	4.15
304	3.97
304.376	3.9
304.751	3.35
305.127	4.62
305.502	3.05
305.878	3.78
306.253	3.52
306.628	4.56
307.003	3.73
307.378	4.35
307.754	3.48
308.129	3.43
308.504	4.05
308.879	3.87
309.254	4.68
309.629	4.66
310.003	3.88
310.378	4.24
310.753	4.19
311.128	4.1
311.502	4.51
311.877	4.49
312.252	3.64
312.626	3.92
313.001	3.73
313.375	4.27
313.75	3.92
314.124	4.47
314.498	4.16
314.873	3.92
315.247	3.62
315.621	4.35
315.995	3.57
316.369	4.16
316.743	3.75
317.117	4.76
317.491	3.86
317.865	4.08
318.239	3.98
318.613	4.48
318.987	4.42
319.361	3.75
319.734	4.43
320.108	3.96
320.482	4.24
320.855	4.37
321.229	4.05
321.602	3.9
321.976	4.3
322.349	4.28
322.723	3.7
323.096	4.39
323.469	3.15
323.843	3.87
324.216	4.94
324.589	3.85
324.962	4.55
325.335	3.81
325.708	3.94
326.081	4.3
326.454	3.86
326.827	3.63
327.2	3.96
327.573	4.25
327.945	3.68
328.318	3.88
328.691	3.9
329.063	3.98
329.436	3.84
329.809	4.6
330.181	3.82
330.553	4.77
330.926	4.24
331.298	5.05
331.671	3.86
332.043	5
332.415	4.92
332.787	4.47
333.159	4.57
333.532	3.83
333.904	4.66
334.276	4.03
334.648	4.56
335.02	4.7
335.391	4.24
335.763	3.82
336.135	4.02
336.507	4.81
336.879	4.52
337.25	4.06
337.622	3.87
337.993	4.42
338.365	4.59
338.736	4.63
339.108	4.8
339.479	4.6
339.851	4.72
340.222	4.4
340.593	4.37
340.964	3.66
341.336	4.89
341.707	3.59
342.078	4.91
342.449	4.23
342.82	4.38
343.191	4.63
343.562	4.28
343.933	4.39
344.303	4.16
344.674	4.23
345.045	4.14
345.416	4.71
345.786	4.13
346.157	4.63
346.527	3.81
346.898	3.37
347.268	4.19
347.639	4.3
348.009	4.51
348.38	4.32
348.75	4.33
349.12	4.22
349.49	4.76
349.861	4.4
350.231	4.06
350.601	4.36
350.971	4.46
351.341	4.67
351.711	4.86
352.081	4.66
352.45	4.27
352.82	4.56
353.19	4.26
353.56	3.97
353.929	4.27
354.299	4.56
354.669	3.82
355.038	4.35
355.408	4.53
355.777	4.44
356.147	4.14
356.516	4.47
356.885	4.57
357.254	4.12
357.624	4.74
357.993	4.8
358.362	4.16
358.731	3.87
359.1	4.3
359.469	4.31
359.838	4.59
360.207	4.3
360.576	3.92
360.945	4.39
361.314	4.41
361.682	4.69
362.051	4.12
362.42	4.62
362.788	4.39
363.157	4.69
363.525	4.78
363.894	4.83
364.262	4.49
364.631	4.55
364.999	4.68
365.367	4.19
365.735	4.98
366.104	4.4
366.472	4.75
366.84	4.32
367.208	4.32
367.576	4.75
367.944	5.1
368.312	4.53
368.68	4.46
369.048	4.92
369.416	4.78
369.783	4.67
370.151	4.65
370.519	4.89
370.886	5.07
371.254	4.31
371.621	4.91
371.989	4.83
372.356	4.23
372.724	4.67
373.091	4.17
373.458	4.51
373.826	4.76
374.193	4.2
374.56	4.97
374.927	4.36
375.294	4.41
375.661	4.53
376.028	4.47
376.395	4.93
376.762	4.89
377.129	4.48
377.496	4.51
377.863	4.63
378.229	4.49
378.596	4.7
378.963	4.7
379.329	4.44
379.696	4.67
380.062	4.85
380.429	4.7
380.795	4.47
381.161	4.55
381.528	4.81
381.894	4.73
382.26	4.5
382.626	4.83
382.993	4.21
383.359	5.12
383.725	4.28
384.091	4.51
384.457	4.8
384.823	4.63
385.188	4.85
385.554	4.83
385.92	5.13
386.286	5.02
386.651	4.84
387.017	4.99
387.383	4.93
387.748	4.78
388.114	4.79
388.479	4.64
388.845	4.78
389.21	4.77
389.575	4.75
389.94	4.76
390.306	4.73
390.671	4.87
391.036	4.39
391.401	4.58
391.766	4.51
392.131	4.76
392.496	4.87
392.861	4.74
393.226	5.04
393.591	4.88
393.956	4.9
394.32	4.99
394.685	4.51
395.05	4.56
395.414	4.81
395.779	4.5
396.143	4.94
396.508	4.75
396.872	4.97
397.236	4.83
397.601	4.65
397.965	4.93
398.329	4.6
398.694	4.89
399.058	4.89
399.422	4.56
399.786	5.12
400.15	4.99
400.514	4.91
400.878	4.77
401.242	4.99
401.605	4.94
401.969	4.9
402.333	4.71
402.697	4.6
403.06	5.05
403.424	4.83
403.787	4.64
404.151	5.23
404.514	4.82
404.878	4.85
405.241	4.99
405.604	4.88
405.968	5.02
406.331	5.01
406.694	5.06
407.057	4.82
407.42	5.25
407.783	5.1
408.146	4.96
408.509	4.98
408.872	5.05
409.235	5.01
409.598	5.31
409.961	4.9
410.323	5.25
410.686	4.93
411.049	4.62
411.411	5.08
411.774	5.05
412.136	5
412.499	4.9
412.861	4.96
413.223	5.04
413.586	4.82
413.948	5.06
414.31	4.91
414.672	4.76
415.035	4.65
415.397	5.43
415.759	4.78
416.121	5.01
416.483	4.93
416.845	4.99
417.206	4.8
417.568	5.2
417.93	4.68
418.292	4.8
418.653	5.05
419.015	5.15
419.377	4.96
419.738	5.1
420.1	4.96
420.461	4.93
420.822	5.09
421.184	4.82
421.545	4.88
421.906	4.71
422.267	4.92
422.629	5.06
422.99	4.91
423.351	4.99
423.712	4.99
424.073	4.95
424.434	4.95
424.795	5
425.155	5.01
425.516	4.87
425.877	4.84
426.238	4.86
426.598	4.98
426.959	4.92
427.32	4.76
427.68	4.91
428.041	4.91
428.401	5.02
428.761	5.15
429.122	5.1
429.482	4.89
429.842	5.12
430.202	4.86
430.563	5.18
430.923	4.76
431.283	5.23
431.643	5.02
432.003	5.09
432.363	4.95
432.722	4.94
433.082	5.15
433.442	4.98
433.802	4.91
434.161	5.06
434.521	5.3
434.881	5.14
435.24	4.98
435.6	5.02
435.959	4.95
436.319	5.03
436.678	4.98
437.037	4.87
437.396	4.97
437.756	4.91
438.115	4.97
438.474	5.2
438.833	4.9
439.192	5.01
439.551	5.11
439.91	4.97
440.269	5.04
440.628	4.92
440.987	5.19
441.345	4.99
441.704	5.03
442.063	4.99
442.421	5.08
442.78	4.98
443.138	5.04
443.497	5.07
443.855	4.99
444.214	5.12
444.572	5.23
444.93	5.09
445.288	5.12
445.647	5.14
446.005	4.98
446.363	5.05
446.721	5.28
447.079	4.92
447.437	4.98
447.795	5.2
448.153	4.99
448.51	5.02
448.868	5.08
449.226	5.1
449.584	5.02
449.941	5.12
450.299	5.1
450.656	5.11
451.014	5.08
451.371	4.82
451.729	4.97
452.086	5.27
452.443	5.06
452.801	5.22
453.158	5.11
453.515	5.12
453.872	5.28
454.229	5.1
454.586	5.17
454.943	5.22
455.3	5.22
455.657	5.12
456.014	5.11
456.371	5.1
456.727	5.15
457.084	5.21
457.441	5.12
457.797	5.14
458.154	5.31
458.51	5.27
458.867	5.24
459.223	5.2
459.58	5.1
459.936	5.3
460.292	5.27
460.648	5.21
461.005	5.12
461.361	5.15
461.717	5.16
462.073	5.18
462.429	5.11
462.785	5.14
463.141	5.12
463.496	5.25
463.852	5.29
464.208	5.25
464.564	5.12
464.919	5.03
465.275	5.3
465.631	5.34
465.986	5.2
466.342	5.21
466.697	5.18
467.052	5.37
467.408	5.24
467.763	5.14
468.118	5.12
468.473	5.22
468.829	5.22
469.184	5.12
469.539	5.32
469.894	5.04
470.249	5.41
470.603	5.18
470.958	5.3
471.313	5.35
471.668	5.38
472.023	5.27
472.377	5.29
472.732	5.42
473.086	5.31
473.441	5.19
473.795	5.37
474.15	5.26
474.504	5.25
474.859	5.26
475.213	5.29
475.567	5.39
475.921	5.11
476.275	5.2
476.63	5.43
476.984	5.61
477.338	5.58
477.692	5.1
478.045	5.04
478.399	5.22
478.753	5.62
479.107	5.32
479.461	5.2
479.814	5.3
480.168	5.35
480.521	5.28
480.875	5.36
481.228	5.25
481.582	5.25
481.935	5.24
482.289	5.29
482.642	5.28
482.995	5.19
483.348	5.31
483.701	5.29
484.055	5.29
484.408	5.29
484.761	5.19
485.114	5.13
485.466	5.06
485.819	5
486.172	5.02
486.525	5.03
486.878	5.06
487.23	5.09
487.583	5.19
487.936	5.26
488.288	5.25
488.641	5.32
488.993	5.12
489.345	5.12
489.698	5.08
490.05	5.1
490.402	5.18
490.754	5.18
491.107	5.23
491.459	5.26
491.811	5.3
492.163	5.38
492.515	5.24
492.866	5.37
493.218	5.3
493.57	5.24
493.922	5.17
494.274	5.33
494.625	5.32
494.977	5.37
495.328	5.42
495.68	5.46
496.031	5.46
496.383	5.35
496.734	5.44
497.086	5.53
497.437	5.47
497.788	5.48
498.139	5.33
498.49	5.53
498.842	5.36
499.193	5.42
499.544	5.46
499.894	5.47
500.245	5.52
500.596	5.34
500.947	5.61
501.298	5.42
501.648	5.44
501.999	5.63
502.35	5.59
502.7	5.47
503.051	5.46
503.401	5.53
503.752	5.56
504.102	5.53
504.452	5.61
504.803	5.47
505.153	5.52
505.503	5.43
505.853	5.56
506.203	5.55
506.553	5.49
506.903	5.56
507.253	5.54
507.603	5.55
507.953	5.65
508.303	5.72
508.652	5.41
509.002	5.71
509.352	5.64
509.701	5.62
510.051	5.69
510.4	5.56
510.75	5.47
511.099	5.59
511.449	5.59
511.798	5.58
512.147	5.68
512.496	5.6
512.846	5.67
513.195	5.63
513.544	5.51
513.893	5.63
514.242	5.61
514.591	5.7
514.939	5.63
515.288	5.72
515.637	5.81
515.986	5.73
516.334	5.61
516.683	5.77
517.032	5.7
517.38	5.88
517.729	5.72
518.077	5.65
518.426	5.72
518.774	5.77
519.122	5.75
519.47	5.7
519.819	5.63
520.167	5.77
520.515	5.64
520.863	5.79
521.211	5.67
521.559	5.79
521.907	5.71
522.255	5.69
522.602	5.77
522.95	5.8
523.298	5.83
523.645	5.81
523.993	5.82
524.341	5.84
524.688	5.92
525.036	5.81
525.383	5.92
525.73	6.09
526.078	5.91
526.425	5.79
526.772	5.95
527.119	5.84
527.466	5.8
527.814	5.81
528.161	5.8
528.508	5.92
528.854	5.8
529.201	5.86
529.548	5.81
529.895	5.78
530.242	5.69
530.588	5.71
530.935	5.7
531.282	5.76
531.628	5.74
531.975	5.81
532.321	5.93
532.667	5.95
533.014	6.02
533.36	5.97
533.706	5.97
534.052	6
534.399	5.96
534.745	5.93
535.091	5.89
535.437	5.95
535.783	5.97
536.129	6
536.474	5.98
536.82	6.09
537.166	6.16
537.512	6.11
537.857	6.15
538.203	6.19
538.549	6.07
538.894	6.09
539.239	6.15
539.585	6.11
539.93	6.1
540.276	6.27
540.621	6.26
540.966	6.31
541.311	6.25
541.656	6.18
542.001	6.32
542.346	6.35
542.691	6.17
543.036	6.14
543.381	6.11
543.726	6.17
544.071	6.23
544.415	6.22
544.76	6.23
545.105	6.31
545.449	6.36
545.794	6.47
546.138	6.4
546.483	6.44
546.827	6.49
547.171	6.5
547.516	6.62
547.86	6.39
548.204	6.47
548.548	6.57
548.892	6.61
549.236	6.56
549.58	6.57
549.924	6.57
550.268	6.58
550.612	6.7
550.956	6.91
551.3	6.69
551.643	6.82
551.987	6.75
552.33	6.58
552.674	6.87
553.017	6.81
553.361	6.72
553.704	7.02
554.048	6.73
554.391	6.84
554.734	6.71
555.077	6.81
555.42	6.75
555.764	7.02
556.107	6.74
556.45	6.82
556.793	7.06
557.135	7.05
557.478	6.98
557.821	7
558.164	6.89
558.507	7.15
558.849	7.04
559.192	7.34
559.534	7.02
559.877	7.25
560.219	6.98
560.562	7.16
560.904	7.22
561.246	7.21
561.589	7.18
561.931	7.2
562.273	7.09
562.615	7.39
562.957	7.26
563.299	7.06
563.641	7.3
563.983	7.34
564.325	7.19
564.667	7.1
565.008	7.35
565.35	7.37
565.692	7.16
566.033	7.18
566.375	7.61
566.716	7.51
567.058	7.47
567.399	7.31
567.741	7.37
568.082	7.52
568.423	7.46
568.764	7.46
569.105	7.63
569.447	7.49
569.788	7.57
570.129	7.62
570.47	7.4
570.811	7.8
571.151	7.92
571.492	7.89
571.833	7.72
572.174	7.76
572.514	7.94
572.855	7.84
573.195	7.72
573.536	7.7
573.876	7.67
574.217	7.68
574.557	7.94
574.898	8.03
575.238	8.07
575.578	7.89
575.918	8.19
576.258	8.03
576.598	8.08
576.938	7.82
577.278	7.93
577.618	8.05
577.958	8.13
578.298	8.15
578.638	7.93
578.977	8.22
579.317	8.06
579.657	8.15
579.996	8.15
580.336	8.35
580.675	8.06
581.014	8.13
581.354	8.5
581.693	8.47
582.032	8.3
582.372	8.27
582.711	8.2
583.05	8.67
583.389	8.5
583.728	8.17
584.067	8.58
584.406	8.65
584.745	8.56
585.083	8.78
585.422	8.83
585.761	8.73
586.1	8.78
586.438	8.65
586.777	9.05
587.115	8.77
587.454	8.77
587.792	8.55
588.13	8.91
588.469	8.67
588.807	8.88
589.145	8.95
589.483	8.87
589.821	8.85
590.159	8.94
590.497	9.12
590.835	9.48
591.173	9.11
591.511	9.05
591.849	9.05
592.187	9.24
592.524	8.92
592.862	9.12
593.2	9.36
593.537	9.31
593.875	9.1
594.212	9.14
594.55	9.15
594.887	9.47
595.224	9.2
595.561	9.38
595.899	9.39
596.236	9.57
596.573	9.34
596.91	9.14
597.247	9.43
597.584	9.72
597.921	9.35
598.258	9.54
598.594	9.39
598.931	9.49
599.268	9.64
599.604	9.44
599.941	9.78
600.277	9.71
600.614	9.75
600.95	9.49
601.287	9.67
601.623	9.65
601.959	9.87
602.296	9.75
602.632	10.2
602.968	10.15
603.304	9.93
603.64	9.91
603.976	10.18
604.312	9.92
604.648	9.87
604.984	10.21
605.319	10.18
605.655	10.09
605.991	9.98
606.326	10.24
606.662	10.19
606.998	10.02
607.333	10.21
607.668	10.16
608.004	10.34
608.339	10.56
608.674	10.61
609.01	10.34
609.345	10.15
609.68	10.79
610.015	10.47
610.35	10.55
610.685	10.61
611.02	10.66
611.355	10.69
611.689	10.7
612.024	10.67
612.359	10.58
612.694	10.57
613.028	10.74
613.363	10.88
613.697	11.09
614.032	10.96
614.366	10.87
614.7	10.96
615.035	11.05
615.369	10.94
615.703	11.11
616.037	11.07
616.371	10.62
616.705	10.79
617.039	11.06
617.373	11.01
617.707	11.16
618.041	10.72
618.375	11
618.709	11.44
619.042	11.03
619.376	11.51
619.71	11.25
620.043	11.6
620.377	11.17
620.71	11.47
621.043	11.4
621.377	11.22
621.71	11.41
622.043	11.53
622.376	11.28
622.709	11.43
623.043	11.77
623.376	11.66
623.709	11.48
624.041	12.03
624.374	11.87
624.707	11.27
625.04	11.76
625.373	11.57
625.705	11.82
626.038	11.91
626.37	11.9
626.703	11.61
627.035	12.01
627.368	12.28
627.7	12.32
628.032	11.67
628.365	11.87
628.697	11.66
629.029	12
629.361	12.09
629.693	12.33
630.025	12.07
630.357	12.18
630.689	12.46
631.021	12.48
631.353	12.38
631.684	12.32
632.016	11.92
632.348	12.36
632.679	12.45
633.011	12.39
633.342	12.9
633.674	12.7
634.005	12.83
634.336	12.64
634.668	12.89
634.999	12.5
635.33	13.15
635.661	13.07
635.992	12.39
636.323	13.3
636.654	13.32
636.985	12.92
637.316	12.81
637.647	12.68
637.977	13.14
638.308	13.29
638.639	13.34
638.969	12.86
639.3	13.06
639.63	12.56
639.961	13.05
640.291	12.98
640.622	12.64
640.952	13.17
641.282	13.51
641.612	13.35
641.943	12.9
642.273	13.26
642.603	13.69
642.933	13.76
643.263	13.94
643.592	12.75
643.922	13.21
644.252	13.82
644.582	13.68
644.911	13.35
645.241	13.34
645.571	13.6
645.9	12.91
646.23	13.65
646.559	13.57
646.888	13.04
647.218	13.82
647.547	13.96
647.876	13.23
648.205	13.95
648.534	13.72
648.863	13.43
649.192	14.49
649.521	13.74
649.85	13.58
650.179	13.7
650.508	13.86
650.837	13.87
651.165	13.97
651.494	14.06
651.822	14.42
652.151	13.83
652.479	13.84
652.808	14.09
653.136	14.28
653.465	14.23
653.793	13.91
654.121	13.89
654.449	14.1
654.777	14.26
655.105	14.43
655.433	14.55
655.761	14.33
656.089	14.02
656.417	14.37
656.745	15.02
657.073	14.42
657.4	15.26
657.728	14.58
658.056	14.38
658.383	14.82
658.711	14.95
659.038	15.42
659.365	15.24
659.693	14.75
660.02	14.38
660.347	14.81
660.674	15.09
661.001	14.56
661.329	14.5
661.656	14.98
661.982	15.02
662.309	15.08
662.636	14.86
662.963	15.18
663.29	15.59
663.616	15.05
663.943	14.93
664.27	15.06
664.596	15.05
664.923	15.25
665.249	15.2
665.576	15.54
665.902	16.42
666.228	15.27
666.554	15.94
666.881	15.47
667.207	15.49
667.533	15.14
667.859	15.56
668.185	15.87
668.511	15.55
668.837	14.86
669.162	15.32
669.488	14.9
669.814	15.77
670.139	15.9
670.465	15.51
670.791	16.14
671.116	16.61
671.442	15.68
671.767	15.93
672.092	16.35
672.418	15.6
672.743	16.54
673.068	15.65
673.393	15.85
673.718	16.28
674.043	16.08
674.368	16.1
674.693	16.62
675.018	16.26
675.343	16.48
675.667	16.16
675.992	16.69
676.317	16.94
676.641	16.62
676.966	16.79
677.29	16.41
677.615	16.99
677.939	16.56
678.264	16.89
678.588	16.81
678.912	16.6
679.236	16.94
679.56	16.14
679.885	17.32
680.209	16.49
680.532	17.45
680.856	17.74
681.18	17.3
681.504	16.8
681.828	17.1
682.152	16.64
682.475	16.77
682.799	17.31
683.122	17.48
683.446	16.88
683.769	17.66
684.093	16.79
684.416	17.84
684.739	16.71
685.062	16.86
685.386	18.27
685.709	16.8
686.032	17.52
686.355	17.73
686.678	17.15
687.001	17.4
