Data from 0002_forehead_Reflection__1__282.txt Node

Date: Thu Dec 15 18:55:34 CST 2022
User: ToomeyLab
Spectrometer: FLMS14357
Trigger mode: 0
Integration Time (sec): 1.000000E-2
Scans to average: 100
Electric dark correction enabled: true
Nonlinearity correction enabled: false
Boxcar width: 0
XAxis mode: Wavelengths
Number of Pixels in Spectrum: 2048
>>>>>Begin Spectral Data<<<<<
189.047	-179.01
189.435	-179.01
189.823	-179.01
190.211	1179.73
190.599	6.25
190.987	152.15
191.375	349.29
191.763	102.1
192.151	-32.42
192.538	20.45
192.926	56.42
193.314	72.92
193.702	-1416.67
194.089	-5.88
194.477	-198.63
194.864	-17.02
195.252	88.13
195.639	108.43
196.027	63.41
196.414	15.24
196.801	-19.89
197.189	187.16
197.576	-1.21
197.963	-894.97
198.351	28
198.738	-23.56
199.125	17.43
199.512	18.37
199.899	-50.43
200.286	1.42
200.673	49.95
201.06	4.73
201.447	8.29
201.833	24.31
202.22	12.94
202.607	-27.13
202.994	3.45
203.38	-5.86
203.767	-15.13
204.154	29.9
204.54	39.92
204.927	4.76
205.313	43.84
205.699	6.26
206.086	12.81
206.472	14.3
206.858	26.16
207.245	7.27
207.631	10.9
208.017	85.06
208.403	-27.53
208.789	10.2
209.175	-15.91
209.561	-189.57
209.947	-44.35
210.333	-58.38
210.719	20.24
211.105	11.83
211.491	28.3
211.876	27.69
212.262	-5.01
212.648	14.03
213.034	8.29
213.419	3.35
213.805	-13.59
214.19	-27.36
214.576	-36.29
214.961	-1.17
215.346	10.2
215.732	-12.38
216.117	22.86
216.502	-41.39
216.888	14.64
217.273	25.37
217.658	-0.2
218.043	-5.98
218.428	-12.15
218.813	7.69
219.198	-1.31
219.583	-16.86
219.968	10.66
220.353	-18.66
220.738	-6.32
221.122	-10.74
221.507	-22.75
221.892	-11.37
222.276	-12.36
222.661	-20.09
223.046	-13.46
223.43	15.06
223.815	2.37
224.199	5.73
224.583	-4.38
224.968	-1.34
225.352	-0.23
225.736	16.6
226.121	-2.98
226.505	6.36
226.889	4.54
227.273	-5.35
227.657	3.06
228.041	1.81
228.425	-0.7
228.809	2.41
229.193	5.02
229.577	4.36
229.961	3.02
230.344	4.37
230.728	4.92
231.112	5.19
231.495	1.9
231.879	2.73
232.263	2.96
232.646	2.96
233.03	4.94
233.413	4.78
233.797	2.48
234.18	3.29
234.563	3.73
234.946	1.91
235.33	4
235.713	3.25
236.096	5.41
236.479	4.73
236.862	1.5
237.245	4.01
237.628	4.36
238.011	3.94
238.394	2.19
238.777	3.43
239.16	5.34
239.543	6.16
239.925	3.44
240.308	2.04
240.691	3.92
241.073	3.9
241.456	5.13
241.838	4
242.221	4.72
242.603	4.26
242.986	3.9
243.368	4.47
243.75	4.89
244.133	4.14
244.515	4.17
244.897	3.92
245.279	4.09
245.661	4.03
246.043	3.76
246.425	3.92
246.807	4.16
247.189	4.38
247.571	4.15
247.953	3.99
248.335	4.33
248.717	4.15
249.098	4.33
249.48	4.41
249.862	4.23
250.243	4.58
250.625	4.49
251.006	5.15
251.388	3.91
251.769	2.98
252.151	4.44
252.532	4.23
252.913	4.02
253.295	4.17
253.676	4.36
254.057	4.17
254.438	3.82
254.819	3.84
255.2	5.89
255.581	4.42
255.962	5.2
256.343	5.15
256.724	3.87
257.105	4.06
257.486	3.35
257.867	4.72
258.247	4.52
258.628	3.8
259.009	4.41
259.389	3.31
259.77	3.43
260.15	4.62
260.531	4.11
260.911	4.32
261.292	4.03
261.672	4.26
262.052	3.96
262.432	3.94
262.813	4.34
263.193	3.95
263.573	4.35
263.953	3.49
264.333	4.24
264.713	4.09
265.093	3.36
265.473	2.88
265.853	4.07
266.233	3.98
266.612	3.88
266.992	3.85
267.372	4.56
267.752	4.55
268.131	3.72
268.511	3.91
268.89	4.28
269.27	3.91
269.649	4.1
270.029	4.15
270.408	3.78
270.787	3.84
271.167	4.4
271.546	4.04
271.925	4.37
272.304	3.83
272.683	3.8
273.062	3.69
273.441	3.73
273.82	4.07
274.199	4.03
274.578	3.84
274.957	4.29
275.336	4.12
275.715	4.23
276.093	3.11
276.472	3.56
276.851	3.92
277.229	4.36
277.608	3.52
277.986	3.76
278.365	4.39
278.743	4.08
279.122	3.69
279.5	3.58
279.878	3.29
280.257	2.83
280.635	4.28
281.013	4.25
281.391	3.71
281.769	4.51
282.147	3.75
282.525	4.05
282.903	3.75
283.281	4.27
283.659	4.25
284.037	4.46
284.415	4.07
284.792	4.2
285.17	4.12
285.548	4.28
285.925	3.88
286.303	4.79
286.68	4.4
287.058	4.25
287.435	3.93
287.813	4.46
288.19	4.06
288.567	4.12
288.945	4.17
289.322	4.86
289.699	4.74
290.076	4.28
290.453	3.86
290.83	4.68
291.207	4.63
291.584	4.71
291.961	4.54
292.338	4.21
292.715	4.58
293.092	4.91
293.469	4.54
293.845	4.96
294.222	5.35
294.599	4.32
294.975	3.92
295.352	5.05
295.728	4.74
296.105	4.64
296.481	5.03
296.858	4.71
297.234	4.34
297.61	4.66
297.986	5.14
298.363	5.29
298.739	5.02
299.115	4.81
299.491	5.18
299.867	5.03
300.243	5.22
300.619	4.74
300.995	5.74
301.371	5.7
301.746	5.49
302.122	5.35
302.498	4.87
302.874	5.21
303.249	5.6
303.625	4.81
304	5.44
304.376	6.08
304.751	5.52
305.127	5.08
305.502	5.5
305.878	5.85
306.253	5.57
306.628	5.94
307.003	5.49
307.378	5.6
307.754	5.58
308.129	5.77
308.504	6.04
308.879	5.86
309.254	5.87
309.629	5.76
310.003	5.88
310.378	6.21
310.753	6.27
311.128	6.25
311.502	6.43
311.877	6.02
312.252	6.25
312.626	6.53
313.001	6.4
313.375	6.19
313.75	6.28
314.124	6.63
314.498	6.66
314.873	6.02
315.247	6.52
315.621	6.59
315.995	6.29
316.369	6.09
316.743	6.21
317.117	6.79
317.491	6.68
317.865	6.21
318.239	6.6
318.613	6.72
318.987	6.62
319.361	6.59
319.734	6.64
320.108	6.77
320.482	7.12
320.855	6.59
321.229	7.38
321.602	7.36
321.976	6.6
322.349	7.44
322.723	7.06
323.096	6.94
323.469	6.5
323.843	6.54
324.216	7.33
324.589	7.33
324.962	7
325.335	7.03
325.708	7.31
326.081	7.48
326.454	7.69
326.827	7.16
327.2	7.16
327.573	7.4
327.945	7.34
328.318	7.61
328.691	7.59
329.063	7.3
329.436	6.96
329.809	7.71
330.181	8.25
330.553	8.15
330.926	8.6
331.298	7.51
331.671	7.97
332.043	7.82
332.415	7.78
332.787	7.78
333.159	7.87
333.532	8.05
333.904	8.17
334.276	7.84
334.648	8.25
335.02	7.84
335.391	8.03
335.763	7.75
336.135	8.84
336.507	7.53
336.879	7.99
337.25	8.33
337.622	8.78
337.993	7.95
338.365	8.18
338.736	8.03
339.108	8.56
339.479	8.27
339.851	8.38
340.222	8.77
340.593	8.56
340.964	8.41
341.336	8.16
341.707	8.54
342.078	8.69
342.449	8.3
342.82	8.56
343.191	8.7
343.562	8.64
343.933	8.5
344.303	8.61
344.674	8.7
345.045	8.79
345.416	9.09
345.786	8.87
346.157	9
346.527	8.96
346.898	8.51
347.268	8.76
347.639	8.98
348.009	9.26
348.38	8.85
348.75	9.46
349.12	9.53
349.49	9.1
349.861	9.13
350.231	9.26
350.601	9.16
350.971	9.48
351.341	9.23
351.711	9.32
352.081	9.27
352.45	9.03
352.82	8.95
353.19	9.17
353.56	9.46
353.929	9.42
354.299	9.69
354.669	9.63
355.038	9.71
355.408	9.56
355.777	9.85
356.147	9.69
356.516	9.78
356.885	9.76
357.254	9.72
357.624	9.46
357.993	9.84
358.362	9.73
358.731	9.99
359.1	9.84
359.469	10.12
359.838	9.78
360.207	10.07
360.576	9.95
360.945	10.13
361.314	9.94
361.682	9.87
362.051	10.47
362.42	10.08
362.788	10.15
363.157	10.19
363.525	10.08
363.894	9.98
364.262	10.24
364.631	10.31
364.999	10.38
365.367	10.21
365.735	10.58
366.104	10.42
366.472	10.45
366.84	10.53
367.208	10.69
367.576	10.51
367.944	10.31
368.312	10.43
368.68	10.69
369.048	10.54
369.416	10.4
369.783	10.77
370.151	11.07
370.519	11.37
370.886	11.19
371.254	11.29
371.621	11.28
371.989	11.44
372.356	11.2
372.724	10.99
373.091	10.99
373.458	10.87
373.826	11.16
374.193	11.09
374.56	11.39
374.927	11.28
375.294	11.72
375.661	11.64
376.028	11.47
376.395	11.45
376.762	11.22
377.129	11.33
377.496	11.48
377.863	11.46
378.229	11.91
378.596	11.73
378.963	11.55
379.329	11.67
379.696	11.57
380.062	11.97
380.429	11.48
380.795	12.02
381.161	11.51
381.528	11.58
381.894	12.06
382.26	11.83
382.626	11.94
382.993	12.01
383.359	12.14
383.725	12.11
384.091	12.09
384.457	12.03
384.823	12.25
385.188	12.17
385.554	12.24
385.92	12.23
386.286	12.4
386.651	12.28
387.017	12.49
387.383	12.41
387.748	12.61
388.114	12.54
388.479	12.51
388.845	12.44
389.21	12.68
389.575	12.61
389.94	12.61
390.306	12.77
390.671	12.72
391.036	12.74
391.401	12.76
391.766	12.57
392.131	13
392.496	12.77
392.861	12.74
393.226	12.73
393.591	13.07
393.956	13.12
394.32	13.01
394.685	12.84
395.05	13.02
395.414	13.08
395.779	13.13
396.143	13.12
396.508	13.05
396.872	13.35
397.236	13.48
397.601	13.45
397.965	13.27
398.329	13.55
398.694	13.25
399.058	13.45
399.422	13.39
399.786	13.33
400.15	13.53
400.514	13.5
400.878	13.63
401.242	13.72
401.605	13.76
401.969	13.6
402.333	13.78
402.697	14.05
403.06	13.77
403.424	13.93
403.787	13.92
404.151	13.99
404.514	13.97
404.878	13.87
405.241	13.95
405.604	13.9
405.968	13.87
406.331	13.9
406.694	13.81
407.057	13.91
407.42	13.94
407.783	14.27
408.146	14.17
408.509	14.34
408.872	14.41
409.235	14.27
409.598	14.24
409.961	14.48
410.323	14.24
410.686	14.31
411.049	14.46
411.411	14.38
411.774	14.34
412.136	14.52
412.499	14.76
412.861	14.46
413.223	14.63
413.586	14.77
413.948	14.81
414.31	14.92
414.672	14.52
415.035	14.82
415.397	14.84
415.759	14.63
416.121	14.92
416.483	15
416.845	14.97
417.206	14.82
417.568	14.82
417.93	14.93
418.292	14.85
418.653	14.79
419.015	15.07
419.377	14.97
419.738	15.03
420.1	14.96
420.461	14.95
420.822	15.07
421.184	15.05
421.545	15.01
421.906	15
422.267	14.91
422.629	14.97
422.99	14.98
423.351	15.08
423.712	15.16
424.073	15.19
424.434	15.43
424.795	15.25
425.155	15.19
425.516	15.16
425.877	15.28
426.238	15.35
426.598	15.49
426.959	15.55
427.32	15.53
427.68	15.54
428.041	15.68
428.401	15.76
428.761	15.8
429.122	15.83
429.482	16.13
429.842	15.99
430.202	16.11
430.563	16.18
430.923	16.27
431.283	16.24
431.643	16.28
432.003	16.2
432.363	16.27
432.722	16.28
433.082	16.19
433.442	16.46
433.802	16.32
434.161	16.27
434.521	16.28
434.881	16.38
435.24	16.24
435.6	16.39
435.959	16.42
436.319	16.57
436.678	16.59
437.037	16.56
437.396	16.67
437.756	16.67
438.115	16.71
438.474	16.78
438.833	16.83
439.192	16.87
439.551	16.81
439.91	17.02
440.269	16.75
440.628	16.8
440.987	16.92
441.345	16.75
441.704	16.91
442.063	16.79
442.421	16.99
442.78	16.93
443.138	16.9
443.497	16.98
443.855	17.16
444.214	17.12
444.572	17.37
444.93	17.35
445.288	17.3
445.647	17.12
446.005	17.35
446.363	17.43
446.721	17.31
447.079	17.3
447.437	17.3
447.795	17.27
448.153	17.28
448.51	17.28
448.868	17.41
449.226	17.31
449.584	17.64
449.941	17.66
450.299	17.77
450.656	17.76
451.014	17.89
451.371	17.84
451.729	18.08
452.086	18.03
452.443	18.24
452.801	18.3
453.158	18.4
453.515	18.01
453.872	18.24
454.229	18.05
454.586	18.19
454.943	18.29
455.3	18.42
455.657	18.43
456.014	18.53
456.371	18.38
456.727	18.52
457.084	18.62
457.441	18.62
457.797	18.6
458.154	18.74
458.51	18.76
458.867	18.69
459.223	18.7
459.58	18.83
459.936	18.76
460.292	18.64
460.648	18.6
461.005	18.64
461.361	18.51
461.717	18.5
462.073	18.73
462.429	18.9
462.785	19.18
463.141	19.14
463.496	19.28
463.852	19.36
464.208	19.31
464.564	19.43
464.919	19.39
465.275	19.32
465.631	19.54
465.986	19.52
466.342	19.31
466.697	19.58
467.052	19.82
467.408	19.61
467.763	19.75
468.118	19.46
468.473	19.87
468.829	19.88
469.184	19.89
469.539	19.65
469.894	19.91
470.249	19.99
470.603	20.07
470.958	20.07
471.313	20.12
471.668	20
472.023	20.23
472.377	20.25
472.732	20.3
473.086	20.33
473.441	20.16
473.795	20.25
474.15	20.19
474.504	20.43
474.859	20.36
475.213	20.56
475.567	20.34
475.921	20.57
476.275	20.77
476.63	20.68
476.984	20.53
477.338	20.8
477.692	20.61
478.045	20.73
478.399	20.78
478.753	20.7
479.107	20.93
479.461	20.74
479.814	20.68
480.168	20.95
480.521	21.16
480.875	20.94
481.228	21.1
481.582	21.1
481.935	21.12
482.289	21.13
482.642	21.1
482.995	20.92
483.348	20.91
483.701	20.87
484.055	20.93
484.408	20.68
484.761	20.45
485.114	20.33
485.466	20.23
485.819	20.27
486.172	20.51
486.525	20.65
486.878	20.79
487.23	21.01
487.583	21.15
487.936	21.04
488.288	21.01
488.641	20.83
488.993	20.87
489.345	20.84
489.698	20.97
490.05	21.05
490.402	21.26
490.754	21.23
491.107	21.47
491.459	21.7
491.811	21.84
492.163	21.86
492.515	21.67
492.866	21.38
493.218	21.26
493.57	21.44
493.922	21.65
494.274	21.89
494.625	22.14
494.977	22.35
495.328	22.41
495.68	22.44
496.031	22.62
496.383	22.56
496.734	22.72
497.086	22.79
497.437	22.77
497.788	22.83
498.139	22.59
498.49	22.63
498.842	22.78
499.193	22.65
499.544	22.76
499.894	22.92
500.245	22.89
500.596	23.05
500.947	23.03
501.298	23.22
501.648	23.3
501.999	23.42
502.35	23.36
502.7	23.56
503.051	23.47
503.401	23.67
503.752	23.63
504.102	23.83
504.452	23.57
504.803	23.64
505.153	23.74
505.503	23.78
505.853	23.8
506.203	23.9
506.553	24
506.903	23.92
507.253	24.08
507.603	24.16
507.953	24.01
508.303	24.17
508.652	24.02
509.002	24.23
509.352	24.03
509.701	24.12
510.051	24.27
510.4	24.16
510.75	24.01
511.099	24.13
511.449	24.44
511.798	24.29
512.147	24.58
512.496	24.61
512.846	24.53
513.195	24.59
513.544	24.55
513.893	24.52
514.242	24.65
514.591	24.72
514.939	24.85
515.288	24.96
515.637	24.94
515.986	25.09
516.334	25.3
516.683	25.24
517.032	25.12
517.38	25.21
517.729	25.14
518.077	25.15
518.426	25.27
518.774	25.3
519.122	25.22
519.47	25.15
519.819	25.2
520.167	24.98
520.515	25.08
520.863	25.11
521.211	25.19
521.559	25.43
521.907	25.6
522.255	25.74
522.602	25.75
522.95	25.92
523.298	26.03
523.645	26.08
523.993	26.2
524.341	26.18
524.688	26.21
525.036	26.22
525.383	26.23
525.73	26.1
526.078	26.06
526.425	26.15
526.772	26.19
527.119	26.01
527.466	25.94
527.814	26.09
528.161	26.18
528.508	26.15
528.854	26.21
529.201	25.98
529.548	25.88
529.895	25.69
530.242	25.74
530.588	25.76
530.935	26.01
531.282	26.03
531.628	26.32
531.975	26.27
532.321	26.57
532.667	26.78
533.014	26.93
533.36	26.93
533.706	26.78
534.052	26.79
534.399	26.72
534.745	26.52
535.091	26.6
535.437	26.78
535.783	27.03
536.129	27.02
536.474	27.4
536.82	27.36
537.166	27.4
537.512	27.36
537.857	27.5
538.203	27.27
538.549	27.44
538.894	27.53
539.239	27.67
539.585	27.97
539.93	28.02
540.276	27.99
540.621	28.2
540.966	28.17
541.311	28.21
541.656	28.03
542.001	28.06
542.346	27.81
542.691	27.58
543.036	27.54
543.381	27.71
543.726	27.82
544.071	28.02
544.415	28.16
544.76	28.16
545.105	28.33
545.449	28.46
545.794	28.6
546.138	28.63
546.483	28.77
546.827	28.84
547.171	29.09
547.516	29.05
547.86	29
548.204	29
548.548	28.9
548.892	29.07
549.236	29.23
549.58	29.48
549.924	29.56
550.268	29.56
550.612	29.91
550.956	30.01
551.3	30.3
551.643	29.89
551.987	30.35
552.33	30.17
552.674	30.5
553.017	30.45
553.361	30.23
553.704	30.07
554.048	30.18
554.391	30.24
554.734	30.38
555.077	30.34
555.42	30.4
555.764	30.5
556.107	30.8
556.45	30.89
556.793	30.9
557.135	30.77
557.478	31.08
557.821	31.26
558.164	31.13
558.507	31.15
558.849	31.38
559.192	31.33
559.534	31.07
559.877	31.4
560.219	31.38
560.562	31.53
560.904	31.59
561.246	31.47
561.589	31.69
561.931	31.68
562.273	31.88
562.615	31.72
562.957	31.69
563.299	31.79
563.641	31.93
563.983	31.77
564.325	31.96
564.667	31.93
565.008	31.94
565.35	32.17
565.692	32.3
566.033	32.3
566.375	32.14
566.716	32.2
567.058	32.2
567.399	32.25
567.741	32.28
568.082	32.3
568.423	32.04
568.764	32.21
569.105	32.37
569.447	32.56
569.788	32.81
570.129	32.67
570.47	32.93
570.811	32.99
571.151	32.99
571.492	32.77
571.833	32.76
572.174	33.13
572.514	33.21
572.855	32.88
573.195	33.19
573.536	33.07
573.876	33.01
574.217	33.01
574.557	33.17
574.898	33.37
575.238	33.35
575.578	33.25
575.918	33.68
576.258	33.58
576.598	33.6
576.938	33.55
577.278	33.62
577.618	33.71
577.958	33.87
578.298	33.67
578.638	33.91
578.977	33.95
579.317	33.98
579.657	34.11
579.996	34.29
580.336	34.73
580.675	34.41
581.014	34.58
581.354	34.47
581.693	34.91
582.032	34.81
582.372	34.94
582.711	35
583.05	35.07
583.389	35.04
583.728	35.3
584.067	35.08
584.406	35.17
584.745	35.19
585.083	35.32
585.422	35.59
585.761	35.51
586.1	35.6
586.438	35.41
586.777	35.54
587.115	35.6
587.454	35.45
587.792	35.72
588.13	35.62
588.469	35.52
588.807	35.87
589.145	36.17
589.483	35.67
589.821	36.1
590.159	36.07
590.497	36.01
590.835	36.11
591.173	35.87
591.511	36.17
591.849	36.13
592.187	36.28
592.524	36.23
592.862	36.2
593.2	36.43
593.537	36.62
593.875	36.46
594.212	36.34
594.55	36.72
594.887	36.82
595.224	37.05
595.561	36.68
595.899	36.64
596.236	36.91
596.573	36.79
596.91	36.84
597.247	36.89
597.584	36.76
597.921	36.95
598.258	36.68
598.594	36.77
598.931	36.71
599.268	37.12
599.604	37.11
599.941	36.85
600.277	37.32
600.614	37.26
600.95	37.38
601.287	37.55
601.623	37.43
601.959	37.91
602.296	37.8
602.632	37.76
602.968	37.8
603.304	37.99
603.64	38.24
603.976	37.94
604.312	37.72
604.648	37.76
604.984	37.96
605.319	37.9
605.655	37.72
605.991	37.82
606.326	37.79
606.662	37.64
606.998	38.36
607.333	38.09
607.668	38.22
608.004	38.28
608.339	38.41
608.674	38.75
609.01	38.83
609.345	38.81
609.68	38.38
610.015	38.71
610.35	38.97
610.685	38.54
611.02	38.69
611.355	38.61
611.689	38.88
612.024	38.74
612.359	38.92
612.694	39.2
613.028	39.42
613.363	39.56
613.697	39.48
614.032	39.25
614.366	39.42
614.7	39.46
615.035	39.62
615.369	39.66
615.703	39.62
616.037	39.63
616.371	39.69
616.705	40.11
617.039	39.76
617.373	40.3
617.707	40.05
618.041	39.77
618.375	39.74
618.709	40.4
619.042	40.47
619.376	40.63
619.71	40.28
620.043	40.47
620.377	40.66
620.71	40.62
621.043	40.63
621.377	40.83
621.71	40.72
622.043	40.65
622.376	40.88
622.709	41.27
623.043	40.94
623.376	40.95
623.709	41.58
624.041	40.82
624.374	40.95
624.707	41
625.04	40.74
625.373	41.28
625.705	41.56
626.038	41.41
626.37	41.44
626.703	41.3
627.035	41.13
627.368	41.5
627.7	41.56
628.032	41.68
628.365	41.53
628.697	41.79
629.029	41.62
629.361	42
629.693	41.57
630.025	41.6
630.357	42.01
630.689	41.87
631.021	42.08
631.353	42.13
631.684	41.96
632.016	41.9
632.348	42.15
632.679	42.38
633.011	42.3
633.342	43.04
633.674	42.72
634.005	42.48
634.336	42.92
634.668	42.54
634.999	42.55
635.33	42.89
635.661	42.58
635.992	42.6
636.323	42.68
636.654	43.02
636.985	43.07
637.316	42.71
637.647	42.96
637.977	42.8
638.308	43.16
638.639	42.89
638.969	43.43
639.3	43.12
639.63	43.07
639.961	43.38
640.291	43.15
640.622	43.62
640.952	42.79
641.282	43.62
641.612	43.21
641.943	43.47
642.273	43.71
642.603	43.86
642.933	44.17
643.263	43.57
643.592	44.01
643.922	43.92
644.252	44.23
644.582	43.88
644.911	44.2
645.241	43.77
645.571	43.92
645.9	44.08
646.23	44.21
646.559	44.12
646.888	44.21
647.218	44.22
647.547	44.16
647.876	44.43
648.205	44.66
648.534	44.13
648.863	44.88
649.192	44.95
649.521	44.53
649.85	44.7
650.179	45.21
650.508	44.89
650.837	45.01
651.165	44.78
651.494	44.63
651.822	45.29
652.151	44.85
652.479	45.02
652.808	45.18
653.136	44.15
653.465	45.1
653.793	45.09
654.121	45.62
654.449	45.17
654.777	45.07
655.105	45.52
655.433	45.46
655.761	45.61
656.089	46.06
656.417	45.4
656.745	46.3
657.073	45.24
657.4	45.44
657.728	45.55
658.056	45.94
658.383	45.78
658.711	46.27
659.038	46.17
659.365	46.45
659.693	45.6
660.02	46.19
660.347	45.95
660.674	45.85
661.001	46.1
661.329	45.91
661.656	46.04
661.982	45.93
662.309	46.45
662.636	46.42
662.963	46.47
663.29	46.31
663.616	46.62
663.943	46.72
664.27	46.52
664.596	46.34
664.923	46.72
665.249	47.02
665.576	46.46
665.902	47.24
666.228	47.01
666.554	46.97
666.881	47.03
667.207	47.16
667.533	46.9
667.859	47.5
668.185	47.28
668.511	47.02
668.837	47.02
669.162	46.91
669.488	46.92
669.814	47.36
670.139	47.06
670.465	47.24
670.791	47.02
671.116	47.62
671.442	47.46
