Data from 0002_chest_Reflection__0__271.txt Node

Date: Thu Dec 15 18:52:39 CST 2022
User: ToomeyLab
Spectrometer: FLMS14357
Trigger mode: 0
Integration Time (sec): 1.000000E-2
Scans to average: 100
Electric dark correction enabled: true
Nonlinearity correction enabled: false
Boxcar width: 0
XAxis mode: Wavelengths
Number of Pixels in Spectrum: 2048
>>>>>Begin Spectral Data<<<<<
189.047	6.29
189.435	6.29
189.823	6.29
190.211	-901.35
190.599	-47.99
190.987	244.13
191.375	-71.14
191.763	214.73
192.151	-41.15
192.538	67.2
192.926	161.24
193.314	47.9
193.702	-22683.33
194.089	57.6
194.477	-99.11
194.864	146.04
195.252	51.65
195.639	40.05
196.027	-54.73
196.414	70.69
196.801	-2.8
197.189	287.64
197.576	48.98
197.963	-617.11
198.351	15.08
198.738	-34.44
199.125	-62.06
199.512	17.13
199.899	3.27
200.286	-28.82
200.673	65.22
201.06	-4
201.447	6.69
201.833	-14.77
202.22	-9.55
202.607	8.07
202.994	7.02
203.38	-9.57
203.767	13.05
204.154	34.96
204.54	-25.04
204.927	-3.87
205.313	28.85
205.699	13.83
206.086	1.7
206.472	9.7
206.858	-6.95
207.245	21.73
207.631	-17.12
208.017	29.21
208.403	-79.43
208.789	8.3
209.175	33.72
209.561	-191.54
209.947	-7.73
210.333	-42.85
210.719	7.5
211.105	24.98
211.491	20.41
211.876	-27.03
212.262	-18.87
212.648	-0.09
213.034	17.13
213.419	-9.86
213.805	-41.71
214.19	-25.65
214.576	-23.37
214.961	-2.19
215.346	-48.65
215.732	-20.23
216.117	11.8
216.502	-17.79
216.888	7.01
217.273	-4.9
217.658	-6.3
218.043	-56.09
218.428	-9.64
218.813	15.01
219.198	-42.85
219.583	-25.32
219.968	-14.84
220.353	-32.44
220.738	0.47
221.122	-13.93
221.507	-17.96
221.892	-31.51
222.276	-23.58
222.661	-0.61
223.046	-9.45
223.43	13.13
223.815	-1.38
224.199	-3.55
224.583	-12.8
224.968	2.13
225.352	-3.5
225.736	4.25
226.121	-4.72
226.505	-0.63
226.889	1.62
227.273	0.41
227.657	3.77
228.041	4.72
228.425	-3.77
228.809	0.84
229.193	4.25
229.577	4.18
229.961	3.53
230.344	4.01
230.728	4.61
231.112	4.85
231.495	3.47
231.879	3.63
232.263	2.95
232.646	3.04
233.03	5.26
233.413	2.92
233.797	-0.94
234.18	2.5
234.563	4.12
234.946	0.39
235.33	1.4
235.713	4.36
236.096	5.46
236.479	4.83
236.862	3.69
237.245	1.62
237.628	4.97
238.011	3.72
238.394	3.39
238.777	5.61
239.16	6.73
239.543	3.19
239.925	1.12
240.308	2.16
240.691	2.18
241.073	2.99
241.456	3.49
241.838	4.57
242.221	5.32
242.603	3.98
242.986	3.98
243.368	3.74
243.75	4.38
244.133	4.41
244.515	3.83
244.897	3.8
245.279	2.95
245.661	4.47
246.043	3.59
246.425	4.23
246.807	4.37
247.189	4.05
247.571	3.68
247.953	3.97
248.335	4.38
248.717	4.32
249.098	4.01
249.48	3.81
249.862	4.06
250.243	4.29
250.625	4.46
251.006	4.76
251.388	4.01
251.769	3.12
252.151	4.06
252.532	3.94
252.913	3.56
253.295	3.91
253.676	4.43
254.057	3.86
254.438	4.22
254.819	4.38
255.2	4.7
255.581	5.48
255.962	4.88
256.343	4.02
256.724	4.3
257.105	3.56
257.486	3.44
257.867	3.28
258.247	2.74
258.628	4.03
259.009	3.63
259.389	3.09
259.77	3.24
260.15	4.33
260.531	3.9
260.911	3.92
261.292	3.85
261.672	3.98
262.052	3.91
262.432	3.6
262.813	3.81
263.193	3.87
263.573	4.05
263.953	3.67
264.333	3.83
264.713	3.73
265.093	3.63
265.473	2.98
265.853	4.02
266.233	3.26
266.612	2.92
266.992	3.61
267.372	4.13
267.752	4.12
268.131	3.59
268.511	3.9
268.89	4.52
269.27	3.21
269.649	3.3
270.029	3.38
270.408	3.81
270.787	3.61
271.167	3.9
271.546	4.37
271.925	3.75
272.304	2.89
272.683	3.39
273.062	3.65
273.441	3.29
273.82	3.86
274.199	3.58
274.578	3.82
274.957	3.2
275.336	4.09
275.715	3.76
276.093	3.55
276.472	3.02
276.851	3.67
277.229	3.69
277.608	3.04
277.986	3.04
278.365	3.27
278.743	3.73
279.122	3.64
279.5	3.97
279.878	3.42
280.257	3.85
280.635	4.01
281.013	3
281.391	3.42
281.769	3.7
282.147	3.55
282.525	3.2
282.903	3.57
283.281	3.96
283.659	3.83
284.037	3.15
284.415	3.61
284.792	3.7
285.17	3.74
285.548	3.68
285.925	3.48
286.303	4.27
286.68	3.84
287.058	3.94
287.435	3.35
287.813	3.65
288.19	3.41
288.567	3.86
288.945	3.41
289.322	3.64
289.699	3.75
290.076	3.39
290.453	3
290.83	3.69
291.207	3.75
291.584	3.77
291.961	3.42
292.338	3.64
292.715	3.72
293.092	3.32
293.469	3.15
293.845	3.77
294.222	4.1
294.599	3.13
294.975	3.01
295.352	3.86
295.728	3.68
296.105	4
296.481	4.16
296.858	3.84
297.234	3.37
297.61	3.86
297.986	4.43
298.363	4.12
298.739	4.17
299.115	3.97
299.491	3.82
299.867	3.88
300.243	3.75
300.619	3.77
300.995	4.17
301.371	4.17
301.746	3.89
302.122	3.53
302.498	3.65
302.874	4.06
303.249	3.91
303.625	3.89
304	4.09
304.376	4.65
304.751	3.96
305.127	3.59
305.502	3.89
305.878	4.28
306.253	3.66
306.628	4.07
307.003	3.8
307.378	4.06
307.754	3.79
308.129	3.99
308.504	4.27
308.879	4.26
309.254	3.86
309.629	4.47
310.003	3.78
310.378	4.54
310.753	4.11
311.128	3.63
311.502	4.31
311.877	3.94
312.252	3.97
312.626	4.32
313.001	3.82
313.375	3.97
313.75	4.38
314.124	4.03
314.498	4.68
314.873	3.84
315.247	3.7
315.621	4.34
315.995	4.21
316.369	3.83
316.743	4.13
317.117	4.2
317.491	3.77
317.865	3.86
318.239	4.59
318.613	3.7
318.987	4
319.361	4.36
319.734	3.88
320.108	3.96
320.482	3.98
320.855	4.2
321.229	4.16
321.602	4.36
321.976	3.81
322.349	4.69
322.723	4.36
323.096	3.69
323.469	3.79
323.843	3.91
324.216	3.78
324.589	4.47
324.962	3.85
325.335	3.82
325.708	3.84
326.081	4.47
326.454	4.27
326.827	4.35
327.2	3.97
327.573	4.85
327.945	3.92
328.318	3.85
328.691	4.13
329.063	3.81
329.436	4.06
329.809	4.01
330.181	4.57
330.553	4.23
330.926	4.74
331.298	4.23
331.671	4.27
332.043	4.24
332.415	4.38
332.787	4.59
333.159	4.18
333.532	4.47
333.904	4.23
334.276	4.18
334.648	4.08
335.02	3.88
335.391	4.03
335.763	4.44
336.135	4.51
336.507	4.45
336.879	4.36
337.25	4.49
337.622	3.96
337.993	4.28
338.365	4.53
338.736	4.22
339.108	4.49
339.479	4.1
339.851	4.45
340.222	4.51
340.593	4.29
340.964	4.4
341.336	4.47
341.707	4.49
342.078	4.29
342.449	4.55
342.82	4.16
343.191	4.41
343.562	4.19
343.933	3.55
344.303	4.27
344.674	4.36
345.045	4.48
345.416	4.62
345.786	3.91
346.157	4.5
346.527	4.34
346.898	3.82
347.268	4.07
347.639	4.2
348.009	4.11
348.38	4.22
348.75	4.29
349.12	4.18
349.49	4.45
349.861	4.42
350.231	4.44
350.601	4.48
350.971	4.01
351.341	4.23
351.711	4.39
352.081	4.15
352.45	4.14
352.82	3.93
353.19	4.36
353.56	4.44
353.929	4.48
354.299	4.31
354.669	4.62
355.038	4.7
355.408	4.28
355.777	4.48
356.147	4.49
356.516	4.35
356.885	4.27
357.254	4.1
357.624	3.76
357.993	4.49
358.362	4.47
358.731	4.56
359.1	4.46
359.469	4.5
359.838	4.48
360.207	4.29
360.576	4.49
360.945	4.58
361.314	4.41
361.682	4.26
362.051	4.63
362.42	4.44
362.788	4.62
363.157	4.29
363.525	4.57
363.894	4.25
364.262	4.44
364.631	4.67
364.999	4.35
365.367	4.35
365.735	4.31
366.104	4.58
366.472	4.3
366.84	4.57
367.208	4.72
367.576	4.47
367.944	4.57
368.312	4.39
368.68	4.67
369.048	4.28
369.416	4.06
369.783	4.4
370.151	4.71
370.519	4.55
370.886	4.73
371.254	4.67
371.621	4.77
371.989	4.78
372.356	4.63
372.724	4.79
373.091	4.2
373.458	4.45
373.826	4.82
374.193	4.6
374.56	4.43
374.927	4.43
375.294	4.8
375.661	4.58
376.028	4.63
376.395	4.86
376.762	4.47
377.129	4.29
377.496	4.72
377.863	4.61
378.229	4.67
378.596	4.93
378.963	4.55
379.329	4.52
379.696	4.59
380.062	4.69
380.429	4.78
380.795	4.82
381.161	4.36
381.528	4.33
381.894	4.52
382.26	4.6
382.626	4.66
382.993	4.76
383.359	4.6
383.725	4.41
384.091	4.62
384.457	4.59
384.823	4.93
385.188	4.97
385.554	4.39
385.92	4.37
386.286	4.69
386.651	4.65
387.017	4.68
387.383	4.71
387.748	4.7
388.114	4.8
388.479	4.6
388.845	4.72
389.21	5.11
389.575	4.96
389.94	4.83
390.306	4.73
390.671	4.73
391.036	4.68
391.401	4.71
391.766	4.59
392.131	4.8
392.496	4.6
392.861	4.6
393.226	4.52
393.591	4.74
393.956	4.78
394.32	4.96
394.685	4.7
395.05	4.84
395.414	4.9
395.779	4.88
396.143	4.46
396.508	4.72
396.872	4.56
397.236	5.06
397.601	4.71
397.965	4.71
398.329	4.91
398.694	4.62
399.058	4.84
399.422	4.69
399.786	4.63
400.15	4.74
400.514	4.73
400.878	4.83
401.242	4.97
401.605	4.95
401.969	4.73
402.333	4.57
402.697	5.08
403.06	4.89
403.424	4.94
403.787	4.91
404.151	4.9
404.514	4.77
404.878	4.57
405.241	4.8
405.604	4.75
405.968	4.71
406.331	4.89
406.694	4.81
407.057	4.82
407.42	4.63
407.783	5.04
408.146	4.76
408.509	4.95
408.872	4.74
409.235	5.12
409.598	5.09
409.961	4.89
410.323	4.83
410.686	4.78
411.049	4.93
411.411	5.02
411.774	4.79
412.136	4.85
412.499	5
412.861	4.74
413.223	4.83
413.586	4.8
413.948	5.15
414.31	4.88
414.672	4.99
415.035	5.02
415.397	4.6
415.759	4.75
416.121	5.07
416.483	4.79
416.845	5.13
417.206	4.87
417.568	4.88
417.93	4.81
418.292	4.86
418.653	4.78
419.015	4.96
419.377	4.88
419.738	5.01
420.1	4.86
420.461	4.85
420.822	5
421.184	4.99
421.545	5.02
421.906	4.88
422.267	4.93
422.629	4.79
422.99	4.89
423.351	4.9
423.712	4.9
424.073	4.93
424.434	4.94
424.795	4.88
425.155	4.93
425.516	4.86
425.877	4.96
426.238	4.83
426.598	4.95
426.959	4.97
427.32	4.9
427.68	5.12
428.041	5.12
428.401	4.96
428.761	4.98
429.122	4.97
429.482	5
429.842	5.17
430.202	5.08
430.563	5.14
430.923	4.96
431.283	5.12
431.643	5.31
432.003	5.17
432.363	5.24
432.722	5.2
433.082	5.02
433.442	5.19
433.802	4.99
434.161	5.11
434.521	5.04
434.881	5.14
435.24	5.17
435.6	5.05
435.959	5.2
436.319	5.14
436.678	5.26
437.037	5.15
437.396	5.24
437.756	5.19
438.115	5.19
438.474	5.13
438.833	5.14
439.192	5.12
439.551	5.12
439.91	5.2
440.269	5.1
440.628	5.07
440.987	5.05
441.345	5.19
441.704	5.18
442.063	5.09
442.421	5.14
442.78	5.22
443.138	5.22
443.497	5.15
443.855	5.28
444.214	5.02
444.572	5.28
444.93	5.23
445.288	5.24
445.647	4.97
446.005	5.3
446.363	5.17
446.721	5.2
447.079	5.08
447.437	5.1
447.795	5.25
448.153	5.13
448.51	5.2
448.868	5.1
449.226	5.18
449.584	5.17
449.941	5.2
450.299	5.26
450.656	5.33
451.014	5.35
451.371	5.26
451.729	5.34
452.086	5.28
452.443	5.38
452.801	5.21
453.158	5.48
453.515	5.33
453.872	5.25
454.229	5.2
454.586	5.1
454.943	5.31
455.3	5.45
455.657	5.31
456.014	5.42
456.371	5.43
456.727	5.4
457.084	5.53
457.441	5.43
457.797	5.37
458.154	5.44
458.51	5.34
458.867	5.32
459.223	5.31
459.58	5.44
459.936	5.38
460.292	5.34
460.648	5.25
461.005	5.37
461.361	5.29
461.717	5.28
462.073	5.37
462.429	5.4
462.785	5.59
463.141	5.43
463.496	5.58
463.852	5.7
464.208	5.6
464.564	5.45
464.919	5.47
465.275	5.41
465.631	5.59
465.986	5.59
466.342	5.4
466.697	5.57
467.052	5.62
467.408	5.66
467.763	5.6
468.118	5.37
468.473	5.43
468.829	5.54
469.184	5.6
469.539	5.5
469.894	5.61
470.249	5.7
470.603	5.6
470.958	5.79
471.313	5.69
471.668	5.8
472.023	5.66
472.377	5.63
472.732	5.79
473.086	5.57
473.441	5.6
473.795	5.86
474.15	5.55
474.504	5.66
474.859	5.47
475.213	5.72
475.567	5.37
475.921	5.73
476.275	5.66
476.63	5.71
476.984	5.5
477.338	5.68
477.692	5.62
478.045	5.71
478.399	5.66
478.753	5.62
479.107	5.72
479.461	5.63
479.814	5.74
480.168	5.64
480.521	5.86
480.875	5.65
481.228	5.81
481.582	5.81
481.935	5.89
482.289	5.86
482.642	5.79
482.995	5.63
483.348	5.63
483.701	5.75
484.055	5.62
484.408	5.62
484.761	5.57
485.114	5.43
485.466	5.41
485.819	5.41
486.172	5.49
486.525	5.51
486.878	5.54
487.23	5.58
487.583	5.66
487.936	5.58
488.288	5.6
488.641	5.58
488.993	5.55
489.345	5.52
489.698	5.58
490.05	5.55
490.402	5.62
490.754	5.63
491.107	5.71
491.459	5.77
491.811	5.73
492.163	5.82
492.515	5.74
492.866	5.62
493.218	5.63
493.57	5.64
493.922	5.7
494.274	5.81
494.625	5.87
494.977	5.86
495.328	5.8
495.68	5.89
496.031	5.92
496.383	6.01
496.734	5.95
497.086	5.98
497.437	6.13
497.788	6.04
498.139	6.01
498.49	5.95
498.842	5.99
499.193	5.88
499.544	5.98
499.894	6
500.245	6.08
500.596	6.08
500.947	5.95
501.298	6.1
501.648	6
501.999	6.16
502.35	6.08
502.7	6.32
503.051	6.11
503.401	6.22
503.752	6.11
504.102	6.05
504.452	6.09
504.803	6.18
505.153	6.34
505.503	6.15
505.853	6.2
506.203	6.23
506.553	6.21
506.903	6.09
507.253	6.18
507.603	6.25
507.953	6.28
508.303	6.41
508.652	6.08
509.002	6.35
509.352	6.31
509.701	6.25
510.051	6.45
510.4	6.29
510.75	6.23
511.099	6.33
511.449	6.31
511.798	6.34
512.147	6.32
512.496	6.37
512.846	6.26
513.195	6.36
513.544	6.44
513.893	6.32
514.242	6.29
514.591	6.31
514.939	6.39
515.288	6.5
515.637	6.5
515.986	6.58
516.334	6.5
516.683	6.52
517.032	6.47
517.38	6.43
517.729	6.5
518.077	6.54
518.426	6.58
518.774	6.46
519.122	6.54
519.47	6.43
519.819	6.54
520.167	6.45
520.515	6.54
520.863	6.5
521.211	6.47
521.559	6.55
521.907	6.59
522.255	6.51
522.602	6.59
522.95	6.77
523.298	6.67
523.645	6.73
523.993	6.73
524.341	6.73
524.688	6.57
525.036	6.8
525.383	6.77
525.73	6.67
526.078	6.79
526.425	6.67
526.772	6.78
527.119	6.69
527.466	6.73
527.814	6.72
528.161	6.81
528.508	6.88
528.854	6.76
529.201	6.7
529.548	6.7
529.895	6.61
530.242	6.59
530.588	6.65
530.935	6.69
531.282	6.66
531.628	6.72
531.975	6.74
532.321	6.89
532.667	6.85
533.014	6.96
533.36	6.98
533.706	6.97
534.052	6.95
534.399	6.92
534.745	6.91
535.091	6.85
535.437	6.91
535.783	6.94
536.129	6.99
536.474	7.02
536.82	7.11
537.166	7.08
537.512	7.12
537.857	7.14
538.203	7.1
538.549	7.16
538.894	7.21
539.239	7.23
539.585	7.35
539.93	7.32
540.276	7.37
540.621	7.33
540.966	7.4
541.311	7.38
541.656	7.34
542.001	7.34
542.346	7.32
542.691	7.17
543.036	7.25
543.381	7.26
543.726	7.27
544.071	7.27
544.415	7.37
544.76	7.37
545.105	7.4
545.449	7.43
545.794	7.48
546.138	7.43
546.483	7.62
546.827	7.58
547.171	7.68
547.516	7.73
547.86	7.69
548.204	7.69
548.548	7.65
548.892	7.7
549.236	7.77
549.58	7.82
549.924	7.89
550.268	7.93
550.612	7.93
550.956	7.96
551.3	8.17
551.643	8
551.987	8.03
552.33	8.17
552.674	8.04
553.017	8.28
553.361	7.95
553.704	8.23
554.048	8.06
554.391	8.25
554.734	8.19
555.077	8.02
555.42	8.2
555.764	8.19
556.107	8.37
556.45	8.22
556.793	8.43
557.135	8.32
557.478	8.32
557.821	8.5
558.164	8.48
558.507	8.35
558.849	8.49
559.192	8.38
559.534	8.55
559.877	8.43
560.219	8.49
560.562	8.47
560.904	8.92
561.246	8.57
561.589	8.75
561.931	8.74
562.273	8.59
562.615	8.69
562.957	8.82
563.299	8.81
563.641	8.82
563.983	8.69
564.325	8.9
564.667	8.86
565.008	8.79
565.35	8.79
565.692	8.86
566.033	9
566.375	9
566.716	9.02
567.058	9.09
567.399	9.04
567.741	9.11
568.082	9.08
568.423	8.99
568.764	9.11
569.105	9.18
569.447	9.04
569.788	9.25
570.129	9.31
570.47	9.29
570.811	9.33
571.151	9.38
571.492	9.3
571.833	9.32
572.174	9.45
572.514	9.35
572.855	9.45
573.195	9.34
573.536	9.4
573.876	9.51
574.217	9.45
574.557	9.71
574.898	9.43
575.238	9.72
575.578	9.56
575.918	9.76
576.258	9.78
576.598	9.65
576.938	9.84
577.278	9.75
577.618	9.89
577.958	9.96
578.298	9.85
578.638	9.84
578.977	10.01
579.317	9.94
579.657	9.86
579.996	10.1
580.336	10.2
580.675	10.06
581.014	10.23
581.354	10.21
581.693	10.31
582.032	10.36
582.372	10.36
582.711	10.46
583.05	10.37
583.389	10.24
583.728	10.59
584.067	10.29
584.406	10.52
584.745	10.52
585.083	10.5
585.422	10.74
585.761	10.68
586.1	10.72
586.438	10.61
586.777	10.65
587.115	10.77
587.454	10.68
587.792	10.67
588.13	10.61
588.469	10.76
588.807	10.92
589.145	10.78
589.483	10.87
589.821	11.06
590.159	10.96
590.497	11.1
590.835	11.23
591.173	11.38
591.511	11.32
591.849	11.16
592.187	11.06
592.524	11.28
592.862	10.92
593.2	11.35
593.537	11.32
593.875	11.48
594.212	11.48
594.55	11.32
594.887	11.45
595.224	11.82
595.561	11.5
595.899	11.33
596.236	11.71
596.573	11.36
596.91	11.57
597.247	11.74
597.584	11.64
597.921	11.51
598.258	11.62
598.594	11.55
598.931	11.52
599.268	11.64
599.604	11.71
599.941	11.68
600.277	11.72
600.614	11.81
600.95	11.87
601.287	11.76
601.623	11.82
601.959	12.33
602.296	12.22
602.632	12.02
602.968	12.28
603.304	12.51
603.64	12.26
603.976	12.26
604.312	12.28
604.648	12.47
604.984	12.34
605.319	12.43
605.655	12.3
605.991	12.32
606.326	12.36
606.662	12.23
606.998	12.41
607.333	12.36
607.668	12.47
608.004	12.61
608.339	12.55
608.674	12.58
609.01	13.05
609.345	12.81
609.68	12.97
610.015	12.94
610.35	12.84
610.685	12.8
611.02	12.78
611.355	12.91
611.689	13.06
612.024	13.14
612.359	13.04
612.694	13.33
613.028	13.2
613.363	13.06
613.697	13.1
614.032	13.34
614.366	13.06
614.7	13.5
615.035	13.42
615.369	13.49
615.703	13.4
616.037	13.2
616.371	13.32
616.705	13.65
617.039	13.28
617.373	13.33
617.707	13.84
618.041	13.42
618.375	13.17
618.709	13.75
619.042	14.08
619.376	13.89
619.71	13.63
620.043	14.22
620.377	14.11
620.71	14.13
621.043	14.2
621.377	14.08
621.71	14.44
622.043	14.33
622.376	13.93
622.709	14.52
623.043	14.57
623.376	14
623.709	14.58
624.041	14.57
624.374	14.63
624.707	14.47
625.04	14.34
625.373	14.57
625.705	14.68
626.038	14.87
626.37	14.36
626.703	14.45
627.035	14.7
627.368	14.85
627.7	14.7
628.032	14.59
628.365	14.94
628.697	15.02
629.029	14.71
629.361	14.95
629.693	15
630.025	14.99
630.357	15.12
630.689	14.96
631.021	15.02
631.353	14.87
631.684	14.93
632.016	15.09
632.348	15.23
632.679	15.35
633.011	15.4
633.342	15.15
633.674	15.35
634.005	15.28
634.336	15.57
634.668	15.52
634.999	15.51
635.33	15.46
635.661	15.31
635.992	15.59
636.323	15.51
636.654	15.44
636.985	15.78
637.316	15.72
637.647	15.84
637.977	15.44
638.308	15.98
638.639	15.86
638.969	15.84
639.3	16.02
639.63	15.92
639.961	16.2
640.291	16.17
640.622	16.33
640.952	16.11
641.282	16.26
641.612	16.18
641.943	15.9
642.273	16.44
642.603	16.35
642.933	16.55
643.263	16.28
643.592	16.83
643.922	17.09
644.252	16.48
644.582	16.73
644.911	16.5
645.241	16.42
645.571	16.15
645.9	16.41
646.23	16.95
646.559	16.8
646.888	16.59
647.218	16.95
647.547	16.94
647.876	16.4
648.205	16.61
648.534	17.15
648.863	17.05
649.192	17.32
649.521	16.74
649.85	17.15
650.179	16.98
650.508	17.11
650.837	17.36
651.165	17.51
651.494	17.14
651.822	17.84
652.151	17.11
652.479	17.42
652.808	17.44
653.136	16.99
653.465	17.43
653.793	17.47
654.121	17.68
654.449	17.16
654.777	17.18
655.105	17.34
655.433	17.51
655.761	17.49
656.089	17.97
656.417	18.2
656.745	18.06
657.073	17.54
657.4	17.95
657.728	17.67
658.056	18.03
658.383	17.75
658.711	18.27
659.038	18.56
659.365	17.87
659.693	18.12
660.02	17.81
660.347	18.22
660.674	18.29
661.001	17.95
661.329	18.1
661.656	17.85
661.982	18.22
662.309	18.17
662.636	18.5
662.963	18.25
663.29	18.17
663.616	18.47
663.943	18.47
664.27	18.76
664.596	18.31
664.923	18.52
665.249	18.78
665.576	18.13
665.902	18.55
666.228	19.4
666.554	19.54
666.881	18.68
667.207	18.82
667.533	19.11
667.859	18.76
668.185	18.77
668.511	18.83
668.837	19.11
669.162	19.59
669.488	18.75
669.814	18.95
670.139	18.8
670.465	19.05
670.791	18.84
671.116	19.72
671.442	19.07
671.767	19.02
672.092	19.46
672.418	19.41
672.743	18.94
673.068	19.24
673.393	19.52
673.718	19.24
674.043	19.45
674.368	19.41
674.693	19.43
675.018	19.84
675.343	20.09
675.667	19.35
675.992	19.81
676.317	18.89
676.641	20.15
676.966	20.13
677.29	19.47
677.615	20.42
677.939	19.75
678.264	19.58
678.588	19.82
678.912	20.13
679.236	19.8
679.56	19.41
679.885	19.55
680.209	20.19
680.532	19.86
680.856	19.82
681.18	21.14
681.504	20.29
681.828	20.06
682.152	20.21
682.475	20.31
682.799	20.18
683.122	20.44
683.446	20.08
683.769	21.31
684.093	21.12
684.416	20.21
684.739	20.37
685.062	20.77
685.386	20.99
