Data from 0002_forehead_Reflection__0__281.txt Node

Date: Thu Dec 15 18:55:23 CST 2022
User: ToomeyLab
Spectrometer: FLMS14357
Trigger mode: 0
Integration Time (sec): 1.000000E-2
Scans to average: 100
Electric dark correction enabled: true
Nonlinearity correction enabled: false
Boxcar width: 0
XAxis mode: Wavelengths
Number of Pixels in Spectrum: 2048
>>>>>Begin Spectral Data<<<<<
189.047	-166.59
189.435	-166.59
189.823	-166.59
190.211	148.87
190.599	40.87
190.987	217.86
191.375	42.46
191.763	130.11
192.151	-172.59
192.538	56.08
192.926	151.64
193.314	60.92
193.702	-7291.67
194.089	-52.23
194.477	-168.32
194.864	76.58
195.252	94.75
195.639	43.16
196.027	-45.29
196.414	284.52
196.801	95.36
197.189	201.79
197.576	18.69
197.963	-234.4
198.351	15.46
198.738	-11.48
199.125	-83.54
199.512	20.33
199.899	-36.11
200.286	-4.63
200.673	35.59
201.06	29.98
201.447	-5.66
201.833	106.48
202.22	13.81
202.607	-16.88
202.994	11.68
203.38	36.59
203.767	7.15
204.154	16.86
204.54	42.68
204.927	-5.3
205.313	-8.74
205.699	-15.67
206.086	-2.33
206.472	13.34
206.858	-1.93
207.245	-15.97
207.631	16.03
208.017	39.78
208.403	-30.03
208.789	13.92
209.175	13.69
209.561	-121.51
209.947	-10.65
210.333	-22.83
210.719	30.96
211.105	18.81
211.491	10.99
211.876	24.19
212.262	-0.76
212.648	3.21
213.034	-16.3
213.419	3.86
213.805	-16.56
214.19	-10.49
214.576	-33.83
214.961	22.87
215.346	15.84
215.732	8.06
216.117	-4.67
216.502	-39.69
216.888	15.63
217.273	0.08
217.658	-13.15
218.043	-31.55
218.428	18.14
218.813	10.37
219.198	-13.23
219.583	9.16
219.968	-10.41
220.353	-17.7
220.738	-4.76
221.122	4.44
221.507	-13.56
221.892	-3.43
222.276	-22.47
222.661	-6.92
223.046	5.27
223.43	4.59
223.815	3.42
224.199	-9.35
224.583	-2.69
224.968	4.32
225.352	-7.66
225.736	14.46
226.121	3.31
226.505	-1.48
226.889	0.84
227.273	2.66
227.657	7.99
228.041	3.85
228.425	1.31
228.809	0.72
229.193	1.08
229.577	3.08
229.961	1.86
230.344	3.86
230.728	3.66
231.112	3.61
231.495	1.21
231.879	2.73
232.263	2.06
232.646	3.75
233.03	3.49
233.413	2.19
233.797	2.43
234.18	4.64
234.563	4.68
234.946	1.06
235.33	3.32
235.713	3.03
236.096	3.5
236.479	5.25
236.862	0.73
237.245	0.45
237.628	4.65
238.011	4.04
238.394	2.96
238.777	3.27
239.16	3.83
239.543	4.85
239.925	1.88
240.308	0.93
240.691	3.86
241.073	2.9
241.456	3.81
241.838	3.24
242.221	3.22
242.603	3.08
242.986	3.33
243.368	3.03
243.75	2.97
244.133	3.36
244.515	3.22
244.897	2.71
245.279	3.08
245.661	2.46
246.043	2.76
246.425	3.42
246.807	3.51
247.189	3.64
247.571	3.09
247.953	3.19
248.335	3.43
248.717	3.31
249.098	3.16
249.48	3.12
249.862	2.96
250.243	3.03
250.625	3.33
251.006	3.88
251.388	3.33
251.769	2.65
252.151	3.99
252.532	2.17
252.913	3.09
253.295	3.05
253.676	3.68
254.057	3.21
254.438	3.44
254.819	3.33
255.2	3.11
255.581	4.97
255.962	4
256.343	3.73
256.724	3.47
257.105	3.52
257.486	2.52
257.867	3.37
258.247	2.68
258.628	2.97
259.009	2.35
259.389	2.24
259.77	2.4
260.15	3.67
260.531	3.02
260.911	3.22
261.292	3.23
261.672	3.23
262.052	3.33
262.432	2.92
262.813	3.48
263.193	3.29
263.573	3.62
263.953	3.04
264.333	3.42
264.713	4.03
265.093	3.26
265.473	2.69
265.853	3.38
266.233	3.39
266.612	2.77
266.992	3.7
267.372	3.6
267.752	3.53
268.131	3.45
268.511	3.3
268.89	3.49
269.27	2.9
269.649	3.45
270.029	2.93
270.408	2.82
270.787	3.42
271.167	2.87
271.546	3.51
271.925	3.41
272.304	3.1
272.683	2.74
273.062	2.84
273.441	2.6
273.82	3.43
274.199	3.03
274.578	3.25
274.957	2.83
275.336	3.05
275.715	3.66
276.093	2.96
276.472	3.54
276.851	3.36
277.229	3.36
277.608	3.17
277.986	3.49
278.365	3.67
278.743	3.21
279.122	2.87
279.5	3.07
279.878	2.96
280.257	3.44
280.635	3.65
281.013	2.88
281.391	3.08
281.769	3.77
282.147	3.4
282.525	3.03
282.903	3.31
283.281	3.59
283.659	3.49
284.037	3
284.415	3.32
284.792	3.84
285.17	3.06
285.548	3.17
285.925	3.37
286.303	3.56
286.68	3.44
287.058	3.21
287.435	3.32
287.813	3.38
288.19	3.39
288.567	3.49
288.945	3.27
289.322	3.1
289.699	3.09
290.076	3.13
290.453	3.05
290.83	3.82
291.207	3.33
291.584	3.55
291.961	3.29
292.338	3.16
292.715	3.22
293.092	4
293.469	3.43
293.845	3.71
294.222	4.05
294.599	3.22
294.975	3.56
295.352	3.9
295.728	4.04
296.105	3.98
296.481	3.88
296.858	3.77
297.234	3.53
297.61	4.16
297.986	4.22
298.363	4.15
298.739	4.42
299.115	4.19
299.491	4.03
299.867	4.03
300.243	4.34
300.619	4
300.995	4.28
301.371	4.5
301.746	4.51
302.122	3.79
302.498	4.37
302.874	4.81
303.249	3.82
303.625	3.67
304	4.65
304.376	5.38
304.751	4.93
305.127	4.15
305.502	4.44
305.878	4.42
306.253	4.31
306.628	4.9
307.003	4.61
307.378	4.29
307.754	4.77
308.129	4.88
308.504	4.88
308.879	4.54
309.254	5.16
309.629	4.78
310.003	4.55
310.378	5.09
310.753	4.92
311.128	4.88
311.502	4.98
311.877	4.78
312.252	5.14
312.626	5.54
313.001	5.11
313.375	5.39
313.75	5.21
314.124	5
314.498	5.38
314.873	5.01
315.247	5.16
315.621	5.54
315.995	5.39
316.369	4.8
316.743	5.29
317.117	5.04
317.491	5.34
317.865	4.95
318.239	5.4
318.613	5.16
318.987	5.35
319.361	5.51
319.734	5.47
320.108	5.64
320.482	5.8
320.855	6.01
321.229	5.66
321.602	5.97
321.976	5.46
322.349	6.35
322.723	6.04
323.096	5.85
323.469	6.16
323.843	5.82
324.216	5.7
324.589	5.62
324.962	5.85
325.335	5.89
325.708	5.96
326.081	6.37
326.454	6.54
326.827	5.98
327.2	6.24
327.573	6.74
327.945	5.54
328.318	5.98
328.691	6.3
329.063	5.91
329.436	6.29
329.809	6.44
330.181	6.64
330.553	6.38
330.926	6.64
331.298	6
331.671	6.87
332.043	6.37
332.415	6.74
332.787	6.69
333.159	6.44
333.532	6.3
333.904	7.17
334.276	6.88
334.648	6.76
335.02	6.43
335.391	6.49
335.763	6.97
336.135	7.19
336.507	6.75
336.879	6.69
337.25	7.41
337.622	6.79
337.993	6.62
338.365	6.86
338.736	7.58
339.108	7.09
339.479	7.18
339.851	7.01
340.222	7.36
340.593	7.06
340.964	7.27
341.336	6.93
341.707	7.19
342.078	6.89
342.449	7.28
342.82	7.44
343.191	6.72
343.562	7.29
343.933	7.16
344.303	7.93
344.674	7.25
345.045	7.38
345.416	7.57
345.786	7.41
346.157	7.24
346.527	7.57
346.898	7.45
347.268	7.5
347.639	7.24
348.009	7.76
348.38	7.33
348.75	7.92
349.12	7.92
349.49	7.74
349.861	7.75
350.231	8
350.601	8.05
350.971	7.77
351.341	7.88
351.711	7.94
352.081	8.11
352.45	7.57
352.82	7.58
353.19	8.04
353.56	8.02
353.929	7.97
354.299	8.25
354.669	8.29
355.038	8.63
355.408	8.29
355.777	8.59
356.147	8.21
356.516	8.34
356.885	8.6
357.254	8.3
357.624	7.95
357.993	8.51
358.362	8.32
358.731	8.72
359.1	8.51
359.469	8.75
359.838	8.39
360.207	8.47
360.576	8.51
360.945	8.75
361.314	8.77
361.682	8.29
362.051	8.66
362.42	8.61
362.788	8.78
363.157	8.64
363.525	8.79
363.894	8.41
364.262	8.67
364.631	8.89
364.999	8.9
365.367	8.59
365.735	8.75
366.104	8.88
366.472	8.77
366.84	9
367.208	9.22
367.576	8.94
367.944	9.12
368.312	8.93
368.68	9.15
369.048	9.23
369.416	9.23
369.783	9.28
370.151	9.44
370.519	9.87
370.886	9.56
371.254	9.8
371.621	9.45
371.989	9.67
372.356	9.53
372.724	9.53
373.091	9.32
373.458	9.27
373.826	9.73
374.193	9.51
374.56	9.66
374.927	9.68
375.294	9.83
375.661	9.82
376.028	9.65
376.395	10.03
376.762	9.6
377.129	9.79
377.496	9.83
377.863	9.78
378.229	10.12
378.596	9.99
378.963	10.13
379.329	9.98
379.696	10.16
380.062	10.46
380.429	10.01
380.795	10.45
381.161	9.75
381.528	10.49
381.894	10.45
382.26	10.33
382.626	10.29
382.993	10.5
383.359	10.4
383.725	10.45
384.091	10.51
384.457	10.35
384.823	10.41
385.188	10.52
385.554	10.73
385.92	10.37
386.286	10.56
386.651	10.79
387.017	10.64
387.383	10.61
387.748	10.98
388.114	10.88
388.479	10.68
388.845	10.72
389.21	10.9
389.575	10.93
389.94	11.15
390.306	11.2
390.671	11.17
391.036	10.81
391.401	11.1
391.766	11.03
392.131	11.31
392.496	10.98
392.861	10.99
393.226	11.02
393.591	10.93
393.956	11.19
394.32	11.3
394.685	11.17
395.05	11.38
395.414	11.33
395.779	11.53
396.143	11.26
396.508	11.29
396.872	11.16
397.236	11.67
397.601	11.61
397.965	11.61
398.329	11.39
398.694	11.45
399.058	11.68
399.422	11.55
399.786	11.53
400.15	11.58
400.514	11.83
400.878	11.66
401.242	12.05
401.605	11.94
401.969	11.8
402.333	11.94
402.697	12.22
403.06	12.12
403.424	11.94
403.787	11.66
404.151	12.14
404.514	12.26
404.878	11.96
405.241	12.1
405.604	12.06
405.968	12.24
406.331	12.33
406.694	12.32
407.057	12.25
407.42	12.23
407.783	12.38
408.146	12.32
408.509	12.42
408.872	12.51
409.235	12.43
409.598	12.4
409.961	12.58
410.323	12.66
410.686	12.57
411.049	12.83
411.411	12.39
411.774	12.69
412.136	12.69
412.499	12.63
412.861	12.4
413.223	12.83
413.586	12.9
413.948	12.78
414.31	12.98
414.672	12.94
415.035	12.95
415.397	12.84
415.759	13.1
416.121	13.27
416.483	12.85
416.845	13.15
417.206	13.05
417.568	12.91
417.93	13.03
418.292	12.95
418.653	12.92
419.015	13.23
419.377	12.98
419.738	13.32
420.1	13.17
420.461	13.02
420.822	13.11
421.184	13.15
421.545	13.24
421.906	13.1
422.267	13.07
422.629	13.14
422.99	13.23
423.351	13.19
423.712	13.21
424.073	13.38
424.434	13.34
424.795	13.45
425.155	13.33
425.516	13.3
425.877	13.43
426.238	13.39
426.598	13.48
426.959	13.68
427.32	13.54
427.68	13.61
428.041	13.8
428.401	13.75
428.761	14.03
429.122	14.09
429.482	14.05
429.842	13.9
430.202	14.18
430.563	13.74
430.923	14.12
431.283	14.29
431.643	14.27
432.003	14.12
432.363	14.44
432.722	14.32
433.082	14.3
433.442	14.44
433.802	14.33
434.161	14.35
434.521	14.53
434.881	14.31
435.24	14.44
435.6	14.5
435.959	14.59
436.319	14.41
436.678	14.67
437.037	14.57
437.396	14.69
437.756	14.73
438.115	14.63
438.474	14.9
438.833	14.81
439.192	14.59
439.551	14.76
439.91	14.84
440.269	14.74
440.628	14.84
440.987	14.9
441.345	14.82
441.704	14.91
442.063	14.85
442.421	14.81
442.78	15.09
443.138	14.86
443.497	15.09
443.855	15.21
444.214	15.05
444.572	15.35
444.93	15.24
445.288	15.26
445.647	15.12
446.005	15.29
446.363	15.29
446.721	15.35
447.079	15.22
447.437	15.31
447.795	15.22
448.153	15.24
448.51	15.37
448.868	15.21
449.226	15.35
449.584	15.5
449.941	15.57
450.299	15.59
450.656	15.61
451.014	15.79
451.371	15.9
451.729	15.9
452.086	16.05
452.443	15.94
452.801	16.05
453.158	16.17
453.515	16.08
453.872	16.05
454.229	16.04
454.586	16.24
454.943	16.19
455.3	16.23
455.657	16.23
456.014	16.34
456.371	16.28
456.727	16.51
457.084	16.51
457.441	16.5
457.797	16.42
458.154	16.46
458.51	16.61
458.867	16.58
459.223	16.66
459.58	16.78
459.936	16.62
460.292	16.63
460.648	16.48
461.005	16.45
461.361	16.53
461.717	16.5
462.073	16.61
462.429	16.66
462.785	16.84
463.141	16.88
463.496	16.82
463.852	17.02
464.208	17.14
464.564	17.1
464.919	17.2
465.275	17.12
465.631	17.32
465.986	17.23
466.342	17.42
466.697	17.33
467.052	17.39
467.408	17.68
467.763	17.42
468.118	17.32
468.473	17.46
468.829	17.35
469.184	17.56
469.539	17.41
469.894	17.63
470.249	17.71
470.603	17.97
470.958	17.91
471.313	17.86
471.668	17.65
472.023	17.91
472.377	17.91
472.732	18.12
473.086	17.93
473.441	17.96
473.795	18.25
474.15	18
474.504	18.03
474.859	17.82
475.213	18.14
475.567	17.95
475.921	18.39
476.275	18.37
476.63	18.41
476.984	18.13
477.338	18.45
477.692	18.49
478.045	18.47
478.399	18.36
478.753	18.35
479.107	18.76
479.461	18.45
479.814	18.33
480.168	18.37
480.521	18.67
480.875	18.61
481.228	18.62
481.582	18.8
481.935	18.74
482.289	18.72
482.642	18.67
482.995	18.62
483.348	18.56
483.701	18.73
484.055	18.54
484.408	18.4
484.761	18.16
485.114	18.05
485.466	18.04
485.819	18.15
486.172	18.2
486.525	18.36
486.878	18.37
487.23	18.64
487.583	18.77
487.936	18.73
488.288	18.68
488.641	18.74
488.993	18.56
489.345	18.59
489.698	18.61
490.05	18.72
490.402	18.88
490.754	18.96
491.107	19.02
491.459	19.26
491.811	19.32
492.163	19.45
492.515	19.19
492.866	19.07
493.218	18.99
493.57	19.15
493.922	19.22
494.274	19.36
494.625	19.59
494.977	19.71
495.328	19.9
495.68	19.97
496.031	19.97
496.383	20.07
496.734	20.15
497.086	20.21
497.437	20.3
497.788	20.39
498.139	20.17
498.49	20.24
498.842	20.2
499.193	20.12
499.544	20.26
499.894	20.3
500.245	20.58
500.596	20.59
500.947	20.68
501.298	20.59
501.648	20.65
501.999	20.84
502.35	20.77
502.7	21
503.051	21.03
503.401	21.13
503.752	20.96
504.102	21.04
504.452	20.92
504.803	21.13
505.153	21.15
505.503	21.19
505.853	21.21
506.203	21.24
506.553	21.26
506.903	21.43
507.253	21.35
507.603	21.4
507.953	21.25
508.303	21.56
508.652	21.48
509.002	21.73
509.352	21.66
509.701	21.45
510.051	21.77
510.4	21.63
510.75	21.52
511.099	21.57
511.449	21.69
511.798	21.62
512.147	21.91
512.496	21.98
512.846	21.93
513.195	21.91
513.544	21.95
513.893	21.88
514.242	21.8
514.591	22.03
514.939	22.21
515.288	22.33
515.637	22.22
515.986	22.33
516.334	22.34
516.683	22.54
517.032	22.4
517.38	22.42
517.729	22.62
518.077	22.41
518.426	22.53
518.774	22.53
519.122	22.5
519.47	22.32
519.819	22.43
520.167	22.32
520.515	22.55
520.863	22.36
521.211	22.54
521.559	22.73
521.907	22.64
522.255	22.89
522.602	22.92
522.95	22.97
523.298	23.08
523.645	23.27
523.993	23.18
524.341	23.27
524.688	23.31
525.036	23.31
525.383	23.36
525.73	23.18
526.078	23.46
526.425	23.28
526.772	23.26
527.119	23.22
527.466	23.19
527.814	23.19
528.161	23.34
528.508	23.39
528.854	23.34
529.201	23.21
529.548	23.14
529.895	22.94
530.242	23.03
530.588	23.1
530.935	23.15
531.282	23.21
531.628	23.37
531.975	23.39
532.321	23.63
532.667	23.77
533.014	24
533.36	24.1
533.706	24
534.052	23.91
534.399	23.85
534.745	23.72
535.091	23.72
535.437	23.89
535.783	24.05
536.129	24.22
536.474	24.37
536.82	24.41
537.166	24.4
537.512	24.6
537.857	24.62
538.203	24.47
538.549	24.53
538.894	24.55
539.239	24.77
539.585	24.93
539.93	25.08
540.276	25.17
540.621	25.12
540.966	25.24
541.311	25.27
541.656	25.08
542.001	25.05
542.346	24.86
542.691	24.69
543.036	24.77
543.381	24.77
543.726	24.92
544.071	24.85
544.415	24.99
544.76	25.16
545.105	25.25
545.449	25.48
545.794	25.57
546.138	25.59
546.483	25.72
546.827	25.94
547.171	26.16
547.516	25.96
547.86	25.9
548.204	26.03
548.548	25.92
548.892	26.14
549.236	26.09
549.58	26.36
549.924	26.32
550.268	26.47
550.612	26.75
550.956	26.75
551.3	27.07
551.643	26.82
551.987	27.1
552.33	27.05
552.674	26.99
553.017	26.95
553.361	27.19
553.704	26.98
554.048	26.96
554.391	27.08
554.734	27.01
555.077	27.16
555.42	27.08
555.764	27.17
556.107	27.33
556.45	27.64
556.793	27.58
557.135	27.54
557.478	27.93
557.821	27.91
558.164	27.74
558.507	27.84
558.849	28.11
559.192	27.71
559.534	27.84
559.877	28.07
560.219	28.09
560.562	28.17
560.904	28.2
561.246	28.21
561.589	28.36
561.931	28.26
562.273	28.3
562.615	28.2
562.957	28.41
563.299	28.63
563.641	28.62
563.983	28.57
564.325	28.66
564.667	28.62
565.008	28.62
565.35	28.81
565.692	28.71
566.033	28.87
566.375	28.84
566.716	28.76
567.058	28.92
567.399	28.87
567.741	28.94
568.082	29.11
568.423	28.58
568.764	28.98
569.105	29.01
569.447	29.14
569.788	29.33
570.129	29.28
570.47	29.25
570.811	29.12
571.151	29.38
571.492	29.52
571.833	29.33
572.174	29.67
572.514	29.69
572.855	29.52
573.195	29.71
573.536	29.78
573.876	29.61
574.217	29.54
574.557	29.7
574.898	29.81
575.238	29.81
575.578	30.03
575.918	29.98
576.258	30.18
576.598	29.99
576.938	30.03
577.278	30.22
577.618	30.36
577.958	30.25
578.298	30.34
578.638	30.46
578.977	30.58
579.317	30.74
579.657	30.66
579.996	30.94
580.336	30.95
580.675	30.84
581.014	31.16
581.354	30.92
581.693	31.31
582.032	31.29
582.372	31.38
582.711	31.53
583.05	31.22
583.389	31.23
583.728	31.52
584.067	31.57
584.406	31.49
584.745	31.27
585.083	31.68
585.422	31.65
585.761	31.78
586.1	31.76
586.438	31.52
586.777	31.99
587.115	31.68
587.454	31.88
587.792	31.52
588.13	31.88
588.469	31.88
588.807	32.08
589.145	32.14
589.483	32.05
589.821	32.39
590.159	32.32
590.497	32.4
590.835	32.28
591.173	32.24
591.511	32.44
591.849	32.41
592.187	32.44
592.524	32.48
592.862	32.44
593.2	32.72
593.537	32.62
593.875	32.72
594.212	32.56
594.55	32.83
594.887	33.01
595.224	33.21
595.561	32.91
595.899	32.87
596.236	32.86
596.573	32.87
596.91	33.46
597.247	33.19
597.584	32.99
597.921	33.21
598.258	32.93
598.594	33.01
598.931	32.91
599.268	33.02
599.604	33.25
599.941	33.31
600.277	33.31
600.614	33.26
600.95	33.29
601.287	33.87
601.623	33.56
601.959	33.85
602.296	34.05
602.632	33.64
602.968	34.08
603.304	34.02
603.64	34.15
603.976	33.96
604.312	33.82
604.648	34.26
604.984	33.78
605.319	33.95
605.655	34.08
605.991	34.23
606.326	34.08
606.662	34.03
606.998	34.26
607.333	34.39
607.668	34.44
608.004	34.55
608.339	34.43
608.674	34.63
609.01	35.28
609.345	35.03
609.68	34.49
610.015	34.92
610.35	34.93
610.685	34.74
611.02	34.72
611.355	34.79
611.689	34.91
612.024	34.86
612.359	35.27
612.694	35.36
613.028	35.19
613.363	35.47
613.697	35.52
614.032	35.33
614.366	35.36
614.7	35.67
615.035	35.31
615.369	35.54
615.703	35.39
616.037	35.76
616.371	36.01
616.705	35.96
617.039	35.6
617.373	36.3
617.707	36.07
618.041	35.93
618.375	35.63
618.709	36.36
619.042	36.43
619.376	36.4
619.71	35.92
620.043	36.51
620.377	36.55
620.71	36.44
621.043	36.76
621.377	36.74
621.71	37.03
622.043	36.6
622.376	36.84
622.709	37.02
623.043	36.66
623.376	36.69
623.709	37.13
624.041	36.92
624.374	36.9
624.707	36.94
625.04	36.89
625.373	37.21
625.705	37.18
626.038	37.48
626.37	36.9
626.703	37.17
627.035	37.21
627.368	37.22
627.7	37.52
628.032	37.51
628.365	37.41
628.697	37.31
629.029	37.4
629.361	37.39
629.693	37.56
630.025	37.49
630.357	37.69
630.689	37.73
631.021	37.91
631.353	37.39
631.684	37.84
632.016	37.88
632.348	37.81
632.679	38.07
633.011	38.36
633.342	38.14
633.674	37.88
634.005	38.25
634.336	38.31
634.668	38.17
634.999	38.31
635.33	38.47
635.661	38.18
635.992	38.49
636.323	38.4
636.654	38.41
636.985	38.5
637.316	38.64
637.647	38.98
637.977	38.7
638.308	39.05
638.639	38.6
638.969	39.02
639.3	38.93
639.63	38.95
639.961	39.23
640.291	38.69
640.622	39.27
640.952	39.45
641.282	38.98
641.612	39.27
641.943	38.89
642.273	39.7
642.603	39.31
642.933	39.65
643.263	39.49
643.592	40.12
643.922	39.66
644.252	39.48
644.582	39.6
644.911	39.43
645.241	39.67
645.571	39.38
645.9	39.92
646.23	39.98
646.559	39.76
646.888	40.38
647.218	40.61
647.547	40.24
647.876	39.82
648.205	40.22
648.534	40.01
648.863	40.43
649.192	40.22
649.521	40
649.85	40.51
650.179	40.04
650.508	40.58
650.837	40.94
651.165	40.99
651.494	40.23
651.822	40.76
652.151	40.44
652.479	40.58
652.808	40.64
653.136	40.32
653.465	40.63
653.793	41.03
654.121	41.07
654.449	40.72
654.777	40.8
655.105	40.72
655.433	41.22
655.761	41.54
656.089	40.98
656.417	41.29
656.745	41.74
657.073	40.89
657.4	41.56
657.728	40.91
658.056	41.51
658.383	40.89
658.711	41.46
659.038	41.51
659.365	41.91
659.693	41.55
660.02	42.07
660.347	41.55
660.674	41.37
661.001	41.62
661.329	41.48
661.656	41.7
661.982	41.45
662.309	41.43
662.636	42.04
662.963	41.52
663.29	41.64
663.616	42.34
663.943	42.2
664.27	42.02
664.596	42.07
664.923	41.56
665.249	42.3
665.576	42.1
665.902	41.99
666.228	42.21
666.554	43.02
666.881	42.29
667.207	42.36
667.533	42.55
667.859	42.73
668.185	42.47
668.511	42.92
668.837	42.55
669.162	42.56
669.488	42.21
669.814	43.15
670.139	42.91
670.465	43.09
670.791	42.81
671.116	42.44
671.442	42.38
671.767	42.87
672.092	42.93
