Data from 0002_forehead_Reflection__4__285.txt Node

Date: Thu Dec 15 18:56:09 CST 2022
User: ToomeyLab
Spectrometer: FLMS14357
Trigger mode: 0
Integration Time (sec): 1.000000E-2
Scans to average: 100
Electric dark correction enabled: true
Nonlinearity correction enabled: false
Boxcar width: 0
XAxis mode: Wavelengths
Number of Pixels in Spectrum: 2048
>>>>>Begin Spectral Data<<<<<
189.047	181.77
189.435	181.77
189.823	181.77
190.211	-176.35
190.599	30.45
190.987	89.29
191.375	-83.67
191.763	249.35
192.151	-111.56
192.538	140.44
192.926	227.7
193.314	40.77
193.702	6808.33
194.089	34.33
194.477	-12.92
194.864	113.96
195.252	108.61
195.639	64.19
196.027	-14.08
196.414	130.17
196.801	-9.3
197.189	219.5
197.576	0.99
197.963	-86.07
198.351	25.83
198.738	-11.43
199.125	28.26
199.512	45.38
199.899	-52.66
200.286	-22.04
200.673	40.59
201.06	-6.79
201.447	50.35
201.833	37.97
202.22	12.42
202.607	21.94
202.994	22.49
203.38	28.43
203.767	-16.22
204.154	45.18
204.54	29.31
204.927	19.55
205.313	38.22
205.699	59.37
206.086	43.6
206.472	18.59
206.858	19.35
207.245	-1.66
207.631	27.48
208.017	46.03
208.403	-78.5
208.789	25.55
209.175	-29.18
209.561	-24.73
209.947	16.12
210.333	7.45
210.719	9.28
211.105	35.42
211.491	-15.9
211.876	14.75
212.262	44.17
212.648	12.04
213.034	3.68
213.419	2.78
213.805	-3.27
214.19	-0.52
214.576	-16.73
214.961	11.14
215.346	9.08
215.732	-10.33
216.117	32.26
216.502	-20.81
216.888	34.57
217.273	26.12
217.658	17.1
218.043	5.92
218.428	-3.39
218.813	7.35
219.198	-15.84
219.583	-3.29
219.968	2.07
220.353	-18.81
220.738	2.45
221.122	-5.09
221.507	-16.79
221.892	-35.01
222.276	-3.85
222.661	-5.31
223.046	-13
223.43	12.11
223.815	8.69
224.199	-2.65
224.583	-1.79
224.968	1.76
225.352	-6.03
225.736	15.47
226.121	1.27
226.505	-3.85
226.889	3.14
227.273	-2.76
227.657	4.4
228.041	3.28
228.425	-1.35
228.809	-2.81
229.193	2.97
229.577	1.02
229.961	0.35
230.344	2.26
230.728	1.99
231.112	2.82
231.495	-0.47
231.879	1.96
232.263	2.15
232.646	0.9
233.03	3.94
233.413	1.32
233.797	0.53
234.18	1.32
234.563	0.97
234.946	-0.2
235.33	3.14
235.713	2.35
236.096	3.16
236.479	3.53
236.862	-0.06
237.245	-0.38
237.628	2.23
238.011	1.06
238.394	1.22
238.777	2.84
239.16	4.02
239.543	2.73
239.925	2.27
240.308	1.49
240.691	2.34
241.073	1.83
241.456	1.75
241.838	1.94
242.221	2.14
242.603	1.64
242.986	1.89
243.368	1.7
243.75	1.86
244.133	1.96
244.515	1.69
244.897	1.56
245.279	1.89
245.661	0.87
246.043	2.12
246.425	1.64
246.807	1.11
247.189	1.96
247.571	1.94
247.953	1.66
248.335	1.68
248.717	1.83
249.098	1.48
249.48	1.54
249.862	1.77
250.243	1.41
250.625	1.7
251.006	1.81
251.388	2.44
251.769	1.68
252.151	2.65
252.532	1.9
252.913	1.68
253.295	1.75
253.676	1.93
254.057	1.79
254.438	1.79
254.819	2.1
255.2	2.77
255.581	3.52
255.962	2.62
256.343	3.06
256.724	2.51
257.105	1.83
257.486	0.88
257.867	1.81
258.247	1.71
258.628	1.87
259.009	2.1
259.389	1.68
259.77	1.27
260.15	2.75
260.531	1.57
260.911	1.86
261.292	1.84
261.672	1.84
262.052	1.95
262.432	1.73
262.813	2.06
263.193	1.95
263.573	1.75
263.953	1.09
264.333	1.5
264.713	2.48
265.093	1.36
265.473	0.8
265.853	2.63
266.233	2
266.612	1.78
266.992	1.61
267.372	2.15
267.752	2.02
268.131	1.82
268.511	1.84
268.89	2.47
269.27	1.16
269.649	1.75
270.029	2.2
270.408	1.89
270.787	2.17
271.167	1.67
271.546	2.62
271.925	2.08
272.304	1.75
272.683	1.44
273.062	1.7
273.441	1.49
273.82	1.86
274.199	1.79
274.578	1.93
274.957	1.91
275.336	2.21
275.715	2.32
276.093	1.92
276.472	1.34
276.851	1.42
277.229	2.07
277.608	1.44
277.986	1.81
278.365	2.84
278.743	1.81
279.122	1.23
279.5	1.78
279.878	1.87
280.257	2.37
280.635	1.84
281.013	1.18
281.391	1.67
281.769	2.23
282.147	1.66
282.525	1.64
282.903	1.7
283.281	2.01
283.659	2.02
284.037	1.76
284.415	1.35
284.792	2.03
285.17	1.82
285.548	1.63
285.925	1.95
286.303	2.59
286.68	2.07
287.058	2.29
287.435	1.77
287.813	2.18
288.19	1.74
288.567	2.13
288.945	1.79
289.322	2.15
289.699	2.3
290.076	2.17
290.453	1.67
290.83	1.99
291.207	2.06
291.584	2.45
291.961	2.02
292.338	1.79
292.715	2.29
293.092	2.5
293.469	1.93
293.845	2.1
294.222	3.03
294.599	1.9
294.975	1.64
295.352	2.69
295.728	2.03
296.105	1.97
296.481	2.12
296.858	2.37
297.234	2.09
297.61	2.6
297.986	2.82
298.363	2.53
298.739	2.87
299.115	2.97
299.491	2.68
299.867	2.19
300.243	2.36
300.619	2.35
300.995	2.67
301.371	3
301.746	2.85
302.122	2.14
302.498	2.99
302.874	3.44
303.249	2.79
303.625	2.34
304	2.98
304.376	3.17
304.751	2.93
305.127	2.63
305.502	2.82
305.878	3.31
306.253	2.81
306.628	3.1
307.003	3.09
307.378	2.73
307.754	2.75
308.129	2.65
308.504	3.35
308.879	3.31
309.254	3.53
309.629	3.19
310.003	3.38
310.378	3.38
310.753	3.77
311.128	2.98
311.502	3.22
311.877	3.07
312.252	3.55
312.626	3.65
313.001	3.48
313.375	3.53
313.75	3.5
314.124	3.8
314.498	3.82
314.873	3.55
315.247	3.73
315.621	3.91
315.995	3.21
316.369	3.39
316.743	3.71
317.117	3.78
317.491	3.77
317.865	3.3
318.239	4.16
318.613	3.59
318.987	3.87
319.361	4.08
319.734	4.31
320.108	4.2
320.482	3.89
320.855	4.25
321.229	3.77
321.602	3.89
321.976	3.68
322.349	5.2
322.723	4.71
323.096	4.6
323.469	4.09
323.843	4.1
324.216	4.39
324.589	4.69
324.962	4.14
325.335	4.43
325.708	4.54
326.081	4.2
326.454	4.75
326.827	4.24
327.2	4.38
327.573	5.16
327.945	4.38
328.318	4.55
328.691	4.88
329.063	4.53
329.436	4.79
329.809	5.31
330.181	5.26
330.553	4.81
330.926	5.02
331.298	4.4
331.671	5.17
332.043	4.82
332.415	4.61
332.787	5.16
333.159	4.72
333.532	4.64
333.904	4.98
334.276	5.38
334.648	5.14
335.02	5.05
335.391	5.21
335.763	5.27
336.135	5.3
336.507	4.82
336.879	5.7
337.25	5.32
337.622	5.54
337.993	5.34
338.365	5.75
338.736	5.11
339.108	5.83
339.479	5.58
339.851	5.22
340.222	6.02
340.593	5.28
340.964	5.64
341.336	5.36
341.707	5.48
342.078	5.53
342.449	5.6
342.82	6.06
343.191	5.82
343.562	6.01
343.933	5.36
344.303	5.43
344.674	5.56
345.045	5.74
345.416	6.09
345.786	5.79
346.157	6.25
346.527	5.82
346.898	5.38
347.268	6.03
347.639	5.97
348.009	6.14
348.38	6.06
348.75	6.35
349.12	6.58
349.49	6.2
349.861	6.06
350.231	6.36
350.601	5.9
350.971	6.34
351.341	6.5
351.711	6.35
352.081	6.16
352.45	6.39
352.82	6
353.19	6.34
353.56	6.26
353.929	6.51
354.299	7.02
354.669	6.95
355.038	6.97
355.408	6.53
355.777	6.8
356.147	6.87
356.516	6.42
356.885	6.85
357.254	6.66
357.624	6.53
357.993	6.9
358.362	6.91
358.731	7.25
359.1	6.76
359.469	6.97
359.838	7.23
360.207	7.26
360.576	7.51
360.945	7.22
361.314	6.96
361.682	7.05
362.051	7.4
362.42	7.33
362.788	7.46
363.157	7.06
363.525	7.2
363.894	7.1
364.262	7.45
364.631	7.71
364.999	7.56
365.367	7.15
365.735	7.27
366.104	7.62
366.472	7.75
366.84	7.45
367.208	7.88
367.576	7.71
367.944	7.55
368.312	7.58
368.68	7.72
369.048	7.82
369.416	7.65
369.783	7.57
370.151	8.1
370.519	8.26
370.886	8.2
371.254	8.69
371.621	8.18
371.989	8.17
372.356	8.32
372.724	7.93
373.091	7.89
373.458	8.2
373.826	8.34
374.193	8.17
374.56	8.54
374.927	8.08
375.294	8.49
375.661	8.36
376.028	8.56
376.395	8.59
376.762	8.09
377.129	8.34
377.496	8.48
377.863	8.81
378.229	8.92
378.596	8.49
378.963	8.62
379.329	8.99
379.696	8.72
380.062	8.63
380.429	8.9
380.795	9.15
381.161	8.74
381.528	8.84
381.894	9.08
382.26	9.03
382.626	9.12
382.993	9.33
383.359	8.93
383.725	9.06
384.091	9.36
384.457	9.04
384.823	9.32
385.188	9.23
385.554	9.36
385.92	9.27
386.286	9.16
386.651	9.31
387.017	9.69
387.383	9.45
387.748	9.58
388.114	9.56
388.479	9.52
388.845	9.59
389.21	10.08
389.575	9.82
389.94	9.86
390.306	9.94
390.671	9.93
391.036	9.8
391.401	9.79
391.766	9.89
392.131	10.21
392.496	9.84
392.861	9.82
393.226	9.85
393.591	9.86
393.956	10.16
394.32	10.18
394.685	10.2
395.05	10.19
395.414	10.24
395.779	10.25
396.143	10.15
396.508	10.48
396.872	10.25
397.236	10.61
397.601	10.39
397.965	10.55
398.329	10.65
398.694	10.42
399.058	10.53
399.422	10.45
399.786	10.84
400.15	10.66
400.514	10.96
400.878	10.83
401.242	10.98
401.605	10.91
401.969	10.96
402.333	10.76
402.697	11.15
403.06	10.99
403.424	11.23
403.787	11.05
404.151	11.15
404.514	11.31
404.878	11.09
405.241	11.04
405.604	11.29
405.968	11.16
406.331	11.26
406.694	11.16
407.057	11.21
407.42	11.05
407.783	11.39
408.146	11.53
408.509	11.55
408.872	11.55
409.235	11.8
409.598	11.79
409.961	11.79
410.323	11.64
410.686	11.63
411.049	11.8
411.411	11.67
411.774	11.87
412.136	11.65
412.499	11.93
412.861	11.54
413.223	11.78
413.586	12.09
413.948	12.19
414.31	12.09
414.672	12.26
415.035	12.34
415.397	12.29
415.759	11.89
416.121	12.27
416.483	12.24
416.845	12.27
417.206	12.32
417.568	12.41
417.93	12.22
418.292	12.17
418.653	12.1
419.015	12.27
419.377	12.3
419.738	12.39
420.1	12.34
420.461	12.33
420.822	12.33
421.184	12.28
421.545	12.37
421.906	12.33
422.267	12.32
422.629	12.29
422.99	12.37
423.351	12.41
423.712	12.48
424.073	12.6
424.434	12.68
424.795	12.6
425.155	12.58
425.516	12.61
425.877	12.71
426.238	12.68
426.598	12.77
426.959	12.87
427.32	12.87
427.68	13.04
428.041	13.17
428.401	13
428.761	13.2
429.122	13.35
429.482	13.39
429.842	13.44
430.202	13.48
430.563	13.45
430.923	13.54
431.283	13.69
431.643	13.72
432.003	13.75
432.363	13.82
432.722	13.79
433.082	13.76
433.442	13.86
433.802	13.75
434.161	13.7
434.521	13.75
434.881	13.93
435.24	13.81
435.6	13.84
435.959	13.82
436.319	13.99
436.678	14.09
437.037	14.17
437.396	14.19
437.756	14.4
438.115	14.31
438.474	14.24
438.833	14.32
439.192	14.3
439.551	14.23
439.91	14.42
440.269	14.31
440.628	14.23
440.987	14.36
441.345	14.43
441.704	14.38
442.063	14.34
442.421	14.41
442.78	14.44
443.138	14.48
443.497	14.71
443.855	14.82
444.214	14.71
444.572	15.01
444.93	14.94
445.288	14.79
445.647	14.87
446.005	14.91
446.363	14.87
446.721	14.87
447.079	14.75
447.437	14.83
447.795	14.73
448.153	14.8
448.51	14.97
448.868	14.86
449.226	15.01
449.584	15.15
449.941	15.23
450.299	15.27
450.656	15.29
451.014	15.48
451.371	15.54
451.729	15.62
452.086	15.59
452.443	15.79
452.801	15.7
453.158	15.87
453.515	15.61
453.872	15.67
454.229	15.62
454.586	15.67
454.943	15.86
455.3	16.06
455.657	15.87
456.014	16.03
456.371	16.08
456.727	16.12
457.084	16.13
457.441	16.24
457.797	16.3
458.154	16.31
458.51	16.4
458.867	16.4
459.223	16.38
459.58	16.36
459.936	16.31
460.292	16.34
460.648	16.26
461.005	16.29
461.361	16.15
461.717	16.14
462.073	16.34
462.429	16.42
462.785	16.85
463.141	16.79
463.496	16.87
463.852	16.91
464.208	16.96
464.564	16.95
464.919	17
465.275	16.89
465.631	17.31
465.986	17.32
466.342	17.03
466.697	17.1
467.052	17.33
467.408	17.49
467.763	17.48
468.118	17.23
468.473	17.43
468.829	17.42
469.184	17.68
469.539	17.37
469.894	17.71
470.249	17.7
470.603	17.77
470.958	17.74
471.313	17.73
471.668	17.77
472.023	17.98
472.377	17.91
472.732	17.97
473.086	17.9
473.441	17.97
473.795	18.28
474.15	17.98
474.504	18.08
474.859	18.06
475.213	18.18
475.567	18.16
475.921	18.37
476.275	18.41
476.63	18.4
476.984	18.25
477.338	18.49
477.692	18.55
478.045	18.61
478.399	18.52
478.753	18.38
479.107	18.7
479.461	18.45
479.814	18.74
480.168	18.68
480.521	18.72
480.875	18.66
481.228	18.92
481.582	18.89
481.935	19.03
482.289	18.92
482.642	18.88
482.995	18.78
483.348	18.72
483.701	18.76
484.055	18.66
484.408	18.51
484.761	18.23
485.114	18.04
485.466	17.99
485.819	18.06
486.172	18.27
486.525	18.43
486.878	18.62
487.23	18.76
487.583	18.88
487.936	18.9
488.288	18.79
488.641	18.59
488.993	18.54
489.345	18.56
489.698	18.71
490.05	18.82
490.402	18.93
490.754	19.14
491.107	19.3
491.459	19.63
491.811	19.65
492.163	19.62
492.515	19.43
492.866	19.06
493.218	19.12
493.57	19.27
493.922	19.36
494.274	19.7
494.625	19.97
494.977	20.15
495.328	20.27
495.68	20.36
496.031	20.38
496.383	20.35
496.734	20.51
497.086	20.63
497.437	20.72
497.788	20.76
498.139	20.25
498.49	20.42
498.842	20.55
499.193	20.5
499.544	20.65
499.894	20.69
500.245	20.86
500.596	20.85
500.947	20.98
501.298	21.02
501.648	21.07
501.999	21.03
502.35	21.13
502.7	21.45
503.051	21.38
503.401	21.39
503.752	21.51
504.102	21.58
504.452	21.57
504.803	21.58
505.153	21.58
505.503	21.74
505.853	21.64
506.203	21.83
506.553	21.81
506.903	21.92
507.253	21.86
507.603	22.04
507.953	22.01
508.303	22.01
508.652	21.85
509.002	22.07
509.352	21.96
509.701	21.96
510.051	22.14
510.4	21.97
510.75	21.93
511.099	22.06
511.449	22.28
511.798	22.22
512.147	22.22
512.496	22.33
512.846	22.47
513.195	22.46
513.544	22.49
513.893	22.39
514.242	22.46
514.591	22.57
514.939	22.66
515.288	22.77
515.637	22.85
515.986	22.88
516.334	23.02
516.683	23.09
517.032	23.02
517.38	22.98
517.729	23.17
518.077	23.17
518.426	23.17
518.774	23.15
519.122	23.05
519.47	22.96
519.819	22.8
520.167	22.83
520.515	22.97
520.863	23.02
521.211	23.06
521.559	23.27
521.907	23.44
522.255	23.46
522.602	23.7
522.95	23.68
523.298	23.9
523.645	23.84
523.993	24.03
524.341	23.99
524.688	23.89
525.036	24.03
525.383	24.08
525.73	23.84
526.078	24.21
526.425	24.03
526.772	23.8
527.119	23.69
527.466	23.79
527.814	23.82
528.161	23.88
528.508	24.03
528.854	23.98
529.201	23.83
529.548	23.74
529.895	23.41
530.242	23.46
530.588	23.58
530.935	23.7
531.282	23.9
531.628	24.11
531.975	24.13
532.321	24.43
532.667	24.56
533.014	24.65
533.36	24.74
533.706	24.78
534.052	24.49
534.399	24.49
534.745	24.27
535.091	24.41
535.437	24.43
535.783	24.74
536.129	24.82
536.474	25.14
536.82	25.29
537.166	25.32
537.512	25.33
537.857	25.15
538.203	25.03
538.549	25.23
538.894	25.44
539.239	25.64
539.585	25.66
539.93	25.82
540.276	25.86
540.621	26.26
540.966	25.99
541.311	26.22
541.656	25.89
542.001	25.85
542.346	25.55
542.691	25.38
543.036	25.38
543.381	25.42
543.726	25.65
544.071	25.8
544.415	25.96
544.76	26.09
545.105	26.07
545.449	26.18
545.794	26.51
546.138	26.45
546.483	26.66
546.827	26.63
547.171	26.68
547.516	26.91
547.86	26.77
548.204	26.68
548.548	26.79
548.892	26.93
549.236	27.05
549.58	27.17
549.924	27.29
550.268	27.57
550.612	27.91
550.956	27.79
551.3	27.96
551.643	27.75
551.987	28.08
552.33	28.11
552.674	28.11
553.017	28.3
553.361	28.08
553.704	28.05
554.048	28
554.391	28.07
554.734	28.11
555.077	28.34
555.42	28.24
555.764	28.44
556.107	28.62
556.45	28.73
556.793	28.69
557.135	28.8
557.478	28.85
557.821	28.83
558.164	28.94
558.507	29.04
558.849	29.15
559.192	28.93
559.534	28.99
559.877	29.21
560.219	29.41
560.562	29.46
560.904	29.39
561.246	29.27
561.589	29.5
561.931	29.48
562.273	29.61
562.615	29.45
562.957	29.64
563.299	29.66
563.641	29.57
563.983	29.66
564.325	29.83
564.667	30.01
565.008	29.92
565.35	30.15
565.692	30.03
566.033	30.21
566.375	30.09
566.716	29.85
567.058	30.06
567.399	30.05
567.741	30.07
568.082	30.13
568.423	29.79
568.764	30.05
569.105	30.27
569.447	30.4
569.788	30.64
570.129	30.54
570.47	30.54
570.811	30.77
571.151	30.5
571.492	30.52
571.833	30.71
572.174	30.81
572.514	30.63
572.855	30.77
573.195	30.85
573.536	30.96
573.876	30.75
574.217	30.83
574.557	30.93
574.898	30.93
575.238	31.15
575.578	31.21
575.918	31.29
576.258	31.46
576.598	31.34
576.938	31.36
577.278	31.37
577.618	31.51
577.958	31.65
578.298	31.71
578.638	31.76
578.977	31.69
579.317	31.74
579.657	32.12
579.996	32.13
580.336	32.27
580.675	32.46
581.014	32.64
581.354	32.23
581.693	32.36
582.032	32.53
582.372	32.65
582.711	32.67
583.05	32.92
583.389	32.62
583.728	32.86
584.067	32.85
584.406	33.18
584.745	32.98
585.083	33.18
585.422	33.16
585.761	33.46
586.1	33.31
586.438	33.13
586.777	33.48
587.115	33.65
587.454	33.35
587.792	33.32
588.13	33.51
588.469	33.51
588.807	33.47
589.145	33.59
589.483	33.8
589.821	33.73
590.159	33.9
590.497	33.69
590.835	34.12
591.173	34.01
591.511	34.16
591.849	33.93
592.187	33.69
592.524	34.06
592.862	34.15
593.2	34.21
593.537	34.55
593.875	34.06
594.212	34.39
594.55	34.31
594.887	34.58
595.224	34.69
595.561	34.22
595.899	34.65
596.236	34.71
596.573	34.29
596.91	34.56
597.247	34.82
597.584	34.54
597.921	34.82
598.258	34.87
598.594	34.37
598.931	34.45
599.268	34.67
599.604	34.71
599.941	34.69
600.277	35.15
600.614	35.2
600.95	35.12
601.287	35.23
601.623	35.27
601.959	35.83
602.296	35.42
602.632	35.57
602.968	35.65
603.304	35.87
603.64	35.8
603.976	35.65
604.312	35.55
604.648	35.69
604.984	35.59
605.319	35.56
605.655	35.51
605.991	35.59
606.326	35.22
606.662	35.58
606.998	35.96
607.333	35.73
607.668	36.07
608.004	35.99
608.339	36.2
608.674	36.28
609.01	36.59
609.345	36.54
609.68	36.56
610.015	36.46
610.35	36.73
610.685	36.32
611.02	36.53
611.355	36.36
611.689	36.71
612.024	36.38
612.359	36.83
612.694	36.98
613.028	37
613.363	37.36
613.697	37.27
614.032	37.08
614.366	36.93
614.7	37.26
615.035	37.67
615.369	37.6
615.703	37.59
616.037	37.91
616.371	37.59
616.705	37.86
617.039	37.88
617.373	37.88
617.707	37.88
618.041	37.9
618.375	38.11
618.709	37.65
619.042	38.08
619.376	38.24
619.71	37.81
620.043	38.41
620.377	38.12
620.71	38.28
621.043	38.4
621.377	38.41
621.71	38.64
622.043	38.73
622.376	38.87
622.709	38.67
623.043	38.6
623.376	38.51
623.709	38.97
624.041	38.58
624.374	38.75
624.707	38.58
625.04	39.05
625.373	39.16
625.705	39.41
626.038	39.25
626.37	39.1
626.703	39.2
627.035	39.21
627.368	38.98
627.7	39.26
628.032	39.43
628.365	39.19
628.697	39.28
629.029	39.26
629.361	39.2
629.693	39.35
630.025	39.69
630.357	39.73
630.689	39.25
631.021	40.24
631.353	39.86
631.684	39.72
632.016	39.79
632.348	40.17
632.679	40.55
633.011	40.38
633.342	40.38
633.674	40.26
634.005	39.62
634.336	40.24
634.668	40.19
634.999	40.46
635.33	40.23
635.661	40.04
635.992	40.26
636.323	40.45
636.654	40.88
636.985	40.66
637.316	40.92
637.647	40.87
637.977	40.49
638.308	40.84
638.639	40.96
638.969	41.03
639.3	41.12
639.63	41.25
639.961	41.06
640.291	40.91
640.622	41.59
640.952	41.07
641.282	41.19
641.612	41.44
641.943	41.17
642.273	41.6
642.603	41.31
642.933	42.03
643.263	41.56
643.592	41.83
643.922	41.92
644.252	41.92
644.582	41.83
644.911	41.67
645.241	41.92
645.571	42.12
645.9	42.24
646.23	42.22
646.559	41.79
646.888	42.37
647.218	42.48
647.547	42.39
647.876	42.69
648.205	42.21
648.534	42.48
648.863	42.59
649.192	42.51
649.521	42.15
649.85	42.63
650.179	42.43
650.508	42.84
650.837	43
651.165	43.35
651.494	42.77
651.822	42.72
652.151	42.39
652.479	43.05
652.808	43.05
653.136	42.37
653.465	43.03
653.793	42.85
654.121	43.2
654.449	42.95
654.777	43.33
655.105	43.36
655.433	43.92
655.761	43.6
656.089	43.49
656.417	43.36
656.745	43.61
657.073	43.35
657.4	43.72
657.728	43.14
658.056	43.8
658.383	43.61
658.711	43.73
659.038	44.21
659.365	44.16
659.693	43.67
660.02	43.89
660.347	43.64
660.674	43.65
661.001	43.84
661.329	43.57
661.656	43.62
661.982	43.87
662.309	44.03
662.636	43.94
662.963	44.38
663.29	43.67
663.616	44.16
663.943	44.69
664.27	44.57
664.596	44.21
664.923	44.61
665.249	44.45
665.576	44.41
665.902	44.68
666.228	44.81
666.554	45.32
666.881	44.71
667.207	45.62
667.533	44.73
667.859	45.09
668.185	45.16
668.511	45.36
668.837	45.28
669.162	45.12
669.488	44.81
669.814	44.95
670.139	45.16
670.465	45.32
670.791	45.18
671.116	45.94
671.442	44.97
671.767	45
672.092	45.71
672.418	45.57
672.743	44.94
