Data from 0002_crown_Reflection__3__279.txt Node

Date: Thu Dec 15 18:54:45 CST 2022
User: ToomeyLab
Spectrometer: FLMS14357
Trigger mode: 0
Integration Time (sec): 1.000000E-2
Scans to average: 100
Electric dark correction enabled: true
Nonlinearity correction enabled: false
Boxcar width: 0
XAxis mode: Wavelengths
Number of Pixels in Spectrum: 2048
>>>>>Begin Spectral Data<<<<<
189.047	134.96
189.435	134.96
189.823	134.96
190.211	517.34
190.599	74.45
190.987	71.67
191.375	91.63
191.763	204.86
192.151	-49.52
192.538	94.31
192.926	39.38
193.314	18.75
193.702	3408.33
194.089	32.74
194.477	-154.95
194.864	139.82
195.252	138.51
195.639	62.37
196.027	23.24
196.414	55.41
196.801	-14.65
197.189	168.14
197.576	166.85
197.963	-216.28
198.351	17.19
198.738	-2.06
199.125	-48.9
199.512	20.84
199.899	-25.86
200.286	-35.87
200.673	39.24
201.06	-11.5
201.447	10.84
201.833	-3.91
202.22	-3.94
202.607	-62.29
202.994	17.84
203.38	-3.51
203.767	-23.67
204.154	25.66
204.54	-7.34
204.927	31.16
205.313	25.95
205.699	2.72
206.086	21.18
206.472	37.73
206.858	-20.49
207.245	-8.09
207.631	-33.63
208.017	27.2
208.403	-30.46
208.789	-4.93
209.175	8.13
209.561	-172.45
209.947	22.21
210.333	-10.66
210.719	25.44
211.105	21.69
211.491	-1.13
211.876	-34.18
212.262	37.69
212.648	13.4
213.034	-22.47
213.419	-5.64
213.805	-37.35
214.19	-24.28
214.576	8.59
214.961	1.25
215.346	-10.3
215.732	20.28
216.117	6.61
216.502	-43.62
216.888	10.58
217.273	-13.13
217.658	-13.5
218.043	-30.59
218.428	-17.51
218.813	-3.43
219.198	-40.49
219.583	8.45
219.968	-13.4
220.353	-38.19
220.738	-2.51
221.122	-2.59
221.507	-21.89
221.892	-47.77
222.276	-45.79
222.661	-13
223.046	-4.54
223.43	13.29
223.815	5.65
224.199	-3.66
224.583	7.06
224.968	-5.46
225.352	-7.89
225.736	4.17
226.121	2.46
226.505	-1.64
226.889	5.08
227.273	-4.94
227.657	4.18
228.041	3.02
228.425	0.37
228.809	4.04
229.193	6.4
229.577	5.83
229.961	6.15
230.344	6.29
230.728	7.58
231.112	7.63
231.495	6.37
231.879	6.28
232.263	6.58
232.646	5.33
233.03	6.32
233.413	7.3
233.797	4.16
234.18	4.3
234.563	6.69
234.946	4.14
235.33	5.12
235.713	6.2
236.096	6.12
236.479	7.82
236.862	5.09
237.245	4.12
237.628	5.57
238.011	5.15
238.394	6.62
238.777	5.02
239.16	7.38
239.543	5.21
239.925	4.88
240.308	4.86
240.691	4.69
241.073	5.56
241.456	5.4
241.838	6.04
242.221	6.24
242.603	6.75
242.986	6.73
243.368	6.71
243.75	6.33
244.133	6.43
244.515	6.16
244.897	6.36
245.279	6.28
245.661	6.64
246.043	6.15
246.425	5.64
246.807	5.37
247.189	6.13
247.571	5.74
247.953	6.37
248.335	6.05
248.717	6.37
249.098	6.2
249.48	5.96
249.862	6.53
250.243	6.46
250.625	6.36
251.006	7.23
251.388	5.55
251.769	4.62
252.151	6.52
252.532	5.57
252.913	5.87
253.295	6.48
253.676	5.46
254.057	6.01
254.438	6.01
254.819	5.2
255.2	5.47
255.581	6.23
255.962	6.56
256.343	6.98
256.724	6.66
257.105	5.2
257.486	4.49
257.867	5.34
258.247	5.31
258.628	5.36
259.009	5.6
259.389	5.27
259.77	5.15
260.15	5.86
260.531	5.62
260.911	5.64
261.292	5.81
261.672	5.61
262.052	5.6
262.432	5.31
262.813	5.52
263.193	5.74
263.573	5.35
263.953	5.13
264.333	4.71
264.713	5.13
265.093	6.07
265.473	4.69
265.853	5.02
266.233	5.34
266.612	5.07
266.992	5.27
267.372	5.92
267.752	5.62
268.131	5.01
268.511	5.58
268.89	5.76
269.27	5.08
269.649	4.81
270.029	4.89
270.408	5.03
270.787	5.48
271.167	5.31
271.546	6.03
271.925	5.37
272.304	5.14
272.683	4.93
273.062	4.67
273.441	4.86
273.82	5.26
274.199	4.99
274.578	5.26
274.957	4.81
275.336	5.31
275.715	5.44
276.093	4.8
276.472	5.22
276.851	4.72
277.229	4.36
277.608	4.27
277.986	4.65
278.365	5.04
278.743	4.7
279.122	4.71
279.5	4.56
279.878	4.53
280.257	5.19
280.635	5.4
281.013	4.6
281.391	4.88
281.769	5.69
282.147	5.25
282.525	4.31
282.903	4.55
283.281	5.61
283.659	4.82
284.037	4.94
284.415	5.2
284.792	4.7
285.17	4.56
285.548	4.67
285.925	4.46
286.303	4.95
286.68	4.79
287.058	4.57
287.435	4.51
287.813	5.01
288.19	4.62
288.567	4.68
288.945	4.47
289.322	4.73
289.699	4.65
290.076	4.6
290.453	4.62
290.83	4.79
291.207	4.73
291.584	4.71
291.961	4.63
292.338	4.45
292.715	4.36
293.092	4.61
293.469	4.56
293.845	4.17
294.222	4.94
294.599	3.57
294.975	4.26
295.352	4.94
295.728	4.29
296.105	4.27
296.481	4.19
296.858	4.42
297.234	3.99
297.61	4.15
297.986	4.49
298.363	4.41
298.739	4.43
299.115	4.19
299.491	4.73
299.867	4.14
300.243	4.11
300.619	4.06
300.995	4.05
301.371	4.33
301.746	4.29
302.122	3.6
302.498	3.98
302.874	4.12
303.249	3.82
303.625	3.32
304	4.36
304.376	4.92
304.751	4.08
305.127	4.06
305.502	4.56
305.878	3.9
306.253	3.59
306.628	4.4
307.003	3.43
307.378	3.88
307.754	4.12
308.129	3.71
308.504	3.78
308.879	3.71
309.254	3.96
309.629	4.07
310.003	3.34
310.378	4.17
310.753	4.18
311.128	3.79
311.502	3.73
311.877	3.81
312.252	4.13
312.626	4.25
313.001	3.96
313.375	4.13
313.75	4.13
314.124	3.91
314.498	4.13
314.873	3.83
315.247	4.22
315.621	3.93
315.995	4
316.369	3.68
316.743	3.31
317.117	3.56
317.491	3.85
317.865	3.38
318.239	4
318.613	3.67
318.987	3.24
319.361	3.85
319.734	3.86
320.108	3.87
320.482	3.97
320.855	3.62
321.229	3.77
321.602	3.6
321.976	3.14
322.349	3.86
322.723	3.58
323.096	3.85
323.469	3.97
323.843	3.24
324.216	3.61
324.589	3.95
324.962	3.51
325.335	3.41
325.708	4.13
326.081	3.67
326.454	4.02
326.827	3.92
327.2	3.75
327.573	4.18
327.945	3.23
328.318	3.62
328.691	3.44
329.063	3.73
329.436	3.27
329.809	4.03
330.181	4.48
330.553	3.62
330.926	4.49
331.298	3.35
331.671	3.84
332.043	3.29
332.415	3.78
332.787	4.08
333.159	3.3
333.532	3.42
333.904	4.29
334.276	3.82
334.648	4.16
335.02	3.7
335.391	3.28
335.763	3.65
336.135	3.89
336.507	3.64
336.879	3.95
337.25	4.1
337.622	4.08
337.993	3.81
338.365	3.65
338.736	3.83
339.108	3.81
339.479	3.52
339.851	4.22
340.222	3.86
340.593	3.82
340.964	3.47
341.336	3.42
341.707	3.69
342.078	3.81
342.449	3.79
342.82	3.79
343.191	4
343.562	3.88
343.933	3.5
344.303	3.86
344.674	3.65
345.045	3.71
345.416	3.88
345.786	3.6
346.157	3.93
346.527	3.49
346.898	3.57
347.268	4.12
347.639	3.67
348.009	4.23
348.38	3.52
348.75	4.11
349.12	3.7
349.49	3.63
349.861	3.77
350.231	3.59
350.601	3.85
350.971	3.67
351.341	4.11
351.711	3.95
352.081	3.67
352.45	3.28
352.82	3.39
353.19	3.88
353.56	3.6
353.929	4.11
354.299	4.31
354.669	3.94
355.038	4.2
355.408	3.67
355.777	4.34
356.147	3.83
356.516	3.53
356.885	3.84
357.254	3.91
357.624	4.03
357.993	3.86
358.362	4.07
358.731	4.19
359.1	3.93
359.469	4.24
359.838	3.99
360.207	3.82
360.576	4.17
360.945	4.06
361.314	4.05
361.682	3.81
362.051	4.13
362.42	3.94
362.788	4.16
363.157	4.08
363.525	3.91
363.894	4.06
364.262	3.91
364.631	4.19
364.999	3.93
365.367	3.99
365.735	3.85
366.104	3.81
366.472	3.91
366.84	4.01
367.208	4.25
367.576	3.89
367.944	4.1
368.312	4.24
368.68	4.29
369.048	4.31
369.416	4.16
369.783	4.23
370.151	4.44
370.519	4.54
370.886	4.17
371.254	4.58
371.621	4.21
371.989	4.26
372.356	4.2
372.724	4.37
373.091	3.99
373.458	3.97
373.826	4.54
374.193	4.21
374.56	4.46
374.927	4.03
375.294	4.51
375.661	4.18
376.028	4.29
376.395	4.61
376.762	3.75
377.129	4.22
377.496	4.24
377.863	4.32
378.229	4.56
378.596	4.43
378.963	4.47
379.329	4.52
379.696	4.21
380.062	4.06
380.429	4.07
380.795	4.48
381.161	3.99
381.528	3.95
381.894	4.26
382.26	4.5
382.626	4.45
382.993	4.37
383.359	4.46
383.725	4.2
384.091	4.38
384.457	4.42
384.823	4.37
385.188	4.34
385.554	4.43
385.92	4.12
386.286	4.6
386.651	4.45
387.017	4.53
387.383	4.36
387.748	4.36
388.114	4.65
388.479	4.47
388.845	4.38
389.21	4.71
389.575	4.84
389.94	4.53
390.306	4.47
390.671	4.67
391.036	4.32
391.401	4.46
391.766	4.46
392.131	4.58
392.496	4.62
392.861	4.47
393.226	4.31
393.591	4.48
393.956	4.43
394.32	4.54
394.685	4.59
395.05	4.64
395.414	4.79
395.779	4.7
396.143	4.63
396.508	4.39
396.872	4.65
397.236	4.76
397.601	4.73
397.965	4.49
398.329	4.79
398.694	4.38
399.058	4.64
399.422	4.49
399.786	4.35
400.15	4.56
400.514	4.8
400.878	4.67
401.242	4.53
401.605	4.78
401.969	4.47
402.333	4.53
402.697	4.77
403.06	4.49
403.424	4.67
403.787	4.88
404.151	4.69
404.514	4.8
404.878	4.6
405.241	4.72
405.604	4.57
405.968	4.7
406.331	4.93
406.694	4.58
407.057	4.62
407.42	4.62
407.783	4.78
408.146	4.87
408.509	4.84
408.872	4.68
409.235	4.89
409.598	4.73
409.961	4.69
410.323	4.66
410.686	4.63
411.049	4.86
411.411	4.68
411.774	4.69
412.136	4.69
412.499	4.95
412.861	4.32
413.223	4.67
413.586	4.76
413.948	4.85
414.31	4.92
414.672	4.78
415.035	5.04
415.397	4.76
415.759	4.74
416.121	4.99
416.483	4.78
416.845	4.65
417.206	4.64
417.568	4.7
417.93	4.77
418.292	4.7
418.653	4.73
419.015	4.6
419.377	4.58
419.738	4.7
420.1	4.74
420.461	4.62
420.822	4.79
421.184	4.83
421.545	4.68
421.906	4.75
422.267	4.7
422.629	4.7
422.99	4.69
423.351	4.58
423.712	4.81
424.073	4.8
424.434	4.93
424.795	4.72
425.155	4.71
425.516	4.7
425.877	4.79
426.238	4.74
426.598	4.78
426.959	4.81
427.32	4.71
427.68	4.75
428.041	4.83
428.401	4.75
428.761	5
429.122	4.72
429.482	4.82
429.842	4.94
430.202	5.07
430.563	5
430.923	4.94
431.283	5
431.643	5.07
432.003	4.87
432.363	5.12
432.722	4.9
433.082	4.87
433.442	5
433.802	4.9
434.161	4.86
434.521	4.75
434.881	4.8
435.24	4.93
435.6	4.95
435.959	4.93
436.319	4.86
436.678	5.05
437.037	4.95
437.396	4.93
437.756	4.75
438.115	4.93
438.474	4.96
438.833	4.96
439.192	4.78
439.551	4.79
439.91	4.92
440.269	4.85
440.628	4.92
440.987	4.84
441.345	4.99
441.704	4.94
442.063	4.79
442.421	4.84
442.78	4.94
443.138	4.94
443.497	4.88
443.855	4.91
444.214	4.69
444.572	5.08
444.93	5.02
445.288	4.97
445.647	4.8
446.005	4.82
446.363	4.94
446.721	4.91
447.079	4.9
447.437	4.89
447.795	4.89
448.153	4.82
448.51	4.81
448.868	4.83
449.226	4.81
449.584	4.91
449.941	4.96
450.299	4.9
450.656	4.87
451.014	4.98
451.371	4.98
451.729	4.97
452.086	5.02
452.443	5.08
452.801	4.91
453.158	5.05
453.515	4.8
453.872	5.02
454.229	4.93
454.586	4.88
454.943	5.12
455.3	4.98
455.657	4.95
456.014	4.96
456.371	5.01
456.727	5.15
457.084	5.17
457.441	5.05
457.797	4.98
458.154	4.95
458.51	4.87
458.867	4.9
459.223	4.89
459.58	5.16
459.936	4.88
460.292	4.91
460.648	4.88
461.005	4.97
461.361	4.93
461.717	4.87
462.073	5.05
462.429	5.03
462.785	5.19
463.141	5.05
463.496	5.03
463.852	5.12
464.208	5.12
464.564	4.97
464.919	5.11
465.275	5.03
465.631	5.17
465.986	5.06
466.342	4.83
466.697	4.78
467.052	5.25
467.408	5.23
467.763	5.17
468.118	4.84
468.473	5.17
468.829	5
469.184	5.16
469.539	4.9
469.894	4.97
470.249	5.07
470.603	5.19
470.958	5.13
471.313	5.14
471.668	5.15
472.023	5.14
472.377	5.01
472.732	5.18
473.086	5.02
473.441	5.06
473.795	5.23
474.15	5.12
474.504	5.12
474.859	5.01
475.213	5.11
475.567	5.05
475.921	5.18
476.275	5.09
476.63	5.16
476.984	4.89
477.338	5.14
477.692	5.11
478.045	5.16
478.399	5.05
478.753	4.99
479.107	5.19
479.461	5.11
479.814	5.03
480.168	5
480.521	5.08
480.875	5.1
481.228	5.03
481.582	5.18
481.935	5.18
482.289	5.17
482.642	5.17
482.995	4.99
483.348	4.96
483.701	5.05
484.055	5
484.408	4.96
484.761	4.85
485.114	4.73
485.466	4.74
485.819	4.71
486.172	4.84
486.525	4.89
486.878	4.93
487.23	4.96
487.583	5
487.936	4.98
488.288	4.92
488.641	4.83
488.993	4.76
489.345	4.8
489.698	4.86
490.05	4.88
490.402	4.93
490.754	4.99
491.107	5
491.459	5.03
491.811	5.06
492.163	5
492.515	4.91
492.866	4.92
493.218	4.8
493.57	4.89
493.922	4.89
494.274	5.09
494.625	5.14
494.977	5.06
495.328	5.18
495.68	5.1
496.031	5.13
496.383	5.19
496.734	5.11
497.086	5.18
497.437	5.2
497.788	5.25
498.139	5.15
498.49	5.13
498.842	5.15
499.193	4.97
499.544	5.14
499.894	5.06
500.245	5.24
500.596	5.17
500.947	5.14
501.298	5.18
501.648	5.15
501.999	5.16
502.35	5.14
502.7	5.36
503.051	5.1
503.401	5.25
503.752	5.1
504.102	5.1
504.452	5.08
504.803	5.09
505.153	5.18
505.503	5.17
505.853	5.17
506.203	5.24
506.553	5.11
506.903	5.22
507.253	5.09
507.603	5.22
507.953	5.19
508.303	5.25
508.652	5
509.002	5.19
509.352	5.09
509.701	4.94
510.051	5.17
510.4	5.17
510.75	5.09
511.099	5.07
511.449	5.21
511.798	5.07
512.147	5.15
512.496	5.21
512.846	5.1
513.195	5.07
513.544	5.19
513.893	5.19
514.242	5.14
514.591	5.15
514.939	5.15
515.288	5.19
515.637	5.15
515.986	5.25
516.334	5.23
516.683	5.26
517.032	5.07
517.38	5.11
517.729	5.09
518.077	5.11
518.426	5.27
518.774	5.15
519.122	5.1
519.47	5.1
519.819	5.13
520.167	5.01
520.515	5.05
520.863	5.12
521.211	5.09
521.559	5.1
521.907	5.19
522.255	5.1
522.602	5.21
522.95	5.3
523.298	5.19
523.645	5.18
523.993	5.18
524.341	5.21
524.688	5.12
525.036	5.17
525.383	5.23
525.73	5.2
526.078	5.27
526.425	5.17
526.772	5.11
527.119	5.07
527.466	5.09
527.814	5.09
528.161	5.14
528.508	5.14
528.854	5.09
529.201	4.99
529.548	4.95
529.895	4.87
530.242	4.86
530.588	4.85
530.935	4.93
531.282	4.98
531.628	5.05
531.975	5.06
532.321	5.09
532.667	5.09
533.014	5.18
533.36	5.17
533.706	5.17
534.052	5.11
534.399	5.07
534.745	4.95
535.091	4.94
535.437	5.06
535.783	5.05
536.129	5.06
536.474	5.25
536.82	5.18
537.166	5.08
537.512	5.26
537.857	5.04
538.203	5.08
538.549	5.05
538.894	5.12
539.239	5.15
539.585	5.25
539.93	5.29
540.276	5.19
540.621	5.33
540.966	5.23
541.311	5.17
541.656	5.15
542.001	5.11
542.346	4.97
542.691	4.91
543.036	4.92
543.381	4.98
543.726	5.06
544.071	5.11
544.415	5.12
544.76	5.14
545.105	5.09
545.449	5.09
545.794	5.1
546.138	5.18
546.483	5.24
546.827	5.14
547.171	5.23
547.516	5.3
547.86	5.15
548.204	5.14
548.548	5.14
548.892	5.18
549.236	5.21
549.58	5.27
549.924	5.21
550.268	5.37
550.612	5.29
550.956	5.44
551.3	5.46
551.643	5.17
551.987	5.44
552.33	5.32
552.674	5.28
553.017	5.35
553.361	5.33
553.704	5.26
554.048	5.3
554.391	5.27
554.734	5.24
555.077	5.23
555.42	5.28
555.764	5.32
556.107	5.48
556.45	5.28
556.793	5.43
557.135	5.46
557.478	5.38
557.821	5.47
558.164	5.34
558.507	5.02
558.849	5.55
559.192	5.49
559.534	5.15
559.877	5.22
560.219	5.27
560.562	5.29
560.904	5.4
561.246	5.17
561.589	5.5
561.931	5.34
562.273	5.3
562.615	5.26
562.957	5.26
563.299	5.48
563.641	5.17
563.983	5.27
564.325	5.38
564.667	5.21
565.008	5.12
565.35	5.22
565.692	5.27
566.033	5.24
566.375	5.3
566.716	5.1
567.058	5.18
567.399	5.16
567.741	5.24
568.082	5.3
568.423	5.19
568.764	5.29
569.105	5.26
569.447	5.13
569.788	5.32
570.129	5.25
570.47	5.26
570.811	5.28
571.151	5.15
571.492	5.26
571.833	5.22
572.174	5.24
572.514	5.25
572.855	5.33
573.195	5.11
573.536	5.28
573.876	5.08
574.217	5.22
574.557	5.2
574.898	5.17
575.238	5.41
575.578	5.28
575.918	5.21
576.258	5.36
576.598	5.12
576.938	5.12
577.278	5.2
577.618	5.15
577.958	5.29
578.298	5.27
578.638	5.3
578.977	5.15
579.317	5.49
579.657	5.22
579.996	5.33
580.336	5.39
580.675	5.17
581.014	5.28
581.354	5.15
581.693	5.49
582.032	5.44
582.372	5.28
582.711	5.44
583.05	5.32
583.389	5.41
583.728	5.33
584.067	5.22
584.406	5.17
584.745	5.23
585.083	5.29
585.422	5.36
585.761	5.33
586.1	5.19
586.438	5.28
586.777	5.24
587.115	5.21
587.454	5.21
587.792	5.25
588.13	5.24
588.469	5.21
588.807	5.14
589.145	5.27
589.483	5.1
589.821	5.41
590.159	5.23
590.497	5.2
590.835	5.11
591.173	5.32
591.511	5.22
591.849	5.2
592.187	5.24
592.524	5.23
592.862	5.09
593.2	5.18
593.537	5.07
593.875	5.2
594.212	5.02
594.55	5.2
594.887	5.17
595.224	5.5
595.561	5.17
595.899	5.31
596.236	5.26
596.573	5.16
596.91	5.27
597.247	5.28
597.584	5.13
597.921	5.12
598.258	5.28
598.594	5.09
598.931	4.95
599.268	4.99
599.604	5.19
599.941	5.13
600.277	5.26
600.614	5.07
600.95	5.11
601.287	4.94
601.623	4.65
601.959	5.46
602.296	5.27
602.632	5.13
602.968	5.23
603.304	5
603.64	5.21
603.976	5.05
604.312	5.04
604.648	5.13
604.984	5.17
605.319	4.98
605.655	5
605.991	4.99
606.326	5.01
606.662	4.93
606.998	5.13
607.333	5.07
607.668	5.11
608.004	5.12
608.339	4.97
608.674	5.2
609.01	5.56
609.345	5.12
609.68	4.93
610.015	5.17
610.35	5.33
610.685	5.02
611.02	5.01
611.355	4.95
611.689	5.12
612.024	5.11
612.359	5.18
612.694	5.43
613.028	5.07
613.363	4.98
613.697	5
614.032	5.16
614.366	5.07
614.7	5.01
615.035	5.23
615.369	5.14
615.703	5.21
616.037	5.27
616.371	4.84
616.705	5
617.039	5.22
617.373	5.33
617.707	5.05
618.041	4.94
618.375	4.53
618.709	5.06
619.042	4.96
619.376	4.91
619.71	5.24
620.043	5.45
620.377	5.04
620.71	5.17
621.043	5.32
621.377	5.38
621.71	5.46
622.043	5.04
622.376	5.1
622.709	5.58
623.043	5.09
623.376	4.98
623.709	5.23
624.041	5
624.374	5.06
624.707	5.23
625.04	4.98
625.373	5.09
625.705	5.26
626.038	4.97
626.37	5.25
626.703	5.25
627.035	5.11
627.368	5.23
627.7	5.02
628.032	5.15
628.365	5.18
628.697	5.43
629.029	5.07
629.361	5.34
629.693	4.93
630.025	5.28
630.357	5.19
630.689	5.14
631.021	5.18
631.353	5.06
631.684	4.78
632.016	4.8
632.348	4.89
632.679	5.3
633.011	4.87
633.342	5.15
633.674	4.72
634.005	4.82
634.336	5.14
634.668	5.14
634.999	4.97
635.33	5.16
635.661	5.13
635.992	5.09
636.323	4.81
636.654	4.99
636.985	5.06
637.316	4.94
637.647	5.26
637.977	5.06
638.308	5.24
638.639	5.25
638.969	4.89
639.3	5.04
639.63	5.05
639.961	5
640.291	4.6
640.622	5.43
640.952	5.2
641.282	4.87
641.612	4.68
641.943	4.65
642.273	5.07
642.603	5.21
642.933	5.28
643.263	5.23
643.592	5.12
643.922	5.46
644.252	5.12
644.582	5.24
644.911	5.13
645.241	4.87
645.571	5.18
645.9	4.94
646.23	5.24
646.559	4.72
646.888	5.15
647.218	4.88
647.547	5.04
647.876	4.74
648.205	5.06
648.534	5.39
648.863	4.77
649.192	5.48
649.521	5.32
649.85	5.32
650.179	5.22
650.508	5.18
650.837	5.42
651.165	5.16
651.494	4.89
651.822	5.2
652.151	4.84
652.479	5.37
652.808	5.18
653.136	4.71
653.465	5.01
653.793	4.81
654.121	4.86
654.449	4.85
654.777	4.42
655.105	4.62
655.433	5.1
655.761	4.92
656.089	5.24
656.417	5.86
656.745	5.77
657.073	5.21
657.4	4.88
657.728	4.86
658.056	5.19
658.383	4.93
658.711	4.97
659.038	4.79
659.365	5.29
659.693	5.33
660.02	4.92
660.347	4.87
660.674	4.85
661.001	4.85
661.329	4.73
661.656	4.49
661.982	4.82
662.309	4.64
662.636	4.86
662.963	4.96
663.29	4.74
663.616	5.02
663.943	5.18
664.27	5.12
664.596	4.93
664.923	5.11
665.249	5.23
665.576	5.2
665.902	4.45
666.228	5.25
666.554	5.54
666.881	4.87
667.207	5.13
667.533	5.52
667.859	4.85
668.185	4.92
668.511	5.24
668.837	4.56
669.162	5.44
669.488	4.48
669.814	5.04
670.139	4.39
670.465	5.3
670.791	4.61
671.116	4.93
671.442	4.49
671.767	4.77
672.092	5.04
672.418	4.87
672.743	4.25
673.068	4.72
673.393	5.44
673.718	5.04
674.043	4.65
674.368	4.82
674.693	5.42
675.018	4.93
675.343	4.8
675.667	4.88
675.992	4.95
676.317	4.62
676.641	5.31
676.966	4.84
677.29	4.64
677.615	4.71
677.939	4.76
678.264	4.94
678.588	5.27
678.912	4.7
679.236	4.59
679.56	4.76
679.885	5.11
680.209	5.56
680.532	5.94
680.856	5.35
681.18	5.32
681.504	4.94
681.828	5.04
682.152	5.01
682.475	4.96
682.799	4.8
683.122	4.78
683.446	4.66
683.769	5.03
684.093	5.07
684.416	4.64
684.739	5.18
685.062	5.2
685.386	4.69
685.709	5.09
686.032	5.33
686.355	5.52
686.678	5.41
687.001	4.65
687.324	4.73
687.646	4.88
687.969	5
688.292	4.27
688.614	5.19
688.937	5.57
689.26	5.41
689.582	4.96
689.904	5.34
690.227	5.39
690.549	4.95
690.871	4.67
691.194	4.41
691.516	4.83
691.838	5.62
692.16	5.03
692.482	4.77
