Data from 0002_crown_Reflection__4__280.txt Node

Date: Thu Dec 15 18:54:54 CST 2022
User: ToomeyLab
Spectrometer: FLMS14357
Trigger mode: 0
Integration Time (sec): 1.000000E-2
Scans to average: 100
Electric dark correction enabled: true
Nonlinearity correction enabled: false
Boxcar width: 0
XAxis mode: Wavelengths
Number of Pixels in Spectrum: 2048
>>>>>Begin Spectral Data<<<<<
189.047	112.19
189.435	112.19
189.823	112.19
190.211	-50.45
190.599	27.06
190.987	19.57
191.375	200.48
191.763	81.76
192.151	-165.29
192.538	70.37
192.926	33.87
193.314	-7.79
193.702	27333.33
194.089	9.9
194.477	-86.31
194.864	65.44
195.252	210.15
195.639	58
196.027	38.52
196.414	44.69
196.801	5.52
197.189	146.73
197.576	18.85
197.963	-571.81
198.351	-10.34
198.738	-37.91
199.125	-68.78
199.512	17.33
199.899	-20.98
200.286	-42.59
200.673	51.71
201.06	-31.52
201.447	20.78
201.833	-60.37
202.22	-13.57
202.607	-42.88
202.994	25.73
203.38	-1.94
203.767	34.08
204.154	26.11
204.54	-36.96
204.927	-15.9
205.313	13.34
205.699	1.33
206.086	5.31
206.472	16.28
206.858	-4.84
207.245	-8.73
207.631	3.57
208.017	41.94
208.403	-60.13
208.789	-26.63
209.175	0
209.561	-121.75
209.947	-18.66
210.333	-25.5
210.719	-5.4
211.105	-4.73
211.491	20.63
211.876	-54.46
212.262	-5.33
212.648	-29.55
213.034	-25.92
213.419	13.76
213.805	-26.05
214.19	-57.23
214.576	7.13
214.961	-12.96
215.346	1.73
215.732	-17.4
216.117	-3.57
216.502	-25.87
216.888	5.32
217.273	26.13
217.658	-25.58
218.043	-27.93
218.428	-7.19
218.813	2.38
219.198	-28.71
219.583	-13.15
219.968	10.32
220.353	-31.49
220.738	-12.2
221.122	-9.32
221.507	3.88
221.892	-43.35
222.276	-8.41
222.661	-15.17
223.046	-13.97
223.43	13.2
223.815	-4.89
224.199	-6.69
224.583	-8.49
224.968	-2.87
225.352	-11.73
225.736	4.74
226.121	3.97
226.505	-5.86
226.889	0.95
227.273	-5.25
227.657	-0.16
228.041	6.02
228.425	1.73
228.809	5.46
229.193	6.1
229.577	5.48
229.961	5.4
230.344	5.51
230.728	6.35
231.112	6.25
231.495	7.02
231.879	7
232.263	5.27
232.646	5.32
233.03	7.95
233.413	4.58
233.797	1.31
234.18	6.25
234.563	4.18
234.946	5.12
235.33	4.3
235.713	5.67
236.096	6.22
236.479	7.06
236.862	4.94
237.245	2.87
237.628	6.9
238.011	5.78
238.394	3.21
238.777	5.1
239.16	6.1
239.543	4.78
239.925	6.04
240.308	3.57
240.691	4.65
241.073	5.67
241.456	5.6
241.838	4.89
242.221	5.46
242.603	6.65
242.986	5.58
243.368	5.46
243.75	6.23
244.133	6.18
244.515	5.7
244.897	5.17
245.279	4.85
245.661	5.83
246.043	4.8
246.425	6.24
246.807	5.48
247.189	5.11
247.571	5.83
247.953	5.52
248.335	5.69
248.717	5.66
249.098	5.88
249.48	5.21
249.862	5.57
250.243	5.81
250.625	5.44
251.006	5.77
251.388	4.87
251.769	5.54
252.151	5.91
252.532	5.35
252.913	5.08
253.295	5.34
253.676	4.71
254.057	5.28
254.438	5.76
254.819	4.97
255.2	5.06
255.581	5.57
255.962	6.16
256.343	5.44
256.724	5.47
257.105	5.13
257.486	3.61
257.867	5.23
258.247	4.63
258.628	5.84
259.009	4.55
259.389	4.47
259.77	5.35
260.15	5.68
260.531	5.22
260.911	5.23
261.292	5.21
261.672	5.21
262.052	5.2
262.432	4.91
262.813	5.01
263.193	4.83
263.573	4.7
263.953	4.48
264.333	4.9
264.713	4.97
265.093	5.43
265.473	4.6
265.853	4.61
266.233	4.8
266.612	4.23
266.992	4.99
267.372	4.86
267.752	5.51
268.131	4.57
268.511	4.58
268.89	5.54
269.27	4.02
269.649	4.93
270.029	4.26
270.408	4.33
270.787	4.64
271.167	5.28
271.546	5.11
271.925	5.21
272.304	4.86
272.683	4.38
273.062	4.97
273.441	4.27
273.82	5.02
274.199	4.85
274.578	4.66
274.957	4.71
275.336	5.04
275.715	5.06
276.093	3.84
276.472	3.89
276.851	4.71
277.229	4.06
277.608	4.59
277.986	4.81
278.365	4.89
278.743	4.57
279.122	4.23
279.5	4.4
279.878	4.1
280.257	4.85
280.635	4.48
281.013	3.69
281.391	4.34
281.769	4.51
282.147	4.63
282.525	4.27
282.903	4.12
283.281	4.25
283.659	4.71
284.037	4.25
284.415	4.28
284.792	4.39
285.17	3.9
285.548	3.91
285.925	4.2
286.303	4.81
286.68	4.35
287.058	4.61
287.435	4.14
287.813	4.26
288.19	3.98
288.567	4.36
288.945	3.67
289.322	4.87
289.699	4.11
290.076	3.94
290.453	3.9
290.83	4.44
291.207	4.43
291.584	4.42
291.961	4.54
292.338	3.82
292.715	3.76
293.092	4.31
293.469	4.4
293.845	3.86
294.222	4.65
294.599	3.74
294.975	3.47
295.352	4.11
295.728	4.08
296.105	4.26
296.481	4.06
296.858	4.03
297.234	3.66
297.61	4.02
297.986	4.43
298.363	3.99
298.739	4.22
299.115	3.89
299.491	4.1
299.867	3.85
300.243	3.71
300.619	3.66
300.995	3.73
301.371	3.69
301.746	4.3
302.122	3.85
302.498	3.83
302.874	4.14
303.249	3.91
303.625	3.66
304	3.72
304.376	4.19
304.751	3.76
305.127	3.73
305.502	4.07
305.878	4.47
306.253	3.57
306.628	3.68
307.003	3.45
307.378	3.58
307.754	3.4
308.129	3.86
308.504	3.82
308.879	3.79
309.254	4.16
309.629	3.95
310.003	3.59
310.378	4.25
310.753	3.89
311.128	3.67
311.502	3.75
311.877	3.82
312.252	3.82
312.626	3.99
313.001	3.95
313.375	3.91
313.75	3.84
314.124	4.13
314.498	3.93
314.873	3.05
315.247	3.66
315.621	3.71
315.995	4.07
316.369	3.36
316.743	3.32
317.117	3.38
317.491	3.69
317.865	3.11
318.239	3.87
318.613	3.63
318.987	3.22
319.361	3.64
319.734	3.77
320.108	3.7
320.482	3.92
320.855	4.14
321.229	3.61
321.602	3.84
321.976	3.35
322.349	4.1
322.723	3.76
323.096	3.48
323.469	3.3
323.843	3.21
324.216	3.66
324.589	3.96
324.962	3.5
325.335	3.25
325.708	3.65
326.081	3.83
326.454	3.63
326.827	3.56
327.2	3.51
327.573	3.95
327.945	3.39
328.318	3.88
328.691	3.52
329.063	2.94
329.436	2.83
329.809	3.88
330.181	4.62
330.553	3.69
330.926	3.69
331.298	3.56
331.671	3.84
332.043	3.54
332.415	3.8
332.787	4.14
333.159	3.44
333.532	3.53
333.904	3.59
334.276	3.67
334.648	3.96
335.02	3.59
335.391	3.67
335.763	3.57
336.135	3.69
336.507	3.45
336.879	3.32
337.25	3.54
337.622	3.51
337.993	2.96
338.365	3.44
338.736	3.27
339.108	3.97
339.479	3.9
339.851	4.1
340.222	3.75
340.593	3.76
340.964	3.46
341.336	3.46
341.707	3.65
342.078	3.71
342.449	3.73
342.82	3.78
343.191	3.78
343.562	3.89
343.933	3.4
344.303	4.09
344.674	3.7
345.045	3.82
345.416	3.95
345.786	3.67
346.157	3.69
346.527	3.67
346.898	3.39
347.268	3.96
347.639	3.68
348.009	3.81
348.38	3.86
348.75	3.7
349.12	3.91
349.49	3.91
349.861	3.84
350.231	3.75
350.601	3.87
350.971	3.71
351.341	3.96
351.711	3.72
352.081	3.68
352.45	3.44
352.82	3.5
353.19	3.93
353.56	3.46
353.929	3.73
354.299	3.84
354.669	4.22
355.038	3.86
355.408	3.67
355.777	3.65
356.147	3.7
356.516	3.58
356.885	3.78
357.254	3.78
357.624	3.56
357.993	3.98
358.362	3.96
358.731	4.1
359.1	3.75
359.469	3.84
359.838	3.85
360.207	3.75
360.576	4.19
360.945	4.12
361.314	3.94
361.682	3.97
362.051	3.76
362.42	4.13
362.788	4.19
363.157	3.79
363.525	4.01
363.894	3.73
364.262	3.86
364.631	4.3
364.999	3.78
365.367	4.09
365.735	3.96
366.104	3.86
366.472	3.7
366.84	3.88
367.208	4.19
367.576	3.96
367.944	3.87
368.312	3.88
368.68	4.34
369.048	4
369.416	3.48
369.783	3.94
370.151	4.21
370.519	4.21
370.886	4.07
371.254	4.33
371.621	4.02
371.989	4.05
372.356	4.06
372.724	3.88
373.091	3.87
373.458	3.85
373.826	4.37
374.193	4.26
374.56	4.35
374.927	3.84
375.294	4.17
375.661	4.01
376.028	3.91
376.395	4.23
376.762	4.15
377.129	3.94
377.496	4.03
377.863	4.02
378.229	4.42
378.596	4.45
378.963	4.26
379.329	4.12
379.696	4.14
380.062	4
380.429	3.8
380.795	4.41
381.161	3.65
381.528	3.87
381.894	3.93
382.26	4.08
382.626	4.12
382.993	4.3
383.359	4.25
383.725	3.99
384.091	4.19
384.457	3.78
384.823	4.06
385.188	4.16
385.554	4.16
385.92	4.17
386.286	4.19
386.651	4.13
387.017	4.41
387.383	4.02
387.748	4.28
388.114	4.01
388.479	4.29
388.845	4.05
389.21	4.51
389.575	4.37
389.94	4.33
390.306	4.04
390.671	4.41
391.036	4.05
391.401	4.28
391.766	4.22
392.131	4.37
392.496	4.51
392.861	4.19
393.226	4.08
393.591	4.26
393.956	4.31
394.32	4.42
394.685	4.3
395.05	4.35
395.414	4.38
395.779	4.5
396.143	4.32
396.508	4.27
396.872	4.22
397.236	4.42
397.601	4.32
397.965	4.23
398.329	4.14
398.694	4.29
399.058	4.36
399.422	4.11
399.786	4.2
400.15	4.28
400.514	4.18
400.878	4.28
401.242	4.62
401.605	4.33
401.969	4.19
402.333	4.29
402.697	4.47
403.06	4.22
403.424	4.42
403.787	4.31
404.151	4.45
404.514	4.48
404.878	4.14
405.241	4.33
405.604	4.32
405.968	4.35
406.331	4.49
406.694	4.24
407.057	4.15
407.42	4.27
407.783	4.58
408.146	4.32
408.509	4.46
408.872	4.25
409.235	4.46
409.598	4.41
409.961	4.49
410.323	4.41
410.686	4.26
411.049	4.31
411.411	4.32
411.774	4.23
412.136	4.33
412.499	4.6
412.861	4.24
413.223	4.37
413.586	4.29
413.948	4.5
414.31	4.45
414.672	4.46
415.035	4.58
415.397	4.4
415.759	4.25
416.121	4.46
416.483	4.36
416.845	4.4
417.206	4.4
417.568	4.39
417.93	4.49
418.292	4.33
418.653	4.17
419.015	4.38
419.377	4.32
419.738	4.49
420.1	4.48
420.461	4.3
420.822	4.44
421.184	4.41
421.545	4.45
421.906	4.33
422.267	4.22
422.629	4.25
422.99	4.33
423.351	4.36
423.712	4.37
424.073	4.48
424.434	4.49
424.795	4.38
425.155	4.31
425.516	4.36
425.877	4.42
426.238	4.34
426.598	4.38
426.959	4.45
427.32	4.33
427.68	4.4
428.041	4.58
428.401	4.45
428.761	4.46
429.122	4.45
429.482	4.4
429.842	4.36
430.202	4.47
430.563	4.41
430.923	4.43
431.283	4.62
431.643	4.54
432.003	4.6
432.363	4.56
432.722	4.44
433.082	4.47
433.442	4.51
433.802	4.38
434.161	4.52
434.521	4.42
434.881	4.49
435.24	4.43
435.6	4.49
435.959	4.39
436.319	4.33
436.678	4.53
437.037	4.54
437.396	4.55
437.756	4.5
438.115	4.45
438.474	4.43
438.833	4.41
439.192	4.45
439.551	4.31
439.91	4.43
440.269	4.51
440.628	4.46
440.987	4.42
441.345	4.41
441.704	4.33
442.063	4.43
442.421	4.54
442.78	4.48
443.138	4.41
443.497	4.46
443.855	4.6
444.214	4.32
444.572	4.58
444.93	4.56
445.288	4.45
445.647	4.33
446.005	4.39
446.363	4.47
446.721	4.38
447.079	4.25
447.437	4.38
447.795	4.45
448.153	4.36
448.51	4.44
448.868	4.3
449.226	4.44
449.584	4.43
449.941	4.48
450.299	4.45
450.656	4.52
451.014	4.58
451.371	4.47
451.729	4.46
452.086	4.49
452.443	4.52
452.801	4.46
453.158	4.69
453.515	4.48
453.872	4.5
454.229	4.38
454.586	4.31
454.943	4.48
455.3	4.49
455.657	4.41
456.014	4.46
456.371	4.53
456.727	4.45
457.084	4.49
457.441	4.54
457.797	4.48
458.154	4.44
458.51	4.56
458.867	4.5
459.223	4.49
459.58	4.51
459.936	4.5
460.292	4.3
460.648	4.46
461.005	4.37
461.361	4.4
461.717	4.37
462.073	4.54
462.429	4.58
462.785	4.57
463.141	4.56
463.496	4.54
463.852	4.66
464.208	4.5
464.564	4.37
464.919	4.44
465.275	4.46
465.631	4.71
465.986	4.44
466.342	4.46
466.697	4.51
467.052	4.69
467.408	4.58
467.763	4.52
468.118	4.41
468.473	4.65
468.829	4.41
469.184	4.53
469.539	4.32
469.894	4.56
470.249	4.58
470.603	4.66
470.958	4.54
471.313	4.5
471.668	4.52
472.023	4.57
472.377	4.5
472.732	4.59
473.086	4.46
473.441	4.61
473.795	4.71
474.15	4.54
474.504	4.53
474.859	4.41
475.213	4.67
475.567	4.46
475.921	4.55
476.275	4.56
476.63	4.43
476.984	4.34
477.338	4.53
477.692	4.52
478.045	4.58
478.399	4.41
478.753	4.45
479.107	4.63
479.461	4.44
479.814	4.5
480.168	4.64
480.521	4.68
480.875	4.6
481.228	4.52
481.582	4.49
481.935	4.66
482.289	4.69
482.642	4.55
482.995	4.44
483.348	4.49
483.701	4.51
484.055	4.42
484.408	4.38
484.761	4.35
485.114	4.25
485.466	4.22
485.819	4.21
486.172	4.32
486.525	4.33
486.878	4.41
487.23	4.41
487.583	4.46
487.936	4.35
488.288	4.33
488.641	4.31
488.993	4.32
489.345	4.31
489.698	4.28
490.05	4.32
490.402	4.36
490.754	4.36
491.107	4.41
491.459	4.54
491.811	4.48
492.163	4.5
492.515	4.38
492.866	4.37
493.218	4.31
493.57	4.37
493.922	4.39
494.274	4.51
494.625	4.51
494.977	4.5
495.328	4.64
495.68	4.49
496.031	4.53
496.383	4.48
496.734	4.52
497.086	4.63
497.437	4.55
497.788	4.64
498.139	4.51
498.49	4.47
498.842	4.51
499.193	4.48
499.544	4.57
499.894	4.51
500.245	4.59
500.596	4.55
500.947	4.5
501.298	4.6
501.648	4.49
501.999	4.66
502.35	4.43
502.7	4.73
503.051	4.51
503.401	4.48
503.752	4.42
504.102	4.51
504.452	4.48
504.803	4.52
505.153	4.66
505.503	4.46
505.853	4.54
506.203	4.57
506.553	4.5
506.903	4.53
507.253	4.49
507.603	4.75
507.953	4.56
508.303	4.55
508.652	4.43
509.002	4.48
509.352	4.52
509.701	4.42
510.051	4.58
510.4	4.61
510.75	4.46
511.099	4.47
511.449	4.59
511.798	4.52
512.147	4.53
512.496	4.63
512.846	4.66
513.195	4.56
513.544	4.64
513.893	4.6
514.242	4.52
514.591	4.49
514.939	4.51
515.288	4.64
515.637	4.53
515.986	4.42
516.334	4.56
516.683	4.49
517.032	4.47
517.38	4.44
517.729	4.61
518.077	4.54
518.426	4.6
518.774	4.52
519.122	4.47
519.47	4.51
519.819	4.48
520.167	4.44
520.515	4.49
520.863	4.48
521.211	4.39
521.559	4.52
521.907	4.53
522.255	4.59
522.602	4.54
522.95	4.64
523.298	4.65
523.645	4.6
523.993	4.57
524.341	4.58
524.688	4.55
525.036	4.5
525.383	4.51
525.73	4.45
526.078	4.66
526.425	4.44
526.772	4.47
527.119	4.4
527.466	4.48
527.814	4.48
528.161	4.49
528.508	4.53
528.854	4.46
529.201	4.4
529.548	4.34
529.895	4.31
530.242	4.3
530.588	4.3
530.935	4.37
531.282	4.39
531.628	4.38
531.975	4.41
532.321	4.43
532.667	4.46
533.014	4.57
533.36	4.5
533.706	4.54
534.052	4.49
534.399	4.47
534.745	4.37
535.091	4.39
535.437	4.35
535.783	4.43
536.129	4.43
536.474	4.46
536.82	4.47
537.166	4.51
537.512	4.49
537.857	4.5
538.203	4.49
538.549	4.46
538.894	4.52
539.239	4.53
539.585	4.56
539.93	4.56
540.276	4.49
540.621	4.7
540.966	4.51
541.311	4.47
541.656	4.4
542.001	4.48
542.346	4.38
542.691	4.37
543.036	4.35
543.381	4.29
543.726	4.42
544.071	4.43
544.415	4.47
544.76	4.41
545.105	4.39
545.449	4.43
545.794	4.48
546.138	4.41
546.483	4.55
546.827	4.47
547.171	4.53
547.516	4.5
547.86	4.47
548.204	4.61
548.548	4.45
548.892	4.54
549.236	4.55
549.58	4.55
549.924	4.67
550.268	4.53
550.612	4.59
550.956	4.62
551.3	4.61
551.643	4.65
551.987	4.74
552.33	4.76
552.674	4.64
553.017	4.72
553.361	4.61
553.704	4.69
554.048	4.53
554.391	4.58
554.734	4.46
555.077	4.64
555.42	4.57
555.764	4.51
556.107	4.61
556.45	4.63
556.793	4.76
557.135	4.57
557.478	4.58
557.821	4.59
558.164	4.68
558.507	4.57
558.849	4.8
559.192	4.72
559.534	4.62
559.877	4.42
560.219	4.64
560.562	4.46
560.904	4.88
561.246	4.49
561.589	4.73
561.931	4.6
562.273	4.54
562.615	4.55
562.957	4.52
563.299	4.5
563.641	4.61
563.983	4.38
564.325	4.46
564.667	4.62
565.008	4.41
565.35	4.43
565.692	4.63
566.033	4.45
566.375	4.58
566.716	4.47
567.058	4.59
567.399	4.51
567.741	4.66
568.082	4.68
568.423	4.42
568.764	4.59
569.105	4.58
569.447	4.55
569.788	4.54
570.129	4.48
570.47	4.61
570.811	4.49
571.151	4.57
571.492	4.45
571.833	4.57
572.174	4.72
572.514	4.48
572.855	4.65
573.195	4.41
573.536	4.6
573.876	4.42
574.217	4.46
574.557	4.52
574.898	4.43
575.238	4.56
575.578	4.61
575.918	4.68
576.258	4.61
576.598	4.53
576.938	4.49
577.278	4.49
577.618	4.51
577.958	4.66
578.298	4.57
578.638	4.27
578.977	4.46
579.317	4.65
579.657	4.54
579.996	4.69
580.336	4.58
580.675	4.41
581.014	4.66
581.354	4.29
581.693	4.41
582.032	4.67
582.372	4.53
582.711	4.62
583.05	4.74
583.389	4.72
583.728	4.92
584.067	4.37
584.406	4.45
584.745	4.52
585.083	4.64
585.422	4.57
585.761	4.73
586.1	4.65
586.438	4.39
586.777	4.6
587.115	4.69
587.454	4.5
587.792	4.46
588.13	4.62
588.469	4.53
588.807	4.66
589.145	4.61
589.483	4.37
589.821	4.7
590.159	4.43
590.497	4.43
590.835	4.62
591.173	4.66
591.511	4.82
591.849	4.47
592.187	4.4
592.524	4.66
592.862	4.52
593.2	4.62
593.537	4.38
593.875	4.25
594.212	4.57
594.55	4.44
594.887	4.33
595.224	4.59
595.561	4.54
595.899	4.44
596.236	4.62
596.573	4.42
596.91	4.47
597.247	4.62
597.584	4.57
597.921	4.56
598.258	4.67
598.594	4.43
598.931	4.27
599.268	4.2
599.604	4.43
599.941	4.48
600.277	4.58
600.614	4.47
600.95	4.28
601.287	4.07
601.623	4.25
601.959	4.6
602.296	4.68
602.632	4.42
602.968	4.6
603.304	4.85
603.64	4.45
603.976	4.44
604.312	4.4
604.648	4.34
604.984	4.48
605.319	4.52
605.655	4.59
605.991	4.5
606.326	4.47
606.662	4.44
606.998	4.55
607.333	4.44
607.668	4.37
608.004	4.48
608.339	4.32
608.674	4.42
609.01	4.87
609.345	4.49
609.68	4.32
610.015	4.71
610.35	4.57
610.685	4.36
611.02	4.55
611.355	4.53
611.689	4.42
612.024	4.59
612.359	4.55
612.694	4.41
613.028	4.43
613.363	4.56
613.697	4.31
614.032	4.47
614.366	4.37
614.7	4.39
615.035	4.42
615.369	4.64
615.703	4.54
616.037	4.63
616.371	4.34
616.705	4.62
617.039	4.52
617.373	4.68
617.707	4.55
618.041	4.2
618.375	4.15
618.709	4.33
619.042	4.32
619.376	4.23
619.71	4.41
620.043	4.48
620.377	4.45
620.71	4.21
621.043	4.61
621.377	4.55
621.71	4.73
622.043	4.45
622.376	4.42
622.709	4.81
623.043	4.37
623.376	4.26
623.709	4.61
624.041	4.37
624.374	4.42
624.707	4.39
625.04	4.4
625.373	4.39
625.705	4.62
626.038	4.59
626.37	4.4
626.703	4.53
627.035	4.59
627.368	4.79
627.7	4.66
628.032	4.26
628.365	4.67
628.697	4.71
629.029	4.51
629.361	4.77
629.693	4.42
630.025	4.4
630.357	4.65
630.689	4.76
631.021	4.54
631.353	4.81
631.684	4.16
632.016	4.05
632.348	4.49
632.679	4.42
633.011	4.36
633.342	4.71
633.674	4.24
634.005	4.68
634.336	4.72
634.668	4.55
634.999	4.54
635.33	4.21
635.661	4.39
635.992	4.7
636.323	4.46
636.654	4.41
636.985	4.27
637.316	4.33
637.647	4.49
637.977	4.31
638.308	4.51
638.639	4.63
638.969	4.24
639.3	4.48
639.63	4.38
639.961	4.71
640.291	4.33
640.622	4.77
640.952	4.79
641.282	4.19
641.612	4.7
641.943	4.12
642.273	4.41
642.603	4.58
642.933	4.8
643.263	4.51
643.592	4.75
643.922	4.8
644.252	4.56
644.582	4.71
644.911	4.48
645.241	4.34
645.571	4.73
645.9	4.44
646.23	4.51
646.559	4.36
646.888	4.84
647.218	4.48
647.547	4.52
647.876	4.47
648.205	4.18
648.534	4.57
648.863	4.42
649.192	4.36
649.521	4.21
649.85	4.52
650.179	4.45
650.508	4.52
650.837	4.52
651.165	4.68
651.494	4.45
651.822	4.75
652.151	4.26
652.479	4.46
652.808	4.57
653.136	4.28
653.465	4.52
653.793	4.47
654.121	4.57
654.449	4.46
654.777	3.98
655.105	4.43
655.433	4.39
655.761	4.36
656.089	4.39
656.417	4.6
656.745	4.86
657.073	4.45
657.4	4.29
657.728	3.94
658.056	4.08
658.383	4.55
658.711	4.93
659.038	4.87
659.365	4.83
659.693	4.34
660.02	4.43
660.347	4.33
660.674	4.14
661.001	4.41
661.329	4.21
661.656	4.02
661.982	4.35
662.309	4.45
662.636	4.54
662.963	4.48
663.29	4.63
663.616	4.34
663.943	4.37
664.27	4.71
664.596	4.24
664.923	4.77
665.249	4.7
665.576	4.5
665.902	4.58
666.228	4.8
666.554	4.52
666.881	3.8
667.207	4.62
667.533	4.45
667.859	4.13
668.185	4.4
668.511	4.37
668.837	4.39
669.162	4.04
669.488	3.51
669.814	4.59
670.139	3.87
670.465	4.48
670.791	4
671.116	4.17
671.442	3.44
671.767	4.43
672.092	4.16
672.418	4.78
672.743	4.1
673.068	4.48
673.393	4.14
673.718	4.23
674.043	4.27
674.368	4.35
674.693	4.68
675.018	4.28
675.343	4.41
675.667	4.73
675.992	4.58
676.317	3.98
676.641	4.81
676.966	4.91
677.29	3.6
677.615	4.42
677.939	5.13
678.264	4.22
678.588	4.71
678.912	4.66
679.236	4.7
679.56	3.96
679.885	4.67
680.209	4.12
680.532	5.1
680.856	4.67
681.18	5.07
681.504	4.48
681.828	4.45
682.152	4.2
682.475	4.39
682.799	4.27
683.122	4.53
683.446	3.68
683.769	4.83
684.093	4.72
684.416	3.85
684.739	4.02
685.062	4.55
685.386	4.5
685.709	4.21
686.032	4.9
686.355	4.49
686.678	4.42
687.001	4.46
687.324	4.5
687.646	4.56
687.969	4.37
688.292	4.35
688.614	4.21
688.937	5.03
689.26	4.51
689.582	5.14
689.904	4.76
690.227	4.69
690.549	4.69
690.871	3.87
691.194	3.97
691.516	4.13
691.838	4.13
