Data from 0002_crown_Reflection__1__277.txt Node

Date: Thu Dec 15 18:54:26 CST 2022
User: ToomeyLab
Spectrometer: FLMS14357
Trigger mode: 0
Integration Time (sec): 1.000000E-2
Scans to average: 100
Electric dark correction enabled: true
Nonlinearity correction enabled: false
Boxcar width: 0
XAxis mode: Wavelengths
Number of Pixels in Spectrum: 2048
>>>>>Begin Spectral Data<<<<<
189.047	-145.84
189.435	-145.84
189.823	-145.84
190.211	-293.69
190.599	68.37
190.987	-27.79
191.375	-97.39
191.763	266.53
192.151	-23.07
192.538	-18.61
192.926	106.57
193.314	91.24
193.702	7000
194.089	9.73
194.477	-105.96
194.864	163.41
195.252	-111.11
195.639	84.43
196.027	74.12
196.414	167.45
196.801	-4.66
197.189	285.49
197.576	-47.13
197.963	-1383.89
198.351	-3.77
198.738	-63.22
199.125	-34.46
199.512	16.95
199.899	-36.53
200.286	-17.52
200.673	19.38
201.06	9.36
201.447	13.88
201.833	-15.69
202.22	14.64
202.607	-11.93
202.994	9.77
203.38	1.02
203.767	5.08
204.154	35.26
204.54	4.07
204.927	14.7
205.313	35
205.699	16.78
206.086	22.19
206.472	32.5
206.858	-6.31
207.245	-3.13
207.631	-29.57
208.017	37.06
208.403	-67.57
208.789	4.15
209.175	-38.58
209.561	-220.41
209.947	-35.67
210.333	-2.92
210.719	0.43
211.105	26.34
211.491	0.18
211.876	-75.98
212.262	6.72
212.648	-14.42
213.034	-40.53
213.419	-19.19
213.805	-10.91
214.19	-46.31
214.576	-43.44
214.961	-9.36
215.346	-40.67
215.732	-30.41
216.117	-3.43
216.502	-13.45
216.888	-25.86
217.273	-30.75
217.658	-2.2
218.043	-29.1
218.428	-12.88
218.813	-9.56
219.198	-53.79
219.583	-15.52
219.968	-1.67
220.353	-38.01
220.738	12.98
221.122	1.89
221.507	-10.88
221.892	-20.86
222.276	-24.98
222.661	-2.24
223.046	-5.65
223.43	6.82
223.815	-7.22
224.199	-14.23
224.583	-3.45
224.968	-18.36
225.352	-7.56
225.736	6.02
226.121	-12.65
226.505	-2.72
226.889	0.71
227.273	-11.81
227.657	1.3
228.041	2.09
228.425	-0.98
228.809	1.65
229.193	3.72
229.577	3.38
229.961	3.57
230.344	3.9
230.728	4.78
231.112	4.61
231.495	3.03
231.879	2.18
232.263	3.37
232.646	2.4
233.03	4.02
233.413	2.89
233.797	1.92
234.18	3.71
234.563	3.6
234.946	4.05
235.33	1.81
235.713	3.06
236.096	5.26
236.479	5.41
236.862	2.03
237.245	2.23
237.628	4.22
238.011	4.31
238.394	2.7
238.777	2.24
239.16	6.56
239.543	3.07
239.925	3.17
240.308	-0.25
240.691	2.89
241.073	2.54
241.456	2.82
241.838	4.42
242.221	3.14
242.603	4.01
242.986	3.82
243.368	3.88
243.75	4.53
244.133	4.35
244.515	3.77
244.897	3.58
245.279	4.45
245.661	2.9
246.043	4.02
246.425	3.5
246.807	3.07
247.189	3.82
247.571	3.5
247.953	3.68
248.335	3.95
248.717	4.1
249.098	4.23
249.48	3.85
249.862	3.69
250.243	3.92
250.625	3.84
251.006	4.3
251.388	4.16
251.769	2.45
252.151	3.38
252.532	3.14
252.913	3.64
253.295	3.05
253.676	3.79
254.057	3.6
254.438	4.12
254.819	2.93
255.2	4.14
255.581	3.92
255.962	3.77
256.343	3.34
256.724	4.13
257.105	3.2
257.486	2.95
257.867	3.53
258.247	3.7
258.628	3.65
259.009	2.64
259.389	2.53
259.77	3.44
260.15	4.12
260.531	3.65
260.911	3.61
261.292	3.36
261.672	3.66
262.052	3.55
262.432	3.15
262.813	3.14
263.193	3.31
263.573	3.38
263.953	2.75
264.333	3.21
264.713	2.82
265.093	2.66
265.473	2.91
265.853	3.26
266.233	3.49
266.612	2.72
266.992	3.35
267.372	3.42
267.752	4.11
268.131	3.33
268.511	3.44
268.89	3.66
269.27	2.91
269.649	2.78
270.029	3.52
270.408	2.95
270.787	3.81
271.167	3.63
271.546	3.71
271.925	3.42
272.304	3.05
272.683	2.81
273.062	3.18
273.441	3.08
273.82	3.32
274.199	2.84
274.578	3.3
274.957	3.19
275.336	3.34
275.715	3.64
276.093	3.22
276.472	3.23
276.851	3.43
277.229	3.19
277.608	2.3
277.986	3.1
278.365	3.77
278.743	3.1
279.122	2.89
279.5	2.98
279.878	2.33
280.257	2.5
280.635	3.44
281.013	2.79
281.391	2.47
281.769	3.4
282.147	2.39
282.525	2.83
282.903	2.88
283.281	3.36
283.659	2.87
284.037	2.56
284.415	2.77
284.792	3.56
285.17	2.68
285.548	2.93
285.925	2.88
286.303	3.69
286.68	2.98
287.058	3.51
287.435	2.87
287.813	2.79
288.19	2.72
288.567	3
288.945	2.69
289.322	2.74
289.699	2.98
290.076	2.88
290.453	2.7
290.83	2.91
291.207	2.73
291.584	2.94
291.961	3.21
292.338	2.56
292.715	2.49
293.092	3.28
293.469	2.5
293.845	3.03
294.222	2.83
294.599	2.59
294.975	2.61
295.352	3.17
295.728	2.98
296.105	2.54
296.481	2.96
296.858	2.76
297.234	2.57
297.61	2.76
297.986	3.15
298.363	3.04
298.739	2.92
299.115	2.79
299.491	3.12
299.867	2.67
300.243	2.55
300.619	2.18
300.995	2.59
301.371	3.04
301.746	2.74
302.122	2.37
302.498	2.56
302.874	2.63
303.249	2.4
303.625	2.3
304	2.94
304.376	2.96
304.751	2.63
305.127	2.22
305.502	2.85
305.878	2.86
306.253	2.09
306.628	2.53
307.003	2.66
307.378	2.53
307.754	2.67
308.129	2.39
308.504	2.67
308.879	2.44
309.254	2.66
309.629	2.51
310.003	2.25
310.378	2.98
310.753	2.67
311.128	2.36
311.502	2.37
311.877	2.12
312.252	2.47
312.626	2.95
313.001	2.66
313.375	2.38
313.75	2.67
314.124	2.91
314.498	3.21
314.873	2.37
315.247	2.49
315.621	2.49
315.995	2.46
316.369	2.63
316.743	2.25
317.117	2.56
317.491	3
317.865	2.19
318.239	3.06
318.613	2.47
318.987	2.03
319.361	2.49
319.734	2.45
320.108	2.58
320.482	2.9
320.855	2.52
321.229	2.22
321.602	2.02
321.976	2.22
322.349	2.72
322.723	2.92
323.096	2.63
323.469	2.39
323.843	2.15
324.216	2.05
324.589	2.29
324.962	2.32
325.335	2.47
325.708	2.65
326.081	2.62
326.454	2.93
326.827	2.44
327.2	2.16
327.573	3.16
327.945	2.25
328.318	2.43
328.691	2.53
329.063	1.98
329.436	2.09
329.809	2.62
330.181	2.57
330.553	2.58
330.926	2.71
331.298	2.27
331.671	2.75
332.043	2.2
332.415	2.41
332.787	2.82
333.159	2.26
333.532	2.45
333.904	3.06
334.276	2.57
334.648	2.5
335.02	2.37
335.391	2.32
335.763	2.27
336.135	3.13
336.507	2.11
336.879	2.03
337.25	2.27
337.622	2.78
337.993	2.36
338.365	2.84
338.736	1.92
339.108	2.51
339.479	2.61
339.851	2.9
340.222	2.79
340.593	2.4
340.964	2.26
341.336	2.32
341.707	2.46
342.078	2.46
342.449	2.5
342.82	2.45
343.191	2.16
343.562	2.55
343.933	2.56
344.303	2.87
344.674	2.44
345.045	2.43
345.416	2.94
345.786	2.65
346.157	2.88
346.527	2.32
346.898	2.44
347.268	2.32
347.639	2.65
348.009	2.85
348.38	2.4
348.75	2.94
349.12	2.74
349.49	2.84
349.861	2.86
350.231	2.59
350.601	2.77
350.971	2.5
351.341	2.63
351.711	2.57
352.081	2.64
352.45	2.32
352.82	2.15
353.19	2.36
353.56	2.49
353.929	2.86
354.299	3.01
354.669	2.62
355.038	2.73
355.408	2.75
355.777	2.68
356.147	2.89
356.516	2.67
356.885	2.34
357.254	2.64
357.624	2.53
357.993	3.02
358.362	2.86
358.731	3.11
359.1	2.43
359.469	2.73
359.838	2.88
360.207	2.58
360.576	2.95
360.945	2.88
361.314	2.86
361.682	2.67
362.051	2.64
362.42	2.84
362.788	2.85
363.157	2.89
363.525	2.82
363.894	2.58
364.262	2.73
364.631	3.03
364.999	2.81
365.367	2.75
365.735	2.65
366.104	2.8
366.472	2.71
366.84	2.76
367.208	3.12
367.576	3.1
367.944	2.73
368.312	2.57
368.68	3.31
369.048	2.66
369.416	2.51
369.783	2.73
370.151	3.25
370.519	3.08
370.886	2.97
371.254	3
371.621	3.13
371.989	3.04
372.356	3.08
372.724	2.78
373.091	2.8
373.458	2.81
373.826	3.07
374.193	2.78
374.56	3.26
374.927	2.59
375.294	3.05
375.661	2.78
376.028	2.56
376.395	3.05
376.762	2.71
377.129	2.89
377.496	3.04
377.863	2.98
378.229	3.15
378.596	3.25
378.963	3.1
379.329	3.1
379.696	2.88
380.062	2.86
380.429	2.68
380.795	3.22
381.161	2.99
381.528	2.58
381.894	2.82
382.26	3.15
382.626	3.08
382.993	3.3
383.359	2.8
383.725	2.68
384.091	3.29
384.457	2.61
384.823	3.07
385.188	3.2
385.554	2.97
385.92	2.86
386.286	2.89
386.651	2.93
387.017	3.27
387.383	2.95
387.748	3.06
388.114	3.09
388.479	2.69
388.845	2.84
389.21	3.2
389.575	3.37
389.94	3.32
390.306	3
390.671	3.18
391.036	2.92
391.401	3.07
391.766	2.97
392.131	3.42
392.496	3.1
392.861	2.94
393.226	2.92
393.591	3.1
393.956	3.06
394.32	3.18
394.685	3
395.05	3.24
395.414	3.21
395.779	3.26
396.143	3.12
396.508	3.1
396.872	3.1
397.236	3.46
397.601	3.36
397.965	3.25
398.329	3.1
398.694	3.1
399.058	3.18
399.422	3.14
399.786	3.15
400.15	3.06
400.514	3.22
400.878	2.99
401.242	3.17
401.605	2.99
401.969	3.04
402.333	2.96
402.697	3.62
403.06	3.07
403.424	3.3
403.787	3.2
404.151	3.26
404.514	3.24
404.878	3
405.241	3.1
405.604	3.09
405.968	3.44
406.331	3.37
406.694	3.17
407.057	3.26
407.42	3.25
407.783	3.37
408.146	3.08
408.509	3.37
408.872	3.11
409.235	3.32
409.598	3.27
409.961	3.29
410.323	3.29
410.686	3.25
411.049	3.36
411.411	3.27
411.774	3.26
412.136	3.3
412.499	3.34
412.861	3
413.223	3.15
413.586	3.44
413.948	3.23
414.31	3.44
414.672	3.24
415.035	3.43
415.397	3.09
415.759	2.99
416.121	3.49
416.483	3.4
416.845	3.44
417.206	3.24
417.568	3.14
417.93	3.44
418.292	3.17
418.653	3.14
419.015	3.3
419.377	3.2
419.738	3.27
420.1	3.25
420.461	3.17
420.822	3.29
421.184	3.26
421.545	3.38
421.906	3.31
422.267	3.19
422.629	3.18
422.99	3.26
423.351	3.22
423.712	3.3
424.073	3.32
424.434	3.32
424.795	3.25
425.155	3.1
425.516	3.21
425.877	3.25
426.238	3.19
426.598	3.27
426.959	3.36
427.32	3.25
427.68	3.29
428.041	3.38
428.401	3.22
428.761	3.36
429.122	3.38
429.482	3.19
429.842	3.27
430.202	3.3
430.563	3.25
430.923	3.29
431.283	3.38
431.643	3.42
432.003	3.31
432.363	3.38
432.722	3.38
433.082	3.3
433.442	3.51
433.802	3.28
434.161	3.29
434.521	3.33
434.881	3.2
435.24	3.27
435.6	3.35
435.959	3.4
436.319	3.29
436.678	3.42
437.037	3.14
437.396	3.29
437.756	3.28
438.115	3.33
438.474	3.32
438.833	3.37
439.192	3.3
439.551	3.26
439.91	3.39
440.269	3.35
440.628	3.28
440.987	3.38
441.345	3.27
441.704	3.3
442.063	3.31
442.421	3.35
442.78	3.34
443.138	3.32
443.497	3.25
443.855	3.43
444.214	3.31
444.572	3.56
444.93	3.24
445.288	3.52
445.647	3.31
446.005	3.37
446.363	3.33
446.721	3.42
447.079	3.29
447.437	3.42
447.795	3.32
448.153	3.23
448.51	3.33
448.868	3.25
449.226	3.33
449.584	3.26
449.941	3.26
450.299	3.32
450.656	3.41
451.014	3.39
451.371	3.41
451.729	3.28
452.086	3.42
452.443	3.31
452.801	3.26
453.158	3.53
453.515	3.19
453.872	3.46
454.229	3.17
454.586	3.19
454.943	3.38
455.3	3.42
455.657	3.41
456.014	3.41
456.371	3.39
456.727	3.31
457.084	3.41
457.441	3.32
457.797	3.33
458.154	3.39
458.51	3.2
458.867	3.34
459.223	3.29
459.58	3.32
459.936	3.23
460.292	3.2
460.648	3.31
461.005	3.23
461.361	3.3
461.717	3.31
462.073	3.41
462.429	3.42
462.785	3.48
463.141	3.47
463.496	3.39
463.852	3.47
464.208	3.29
464.564	3.45
464.919	3.47
465.275	3.36
465.631	3.55
465.986	3.44
466.342	3.42
466.697	3.33
467.052	3.53
467.408	3.45
467.763	3.44
468.118	3.3
468.473	3.35
468.829	3.33
469.184	3.34
469.539	3.26
469.894	3.32
470.249	3.44
470.603	3.56
470.958	3.5
471.313	3.48
471.668	3.48
472.023	3.61
472.377	3.38
472.732	3.5
473.086	3.44
473.441	3.29
473.795	3.59
474.15	3.36
474.504	3.24
474.859	3.2
475.213	3.44
475.567	3.36
475.921	3.51
476.275	3.48
476.63	3.41
476.984	3.37
477.338	3.55
477.692	3.45
478.045	3.51
478.399	3.39
478.753	3.39
479.107	3.25
479.461	3.4
479.814	3.4
480.168	3.46
480.521	3.52
480.875	3.41
481.228	3.27
481.582	3.52
481.935	3.52
482.289	3.48
482.642	3.42
482.995	3.49
483.348	3.34
483.701	3.47
484.055	3.37
484.408	3.28
484.761	3.27
485.114	3.21
485.466	3.13
485.819	3.15
486.172	3.23
486.525	3.3
486.878	3.38
487.23	3.35
487.583	3.38
487.936	3.34
488.288	3.33
488.641	3.29
488.993	3.25
489.345	3.2
489.698	3.27
490.05	3.29
490.402	3.29
490.754	3.32
491.107	3.31
491.459	3.45
491.811	3.34
492.163	3.33
492.515	3.28
492.866	3.22
493.218	3.26
493.57	3.33
493.922	3.31
494.274	3.45
494.625	3.46
494.977	3.41
495.328	3.5
495.68	3.49
496.031	3.37
496.383	3.47
496.734	3.4
497.086	3.48
497.437	3.52
497.788	3.51
498.139	3.38
498.49	3.4
498.842	3.61
499.193	3.36
499.544	3.45
499.894	3.35
500.245	3.46
500.596	3.45
500.947	3.34
501.298	3.43
501.648	3.45
501.999	3.49
502.35	3.37
502.7	3.62
503.051	3.39
503.401	3.53
503.752	3.38
504.102	3.5
504.452	3.35
504.803	3.43
505.153	3.46
505.503	3.54
505.853	3.51
506.203	3.56
506.553	3.35
506.903	3.53
507.253	3.48
507.603	3.5
507.953	3.42
508.303	3.52
508.652	3.39
509.002	3.52
509.352	3.57
509.701	3.34
510.051	3.6
510.4	3.44
510.75	3.41
511.099	3.35
511.449	3.47
511.798	3.48
512.147	3.37
512.496	3.48
512.846	3.37
513.195	3.38
513.544	3.61
513.893	3.44
514.242	3.47
514.591	3.46
514.939	3.54
515.288	3.43
515.637	3.53
515.986	3.5
516.334	3.43
516.683	3.55
517.032	3.5
517.38	3.33
517.729	3.53
518.077	3.4
518.426	3.48
518.774	3.42
519.122	3.42
519.47	3.43
519.819	3.38
520.167	3.36
520.515	3.4
520.863	3.4
521.211	3.4
521.559	3.34
521.907	3.47
522.255	3.42
522.602	3.45
522.95	3.56
523.298	3.49
523.645	3.44
523.993	3.49
524.341	3.5
524.688	3.45
525.036	3.39
525.383	3.38
525.73	3.42
526.078	3.47
526.425	3.37
526.772	3.43
527.119	3.37
527.466	3.45
527.814	3.42
528.161	3.46
528.508	3.49
528.854	3.38
529.201	3.36
529.548	3.32
529.895	3.22
530.242	3.25
530.588	3.27
530.935	3.32
531.282	3.32
531.628	3.37
531.975	3.35
532.321	3.44
532.667	3.47
533.014	3.51
533.36	3.45
533.706	3.37
534.052	3.51
534.399	3.39
534.745	3.34
535.091	3.29
535.437	3.34
535.783	3.35
536.129	3.47
536.474	3.51
536.82	3.49
537.166	3.33
537.512	3.41
537.857	3.39
538.203	3.39
538.549	3.32
538.894	3.37
539.239	3.43
539.585	3.42
539.93	3.48
540.276	3.47
540.621	3.57
540.966	3.45
541.311	3.57
541.656	3.39
542.001	3.37
542.346	3.44
542.691	3.28
543.036	3.27
543.381	3.32
543.726	3.39
544.071	3.37
544.415	3.4
544.76	3.38
545.105	3.33
545.449	3.5
545.794	3.42
546.138	3.47
546.483	3.56
546.827	3.5
547.171	3.51
547.516	3.57
547.86	3.48
548.204	3.46
548.548	3.37
548.892	3.49
549.236	3.44
549.58	3.56
549.924	3.56
550.268	3.55
550.612	3.41
550.956	3.65
551.3	3.67
551.643	3.51
551.987	3.59
552.33	3.69
552.674	3.49
553.017	3.56
553.361	3.5
553.704	3.55
554.048	3.41
554.391	3.62
554.734	3.57
555.077	3.46
555.42	3.53
555.764	3.48
556.107	3.58
556.45	3.62
556.793	3.53
557.135	3.57
557.478	3.48
557.821	3.49
558.164	3.68
558.507	3.4
558.849	3.69
559.192	3.53
559.534	3.53
559.877	3.47
560.219	3.43
560.562	3.48
560.904	3.72
561.246	3.53
561.589	3.73
561.931	3.39
562.273	3.45
562.615	3.42
562.957	3.43
563.299	3.52
563.641	3.43
563.983	3.43
564.325	3.52
564.667	3.53
565.008	3.33
565.35	3.53
565.692	3.34
566.033	3.44
566.375	3.35
566.716	3.42
567.058	3.56
567.399	3.4
567.741	3.41
568.082	3.61
568.423	3.44
568.764	3.44
569.105	3.33
569.447	3.49
569.788	3.5
570.129	3.43
570.47	3.56
570.811	3.47
571.151	3.54
571.492	3.47
571.833	3.44
572.174	3.54
572.514	3.55
572.855	3.48
573.195	3.36
573.536	3.51
573.876	3.4
574.217	3.45
574.557	3.5
574.898	3.45
575.238	3.55
575.578	3.57
575.918	3.52
576.258	3.75
576.598	3.39
576.938	3.37
577.278	3.49
577.618	3.48
577.958	3.42
578.298	3.59
578.638	3.48
578.977	3.53
579.317	3.57
579.657	3.61
579.996	3.57
580.336	3.66
580.675	3.45
581.014	3.56
581.354	3.3
581.693	3.61
582.032	3.62
582.372	3.41
582.711	3.62
583.05	3.44
583.389	3.54
583.728	3.54
584.067	3.5
584.406	3.68
584.745	3.44
585.083	3.62
585.422	3.59
585.761	3.6
586.1	3.64
586.438	3.46
586.777	3.32
587.115	3.67
587.454	3.24
587.792	3.54
588.13	3.45
588.469	3.46
588.807	3.47
589.145	3.63
589.483	3.26
589.821	3.53
590.159	3.53
590.497	3.47
590.835	3.56
591.173	3.55
591.511	3.82
591.849	3.65
592.187	3.42
592.524	3.54
592.862	3.29
593.2	3.57
593.537	3.43
593.875	3.25
594.212	3.41
594.55	3.56
594.887	3.4
595.224	3.54
595.561	3.43
595.899	3.54
596.236	3.61
596.573	3.44
596.91	3.44
597.247	3.43
597.584	3.5
597.921	3.32
598.258	3.57
598.594	3.38
598.931	3.3
599.268	3.47
599.604	3.72
599.941	3.49
600.277	3.44
600.614	3.36
600.95	3.51
601.287	3.41
601.623	3.14
601.959	3.65
602.296	3.44
602.632	3.44
602.968	3.35
603.304	3.43
603.64	3.45
603.976	3.26
604.312	3.44
604.648	3.32
604.984	3.45
605.319	3.42
605.655	3.38
605.991	3.39
606.326	3.47
606.662	3.3
606.998	3.62
607.333	3.55
607.668	3.22
608.004	3.38
608.339	3.34
608.674	3.61
609.01	3.69
609.345	3.69
609.68	3.31
610.015	3.55
610.35	3.46
610.685	3.14
611.02	3.19
611.355	3.33
611.689	3.45
612.024	3.51
612.359	3.47
612.694	3.49
613.028	3.42
613.363	3.45
613.697	3.24
614.032	3.52
614.366	3.45
614.7	3.23
615.035	3.47
615.369	3.57
615.703	3.43
616.037	3.22
616.371	3.61
616.705	3.54
617.039	3.56
617.373	3.8
617.707	3.4
618.041	3.37
618.375	2.84
618.709	3.44
619.042	3.44
619.376	3.71
619.71	3.57
620.043	3.78
620.377	3.64
620.71	3.36
621.043	3.61
621.377	3.71
621.71	3.69
622.043	3.68
622.376	3.36
622.709	3.85
623.043	3.08
623.376	3.4
623.709	3.34
624.041	3.32
624.374	3.29
624.707	3.52
625.04	3.18
625.373	3.57
625.705	3.4
626.038	3.43
626.37	3.23
626.703	3.21
627.035	3.6
627.368	3.88
627.7	3.43
628.032	3.41
628.365	3.6
628.697	3.48
629.029	3.39
629.361	3.53
629.693	3.56
630.025	3.58
630.357	3.54
630.689	3.26
631.021	3.45
631.353	3.62
631.684	3.32
632.016	3.6
632.348	3.36
632.679	3.47
633.011	3.32
633.342	3.59
633.674	3.34
634.005	3.37
634.336	3.51
634.668	3.55
634.999	3.18
635.33	3.57
635.661	3.16
635.992	3.42
636.323	3.59
636.654	3.4
636.985	3.48
637.316	3.25
637.647	3.67
637.977	3.27
638.308	3.27
638.639	3.22
638.969	3.55
639.3	3.54
639.63	3.32
639.961	3.48
640.291	3.3
640.622	3.8
640.952	3.51
641.282	3.32
641.612	3.34
641.943	2.75
642.273	3.16
642.603	3.66
642.933	3.83
643.263	3.16
643.592	3.71
643.922	3.82
644.252	3.69
644.582	3.5
644.911	3.29
645.241	3.45
645.571	3.48
645.9	3.78
646.23	3.67
646.559	3.29
646.888	3.71
647.218	3.24
647.547	3.45
647.876	3.53
648.205	3.34
648.534	3.52
648.863	3.29
649.192	3.28
649.521	3.87
649.85	3.52
650.179	3.7
650.508	3.18
650.837	3.6
651.165	3.53
651.494	3.49
651.822	3.87
652.151	3.21
652.479	3.6
652.808	3.68
653.136	3.16
653.465	3.37
653.793	3.48
654.121	3.58
654.449	3.2
654.777	3.45
655.105	3.19
655.433	3.66
655.761	3.11
656.089	3.45
656.417	3.89
656.745	3.48
657.073	3.28
657.4	3.24
657.728	3.27
658.056	3.2
658.383	3.2
658.711	3.14
659.038	3.52
659.365	3.59
659.693	3.53
660.02	3.23
660.347	3.15
660.674	3.31
661.001	3.21
661.329	3.25
661.656	3.04
661.982	3.16
662.309	3.23
662.636	3.49
662.963	3.48
663.29	3.52
663.616	3.32
663.943	3.44
664.27	3.56
664.596	3.56
664.923	3.5
665.249	3.7
665.576	3.07
665.902	3.02
666.228	3.51
666.554	3.37
666.881	3.14
667.207	3.34
667.533	3.68
667.859	3.45
668.185	3.45
668.511	3.42
668.837	3.74
669.162	3.65
669.488	2.51
669.814	3.32
670.139	2.4
670.465	4.03
670.791	2.9
671.116	3.25
671.442	3.04
671.767	3.18
672.092	3.31
672.418	3.85
672.743	3.38
673.068	3.09
673.393	3.37
673.718	3.18
674.043	2.92
674.368	3.14
674.693	3.45
675.018	3.85
675.343	3.62
675.667	3.28
675.992	3.36
676.317	2.78
676.641	3.77
676.966	3.57
677.29	3.02
677.615	3.52
677.939	3.86
678.264	3.31
678.588	3.32
678.912	2.82
679.236	3.31
679.56	3.15
679.885	3.13
680.209	4.01
680.532	3.64
680.856	3.4
681.18	4.08
681.504	3.86
681.828	3.14
682.152	3.21
682.475	3.75
682.799	3.03
683.122	3.34
683.446	2.5
683.769	3.59
684.093	3.66
684.416	3.48
684.739	3.29
685.062	3.91
685.386	3.66
685.709	3.49
686.032	3.55
686.355	3.22
686.678	3.64
687.001	3.49
687.324	3.42
687.646	3.36
687.969	3.75
688.292	3.64
688.614	3.52
688.937	3.55
689.26	3.48
689.582	3.44
689.904	3.33
690.227	3.82
690.549	4.14
690.871	3.52
691.194	2.81
691.516	3.24
691.838	3.53
