Data from 0002_forehead_Reflection__3__284.txt Node

Date: Thu Dec 15 18:55:57 CST 2022
User: ToomeyLab
Spectrometer: FLMS14357
Trigger mode: 0
Integration Time (sec): 1.000000E-2
Scans to average: 100
Electric dark correction enabled: true
Nonlinearity correction enabled: false
Boxcar width: 0
XAxis mode: Wavelengths
Number of Pixels in Spectrum: 2048
>>>>>Begin Spectral Data<<<<<
189.047	136.65
189.435	136.65
189.823	136.65
190.211	830.18
190.599	65.97
190.987	-13.01
191.375	-241.69
191.763	-156.01
192.151	-113.94
192.538	11.38
192.926	191.9
193.314	81.61
193.702	-20483.33
194.089	-40.19
194.477	-20.21
194.864	50.88
195.252	63.99
195.639	79.11
196.027	126.7
196.414	94.69
196.801	135.42
197.189	280.3
197.576	-0.19
197.963	-441.28
198.351	24.6
198.738	-4.17
199.125	-15.06
199.512	22.6
199.899	-51.19
200.286	-27.26
200.673	53.62
201.06	22.56
201.447	4.19
201.833	10.72
202.22	7.37
202.607	7.99
202.994	3.32
203.38	17.09
203.767	16.69
204.154	78.42
204.54	12.36
204.927	-21.66
205.313	49.04
205.699	22.37
206.086	19.66
206.472	5.97
206.858	16.24
207.245	14.24
207.631	-5.88
208.017	50
208.403	23.32
208.789	17.81
209.175	17.22
209.561	-172.02
209.947	-13.66
210.333	21.24
210.719	13.04
211.105	8.18
211.491	49.88
211.876	-5.51
212.262	21.26
212.648	29.51
213.034	1.86
213.419	34.45
213.805	-28.59
214.19	-1.07
214.576	-0.16
214.961	9.22
215.346	-3.61
215.732	14.63
216.117	8.17
216.502	5.93
216.888	5.87
217.273	5.95
217.658	-5.84
218.043	-23.65
218.428	-19.23
218.813	6.97
219.198	-17.78
219.583	21.14
219.968	7.54
220.353	-20.59
220.738	14.08
221.122	3.28
221.507	3.69
221.892	-27.74
222.276	-32.88
222.661	-18.09
223.046	-34.9
223.43	10.34
223.815	-1.32
224.199	-8.28
224.583	-12.26
224.968	4.27
225.352	-10.75
225.736	8.78
226.121	6.76
226.505	-1.91
226.889	1.51
227.273	-7.06
227.657	0.51
228.041	4.62
228.425	-0.21
228.809	-2.58
229.193	2.58
229.577	0.91
229.961	0.73
230.344	2.44
230.728	1.91
231.112	2.52
231.495	0.54
231.879	1.63
232.263	2.05
232.646	0.33
233.03	2.82
233.413	2.3
233.797	0.08
234.18	2.84
234.563	3.27
234.946	-0.29
235.33	0.49
235.713	1.49
236.096	2.05
236.479	2.11
236.862	0.61
237.245	1.39
237.628	1.27
238.011	0.63
238.394	0.61
238.777	1.4
239.16	3.08
239.543	4.72
239.925	0.4
240.308	2.06
240.691	2.07
241.073	0.8
241.456	1.59
241.838	1.46
242.221	1.43
242.603	1.46
242.986	2.12
243.368	1.56
243.75	1.58
244.133	1.94
244.515	1.85
244.897	1.63
245.279	1.34
245.661	1.95
246.043	1.89
246.425	3.17
246.807	1.16
247.189	1.88
247.571	1.7
247.953	1.62
248.335	1.71
248.717	1.75
249.098	1.66
249.48	1.63
249.862	1.66
250.243	1.54
250.625	1.87
251.006	2.81
251.388	1.49
251.769	2.13
252.151	1.85
252.532	2.39
252.913	1.32
253.295	1.93
253.676	2.05
254.057	1.41
254.438	2.15
254.819	2.27
255.2	3.19
255.581	2.86
255.962	2.6
256.343	1.98
256.724	2
257.105	1.14
257.486	1.07
257.867	1.37
258.247	1.77
258.628	1.8
259.009	1.48
259.389	1.17
259.77	1.68
260.15	2.2
260.531	1.52
260.911	1.51
261.292	1.86
261.672	1.91
262.052	1.69
262.432	1.49
262.813	1.84
263.193	1.93
263.573	1.75
263.953	1.18
264.333	2.08
264.713	1.68
265.093	1.34
265.473	1.39
265.853	2.46
266.233	1.59
266.612	1.62
266.992	1.77
267.372	1.95
267.752	2.03
268.131	1.78
268.511	1.77
268.89	2.25
269.27	1.75
269.649	1.73
270.029	1.4
270.408	1.41
270.787	2.38
271.167	2.49
271.546	2.69
271.925	1.85
272.304	1.98
272.683	1.66
273.062	1.45
273.441	1.7
273.82	1.77
274.199	1.39
274.578	1.98
274.957	1.45
275.336	1.77
275.715	2.53
276.093	1.38
276.472	1.62
276.851	2.04
277.229	1.54
277.608	1.61
277.986	1.78
278.365	2.24
278.743	1.49
279.122	1.32
279.5	2.02
279.878	1.85
280.257	1.57
280.635	2.01
281.013	1.29
281.391	2.2
281.769	2.19
282.147	1.84
282.525	1.57
282.903	1.84
283.281	1.93
283.659	2.22
284.037	1.54
284.415	1.88
284.792	1.8
285.17	1.99
285.548	1.77
285.925	1.63
286.303	2.37
286.68	2.06
287.058	2.02
287.435	1.99
287.813	2.01
288.19	1.98
288.567	1.77
288.945	1.81
289.322	2.25
289.699	2.18
290.076	1.75
290.453	1.62
290.83	2.3
291.207	1.67
291.584	2.17
291.961	2.28
292.338	2.08
292.715	2.14
293.092	2.55
293.469	2.09
293.845	2
294.222	2.47
294.599	1.93
294.975	1.92
295.352	2.37
295.728	2.41
296.105	2.41
296.481	2.28
296.858	2.8
297.234	2.61
297.61	2.35
297.986	2.98
298.363	2.85
298.739	2.67
299.115	2.57
299.491	2.76
299.867	2.64
300.243	2.4
300.619	2.59
300.995	2.61
301.371	3.41
301.746	3.04
302.122	2.53
302.498	2.15
302.874	2.64
303.249	2.59
303.625	2.56
304	2.9
304.376	3.31
304.751	3.01
305.127	3.09
305.502	3.26
305.878	3.33
306.253	2.38
306.628	3.31
307.003	2.88
307.378	2.89
307.754	3.15
308.129	3.14
308.504	3.27
308.879	2.66
309.254	3.83
309.629	3.12
310.003	2.87
310.378	3.57
310.753	3.35
311.128	3.13
311.502	3.52
311.877	3.39
312.252	3.39
312.626	3.8
313.001	3.71
313.375	3.54
313.75	3.89
314.124	3.69
314.498	3.92
314.873	3.5
315.247	4.17
315.621	3.84
315.995	3.63
316.369	3.38
316.743	3.6
317.117	3.86
317.491	3.99
317.865	3.62
318.239	3.86
318.613	3.81
318.987	3.66
319.361	4.59
319.734	3.82
320.108	4.58
320.482	4.42
320.855	4.09
321.229	4.42
321.602	4.68
321.976	4.26
322.349	5.22
322.723	4.32
323.096	4.76
323.469	4.62
323.843	3.85
324.216	4.89
324.589	4.64
324.962	4.04
325.335	4.43
325.708	4.83
326.081	4.85
326.454	4.7
326.827	5.1
327.2	5
327.573	5.4
327.945	4.54
328.318	4.56
328.691	5
329.063	4.49
329.436	4.36
329.809	5.37
330.181	5.31
330.553	4.54
330.926	4.96
331.298	5.31
331.671	5.21
332.043	4.85
332.415	5.21
332.787	5.41
333.159	5.33
333.532	5.77
333.904	5.53
334.276	5.48
334.648	5.49
335.02	4.99
335.391	5.42
335.763	5.72
336.135	5.34
336.507	5.17
336.879	5.1
337.25	5.48
337.622	5.86
337.993	5.63
338.365	5.83
338.736	5.62
339.108	5.9
339.479	5.12
339.851	5.74
340.222	5.98
340.593	5.97
340.964	5.61
341.336	5.41
341.707	5.85
342.078	5.24
342.449	6.03
342.82	6.14
343.191	5.68
343.562	6.16
343.933	5.63
344.303	6.37
344.674	6.15
345.045	6.11
345.416	6.39
345.786	5.88
346.157	6.4
346.527	6.29
346.898	6.11
347.268	6.5
347.639	5.85
348.009	6.59
348.38	6.47
348.75	6.54
349.12	6.51
349.49	6.53
349.861	6.75
350.231	6.42
350.601	6.68
350.971	6.55
351.341	6.78
351.711	6.61
352.081	6.57
352.45	6.33
352.82	6.28
353.19	6.36
353.56	6.98
353.929	6.98
354.299	7.14
354.669	7.37
355.038	6.99
355.408	6.76
355.777	7.19
356.147	6.93
356.516	7.01
356.885	7.06
357.254	7
357.624	6.72
357.993	7.06
358.362	7.37
358.731	7.37
359.1	7.19
359.469	7.36
359.838	7.15
360.207	7.3
360.576	7.43
360.945	7.52
361.314	7.39
361.682	7.19
362.051	7.52
362.42	7.28
362.788	7.41
363.157	7.43
363.525	7.57
363.894	7.52
364.262	7.71
364.631	7.84
364.999	7.48
365.367	7.67
365.735	7.5
366.104	7.76
366.472	7.84
366.84	7.46
367.208	7.85
367.576	8.02
367.944	7.89
368.312	7.9
368.68	8.22
369.048	8.1
369.416	7.93
369.783	8.11
370.151	8.25
370.519	8.6
370.886	8.21
371.254	8.44
371.621	8.4
371.989	8.43
372.356	8.23
372.724	7.91
373.091	8.23
373.458	8.26
373.826	8.44
374.193	8.4
374.56	8.84
374.927	8.48
375.294	8.89
375.661	8.58
376.028	8.6
376.395	8.93
376.762	8.32
377.129	8.48
377.496	8.94
377.863	9.05
378.229	8.88
378.596	9.07
378.963	8.98
379.329	8.85
379.696	8.93
380.062	8.99
380.429	8.73
380.795	9.22
381.161	8.77
381.528	8.63
381.894	9.11
382.26	8.95
382.626	9.12
382.993	9.27
383.359	9.33
383.725	9.19
384.091	9.43
384.457	9.11
384.823	9.3
385.188	9.7
385.554	9.55
385.92	9.47
386.286	9.62
386.651	9.47
387.017	9.99
387.383	9.37
387.748	9.57
388.114	9.81
388.479	9.86
388.845	9.91
389.21	9.95
389.575	10.02
389.94	10.06
390.306	10.15
390.671	10.12
391.036	9.83
391.401	10.02
391.766	10.17
392.131	10.32
392.496	10.11
392.861	10.14
393.226	10.11
393.591	10.11
393.956	10.06
394.32	10.12
394.685	10.12
395.05	10.22
395.414	10.2
395.779	10.48
396.143	10.22
396.508	10.37
396.872	10.54
397.236	10.77
397.601	10.64
397.965	10.51
398.329	10.71
398.694	10.39
399.058	10.61
399.422	10.54
399.786	10.5
400.15	10.75
400.514	10.8
400.878	10.98
401.242	10.86
401.605	10.93
401.969	11.06
402.333	10.84
402.697	11.27
403.06	10.94
403.424	11.13
403.787	11.18
404.151	10.97
404.514	10.96
404.878	11.15
405.241	11.1
405.604	11.1
405.968	11.21
406.331	11.39
406.694	11.3
407.057	11.22
407.42	11.25
407.783	11.58
408.146	11.45
408.509	11.71
408.872	11.52
409.235	11.7
409.598	11.66
409.961	11.84
410.323	11.85
410.686	11.67
411.049	11.76
411.411	11.75
411.774	11.72
412.136	11.92
412.499	12.06
412.861	11.62
413.223	11.79
413.586	12.18
413.948	12.21
414.31	12.01
414.672	11.92
415.035	12.08
415.397	12.07
415.759	12.01
416.121	12.28
416.483	12.09
416.845	12.3
417.206	12.22
417.568	12.28
417.93	12.2
418.292	11.99
418.653	12.33
419.015	12.13
419.377	12.28
419.738	12.38
420.1	12.32
420.461	12.28
420.822	12.41
421.184	12.51
421.545	12.43
421.906	12.42
422.267	12.21
422.629	12.25
422.99	12.29
423.351	12.38
423.712	12.43
424.073	12.55
424.434	12.63
424.795	12.47
425.155	12.46
425.516	12.52
425.877	12.58
426.238	12.62
426.598	12.7
426.959	12.88
427.32	12.87
427.68	12.83
428.041	12.99
428.401	13.09
428.761	13.05
429.122	13.23
429.482	13.25
429.842	13.4
430.202	13.4
430.563	13.3
430.923	13.26
431.283	13.48
431.643	13.47
432.003	13.41
432.363	13.61
432.722	13.59
433.082	13.45
433.442	13.66
433.802	13.64
434.161	13.61
434.521	13.61
434.881	13.5
435.24	13.63
435.6	13.62
435.959	13.79
436.319	13.72
436.678	13.89
437.037	13.99
437.396	13.99
437.756	13.87
438.115	13.93
438.474	14.05
438.833	13.98
439.192	14.18
439.551	14.05
439.91	14.17
440.269	13.97
440.628	14.19
440.987	14.09
441.345	14.21
441.704	14.12
442.063	14.13
442.421	14.18
442.78	14.23
443.138	14.22
443.497	14.38
443.855	14.49
444.214	14.39
444.572	14.58
444.93	14.4
445.288	14.59
445.647	14.51
446.005	14.71
446.363	14.65
446.721	14.62
447.079	14.65
447.437	14.58
447.795	14.58
448.153	14.52
448.51	14.64
448.868	14.57
449.226	14.62
449.584	14.76
449.941	14.82
450.299	14.84
450.656	14.97
451.014	15.18
451.371	15.15
451.729	15.29
452.086	15.15
452.443	15.27
452.801	15.33
453.158	15.36
453.515	15.29
453.872	15.36
454.229	15.23
454.586	15.46
454.943	15.53
455.3	15.73
455.657	15.41
456.014	15.46
456.371	15.51
456.727	15.58
457.084	15.86
457.441	15.8
457.797	15.78
458.154	15.87
458.51	15.86
458.867	15.72
459.223	15.74
459.58	15.94
459.936	15.9
460.292	15.75
460.648	15.7
461.005	15.82
461.361	15.79
461.717	15.7
462.073	15.92
462.429	15.96
462.785	16.08
463.141	16.07
463.496	16.19
463.852	16.44
464.208	16.47
464.564	16.37
464.919	16.42
465.275	16.46
465.631	16.61
465.986	16.44
466.342	16.52
466.697	16.62
467.052	16.67
467.408	16.68
467.763	16.61
468.118	16.69
468.473	16.88
468.829	16.79
469.184	16.95
469.539	16.81
469.894	16.96
470.249	16.88
470.603	17.13
470.958	17
471.313	17.09
471.668	17.11
472.023	17.1
472.377	17.2
472.732	17.45
473.086	17.37
473.441	17.32
473.795	17.53
474.15	17.23
474.504	17.36
474.859	17.32
475.213	17.56
475.567	17.37
475.921	17.8
476.275	17.57
476.63	17.83
476.984	17.64
477.338	17.64
477.692	17.67
478.045	17.64
478.399	17.73
478.753	17.72
479.107	17.69
479.461	17.88
479.814	17.73
480.168	17.73
480.521	17.92
480.875	18.04
481.228	18.02
481.582	17.97
481.935	18.22
482.289	18.09
482.642	18.09
482.995	17.96
483.348	17.88
483.701	17.94
484.055	17.9
484.408	17.73
484.761	17.46
485.114	17.34
485.466	17.36
485.819	17.41
486.172	17.51
486.525	17.6
486.878	17.75
487.23	17.85
487.583	18.05
487.936	18.11
488.288	17.94
488.641	17.91
488.993	17.91
489.345	17.8
489.698	17.93
490.05	18.03
490.402	18.05
490.754	18.29
491.107	18.42
491.459	18.74
491.811	18.61
492.163	18.66
492.515	18.51
492.866	18.28
493.218	18.28
493.57	18.43
493.922	18.45
494.274	18.67
494.625	18.89
494.977	18.96
495.328	19.11
495.68	19.43
496.031	19.3
496.383	19.5
496.734	19.55
497.086	19.59
497.437	19.67
497.788	19.71
498.139	19.59
498.49	19.59
498.842	19.69
499.193	19.59
499.544	19.65
499.894	19.64
500.245	19.78
500.596	19.94
500.947	19.81
501.298	19.89
501.648	20.07
501.999	20.09
502.35	19.99
502.7	20.28
503.051	20.28
503.401	20.32
503.752	20.32
504.102	20.33
504.452	20.41
504.803	20.44
505.153	20.39
505.503	20.42
505.853	20.57
506.203	20.48
506.553	20.58
506.903	20.81
507.253	20.79
507.603	20.78
507.953	20.72
508.303	20.91
508.652	20.57
509.002	21.05
509.352	20.88
509.701	20.71
510.051	20.9
510.4	20.76
510.75	20.86
511.099	20.87
511.449	21.01
511.798	20.89
512.147	21.05
512.496	21.18
512.846	21.37
513.195	21.31
513.544	21.26
513.893	21.24
514.242	21.2
514.591	21.2
514.939	21.41
515.288	21.48
515.637	21.56
515.986	21.67
516.334	21.65
516.683	21.88
517.032	21.76
517.38	21.86
517.729	21.86
518.077	21.73
518.426	21.87
518.774	21.82
519.122	21.74
519.47	21.77
519.819	21.71
520.167	21.64
520.515	21.76
520.863	21.7
521.211	21.85
521.559	22.04
521.907	22.11
522.255	22.19
522.602	22.32
522.95	22.34
523.298	22.45
523.645	22.63
523.993	22.6
524.341	22.67
524.688	22.62
525.036	22.77
525.383	22.73
525.73	22.54
526.078	22.73
526.425	22.55
526.772	22.41
527.119	22.5
527.466	22.47
527.814	22.52
528.161	22.58
528.508	22.7
528.854	22.73
529.201	22.65
529.548	22.31
529.895	22.21
530.242	22.28
530.588	22.38
530.935	22.4
531.282	22.5
531.628	22.7
531.975	22.68
532.321	23.03
532.667	23.17
533.014	23.32
533.36	23.26
533.706	23.23
534.052	23.15
534.399	23.07
534.745	23.01
535.091	22.95
535.437	23.1
535.783	23.29
536.129	23.45
536.474	23.63
536.82	23.76
537.166	23.7
537.512	23.84
537.857	23.86
538.203	23.68
538.549	23.7
538.894	23.86
539.239	24.09
539.585	24.31
539.93	24.32
540.276	24.46
540.621	24.56
540.966	24.55
541.311	24.46
541.656	24.35
542.001	24.41
542.346	24.05
542.691	23.94
543.036	23.89
543.381	23.99
543.726	24.1
544.071	24.23
544.415	24.38
544.76	24.39
545.105	24.51
545.449	24.64
545.794	24.75
546.138	24.9
546.483	25.11
546.827	24.91
547.171	25.28
547.516	25.33
547.86	25.12
548.204	25.19
548.548	25.04
548.892	25.35
549.236	25.58
549.58	25.61
549.924	25.67
550.268	25.78
550.612	25.97
550.956	26.1
551.3	26.32
551.643	25.99
551.987	26.48
552.33	26.39
552.674	26.39
553.017	26.56
553.361	26.25
553.704	26.26
554.048	26.43
554.391	26.42
554.734	26.21
555.077	26.3
555.42	26.46
555.764	26.49
556.107	26.86
556.45	27.03
556.793	26.77
557.135	26.99
557.478	26.84
557.821	27.1
558.164	26.87
558.507	27
558.849	27.35
559.192	27.09
559.534	27.26
559.877	27.47
560.219	27.36
560.562	27.32
560.904	27.78
561.246	27.49
561.589	27.5
561.931	27.69
562.273	27.68
562.615	27.71
562.957	27.76
563.299	27.71
563.641	27.79
563.983	27.9
564.325	27.8
564.667	27.94
565.008	27.96
565.35	28.02
565.692	27.96
566.033	28.1
566.375	28
566.716	27.96
567.058	28.19
567.399	28.04
567.741	28.09
568.082	27.99
568.423	27.83
568.764	28.09
569.105	28.3
569.447	28.4
569.788	28.55
570.129	28.49
570.47	28.96
570.811	28.69
571.151	28.58
571.492	28.64
571.833	28.69
572.174	28.95
572.514	28.96
572.855	28.73
573.195	28.8
573.536	29
573.876	28.89
574.217	28.91
574.557	28.92
574.898	28.96
575.238	29.01
575.578	29.24
575.918	29.28
576.258	29.37
576.598	29.32
576.938	29.22
577.278	29.37
577.618	29.56
577.958	29.43
578.298	29.71
578.638	29.78
578.977	29.84
579.317	29.92
579.657	29.97
579.996	30.08
580.336	30.1
580.675	30.27
581.014	30.27
581.354	30.14
581.693	30.3
582.032	30.43
582.372	30.43
582.711	30.55
583.05	30.5
583.389	30.78
583.728	30.65
584.067	30.58
584.406	30.96
584.745	30.78
585.083	30.49
585.422	30.91
585.761	30.92
586.1	30.99
586.438	30.99
586.777	31.39
587.115	31.22
587.454	31.19
587.792	31.18
588.13	31.26
588.469	31.32
588.807	31.26
589.145	31.38
589.483	31.43
589.821	31.51
590.159	31.45
590.497	31.33
590.835	31.5
591.173	31.59
591.511	31.63
591.849	32.01
592.187	31.66
592.524	31.62
592.862	31.51
593.2	31.77
593.537	31.94
593.875	32.02
594.212	32.08
594.55	32.08
594.887	32.16
595.224	32.21
595.561	32.37
595.899	32.06
596.236	32.38
596.573	32.09
596.91	32.52
597.247	32.35
597.584	32.4
597.921	32.38
598.258	32.18
598.594	32.17
598.931	32.17
599.268	32.35
599.604	32.4
599.941	32.37
600.277	32.77
600.614	32.69
600.95	32.78
601.287	32.95
601.623	33.06
601.959	33.21
602.296	32.94
602.632	33.04
602.968	33.18
603.304	33.33
603.64	33.34
603.976	33.12
604.312	33.39
604.648	33.15
604.984	33.17
605.319	33.36
605.655	33.16
605.991	33.41
606.326	33.17
606.662	33.15
606.998	33.41
607.333	33.62
607.668	33.33
608.004	33.54
608.339	33.89
608.674	33.97
609.01	34.35
609.345	34.01
609.68	34.24
610.015	33.83
610.35	34.1
610.685	33.97
611.02	34.12
611.355	34.12
611.689	34.1
612.024	34.18
612.359	34.33
612.694	34.54
613.028	34.54
613.363	34.73
613.697	34.59
614.032	34.66
614.366	34.8
614.7	34.85
615.035	35.11
615.369	34.98
615.703	35.1
616.037	34.71
616.371	34.9
616.705	35.28
617.039	34.91
617.373	34.87
617.707	35.36
618.041	35.22
618.375	35.19
618.709	35.21
619.042	35.26
619.376	35.46
619.71	35.55
620.043	35.72
620.377	35.74
620.71	35.47
621.043	35.83
621.377	35.61
621.71	35.93
622.043	35.62
622.376	36.08
622.709	35.97
623.043	35.07
623.376	35.59
623.709	36.36
624.041	35.82
624.374	36.11
624.707	36.16
625.04	36.18
625.373	36.4
625.705	36.5
626.038	36.88
626.37	36.34
626.703	36.6
627.035	36.18
627.368	36.6
627.7	36.45
628.032	36.39
628.365	36.54
628.697	36.47
629.029	36.52
629.361	36.6
629.693	36.47
630.025	36.6
630.357	37.08
630.689	36.89
631.021	36.98
631.353	36.83
631.684	36.68
632.016	36.84
632.348	37.14
632.679	37.46
633.011	37.38
633.342	36.95
633.674	37.22
634.005	37.13
634.336	37.5
634.668	37.41
634.999	37.49
635.33	37.53
635.661	37.78
635.992	37.66
636.323	37.46
636.654	37.45
636.985	37.81
637.316	37.59
637.647	37.89
637.977	37.7
638.308	38.06
638.639	38.04
638.969	37.99
639.3	38
639.63	37.78
639.961	38.02
640.291	38.37
640.622	38.7
640.952	38.19
641.282	38.68
641.612	38.24
641.943	38.32
642.273	38.75
642.603	38.41
642.933	38.98
643.263	38.83
643.592	38.91
643.922	39.06
644.252	39.13
644.582	39.25
644.911	38.89
645.241	38.37
645.571	38.53
645.9	39.27
646.23	38.92
646.559	38.95
646.888	39.45
647.218	39.36
647.547	39.47
647.876	38.98
648.205	39.13
648.534	39.32
648.863	38.86
649.192	39.07
649.521	39.38
649.85	39.32
650.179	39.1
650.508	39.73
650.837	40.24
651.165	39.46
651.494	39.61
651.822	40.05
652.151	39.76
652.479	39.87
652.808	39.21
653.136	39.94
653.465	39.9
653.793	39.76
654.121	40.38
654.449	39.5
654.777	39.69
655.105	39.93
655.433	39.78
655.761	40.18
656.089	40.53
656.417	40.5
656.745	40.76
657.073	39.35
657.4	40.38
657.728	40.48
658.056	40.54
658.383	40.5
658.711	40.37
659.038	40.77
659.365	40.87
659.693	40.55
660.02	40.34
660.347	40.57
660.674	40.51
661.001	40.19
661.329	40.58
661.656	40.83
661.982	40.75
662.309	40.82
662.636	40.89
662.963	41.13
663.29	40.92
663.616	41.26
663.943	40.71
664.27	41.56
664.596	41.25
664.923	40.79
665.249	41.34
665.576	41.41
665.902	41.7
666.228	42.04
666.554	41.41
666.881	41.3
667.207	41.78
667.533	40.93
667.859	41.56
668.185	41.88
668.511	42.08
668.837	41.3
669.162	41.76
669.488	41.72
669.814	41.92
670.139	41.2
670.465	42.11
670.791	41.52
671.116	42.24
671.442	41.31
671.767	41.77
672.092	42.09
672.418	42.1
672.743	41.56
673.068	42.01
673.393	42.31
