Data from 0002_crown_Reflection__2__278.txt Node

Date: Thu Dec 15 18:54:36 CST 2022
User: ToomeyLab
Spectrometer: FLMS14357
Trigger mode: 0
Integration Time (sec): 1.000000E-2
Scans to average: 100
Electric dark correction enabled: true
Nonlinearity correction enabled: false
Boxcar width: 0
XAxis mode: Wavelengths
Number of Pixels in Spectrum: 2048
>>>>>Begin Spectral Data<<<<<
189.047	207.93
189.435	207.93
189.823	207.93
190.211	703.6
190.599	19.44
190.987	41.68
191.375	-162.71
191.763	128.46
192.151	-151.51
192.538	-2.11
192.926	144.09
193.314	55.21
193.702	-2366.67
194.089	31.21
194.477	-7.89
194.864	23.13
195.252	-53.36
195.639	108.67
196.027	-34.65
196.414	90.9
196.801	1.81
197.189	107.97
197.576	-26.62
197.963	-1018.12
198.351	43.52
198.738	-12.12
199.125	-25.54
199.512	17.09
199.899	-65.28
200.286	-7.73
200.673	15.63
201.06	-4.05
201.447	-2.31
201.833	5.15
202.22	-20.46
202.607	-32.09
202.994	20.98
203.38	1.05
203.767	14.24
204.154	-0.29
204.54	20.14
204.927	-5.29
205.313	20.67
205.699	37.05
206.086	8.21
206.472	-0.41
206.858	-0.74
207.245	10.83
207.631	-16.45
208.017	55.87
208.403	-61.91
208.789	14.7
209.175	-1.59
209.561	-192.75
209.947	5.5
210.333	-12.11
210.719	16.37
211.105	29.35
211.491	10.17
211.876	-16.38
212.262	51.04
212.648	-6.7
213.034	-13.55
213.419	12.24
213.805	-13.39
214.19	-29.52
214.576	10.38
214.961	-10.25
215.346	-25.11
215.732	31.65
216.117	-7.37
216.502	-26.42
216.888	14.36
217.273	-34.67
217.658	6.29
218.043	-21.78
218.428	-6.8
218.813	3.3
219.198	-22.09
219.583	1.23
219.968	-3.8
220.353	-9.82
220.738	-6.58
221.122	-4.33
221.507	1.25
221.892	-24.41
222.276	-26.03
222.661	-0.57
223.046	-8.84
223.43	9.04
223.815	-3.55
224.199	-1.99
224.583	0.13
224.968	-8.01
225.352	-7.77
225.736	16.64
226.121	11.23
226.505	4.2
226.889	7.63
227.273	1.32
227.657	12.48
228.041	8.34
228.425	4.14
228.809	6.16
229.193	11.29
229.577	8.65
229.961	8.7
230.344	9.55
230.728	10.11
231.112	10.4
231.495	8.25
231.879	9.58
232.263	9.72
232.646	8.68
233.03	10.4
233.413	9.77
233.797	6.44
234.18	9.41
234.563	9.99
234.946	8.68
235.33	7.92
235.713	10.29
236.096	9.86
236.479	11.16
236.862	8.23
237.245	7.83
237.628	8.49
238.011	9.29
238.394	6.91
238.777	5.72
239.16	9.78
239.543	7.91
239.925	7.08
240.308	6.72
240.691	7.83
241.073	8.18
241.456	9.17
241.838	8.02
242.221	8.9
242.603	9.26
242.986	8.54
243.368	9.14
243.75	8.63
244.133	9.13
244.515	8.79
244.897	8.39
245.279	7.93
245.661	8.08
246.043	7.33
246.425	7.96
246.807	8.5
247.189	8.65
247.571	7.84
247.953	8.21
248.335	8.11
248.717	8.43
249.098	8.31
249.48	7.86
249.862	7.94
250.243	8.27
250.625	8.09
251.006	8.77
251.388	7.41
251.769	6.82
252.151	8.02
252.532	7.48
252.913	8.08
253.295	7.48
253.676	7.92
254.057	7.63
254.438	7.48
254.819	7.73
255.2	9.01
255.581	9.13
255.962	8.14
256.343	8.79
256.724	7.5
257.105	7.23
257.486	6.3
257.867	7.54
258.247	7.82
258.628	7.6
259.009	7.8
259.389	6.61
259.77	6.96
260.15	7.55
260.531	6.94
260.911	7.33
261.292	7.41
261.672	7.46
262.052	7.38
262.432	7.1
262.813	7.63
263.193	7.24
263.573	7.31
263.953	7.19
264.333	7.04
264.713	7.54
265.093	6.95
265.473	6.23
265.853	6.62
266.233	6.88
266.612	5.92
266.992	6.76
267.372	7.32
267.752	7.35
268.131	6.79
268.511	7.02
268.89	7.35
269.27	6.53
269.649	6.7
270.029	6.85
270.408	6.52
270.787	7.11
271.167	6.79
271.546	7.21
271.925	6.63
272.304	6.92
272.683	6.81
273.062	6.82
273.441	6.69
273.82	6.68
274.199	6.12
274.578	6.73
274.957	6.7
275.336	6.6
275.715	6.61
276.093	5.99
276.472	5.68
276.851	6.35
277.229	6.37
277.608	6.04
277.986	6.34
278.365	6.99
278.743	6.46
279.122	6.12
279.5	6.17
279.878	5.61
280.257	6.22
280.635	6.14
281.013	5.72
281.391	5.59
281.769	6.08
282.147	5.78
282.525	5.64
282.903	5.68
283.281	6.59
283.659	6.14
284.037	6.05
284.415	5.87
284.792	6.1
285.17	6.05
285.548	5.55
285.925	5.64
286.303	6.4
286.68	6.09
287.058	6.29
287.435	5.95
287.813	6.24
288.19	5.74
288.567	5.87
288.945	6.04
289.322	5.74
289.699	5.8
290.076	5.61
290.453	5.56
290.83	5.65
291.207	5.64
291.584	6.23
291.961	5.75
292.338	5.58
292.715	5.27
293.092	6.07
293.469	5.5
293.845	5.59
294.222	5.84
294.599	4.54
294.975	5.16
295.352	5.54
295.728	5.53
296.105	5.52
296.481	5.58
296.858	5.28
297.234	4.92
297.61	5
297.986	5.66
298.363	5.58
298.739	5.52
299.115	5.2
299.491	5.49
299.867	5
300.243	4.92
300.619	4.91
300.995	5.28
301.371	5.83
301.746	5.66
302.122	4.55
302.498	5.09
302.874	5.1
303.249	4.96
303.625	5.21
304	5.4
304.376	5.21
304.751	4.81
305.127	4.97
305.502	5.36
305.878	5.13
306.253	4.87
306.628	5.15
307.003	5.13
307.378	4.87
307.754	4.84
308.129	4.76
308.504	4.91
308.879	4.99
309.254	4.62
309.629	4.93
310.003	4.92
310.378	5.06
310.753	5.26
311.128	4.93
311.502	5.02
311.877	4.97
312.252	4.97
312.626	5.34
313.001	5.21
313.375	4.99
313.75	5.01
314.124	4.99
314.498	5.1
314.873	4.59
315.247	4.52
315.621	4.65
315.995	4.45
316.369	4.32
316.743	4.64
317.117	4.39
317.491	4.95
317.865	3.8
318.239	4.92
318.613	4.37
318.987	4.49
319.361	4.66
319.734	4.84
320.108	4.77
320.482	5.23
320.855	4.95
321.229	4.25
321.602	4.87
321.976	4.22
322.349	4.54
322.723	4.53
323.096	4.47
323.469	5.07
323.843	4.31
324.216	4.86
324.589	4.91
324.962	4.36
325.335	4.73
325.708	4.39
326.081	4.71
326.454	4.94
326.827	4.77
327.2	4.19
327.573	5.03
327.945	4.49
328.318	4.25
328.691	4.82
329.063	4.25
329.436	4.47
329.809	4.77
330.181	4.97
330.553	4.76
330.926	5.07
331.298	4.67
331.671	5.19
332.043	4.96
332.415	4.56
332.787	4.71
333.159	4.45
333.532	4.58
333.904	4.72
334.276	4.8
334.648	4.74
335.02	4.58
335.391	4.93
335.763	4.78
336.135	5.19
336.507	4.7
336.879	4.68
337.25	5.37
337.622	4.7
337.993	4.61
338.365	4.8
338.736	4.88
339.108	4.8
339.479	4.84
339.851	5.09
340.222	4.89
340.593	4.54
340.964	5.07
341.336	4.73
341.707	4.49
342.078	4.68
342.449	4.64
342.82	4.89
343.191	4.86
343.562	4.94
343.933	4.8
344.303	5.27
344.674	4.72
345.045	4.8
345.416	5.15
345.786	4.79
346.157	5.08
346.527	5.06
346.898	4.62
347.268	5.08
347.639	4.25
348.009	5.04
348.38	4.86
348.75	4.76
349.12	5.06
349.49	4.61
349.861	5.12
350.231	4.76
350.601	4.67
350.971	4.86
351.341	4.79
351.711	4.77
352.081	4.68
352.45	4.61
352.82	4.44
353.19	5.04
353.56	5.01
353.929	5.05
354.299	4.68
354.669	5.36
355.038	5.07
355.408	5.08
355.777	5.32
356.147	4.91
356.516	4.93
356.885	5.14
357.254	4.92
357.624	4.93
357.993	5.13
358.362	5.19
358.731	5.28
359.1	4.91
359.469	5.36
359.838	4.98
360.207	5.16
360.576	5.44
360.945	5.32
361.314	5.24
361.682	4.98
362.051	5.09
362.42	5.18
362.788	5.4
363.157	5.04
363.525	5.32
363.894	5.12
364.262	5.19
364.631	5.44
364.999	5.36
365.367	5.1
365.735	5.29
366.104	5.01
366.472	4.99
366.84	5.43
367.208	5.4
367.576	5.14
367.944	5.13
368.312	5.31
368.68	5.55
369.048	5.23
369.416	5.01
369.783	5.16
370.151	5.67
370.519	5.62
370.886	5.4
371.254	5.53
371.621	5.43
371.989	5.38
372.356	5.24
372.724	5.14
373.091	5.25
373.458	5.17
373.826	5.66
374.193	5.41
374.56	5.52
374.927	5.5
375.294	5.51
375.661	5.48
376.028	5.54
376.395	5.7
376.762	5.32
377.129	5.43
377.496	5.74
377.863	5.6
378.229	5.94
378.596	5.65
378.963	5.52
379.329	5.75
379.696	5.28
380.062	5.71
380.429	5.22
380.795	5.78
381.161	5.1
381.528	5.19
381.894	5.46
382.26	5.62
382.626	5.76
382.993	5.98
383.359	5.44
383.725	5.67
384.091	5.66
384.457	5.59
384.823	5.93
385.188	5.61
385.554	5.72
385.92	5.62
386.286	5.89
386.651	5.74
387.017	5.93
387.383	5.98
387.748	5.98
388.114	5.87
388.479	5.8
388.845	5.43
389.21	5.79
389.575	5.95
389.94	5.83
390.306	5.82
390.671	5.85
391.036	5.6
391.401	5.85
391.766	5.7
392.131	5.85
392.496	5.74
392.861	5.71
393.226	5.48
393.591	5.83
393.956	5.94
394.32	5.73
394.685	5.65
395.05	5.67
395.414	5.61
395.779	5.92
396.143	5.72
396.508	5.88
396.872	5.79
397.236	5.99
397.601	6.02
397.965	6.03
398.329	5.97
398.694	5.58
399.058	5.82
399.422	5.86
399.786	5.8
400.15	5.84
400.514	5.94
400.878	5.82
401.242	5.95
401.605	5.93
401.969	5.81
402.333	5.84
402.697	6.19
403.06	5.86
403.424	5.91
403.787	5.92
404.151	5.89
404.514	5.98
404.878	5.85
405.241	5.81
405.604	5.86
405.968	6.01
406.331	5.93
406.694	5.84
407.057	5.84
407.42	6.02
407.783	6.05
408.146	6.01
408.509	6.03
408.872	5.97
409.235	6
409.598	5.92
409.961	6.04
410.323	5.98
410.686	5.92
411.049	6.08
411.411	5.89
411.774	6.04
412.136	6
412.499	6.19
412.861	5.8
413.223	5.68
413.586	6.12
413.948	6.27
414.31	6.17
414.672	6
415.035	6.02
415.397	5.83
415.759	5.92
416.121	6.31
416.483	5.87
416.845	6
417.206	5.86
417.568	5.91
417.93	6
418.292	5.86
418.653	5.72
419.015	5.98
419.377	6.06
419.738	6.08
420.1	6.03
420.461	5.85
420.822	5.98
421.184	5.89
421.545	5.99
421.906	5.95
422.267	5.91
422.629	5.92
422.99	5.9
423.351	5.88
423.712	5.99
424.073	6
424.434	6.06
424.795	5.91
425.155	5.85
425.516	5.89
425.877	5.95
426.238	5.94
426.598	6.07
426.959	6.07
427.32	5.86
427.68	5.93
428.041	6.03
428.401	5.95
428.761	6.16
429.122	6.1
429.482	5.99
429.842	5.95
430.202	6.26
430.563	5.97
430.923	6.16
431.283	6.26
431.643	6.09
432.003	6.15
432.363	6.25
432.722	6.19
433.082	6.1
433.442	6.22
433.802	6
434.161	6.09
434.521	6.09
434.881	6.14
435.24	6.13
435.6	6.15
435.959	6.12
436.319	6.13
436.678	6.19
437.037	6.07
437.396	6.11
437.756	6.13
438.115	6.05
438.474	6.2
438.833	6.19
439.192	6.05
439.551	5.98
439.91	6.18
440.269	6.13
440.628	6.09
440.987	6.09
441.345	6.13
441.704	6.02
442.063	5.97
442.421	6.12
442.78	6.14
443.138	6.11
443.497	6.02
443.855	6.08
444.214	6
444.572	6.33
444.93	6.11
445.288	6
445.647	6
446.005	6.05
446.363	6.13
446.721	6.19
447.079	5.96
447.437	6
447.795	6.07
448.153	6.05
448.51	6.03
448.868	5.98
449.226	6.09
449.584	6.07
449.941	6
450.299	6.06
450.656	6.19
451.014	6.25
451.371	6.23
451.729	6.14
452.086	6.16
452.443	6.19
452.801	6.17
453.158	6.35
453.515	6.12
453.872	6.12
454.229	6.07
454.586	6.05
454.943	6.23
455.3	6.15
455.657	6.09
456.014	6.12
456.371	6.22
456.727	6.18
457.084	6.23
457.441	6.12
457.797	6.06
458.154	6.02
458.51	6.12
458.867	6.04
459.223	6.17
459.58	6.24
459.936	6.08
460.292	6.15
460.648	6.12
461.005	5.97
461.361	6.09
461.717	5.97
462.073	6.1
462.429	6.11
462.785	6.23
463.141	6.13
463.496	6.26
463.852	6.23
464.208	6.3
464.564	6.1
464.919	6.02
465.275	6.02
465.631	6.29
465.986	6.22
466.342	6.12
466.697	5.94
467.052	6.29
467.408	6.19
467.763	6.1
468.118	6.02
468.473	6.41
468.829	6.09
469.184	6.12
469.539	6.01
469.894	6.15
470.249	6.17
470.603	6.29
470.958	6.29
471.313	6.19
471.668	6.37
472.023	6.22
472.377	6.17
472.732	6.38
473.086	6.03
473.441	6.08
473.795	6.33
474.15	6.18
474.504	6.24
474.859	5.9
475.213	6.25
475.567	6.09
475.921	6.28
476.275	6.24
476.63	6.16
476.984	6.16
477.338	6.24
477.692	6.22
478.045	6.32
478.399	6.17
478.753	6.1
479.107	6.29
479.461	6.18
479.814	6.21
480.168	6.3
480.521	6.36
480.875	6.25
481.228	6.13
481.582	6.25
481.935	6.21
482.289	6.23
482.642	6.27
482.995	6.17
483.348	6.05
483.701	6.2
484.055	6.1
484.408	6.05
484.761	5.93
485.114	5.87
485.466	5.83
485.819	5.83
486.172	5.83
486.525	5.81
486.878	5.89
487.23	5.91
487.583	6
487.936	5.91
488.288	5.91
488.641	5.93
488.993	5.89
489.345	5.9
489.698	5.89
490.05	5.93
490.402	5.89
490.754	5.9
491.107	5.93
491.459	6.03
491.811	6.07
492.163	6.01
492.515	5.97
492.866	5.93
493.218	5.93
493.57	5.98
493.922	5.92
494.274	5.98
494.625	5.99
494.977	6.04
495.328	6.1
495.68	6.13
496.031	6.19
496.383	5.98
496.734	6.1
497.086	6.15
497.437	6.23
497.788	6.25
498.139	6.1
498.49	6.09
498.842	6.09
499.193	6.03
499.544	6.11
499.894	6.02
500.245	6.16
500.596	6.24
500.947	6.08
501.298	6.12
501.648	6.24
501.999	6.11
502.35	6.13
502.7	6.23
503.051	6.13
503.401	6.24
503.752	6.07
504.102	6.14
504.452	6.03
504.803	6.1
505.153	6.15
505.503	6.17
505.853	6.16
506.203	6.15
506.553	6.04
506.903	6.15
507.253	6.18
507.603	6.1
507.953	6.17
508.303	6.16
508.652	5.99
509.002	6.14
509.352	6.09
509.701	6.06
510.051	6.23
510.4	6.18
510.75	6.04
511.099	6.02
511.449	6.08
511.798	6.12
512.147	6.09
512.496	6.11
512.846	6.12
513.195	6.09
513.544	6.07
513.893	6.1
514.242	6.14
514.591	6.11
514.939	6.12
515.288	6.08
515.637	5.98
515.986	6.12
516.334	6.15
516.683	6.2
517.032	5.99
517.38	6
517.729	6.23
518.077	6.1
518.426	6.23
518.774	6.04
519.122	6.16
519.47	6.02
519.819	6.03
520.167	5.97
520.515	6.02
520.863	5.9
521.211	6.01
521.559	6
521.907	5.91
522.255	6.08
522.602	6.05
522.95	5.96
523.298	6.1
523.645	6.14
523.993	6.08
524.341	6.07
524.688	6.1
525.036	6.1
525.383	5.98
525.73	5.93
526.078	5.98
526.425	6.07
526.772	5.93
527.119	6.01
527.466	6.03
527.814	6
528.161	6
528.508	5.95
528.854	5.95
529.201	5.93
529.548	5.85
529.895	5.81
530.242	5.85
530.588	5.8
530.935	5.79
531.282	5.78
531.628	5.8
531.975	5.75
532.321	5.94
532.667	5.93
533.014	5.99
533.36	5.97
533.706	5.99
534.052	5.97
534.399	5.81
534.745	5.79
535.091	5.84
535.437	5.82
535.783	5.84
536.129	5.87
536.474	5.9
536.82	5.89
537.166	5.87
537.512	5.91
537.857	5.94
538.203	5.92
538.549	5.89
538.894	5.91
539.239	5.93
539.585	5.96
539.93	5.98
540.276	5.94
540.621	6.08
540.966	5.99
541.311	5.99
541.656	5.91
542.001	5.92
542.346	5.87
542.691	5.79
543.036	5.78
543.381	5.78
543.726	5.83
544.071	5.74
544.415	5.81
544.76	5.85
545.105	5.81
545.449	5.93
545.794	5.88
546.138	5.87
546.483	5.92
546.827	5.86
547.171	6
547.516	6.03
547.86	5.87
548.204	6.01
548.548	5.88
548.892	6
549.236	5.91
549.58	5.94
549.924	6.01
550.268	5.97
550.612	6
550.956	6.04
551.3	6.13
551.643	6.02
551.987	6.03
552.33	6.21
552.674	6.2
553.017	6.1
553.361	5.88
553.704	6.09
554.048	6.04
554.391	6.12
554.734	5.9
555.077	5.91
555.42	5.88
555.764	5.93
556.107	6.06
556.45	6.08
556.793	6.06
557.135	6.07
557.478	6.13
557.821	5.9
558.164	6.1
558.507	5.87
558.849	6.11
559.192	5.91
559.534	5.95
559.877	5.84
560.219	5.85
560.562	5.91
560.904	6.2
561.246	5.96
561.589	5.95
561.931	5.95
562.273	5.98
562.615	5.72
562.957	5.9
563.299	5.89
563.641	6.07
563.983	5.88
564.325	5.96
564.667	5.86
565.008	5.95
565.35	5.71
565.692	5.78
566.033	5.69
566.375	5.87
566.716	5.58
567.058	5.83
567.399	5.88
567.741	5.97
568.082	5.99
568.423	5.7
568.764	5.79
569.105	5.85
569.447	5.76
569.788	5.78
570.129	5.79
570.47	5.88
570.811	5.78
571.151	5.82
571.492	5.9
571.833	5.88
572.174	5.84
572.514	5.91
572.855	5.99
573.195	5.73
573.536	5.97
573.876	5.75
574.217	5.84
574.557	5.84
574.898	5.76
575.238	5.7
575.578	5.71
575.918	5.84
576.258	6.01
576.598	5.69
576.938	5.57
577.278	5.79
577.618	5.69
577.958	5.84
578.298	5.73
578.638	5.75
578.977	5.69
579.317	5.94
579.657	5.78
579.996	5.78
580.336	5.9
580.675	5.95
581.014	6.01
581.354	5.69
581.693	5.81
582.032	5.96
582.372	6.07
582.711	5.95
583.05	5.77
583.389	5.8
583.728	6
584.067	5.77
584.406	5.8
584.745	5.73
585.083	5.74
585.422	6.04
585.761	5.86
586.1	5.77
586.438	5.52
586.777	5.85
587.115	5.81
587.454	5.8
587.792	5.78
588.13	5.86
588.469	5.6
588.807	5.82
589.145	5.74
589.483	5.56
589.821	5.73
590.159	5.95
590.497	5.9
590.835	5.91
591.173	5.85
591.511	5.95
591.849	5.65
592.187	5.73
592.524	5.66
592.862	5.46
593.2	5.88
593.537	5.69
593.875	5.74
594.212	5.69
594.55	5.87
594.887	5.77
595.224	5.68
595.561	5.66
595.899	5.68
596.236	5.71
596.573	5.48
596.91	5.73
597.247	5.65
597.584	5.71
597.921	5.48
598.258	5.71
598.594	5.51
598.931	5.32
599.268	5.47
599.604	5.79
599.941	5.44
600.277	5.43
600.614	5.67
600.95	5.59
601.287	5.24
601.623	5.33
601.959	5.86
602.296	5.68
602.632	5.6
602.968	5.52
603.304	5.61
603.64	5.72
603.976	5.38
604.312	5.5
604.648	5.53
604.984	5.61
605.319	5.44
605.655	5.46
605.991	5.58
606.326	5.6
606.662	5.31
606.998	5.57
607.333	5.61
607.668	5.37
608.004	5.39
608.339	5.46
608.674	5.41
609.01	5.72
609.345	5.42
609.68	5.52
610.015	5.52
610.35	5.53
610.685	5.19
611.02	5.39
611.355	5.36
611.689	5.38
612.024	5.48
612.359	5.55
612.694	5.25
613.028	5.18
613.363	5.28
613.697	5.5
614.032	5.43
614.366	5.29
614.7	5.62
615.035	5.44
615.369	5.7
615.703	5.36
616.037	5.41
616.371	5.28
616.705	5.47
617.039	5.43
617.373	5.48
617.707	5.46
618.041	5.17
618.375	4.95
618.709	5.48
619.042	5.19
619.376	5.37
619.71	5.47
620.043	5.66
620.377	5.29
620.71	5.27
621.043	5.46
621.377	5.67
621.71	5.67
622.043	5.64
622.376	5.31
622.709	5.87
623.043	5.25
623.376	5.38
623.709	5.46
624.041	5.11
624.374	5.58
624.707	5.84
625.04	5.11
625.373	5.54
625.705	5.65
626.038	5.62
626.37	5.17
626.703	5.5
627.035	5.48
627.368	5.46
627.7	5.44
628.032	5.36
628.365	5.36
628.697	5.57
629.029	5.29
629.361	5.48
629.693	5.32
630.025	5.35
630.357	5.52
630.689	5.2
631.021	5.46
631.353	5.23
631.684	5.02
632.016	5.01
632.348	4.99
632.679	5.41
633.011	5.42
633.342	5.28
633.674	5.08
634.005	5.6
634.336	5.64
634.668	5.39
634.999	5.15
635.33	5.22
635.661	5.32
635.992	5.33
636.323	5.36
636.654	5.31
636.985	5.24
637.316	5
637.647	5.26
637.977	5.23
638.308	5.55
638.639	5.33
638.969	5.24
639.3	5.28
639.63	5.37
639.961	5.37
640.291	5.02
640.622	5.42
640.952	5.36
641.282	5.14
641.612	5.46
641.943	4.89
642.273	5.01
642.603	5.35
642.933	5.42
643.263	5.61
643.592	5.47
643.922	5.54
644.252	5.37
644.582	5.49
644.911	5.34
645.241	4.93
645.571	5.29
645.9	5.41
646.23	5.89
646.559	5.05
646.888	5.21
647.218	5.14
647.547	5.04
647.876	5.22
648.205	4.76
648.534	5.62
648.863	5.12
649.192	5.34
649.521	5.17
649.85	5.52
650.179	5.19
650.508	4.88
650.837	5.31
651.165	5.49
651.494	5.39
651.822	5.33
652.151	5.08
652.479	5.46
652.808	5.39
653.136	5.06
653.465	5.3
653.793	5.35
654.121	5.14
654.449	5.33
654.777	4.77
655.105	4.49
655.433	5.74
655.761	5.34
656.089	5.37
656.417	5.68
656.745	5.59
657.073	4.91
657.4	5.18
657.728	4.87
658.056	4.91
658.383	4.76
658.711	5.48
659.038	5.5
659.365	5.41
659.693	5.17
660.02	5.56
660.347	5.04
660.674	5.2
661.001	5.35
661.329	4.89
661.656	4.86
661.982	5.02
662.309	4.82
662.636	4.69
662.963	5.21
663.29	5.01
663.616	5.12
663.943	4.83
664.27	4.94
664.596	4.47
664.923	5.4
665.249	5.52
665.576	4.54
665.902	4.88
666.228	5.12
666.554	6.07
666.881	4.96
667.207	4.81
667.533	5.17
667.859	5.28
668.185	5.29
668.511	5.67
668.837	5.35
669.162	4.87
669.488	4.87
669.814	5.24
670.139	4.83
670.465	5.62
670.791	5.05
671.116	5.39
671.442	4.3
671.767	4.77
672.092	5.01
672.418	5.04
672.743	5.09
673.068	5.11
673.393	5.4
673.718	4.33
674.043	4.75
674.368	4.93
674.693	4.99
675.018	5.5
675.343	5.5
675.667	5.17
675.992	4.63
676.317	4.04
676.641	5.07
676.966	4.86
677.29	5.06
677.615	4.99
677.939	5.39
678.264	4.94
678.588	5.48
678.912	5.24
679.236	4.54
679.56	4.66
679.885	4.09
680.209	4.96
680.532	5.3
680.856	5.43
681.18	5.72
681.504	5.26
681.828	5.35
682.152	4.71
682.475	5.27
682.799	5.07
683.122	4.89
683.446	4.68
683.769	5.5
684.093	5.13
684.416	5.19
684.739	5.14
685.062	5.2
685.386	5.39
685.709	5.56
686.032	5.51
686.355	5.08
686.678	5.15
687.001	4.87
687.324	5.03
687.646	5.35
687.969	4.92
688.292	4.63
688.614	5.46
688.937	5.67
689.26	5.59
689.582	5.04
689.904	4.93
690.227	5.81
690.549	5.24
690.871	5.33
691.194	4.77
691.516	4.75
691.838	5.35
692.16	4.64
692.482	4.75
692.804	5.44
