Data from 0071_chest_Reflection__3__317.txt Node

Date: Fri Dec 16 16:37:58 CST 2022
User: ToomeyLab
Spectrometer: FLMS14357
Trigger mode: 0
Integration Time (sec): 1.000000E-2
Scans to average: 100
Electric dark correction enabled: true
Nonlinearity correction enabled: false
Boxcar width: 0
XAxis mode: Wavelengths
Number of Pixels in Spectrum: 2048
>>>>>Begin Spectral Data<<<<<
189.047	9548.57
189.435	9548.57
189.823	9548.57
190.211	20.78
190.599	-146.68
190.987	-90.19
191.375	56.26
191.763	6725.3
192.151	-116.84
192.538	72.12
192.926	-42.84
193.314	163.28
193.702	-2458.06
194.089	11.24
194.477	3553.19
194.864	-12.86
195.252	-63.88
195.639	286.63
196.027	575.19
196.414	353.3
196.801	-81.51
197.189	112.81
197.576	-73.32
197.963	96.14
198.351	-18.69
198.738	-10.13
199.125	27.27
199.512	-26.06
199.899	-97.4
200.286	-112.88
200.673	57.03
201.06	27.58
201.447	45.42
201.833	-55.12
202.22	7.78
202.607	-28.52
202.994	14.98
203.38	-30.15
203.767	-35.2
204.154	-46.95
204.54	21.34
204.927	-9.83
205.313	70.43
205.699	-27.11
206.086	-51.19
206.472	9.54
206.858	25.94
207.245	-14.15
207.631	11.45
208.017	0.8
208.403	14.04
208.789	-42.53
209.175	25.66
209.561	0.19
209.947	-23.73
210.333	2.48
210.719	-4.75
211.105	-14.22
211.491	-21.84
211.876	23.14
212.262	-72.52
212.648	-36.94
213.034	-29
213.419	9.36
213.805	-8.62
214.19	-19.08
214.576	-24.25
214.961	-15.74
215.346	-15.45
215.732	-18.47
216.117	-0.43
216.502	18.32
216.888	-12.78
217.273	23.43
217.658	-15.22
218.043	20.9
218.428	-30.87
218.813	-13.26
219.198	-24.95
219.583	4.31
219.968	-1.75
220.353	5.57
220.738	2.12
221.122	-12.92
221.507	-31.15
221.892	-14.82
222.276	-6.14
222.661	-1.35
223.046	-2.64
223.43	-5.62
223.815	10.5
224.199	-2.98
224.583	-0.24
224.968	2.96
225.352	-9.09
225.736	0.08
226.121	0.28
226.505	3.12
226.889	2.07
227.273	-1.19
227.657	0.47
228.041	7.55
228.425	3.68
228.809	5
229.193	3.28
229.577	3.89
229.961	5.4
230.344	4.68
230.728	4.86
231.112	4.8
231.495	4.63
231.879	3.13
232.263	4.64
232.646	1.87
233.03	1.82
233.413	2.87
233.797	8.42
234.18	2.92
234.563	3.16
234.946	3.64
235.33	5.27
235.713	4.18
236.096	3.5
236.479	5.23
236.862	5.5
237.245	4.56
237.628	4.4
238.011	5.28
238.394	5.74
238.777	4.18
239.16	2.23
239.543	3.23
239.925	4.76
240.308	3.82
240.691	3.68
241.073	4.09
241.456	3.33
241.838	4.39
242.221	5.43
242.603	4.62
242.986	5.53
243.368	4.49
243.75	4.48
244.133	4.9
244.515	4.32
244.897	4.77
245.279	5.19
245.661	4.37
246.043	5.42
246.425	4.34
246.807	4.59
247.189	4.18
247.571	4.46
247.953	4.44
248.335	4.5
248.717	4.71
249.098	4.67
249.48	4.2
249.862	4.7
250.243	4.39
250.625	4.32
251.006	4.11
251.388	3.98
251.769	4.48
252.151	4.48
252.532	4.24
252.913	4.75
253.295	4.34
253.676	5.32
254.057	3.84
254.438	4.25
254.819	4.52
255.2	3.88
255.581	4.3
255.962	3.91
256.343	4.29
256.724	3.44
257.105	3.45
257.486	4.58
257.867	2.81
258.247	4.64
258.628	4.75
259.009	4.95
259.389	5.13
259.77	4.38
260.15	4.98
260.531	4.39
260.911	4.33
261.292	4.37
261.672	4.32
262.052	4.31
262.432	4.48
262.813	4.08
263.193	3.93
263.573	4.36
263.953	4.74
264.333	4.52
264.713	4.37
265.093	4.02
265.473	5.72
265.853	3.98
266.233	4.17
266.612	4.15
266.992	3.96
267.372	4.08
267.752	3.88
268.131	4.54
268.511	4.49
268.89	4.29
269.27	4.38
269.649	4.68
270.029	4.41
270.408	4.35
270.787	4.26
271.167	4.89
271.546	3.26
271.925	4.27
272.304	4.07
272.683	4.04
273.062	4.57
273.441	4.42
273.82	4.95
274.199	4.43
274.578	4.19
274.957	4.57
275.336	3.76
275.715	4.52
276.093	4.05
276.472	4.23
276.851	4.53
277.229	5.05
277.608	3.86
277.986	4.34
278.365	4.18
278.743	4.34
279.122	3.79
279.5	3.45
279.878	3.58
280.257	4.08
280.635	3.8
281.013	4.04
281.391	4.63
281.769	4.33
282.147	4.33
282.525	4.3
282.903	4.64
283.281	4.18
283.659	4.65
284.037	4.44
284.415	4.61
284.792	4.78
285.17	3.93
285.548	4.09
285.925	3.75
286.303	3.78
286.68	4.46
287.058	4
287.435	3.94
287.813	4.16
288.19	4.44
288.567	4.01
288.945	3.88
289.322	3.84
289.699	4.03
290.076	4.37
290.453	4.04
290.83	4.37
291.207	4.08
291.584	4
291.961	4.27
292.338	4.03
292.715	4.54
293.092	3.86
293.469	4.05
293.845	4.23
294.222	3.82
294.599	4.7
294.975	3.78
295.352	3.64
295.728	4.14
296.105	4.28
296.481	4.12
296.858	4.3
297.234	4.17
297.61	4.25
297.986	4.24
298.363	4.06
298.739	4.33
299.115	4.11
299.491	4.41
299.867	4.05
300.243	3.88
300.619	4.16
300.995	4.41
301.371	4.37
301.746	4.24
302.122	4.21
302.498	4.42
302.874	4.38
303.249	4.59
303.625	4.03
304	3.86
304.376	4.37
304.751	4.09
305.127	4.24
305.502	4.56
305.878	3.96
306.253	3.83
306.628	3.91
307.003	4.59
307.378	4.03
307.754	4.35
308.129	3.6
308.504	4.25
308.879	4.56
309.254	4.5
309.629	4.14
310.003	4.43
310.378	4.5
310.753	4.26
311.128	4.26
311.502	4.18
311.877	4.36
312.252	4.19
312.626	4.18
313.001	4.14
313.375	3.92
313.75	4.05
314.124	4.73
314.498	3.96
314.873	4.09
315.247	3.9
315.621	4.35
315.995	4.14
316.369	4.27
316.743	4.53
317.117	3.96
317.491	4.07
317.865	4.04
318.239	4.33
318.613	3.93
318.987	4.36
319.361	3.74
319.734	4.24
320.108	3.87
320.482	3.8
320.855	4.24
321.229	4.92
321.602	4.23
321.976	4.35
322.349	3.27
322.723	2.89
323.096	4.19
323.469	4.43
323.843	4.12
324.216	3.63
324.589	4.35
324.962	4.11
325.335	3.88
325.708	4.1
326.081	4.54
326.454	4.13
326.827	4.37
327.2	4.75
327.573	3.95
327.945	4.37
328.318	4.13
328.691	4.78
329.063	4.12
329.436	3.97
329.809	3.57
330.181	3.82
330.553	4.93
330.926	4.27
331.298	4.01
331.671	4.27
332.043	4.63
332.415	4.51
332.787	4.56
333.159	4.27
333.532	4.03
333.904	4.28
334.276	4.13
334.648	4.25
335.02	3.86
335.391	4.06
335.763	4.56
336.135	4.4
336.507	4.16
336.879	4.5
337.25	4.58
337.622	4.25
337.993	4.33
338.365	4.41
338.736	4.32
339.108	3.46
339.479	3.72
339.851	4.57
340.222	4.29
340.593	3.79
340.964	4.44
341.336	3.78
341.707	4.45
342.078	4.07
342.449	4.6
342.82	3.87
343.191	4.06
343.562	4.1
343.933	4.01
344.303	4.19
344.674	4.36
345.045	4.19
345.416	4.33
345.786	4.01
346.157	4.26
346.527	4.22
346.898	4
347.268	3.96
347.639	4.22
348.009	4.44
348.38	4.21
348.75	4.41
349.12	4.58
349.49	4.05
349.861	4.57
350.231	4.48
350.601	4.36
350.971	4.35
351.341	4.12
351.711	4.19
352.081	4.44
352.45	4.74
352.82	4.48
353.19	4
353.56	4.43
353.929	4.14
354.299	4.12
354.669	4.52
355.038	4.16
355.408	4.94
355.777	4.01
356.147	4.56
356.516	4.93
356.885	4.42
357.254	4.46
357.624	4.56
357.993	4.13
358.362	4.39
358.731	4.42
359.1	4.58
359.469	4.61
359.838	4.39
360.207	4.08
360.576	4.39
360.945	4.15
361.314	4.53
361.682	4.41
362.051	4.05
362.42	4.66
362.788	4.4
363.157	4.27
363.525	4.29
363.894	4.03
364.262	4.17
364.631	4.94
364.999	4.2
365.367	4.76
365.735	4.09
366.104	4.07
366.472	4.55
366.84	4.23
367.208	3.81
367.576	4.23
367.944	4.82
368.312	3.95
368.68	4.53
369.048	4.64
369.416	4.22
369.783	4.39
370.151	4.28
370.519	4.62
370.886	4.51
371.254	4.4
371.621	4.39
371.989	4.5
372.356	4.63
372.724	4.73
373.091	4.52
373.458	4.25
373.826	4.56
374.193	4.6
374.56	4.12
374.927	4.31
375.294	4.83
375.661	4.37
376.028	4.52
376.395	4.57
376.762	4.81
377.129	4.52
377.496	4.61
377.863	4.41
378.229	4.41
378.596	4.55
378.963	4.24
379.329	4.5
379.696	4.52
380.062	4.69
380.429	4.48
380.795	3.91
381.161	4.76
381.528	4.29
381.894	4.74
382.26	4.38
382.626	4.54
382.993	4.49
383.359	4.37
383.725	4.54
384.091	4.47
384.457	4.51
384.823	4.49
385.188	4.78
385.554	4.43
385.92	4.9
386.286	4.79
386.651	4.45
387.017	4.74
387.383	4.51
387.748	4.33
388.114	4.76
388.479	4.77
388.845	4.64
389.21	4.69
389.575	4.86
389.94	4.54
390.306	4.71
390.671	4.57
391.036	4.68
391.401	4.94
391.766	4.78
392.131	4.36
392.496	4.56
392.861	4.37
393.226	4.48
393.591	4.6
393.956	4.76
394.32	4.68
394.685	4.87
395.05	4.41
395.414	4.42
395.779	4.55
396.143	4.58
396.508	4.81
396.872	4.9
397.236	4.23
397.601	4.89
397.965	4.69
398.329	4.99
398.694	4.48
399.058	4.42
399.422	4.72
399.786	4.63
400.15	4.62
400.514	4.9
400.878	4.55
401.242	4.74
401.605	4.53
401.969	4.66
402.333	4.66
402.697	4.9
403.06	4.8
403.424	4.39
403.787	4.96
404.151	4.68
404.514	4.77
404.878	4.76
405.241	4.7
405.604	4.81
405.968	4.73
406.331	4.67
406.694	4.66
407.057	4.86
407.42	4.63
407.783	4.64
408.146	4.83
408.509	4.62
408.872	4.63
409.235	4.89
409.598	4.99
409.961	4.73
410.323	4.56
410.686	4.73
411.049	4.55
411.411	4.71
411.774	4.72
412.136	4.78
412.499	4.66
412.861	4.64
413.223	5.06
413.586	4.67
413.948	4.93
414.31	4.97
414.672	4.67
415.035	4.94
415.397	4.82
415.759	4.65
416.121	4.77
416.483	5.02
416.845	4.76
417.206	4.67
417.568	4.86
417.93	4.76
418.292	4.84
418.653	4.83
419.015	4.89
419.377	4.91
419.738	4.71
420.1	4.77
420.461	4.65
420.822	4.91
421.184	4.79
421.545	4.86
421.906	4.79
422.267	4.76
422.629	4.78
422.99	4.83
423.351	4.68
423.712	4.89
424.073	4.77
424.434	4.72
424.795	4.77
425.155	4.78
425.516	4.76
425.877	4.81
426.238	4.78
426.598	4.81
426.959	4.81
427.32	4.84
427.68	4.97
428.041	4.88
428.401	4.84
428.761	4.8
429.122	4.86
429.482	4.67
429.842	5.03
430.202	4.89
430.563	4.99
430.923	4.91
431.283	4.97
431.643	5.01
432.003	5.04
432.363	4.99
432.722	4.97
433.082	4.94
433.442	4.95
433.802	5.02
434.161	4.87
434.521	4.93
434.881	5.08
435.24	4.91
435.6	4.91
435.959	4.97
436.319	4.75
436.678	4.98
437.037	4.93
437.396	4.85
437.756	5.11
438.115	5.11
438.474	5.13
438.833	5.07
439.192	5.03
439.551	5.12
439.91	4.99
440.269	5.18
440.628	5.05
440.987	4.98
441.345	4.89
441.704	5.01
442.063	4.94
442.421	5
442.78	5.01
443.138	5.02
443.497	4.95
443.855	4.9
444.214	4.96
444.572	4.97
444.93	5.06
445.288	5.14
445.647	5.1
446.005	4.91
446.363	5.11
446.721	4.96
447.079	5.06
447.437	5.01
447.795	5.04
448.153	4.97
448.51	5.07
448.868	5.11
449.226	5
449.584	5.03
449.941	5.19
450.299	5.05
450.656	5.21
451.014	5.05
451.371	5
451.729	5.14
452.086	4.95
452.443	4.96
452.801	5.15
453.158	4.93
453.515	5.05
453.872	5.28
454.229	4.96
454.586	5.11
454.943	5.1
455.3	5.18
455.657	5.05
456.014	5.19
456.371	5.12
456.727	5.02
457.084	5.04
457.441	5.19
457.797	5.22
458.154	5.09
458.51	5.08
458.867	5.03
459.223	5.21
459.58	5.07
459.936	5.1
460.292	5.31
460.648	5.15
461.005	5.08
461.361	5.05
461.717	5.16
462.073	5.17
462.429	5.22
462.785	5.19
463.141	5.25
463.496	5.24
463.852	5.34
464.208	5.09
464.564	5.23
464.919	5.23
465.275	5.25
465.631	5.19
465.986	5.11
466.342	5.27
466.697	5.21
467.052	5.28
467.408	5.37
467.763	5.12
468.118	5.36
468.473	5.33
468.829	5.13
469.184	5.29
469.539	5.19
469.894	5.17
470.249	5.23
470.603	5.5
470.958	5.24
471.313	5.26
471.668	5.25
472.023	5.41
472.377	5.13
472.732	5.21
473.086	5.11
473.441	5.22
473.795	5.48
474.15	5.24
474.504	5.42
474.859	5.35
475.213	5.34
475.567	5.15
475.921	5.5
476.275	5.38
476.63	5.24
476.984	5.22
477.338	5.52
477.692	5.37
478.045	5.27
478.399	5.35
478.753	5.34
479.107	5.27
479.461	5.36
479.814	5.37
480.168	5.39
480.521	5.29
480.875	5.42
481.228	5.51
481.582	5.27
481.935	5.25
482.289	5.24
482.642	5.51
482.995	5.3
483.348	5.32
483.701	5.29
484.055	5.22
484.408	5.28
484.761	5.11
485.114	5.09
485.466	5.1
485.819	5.1
486.172	5.17
486.525	5.2
486.878	5.25
487.23	5.34
487.583	5.32
487.936	5.34
488.288	5.29
488.641	5.22
488.993	5.19
489.345	5.24
489.698	5.24
490.05	5.24
490.402	5.35
490.754	5.35
491.107	5.39
491.459	5.48
491.811	5.55
492.163	5.48
492.515	5.33
492.866	5.22
493.218	5.28
493.57	5.38
493.922	5.37
494.274	5.4
494.625	5.44
494.977	5.48
495.328	5.53
495.68	5.53
496.031	5.66
496.383	5.52
496.734	5.62
497.086	5.45
497.437	5.53
497.788	5.58
498.139	5.58
498.49	5.55
498.842	5.51
499.193	5.51
499.544	5.65
499.894	5.56
500.245	5.61
500.596	5.58
500.947	5.61
501.298	5.66
501.648	5.56
501.999	5.74
502.35	5.77
502.7	5.75
503.051	5.75
503.401	5.73
503.752	5.66
504.102	5.77
504.452	5.6
504.803	5.53
505.153	5.76
505.503	5.8
505.853	5.6
506.203	5.74
506.553	5.7
506.903	5.76
507.253	5.85
507.603	5.84
507.953	5.85
508.303	5.81
508.652	5.78
509.002	5.84
509.352	5.82
509.701	5.8
510.051	5.91
510.4	5.78
510.75	5.84
511.099	5.73
511.449	5.82
511.798	5.89
512.147	5.77
512.496	5.78
512.846	5.77
513.195	5.75
513.544	5.85
513.893	5.64
514.242	5.98
514.591	5.93
514.939	5.86
515.288	5.88
515.637	5.97
515.986	5.86
516.334	5.95
516.683	5.94
517.032	5.8
517.38	5.92
517.729	6.06
518.077	5.97
518.426	5.83
518.774	5.92
519.122	5.94
519.47	5.97
519.819	5.95
520.167	5.9
520.515	5.91
520.863	5.89
521.211	5.99
521.559	5.94
521.907	6.03
522.255	6.09
522.602	6.12
522.95	6.1
523.298	6.05
523.645	6.14
523.993	6.2
524.341	6.16
524.688	6.01
525.036	6.12
525.383	6.17
525.73	6.07
526.078	6.18
526.425	6.05
526.772	6
527.119	6.05
527.466	6.02
527.814	5.95
528.161	6.12
528.508	6.07
528.854	6.04
529.201	6.04
529.548	5.88
529.895	5.93
530.242	5.9
530.588	6
530.935	5.98
531.282	6.07
531.628	6.07
531.975	6.13
532.321	6.16
532.667	6.21
533.014	6.19
533.36	6.22
533.706	6.29
534.052	6.25
534.399	6.11
534.745	6.17
535.091	6.11
535.437	6.19
535.783	6.28
536.129	6.25
536.474	6.34
536.82	6.24
537.166	6.43
537.512	6.41
537.857	6.35
538.203	6.42
538.549	6.51
538.894	6.45
539.239	6.48
539.585	6.47
539.93	6.5
540.276	6.52
540.621	6.44
540.966	6.49
541.311	6.61
541.656	6.54
542.001	6.55
542.346	6.56
542.691	6.41
543.036	6.39
543.381	6.42
543.726	6.46
544.071	6.53
544.415	6.5
544.76	6.57
545.105	6.59
545.449	6.55
545.794	6.66
546.138	6.69
546.483	6.69
546.827	6.77
547.171	6.69
547.516	6.78
547.86	6.82
548.204	6.77
548.548	6.92
548.892	6.89
549.236	6.86
549.58	6.78
549.924	6.81
550.268	6.96
550.612	6.87
550.956	6.96
551.3	7.08
551.643	6.91
551.987	6.87
552.33	6.97
552.674	7.13
553.017	7.23
553.361	7.22
553.704	7.06
554.048	7.12
554.391	7.08
554.734	7.08
555.077	7.19
555.42	7.27
555.764	7.24
556.107	7.23
556.45	7.18
556.793	7.45
557.135	7.53
557.478	7.55
557.821	7.21
558.164	7.38
558.507	7.27
558.849	7.35
559.192	7.4
559.534	7.25
559.877	7.64
560.219	7.67
560.562	7.6
560.904	7.65
561.246	7.46
561.589	7.61
561.931	7.67
562.273	7.37
562.615	7.59
562.957	7.71
563.299	7.67
563.641	7.57
563.983	7.6
564.325	7.43
564.667	7.78
565.008	7.7
565.35	7.8
565.692	7.9
566.033	7.99
566.375	7.62
566.716	7.94
567.058	7.75
567.399	7.76
567.741	8.04
568.082	7.82
568.423	7.73
568.764	7.89
569.105	7.9
569.447	7.9
569.788	8.05
570.129	7.98
570.47	7.9
570.811	7.95
571.151	8.05
571.492	8.23
571.833	8.1
572.174	7.98
572.514	8.16
572.855	8.16
573.195	8.11
573.536	8.25
573.876	8.19
574.217	8.22
574.557	8.36
574.898	8.19
575.238	8.3
575.578	8.43
575.918	8.34
576.258	8.31
576.598	8.3
576.938	8.56
577.278	8.43
577.618	8.39
577.958	8.52
578.298	8.43
578.638	8.51
578.977	8.78
579.317	8.6
579.657	8.53
579.996	8.54
580.336	8.63
580.675	8.85
581.014	8.54
581.354	8.83
581.693	8.83
582.032	8.76
582.372	8.6
582.711	8.89
583.05	9.14
583.389	8.95
583.728	8.93
584.067	8.87
584.406	9.09
584.745	9.07
585.083	9.34
585.422	9.25
585.761	9.22
586.1	9.31
586.438	9.07
586.777	9.23
587.115	9.29
587.454	9.17
587.792	9.22
588.13	9.42
588.469	9.27
588.807	9.55
589.145	9.38
589.483	9.29
589.821	9.59
590.159	9.38
590.497	9.25
590.835	9.48
591.173	9.63
591.511	9.78
591.849	9.52
592.187	9.76
592.524	9.54
592.862	9.66
593.2	9.79
593.537	9.69
593.875	9.72
594.212	9.8
594.55	9.97
594.887	9.95
595.224	9.93
595.561	9.63
595.899	9.72
596.236	9.9
596.573	9.88
596.91	9.87
597.247	9.79
597.584	9.83
597.921	9.83
598.258	9.99
598.594	9.97
598.931	9.95
599.268	9.79
599.604	10.18
599.941	10.1
600.277	10.27
600.614	10.43
600.95	10.33
601.287	10.27
601.623	10.5
601.959	10.13
602.296	10.64
602.632	10.39
602.968	10.58
603.304	10.3
603.64	10.6
603.976	10.52
604.312	10.7
604.648	10.83
604.984	10.6
605.319	10.62
605.655	10.71
605.991	10.81
606.326	10.82
606.662	10.63
606.998	10.59
607.333	10.8
607.668	10.86
608.004	10.87
608.339	10.87
608.674	10.93
609.01	11.27
609.345	11.12
609.68	10.61
610.015	11.22
610.35	11.05
610.685	11.25
611.02	11.01
611.355	11.39
611.689	11.04
612.024	11.25
612.359	11.37
612.694	11.5
613.028	11.47
613.363	11.29
613.697	11.76
614.032	11.44
614.366	11.3
614.7	11.53
615.035	11.63
615.369	11.55
615.703	11.94
616.037	11.56
616.371	11.53
616.705	11.67
617.039	11.96
617.373	11.67
617.707	11.53
618.041	12.22
618.375	11.55
618.709	12.18
619.042	12.06
619.376	11.92
619.71	11.69
620.043	11.6
620.377	12.31
620.71	12.16
621.043	11.99
621.377	12.16
621.71	12.05
622.043	12.17
622.376	12.13
622.709	12.45
623.043	12.38
623.376	12.33
623.709	12.56
624.041	12.16
624.374	12.36
624.707	12.33
625.04	12.61
625.373	12.91
625.705	12.38
626.038	12.44
626.37	12.63
626.703	12.42
627.035	12.56
627.368	12.63
627.7	12.85
628.032	12.67
628.365	12.71
628.697	12.7
629.029	12.95
629.361	12.94
629.693	12.9
630.025	12.89
630.357	12.91
630.689	13.43
631.021	12.85
631.353	13.35
631.684	13.12
632.016	12.68
632.348	13.2
632.679	13.29
633.011	13.37
633.342	13.13
633.674	13.37
634.005	13.56
634.336	13.57
634.668	13.27
634.999	13.38
635.33	12.96
635.661	13.58
635.992	13.67
636.323	13.59
636.654	14.05
636.985	13.55
637.316	13.66
637.647	13.71
637.977	13.66
638.308	13.77
638.639	13.89
638.969	13.99
639.3	13.74
639.63	13.95
639.961	13.67
640.291	14.35
640.622	14.18
640.952	14.42
641.282	13.77
641.612	13.92
641.943	14.52
642.273	14.26
642.603	14.27
642.933	13.99
643.263	14.54
643.592	13.98
643.922	14.57
644.252	14.19
644.582	14.39
644.911	14.05
645.241	14.65
645.571	14.52
645.9	14.69
646.23	14.17
646.559	14.73
646.888	14.37
647.218	14.63
647.547	15.08
647.876	15.42
648.205	14.11
648.534	14.15
648.863	15.58
649.192	14.53
649.521	14.3
649.85	15.16
650.179	14.88
650.508	14.99
650.837	15.28
651.165	15.13
651.494	14.68
651.822	15.11
652.151	15.62
652.479	15.79
652.808	14.74
653.136	15.06
653.465	15.44
653.793	15.47
654.121	15.57
654.449	15.82
654.777	15.46
655.105	15.55
655.433	15.86
655.761	15.21
656.089	15.95
656.417	15.75
656.745	16
657.073	15.96
657.4	15.73
657.728	15.72
658.056	15.52
658.383	15.9
658.711	15.77
659.038	15.94
659.365	15.97
659.693	15.72
660.02	16.18
660.347	15.8
660.674	15.76
661.001	15.66
661.329	16.09
661.656	16.4
661.982	16.16
662.309	16.23
662.636	16.25
662.963	16.48
663.29	16.43
663.616	16.37
663.943	16.84
664.27	16
664.596	16.19
664.923	16.87
665.249	16.33
665.576	16.1
665.902	16.5
666.228	16.99
666.554	16.35
666.881	16.99
667.207	16.6
667.533	16.9
667.859	16.47
668.185	16.89
668.511	16.61
668.837	16.72
669.162	16.83
669.488	17.38
669.814	17.61
670.139	17.5
670.465	17.68
670.791	17.34
671.116	17.17
671.442	17.02
671.767	16.79
672.092	17.16
672.418	16.9
672.743	17.27
673.068	17.13
673.393	17.22
673.718	17.24
674.043	17.66
674.368	17.76
674.693	18.08
675.018	17.7
675.343	17.1
675.667	18.08
675.992	17.12
676.317	17.47
676.641	17.84
676.966	17.76
677.29	17.56
677.615	18.12
677.939	17.61
678.264	17.98
678.588	17.7
678.912	18.55
679.236	18.2
679.56	18.01
679.885	18.94
680.209	17.85
680.532	18.19
680.856	18.23
681.18	18.45
681.504	17.95
681.828	18.04
682.152	18.48
682.475	18.41
682.799	18.29
683.122	18.23
683.446	17.83
683.769	18.9
684.093	18.29
684.416	18.91
684.739	18.62
685.062	18.73
685.386	18.63
685.709	19.34
