Data from 0071_forehead_Reflection__0__324.txt Node

Date: Fri Dec 16 16:40:24 CST 2022
User: ToomeyLab
Spectrometer: FLMS14357
Trigger mode: 0
Integration Time (sec): 1.000000E-2
Scans to average: 100
Electric dark correction enabled: true
Nonlinearity correction enabled: false
Boxcar width: 0
XAxis mode: Wavelengths
Number of Pixels in Spectrum: 2048
>>>>>Begin Spectral Data<<<<<
189.047	9008.57
189.435	9008.57
189.823	9008.57
190.211	72.54
190.599	18.94
190.987	-24.85
191.375	63.92
191.763	3201.2
192.151	351.1
192.538	220.16
192.926	-104.61
193.314	70.11
193.702	583.87
194.089	-331.66
194.477	-1952.48
194.864	-233.12
195.252	-79.83
195.639	275.52
196.027	1004.71
196.414	373.43
196.801	110.74
197.189	-22.91
197.576	-169.16
197.963	70.94
198.351	-38.79
198.738	-13.39
199.125	16.84
199.512	-38.54
199.899	-15.46
200.286	-78.96
200.673	36.72
201.06	19.33
201.447	22.32
201.833	24.27
202.22	12.03
202.607	19.33
202.994	22.86
203.38	-36.15
203.767	-12.44
204.154	-40.58
204.54	32.05
204.927	19.09
205.313	26.83
205.699	-14.96
206.086	9.48
206.472	10.4
206.858	7.04
207.245	20.59
207.631	-43.17
208.017	0.41
208.403	-23.17
208.789	6.31
209.175	27.51
209.561	12.51
209.947	-19.98
210.333	-62.74
210.719	-20.31
211.105	-76.1
211.491	8.74
211.876	-37.57
212.262	-29.7
212.648	-55.6
213.034	-0.91
213.419	13.73
213.805	18.01
214.19	-5.49
214.576	-5.32
214.961	-30.79
215.346	-24.48
215.732	-25.58
216.117	-31.4
216.502	-0.73
216.888	-35.75
217.273	-3.2
217.658	1.89
218.043	-8.65
218.428	-16.6
218.813	-17.69
219.198	-18.9
219.583	5.67
219.968	10.42
220.353	5.1
220.738	-8.08
221.122	-21.83
221.507	-7.36
221.892	-11.76
222.276	-13.41
222.661	-4.69
223.046	6.17
223.43	-9.83
223.815	-2.1
224.199	5.49
224.583	-3.35
224.968	-1.34
225.352	1.83
225.736	4.14
226.121	-8.13
226.505	1.85
226.889	14.68
227.273	3.01
227.657	-1.04
228.041	2.13
228.425	4.65
228.809	4.61
229.193	0.17
229.577	1.54
229.961	2.46
230.344	2.43
230.728	3.1
231.112	1.03
231.495	3.04
231.879	3.38
232.263	2.12
232.646	2.78
233.03	-0.28
233.413	0.45
233.797	3.97
234.18	0.85
234.563	0.89
234.946	0.41
235.33	2.67
235.713	3.08
236.096	1.68
236.479	2.99
236.862	3.23
237.245	2.55
237.628	3.53
238.011	1.6
238.394	4.4
238.777	1.17
239.16	-0.47
239.543	2.38
239.925	5.24
240.308	2.49
240.691	2.3
241.073	2.8
241.456	1.61
241.838	2.33
242.221	2.32
242.603	3.03
242.986	3.27
243.368	3.26
243.75	2.58
244.133	3.02
244.515	2.85
244.897	2.64
245.279	2.07
245.661	3
246.043	2.7
246.425	2.37
246.807	2.33
247.189	2.93
247.571	3.24
247.953	3.06
248.335	3.35
248.717	3.13
249.098	3.12
249.48	3.05
249.862	3.01
250.243	3.54
250.625	2.98
251.006	3.25
251.388	3.23
251.769	2.28
252.151	3.54
252.532	3.05
252.913	2.99
253.295	2.46
253.676	3.38
254.057	3.13
254.438	3.27
254.819	2.34
255.2	2.99
255.581	0.87
255.962	2.26
256.343	3.57
256.724	3.34
257.105	2.27
257.486	2.93
257.867	2.46
258.247	4.18
258.628	2.71
259.009	2.58
259.389	3.45
259.77	2.64
260.15	4.11
260.531	3.19
260.911	3.22
261.292	3.16
261.672	3.01
262.052	2.94
262.432	3.27
262.813	2.92
263.193	2.73
263.573	3.74
263.953	2.91
264.333	2.48
264.713	2.9
265.093	3.38
265.473	3.98
265.853	3.13
266.233	2.33
266.612	2.69
266.992	2.6
267.372	3.09
267.752	2.99
268.131	2.93
268.511	3.31
268.89	3.08
269.27	3.13
269.649	3.39
270.029	3.07
270.408	3.06
270.787	2.49
271.167	3.16
271.546	2.3
271.925	3.11
272.304	3
272.683	2.96
273.062	3.2
273.441	3.19
273.82	3.23
274.199	3.22
274.578	3.02
274.957	2.78
275.336	2.56
275.715	3.79
276.093	3.06
276.472	3.1
276.851	2.74
277.229	3.79
277.608	2.75
277.986	2.7
278.365	2.72
278.743	3.4
279.122	2.4
279.5	2.6
279.878	2.48
280.257	3.77
280.635	3.03
281.013	3.14
281.391	2.76
281.769	2.72
282.147	3.04
282.525	2.67
282.903	3.22
283.281	3.3
283.659	3.18
284.037	3
284.415	3.03
284.792	3.04
285.17	2.62
285.548	3.21
285.925	3.18
286.303	3.01
286.68	3.1
287.058	3.07
287.435	2.67
287.813	3.35
288.19	3.72
288.567	2.67
288.945	3.01
289.322	2.81
289.699	3.23
290.076	3.31
290.453	2.83
290.83	3.03
291.207	3.16
291.584	3.4
291.961	3.39
292.338	3.21
292.715	3.8
293.092	3.25
293.469	3.76
293.845	3.99
294.222	3.48
294.599	3.66
294.975	3.73
295.352	3.14
295.728	3.65
296.105	3.74
296.481	4.09
296.858	3.88
297.234	3.68
297.61	3.92
297.986	4.02
298.363	3.57
298.739	4.04
299.115	3.34
299.491	3.79
299.867	3.71
300.243	3.52
300.619	3.98
300.995	4.26
301.371	3.9
301.746	4.05
302.122	4.35
302.498	4.06
302.874	4.47
303.249	4.53
303.625	4.08
304	4.02
304.376	3.8
304.751	4.39
305.127	4.22
305.502	4.47
305.878	4.39
306.253	4.36
306.628	4.33
307.003	5.18
307.378	4.24
307.754	4.59
308.129	3.87
308.504	4.18
308.879	4.56
309.254	4.74
309.629	4.35
310.003	5.09
310.378	5.06
310.753	4.7
311.128	4.91
311.502	4.58
311.877	5.07
312.252	4.96
312.626	4.68
313.001	5.08
313.375	4.88
313.75	4.83
314.124	5.38
314.498	4.78
314.873	5.04
315.247	4.63
315.621	5.01
315.995	5.39
316.369	5.6
316.743	5.57
317.117	5.75
317.491	5
317.865	5.03
318.239	5.58
318.613	5.6
318.987	5.67
319.361	5.89
319.734	5.66
320.108	5.38
320.482	5.51
320.855	5.72
321.229	5.61
321.602	6.06
321.976	5.51
322.349	5.02
322.723	5.87
323.096	6.2
323.469	5.84
323.843	5.89
324.216	5.73
324.589	6.57
324.962	6.42
325.335	6.2
325.708	6.24
326.081	6.73
326.454	6.18
326.827	6.1
327.2	6.38
327.573	5.92
327.945	6.03
328.318	6.73
328.691	7.03
329.063	6.33
329.436	6.74
329.809	6.8
330.181	6.64
330.553	7.02
330.926	6.69
331.298	6.4
331.671	7.16
332.043	6.71
332.415	7.05
332.787	7.71
333.159	6.71
333.532	6.7
333.904	7.33
334.276	6.99
334.648	7.22
335.02	6.99
335.391	7.44
335.763	7
336.135	7.39
336.507	7.31
336.879	6.94
337.25	6.91
337.622	7.61
337.993	7.49
338.365	7.65
338.736	7.34
339.108	7.33
339.479	6.91
339.851	7.79
340.222	7.65
340.593	7.18
340.964	7.58
341.336	7.24
341.707	7.35
342.078	7.25
342.449	7.97
342.82	7.79
343.191	7.58
343.562	7.92
343.933	7.56
344.303	8.39
344.674	8.5
345.045	8.57
345.416	8.12
345.786	7.29
346.157	8.13
346.527	7.61
346.898	7.93
347.268	8.04
347.639	8.3
348.009	8.76
348.38	8.38
348.75	8.51
349.12	8.39
349.49	8.12
349.861	9.07
350.231	8.48
350.601	8.47
350.971	8.41
351.341	8.22
351.711	8.58
352.081	8.44
352.45	9.17
352.82	8.83
353.19	8.56
353.56	8.99
353.929	9.13
354.299	8.79
354.669	9.15
355.038	8.9
355.408	9.45
355.777	8.97
356.147	9.34
356.516	9.43
356.885	9.39
357.254	9.42
357.624	9.52
357.993	9.42
358.362	9.41
358.731	9.44
359.1	9.64
359.469	9.4
359.838	9.4
360.207	9.34
360.576	9.75
360.945	9.69
361.314	9.59
361.682	9.28
362.051	9.48
362.42	9.69
362.788	10.1
363.157	9.7
363.525	9.77
363.894	9.64
364.262	9.85
364.631	10.78
364.999	9.69
365.367	10.47
365.735	9.8
366.104	10.24
366.472	10.42
366.84	10.37
367.208	9.87
367.576	10.28
367.944	10.59
368.312	10.07
368.68	10.87
369.048	10.61
369.416	10.14
369.783	10.21
370.151	10.35
370.519	10.68
370.886	10.52
371.254	10.89
371.621	10.74
371.989	10.54
372.356	10.64
372.724	10.79
373.091	10.82
373.458	10.75
373.826	10.66
374.193	11.52
374.56	10.62
374.927	10.74
375.294	11.34
375.661	11.39
376.028	11.39
376.395	11.43
376.762	11.49
377.129	11.24
377.496	11.29
377.863	11.78
378.229	11.69
378.596	11.58
378.963	11.39
379.329	11.38
379.696	11.43
380.062	11.86
380.429	11.81
380.795	11.32
381.161	11.59
381.528	11.74
381.894	11.9
382.26	11.86
382.626	11.64
382.993	11.76
383.359	11.91
383.725	12.08
384.091	11.89
384.457	12.26
384.823	12.01
385.188	12.54
385.554	12.31
385.92	12.46
386.286	12.3
386.651	12.22
387.017	12.54
387.383	12.37
387.748	12.33
388.114	12.42
388.479	12.57
388.845	12.78
389.21	12.51
389.575	12.74
389.94	12.47
390.306	12.58
390.671	12.63
391.036	12.92
391.401	13.31
391.766	12.89
392.131	12.66
392.496	13.04
392.861	12.81
393.226	12.85
393.591	12.87
393.956	13.17
394.32	12.93
394.685	13.11
395.05	12.96
395.414	13.16
395.779	13.13
396.143	13.26
396.508	13.16
396.872	13.58
397.236	13.26
397.601	13.64
397.965	13.52
398.329	13.54
398.694	13.33
399.058	13.57
399.422	13.58
399.786	13.3
400.15	13.7
400.514	13.87
400.878	13.56
401.242	14.02
401.605	13.9
401.969	13.96
402.333	14
402.697	13.98
403.06	13.92
403.424	13.77
403.787	14.32
404.151	13.93
404.514	14.04
404.878	14.07
405.241	14.35
405.604	13.95
405.968	14.13
406.331	14.27
406.694	14.12
407.057	14.38
407.42	14.2
407.783	14.22
408.146	14.59
408.509	14.2
408.872	14.16
409.235	14.51
409.598	14.47
409.961	14.75
410.323	14.5
410.686	14.39
411.049	14.55
411.411	14.53
411.774	14.73
412.136	14.81
412.499	14.51
412.861	14.72
413.223	14.96
413.586	14.78
413.948	14.95
414.31	15.08
414.672	14.94
415.035	15.23
415.397	15.02
415.759	15.13
416.121	15.46
416.483	15.2
416.845	15.03
417.206	15.35
417.568	15.3
417.93	15.13
418.292	15.08
418.653	15.14
419.015	15.24
419.377	15.1
419.738	15.19
420.1	15.2
420.461	15.37
420.822	15.49
421.184	15.35
421.545	15.45
421.906	15.34
422.267	15.28
422.629	15.26
422.99	15.31
423.351	15.43
423.712	15.48
424.073	15.6
424.434	15.57
424.795	15.56
425.155	15.65
425.516	15.51
425.877	15.66
426.238	15.51
426.598	15.77
426.959	15.68
427.32	15.92
427.68	16.03
428.041	16.01
428.401	16.12
428.761	16.15
429.122	16.11
429.482	16.32
429.842	16.29
430.202	16.21
430.563	16.42
430.923	16.25
431.283	16.48
431.643	16.51
432.003	16.5
432.363	16.73
432.722	16.61
433.082	16.51
433.442	16.61
433.802	16.58
434.161	16.61
434.521	16.82
434.881	16.83
435.24	16.75
435.6	16.77
435.959	16.85
436.319	16.7
436.678	16.98
437.037	16.89
437.396	16.83
437.756	17.1
438.115	17.15
438.474	17.26
438.833	17.2
439.192	17.28
439.551	17.26
439.91	17.12
440.269	17.38
440.628	17.31
440.987	17.28
441.345	17.3
441.704	17.31
442.063	17.25
442.421	17.45
442.78	17.49
443.138	17.49
443.497	17.46
443.855	17.4
444.214	17.7
444.572	17.72
444.93	17.69
445.288	17.78
445.647	17.86
446.005	17.72
446.363	17.86
446.721	17.79
447.079	17.78
447.437	17.73
447.795	17.75
448.153	17.64
448.51	17.85
448.868	17.88
449.226	17.95
449.584	18.08
449.941	18.09
450.299	18.19
450.656	18.23
451.014	18.42
451.371	18.37
451.729	18.36
452.086	18.36
452.443	18.34
452.801	18.52
453.158	18.67
453.515	18.52
453.872	18.65
454.229	18.58
454.586	18.63
454.943	18.55
455.3	18.91
455.657	18.74
456.014	19.1
456.371	18.89
456.727	18.59
457.084	18.79
457.441	18.9
457.797	19.18
458.154	19.07
458.51	19.06
458.867	19.16
459.223	19.05
459.58	19.16
459.936	19.03
460.292	19.13
460.648	19.05
461.005	18.94
461.361	18.88
461.717	19.11
462.073	19.1
462.429	19.2
462.785	19.43
463.141	19.34
463.496	19.55
463.852	19.64
464.208	19.52
464.564	19.55
464.919	19.71
465.275	19.73
465.631	19.72
465.986	19.68
466.342	19.8
466.697	19.68
467.052	20.15
467.408	19.85
467.763	19.81
468.118	19.92
468.473	20.1
468.829	20.17
469.184	20.22
469.539	20.03
469.894	20.19
470.249	20.32
470.603	20.35
470.958	20.41
471.313	20.36
471.668	20.4
472.023	20.59
472.377	20.45
472.732	20.69
473.086	20.27
473.441	20.71
473.795	20.71
474.15	20.39
474.504	20.56
474.859	20.73
475.213	20.71
475.567	20.81
475.921	20.86
476.275	20.78
476.63	20.91
476.984	20.89
477.338	21.06
477.692	20.98
478.045	20.87
478.399	21.12
478.753	20.97
479.107	20.82
479.461	20.88
479.814	20.94
480.168	21.06
480.521	21.19
480.875	21.27
481.228	21.26
481.582	20.97
481.935	21.1
482.289	21.11
482.642	21.36
482.995	21.18
483.348	21.01
483.701	21.03
484.055	20.86
484.408	20.76
484.761	20.34
485.114	20.29
485.466	20.21
485.819	20.31
486.172	20.54
486.525	20.57
486.878	20.76
487.23	20.97
487.583	21.02
487.936	20.96
488.288	20.87
488.641	20.81
488.993	20.71
489.345	20.76
489.698	20.86
490.05	21.03
490.402	21.12
490.754	21.4
491.107	21.51
491.459	21.67
491.811	21.71
492.163	21.72
492.515	21.42
492.866	21.21
493.218	21.14
493.57	21.28
493.922	21.4
494.274	21.71
494.625	21.85
494.977	22.14
495.328	22.34
495.68	22.39
496.031	22.45
496.383	22.43
496.734	22.52
497.086	22.43
497.437	22.58
497.788	22.37
498.139	22.4
498.49	22.38
498.842	22.36
499.193	22.46
499.544	22.58
499.894	22.63
500.245	22.57
500.596	22.66
500.947	22.71
501.298	22.79
501.648	22.87
501.999	23.09
502.35	23.15
502.7	23.12
503.051	23.21
503.401	23.24
503.752	23.26
504.102	23.15
504.452	23.16
504.803	23.32
505.153	23.14
505.503	23.14
505.853	23.2
506.203	23.36
506.553	23.33
506.903	23.38
507.253	23.39
507.603	23.4
507.953	23.6
508.303	23.62
508.652	23.69
509.002	23.71
509.352	23.45
509.701	23.49
510.051	23.67
510.4	23.44
510.75	23.51
511.099	23.49
511.449	23.57
511.798	23.67
512.147	23.56
512.496	23.83
512.846	23.67
513.195	23.71
513.544	23.67
513.893	23.5
514.242	23.83
514.591	23.88
514.939	23.88
515.288	23.91
515.637	23.98
515.986	23.93
516.334	24.09
516.683	24.17
517.032	24.21
517.38	24.16
517.729	24.31
518.077	24.22
518.426	24.07
518.774	23.97
519.122	24.23
519.47	24.03
519.819	23.84
520.167	23.8
520.515	23.9
520.863	23.98
521.211	24.02
521.559	24.22
521.907	24.13
522.255	24.38
522.602	24.46
522.95	24.29
523.298	24.61
523.645	24.46
523.993	24.64
524.341	24.49
524.688	24.65
525.036	24.85
525.383	24.7
525.73	24.71
526.078	24.66
526.425	24.53
526.772	24.23
527.119	24.22
527.466	24.28
527.814	24.37
528.161	24.32
528.508	24.46
528.854	24.35
529.201	24.08
529.548	23.93
529.895	23.71
530.242	23.85
530.588	24.03
530.935	24.1
531.282	24.16
531.628	24.26
531.975	24.42
532.321	24.59
532.667	24.69
533.014	24.76
533.36	24.81
533.706	24.75
534.052	24.5
534.399	24.39
534.745	24.43
535.091	24.46
535.437	24.62
535.783	24.82
536.129	24.9
536.474	25.06
536.82	24.94
537.166	25.29
537.512	25.26
537.857	25.06
538.203	25.08
538.549	25.23
538.894	25.23
539.239	25.46
539.585	25.6
539.93	25.53
540.276	25.54
540.621	25.57
540.966	25.62
541.311	25.79
541.656	25.56
542.001	25.41
542.346	25.1
542.691	24.84
543.036	24.91
543.381	25.03
543.726	25.18
544.071	25.42
544.415	25.47
544.76	25.45
545.105	25.59
545.449	25.61
545.794	25.69
546.138	25.87
546.483	25.94
546.827	26.06
547.171	25.91
547.516	26.11
547.86	26.18
548.204	26.07
548.548	26.06
548.892	26
549.236	26.33
549.58	26.43
549.924	26.58
550.268	26.39
550.612	26.51
550.956	26.54
551.3	26.77
551.643	26.75
551.987	26.62
552.33	26.86
552.674	27.02
553.017	26.92
553.361	26.83
553.704	26.83
554.048	26.96
554.391	26.83
554.734	26.93
555.077	26.99
555.42	26.97
555.764	27.2
556.107	26.94
556.45	27.25
556.793	27.4
557.135	27.38
557.478	27.38
557.821	27.23
558.164	27.55
558.507	27.37
558.849	27.4
559.192	27.47
559.534	27.42
559.877	27.49
560.219	27.5
560.562	27.62
560.904	27.86
561.246	27.55
561.589	27.6
561.931	27.66
562.273	27.72
562.615	27.63
562.957	27.66
563.299	27.65
563.641	27.84
563.983	27.62
564.325	27.5
564.667	27.59
565.008	27.79
565.35	28.09
565.692	27.77
566.033	27.77
566.375	27.71
566.716	27.88
567.058	28.09
567.399	27.8
567.741	27.9
568.082	27.88
568.423	27.71
568.764	27.78
569.105	27.92
569.447	27.8
569.788	28.18
570.129	28.32
570.47	28.12
570.811	28.08
571.151	28.26
571.492	28.3
571.833	28.01
572.174	28.21
572.514	28.02
572.855	28.17
573.195	28.12
573.536	27.99
573.876	28.03
574.217	28.18
574.557	28.45
574.898	28.15
575.238	28.45
575.578	28.37
575.918	28.41
576.258	28.44
576.598	28.55
576.938	28.47
577.278	28.23
577.618	28.48
577.958	28.35
578.298	28.57
578.638	28.71
578.977	28.71
579.317	28.75
579.657	28.61
579.996	28.66
580.336	28.89
580.675	28.97
581.014	29.08
581.354	29.33
581.693	29.07
582.032	29.02
582.372	29.28
582.711	28.87
583.05	29.35
583.389	29.28
583.728	29.45
584.067	29.08
584.406	29.22
584.745	29.05
585.083	29.41
585.422	29.46
585.761	29.59
586.1	29.41
586.438	29.41
586.777	29.57
587.115	29.22
587.454	29.54
587.792	29.16
588.13	29.83
588.469	29.42
588.807	29.46
589.145	29.57
589.483	29.36
589.821	29.65
590.159	29.46
590.497	29.2
590.835	29.49
591.173	29.86
591.511	29.89
591.849	29.66
592.187	29.82
592.524	29.47
592.862	29.86
593.2	30.1
593.537	30.01
593.875	30.02
594.212	29.99
594.55	29.66
594.887	30.35
595.224	30.08
595.561	30.07
595.899	30.03
596.236	29.99
596.573	29.87
596.91	29.99
597.247	29.99
597.584	29.75
597.921	30.26
598.258	29.8
598.594	29.59
598.931	29.71
599.268	30.06
599.604	30.5
599.941	30.02
600.277	30.26
600.614	30.1
600.95	30.45
601.287	30.41
601.623	30.69
601.959	30.36
602.296	30.35
602.632	30.3
602.968	30.58
603.304	30.35
603.64	30.28
603.976	30.37
604.312	30.75
604.648	30.51
604.984	30.21
605.319	30.57
605.655	30.44
605.991	30.53
606.326	30.21
606.662	30.46
606.998	30.34
607.333	30.4
607.668	30.81
608.004	30.91
608.339	30.65
608.674	30.76
609.01	30.87
609.345	30.95
609.68	30.77
610.015	30.76
610.35	30.55
610.685	31.04
611.02	30.96
611.355	30.73
611.689	30.85
612.024	31.13
612.359	31.18
612.694	31.4
613.028	31.35
613.363	31.03
613.697	31.25
614.032	31.41
614.366	30.94
614.7	31.19
615.035	31.53
615.369	31.23
615.703	31.45
616.037	31.7
616.371	31.31
616.705	31.38
617.039	31.82
617.373	31.36
617.707	31.88
618.041	31.96
618.375	31.31
618.709	31.62
619.042	31.61
619.376	31.4
619.71	31.27
620.043	31.83
620.377	31.74
620.71	31.47
621.043	31.7
621.377	31.42
621.71	31.8
622.043	32.09
622.376	31.72
622.709	32.22
623.043	31.71
623.376	32.13
623.709	32.07
624.041	31.84
624.374	31.88
624.707	31.69
625.04	31.79
625.373	32.04
625.705	31.98
626.038	31.99
626.37	31.84
626.703	31.84
627.035	32
627.368	32.51
627.7	32.11
628.032	32.27
628.365	32.03
628.697	31.7
629.029	32.39
629.361	32.02
629.693	31.89
630.025	31.97
630.357	32.46
630.689	31.98
631.021	32.16
631.353	32.22
631.684	32.48
632.016	32.27
632.348	32.73
632.679	32.38
633.011	32.48
633.342	32.29
633.674	32.47
634.005	32.32
634.336	32.49
634.668	32.58
634.999	32.77
635.33	32.62
635.661	32.32
635.992	33.34
636.323	32.65
636.654	32.59
636.985	32.71
637.316	32.91
637.647	32.99
637.977	32.27
638.308	32.43
638.639	32.92
638.969	32.73
639.3	32.94
639.63	32.56
639.961	33.02
640.291	33.41
640.622	33.4
640.952	33.51
641.282	32.62
641.612	33.03
641.943	33.56
642.273	32.98
642.603	33.15
642.933	33.43
643.263	33.32
643.592	33.72
643.922	33.83
644.252	33
644.582	33.5
644.911	33.04
645.241	32.8
645.571	33.2
645.9	33.42
646.23	32.98
646.559	33.32
646.888	33.67
647.218	33.5
647.547	34.27
647.876	33.88
648.205	33.8
648.534	32.98
648.863	33.65
649.192	33.56
649.521	33.15
649.85	34.11
650.179	33.48
650.508	33.59
650.837	33.63
651.165	34.29
651.494	33.95
651.822	33.54
652.151	33.47
652.479	33.64
652.808	33.55
653.136	33.71
653.465	34.01
653.793	34.4
654.121	33.97
654.449	34.1
654.777	33.91
655.105	34.49
655.433	34.2
655.761	33.46
656.089	33.44
656.417	33.93
656.745	34.74
657.073	34.52
657.4	34.03
657.728	35.11
658.056	33.92
658.383	33.86
658.711	33.78
659.038	34.56
659.365	34.19
659.693	33.9
660.02	33.66
660.347	34.11
660.674	33.63
661.001	33.51
661.329	34.16
661.656	33.64
661.982	34.07
662.309	34.45
662.636	33.91
662.963	34.49
663.29	34.52
663.616	34.1
663.943	34.54
664.27	34.34
664.596	34.37
664.923	34.4
665.249	34.39
665.576	34.28
665.902	34.89
666.228	34.53
666.554	34.62
666.881	35.11
667.207	34.16
667.533	34.61
667.859	34.64
668.185	35.23
668.511	34.5
668.837	33.79
669.162	34.95
669.488	34.99
669.814	35.12
670.139	35.51
670.465	34.81
670.791	34.49
671.116	34.67
