Data from 0071_crown_Reflection__1__320.txt Node

Date: Fri Dec 16 16:39:15 CST 2022
User: ToomeyLab
Spectrometer: FLMS14357
Trigger mode: 0
Integration Time (sec): 1.000000E-2
Scans to average: 100
Electric dark correction enabled: true
Nonlinearity correction enabled: false
Boxcar width: 0
XAxis mode: Wavelengths
Number of Pixels in Spectrum: 2048
>>>>>Begin Spectral Data<<<<<
189.047	5640
189.435	5640
189.823	5640
190.211	56
190.599	106.75
190.987	-7.6
191.375	-95.61
191.763	7004.82
192.151	-169.8
192.538	-2.39
192.926	-8.79
193.314	110.12
193.702	2677.42
194.089	129.72
194.477	-991.49
194.864	265.09
195.252	294.61
195.639	164.25
196.027	1152.85
196.414	114.98
196.801	-41.75
197.189	147.43
197.576	-118.48
197.963	101.12
198.351	-14.53
198.738	-20.35
199.125	18.16
199.512	-24.14
199.899	-85.78
200.286	-120.45
200.673	11.88
201.06	57.25
201.447	27.51
201.833	14.64
202.22	12.29
202.607	-52.3
202.994	18.33
203.38	-46.9
203.767	-8.35
204.154	-86.56
204.54	10.47
204.927	14.03
205.313	32.83
205.699	-30.02
206.086	-34.71
206.472	-9.39
206.858	1.86
207.245	-3.17
207.631	-66.19
208.017	6.2
208.403	13.81
208.789	-1.26
209.175	45.24
209.561	-2.33
209.947	-14.2
210.333	-72.03
210.719	-23.73
211.105	-86.45
211.491	-11.46
211.876	-34.06
212.262	-72.05
212.648	-44.9
213.034	-14.82
213.419	-3.61
213.805	-28.26
214.19	-42.36
214.576	-24.52
214.961	-30.11
215.346	-44.04
215.732	-33.09
216.117	-15.98
216.502	-36.92
216.888	-55.37
217.273	-13.29
217.658	-18.59
218.043	-46.11
218.428	-1.65
218.813	-5.39
219.198	-47.97
219.583	-9.17
219.968	-14.46
220.353	-16.7
220.738	-53.21
221.122	-18.74
221.507	-30.01
221.892	-0.89
222.276	-5.84
222.661	-11.32
223.046	6.4
223.43	-14.26
223.815	-3.97
224.199	-6.14
224.583	-2.59
224.968	5.7
225.352	-0.44
225.736	-3.84
226.121	-10.94
226.505	-0.53
226.889	-2.18
227.273	-4.6
227.657	-2.08
228.041	0.16
228.425	0.44
228.809	-1.15
229.193	-1.16
229.577	2.05
229.961	2.45
230.344	2.13
230.728	2.31
231.112	2.9
231.495	2.03
231.879	2.16
232.263	1.35
232.646	-0.03
233.03	0.15
233.413	2.44
233.797	2.67
234.18	0.12
234.563	0.79
234.946	0.77
235.33	2.41
235.713	1.92
236.096	0.94
236.479	1.89
236.862	1.42
237.245	1.72
237.628	2.4
238.011	0.43
238.394	4.33
238.777	1.22
239.16	0.07
239.543	-0.87
239.925	1.79
240.308	1.91
240.691	1.55
241.073	2.1
241.456	1.85
241.838	2.55
242.221	2.45
242.603	1.92
242.986	3.13
243.368	2.2
243.75	1.99
244.133	2.07
244.515	1.88
244.897	2.18
245.279	1.64
245.661	1.77
246.043	2.76
246.425	0.87
246.807	2.25
247.189	1.37
247.571	2.27
247.953	2.24
248.335	2.59
248.717	2.22
249.098	2.37
249.48	2.12
249.862	2.01
250.243	2.35
250.625	2.11
251.006	2.4
251.388	2.46
251.769	1.69
252.151	1.88
252.532	2
252.913	1.97
253.295	1.89
253.676	2.83
254.057	1.8
254.438	1.33
254.819	1.65
255.2	2.17
255.581	1.76
255.962	1.92
256.343	3.44
256.724	1.93
257.105	1.5
257.486	1.59
257.867	0.69
258.247	1.27
258.628	2.49
259.009	1.41
259.389	1.96
259.77	2.12
260.15	2.77
260.531	2.34
260.911	2.24
261.292	2.22
261.672	2.29
262.052	2.19
262.432	2.07
262.813	1.96
263.193	1.41
263.573	1.49
263.953	1.6
264.333	1.55
264.713	2.2
265.093	1.58
265.473	2.91
265.853	1.71
266.233	1.53
266.612	2.34
266.992	1.81
267.372	2.07
267.752	1.44
268.131	1.97
268.511	2.26
268.89	2.17
269.27	1.97
269.649	1.99
270.029	1.35
270.408	1.39
270.787	2.26
271.167	2.37
271.546	1.27
271.925	1.43
272.304	2.07
272.683	1.69
273.062	2.29
273.441	2.55
273.82	2.39
274.199	2.1
274.578	1.87
274.957	2
275.336	1.88
275.715	2.51
276.093	2.64
276.472	1.91
276.851	1.63
277.229	1.96
277.608	1.79
277.986	2.19
278.365	2.07
278.743	1.74
279.122	1.59
279.5	1.83
279.878	0.89
280.257	2.17
280.635	1.68
281.013	2.24
281.391	1.79
281.769	1.5
282.147	1.9
282.525	1.8
282.903	1.87
283.281	1.75
283.659	1.94
284.037	2.15
284.415	2.06
284.792	2.19
285.17	1.42
285.548	1.87
285.925	1.44
286.303	2.08
286.68	2.36
287.058	1.89
287.435	1.98
287.813	2.22
288.19	2.38
288.567	1.95
288.945	1.75
289.322	1.5
289.699	1.65
290.076	2.18
290.453	1.48
290.83	2.21
291.207	1.73
291.584	1.74
291.961	2.25
292.338	1.96
292.715	1.92
293.092	2.07
293.469	2.49
293.845	2.27
294.222	1.84
294.599	2.32
294.975	1.83
295.352	1.12
295.728	1.98
296.105	2.11
296.481	2.53
296.858	2.1
297.234	1.93
297.61	2.15
297.986	2.02
298.363	1.92
298.739	2.37
299.115	1.74
299.491	1.97
299.867	2.24
300.243	1.82
300.619	1.86
300.995	2
301.371	2.04
301.746	1.46
302.122	2.14
302.498	2.56
302.874	2.08
303.249	2.55
303.625	2.1
304	1.67
304.376	2.17
304.751	1.89
305.127	2.08
305.502	2.41
305.878	1.78
306.253	1.7
306.628	2.07
307.003	1.86
307.378	1.46
307.754	2.27
308.129	1.58
308.504	1.6
308.879	2.28
309.254	2.11
309.629	1.47
310.003	2.25
310.378	2.05
310.753	2.21
311.128	2.25
311.502	2
311.877	2.12
312.252	1.96
312.626	1.92
313.001	1.87
313.375	1.91
313.75	1.71
314.124	2.41
314.498	1.9
314.873	2.15
315.247	1.87
315.621	1.85
315.995	2.25
316.369	2.21
316.743	1.78
317.117	2.15
317.491	2.06
317.865	1.66
318.239	1.82
318.613	2.31
318.987	1.45
319.361	2.23
319.734	1.81
320.108	2.45
320.482	1.97
320.855	2.35
321.229	2.75
321.602	2.3
321.976	1.74
322.349	1.49
322.723	1.3
323.096	2.04
323.469	1.54
323.843	2.7
324.216	1.55
324.589	2.41
324.962	2.38
325.335	2.44
325.708	2.38
326.081	2.12
326.454	2.15
326.827	2.51
327.2	2.06
327.573	2.46
327.945	1.82
328.318	2
328.691	2.35
329.063	2.03
329.436	1.74
329.809	1.88
330.181	2.26
330.553	2.45
330.926	2.57
331.298	1.82
331.671	2.28
332.043	1.73
332.415	2.81
332.787	2.41
333.159	1.84
333.532	1.46
333.904	2.7
334.276	2.2
334.648	2.11
335.02	2.18
335.391	2.75
335.763	2.1
336.135	2.53
336.507	2.58
336.879	2.38
337.25	2.36
337.622	2.45
337.993	2.22
338.365	2.26
338.736	2.06
339.108	1.44
339.479	1.66
339.851	2.49
340.222	2.57
340.593	2.23
340.964	2.15
341.336	1.77
341.707	2.02
342.078	1.86
342.449	2.23
342.82	2.09
343.191	1.82
343.562	2.55
343.933	2.2
344.303	2.2
344.674	2.3
345.045	2.63
345.416	1.98
345.786	1.9
346.157	2.13
346.527	1.94
346.898	2.59
347.268	2.42
347.639	2.14
348.009	2.49
348.38	2.41
348.75	2.36
349.12	2.51
349.49	2.1
349.861	2.5
350.231	2.11
350.601	2.04
350.971	2.21
351.341	2.28
351.711	1.79
352.081	2.11
352.45	2.37
352.82	2.77
353.19	2.22
353.56	2.25
353.929	2.42
354.299	2.36
354.669	2.3
355.038	2.38
355.408	2.81
355.777	2.16
356.147	2.65
356.516	2.21
356.885	2.43
357.254	2.63
357.624	2.47
357.993	2.34
358.362	2.24
358.731	2.22
359.1	2.72
359.469	2.72
359.838	1.97
360.207	2.28
360.576	1.9
360.945	2.31
361.314	2.43
361.682	2.26
362.051	2.3
362.42	2.53
362.788	2.35
363.157	2.26
363.525	2.55
363.894	2.25
364.262	2.3
364.631	3.06
364.999	2.33
365.367	2.44
365.735	2.13
366.104	2.44
366.472	2.42
366.84	2.47
367.208	2.15
367.576	2.31
367.944	2.61
368.312	2.03
368.68	2.22
369.048	2.29
369.416	2.41
369.783	2.16
370.151	2.23
370.519	2.17
370.886	2.18
371.254	2.68
371.621	2.68
371.989	2.72
372.356	2.25
372.724	2.43
373.091	2.7
373.458	2.25
373.826	2.59
374.193	2.69
374.56	2.36
374.927	2.19
375.294	2.46
375.661	2.53
376.028	2.62
376.395	2.35
376.762	2.55
377.129	2.62
377.496	2.62
377.863	2.58
378.229	2.42
378.596	2.31
378.963	2.18
379.329	2.59
379.696	2.56
380.062	2.76
380.429	2.78
380.795	2.56
381.161	2.27
381.528	1.89
381.894	2.81
382.26	2.57
382.626	2.46
382.993	2.48
383.359	2.43
383.725	2.97
384.091	2.62
384.457	2.86
384.823	2.69
385.188	2.6
385.554	2.57
385.92	2.63
386.286	2.71
386.651	2.64
387.017	2.8
387.383	2.31
387.748	2.36
388.114	2.81
388.479	2.54
388.845	2.66
389.21	2.9
389.575	2.67
389.94	2.43
390.306	2.58
390.671	2.27
391.036	2.67
391.401	2.81
391.766	2.82
392.131	2.4
392.496	2.48
392.861	2.59
393.226	2.5
393.591	2.55
393.956	2.72
394.32	2.57
394.685	2.69
395.05	2.51
395.414	2.64
395.779	2.38
396.143	2.59
396.508	2.81
396.872	2.67
397.236	2.42
397.601	2.6
397.965	2.44
398.329	2.67
398.694	2.59
399.058	2.62
399.422	2.65
399.786	2.55
400.15	2.69
400.514	2.55
400.878	2.44
401.242	2.85
401.605	2.55
401.969	2.46
402.333	2.68
402.697	2.89
403.06	2.8
403.424	2.31
403.787	2.79
404.151	2.37
404.514	2.93
404.878	2.43
405.241	2.78
405.604	2.5
405.968	2.8
406.331	2.58
406.694	2.85
407.057	2.95
407.42	2.61
407.783	2.7
408.146	2.8
408.509	2.45
408.872	2.6
409.235	2.57
409.598	2.68
409.961	2.58
410.323	2.67
410.686	2.54
411.049	2.59
411.411	2.64
411.774	2.55
412.136	2.73
412.499	2.78
412.861	2.63
413.223	2.72
413.586	2.39
413.948	2.63
414.31	2.8
414.672	2.61
415.035	2.54
415.397	2.84
415.759	2.59
416.121	2.67
416.483	2.83
416.845	2.59
417.206	2.84
417.568	2.78
417.93	2.66
418.292	2.6
418.653	2.47
419.015	2.8
419.377	2.82
419.738	2.6
420.1	2.64
420.461	2.56
420.822	2.81
421.184	2.59
421.545	2.59
421.906	2.69
422.267	2.61
422.629	2.58
422.99	2.67
423.351	2.65
423.712	2.64
424.073	2.72
424.434	2.63
424.795	2.67
425.155	2.56
425.516	2.69
425.877	2.65
426.238	2.54
426.598	2.77
426.959	2.57
427.32	2.74
427.68	2.81
428.041	2.76
428.401	2.69
428.761	2.69
429.122	2.56
429.482	2.58
429.842	2.63
430.202	2.5
430.563	2.66
430.923	2.61
431.283	2.77
431.643	2.73
432.003	2.79
432.363	2.78
432.722	2.9
433.082	2.67
433.442	2.72
433.802	2.75
434.161	2.72
434.521	2.63
434.881	2.71
435.24	2.65
435.6	2.66
435.959	2.76
436.319	2.67
436.678	2.72
437.037	2.7
437.396	2.65
437.756	2.65
438.115	2.72
438.474	2.8
438.833	2.78
439.192	2.96
439.551	2.84
439.91	2.89
440.269	2.83
440.628	2.77
440.987	2.65
441.345	2.67
441.704	2.7
442.063	2.77
442.421	2.74
442.78	2.77
443.138	2.63
443.497	2.57
443.855	2.78
444.214	2.81
444.572	2.65
444.93	2.67
445.288	2.71
445.647	2.82
446.005	2.64
446.363	2.69
446.721	2.53
447.079	2.67
447.437	2.71
447.795	2.75
448.153	2.65
448.51	2.67
448.868	2.76
449.226	2.77
449.584	2.67
449.941	2.82
450.299	2.8
450.656	2.81
451.014	2.77
451.371	2.85
451.729	2.76
452.086	2.59
452.443	2.76
452.801	2.89
453.158	2.8
453.515	2.71
453.872	2.8
454.229	2.74
454.586	2.72
454.943	2.64
455.3	2.99
455.657	2.54
456.014	2.9
456.371	2.9
456.727	2.75
457.084	2.66
457.441	2.71
457.797	2.74
458.154	2.81
458.51	2.71
458.867	2.79
459.223	2.72
459.58	2.67
459.936	2.68
460.292	2.85
460.648	2.7
461.005	2.59
461.361	2.7
461.717	2.79
462.073	2.78
462.429	2.78
462.785	2.79
463.141	2.72
463.496	2.7
463.852	2.98
464.208	2.8
464.564	2.59
464.919	2.61
465.275	2.87
465.631	2.82
465.986	2.78
466.342	2.79
466.697	2.78
467.052	2.83
467.408	2.87
467.763	2.57
468.118	2.72
468.473	2.9
468.829	2.74
469.184	2.89
469.539	2.67
469.894	2.79
470.249	2.85
470.603	2.96
470.958	2.86
471.313	2.76
471.668	2.83
472.023	2.99
472.377	2.7
472.732	2.71
473.086	2.61
473.441	2.92
473.795	3.02
474.15	2.73
474.504	2.69
474.859	2.77
475.213	2.83
475.567	2.77
475.921	2.94
476.275	2.84
476.63	2.81
476.984	2.64
477.338	2.99
477.692	2.77
478.045	2.74
478.399	2.88
478.753	2.75
479.107	2.67
479.461	2.78
479.814	2.8
480.168	2.77
480.521	2.75
480.875	3
481.228	2.87
481.582	2.72
481.935	2.8
482.289	2.74
482.642	2.85
482.995	2.7
483.348	2.85
483.701	2.75
484.055	2.72
484.408	2.68
484.761	2.55
485.114	2.51
485.466	2.58
485.819	2.62
486.172	2.73
486.525	2.78
486.878	2.69
487.23	2.83
487.583	2.81
487.936	2.72
488.288	2.67
488.641	2.66
488.993	2.62
489.345	2.67
489.698	2.72
490.05	2.7
490.402	2.79
490.754	2.83
491.107	2.81
491.459	2.79
491.811	2.88
492.163	2.84
492.515	2.73
492.866	2.58
493.218	2.64
493.57	2.76
493.922	2.76
494.274	2.87
494.625	2.79
494.977	2.82
495.328	2.99
495.68	3.03
496.031	2.96
496.383	2.77
496.734	2.88
497.086	2.76
497.437	2.86
497.788	2.84
498.139	2.67
498.49	2.88
498.842	2.87
499.193	2.85
499.544	2.86
499.894	2.92
500.245	2.88
500.596	2.75
500.947	2.74
501.298	2.9
501.648	2.87
501.999	2.99
502.35	2.91
502.7	2.95
503.051	2.96
503.401	2.87
503.752	2.75
504.102	2.83
504.452	2.89
504.803	2.76
505.153	2.8
505.503	2.85
505.853	2.68
506.203	2.83
506.553	2.91
506.903	2.9
507.253	2.77
507.603	2.74
507.953	2.88
508.303	2.9
508.652	2.92
509.002	2.94
509.352	2.86
509.701	2.82
510.051	2.88
510.4	2.83
510.75	2.89
511.099	2.87
511.449	2.88
511.798	2.9
512.147	2.9
512.496	2.81
512.846	2.85
513.195	2.9
513.544	2.8
513.893	2.8
514.242	2.89
514.591	2.94
514.939	2.84
515.288	2.88
515.637	2.94
515.986	2.84
516.334	3.03
516.683	2.92
517.032	2.81
517.38	2.83
517.729	2.87
518.077	2.88
518.426	2.77
518.774	2.84
519.122	2.81
519.47	2.85
519.819	2.79
520.167	2.83
520.515	2.73
520.863	2.81
521.211	2.84
521.559	2.83
521.907	2.89
522.255	2.9
522.602	3.05
522.95	2.78
523.298	2.87
523.645	2.75
523.993	3
524.341	2.86
524.688	2.83
525.036	3.04
525.383	2.88
525.73	2.8
526.078	2.93
526.425	2.92
526.772	2.71
527.119	2.77
527.466	2.83
527.814	2.75
528.161	2.87
528.508	2.86
528.854	2.7
529.201	2.75
529.548	2.66
529.895	2.66
530.242	2.65
530.588	2.75
530.935	2.79
531.282	2.82
531.628	2.83
531.975	2.86
532.321	2.84
532.667	2.85
533.014	2.8
533.36	2.85
533.706	2.85
534.052	2.74
534.399	2.74
534.745	2.77
535.091	2.75
535.437	2.85
535.783	2.85
536.129	2.9
536.474	2.97
536.82	2.77
537.166	2.93
537.512	2.88
537.857	2.83
538.203	2.87
538.549	2.98
538.894	2.85
539.239	3.08
539.585	2.97
539.93	2.98
540.276	2.84
540.621	2.92
540.966	2.86
541.311	3
541.656	2.68
542.001	2.88
542.346	2.78
542.691	2.75
543.036	2.76
543.381	2.87
543.726	2.89
544.071	2.89
544.415	2.87
544.76	2.82
545.105	2.85
545.449	2.84
545.794	2.81
546.138	2.97
546.483	2.86
546.827	2.92
547.171	2.87
547.516	2.98
547.86	2.79
548.204	2.86
548.548	2.98
548.892	2.85
549.236	2.97
549.58	2.98
549.924	2.9
550.268	3
550.612	3
550.956	2.72
551.3	2.94
551.643	3.11
551.987	2.89
552.33	2.95
552.674	3.06
553.017	2.86
553.361	2.93
553.704	2.92
554.048	2.91
554.391	2.93
554.734	2.94
555.077	2.98
555.42	2.96
555.764	2.91
556.107	2.9
556.45	2.92
556.793	3.18
557.135	3.05
557.478	3.24
557.821	2.9
558.164	3.04
558.507	2.99
558.849	2.86
559.192	3.07
559.534	2.99
559.877	3.12
560.219	3.09
560.562	2.95
560.904	2.95
561.246	2.98
561.589	3.02
561.931	3.23
562.273	2.91
562.615	3.06
562.957	2.99
563.299	2.98
563.641	3
563.983	3.09
564.325	3.09
564.667	3.04
565.008	2.95
565.35	3.25
565.692	3.21
566.033	3.11
566.375	2.81
566.716	2.87
567.058	3.17
567.399	2.94
567.741	2.96
568.082	3.03
568.423	3.01
568.764	3.06
569.105	3.09
569.447	2.91
569.788	3.1
570.129	2.91
570.47	3.16
570.811	3.06
571.151	2.98
571.492	3.25
571.833	3.12
572.174	3
572.514	2.89
572.855	2.94
573.195	2.86
573.536	2.94
573.876	2.91
574.217	3.08
574.557	3.09
574.898	2.94
575.238	3.06
575.578	3.29
575.918	3.01
576.258	3.08
576.598	3.02
576.938	3.15
577.278	2.89
577.618	3.09
577.958	2.99
578.298	3.11
578.638	3.11
578.977	2.99
579.317	3.21
579.657	3.24
579.996	3.13
580.336	2.83
580.675	3.19
581.014	3.13
581.354	3.08
581.693	3.06
582.032	2.94
582.372	3.2
582.711	2.95
583.05	3.26
583.389	3.22
583.728	3.31
584.067	3.13
584.406	3.18
584.745	2.83
585.083	3.24
585.422	3.02
585.761	3.22
586.1	3.08
586.438	3.04
586.777	2.96
587.115	2.98
587.454	3.1
587.792	2.99
588.13	3.29
588.469	3.17
588.807	3.34
589.145	3.32
589.483	2.95
589.821	3.2
590.159	3.17
590.497	2.95
590.835	2.98
591.173	3.29
591.511	3.4
591.849	3.35
592.187	3.16
592.524	3.12
592.862	3.1
593.2	3.26
593.537	3.01
593.875	3.28
594.212	3.22
594.55	3.29
594.887	3.01
595.224	3.04
595.561	3.22
595.899	3
596.236	3.31
596.573	2.96
596.91	3.1
597.247	3.08
597.584	3.13
597.921	3.24
598.258	3.35
598.594	2.99
598.931	3.14
599.268	3.1
599.604	3.32
599.941	3.16
600.277	3.29
600.614	3.3
600.95	3.17
601.287	3.3
601.623	3.41
601.959	3.38
602.296	3.27
602.632	3.26
602.968	3.2
603.304	3.04
603.64	2.99
603.976	3.16
604.312	3.42
604.648	3.32
604.984	3.24
605.319	3.25
605.655	3.13
605.991	3.21
606.326	3.05
606.662	3.17
606.998	3.28
607.333	3.14
607.668	3.34
608.004	3.26
608.339	3.1
608.674	3.47
609.01	3.42
609.345	3.38
609.68	2.99
610.015	3.19
610.35	3.14
610.685	3.2
611.02	3.37
611.355	3.36
611.689	3.25
612.024	3.32
612.359	3.42
612.694	3.45
613.028	3.41
613.363	3.18
613.697	3.29
614.032	3.66
614.366	3.25
614.7	3.48
615.035	3.2
615.369	2.93
615.703	3.71
616.037	2.99
616.371	3.38
616.705	3.19
617.039	3.48
617.373	3.08
617.707	3.26
618.041	3.13
618.375	3.37
618.709	3.34
619.042	3.39
619.376	3.39
619.71	3.27
620.043	3.42
620.377	3.16
620.71	3.25
621.043	2.93
621.377	3.22
621.71	3.08
622.043	3.45
622.376	3.25
622.709	3.41
623.043	3.33
623.376	3.5
623.709	3.4
624.041	3.52
624.374	3.08
624.707	3.15
625.04	3.61
625.373	3.15
625.705	2.96
626.038	3.34
626.37	3.21
626.703	3.34
627.035	3.57
627.368	3.75
627.7	3.42
628.032	3.59
628.365	3.08
628.697	3.51
629.029	3.4
629.361	3.26
629.693	3.54
630.025	3.17
630.357	3.44
630.689	3.76
631.021	3.54
631.353	3.57
631.684	3.48
632.016	3.21
632.348	3.35
632.679	3.29
633.011	3.17
633.342	3.62
633.674	3.32
634.005	3.42
634.336	3.5
634.668	3.18
634.999	3.58
635.33	3.15
635.661	3.36
635.992	3.39
636.323	3.33
636.654	3.3
636.985	3.11
637.316	3.7
637.647	3.52
637.977	3.51
638.308	3.45
638.639	3.36
638.969	3.46
639.3	3.38
639.63	3.23
639.961	3.37
640.291	3.72
640.622	3.64
640.952	3.79
641.282	2.66
641.612	3.26
641.943	3.87
642.273	3.37
642.603	3.57
642.933	3.57
643.263	3.79
643.592	3.48
643.922	4.3
644.252	3.67
644.582	3.08
644.911	3.13
645.241	3.36
645.571	3.65
645.9	3.84
646.23	3.56
646.559	3.21
646.888	3.42
647.218	3.53
647.547	3.56
647.876	3.87
648.205	3.58
648.534	3.2
648.863	3.36
649.192	3.32
649.521	3.08
649.85	3.65
650.179	3.38
650.508	3.51
650.837	3.7
651.165	3.46
651.494	3.56
651.822	3.42
652.151	3.57
652.479	4.05
652.808	2.95
653.136	3.43
653.465	3.86
653.793	3.74
654.121	3.82
654.449	3.58
654.777	3.58
655.105	3.68
655.433	4.04
655.761	3.4
656.089	3.41
656.417	3.21
656.745	3.87
657.073	3.95
657.4	3.92
657.728	3.77
658.056	3.65
658.383	3.78
658.711	3.66
659.038	3.96
659.365	3.38
659.693	3.54
660.02	3.35
660.347	3.6
660.674	3.5
661.001	3.19
661.329	3.88
661.656	3.28
661.982	3.74
662.309	3.49
662.636	3.55
662.963	4.08
663.29	3.46
663.616	3.91
663.943	3.89
664.27	3.83
664.596	3.22
664.923	4.08
665.249	3.64
665.576	3.55
665.902	3.61
666.228	3.34
666.554	3.76
666.881	3.97
667.207	3.43
667.533	4.06
667.859	3.52
668.185	3.71
668.511	3.09
668.837	2.8
669.162	4.03
669.488	3.34
669.814	4.34
670.139	4.23
670.465	3.62
670.791	4.2
671.116	3.4
671.442	3.95
671.767	3.74
672.092	3.69
672.418	3.92
672.743	3.4
673.068	2.92
673.393	4.08
673.718	3.31
674.043	3.18
674.368	3.97
674.693	3.48
675.018	3.62
675.343	3.97
675.667	3.55
675.992	2.96
676.317	4.22
676.641	3.8
676.966	3.78
677.29	3.16
677.615	3.35
677.939	3.29
678.264	3.89
678.588	3.91
678.912	4.31
679.236	4.51
679.56	3.48
679.885	4.23
680.209	3.42
680.532	3.83
680.856	4.12
681.18	3.78
681.504	3.22
681.828	3.4
682.152	4.05
682.475	4.16
682.799	4.26
683.122	3.49
683.446	3.48
683.769	3.82
684.093	4.24
684.416	3.79
684.739	3.92
685.062	3.7
685.386	3.5
685.709	4.03
686.032	3.47
686.355	3.78
686.678	4.31
687.001	3.74
687.324	3.05
687.646	3.27
687.969	3.38
688.292	4.06
688.614	4.26
688.937	4.36
689.26	3.4
689.582	3.39
689.904	4.14
690.227	3.95
690.549	3.7
690.871	4.12
691.194	3.38
691.516	3.81
691.838	3.51
