Data from 0071_chest_Reflection__4__318.txt Node

Date: Fri Dec 16 16:38:08 CST 2022
User: ToomeyLab
Spectrometer: FLMS14357
Trigger mode: 0
Integration Time (sec): 1.000000E-2
Scans to average: 100
Electric dark correction enabled: true
Nonlinearity correction enabled: false
Boxcar width: 0
XAxis mode: Wavelengths
Number of Pixels in Spectrum: 2048
>>>>>Begin Spectral Data<<<<<
189.047	771.43
189.435	771.43
189.823	771.43
190.211	-107.27
190.599	367.94
190.987	35.02
191.375	-230.05
191.763	6995.18
192.151	-48.08
192.538	-25.74
192.926	79.43
193.314	131.75
193.702	-4901.08
194.089	-170.17
194.477	228.37
194.864	-61.03
195.252	13.1
195.639	175.52
196.027	-738.96
196.414	273.43
196.801	63.54
197.189	133.72
197.576	42.66
197.963	7.23
198.351	-25.52
198.738	-81.97
199.125	-3.96
199.512	-19.38
199.899	-154.92
200.286	-2.62
200.673	22.83
201.06	12.71
201.447	16.16
201.833	-20.49
202.22	3.77
202.607	-91.78
202.994	24.26
203.38	-67.2
203.767	24.72
204.154	-87.33
204.54	15.42
204.927	-14.66
205.313	56.34
205.699	-0.76
206.086	-10.95
206.472	-17.81
206.858	-17.47
207.245	-32.11
207.631	-10.41
208.017	-2.34
208.403	38.3
208.789	14.79
209.175	17.85
209.561	-8.36
209.947	-15.52
210.333	-77.16
210.719	54.98
211.105	-40.71
211.491	22.07
211.876	-52.15
212.262	-7.12
212.648	-59.13
213.034	-44.18
213.419	13.31
213.805	-13.49
214.19	-29.96
214.576	-31.75
214.961	-44.26
215.346	1.16
215.732	-80.56
216.117	-24.82
216.502	8.85
216.888	-22.5
217.273	1.49
217.658	-35.12
218.043	-36.76
218.428	-0.01
218.813	-7.72
219.198	-62.99
219.583	-2.49
219.968	-21.05
220.353	-3
220.738	-8.93
221.122	-38.54
221.507	3.6
221.892	-15.6
222.276	12.31
222.661	1.33
223.046	4.48
223.43	-23.51
223.815	-11.56
224.199	8.95
224.583	0.63
224.968	3.31
225.352	-6.05
225.736	1.41
226.121	-6.26
226.505	9.53
226.889	4.1
227.273	2.82
227.657	-0.73
228.041	2.33
228.425	3.1
228.809	2.29
229.193	1.41
229.577	3.7
229.961	4.03
230.344	4.32
230.728	4.8
231.112	3.89
231.495	3.34
231.879	3.51
232.263	1.95
232.646	3.54
233.03	2.31
233.413	3.01
233.797	4.08
234.18	4.09
234.563	2.33
234.946	2.43
235.33	4.35
235.713	5.02
236.096	5.13
236.479	3.15
236.862	4.54
237.245	3.71
237.628	4.6
238.011	3.7
238.394	4.98
238.777	2.24
239.16	3.43
239.543	2.4
239.925	4.38
240.308	3.95
240.691	1.46
241.073	4.02
241.456	3.54
241.838	4.04
242.221	3.75
242.603	4.43
242.986	5.12
243.368	4.16
243.75	3.73
244.133	4.03
244.515	4.62
244.897	4.89
245.279	3.86
245.661	4.3
246.043	4.06
246.425	3.97
246.807	4.45
247.189	4.39
247.571	4.33
247.953	4.64
248.335	4.64
248.717	4.66
249.098	4.55
249.48	4.16
249.862	4.68
250.243	4.37
250.625	4.89
251.006	4.59
251.388	4.5
251.769	3.79
252.151	3.9
252.532	4.8
252.913	4.49
253.295	4.11
253.676	4.41
254.057	3.53
254.438	3.67
254.819	4.7
255.2	4.2
255.581	4.81
255.962	3.33
256.343	4.94
256.724	4.19
257.105	3.56
257.486	4.9
257.867	2.33
258.247	3.66
258.628	3.94
259.009	4.36
259.389	4.18
259.77	4.07
260.15	4.96
260.531	4.4
260.911	4.37
261.292	4.23
261.672	4.33
262.052	4.2
262.432	4.28
262.813	4.03
263.193	4.08
263.573	4.49
263.953	3.85
264.333	4.11
264.713	3.78
265.093	4.01
265.473	4.03
265.853	4.13
266.233	3.82
266.612	4.39
266.992	3.98
267.372	3.83
267.752	3.12
268.131	4.62
268.511	4.25
268.89	4.48
269.27	4.03
269.649	4.02
270.029	3.25
270.408	3.95
270.787	3.6
271.167	3.89
271.546	3.75
271.925	3.85
272.304	4.06
272.683	4.16
273.062	4.34
273.441	4.3
273.82	4.16
274.199	4.59
274.578	3.84
274.957	3.95
275.336	4.12
275.715	4.7
276.093	4.15
276.472	3.93
276.851	3.87
277.229	3.89
277.608	3.6
277.986	4.3
278.365	3.64
278.743	4.12
279.122	3.44
279.5	3.77
279.878	2.92
280.257	3.52
280.635	3.22
281.013	4.16
281.391	3.88
281.769	4.01
282.147	4.33
282.525	3.75
282.903	4.25
283.281	4.1
283.659	4.17
284.037	3.96
284.415	4.17
284.792	3.92
285.17	3.89
285.548	3.42
285.925	4.04
286.303	3.89
286.68	4.35
287.058	3.97
287.435	4.07
287.813	4.19
288.19	4.59
288.567	3.76
288.945	4.17
289.322	3.69
289.699	4.07
290.076	4.62
290.453	3.72
290.83	4.08
291.207	3.83
291.584	4.35
291.961	4.25
292.338	4.4
292.715	4.23
293.092	4.22
293.469	4.73
293.845	4.35
294.222	4.6
294.599	4.81
294.975	4.62
295.352	3.78
295.728	4.55
296.105	4.41
296.481	4.64
296.858	4.53
297.234	4.35
297.61	4.7
297.986	4.33
298.363	3.83
298.739	4.57
299.115	4.17
299.491	4.37
299.867	4.55
300.243	4.29
300.619	4.15
300.995	4.39
301.371	4.4
301.746	4.31
302.122	3.92
302.498	4.6
302.874	4.15
303.249	4.84
303.625	4.9
304	4.17
304.376	4.5
304.751	4.32
305.127	4.32
305.502	4.57
305.878	4.31
306.253	4.27
306.628	4.44
307.003	4.38
307.378	4.47
307.754	4.89
308.129	3.93
308.504	4.06
308.879	4.61
309.254	4.8
309.629	4.33
310.003	4.72
310.378	4.57
310.753	5.14
311.128	4.54
311.502	4.48
311.877	4.59
312.252	4.64
312.626	4.52
313.001	4.36
313.375	4.52
313.75	4.73
314.124	4.77
314.498	4.58
314.873	4.47
315.247	4.14
315.621	4.81
315.995	4.4
316.369	4.32
316.743	4.73
317.117	4.85
317.491	4.79
317.865	4.49
318.239	4.71
318.613	5
318.987	4.43
319.361	4.88
319.734	4.97
320.108	4.68
320.482	4.4
320.855	4.56
321.229	4.83
321.602	4.53
321.976	3.59
322.349	4.57
322.723	3.93
323.096	4.31
323.469	4.48
323.843	4.35
324.216	4.55
324.589	4.95
324.962	4.69
325.335	4.83
325.708	4.67
326.081	5.01
326.454	4.64
326.827	5.1
327.2	5.44
327.573	4.88
327.945	4.95
328.318	4.71
328.691	4.5
329.063	4.84
329.436	4.45
329.809	5.18
330.181	4.32
330.553	5.93
330.926	4.75
331.298	4.34
331.671	5.18
332.043	5.29
332.415	5.56
332.787	5.18
333.159	4.37
333.532	4.73
333.904	4.85
334.276	5.02
334.648	5.29
335.02	4.8
335.391	5.13
335.763	4.85
336.135	5.15
336.507	4.84
336.879	5.36
337.25	5.04
337.622	5.24
337.993	4.93
338.365	4.88
338.736	4.94
339.108	4.97
339.479	4.95
339.851	5.24
340.222	5.02
340.593	4.8
340.964	5.23
341.336	4.49
341.707	4.93
342.078	4.65
342.449	5.16
342.82	5.28
343.191	4.73
343.562	5.11
343.933	4.77
344.303	5.43
344.674	5.11
345.045	5.2
345.416	5.21
345.786	4.92
346.157	4.71
346.527	5.24
346.898	4.81
347.268	4.78
347.639	4.95
348.009	5.21
348.38	4.86
348.75	5.03
349.12	5.17
349.49	4.73
349.861	5.45
350.231	5.22
350.601	4.94
350.971	4.97
351.341	5.21
351.711	4.01
352.081	5.12
352.45	5.54
352.82	5.34
353.19	4.91
353.56	5.1
353.929	5.38
354.299	4.99
354.669	5.02
355.038	5.29
355.408	5.45
355.777	5.25
356.147	5.47
356.516	5.17
356.885	5.03
357.254	5.64
357.624	5.3
357.993	5.22
358.362	5.09
358.731	5.02
359.1	5.4
359.469	5.13
359.838	5.07
360.207	5
360.576	5.06
360.945	5.18
361.314	5.23
361.682	5.04
362.051	5.16
362.42	5.44
362.788	5.14
363.157	5.03
363.525	5.11
363.894	5
364.262	5.35
364.631	5.84
364.999	4.85
365.367	5.15
365.735	5.09
366.104	5.33
366.472	5.43
366.84	5.31
367.208	5.14
367.576	5.03
367.944	5.39
368.312	5.19
368.68	5.42
369.048	5.18
369.416	5.33
369.783	5.33
370.151	5.36
370.519	5.13
370.886	5.26
371.254	5.57
371.621	5.46
371.989	5.56
372.356	5.04
372.724	5.26
373.091	5.52
373.458	5.2
373.826	5.23
374.193	5.7
374.56	5.06
374.927	5.32
375.294	5.24
375.661	5.65
376.028	5.57
376.395	5.41
376.762	5.69
377.129	5.33
377.496	5.34
377.863	5.44
378.229	5.47
378.596	5.32
378.963	5.31
379.329	5.27
379.696	5.38
380.062	5.5
380.429	5.46
380.795	5.25
381.161	5.39
381.528	5.05
381.894	5.46
382.26	5.31
382.626	5.46
382.993	5.27
383.359	5.43
383.725	5.48
384.091	5.27
384.457	5.58
384.823	5.59
385.188	5.69
385.554	5.46
385.92	5.83
386.286	5.69
386.651	5.47
387.017	5.85
387.383	5.49
387.748	5.42
388.114	5.83
388.479	5.53
388.845	5.41
389.21	5.74
389.575	5.49
389.94	5.77
390.306	5.46
390.671	5.34
391.036	5.69
391.401	5.91
391.766	5.73
392.131	5.51
392.496	5.45
392.861	5.52
393.226	5.42
393.591	5.66
393.956	5.71
394.32	5.56
394.685	5.68
395.05	5.52
395.414	5.62
395.779	5.82
396.143	5.54
396.508	5.77
396.872	5.92
397.236	5.26
397.601	5.79
397.965	5.68
398.329	5.98
398.694	5.69
399.058	5.64
399.422	5.94
399.786	5.74
400.15	5.85
400.514	5.7
400.878	5.81
401.242	5.7
401.605	5.69
401.969	5.66
402.333	5.71
402.697	5.8
403.06	5.85
403.424	5.81
403.787	5.81
404.151	5.62
404.514	5.75
404.878	5.83
405.241	5.81
405.604	5.93
405.968	5.73
406.331	5.84
406.694	5.78
407.057	6.11
407.42	5.8
407.783	5.78
408.146	5.94
408.509	5.39
408.872	5.81
409.235	5.9
409.598	6
409.961	5.79
410.323	5.89
410.686	5.99
411.049	5.64
411.411	6
411.774	5.65
412.136	5.92
412.499	5.77
412.861	5.57
413.223	6.12
413.586	5.75
413.948	5.82
414.31	5.88
414.672	5.89
415.035	5.95
415.397	6
415.759	5.97
416.121	6.01
416.483	6.2
416.845	6.04
417.206	6.04
417.568	5.96
417.93	5.98
418.292	6
418.653	5.97
419.015	6.08
419.377	5.92
419.738	5.93
420.1	5.81
420.461	5.89
420.822	5.95
421.184	5.93
421.545	5.93
421.906	5.92
422.267	5.77
422.629	5.88
422.99	5.88
423.351	5.97
423.712	5.88
424.073	6.02
424.434	5.89
424.795	5.95
425.155	5.88
425.516	5.89
425.877	5.99
426.238	5.81
426.598	6.01
426.959	5.99
427.32	6.02
427.68	6.02
428.041	6.13
428.401	6.07
428.761	5.95
429.122	5.95
429.482	5.9
429.842	6
430.202	6.12
430.563	6.02
430.923	6.18
431.283	6.17
431.643	6.11
432.003	6.17
432.363	6.09
432.722	6.01
433.082	6.19
433.442	6.16
433.802	6.22
434.161	6.17
434.521	6.03
434.881	6.2
435.24	6.02
435.6	6.14
435.959	6.16
436.319	6.18
436.678	6.17
437.037	6.33
437.396	6.25
437.756	6.09
438.115	6.25
438.474	6.18
438.833	6.33
439.192	6.36
439.551	6.14
439.91	6.17
440.269	6.23
440.628	6.24
440.987	6.08
441.345	6.2
441.704	6.28
442.063	6.25
442.421	6.24
442.78	6.29
443.138	6.12
443.497	6.27
443.855	6.13
444.214	6.25
444.572	6.26
444.93	6.19
445.288	6.38
445.647	6.32
446.005	6.09
446.363	6.27
446.721	6.14
447.079	6.28
447.437	6.22
447.795	6.17
448.153	6.12
448.51	6.23
448.868	6.23
449.226	6.2
449.584	6.2
449.941	6.41
450.299	6.31
450.656	6.35
451.014	6.38
451.371	6.44
451.729	6.29
452.086	6.21
452.443	6.25
452.801	6.28
453.158	6.23
453.515	6.26
453.872	6.5
454.229	6.31
454.586	6.49
454.943	6.25
455.3	6.53
455.657	6.32
456.014	6.35
456.371	6.45
456.727	6.44
457.084	6.4
457.441	6.4
457.797	6.33
458.154	6.48
458.51	6.42
458.867	6.3
459.223	6.61
459.58	6.3
459.936	6.25
460.292	6.52
460.648	6.31
461.005	6.42
461.361	6.32
461.717	6.35
462.073	6.44
462.429	6.38
462.785	6.41
463.141	6.48
463.496	6.42
463.852	6.64
464.208	6.54
464.564	6.47
464.919	6.41
465.275	6.57
465.631	6.59
465.986	6.57
466.342	6.66
466.697	6.66
467.052	6.68
467.408	6.44
467.763	6.35
468.118	6.52
468.473	6.62
468.829	6.56
469.184	6.74
469.539	6.45
469.894	6.59
470.249	6.68
470.603	6.61
470.958	6.86
471.313	6.55
471.668	6.81
472.023	6.77
472.377	6.52
472.732	6.65
473.086	6.5
473.441	6.81
473.795	6.79
474.15	6.63
474.504	6.69
474.859	6.48
475.213	6.62
475.567	6.49
475.921	6.88
476.275	6.71
476.63	6.67
476.984	6.5
477.338	6.89
477.692	6.7
478.045	6.65
478.399	6.72
478.753	6.57
479.107	6.72
479.461	6.78
479.814	6.7
480.168	6.74
480.521	6.76
480.875	6.86
481.228	6.97
481.582	6.69
481.935	6.7
482.289	6.74
482.642	6.88
482.995	6.82
483.348	6.72
483.701	6.79
484.055	6.71
484.408	6.73
484.761	6.45
485.114	6.49
485.466	6.5
485.819	6.45
486.172	6.49
486.525	6.54
486.878	6.56
487.23	6.65
487.583	6.67
487.936	6.69
488.288	6.59
488.641	6.61
488.993	6.55
489.345	6.55
489.698	6.63
490.05	6.64
490.402	6.76
490.754	6.86
491.107	6.81
491.459	6.94
491.811	6.94
492.163	6.97
492.515	6.86
492.866	6.68
493.218	6.66
493.57	6.74
493.922	6.79
494.274	6.84
494.625	6.85
494.977	6.96
495.328	6.97
495.68	7.1
496.031	7.12
496.383	6.94
496.734	7.1
497.086	6.97
497.437	7.24
497.788	7.05
498.139	7.17
498.49	7.11
498.842	7.07
499.193	7.09
499.544	7.14
499.894	7.16
500.245	7.15
500.596	7.11
500.947	6.93
501.298	7.29
501.648	7.15
501.999	7.3
502.35	7.36
502.7	7.21
503.051	7.49
503.401	7.32
503.752	7.27
504.102	7.15
504.452	7.22
504.803	7.09
505.153	7.2
505.503	7.28
505.853	7.24
506.203	7.26
506.553	7.35
506.903	7.24
507.253	7.42
507.603	7.32
507.953	7.44
508.303	7.26
508.652	7.41
509.002	7.31
509.352	7.42
509.701	7.47
510.051	7.39
510.4	7.39
510.75	7.45
511.099	7.34
511.449	7.35
511.798	7.52
512.147	7.46
512.496	7.31
512.846	7.46
513.195	7.44
513.544	7.5
513.893	7.38
514.242	7.57
514.591	7.69
514.939	7.48
515.288	7.57
515.637	7.6
515.986	7.58
516.334	7.6
516.683	7.67
517.032	7.59
517.38	7.62
517.729	7.72
518.077	7.75
518.426	7.65
518.774	7.59
519.122	7.66
519.47	7.78
519.819	7.61
520.167	7.62
520.515	7.58
520.863	7.64
521.211	7.62
521.559	7.71
521.907	7.57
522.255	7.87
522.602	7.73
522.95	7.76
523.298	7.9
523.645	7.79
523.993	7.93
524.341	7.86
524.688	7.86
525.036	7.93
525.383	7.92
525.73	7.92
526.078	7.82
526.425	7.9
526.772	7.74
527.119	7.86
527.466	7.82
527.814	7.76
528.161	7.89
528.508	7.88
528.854	7.84
529.201	7.86
529.548	7.76
529.895	7.69
530.242	7.65
530.588	7.77
530.935	7.79
531.282	7.84
531.628	7.76
531.975	7.91
532.321	7.96
532.667	8.02
533.014	8.1
533.36	8.15
533.706	8.14
534.052	8
534.399	8.05
534.745	8.04
535.091	8.05
535.437	8.05
535.783	8.11
536.129	8.06
536.474	8.26
536.82	8.14
537.166	8.36
537.512	8.29
537.857	8.3
538.203	8.24
538.549	8.4
538.894	8.29
539.239	8.41
539.585	8.4
539.93	8.4
540.276	8.43
540.621	8.46
540.966	8.53
541.311	8.47
541.656	8.42
542.001	8.52
542.346	8.43
542.691	8.37
543.036	8.37
543.381	8.42
543.726	8.43
544.071	8.49
544.415	8.53
544.76	8.45
545.105	8.5
545.449	8.61
545.794	8.64
546.138	8.75
546.483	8.69
546.827	8.81
547.171	8.72
547.516	8.79
547.86	8.82
548.204	8.79
548.548	8.98
548.892	8.88
549.236	8.88
549.58	8.89
549.924	8.9
550.268	8.98
550.612	9.1
550.956	9.05
551.3	9.07
551.643	9.13
551.987	9.09
552.33	8.96
552.674	9.16
553.017	9.27
553.361	9.36
553.704	9.14
554.048	9.45
554.391	9.15
554.734	9.27
555.077	9.5
555.42	9.24
555.764	9.42
556.107	9.4
556.45	9.31
556.793	9.61
557.135	9.65
557.478	9.53
557.821	9.52
558.164	9.61
558.507	9.39
558.849	9.68
559.192	9.55
559.534	9.46
559.877	9.75
560.219	9.93
560.562	9.81
560.904	9.92
561.246	9.93
561.589	9.79
561.931	9.92
562.273	9.84
562.615	9.9
562.957	10.02
563.299	9.78
563.641	9.99
563.983	10.11
564.325	9.66
564.667	9.96
565.008	9.86
565.35	10.19
565.692	10.19
566.033	10.26
566.375	10.04
566.716	10.23
567.058	10.29
567.399	10.31
567.741	10.24
568.082	10.14
568.423	10.32
568.764	10.46
569.105	10.54
569.447	10.23
569.788	10.53
570.129	10.5
570.47	10.47
570.811	10.66
571.151	10.5
571.492	10.85
571.833	10.72
572.174	10.66
572.514	10.56
572.855	10.79
573.195	10.53
573.536	10.73
573.876	10.73
574.217	10.75
574.557	10.7
574.898	10.65
575.238	10.78
575.578	10.98
575.918	10.77
576.258	10.89
576.598	10.91
576.938	11.08
577.278	10.89
577.618	11.05
577.958	11.13
578.298	11.22
578.638	11.05
578.977	11.36
579.317	11.33
579.657	11.22
579.996	11.23
580.336	11.36
580.675	11.45
581.014	11.41
581.354	11.34
581.693	11.34
582.032	11.19
582.372	11.67
582.711	11.75
583.05	11.78
583.389	11.73
583.728	11.89
584.067	11.67
584.406	11.85
584.745	11.66
585.083	11.95
585.422	11.91
585.761	12.02
586.1	11.9
586.438	11.86
586.777	12.18
587.115	11.93
587.454	12.15
587.792	12.09
588.13	12.31
588.469	12.15
588.807	12.14
589.145	12.19
589.483	11.96
589.821	12.48
590.159	12.19
590.497	11.87
590.835	12.27
591.173	12.68
591.511	12.58
591.849	12.64
592.187	12.66
592.524	12.56
592.862	12.45
593.2	12.62
593.537	12.66
593.875	12.73
594.212	12.78
594.55	12.86
594.887	12.85
595.224	12.75
595.561	12.72
595.899	12.89
596.236	12.92
596.573	12.84
596.91	13.19
597.247	12.98
597.584	13.2
597.921	13.31
598.258	13.13
598.594	12.91
598.931	13.16
599.268	13.14
599.604	13.61
599.941	13.23
600.277	13.25
600.614	13.32
600.95	13.45
601.287	13.26
601.623	13.58
601.959	13.61
602.296	13.66
602.632	13.83
602.968	13.78
603.304	13.37
603.64	13.43
603.976	13.73
604.312	13.94
604.648	13.87
604.984	13.83
605.319	13.82
605.655	13.75
605.991	13.99
606.326	13.75
606.662	13.75
606.998	13.92
607.333	13.93
607.668	14.08
608.004	13.92
608.339	14.06
608.674	14.25
609.01	14.38
609.345	14.57
609.68	14.05
610.015	14.52
610.35	14.39
610.685	14.71
611.02	14.51
611.355	14.46
611.689	14.29
612.024	14.74
612.359	14.46
612.694	14.79
613.028	14.78
613.363	14.9
613.697	14.72
614.032	14.74
614.366	14.68
614.7	15.16
615.035	14.96
615.369	14.75
615.703	15.5
616.037	14.92
616.371	14.64
616.705	15.24
617.039	15.47
617.373	15.3
617.707	15.12
618.041	15.45
618.375	15.16
618.709	15.37
619.042	15.27
619.376	15.11
619.71	15.42
620.043	15.28
620.377	15.16
620.71	15.68
621.043	15.38
621.377	15.76
621.71	15.73
622.043	15.63
622.376	15.82
622.709	15.83
623.043	15.66
623.376	15.77
623.709	16.35
624.041	15.81
624.374	15.39
624.707	15.8
625.04	16.34
625.373	16.53
625.705	16.18
626.038	16.06
626.37	16.07
626.703	16.25
627.035	16.29
627.368	16.14
627.7	16.39
628.032	16.34
628.365	16.19
628.697	16.35
629.029	16.73
629.361	16.5
629.693	16.73
630.025	16.26
630.357	16.57
630.689	16.98
631.021	16.84
631.353	16.82
631.684	16.97
632.016	16.55
632.348	17.08
632.679	16.75
633.011	17.02
633.342	16.68
633.674	16.98
634.005	16.75
634.336	16.79
634.668	16.95
634.999	17.25
635.33	16.95
635.661	17.51
635.992	17.41
636.323	17.29
636.654	17.19
636.985	17.13
637.316	17.44
637.647	17.65
637.977	17.72
638.308	17.46
638.639	17.39
638.969	17.64
639.3	17.89
639.63	17.61
639.961	17.82
640.291	18.27
640.622	17.99
640.952	17.89
641.282	17.37
641.612	18.06
641.943	17.95
642.273	17.99
642.603	18
642.933	18.08
643.263	18.29
643.592	18.43
643.922	18.57
644.252	18.54
644.582	18.24
644.911	17.94
645.241	18.6
645.571	18
645.9	18.78
646.23	18.53
646.559	18.25
646.888	18.22
647.218	18.68
647.547	19.14
647.876	18.83
648.205	18.44
648.534	18.3
648.863	18.89
649.192	18.81
649.521	18.74
649.85	19.43
650.179	18.75
650.508	19.1
650.837	19.36
651.165	19.21
651.494	19.07
651.822	18.75
652.151	19.51
652.479	19.36
652.808	19.2
653.136	19.08
653.465	19.36
653.793	19.67
654.121	19.56
654.449	19.37
654.777	19.58
655.105	19.94
655.433	20.5
655.761	19.49
656.089	19.04
656.417	19.88
656.745	20.44
657.073	19.69
657.4	19.9
657.728	19.85
658.056	20.29
658.383	19.95
658.711	19.88
659.038	20.43
659.365	20.35
659.693	19.92
660.02	20.12
660.347	20.25
660.674	20
661.001	20.14
661.329	20.51
661.656	20.21
661.982	20.4
662.309	20.29
662.636	20.37
662.963	20.65
663.29	20.62
663.616	20.21
663.943	21.24
664.27	20.65
664.596	20.46
664.923	21
665.249	20.81
665.576	20.48
665.902	20.42
666.228	20.01
666.554	20.76
666.881	21.46
667.207	20.77
667.533	21.42
667.859	20.45
668.185	21.26
668.511	20.65
668.837	20.78
669.162	21.3
669.488	20.96
669.814	21.83
670.139	21.84
670.465	21.91
670.791	21.75
671.116	21.2
671.442	21.6
671.767	21.68
672.092	21.63
672.418	21.24
672.743	21.61
673.068	21.3
673.393	21.85
673.718	21.97
674.043	21.29
674.368	21.84
674.693	21.46
675.018	22.05
675.343	22.08
675.667	22.31
675.992	20.69
676.317	22.06
676.641	21.77
676.966	22.18
677.29	21.48
677.615	22.45
677.939	21.9
678.264	22.84
678.588	22.64
678.912	22.67
679.236	22.27
679.56	22.77
679.885	22.94
680.209	22.03
680.532	22.42
680.856	22.64
681.18	22.61
681.504	22.59
681.828	22.6
682.152	23.21
682.475	22.39
682.799	22.84
683.122	22.62
683.446	22.91
