Data from 0071_crown_Reflection__2__321.txt Node

Date: Fri Dec 16 16:39:37 CST 2022
User: ToomeyLab
Spectrometer: FLMS14357
Trigger mode: 0
Integration Time (sec): 1.000000E-2
Scans to average: 100
Electric dark correction enabled: true
Nonlinearity correction enabled: false
Boxcar width: 0
XAxis mode: Wavelengths
Number of Pixels in Spectrum: 2048
>>>>>Begin Spectral Data<<<<<
189.047	10380
189.435	10380
189.823	10380
190.211	10.78
190.599	16.35
190.987	64.47
191.375	-85.34
191.763	-904.82
192.151	-293.73
192.538	-20.04
192.926	-105.74
193.314	98.62
193.702	-2805.38
194.089	-212.36
194.477	3369.5
194.864	139.22
195.252	120.52
195.639	255.72
196.027	258.31
196.414	443
196.801	209.98
197.189	42.1
197.576	-230.01
197.963	88.09
198.351	20.15
198.738	8.58
199.125	-4.99
199.512	-48.56
199.899	-64.51
200.286	-133.77
200.673	-3.46
201.06	25
201.447	2.29
201.833	-17.52
202.22	23.5
202.607	-44.41
202.994	-19.13
203.38	-35.26
203.767	-46.27
204.154	-87.51
204.54	49.29
204.927	-5.23
205.313	19.79
205.699	-37.98
206.086	-5.27
206.472	-13.61
206.858	-12.12
207.245	8
207.631	-36.01
208.017	-9.4
208.403	21.8
208.789	-13.33
209.175	33.89
209.561	-62.46
209.947	-8.2
210.333	-4.32
210.719	-61.36
211.105	-82.55
211.491	-25.12
211.876	-35.63
212.262	8.98
212.648	-17.5
213.034	-10.57
213.419	-7
213.805	13.82
214.19	-2.31
214.576	-28.79
214.961	-23.74
215.346	-31.62
215.732	2.81
216.117	-36.64
216.502	-45.69
216.888	-32
217.273	19.94
217.658	-27.73
218.043	-11.75
218.428	-5.98
218.813	-23.33
219.198	-52.3
219.583	-13.3
219.968	-7.76
220.353	-2.66
220.738	-30.31
221.122	-4.06
221.507	-9.2
221.892	14.82
222.276	6.19
222.661	-20.4
223.046	-10.39
223.43	-23.59
223.815	0.98
224.199	-3.25
224.583	-3
224.968	1.59
225.352	-14.62
225.736	3.07
226.121	-0.55
226.505	0.72
226.889	3.6
227.273	-4.92
227.657	-2.59
228.041	-1.96
228.425	2.37
228.809	3.7
229.193	0.5
229.577	2.04
229.961	2.05
230.344	2.75
230.728	2.47
231.112	2.55
231.495	0.68
231.879	2.36
232.263	0.82
232.646	-0.61
233.03	-0.22
233.413	0.17
233.797	2.22
234.18	-0.82
234.563	1.33
234.946	1.46
235.33	1.78
235.713	1.86
236.096	0.95
236.479	2.42
236.862	1.84
237.245	2.95
237.628	2.73
238.011	1.61
238.394	1.65
238.777	1.56
239.16	-1.7
239.543	0.77
239.925	1.62
240.308	2.29
240.691	1.52
241.073	0.27
241.456	0.86
241.838	2.67
242.221	2.02
242.603	2.4
242.986	2.7
243.368	2.3
243.75	1.59
244.133	2.43
244.515	1.87
244.897	2.18
245.279	0.86
245.661	2.09
246.043	3.9
246.425	1.31
246.807	2.27
247.189	2.15
247.571	1.98
247.953	2.23
248.335	2.55
248.717	2.28
249.098	2.59
249.48	2.04
249.862	2.11
250.243	2.21
250.625	2.5
251.006	2.09
251.388	1.98
251.769	2.5
252.151	1.92
252.532	2.23
252.913	2.24
253.295	1.86
253.676	2.6
254.057	2.13
254.438	1.89
254.819	1.38
255.2	0.82
255.581	1.38
255.962	0.15
256.343	2.41
256.724	1.55
257.105	1.94
257.486	1.87
257.867	0.62
258.247	2.89
258.628	1.87
259.009	1.54
259.389	2.69
259.77	1.73
260.15	2.67
260.531	2.03
260.911	2.2
261.292	2.1
261.672	2.26
262.052	2.06
262.432	2.3
262.813	1.93
263.193	1.09
263.573	1.92
263.953	1.6
264.333	2.14
264.713	1.63
265.093	1.74
265.473	2.52
265.853	2.06
266.233	1.87
266.612	2.06
266.992	1.15
267.372	1.97
267.752	1.85
268.131	2.41
268.511	2.29
268.89	2.62
269.27	2.1
269.649	2.16
270.029	1.77
270.408	1.42
270.787	2.28
271.167	1.98
271.546	1.17
271.925	1.9
272.304	2.25
272.683	2.06
273.062	2.4
273.441	2.37
273.82	2.54
274.199	1.91
274.578	1.79
274.957	2.61
275.336	2.1
275.715	2.13
276.093	2.48
276.472	1.92
276.851	2.26
277.229	2.51
277.608	2.08
277.986	2.1
278.365	1.82
278.743	1.89
279.122	1.65
279.5	1.2
279.878	1.48
280.257	2.45
280.635	1.47
281.013	2.34
281.391	1.59
281.769	1.16
282.147	2.07
282.525	1.92
282.903	1.8
283.281	1.44
283.659	2.35
284.037	2.01
284.415	2.64
284.792	2.41
285.17	1.76
285.548	1.84
285.925	1.95
286.303	2.12
286.68	1.92
287.058	1.73
287.435	1.87
287.813	2.11
288.19	2.21
288.567	1.82
288.945	1.97
289.322	1.61
289.699	2.12
290.076	2.08
290.453	1.77
290.83	1.49
291.207	1.62
291.584	1.76
291.961	2.2
292.338	2.44
292.715	2.01
293.092	1.93
293.469	2.17
293.845	1.69
294.222	2.3
294.599	2.24
294.975	2.44
295.352	1.72
295.728	1.9
296.105	2.12
296.481	2.53
296.858	2.08
297.234	2.05
297.61	2.03
297.986	1.92
298.363	1.64
298.739	2.16
299.115	1.61
299.491	2.01
299.867	2.49
300.243	1.92
300.619	2.11
300.995	2.1
301.371	2.32
301.746	2.11
302.122	2.46
302.498	1.96
302.874	2.17
303.249	2.04
303.625	2.1
304	1.67
304.376	1.67
304.751	1.9
305.127	1.7
305.502	2.2
305.878	2.18
306.253	1.83
306.628	2.15
307.003	1.57
307.378	1.88
307.754	2.34
308.129	1.36
308.504	1.4
308.879	2.09
309.254	2.12
309.629	2.19
310.003	2.25
310.378	2.11
310.753	1.87
311.128	1.59
311.502	1.66
311.877	2.31
312.252	1.79
312.626	1.44
313.001	1.86
313.375	1.99
313.75	1.8
314.124	2.49
314.498	1.81
314.873	1.86
315.247	1.71
315.621	2.12
315.995	1.74
316.369	1.98
316.743	2.38
317.117	1.84
317.491	1.62
317.865	1.24
318.239	2.55
318.613	1.88
318.987	2.09
319.361	1.95
319.734	1.81
320.108	1.27
320.482	1.92
320.855	2.11
321.229	2.29
321.602	1.99
321.976	1.65
322.349	1.55
322.723	1.33
323.096	1.79
323.469	1.22
323.843	1.42
324.216	1.35
324.589	2.1
324.962	2.14
325.335	1.74
325.708	1.83
326.081	2.91
326.454	2
326.827	2.04
327.2	2.32
327.573	2.67
327.945	1.89
328.318	2.08
328.691	2.03
329.063	1.77
329.436	1.97
329.809	1.8
330.181	1.56
330.553	2.74
330.926	2.16
331.298	1.13
331.671	2.13
332.043	2.02
332.415	2.19
332.787	2.99
333.159	2
333.532	2.19
333.904	2.21
334.276	2.59
334.648	2.1
335.02	1.7
335.391	2.39
335.763	1.42
336.135	1.58
336.507	2.03
336.879	1.87
337.25	2.26
337.622	1.91
337.993	2.18
338.365	2.13
338.736	2.05
339.108	1.79
339.479	1.85
339.851	2.31
340.222	2.08
340.593	1.89
340.964	1.91
341.336	2.03
341.707	2.25
342.078	1.69
342.449	2.07
342.82	2.33
343.191	1.73
343.562	2.18
343.933	2.46
344.303	1.92
344.674	1.9
345.045	2.48
345.416	1.87
345.786	1.64
346.157	2.06
346.527	1.86
346.898	1.71
347.268	1.84
347.639	2.33
348.009	2.52
348.38	2.3
348.75	2.4
349.12	1.9
349.49	2.35
349.861	2.44
350.231	2.69
350.601	2.07
350.971	1.78
351.341	1.82
351.711	1.94
352.081	2.31
352.45	2.27
352.82	2.11
353.19	2.2
353.56	2.15
353.929	2.64
354.299	2.12
354.669	2.23
355.038	2.24
355.408	2.56
355.777	2.2
356.147	2.58
356.516	2.65
356.885	1.95
357.254	2.58
357.624	2.53
357.993	2.23
358.362	2.3
358.731	2.42
359.1	2.34
359.469	2.45
359.838	2.27
360.207	2.13
360.576	2.27
360.945	2.1
361.314	2.42
361.682	1.95
362.051	2.26
362.42	2.31
362.788	2.26
363.157	1.96
363.525	2.15
363.894	2.06
364.262	2.27
364.631	2.71
364.999	1.89
365.367	2.48
365.735	2.06
366.104	2.11
366.472	2.24
366.84	2.34
367.208	2.11
367.576	2.06
367.944	2.53
368.312	1.87
368.68	2.31
369.048	2.22
369.416	2.39
369.783	2.26
370.151	2.22
370.519	1.84
370.886	2.14
371.254	2.37
371.621	2.36
371.989	2.48
372.356	2.16
372.724	2.29
373.091	2.32
373.458	2.09
373.826	2.15
374.193	2.89
374.56	2.22
374.927	1.97
375.294	2.53
375.661	2.5
376.028	2.54
376.395	2.12
376.762	2.46
377.129	2.7
377.496	2.34
377.863	2.46
378.229	2.17
378.596	2.41
378.963	2.21
379.329	2.44
379.696	2.33
380.062	2.61
380.429	2.14
380.795	2.06
381.161	2.31
381.528	1.88
381.894	2.36
382.26	2.4
382.626	2.49
382.993	2.22
383.359	2.2
383.725	2.56
384.091	2.23
384.457	2.15
384.823	2.4
385.188	2.48
385.554	2.63
385.92	2.71
386.286	2.39
386.651	2.1
387.017	2.65
387.383	2.31
387.748	2.17
388.114	2.38
388.479	2.5
388.845	2.47
389.21	2.6
389.575	2.43
389.94	2.27
390.306	1.99
390.671	2.23
391.036	2.45
391.401	2.72
391.766	2.27
392.131	2.31
392.496	2.46
392.861	2.27
393.226	2.4
393.591	2.35
393.956	2.66
394.32	2.27
394.685	2.49
395.05	2.14
395.414	2.54
395.779	2.4
396.143	2.34
396.508	2.44
396.872	2.7
397.236	2.03
397.601	2.48
397.965	2.3
398.329	2.6
398.694	2.24
399.058	2.5
399.422	2.45
399.786	2.48
400.15	2.33
400.514	2.35
400.878	2.42
401.242	2.94
401.605	2.38
401.969	2.5
402.333	2.48
402.697	2.68
403.06	2.64
403.424	2.22
403.787	2.78
404.151	2.47
404.514	2.47
404.878	2.46
405.241	2.74
405.604	2.6
405.968	2.47
406.331	2.39
406.694	2.55
407.057	2.68
407.42	2.35
407.783	2.33
408.146	2.45
408.509	2.4
408.872	2.33
409.235	2.57
409.598	2.63
409.961	2.38
410.323	2.23
410.686	2.4
411.049	2.51
411.411	2.36
411.774	2.47
412.136	2.57
412.499	2.28
412.861	2.23
413.223	2.41
413.586	2.35
413.948	2.62
414.31	2.59
414.672	2.52
415.035	2.53
415.397	2.86
415.759	2.41
416.121	2.6
416.483	2.65
416.845	2.29
417.206	2.52
417.568	2.58
417.93	2.33
418.292	2.26
418.653	2.4
419.015	2.44
419.377	2.53
419.738	2.41
420.1	2.48
420.461	2.47
420.822	2.45
421.184	2.55
421.545	2.58
421.906	2.44
422.267	2.33
422.629	2.43
422.99	2.38
423.351	2.54
423.712	2.51
424.073	2.57
424.434	2.45
424.795	2.42
425.155	2.39
425.516	2.43
425.877	2.57
426.238	2.36
426.598	2.5
426.959	2.39
427.32	2.51
427.68	2.49
428.041	2.59
428.401	2.6
428.761	2.5
429.122	2.46
429.482	2.47
429.842	2.53
430.202	2.44
430.563	2.38
430.923	2.37
431.283	2.5
431.643	2.44
432.003	2.66
432.363	2.5
432.722	2.51
433.082	2.52
433.442	2.55
433.802	2.42
434.161	2.46
434.521	2.54
434.881	2.47
435.24	2.39
435.6	2.5
435.959	2.54
436.319	2.51
436.678	2.66
437.037	2.6
437.396	2.52
437.756	2.51
438.115	2.58
438.474	2.69
438.833	2.55
439.192	2.68
439.551	2.57
439.91	2.55
440.269	2.57
440.628	2.67
440.987	2.38
441.345	2.42
441.704	2.58
442.063	2.43
442.421	2.54
442.78	2.46
443.138	2.45
443.497	2.54
443.855	2.51
444.214	2.51
444.572	2.43
444.93	2.51
445.288	2.62
445.647	2.61
446.005	2.37
446.363	2.51
446.721	2.39
447.079	2.54
447.437	2.52
447.795	2.51
448.153	2.48
448.51	2.52
448.868	2.65
449.226	2.59
449.584	2.45
449.941	2.79
450.299	2.48
450.656	2.66
451.014	2.48
451.371	2.52
451.729	2.51
452.086	2.52
452.443	2.46
452.801	2.65
453.158	2.46
453.515	2.41
453.872	2.57
454.229	2.49
454.586	2.56
454.943	2.56
455.3	2.56
455.657	2.35
456.014	2.49
456.371	2.54
456.727	2.48
457.084	2.41
457.441	2.44
457.797	2.51
458.154	2.62
458.51	2.57
458.867	2.38
459.223	2.59
459.58	2.34
459.936	2.39
460.292	2.59
460.648	2.45
461.005	2.38
461.361	2.41
461.717	2.54
462.073	2.58
462.429	2.64
462.785	2.63
463.141	2.72
463.496	2.45
463.852	2.55
464.208	2.68
464.564	2.44
464.919	2.46
465.275	2.58
465.631	2.68
465.986	2.35
466.342	2.53
466.697	2.51
467.052	2.59
467.408	2.56
467.763	2.45
468.118	2.59
468.473	2.64
468.829	2.53
469.184	2.55
469.539	2.44
469.894	2.59
470.249	2.61
470.603	2.5
470.958	2.53
471.313	2.43
471.668	2.69
472.023	2.61
472.377	2.49
472.732	2.43
473.086	2.4
473.441	2.54
473.795	2.51
474.15	2.49
474.504	2.44
474.859	2.47
475.213	2.53
475.567	2.53
475.921	2.58
476.275	2.58
476.63	2.44
476.984	2.46
477.338	2.67
477.692	2.54
478.045	2.45
478.399	2.44
478.753	2.38
479.107	2.58
479.461	2.48
479.814	2.43
480.168	2.55
480.521	2.51
480.875	2.63
481.228	2.49
481.582	2.3
481.935	2.43
482.289	2.43
482.642	2.49
482.995	2.52
483.348	2.41
483.701	2.5
484.055	2.37
484.408	2.42
484.761	2.29
485.114	2.28
485.466	2.28
485.819	2.38
486.172	2.49
486.525	2.57
486.878	2.48
487.23	2.54
487.583	2.43
487.936	2.45
488.288	2.4
488.641	2.42
488.993	2.29
489.345	2.39
489.698	2.42
490.05	2.43
490.402	2.54
490.754	2.58
491.107	2.46
491.459	2.62
491.811	2.65
492.163	2.54
492.515	2.43
492.866	2.32
493.218	2.34
493.57	2.49
493.922	2.5
494.274	2.52
494.625	2.52
494.977	2.52
495.328	2.64
495.68	2.71
496.031	2.58
496.383	2.43
496.734	2.62
497.086	2.48
497.437	2.69
497.788	2.5
498.139	2.5
498.49	2.56
498.842	2.46
499.193	2.5
499.544	2.57
499.894	2.49
500.245	2.49
500.596	2.47
500.947	2.48
501.298	2.53
501.648	2.5
501.999	2.54
502.35	2.67
502.7	2.48
503.051	2.75
503.401	2.56
503.752	2.55
504.102	2.58
504.452	2.6
504.803	2.45
505.153	2.57
505.503	2.47
505.853	2.38
506.203	2.53
506.553	2.64
506.903	2.49
507.253	2.5
507.603	2.4
507.953	2.59
508.303	2.5
508.652	2.53
509.002	2.51
509.352	2.51
509.701	2.47
510.051	2.63
510.4	2.53
510.75	2.56
511.099	2.49
511.449	2.53
511.798	2.73
512.147	2.51
512.496	2.57
512.846	2.53
513.195	2.64
513.544	2.58
513.893	2.39
514.242	2.57
514.591	2.62
514.939	2.51
515.288	2.62
515.637	2.63
515.986	2.49
516.334	2.77
516.683	2.44
517.032	2.46
517.38	2.53
517.729	2.46
518.077	2.6
518.426	2.53
518.774	2.56
519.122	2.45
519.47	2.46
519.819	2.51
520.167	2.53
520.515	2.51
520.863	2.54
521.211	2.51
521.559	2.48
521.907	2.55
522.255	2.61
522.602	2.69
522.95	2.6
523.298	2.6
523.645	2.52
523.993	2.56
524.341	2.56
524.688	2.58
525.036	2.66
525.383	2.63
525.73	2.54
526.078	2.5
526.425	2.46
526.772	2.42
527.119	2.45
527.466	2.45
527.814	2.54
528.161	2.51
528.508	2.58
528.854	2.45
529.201	2.4
529.548	2.35
529.895	2.28
530.242	2.32
530.588	2.45
530.935	2.51
531.282	2.52
531.628	2.56
531.975	2.56
532.321	2.51
532.667	2.54
533.014	2.54
533.36	2.51
533.706	2.53
534.052	2.41
534.399	2.42
534.745	2.4
535.091	2.45
535.437	2.56
535.783	2.62
536.129	2.48
536.474	2.58
536.82	2.54
537.166	2.63
537.512	2.48
537.857	2.48
538.203	2.51
538.549	2.56
538.894	2.48
539.239	2.79
539.585	2.67
539.93	2.58
540.276	2.48
540.621	2.44
540.966	2.56
541.311	2.53
541.656	2.4
542.001	2.48
542.346	2.48
542.691	2.41
543.036	2.42
543.381	2.52
543.726	2.55
544.071	2.64
544.415	2.57
544.76	2.49
545.105	2.58
545.449	2.57
545.794	2.54
546.138	2.54
546.483	2.51
546.827	2.57
547.171	2.47
547.516	2.6
547.86	2.55
548.204	2.48
548.548	2.68
548.892	2.56
549.236	2.62
549.58	2.56
549.924	2.64
550.268	2.61
550.612	2.71
550.956	2.47
551.3	2.52
551.643	2.64
551.987	2.57
552.33	2.54
552.674	2.76
553.017	2.64
553.361	2.53
553.704	2.32
554.048	2.54
554.391	2.56
554.734	2.68
555.077	2.78
555.42	2.58
555.764	2.64
556.107	2.68
556.45	2.53
556.793	2.74
557.135	2.78
557.478	2.67
557.821	2.43
558.164	2.55
558.507	2.48
558.849	2.69
559.192	2.81
559.534	2.52
559.877	2.82
560.219	2.78
560.562	2.72
560.904	2.66
561.246	2.92
561.589	2.63
561.931	2.74
562.273	2.52
562.615	2.6
562.957	2.64
563.299	2.61
563.641	2.74
563.983	2.67
564.325	2.44
564.667	2.59
565.008	2.38
565.35	2.78
565.692	2.81
566.033	2.58
566.375	2.42
566.716	2.75
567.058	2.75
567.399	2.64
567.741	2.73
568.082	2.55
568.423	2.64
568.764	2.45
569.105	2.7
569.447	2.64
569.788	2.73
570.129	2.67
570.47	2.57
570.811	2.65
571.151	2.68
571.492	2.8
571.833	2.62
572.174	2.57
572.514	2.56
572.855	2.73
573.195	2.55
573.536	2.71
573.876	2.7
574.217	2.75
574.557	2.76
574.898	2.46
575.238	2.59
575.578	2.7
575.918	2.56
576.258	2.58
576.598	2.63
576.938	2.66
577.278	2.61
577.618	2.53
577.958	2.64
578.298	2.81
578.638	2.63
578.977	2.69
579.317	2.88
579.657	2.67
579.996	2.5
580.336	2.69
580.675	2.83
581.014	2.65
581.354	2.75
581.693	2.77
582.032	2.71
582.372	2.57
582.711	2.88
583.05	2.95
583.389	2.72
583.728	2.73
584.067	2.92
584.406	2.76
584.745	2.56
585.083	2.73
585.422	2.79
585.761	2.76
586.1	2.78
586.438	2.74
586.777	2.66
587.115	2.8
587.454	2.67
587.792	2.5
588.13	2.84
588.469	2.67
588.807	2.86
589.145	2.9
589.483	2.65
589.821	2.81
590.159	2.63
590.497	2.55
590.835	2.62
591.173	2.68
591.511	2.93
591.849	2.81
592.187	2.73
592.524	2.73
592.862	2.83
593.2	2.76
593.537	2.7
593.875	2.87
594.212	2.71
594.55	2.8
594.887	2.75
595.224	2.53
595.561	2.66
595.899	2.77
596.236	2.94
596.573	2.59
596.91	2.79
597.247	2.54
597.584	2.87
597.921	2.75
598.258	2.71
598.594	2.43
598.931	2.5
599.268	2.86
599.604	2.9
599.941	2.76
600.277	2.78
600.614	2.78
600.95	2.8
601.287	2.92
601.623	2.9
601.959	2.38
602.296	2.73
602.632	3.03
602.968	2.76
603.304	2.5
603.64	2.79
603.976	2.8
604.312	2.94
604.648	2.75
604.984	2.89
605.319	2.72
605.655	2.82
605.991	2.81
606.326	2.66
606.662	2.51
606.998	2.68
607.333	2.87
607.668	2.89
608.004	2.77
608.339	2.79
608.674	2.86
609.01	2.77
609.345	2.91
609.68	2.6
610.015	2.96
610.35	2.77
610.685	2.74
611.02	2.95
611.355	2.82
611.689	2.83
612.024	3
612.359	2.91
612.694	3.08
613.028	3.15
613.363	2.97
613.697	3.04
614.032	2.7
614.366	2.97
614.7	2.98
615.035	2.85
615.369	2.69
615.703	3.26
616.037	2.92
616.371	2.9
616.705	3.03
617.039	2.87
617.373	2.63
617.707	2.69
618.041	2.97
618.375	2.56
618.709	2.87
619.042	2.56
619.376	2.71
619.71	2.7
620.043	2.43
620.377	2.63
620.71	2.84
621.043	2.53
621.377	2.95
621.71	2.92
622.043	2.9
622.376	2.54
622.709	3.12
623.043	3
623.376	2.8
623.709	3.28
624.041	2.92
624.374	2.82
624.707	2.59
625.04	3.01
625.373	3.07
625.705	2.89
626.038	2.97
626.37	2.79
626.703	2.72
627.035	3.06
627.368	3.23
627.7	3.06
628.032	2.74
628.365	2.56
628.697	2.77
629.029	3.1
629.361	2.73
629.693	3.27
630.025	2.87
630.357	2.59
630.689	3.06
631.021	2.99
631.353	3.04
631.684	2.89
632.016	2.93
632.348	3.42
632.679	2.77
633.011	3.06
633.342	2.76
633.674	2.81
634.005	2.74
634.336	2.75
634.668	2.8
634.999	2.89
635.33	2.74
635.661	2.91
635.992	2.7
636.323	3.01
636.654	2.93
636.985	2.87
637.316	3
637.647	2.81
637.977	2.68
638.308	2.86
638.639	2.49
638.969	2.8
639.3	3.1
639.63	2.79
639.961	2.54
640.291	3.54
640.622	3.15
640.952	3.12
641.282	2.47
641.612	2.61
641.943	3.24
642.273	3.23
642.603	2.74
642.933	3.05
643.263	3.31
643.592	3.07
643.922	3.6
644.252	3.08
644.582	2.81
644.911	3.03
645.241	2.8
645.571	2.68
645.9	3.03
646.23	2.91
646.559	2.43
646.888	2.7
647.218	2.68
647.547	3.26
647.876	3.01
648.205	2.76
648.534	2.75
648.863	3.54
649.192	2.85
649.521	2.59
649.85	3.34
650.179	2.76
650.508	3.03
650.837	3.13
651.165	3.19
651.494	2.67
651.822	3.22
652.151	2.97
652.479	3.42
652.808	2.31
653.136	3
653.465	3.07
653.793	3.11
654.121	3.43
654.449	3.11
654.777	3.16
655.105	3.34
655.433	3.12
655.761	2.98
656.089	2.94
656.417	2.96
656.745	3.5
657.073	3.18
657.4	3.24
657.728	3.36
658.056	2.55
658.383	3.46
658.711	3.16
659.038	3.15
659.365	3.13
659.693	2.85
660.02	2.96
660.347	3
660.674	2.8
661.001	2.69
661.329	3.02
661.656	3
661.982	3.24
662.309	2.93
662.636	2.97
662.963	2.83
663.29	3.01
663.616	3.07
663.943	3.3
664.27	3.34
664.596	3.01
664.923	3.34
665.249	2.94
665.576	3.24
665.902	2.79
666.228	2.35
666.554	3.11
666.881	3.16
667.207	2.63
667.533	3
667.859	2.64
668.185	3.41
668.511	2.69
668.837	2.73
669.162	3.65
669.488	3.13
669.814	3.48
670.139	3.6
670.465	3.23
670.791	3.12
671.116	3.37
671.442	3.25
671.767	2.97
672.092	3.87
672.418	3.28
672.743	3.23
673.068	2.95
673.393	3.4
673.718	2.53
674.043	2.96
674.368	3.66
674.693	2.94
675.018	2.76
675.343	2.78
675.667	3.45
675.992	2.57
676.317	2.43
676.641	3.36
676.966	2.97
677.29	2.92
677.615	2.86
677.939	3.16
678.264	3.19
678.588	3.69
678.912	3.52
679.236	3.01
679.56	2.7
679.885	3.36
680.209	2.99
680.532	2.66
680.856	4.08
681.18	3.26
681.504	2.87
681.828	2.81
682.152	3.21
682.475	3.67
682.799	3.63
683.122	2.91
683.446	2.58
683.769	3.69
684.093	3.57
684.416	2.62
684.739	3.46
685.062	3.47
685.386	3.36
685.709	3.67
686.032	3.43
686.355	3.47
686.678	3.21
687.001	1.89
687.324	2.71
687.646	3.24
687.969	2.97
688.292	3.02
688.614	3.49
688.937	3.23
689.26	2.9
689.582	3.09
689.904	3.55
690.227	3.44
690.549	3.33
690.871	3.91
691.194	3.54
691.516	3.02
691.838	3.22
692.16	3.16
692.482	3.14
