Data from 0071_chest_Reflection__0__314.txt Node

Date: Fri Dec 16 16:37:20 CST 2022
User: ToomeyLab
Spectrometer: FLMS14357
Trigger mode: 0
Integration Time (sec): 1.000000E-2
Scans to average: 100
Electric dark correction enabled: true
Nonlinearity correction enabled: false
Boxcar width: 0
XAxis mode: Wavelengths
Number of Pixels in Spectrum: 2048
>>>>>Begin Spectral Data<<<<<
189.047	7222.86
189.435	7222.86
189.823	7222.86
190.211	25.68
190.599	-45.76
190.987	21.21
191.375	-25.55
191.763	4800
192.151	87.34
192.538	-5.78
192.926	33.48
193.314	90.55
193.702	-2288.17
194.089	-47.4
194.477	-2780.14
194.864	2.6
195.252	58.43
195.639	212.31
196.027	-821.84
196.414	-208.7
196.801	-111.97
197.189	112.21
197.576	-114.08
197.963	105.66
198.351	-53.22
198.738	-54.92
199.125	-8.59
199.512	-44.73
199.899	-136.44
200.286	-99.29
200.673	1.08
201.06	19.47
201.447	27.18
201.833	-27.34
202.22	5.79
202.607	-14.97
202.994	6.71
203.38	-48.74
203.767	6.73
204.154	-45.61
204.54	-4.5
204.927	17.2
205.313	-5.42
205.699	-20.29
206.086	-31.87
206.472	-21.62
206.858	8.27
207.245	-24.26
207.631	-8.77
208.017	-22.44
208.403	7.73
208.789	14.66
209.175	17.62
209.561	0.22
209.947	-9.61
210.333	-72.57
210.719	-15.39
211.105	-13.47
211.491	12.17
211.876	-12.06
212.262	-64.28
212.648	-56.33
213.034	-21.47
213.419	19.54
213.805	-24.8
214.19	-27.5
214.576	-28.15
214.961	-27.65
215.346	-15.01
215.732	-35.65
216.117	-32.87
216.502	-15.82
216.888	4.86
217.273	17.93
217.658	-55.94
218.043	14.23
218.428	-6.74
218.813	-5.54
219.198	-32.48
219.583	-12.31
219.968	-12.05
220.353	11.15
220.738	-17.36
221.122	-18.95
221.507	-15.09
221.892	-6.76
222.276	11
222.661	-0.84
223.046	2.63
223.43	-1.69
223.815	12.9
224.199	-6.44
224.583	-0.2
224.968	0.71
225.352	-3.08
225.736	2.06
226.121	-13.26
226.505	-4.53
226.889	-0.24
227.273	0.48
227.657	2.46
228.041	0.46
228.425	-2.54
228.809	-0.39
229.193	0.62
229.577	2.03
229.961	2.1
230.344	2.92
230.728	2.29
231.112	2.54
231.495	-0.14
231.879	0.5
232.263	-0.27
232.646	1.09
233.03	1.38
233.413	2.89
233.797	3.53
234.18	-1.49
234.563	0.77
234.946	1.84
235.33	1.03
235.713	2.15
236.096	0.86
236.479	2.26
236.862	2.24
237.245	2.97
237.628	2.67
238.011	3.01
238.394	3.76
238.777	1.54
239.16	-0.74
239.543	0.06
239.925	1.65
240.308	4.07
240.691	1.47
241.073	2.22
241.456	1.29
241.838	1.89
242.221	2.16
242.603	2.46
242.986	3.25
243.368	1.94
243.75	1.77
244.133	2.46
244.515	2.22
244.897	1.76
245.279	2.12
245.661	1.44
246.043	1.93
246.425	1.47
246.807	2.46
247.189	1.96
247.571	2.23
247.953	2.52
248.335	2.77
248.717	2.46
249.098	2.58
249.48	2.14
249.862	2.37
250.243	2.29
250.625	2.04
251.006	2
251.388	2.96
251.769	2
252.151	1.48
252.532	2.33
252.913	2.26
253.295	2.6
253.676	2.52
254.057	2.32
254.438	1.75
254.819	2.28
255.2	2.22
255.581	1.83
255.962	1.94
256.343	2.08
256.724	1.45
257.105	2.55
257.486	2.34
257.867	0.71
258.247	1.78
258.628	2.7
259.009	2.07
259.389	2.66
259.77	2.38
260.15	2.79
260.531	2.18
260.911	2.38
261.292	2.14
261.672	2.33
262.052	2.32
262.432	2.08
262.813	2.13
263.193	1.81
263.573	2.08
263.953	1.96
264.333	2.44
264.713	1.7
265.093	1.66
265.473	2.55
265.853	1.05
266.233	1.6
266.612	2.41
266.992	2.07
267.372	2.2
267.752	1.71
268.131	2.28
268.511	2.52
268.89	2.61
269.27	2.14
269.649	2.29
270.029	1.72
270.408	2.55
270.787	1.79
271.167	2.14
271.546	0.86
271.925	2.32
272.304	2.41
272.683	1.85
273.062	2.24
273.441	2.31
273.82	2.37
274.199	2.17
274.578	1.88
274.957	2.22
275.336	1.97
275.715	2.29
276.093	2.31
276.472	2.15
276.851	2.25
277.229	2.52
277.608	1.91
277.986	1.74
278.365	1.99
278.743	2.3
279.122	1.8
279.5	1.7
279.878	1.53
280.257	2.05
280.635	1.7
281.013	2.57
281.391	1.98
281.769	1.69
282.147	2.52
282.525	2.2
282.903	2.2
283.281	2.09
283.659	2.2
284.037	1.9
284.415	2.03
284.792	2.24
285.17	1.88
285.548	1.85
285.925	2.36
286.303	1.87
286.68	2.35
287.058	2
287.435	2.05
287.813	1.96
288.19	2.38
288.567	2.06
288.945	1.99
289.322	1.58
289.699	2.14
290.076	2.78
290.453	1.89
290.83	2.05
291.207	1.89
291.584	1.78
291.961	2.32
292.338	2.16
292.715	2.14
293.092	2.1
293.469	2.56
293.845	1.99
294.222	1.61
294.599	2.06
294.975	2.59
295.352	1.51
295.728	2.43
296.105	1.81
296.481	2.25
296.858	1.9
297.234	2.15
297.61	2.24
297.986	1.66
298.363	1.9
298.739	2.42
299.115	1.69
299.491	2.24
299.867	2.19
300.243	1.89
300.619	1.82
300.995	2.13
301.371	2.34
301.746	2.41
302.122	2.54
302.498	2.28
302.874	1.94
303.249	2.11
303.625	1.86
304	1.57
304.376	2.08
304.751	2.31
305.127	1.84
305.502	2.68
305.878	2.15
306.253	1.61
306.628	2.55
307.003	1.99
307.378	2.17
307.754	2.29
308.129	1.43
308.504	2.1
308.879	2.54
309.254	2.34
309.629	2.51
310.003	2.11
310.378	2.36
310.753	1.9
311.128	2.11
311.502	2.13
311.877	2.15
312.252	2.18
312.626	2.03
313.001	2.11
313.375	2.5
313.75	1.76
314.124	2.67
314.498	2.44
314.873	1.71
315.247	1.82
315.621	2.33
315.995	2.02
316.369	2.45
316.743	2.09
317.117	2.19
317.491	1.67
317.865	1.74
318.239	2.83
318.613	1.99
318.987	2.77
319.361	1.95
319.734	2.4
320.108	2.42
320.482	2.42
320.855	1.95
321.229	2.78
321.602	1.76
321.976	2.54
322.349	1.23
322.723	1.53
323.096	1.67
323.469	1.48
323.843	1.97
324.216	1.39
324.589	2.64
324.962	1.92
325.335	1.94
325.708	2.12
326.081	2.65
326.454	2.04
326.827	2.06
327.2	2.67
327.573	2.45
327.945	2.3
328.318	2.18
328.691	2.33
329.063	2.12
329.436	2.31
329.809	1.97
330.181	2.03
330.553	2.82
330.926	2.37
331.298	2.04
331.671	1.69
332.043	2.18
332.415	2.53
332.787	2.79
333.159	2.16
333.532	1.86
333.904	2.06
334.276	2.15
334.648	2.36
335.02	2.29
335.391	2.81
335.763	2.69
336.135	2.44
336.507	2.21
336.879	2.15
337.25	1.81
337.622	2.15
337.993	1.97
338.365	2.5
338.736	2.46
339.108	1.71
339.479	1.87
339.851	2.68
340.222	2.23
340.593	2.12
340.964	2.16
341.336	1.6
341.707	2.09
342.078	2.11
342.449	2.95
342.82	2.42
343.191	1.67
343.562	2.48
343.933	2.4
344.303	2.3
344.674	2.01
345.045	2.56
345.416	2.52
345.786	2.35
346.157	2.23
346.527	1.96
346.898	2.16
347.268	2.17
347.639	2.05
348.009	2.59
348.38	2.61
348.75	2
349.12	2.36
349.49	2.03
349.861	2.92
350.231	2.36
350.601	2.37
350.971	2.32
351.341	2.22
351.711	2.2
352.081	2.46
352.45	2.45
352.82	2.82
353.19	2.6
353.56	2.05
353.929	2.64
354.299	2.35
354.669	2.35
355.038	2.44
355.408	3.13
355.777	2.24
356.147	2.84
356.516	2.17
356.885	2.16
357.254	2.39
357.624	2.38
357.993	2.67
358.362	2.36
358.731	2.31
359.1	2.54
359.469	2.47
359.838	2.17
360.207	2.2
360.576	2.43
360.945	2.38
361.314	2.52
361.682	2.28
362.051	2.35
362.42	2.82
362.788	2.49
363.157	2.29
363.525	2.46
363.894	2.19
364.262	2.31
364.631	3.37
364.999	2.33
365.367	2.72
365.735	2.32
366.104	2.39
366.472	2.52
366.84	2.36
367.208	2.5
367.576	2.29
367.944	2.65
368.312	2.15
368.68	2.81
369.048	2.88
369.416	2.34
369.783	2.44
370.151	2.44
370.519	2.32
370.886	2.48
371.254	2.49
371.621	2.55
371.989	2.7
372.356	2.53
372.724	2.74
373.091	2.63
373.458	2.6
373.826	2.26
374.193	3.21
374.56	2.16
374.927	2.61
375.294	2.51
375.661	2.48
376.028	2.6
376.395	2.56
376.762	2.75
377.129	2.52
377.496	2.51
377.863	2.76
378.229	2.29
378.596	2.36
378.963	2.47
379.329	2.33
379.696	2.68
380.062	2.83
380.429	2.26
380.795	2.39
381.161	2.52
381.528	2.23
381.894	2.61
382.26	2.45
382.626	2.61
382.993	2.29
383.359	2.56
383.725	2.81
384.091	2.68
384.457	2.45
384.823	2.55
385.188	2.87
385.554	2.52
385.92	2.61
386.286	2.86
386.651	2.39
387.017	2.95
387.383	2.42
387.748	2.5
388.114	2.64
388.479	2.77
388.845	2.85
389.21	2.54
389.575	2.79
389.94	2.45
390.306	2.47
390.671	2.7
391.036	2.63
391.401	3.03
391.766	2.63
392.131	2.66
392.496	2.6
392.861	2.33
393.226	2.67
393.591	2.59
393.956	2.8
394.32	2.42
394.685	2.57
395.05	2.52
395.414	2.63
395.779	2.76
396.143	2.6
396.508	2.93
396.872	3.01
397.236	2.44
397.601	2.76
397.965	2.33
398.329	2.89
398.694	2.5
399.058	2.73
399.422	2.7
399.786	2.77
400.15	2.84
400.514	2.69
400.878	2.69
401.242	2.7
401.605	2.72
401.969	2.74
402.333	2.45
402.697	2.82
403.06	2.92
403.424	2.64
403.787	2.73
404.151	2.67
404.514	2.67
404.878	2.94
405.241	2.87
405.604	2.97
405.968	2.71
406.331	2.81
406.694	2.73
407.057	3.15
407.42	2.53
407.783	2.68
408.146	2.7
408.509	2.66
408.872	2.43
409.235	2.92
409.598	2.78
409.961	2.84
410.323	2.76
410.686	2.74
411.049	2.67
411.411	2.68
411.774	2.77
412.136	3.04
412.499	2.78
412.861	2.52
413.223	3.11
413.586	2.69
413.948	2.54
414.31	2.96
414.672	2.68
415.035	3.02
415.397	2.95
415.759	2.82
416.121	2.78
416.483	2.87
416.845	2.76
417.206	2.97
417.568	2.78
417.93	2.68
418.292	2.84
418.653	2.9
419.015	2.92
419.377	2.99
419.738	2.88
420.1	2.81
420.461	2.76
420.822	2.78
421.184	2.77
421.545	2.81
421.906	2.8
422.267	2.68
422.629	2.74
422.99	2.81
423.351	2.86
423.712	2.79
424.073	2.93
424.434	2.68
424.795	2.7
425.155	2.78
425.516	2.81
425.877	2.94
426.238	2.76
426.598	2.85
426.959	2.66
427.32	2.87
427.68	2.91
428.041	2.96
428.401	2.81
428.761	2.78
429.122	2.67
429.482	2.63
429.842	3.02
430.202	2.86
430.563	2.92
430.923	2.99
431.283	2.87
431.643	2.81
432.003	3.03
432.363	2.98
432.722	2.97
433.082	2.88
433.442	2.9
433.802	2.88
434.161	2.95
434.521	2.86
434.881	2.98
435.24	2.77
435.6	2.94
435.959	2.96
436.319	2.8
436.678	3.06
437.037	2.86
437.396	2.88
437.756	2.82
438.115	3.02
438.474	2.99
438.833	3.02
439.192	2.95
439.551	3.16
439.91	2.98
440.269	3.11
440.628	2.92
440.987	2.85
441.345	2.96
441.704	2.85
442.063	2.92
442.421	2.92
442.78	2.95
443.138	2.87
443.497	2.82
443.855	2.85
444.214	3.07
444.572	2.8
444.93	2.88
445.288	2.96
445.647	2.95
446.005	2.75
446.363	3
446.721	2.82
447.079	2.96
447.437	2.9
447.795	2.82
448.153	2.99
448.51	2.87
448.868	3.06
449.226	2.96
449.584	2.97
449.941	3.03
450.299	3.05
450.656	3.06
451.014	2.94
451.371	2.95
451.729	3.03
452.086	2.89
452.443	2.84
452.801	2.99
453.158	3.06
453.515	2.93
453.872	3.22
454.229	2.93
454.586	3.01
454.943	2.94
455.3	3.17
455.657	2.84
456.014	2.94
456.371	3.07
456.727	2.88
457.084	3.05
457.441	3.01
457.797	3.12
458.154	2.98
458.51	2.88
458.867	2.95
459.223	3.02
459.58	2.99
459.936	2.94
460.292	3.14
460.648	2.84
461.005	2.93
461.361	2.95
461.717	2.98
462.073	2.99
462.429	3.09
462.785	3.05
463.141	3.06
463.496	3.17
463.852	3.17
464.208	2.99
464.564	2.93
464.919	3.03
465.275	3
465.631	3.04
465.986	2.99
466.342	3.02
466.697	3.06
467.052	3.12
467.408	3.08
467.763	3.06
468.118	2.96
468.473	3.3
468.829	3.03
469.184	3.16
469.539	2.88
469.894	3
470.249	3.06
470.603	2.92
470.958	3.39
471.313	3.04
471.668	3.11
472.023	3.36
472.377	3.03
472.732	3.06
473.086	2.82
473.441	3.21
473.795	3.22
474.15	3.2
474.504	3.22
474.859	3.1
475.213	3.22
475.567	3.17
475.921	3.21
476.275	3.17
476.63	3.08
476.984	2.95
477.338	3.4
477.692	3.19
478.045	3.08
478.399	3.07
478.753	2.95
479.107	3.08
479.461	3.14
479.814	3.08
480.168	3.23
480.521	3.12
480.875	3.2
481.228	3.17
481.582	3.14
481.935	3.16
482.289	3.08
482.642	3.17
482.995	3.11
483.348	3.05
483.701	3.24
484.055	3
484.408	3.07
484.761	2.94
485.114	2.9
485.466	2.91
485.819	2.97
486.172	3.03
486.525	3.05
486.878	3.08
487.23	3.08
487.583	3.11
487.936	3.13
488.288	3
488.641	3.02
488.993	2.96
489.345	3.02
489.698	3.08
490.05	3.01
490.402	3.13
490.754	3.15
491.107	3.16
491.459	3.22
491.811	3.19
492.163	3.23
492.515	3.08
492.866	2.92
493.218	3.02
493.57	3.11
493.922	3.16
494.274	3.17
494.625	3.1
494.977	3.16
495.328	3.32
495.68	3.39
496.031	3.27
496.383	3.2
496.734	3.23
497.086	3.19
497.437	3.27
497.788	3.26
498.139	3.19
498.49	3.23
498.842	3.17
499.193	3.22
499.544	3.41
499.894	3.25
500.245	3.33
500.596	3.18
500.947	3.25
501.298	3.17
501.648	3.2
501.999	3.42
502.35	3.31
502.7	3.35
503.051	3.43
503.401	3.45
503.752	3.38
504.102	3.3
504.452	3.19
504.803	3.27
505.153	3.29
505.503	3.35
505.853	3.26
506.203	3.34
506.553	3.34
506.903	3.26
507.253	3.34
507.603	3.25
507.953	3.38
508.303	3.27
508.652	3.4
509.002	3.32
509.352	3.37
509.701	3.25
510.051	3.35
510.4	3.25
510.75	3.29
511.099	3.18
511.449	3.28
511.798	3.4
512.147	3.29
512.496	3.34
512.846	3.35
513.195	3.25
513.544	3.37
513.893	3.17
514.242	3.35
514.591	3.42
514.939	3.24
515.288	3.54
515.637	3.51
515.986	3.34
516.334	3.47
516.683	3.4
517.032	3.38
517.38	3.43
517.729	3.29
518.077	3.44
518.426	3.33
518.774	3.27
519.122	3.41
519.47	3.3
519.819	3.38
520.167	3.43
520.515	3.29
520.863	3.33
521.211	3.36
521.559	3.42
521.907	3.44
522.255	3.46
522.602	3.54
522.95	3.56
523.298	3.48
523.645	3.39
523.993	3.5
524.341	3.39
524.688	3.37
525.036	3.56
525.383	3.56
525.73	3.42
526.078	3.5
526.425	3.47
526.772	3.3
527.119	3.33
527.466	3.43
527.814	3.36
528.161	3.38
528.508	3.43
528.854	3.35
529.201	3.3
529.548	3.25
529.895	3.24
530.242	3.23
530.588	3.28
530.935	3.34
531.282	3.42
531.628	3.43
531.975	3.46
532.321	3.49
532.667	3.49
533.014	3.52
533.36	3.44
533.706	3.5
534.052	3.43
534.399	3.36
534.745	3.36
535.091	3.41
535.437	3.45
535.783	3.5
536.129	3.52
536.474	3.56
536.82	3.54
537.166	3.59
537.512	3.59
537.857	3.51
538.203	3.5
538.549	3.59
538.894	3.53
539.239	3.69
539.585	3.66
539.93	3.6
540.276	3.49
540.621	3.51
540.966	3.62
541.311	3.56
541.656	3.49
542.001	3.53
542.346	3.52
542.691	3.45
543.036	3.43
543.381	3.5
543.726	3.61
544.071	3.65
544.415	3.63
544.76	3.59
545.105	3.64
545.449	3.61
545.794	3.65
546.138	3.73
546.483	3.68
546.827	3.67
547.171	3.67
547.516	3.78
547.86	3.61
548.204	3.64
548.548	3.81
548.892	3.76
549.236	3.78
549.58	3.81
549.924	3.82
550.268	3.84
550.612	3.74
550.956	3.78
551.3	3.94
551.643	3.94
551.987	3.95
552.33	3.88
552.674	3.93
553.017	3.88
553.361	3.91
553.704	3.84
554.048	4
554.391	3.93
554.734	3.8
555.077	3.92
555.42	3.92
555.764	3.87
556.107	3.97
556.45	3.82
556.793	4.16
557.135	4.11
557.478	4.02
557.821	3.95
558.164	4.18
558.507	3.78
558.849	3.87
559.192	3.98
559.534	3.83
559.877	4.24
560.219	4.29
560.562	4.06
560.904	4.05
561.246	4.07
561.589	4.15
561.931	4.24
562.273	4.1
562.615	4.13
562.957	4.16
563.299	4.22
563.641	4.2
563.983	4.13
564.325	3.9
564.667	4.11
565.008	4.05
565.35	4.24
565.692	4.4
566.033	4.26
566.375	3.98
566.716	4.23
567.058	4.25
567.399	4.18
567.741	4.29
568.082	4.08
568.423	4.25
568.764	4.32
569.105	4.4
569.447	4.14
569.788	4.31
570.129	4.3
570.47	4.43
570.811	4.2
571.151	4.21
571.492	4.55
571.833	4.31
572.174	4.32
572.514	4.15
572.855	4.39
573.195	4.24
573.536	4.26
573.876	4.41
574.217	4.44
574.557	4.6
574.898	4.27
575.238	4.36
575.578	4.56
575.918	4.38
576.258	4.53
576.598	4.45
576.938	4.51
577.278	4.41
577.618	4.39
577.958	4.44
578.298	4.69
578.638	4.58
578.977	4.65
579.317	4.7
579.657	4.63
579.996	4.41
580.336	4.63
580.675	4.64
581.014	4.56
581.354	4.52
581.693	4.61
582.032	4.54
582.372	4.76
582.711	4.79
583.05	4.83
583.389	5.08
583.728	4.93
584.067	5.02
584.406	4.86
584.745	4.8
585.083	5.02
585.422	4.65
585.761	5.04
586.1	5.1
586.438	4.84
586.777	4.84
587.115	4.94
587.454	4.92
587.792	4.86
588.13	5.14
588.469	5.09
588.807	5.28
589.145	4.92
589.483	4.9
589.821	5.06
590.159	5.02
590.497	4.82
590.835	4.86
591.173	5.3
591.511	5.24
591.849	5.19
592.187	5.25
592.524	5.14
592.862	5.17
593.2	5.22
593.537	5.18
593.875	5.09
594.212	5.39
594.55	5.27
594.887	5.03
595.224	5.11
595.561	5.43
595.899	5.33
596.236	5.27
596.573	5.18
596.91	5.19
597.247	5.26
597.584	5.47
597.921	5.06
598.258	5.32
598.594	4.99
598.931	5.15
599.268	5.34
599.604	5.5
599.941	5.41
600.277	5.43
600.614	5.54
600.95	5.57
601.287	5.4
601.623	5.29
601.959	5.37
602.296	5.59
602.632	5.55
602.968	5.49
603.304	5.43
603.64	5.24
603.976	5.54
604.312	5.62
604.648	5.77
604.984	5.59
605.319	5.53
605.655	5.71
605.991	5.52
606.326	5.71
606.662	5.57
606.998	5.63
607.333	5.69
607.668	5.46
608.004	5.74
608.339	5.57
608.674	5.92
609.01	5.87
609.345	5.95
609.68	5.62
610.015	5.79
610.35	5.96
610.685	5.85
611.02	5.83
611.355	6.04
611.689	5.82
612.024	5.98
612.359	6.02
612.694	6.17
613.028	6.14
613.363	5.97
613.697	5.86
614.032	6.12
614.366	6.1
614.7	6.26
615.035	6.05
615.369	6.06
615.703	6.5
616.037	6.37
616.371	6.16
616.705	6.01
617.039	6.1
617.373	6.56
617.707	6
618.041	6.41
618.375	6.24
618.709	6.37
619.042	6.28
619.376	6.2
619.71	6.09
620.043	6.31
620.377	6.27
620.71	6.18
621.043	5.99
621.377	6.28
621.71	6.52
622.043	6.63
622.376	6.07
622.709	6.7
623.043	6.21
623.376	6.71
623.709	6.65
624.041	6.43
624.374	6.27
624.707	6.52
625.04	6.8
625.373	6.37
625.705	6.75
626.038	6.58
626.37	6.46
626.703	6.45
627.035	6.65
627.368	6.77
627.7	6.63
628.032	6.48
628.365	6.6
628.697	6.43
629.029	6.88
629.361	6.67
629.693	6.86
630.025	6.85
630.357	6.78
630.689	7.09
631.021	6.99
631.353	6.85
631.684	6.82
632.016	6.73
632.348	6.99
632.679	6.79
633.011	6.93
633.342	6.6
633.674	7.06
634.005	7.12
634.336	7.02
634.668	7.2
634.999	6.98
635.33	6.93
635.661	6.97
635.992	6.93
636.323	7.18
636.654	6.93
636.985	7.12
637.316	7.48
637.647	7.32
637.977	7.06
638.308	7.27
638.639	7.11
638.969	7.38
639.3	7.4
639.63	6.97
639.961	7.21
640.291	7.6
640.622	8.06
640.952	7.26
641.282	6.92
641.612	7.52
641.943	7.74
642.273	7.53
642.603	7.68
642.933	7.23
643.263	7.85
643.592	7.57
643.922	8.26
644.252	7.81
644.582	7.87
644.911	7.44
645.241	7.32
645.571	7.43
645.9	8.17
646.23	7.45
646.559	7.62
646.888	7.39
647.218	7.72
647.547	7.87
647.876	8
648.205	7.56
648.534	7.83
648.863	8.06
649.192	7.8
649.521	7.79
649.85	8.09
650.179	7.67
650.508	8.28
650.837	8
651.165	8.46
651.494	8.19
651.822	7.98
652.151	8.19
652.479	8.54
652.808	7.9
653.136	7.99
653.465	8.43
653.793	8.59
654.121	8.46
654.449	8.49
654.777	8.01
655.105	8.61
655.433	8.66
655.761	7.75
656.089	8.41
656.417	8.22
656.745	8.46
657.073	9.07
657.4	8.64
657.728	8.17
658.056	8.65
658.383	8.5
658.711	8.2
659.038	8.65
659.365	8.42
659.693	8.55
660.02	8.49
660.347	8.56
660.674	8.36
661.001	8.31
661.329	8.55
661.656	8.69
661.982	8.77
662.309	8.59
662.636	8.16
662.963	8.93
663.29	8.46
663.616	8.55
663.943	9.35
664.27	8.71
664.596	8.61
664.923	9.55
665.249	8.8
665.576	8.49
665.902	8.61
666.228	8.3
666.554	8.53
666.881	8.93
667.207	8.91
667.533	9.24
667.859	9.12
668.185	9.4
668.511	8.97
668.837	8.8
669.162	9.31
669.488	8.7
669.814	9.32
670.139	9.64
670.465	9.22
670.791	9.39
671.116	9.17
671.442	9.94
671.767	8.98
672.092	9.05
672.418	9.61
672.743	9.21
673.068	9.23
673.393	9.46
673.718	9.21
674.043	9.44
674.368	9.47
674.693	9.51
675.018	9.72
675.343	10.02
675.667	9.71
675.992	9.33
676.317	9.9
676.641	9.2
676.966	9.8
677.29	8.76
677.615	9.3
677.939	9.52
678.264	10.1
678.588	10.24
678.912	9.29
679.236	9.57
679.56	9.81
679.885	9.38
680.209	8.96
680.532	9.93
680.856	10.38
681.18	9.85
681.504	9.33
681.828	9.35
682.152	9.52
682.475	9.72
682.799	10.05
683.122	10.37
683.446	9.6
683.769	9.8
684.093	10.38
684.416	9.87
684.739	10.23
685.062	10.22
685.386	9.93
685.709	9.12
686.032	9.71
686.355	10.15
686.678	9.17
687.001	8.93
687.324	9.72
687.646	9.95
687.969	9.34
688.292	10.74
688.614	10.63
688.937	10.24
689.26	9.78
689.582	10.97
689.904	10.13
690.227	10.63
690.549	11.19
690.871	10.47
691.194	10.58
691.516	10.62
