Data from 0071_crown_Reflection__3__322.txt Node

Date: Fri Dec 16 16:39:47 CST 2022
User: ToomeyLab
Spectrometer: FLMS14357
Trigger mode: 0
Integration Time (sec): 1.000000E-2
Scans to average: 100
Electric dark correction enabled: true
Nonlinearity correction enabled: false
Boxcar width: 0
XAxis mode: Wavelengths
Number of Pixels in Spectrum: 2048
>>>>>Begin Spectral Data<<<<<
189.047	11440
189.435	11440
189.823	11440
190.211	103.14
190.599	-194.5
190.987	29.47
191.375	-35.86
191.763	-400
192.151	-119.4
192.538	87.52
192.926	107.88
193.314	65.14
193.702	-2877.42
194.089	-120.53
194.477	-2533.33
194.864	-4.23
195.252	7.19
195.639	282.02
196.027	751.36
196.414	-438.65
196.801	48.51
197.189	38.09
197.576	-76.77
197.963	63.29
198.351	16.86
198.738	-25.87
199.125	6.53
199.512	-25.16
199.899	75.32
200.286	-124.04
200.673	34.35
201.06	79.46
201.447	12.42
201.833	-22.54
202.22	-4.76
202.607	-6.7
202.994	-23.1
203.38	-5.1
203.767	-48.26
204.154	9.44
204.54	31.56
204.927	20.06
205.313	12.77
205.699	-21.87
206.086	-3.6
206.472	-27.2
206.858	-13.69
207.245	-3.34
207.631	9.21
208.017	3.77
208.403	-14.33
208.789	-11.69
209.175	48.26
209.561	-25.15
209.947	-23.68
210.333	-61.33
210.719	-40.59
211.105	-35.68
211.491	-8.96
211.876	-31.16
212.262	-36.95
212.648	-26.23
213.034	-11.15
213.419	-1.06
213.805	-4.05
214.19	-33.34
214.576	-26.92
214.961	-31.31
215.346	-3.49
215.732	-2.34
216.117	-11.39
216.502	-10.46
216.888	-30.57
217.273	-10.09
217.658	-32.08
218.043	24.41
218.428	-7.73
218.813	-42.85
219.198	-43.12
219.583	-0.27
219.968	-25.51
220.353	-7.09
220.738	-10.55
221.122	-12.34
221.507	3.18
221.892	10.54
222.276	14.3
222.661	-6.86
223.046	-7.67
223.43	-8.51
223.815	2
224.199	5.25
224.583	1.55
224.968	9.01
225.352	-6.49
225.736	9.82
226.121	8.28
226.505	-2.61
226.889	12.15
227.273	4.07
227.657	-1.85
228.041	5.06
228.425	3
228.809	2.42
229.193	0.49
229.577	1.79
229.961	3.57
230.344	3.01
230.728	3.3
231.112	2.98
231.495	3.94
231.879	3.13
232.263	1.96
232.646	2.49
233.03	1.5
233.413	2.06
233.797	2.68
234.18	0.63
234.563	1.22
234.946	2.15
235.33	4.69
235.713	3.57
236.096	1.68
236.479	3
236.862	0.48
237.245	3.88
237.628	4.54
238.011	2.81
238.394	5.66
238.777	3.48
239.16	2.24
239.543	1.93
239.925	2.62
240.308	3.21
240.691	1.18
241.073	2.36
241.456	3.08
241.838	3.3
242.221	3.56
242.603	3.53
242.986	3.8
243.368	3.11
243.75	3.32
244.133	3.02
244.515	3.7
244.897	3.68
245.279	3.56
245.661	3.32
246.043	3.42
246.425	2.35
246.807	3.01
247.189	2.94
247.571	3.67
247.953	2.98
248.335	3.38
248.717	3.53
249.098	3.68
249.48	3.19
249.862	3.42
250.243	3.47
250.625	3.6
251.006	4.04
251.388	3.58
251.769	3.29
252.151	2.34
252.532	3.02
252.913	3.08
253.295	3.5
253.676	3.39
254.057	2.71
254.438	2.54
254.819	2.94
255.2	3.2
255.581	1.97
255.962	2.59
256.343	2.81
256.724	2.02
257.105	2.51
257.486	3.19
257.867	1.3
258.247	3.24
258.628	3.48
259.009	3.84
259.389	3.45
259.77	2.92
260.15	3.91
260.531	3.06
260.911	3.15
261.292	3.18
261.672	2.99
262.052	3.05
262.432	2.48
262.813	2.98
263.193	2.2
263.573	3.13
263.953	2.75
264.333	2.62
264.713	3.17
265.093	2.95
265.473	4.13
265.853	2.8
266.233	2.19
266.612	3.3
266.992	3.01
267.372	3.18
267.752	2.79
268.131	2.65
268.511	3.02
268.89	3.3
269.27	3.32
269.649	3.35
270.029	3
270.408	2.66
270.787	2.64
271.167	2.67
271.546	2.07
271.925	2.77
272.304	3.33
272.683	2.72
273.062	3
273.441	2.87
273.82	3.19
274.199	3.22
274.578	2.77
274.957	3.21
275.336	2.75
275.715	3.17
276.093	3.37
276.472	2.52
276.851	2.97
277.229	3.03
277.608	3.01
277.986	2.95
278.365	2.77
278.743	3.06
279.122	2.18
279.5	2.33
279.878	2.07
280.257	2.92
280.635	2.78
281.013	2.9
281.391	2.41
281.769	2.61
282.147	2.95
282.525	2.66
282.903	2.98
283.281	3.04
283.659	3.11
284.037	2.63
284.415	2.89
284.792	2.72
285.17	2.33
285.548	2.47
285.925	2.97
286.303	2.84
286.68	3.04
287.058	3.07
287.435	2.87
287.813	3.13
288.19	3.17
288.567	2.49
288.945	3.39
289.322	2.71
289.699	3.09
290.076	3.04
290.453	2.54
290.83	2.84
291.207	2.59
291.584	2.84
291.961	3.09
292.338	3.29
292.715	2.83
293.092	2.99
293.469	3.41
293.845	3.32
294.222	2.85
294.599	2.9
294.975	3.15
295.352	2.46
295.728	2.93
296.105	3
296.481	3.21
296.858	3.2
297.234	2.63
297.61	2.94
297.986	2.79
298.363	2.57
298.739	3.06
299.115	2.68
299.491	2.78
299.867	2.87
300.243	3.1
300.619	2.91
300.995	3.1
301.371	3.06
301.746	2.6
302.122	3.03
302.498	2.85
302.874	2.83
303.249	2.85
303.625	3.36
304	2.84
304.376	3.37
304.751	2.58
305.127	3.01
305.502	2.95
305.878	3.14
306.253	3.31
306.628	3.19
307.003	2.76
307.378	2.48
307.754	2.98
308.129	2.74
308.504	2.8
308.879	2.76
309.254	3.35
309.629	2.88
310.003	3.63
310.378	3.24
310.753	3.04
311.128	3.3
311.502	2.66
311.877	3.26
312.252	2.97
312.626	2.71
313.001	2.98
313.375	3.07
313.75	2.74
314.124	3.45
314.498	3.01
314.873	3.09
315.247	2.86
315.621	2.94
315.995	2.87
316.369	3.32
316.743	3.56
317.117	3.01
317.491	3.14
317.865	2.66
318.239	3.59
318.613	3.34
318.987	3.7
319.361	3.14
319.734	3.21
320.108	3.15
320.482	3.38
320.855	2.65
321.229	3.54
321.602	3.56
321.976	3
322.349	2.25
322.723	2.7
323.096	2.94
323.469	2.73
323.843	2.91
324.216	2.6
324.589	2.86
324.962	3.41
325.335	2.9
325.708	3.09
326.081	3.09
326.454	3.16
326.827	3.61
327.2	3.1
327.573	2.89
327.945	3.31
328.318	3.49
328.691	3.34
329.063	3.44
329.436	2.74
329.809	2.75
330.181	2.72
330.553	3.38
330.926	3.18
331.298	2.41
331.671	3.57
332.043	3.14
332.415	3.66
332.787	3.93
333.159	3.08
333.532	3.23
333.904	3.39
334.276	3.08
334.648	3.47
335.02	3.29
335.391	3.43
335.763	3.13
336.135	3.19
336.507	3.79
336.879	3.19
337.25	3.33
337.622	3.44
337.993	3.22
338.365	3.28
338.736	3.33
339.108	2.94
339.479	3.09
339.851	3.64
340.222	3.6
340.593	2.79
340.964	3.23
341.336	3.12
341.707	3.22
342.078	2.95
342.449	3.44
342.82	3.32
343.191	2.91
343.562	3.03
343.933	3.31
344.303	3.68
344.674	3.43
345.045	3.59
345.416	2.96
345.786	3.08
346.157	3.37
346.527	3.27
346.898	3.03
347.268	3.53
347.639	3.1
348.009	3.18
348.38	3.57
348.75	3.05
349.12	3.39
349.49	2.86
349.861	3.53
350.231	3.59
350.601	3.38
350.971	3.08
351.341	3.38
351.711	3.03
352.081	3.33
352.45	3.76
352.82	3.69
353.19	3.07
353.56	3.54
353.929	3.52
354.299	3.36
354.669	3.06
355.038	3.38
355.408	3.85
355.777	3.49
356.147	3.74
356.516	3.74
356.885	3.23
357.254	3.34
357.624	3.53
357.993	3.25
358.362	3.43
358.731	3.42
359.1	3.48
359.469	3.55
359.838	3.38
360.207	3.2
360.576	3.68
360.945	3.28
361.314	3.72
361.682	3.23
362.051	3.26
362.42	3.32
362.788	3.28
363.157	3.43
363.525	3.64
363.894	3.19
364.262	3.37
364.631	3.9
364.999	3.43
365.367	3.83
365.735	3.12
366.104	3.46
366.472	3.58
366.84	3.7
367.208	3.37
367.576	3.27
367.944	3.94
368.312	3.13
368.68	3.4
369.048	3.76
369.416	3.4
369.783	3.46
370.151	3.53
370.519	3.54
370.886	3.41
371.254	3.78
371.621	3.74
371.989	3.55
372.356	3.64
372.724	3.64
373.091	3.46
373.458	3.45
373.826	3.1
374.193	4.11
374.56	3.51
374.927	3.22
375.294	3.72
375.661	3.45
376.028	3.58
376.395	3.7
376.762	3.68
377.129	3.61
377.496	3.62
377.863	3.57
378.229	3.47
378.596	3.57
378.963	3.46
379.329	3.41
379.696	3.58
380.062	3.78
380.429	3.46
380.795	3.1
381.161	3.77
381.528	3.15
381.894	3.59
382.26	3.3
382.626	3.51
382.993	3.25
383.359	3.5
383.725	3.73
384.091	3.45
384.457	3.81
384.823	3.73
385.188	3.84
385.554	3.4
385.92	3.93
386.286	3.76
386.651	3.72
387.017	3.9
387.383	3.37
387.748	3.58
388.114	3.66
388.479	3.74
388.845	3.72
389.21	3.96
389.575	3.36
389.94	3.53
390.306	3.72
390.671	3.71
391.036	3.76
391.401	3.96
391.766	3.68
392.131	3.38
392.496	3.82
392.861	3.49
393.226	3.91
393.591	3.79
393.956	3.87
394.32	3.68
394.685	3.56
395.05	3.56
395.414	3.76
395.779	3.87
396.143	3.76
396.508	3.76
396.872	3.86
397.236	3.32
397.601	3.91
397.965	3.33
398.329	3.8
398.694	3.47
399.058	3.84
399.422	3.71
399.786	3.86
400.15	3.89
400.514	3.68
400.878	3.6
401.242	3.65
401.605	3.6
401.969	3.76
402.333	3.71
402.697	3.95
403.06	3.84
403.424	3.67
403.787	4.13
404.151	3.79
404.514	3.67
404.878	3.69
405.241	3.92
405.604	4.03
405.968	3.57
406.331	3.91
406.694	3.79
407.057	4
407.42	3.88
407.783	3.72
408.146	4.02
408.509	3.54
408.872	3.83
409.235	3.92
409.598	3.83
409.961	3.92
410.323	3.74
410.686	3.6
411.049	3.59
411.411	3.79
411.774	3.75
412.136	3.77
412.499	3.82
412.861	3.62
413.223	3.87
413.586	3.76
413.948	3.67
414.31	3.82
414.672	3.78
415.035	3.89
415.397	4.1
415.759	3.67
416.121	4.17
416.483	4.16
416.845	3.73
417.206	3.88
417.568	3.9
417.93	3.94
418.292	3.95
418.653	3.89
419.015	3.84
419.377	3.79
419.738	3.74
420.1	3.85
420.461	3.86
420.822	3.77
421.184	3.7
421.545	3.91
421.906	3.81
422.267	3.67
422.629	3.8
422.99	3.8
423.351	3.8
423.712	3.78
424.073	3.88
424.434	3.78
424.795	3.78
425.155	3.73
425.516	3.75
425.877	3.81
426.238	3.72
426.598	3.78
426.959	3.74
427.32	3.94
427.68	3.9
428.041	3.9
428.401	3.81
428.761	3.89
429.122	3.62
429.482	3.96
429.842	3.81
430.202	3.82
430.563	4.07
430.923	3.87
431.283	4.05
431.643	3.87
432.003	3.94
432.363	4.02
432.722	3.63
433.082	3.82
433.442	3.77
433.802	3.8
434.161	3.8
434.521	3.94
434.881	4.06
435.24	3.87
435.6	3.99
435.959	4
436.319	3.79
436.678	3.83
437.037	4.05
437.396	3.85
437.756	3.91
438.115	3.8
438.474	3.95
438.833	4.01
439.192	4.09
439.551	3.92
439.91	3.88
440.269	4.11
440.628	3.93
440.987	3.9
441.345	3.89
441.704	3.88
442.063	3.82
442.421	3.9
442.78	3.78
443.138	3.9
443.497	3.81
443.855	3.87
444.214	4
444.572	3.89
444.93	4.02
445.288	3.9
445.647	4.09
446.005	3.83
446.363	3.94
446.721	3.74
447.079	3.9
447.437	3.85
447.795	3.89
448.153	3.88
448.51	3.87
448.868	3.96
449.226	4.02
449.584	4.01
449.941	4.07
450.299	3.92
450.656	3.95
451.014	4.01
451.371	4.03
451.729	4.03
452.086	3.97
452.443	3.81
452.801	4.11
453.158	3.97
453.515	3.94
453.872	3.99
454.229	3.93
454.586	4.05
454.943	4.01
455.3	4.16
455.657	3.96
456.014	4.08
456.371	3.98
456.727	3.73
457.084	3.9
457.441	3.94
457.797	4.09
458.154	4.05
458.51	3.86
458.867	3.93
459.223	4.06
459.58	3.9
459.936	3.97
460.292	3.95
460.648	3.84
461.005	3.81
461.361	3.82
461.717	3.87
462.073	4
462.429	4.02
462.785	3.99
463.141	4.08
463.496	4.12
463.852	4.17
464.208	4.02
464.564	4
464.919	4.03
465.275	4.15
465.631	4.05
465.986	3.88
466.342	4.04
466.697	4.13
467.052	3.99
467.408	4.04
467.763	3.99
468.118	4.01
468.473	4.14
468.829	4.05
469.184	4.04
469.539	3.98
469.894	4.11
470.249	3.98
470.603	4.17
470.958	4.17
471.313	4.07
471.668	4.11
472.023	4.31
472.377	3.91
472.732	4.07
473.086	3.99
473.441	3.97
473.795	4.12
474.15	4.05
474.504	4.14
474.859	4.23
475.213	4.15
475.567	3.99
475.921	4.37
476.275	4.12
476.63	4.14
476.984	4
477.338	4.25
477.692	4.04
478.045	4.05
478.399	4.11
478.753	4.01
479.107	4.03
479.461	4.19
479.814	4.04
480.168	4.08
480.521	4.17
480.875	4.31
481.228	4.19
481.582	4
481.935	4.05
482.289	3.98
482.642	4.18
482.995	4.04
483.348	3.98
483.701	4.05
484.055	3.98
484.408	3.96
484.761	3.8
485.114	3.72
485.466	3.73
485.819	3.86
486.172	3.95
486.525	4.03
486.878	3.98
487.23	4.04
487.583	3.99
487.936	4.04
488.288	3.91
488.641	3.87
488.993	3.77
489.345	3.83
489.698	3.96
490.05	3.97
490.402	4.05
490.754	4.06
491.107	4.09
491.459	4.08
491.811	4.16
492.163	4.06
492.515	3.97
492.866	3.83
493.218	3.85
493.57	3.96
493.922	4.02
494.274	4.12
494.625	4.14
494.977	4.1
495.328	4.22
495.68	4.27
496.031	4.18
496.383	4.23
496.734	4.22
497.086	4.21
497.437	4.08
497.788	4.06
498.139	4.06
498.49	4.18
498.842	4.12
499.193	4.11
499.544	4.21
499.894	4.29
500.245	4.14
500.596	4.23
500.947	4.19
501.298	4.27
501.648	4.25
501.999	4.27
502.35	4.3
502.7	4.23
503.051	4.28
503.401	4.29
503.752	4.16
504.102	4.25
504.452	3.96
504.803	4.03
505.153	4.3
505.503	4.27
505.853	4.15
506.203	4.22
506.553	4.16
506.903	4.27
507.253	4.24
507.603	4.2
507.953	4.31
508.303	4.17
508.652	4.18
509.002	4.3
509.352	4.1
509.701	4.12
510.051	4.26
510.4	4.21
510.75	4.26
511.099	4.17
511.449	4.15
511.798	4.36
512.147	4.26
512.496	4.36
512.846	4.26
513.195	4.24
513.544	4.17
513.893	4.09
514.242	4.25
514.591	4.33
514.939	4.28
515.288	4.27
515.637	4.29
515.986	4.18
516.334	4.37
516.683	4.34
517.032	4.12
517.38	4.3
517.729	4.42
518.077	4.32
518.426	4.27
518.774	4.25
519.122	4.24
519.47	4.2
519.819	4.24
520.167	4.14
520.515	4.26
520.863	4.21
521.211	4.25
521.559	4.26
521.907	4.24
522.255	4.33
522.602	4.39
522.95	4.39
523.298	4.29
523.645	4.25
523.993	4.43
524.341	4.3
524.688	4.4
525.036	4.45
525.383	4.35
525.73	4.32
526.078	4.3
526.425	4.24
526.772	4.08
527.119	4.1
527.466	4.22
527.814	4.24
528.161	4.27
528.508	4.34
528.854	4.18
529.201	4.1
529.548	4.03
529.895	3.95
530.242	3.97
530.588	4.13
530.935	4.15
531.282	4.29
531.628	4.29
531.975	4.34
532.321	4.23
532.667	4.36
533.014	4.32
533.36	4.25
533.706	4.32
534.052	4.18
534.399	4.17
534.745	4.05
535.091	4.16
535.437	4.27
535.783	4.33
536.129	4.35
536.474	4.42
536.82	4.33
537.166	4.32
537.512	4.32
537.857	4.24
538.203	4.31
538.549	4.34
538.894	4.39
539.239	4.51
539.585	4.4
539.93	4.47
540.276	4.36
540.621	4.38
540.966	4.49
541.311	4.47
541.656	4.3
542.001	4.32
542.346	4.22
542.691	4.1
543.036	4.16
543.381	4.23
543.726	4.41
544.071	4.38
544.415	4.27
544.76	4.29
545.105	4.39
545.449	4.29
545.794	4.32
546.138	4.48
546.483	4.37
546.827	4.44
547.171	4.36
547.516	4.53
547.86	4.4
548.204	4.32
548.548	4.49
548.892	4.46
549.236	4.45
549.58	4.53
549.924	4.44
550.268	4.51
550.612	4.63
550.956	4.51
551.3	4.47
551.643	4.51
551.987	4.41
552.33	4.5
552.674	4.59
553.017	4.57
553.361	4.41
553.704	4.56
554.048	4.56
554.391	4.52
554.734	4.51
555.077	4.6
555.42	4.48
555.764	4.56
556.107	4.5
556.45	4.5
556.793	4.76
557.135	4.83
557.478	4.68
557.821	4.53
558.164	4.58
558.507	4.64
558.849	4.41
559.192	4.7
559.534	4.46
559.877	4.81
560.219	4.7
560.562	4.8
560.904	4.66
561.246	4.54
561.589	4.72
561.931	4.71
562.273	4.59
562.615	4.61
562.957	4.68
563.299	4.64
563.641	4.65
563.983	4.64
564.325	4.55
564.667	4.51
565.008	4.63
565.35	4.85
565.692	4.83
566.033	4.76
566.375	4.39
566.716	4.56
567.058	4.62
567.399	4.62
567.741	4.75
568.082	4.58
568.423	4.5
568.764	4.65
569.105	4.78
569.447	4.63
569.788	4.65
570.129	4.81
570.47	4.77
570.811	4.63
571.151	4.68
571.492	4.81
571.833	4.64
572.174	4.7
572.514	4.62
572.855	4.77
573.195	4.46
573.536	4.55
573.876	4.67
574.217	4.76
574.557	4.8
574.898	4.61
575.238	4.63
575.578	4.88
575.918	4.66
576.258	4.76
576.598	4.63
576.938	4.72
577.278	4.77
577.618	4.68
577.958	4.88
578.298	4.9
578.638	4.79
578.977	4.91
579.317	5.06
579.657	4.89
579.996	4.75
580.336	4.71
580.675	4.91
581.014	4.81
581.354	4.92
581.693	4.77
582.032	4.79
582.372	4.73
582.711	4.82
583.05	4.84
583.389	5.07
583.728	4.99
584.067	4.73
584.406	5.02
584.745	4.71
585.083	5.12
585.422	4.87
585.761	5.06
586.1	5.02
586.438	4.99
586.777	4.9
587.115	5.14
587.454	4.86
587.792	5.01
588.13	5.39
588.469	4.99
588.807	5.01
589.145	4.94
589.483	4.77
589.821	4.88
590.159	5.05
590.497	4.66
590.835	4.97
591.173	4.91
591.511	4.81
591.849	5.04
592.187	5.1
592.524	4.91
592.862	5.01
593.2	4.96
593.537	4.52
593.875	4.91
594.212	4.81
594.55	4.97
594.887	5.14
595.224	5.04
595.561	4.81
595.899	5.15
596.236	4.96
596.573	5.02
596.91	5.06
597.247	4.89
597.584	5.07
597.921	4.82
598.258	4.86
598.594	4.75
598.931	4.88
599.268	5.05
599.604	5.13
599.941	4.91
600.277	5.27
600.614	5.1
600.95	5.08
601.287	5.23
601.623	5.29
601.959	4.66
602.296	5
602.632	5.21
602.968	5
603.304	4.77
603.64	4.83
603.976	5.04
604.312	5.21
604.648	5.21
604.984	4.91
605.319	5.14
605.655	5.19
605.991	5.03
606.326	4.79
606.662	4.82
606.998	5
607.333	4.96
607.668	5.12
608.004	5
608.339	4.98
608.674	5.09
609.01	4.89
609.345	5.31
609.68	4.8
610.015	5.22
610.35	5.06
610.685	5.07
611.02	5.29
611.355	5.14
611.689	5.14
612.024	5.29
612.359	5.2
612.694	5.21
613.028	5.33
613.363	4.92
613.697	5.21
614.032	5.13
614.366	4.96
614.7	5.58
615.035	5.05
615.369	5.2
615.703	5.69
616.037	5.14
616.371	5.34
616.705	4.94
617.039	5.51
617.373	5.3
617.707	5.26
618.041	5.4
618.375	4.91
618.709	5.09
619.042	5.49
619.376	4.99
619.71	5.06
620.043	5.51
620.377	5.06
620.71	5.09
621.043	5.14
621.377	5.42
621.71	5.35
622.043	5.35
622.376	5.33
622.709	5.57
623.043	5.21
623.376	5.5
623.709	5.2
624.041	5.3
624.374	5.24
624.707	5.34
625.04	5.48
625.373	5.46
625.705	5.46
626.038	5.3
626.37	5.71
626.703	5.35
627.035	5.29
627.368	5.59
627.7	5.46
628.032	5.16
628.365	4.96
628.697	5.31
629.029	5.53
629.361	5.39
629.693	5.81
630.025	5.31
630.357	5.42
630.689	5.83
631.021	5.67
631.353	5.64
631.684	5.6
632.016	5.1
632.348	5.43
632.679	5.53
633.011	5.4
633.342	5.69
633.674	5.44
634.005	5.75
634.336	5.51
634.668	5.72
634.999	5.4
635.33	5.34
635.661	5.76
635.992	5.81
636.323	5.63
636.654	5.66
636.985	5.63
637.316	5.62
637.647	5.85
637.977	5.37
638.308	5.53
638.639	5.29
638.969	5.17
639.3	5.54
639.63	5.65
639.961	5.24
640.291	6.2
640.622	5.59
640.952	5.89
641.282	5.08
641.612	5.4
641.943	5.65
642.273	5.88
642.603	5.68
642.933	5.88
643.263	5.81
643.592	5.9
643.922	6.38
644.252	6.12
644.582	5.68
644.911	5.63
645.241	5.41
645.571	5.59
645.9	6.23
646.23	5.38
646.559	5.31
646.888	5.59
647.218	5.74
647.547	6.13
647.876	5.72
648.205	5.49
648.534	5.51
648.863	6.13
649.192	5.64
649.521	5.32
649.85	5.9
650.179	5.64
650.508	5.87
650.837	6.18
651.165	5.92
651.494	6.09
651.822	5.71
652.151	6.68
652.479	6.29
652.808	5.64
653.136	5.62
653.465	5.8
653.793	6.03
654.121	5.85
654.449	5.44
654.777	5.77
655.105	6.33
655.433	6.09
655.761	5.02
656.089	6.05
656.417	5.49
656.745	6.35
657.073	6.31
657.4	6.13
657.728	6.3
658.056	5.8
658.383	6.53
658.711	5.83
659.038	6.27
659.365	5.94
659.693	5.41
660.02	5.82
660.347	6.09
660.674	5.51
661.001	5.8
661.329	5.93
661.656	5.89
661.982	5.88
662.309	6
662.636	6.01
662.963	5.95
663.29	6.04
663.616	5.82
663.943	6.25
664.27	5.76
664.596	5.99
664.923	6.19
665.249	5.78
665.576	6.09
665.902	6.37
666.228	5.61
666.554	5.78
666.881	6.09
667.207	5.93
667.533	6.41
667.859	5.84
668.185	6.09
668.511	5.85
668.837	5.19
669.162	6.23
669.488	5.81
669.814	6.87
670.139	6.58
670.465	6.34
670.791	5.71
671.116	5.93
671.442	5.61
671.767	5.93
672.092	6.22
672.418	6.19
672.743	6.39
673.068	5.56
673.393	5.94
673.718	5.87
674.043	6.02
674.368	6.36
674.693	6.56
675.018	5.84
675.343	6.39
675.667	6.06
675.992	5.59
676.317	6.53
676.641	6.54
676.966	6.31
677.29	6.01
677.615	6.4
677.939	5.56
678.264	6.75
678.588	6.58
678.912	6.42
679.236	6.83
679.56	5.85
679.885	6.83
680.209	6.26
680.532	5.7
680.856	6.98
681.18	6.65
681.504	6.16
681.828	6.02
682.152	6.25
682.475	6.39
682.799	6.78
683.122	5.96
683.446	6.34
683.769	6.56
684.093	6.45
684.416	6.44
684.739	6.42
685.062	6.85
685.386	6.27
685.709	6.48
686.032	6.25
686.355	6.48
686.678	6.27
687.001	6.18
687.324	5.82
687.646	6.09
687.969	5.95
688.292	6.54
688.614	7.08
688.937	6.52
689.26	6.06
689.582	6.5
689.904	6.34
690.227	6.54
690.549	6.68
690.871	6.19
691.194	6.4
691.516	6.05
691.838	5.91
692.16	6.37
692.482	6.59
