Data from 0071_chest_Reflection__2__316.txt Node

Date: Fri Dec 16 16:37:49 CST 2022
User: ToomeyLab
Spectrometer: FLMS14357
Trigger mode: 0
Integration Time (sec): 1.000000E-2
Scans to average: 100
Electric dark correction enabled: true
Nonlinearity correction enabled: false
Boxcar width: 0
XAxis mode: Wavelengths
Number of Pixels in Spectrum: 2048
>>>>>Begin Spectral Data<<<<<
189.047	11.43
189.435	11.43
189.823	11.43
190.211	-33.92
190.599	180.25
190.987	-0.71
191.375	-67.22
191.763	5306.02
192.151	-59.93
192.538	131.55
192.926	-73.83
193.314	173.8
193.702	-365.59
194.089	-310.11
194.477	-1704.96
194.864	40.03
195.252	-139.36
195.639	257.82
196.027	-312.66
196.414	537.84
196.801	29.42
197.189	106.48
197.576	155.2
197.963	85.22
198.351	21.85
198.738	-103.2
199.125	-0.09
199.512	15.23
199.899	-44.16
200.286	-56.01
200.673	9.6
201.06	50.94
201.447	41.58
201.833	6.2
202.22	-16.78
202.607	29.03
202.994	-18.53
203.38	-61.28
203.767	-20.15
204.154	-111.47
204.54	-36
204.927	-6.82
205.313	28.62
205.699	25.27
206.086	-12.7
206.472	-33.89
206.858	8.76
207.245	0.19
207.631	-25.2
208.017	-2.91
208.403	5.91
208.789	18.07
209.175	40.92
209.561	-17.04
209.947	-31.42
210.333	-34.17
210.719	3.54
211.105	21.85
211.491	15.11
211.876	-53.9
212.262	-121.78
212.648	-89.72
213.034	-25.41
213.419	8.61
213.805	-9.71
214.19	-3.15
214.576	-31.38
214.961	-10.93
215.346	-24.36
215.732	-33.94
216.117	-30.23
216.502	14.23
216.888	-27.63
217.273	22.06
217.658	-39.45
218.043	-44.27
218.428	-21.56
218.813	-39.6
219.198	-32.1
219.583	-25.88
219.968	-1.4
220.353	13.6
220.738	-8.65
221.122	-19.74
221.507	-3.88
221.892	-3.43
222.276	1.49
222.661	-4.01
223.046	-7.93
223.43	-5.65
223.815	5.99
224.199	-5.23
224.583	-0.07
224.968	-4.62
225.352	-15.61
225.736	-3.67
226.121	-3.05
226.505	-0.94
226.889	14.9
227.273	3.59
227.657	-0.14
228.041	-1.9
228.425	0.1
228.809	1.14
229.193	1.86
229.577	0.57
229.961	3.29
230.344	4.01
230.728	2.77
231.112	2.68
231.495	2.14
231.879	2.07
232.263	2.24
232.646	2.01
233.03	0.3
233.413	0.96
233.797	4.12
234.18	1.66
234.563	0.73
234.946	3.11
235.33	2.73
235.713	3.31
236.096	1.38
236.479	3.13
236.862	3.72
237.245	1.61
237.628	3.26
238.011	3.51
238.394	3.82
238.777	2.54
239.16	0.7
239.543	1.48
239.925	3.92
240.308	2.55
240.691	2.33
241.073	4.78
241.456	2.7
241.838	3.45
242.221	3.93
242.603	3.63
242.986	4.12
243.368	3.48
243.75	3.65
244.133	3.23
244.515	4.24
244.897	3.76
245.279	2.28
245.661	3.1
246.043	3.25
246.425	3.01
246.807	2.83
247.189	3.33
247.571	3.61
247.953	3.91
248.335	3.9
248.717	3.96
249.098	3.97
249.48	3.82
249.862	4.04
250.243	4.08
250.625	4.16
251.006	4.14
251.388	4.57
251.769	3.29
252.151	3.52
252.532	4.27
252.913	4.33
253.295	4.33
253.676	4.42
254.057	3.55
254.438	4.07
254.819	3.18
255.2	3.62
255.581	4.06
255.962	3.33
256.343	3.82
256.724	3.13
257.105	3.5
257.486	4.2
257.867	2.85
258.247	3.88
258.628	4.46
259.009	4.08
259.389	3.63
259.77	3.76
260.15	4.74
260.531	3.63
260.911	3.79
261.292	3.82
261.672	3.84
262.052	3.87
262.432	3.96
262.813	3.72
263.193	3.27
263.573	3.83
263.953	3.48
264.333	3.68
264.713	2.97
265.093	4.01
265.473	4.04
265.853	3.89
266.233	3.56
266.612	3.68
266.992	3.34
267.372	4.26
267.752	3.67
268.131	3.51
268.511	3.52
268.89	3.95
269.27	4.04
269.649	3.62
270.029	3.51
270.408	3.43
270.787	3.45
271.167	3.95
271.546	3.55
271.925	3.54
272.304	3.74
272.683	3.05
273.062	3.66
273.441	3.66
273.82	3.81
274.199	3.55
274.578	3.52
274.957	3.77
275.336	3.39
275.715	4.27
276.093	4.41
276.472	4.09
276.851	3.83
277.229	3.96
277.608	3.32
277.986	3.63
278.365	3.17
278.743	4.07
279.122	3.46
279.5	3.42
279.878	3.02
280.257	3.72
280.635	2.76
281.013	3.82
281.391	3.6
281.769	3.28
282.147	3.88
282.525	3.25
282.903	3.36
283.281	3.66
283.659	3.71
284.037	3.44
284.415	3.54
284.792	3.94
285.17	3.09
285.548	3.62
285.925	3.35
286.303	3.38
286.68	4.07
287.058	3.86
287.435	3.2
287.813	3.58
288.19	4.17
288.567	3.28
288.945	3.65
289.322	3.12
289.699	3.41
290.076	4.22
290.453	3.9
290.83	3.63
291.207	3.57
291.584	3.88
291.961	4.37
292.338	4.02
292.715	4.29
293.092	4.1
293.469	4.57
293.845	4.88
294.222	4.07
294.599	4.73
294.975	4.36
295.352	3.86
295.728	4.65
296.105	4.64
296.481	4.98
296.858	4.38
297.234	4.5
297.61	4.45
297.986	4.59
298.363	4.13
298.739	4.88
299.115	4.41
299.491	4.5
299.867	4.73
300.243	4.33
300.619	4.74
300.995	4.59
301.371	4.57
301.746	4.25
302.122	4.44
302.498	4.76
302.874	5.21
303.249	5.09
303.625	5.09
304	4.82
304.376	4.85
304.751	5.02
305.127	4.7
305.502	5.3
305.878	4.72
306.253	4.46
306.628	4.93
307.003	4.92
307.378	4.77
307.754	5.13
308.129	4.67
308.504	4.77
308.879	4.93
309.254	5.59
309.629	5.22
310.003	5.75
310.378	5.55
310.753	5.22
311.128	4.88
311.502	4.9
311.877	5.22
312.252	5.11
312.626	4.89
313.001	4.96
313.375	5.52
313.75	5.07
314.124	5.41
314.498	4.85
314.873	5.33
315.247	5.27
315.621	5.55
315.995	5.53
316.369	5.27
316.743	5.51
317.117	5.74
317.491	5.58
317.865	5.1
318.239	5.71
318.613	5.74
318.987	5.02
319.361	5.44
319.734	5.34
320.108	5.28
320.482	5.52
320.855	5.62
321.229	6.62
321.602	5.36
321.976	4.89
322.349	4.77
322.723	5.03
323.096	5.3
323.469	4.95
323.843	5.69
324.216	5.29
324.589	5.66
324.962	5.74
325.335	5.54
325.708	5.79
326.081	6.02
326.454	5.42
326.827	5.69
327.2	6.17
327.573	5.98
327.945	5.87
328.318	6.05
328.691	5.74
329.063	5.61
329.436	6.18
329.809	5.7
330.181	5.69
330.553	5.78
330.926	6.22
331.298	5.64
331.671	5.76
332.043	5.51
332.415	6.15
332.787	6.18
333.159	5.59
333.532	5.67
333.904	6.11
334.276	5.7
334.648	5.87
335.02	5.31
335.391	6.05
335.763	5.66
336.135	5.84
336.507	6.11
336.879	6.31
337.25	5.99
337.622	6.3
337.993	5.8
338.365	6.16
338.736	5.65
339.108	6.01
339.479	5.87
339.851	5.99
340.222	6.06
340.593	6.24
340.964	5.64
341.336	5.51
341.707	5.73
342.078	5.52
342.449	5.93
342.82	6.25
343.191	5.79
343.562	6.48
343.933	6.2
344.303	5.97
344.674	6.15
345.045	6.59
345.416	6.08
345.786	5.94
346.157	5.95
346.527	5.65
346.898	5.76
347.268	5.91
347.639	5.72
348.009	6.42
348.38	5.91
348.75	5.94
349.12	5.98
349.49	5.65
349.861	6.56
350.231	6.3
350.601	6.06
350.971	6.16
351.341	5.92
351.711	6.04
352.081	6.1
352.45	6.29
352.82	6.51
353.19	5.81
353.56	6.22
353.929	6.44
354.299	6.28
354.669	6.17
355.038	6.41
355.408	6.36
355.777	6.25
356.147	6.37
356.516	6.87
356.885	6.12
357.254	6.45
357.624	6.39
357.993	6.24
358.362	6.37
358.731	6.22
359.1	6.49
359.469	6.48
359.838	6.15
360.207	6.16
360.576	6.26
360.945	6.17
361.314	6.34
361.682	6.03
362.051	5.94
362.42	6.38
362.788	6.47
363.157	6.16
363.525	6.14
363.894	6.27
364.262	6.27
364.631	7.08
364.999	6
365.367	6.63
365.735	6.14
366.104	6.14
366.472	6.61
366.84	6.18
367.208	5.77
367.576	6.41
367.944	6.71
368.312	6.04
368.68	6.51
369.048	6.5
369.416	6.58
369.783	6.51
370.151	6.38
370.519	6.47
370.886	6.33
371.254	6.71
371.621	6.16
371.989	6.7
372.356	6.42
372.724	6.51
373.091	6.46
373.458	6.32
373.826	6.38
374.193	6.74
374.56	6.31
374.927	6.36
375.294	6.65
375.661	6.47
376.028	6.35
376.395	6.39
376.762	6.69
377.129	6.67
377.496	6.51
377.863	6.5
378.229	6.56
378.596	6.39
378.963	6.56
379.329	6.42
379.696	6.42
380.062	6.81
380.429	6.43
380.795	6.31
381.161	6.64
381.528	6.17
381.894	6.55
382.26	6.5
382.626	6.11
382.993	6.39
383.359	6.42
383.725	6.85
384.091	6.75
384.457	6.82
384.823	6.56
385.188	6.91
385.554	6.67
385.92	6.75
386.286	6.9
386.651	6.58
387.017	7.15
387.383	6.72
387.748	6.6
388.114	6.63
388.479	6.82
388.845	6.76
389.21	6.75
389.575	6.81
389.94	6.65
390.306	6.82
390.671	6.67
391.036	7.32
391.401	7.28
391.766	6.82
392.131	6.75
392.496	6.76
392.861	6.67
393.226	6.9
393.591	6.71
393.956	6.9
394.32	6.31
394.685	6.9
395.05	6.54
395.414	6.65
395.779	6.81
396.143	6.98
396.508	6.88
396.872	6.94
397.236	6.36
397.601	6.97
397.965	6.73
398.329	6.86
398.694	6.86
399.058	6.77
399.422	7.06
399.786	6.77
400.15	6.9
400.514	6.86
400.878	6.68
401.242	6.91
401.605	6.84
401.969	6.93
402.333	6.78
402.697	7.22
403.06	7.23
403.424	7
403.787	7.18
404.151	6.85
404.514	6.99
404.878	6.92
405.241	7.16
405.604	7.01
405.968	6.76
406.331	6.99
406.694	7.04
407.057	7.25
407.42	7.1
407.783	7.16
408.146	7
408.509	6.92
408.872	6.84
409.235	6.88
409.598	7.22
409.961	7.09
410.323	6.95
410.686	7.09
411.049	6.88
411.411	7.12
411.774	7.25
412.136	7.02
412.499	6.96
412.861	6.96
413.223	7.21
413.586	6.94
413.948	7.12
414.31	7.19
414.672	7.18
415.035	7.2
415.397	7.3
415.759	7
416.121	7.28
416.483	7.23
416.845	7.14
417.206	7.1
417.568	7.31
417.93	7.13
418.292	6.96
418.653	7.11
419.015	7.01
419.377	7.13
419.738	7.05
420.1	7.07
420.461	7.14
420.822	7.13
421.184	7.23
421.545	7.18
421.906	7.04
422.267	6.91
422.629	7.03
422.99	7.18
423.351	7.19
423.712	7.23
424.073	7.28
424.434	7.1
424.795	7.09
425.155	7.08
425.516	7.05
425.877	7.16
426.238	7
426.598	7.28
426.959	7.21
427.32	7.32
427.68	7.39
428.041	7.36
428.401	7.18
428.761	7.3
429.122	7.2
429.482	7.19
429.842	7.36
430.202	7.17
430.563	7.21
430.923	7.47
431.283	7.24
431.643	7.36
432.003	7.46
432.363	7.47
432.722	7.43
433.082	7.44
433.442	7.27
433.802	7.21
434.161	7.2
434.521	7.46
434.881	7.42
435.24	7.35
435.6	7.31
435.959	7.42
436.319	7.51
436.678	7.51
437.037	7.48
437.396	7.69
437.756	7.49
438.115	7.45
438.474	7.55
438.833	7.52
439.192	7.6
439.551	7.57
439.91	7.54
440.269	7.45
440.628	7.48
440.987	7.41
441.345	7.35
441.704	7.48
442.063	7.46
442.421	7.49
442.78	7.52
443.138	7.64
443.497	7.48
443.855	7.55
444.214	7.65
444.572	7.55
444.93	7.61
445.288	7.54
445.647	7.56
446.005	7.38
446.363	7.44
446.721	7.46
447.079	7.56
447.437	7.49
447.795	7.46
448.153	7.47
448.51	7.54
448.868	7.68
449.226	7.68
449.584	7.67
449.941	7.73
450.299	7.57
450.656	7.7
451.014	7.74
451.371	7.87
451.729	7.76
452.086	7.8
452.443	7.66
452.801	7.71
453.158	7.66
453.515	7.66
453.872	7.76
454.229	7.76
454.586	7.68
454.943	7.77
455.3	7.92
455.657	7.85
456.014	8.07
456.371	7.88
456.727	7.84
457.084	7.78
457.441	7.69
457.797	7.8
458.154	8
458.51	7.85
458.867	7.8
459.223	7.95
459.58	7.83
459.936	7.77
460.292	7.82
460.648	7.69
461.005	7.59
461.361	7.6
461.717	7.77
462.073	7.91
462.429	7.94
462.785	8
463.141	8
463.496	8.17
463.852	8.1
464.208	7.98
464.564	8.02
464.919	7.96
465.275	8.02
465.631	8.1
465.986	7.8
466.342	7.96
466.697	7.99
467.052	8.09
467.408	7.96
467.763	7.89
468.118	8.03
468.473	8.16
468.829	8.01
469.184	8.21
469.539	8.08
469.894	8.09
470.249	8.18
470.603	7.99
470.958	8.38
471.313	7.94
471.668	8.23
472.023	8.34
472.377	8.06
472.732	8.03
473.086	8.05
473.441	8.34
473.795	8.33
474.15	8.03
474.504	8.01
474.859	8.2
475.213	8.24
475.567	8.19
475.921	8.31
476.275	8.32
476.63	8.32
476.984	8.21
477.338	8.43
477.692	8.13
478.045	8.18
478.399	8.34
478.753	8.1
479.107	8.22
479.461	8.3
479.814	8.22
480.168	8.32
480.521	8.26
480.875	8.45
481.228	8.51
481.582	8.16
481.935	8.37
482.289	8.2
482.642	8.21
482.995	8.24
483.348	8.12
483.701	8.17
484.055	8.16
484.408	8.04
484.761	7.73
485.114	7.63
485.466	7.7
485.819	7.97
486.172	8.18
486.525	8.3
486.878	8.34
487.23	8.3
487.583	8.27
487.936	8.19
488.288	8.07
488.641	8.04
488.993	7.99
489.345	8.05
489.698	8.13
490.05	8.27
490.402	8.47
490.754	8.5
491.107	8.51
491.459	8.63
491.811	8.54
492.163	8.45
492.515	8.28
492.866	7.97
493.218	8.09
493.57	8.3
493.922	8.48
494.274	8.57
494.625	8.72
494.977	8.67
495.328	8.74
495.68	8.85
496.031	8.79
496.383	8.67
496.734	8.8
497.086	8.55
497.437	8.69
497.788	8.67
498.139	8.63
498.49	8.69
498.842	8.66
499.193	8.77
499.544	8.81
499.894	8.81
500.245	8.72
500.596	8.78
500.947	8.79
501.298	8.76
501.648	8.93
501.999	8.93
502.35	8.96
502.7	9.03
503.051	8.9
503.401	8.87
503.752	8.86
504.102	8.8
504.452	8.93
504.803	8.83
505.153	8.87
505.503	8.82
505.853	9
506.203	9
506.553	9.06
506.903	9.04
507.253	9.13
507.603	8.93
507.953	9.06
508.303	9.05
508.652	9.01
509.002	9.07
509.352	9.05
509.701	8.96
510.051	9.1
510.4	9.01
510.75	8.99
511.099	9.09
511.449	9.06
511.798	9.2
512.147	9.09
512.496	9.11
512.846	9.16
513.195	9.2
513.544	9.03
513.893	9.06
514.242	9.13
514.591	9.27
514.939	9.36
515.288	9.27
515.637	9.32
515.986	9.06
516.334	9.53
516.683	9.39
517.032	9.33
517.38	9.27
517.729	9.2
518.077	9.27
518.426	9.16
518.774	9.33
519.122	9.25
519.47	9.25
519.819	9.19
520.167	9.25
520.515	9.21
520.863	9.43
521.211	9.3
521.559	9.54
521.907	9.59
522.255	9.63
522.602	9.6
522.95	9.48
523.298	9.48
523.645	9.49
523.993	9.68
524.341	9.59
524.688	9.53
525.036	9.68
525.383	9.62
525.73	9.53
526.078	9.48
526.425	9.5
526.772	9.26
527.119	9.44
527.466	9.37
527.814	9.53
528.161	9.57
528.508	9.62
528.854	9.48
529.201	9.31
529.548	9.15
529.895	8.96
530.242	9.11
530.588	9.32
530.935	9.52
531.282	9.68
531.628	9.69
531.975	9.86
532.321	9.78
532.667	9.75
533.014	9.69
533.36	9.77
533.706	9.75
534.052	9.59
534.399	9.44
534.745	9.38
535.091	9.66
535.437	9.86
535.783	9.98
536.129	10
536.474	10
536.82	9.97
537.166	9.98
537.512	9.87
537.857	9.81
538.203	9.77
538.549	10.03
538.894	10.11
539.239	10.25
539.585	10.2
539.93	10.19
540.276	10.22
540.621	10.19
540.966	10.23
541.311	10.3
541.656	9.99
542.001	10.01
542.346	9.78
542.691	9.68
543.036	9.81
543.381	9.9
543.726	10.2
544.071	10.22
544.415	10.27
544.76	10.12
545.105	10.25
545.449	10.33
545.794	10.46
546.138	10.49
546.483	10.37
546.827	10.35
547.171	10.41
547.516	10.51
547.86	10.35
548.204	10.34
548.548	10.65
548.892	10.56
549.236	10.68
549.58	10.57
549.924	10.74
550.268	10.66
550.612	10.89
550.956	10.74
551.3	10.93
551.643	10.88
551.987	10.76
552.33	10.69
552.674	10.92
553.017	10.93
553.361	10.96
553.704	10.82
554.048	10.87
554.391	10.9
554.734	10.9
555.077	10.94
555.42	11.05
555.764	11.08
556.107	11.11
556.45	11.12
556.793	11.28
557.135	11.05
557.478	11.26
557.821	11.21
558.164	11.36
558.507	11.24
558.849	11.32
559.192	11.45
559.534	11.26
559.877	11.47
560.219	11.43
560.562	11.23
560.904	11.34
561.246	11.59
561.589	11.42
561.931	11.64
562.273	11.38
562.615	11.47
562.957	11.62
563.299	11.45
563.641	11.62
563.983	11.29
564.325	11.37
564.667	11.6
565.008	11.77
565.35	11.7
565.692	11.8
566.033	11.77
566.375	11.62
566.716	11.77
567.058	11.62
567.399	11.73
567.741	11.77
568.082	11.65
568.423	11.75
568.764	11.92
569.105	12
569.447	11.74
569.788	11.86
570.129	12.02
570.47	12.06
570.811	12.03
571.151	11.92
571.492	12.21
571.833	12.12
572.174	12.13
572.514	11.92
572.855	11.98
573.195	11.94
573.536	11.94
573.876	12.21
574.217	12.13
574.557	12.36
574.898	12.1
575.238	12.19
575.578	12.34
575.918	12.37
576.258	12.26
576.598	12.39
576.938	12.46
577.278	12.22
577.618	12.43
577.958	12.53
578.298	12.6
578.638	12.61
578.977	12.6
579.317	12.49
579.657	12.76
579.996	12.53
580.336	12.57
580.675	12.56
581.014	12.74
581.354	12.64
581.693	12.83
582.032	12.67
582.372	13.1
582.711	12.88
583.05	13.05
583.389	13.05
583.728	12.84
584.067	12.83
584.406	13.26
584.745	13.07
585.083	13.05
585.422	13.2
585.761	13.16
586.1	13.37
586.438	13.14
586.777	13.23
587.115	13.46
587.454	13.24
587.792	13.24
588.13	13.4
588.469	13.17
588.807	13.59
589.145	13.32
589.483	13.13
589.821	13.6
590.159	13.37
590.497	13.11
590.835	13.33
591.173	13.64
591.511	13.45
591.849	13.39
592.187	13.7
592.524	13.45
592.862	13.35
593.2	13.42
593.537	13.64
593.875	13.66
594.212	13.7
594.55	13.53
594.887	13.76
595.224	13.63
595.561	13.99
595.899	13.9
596.236	13.97
596.573	13.76
596.91	13.8
597.247	13.72
597.584	13.9
597.921	13.86
598.258	13.88
598.594	13.43
598.931	13.56
599.268	13.87
599.604	14.19
599.941	14.14
600.277	14.14
600.614	14.25
600.95	14.41
601.287	14.24
601.623	14.35
601.959	14.1
602.296	14.34
602.632	14.26
602.968	14.27
603.304	14.4
603.64	14.25
603.976	14.23
604.312	14.39
604.648	14.65
604.984	14.26
605.319	14.15
605.655	14.26
605.991	14.43
606.326	14.38
606.662	14.34
606.998	14.39
607.333	14.47
607.668	14.68
608.004	14.64
608.339	14.61
608.674	14.61
609.01	14.72
609.345	14.8
609.68	14.78
610.015	14.82
610.35	14.63
610.685	14.75
611.02	14.76
611.355	15.03
611.689	14.73
612.024	15.07
612.359	15.13
612.694	15.33
613.028	15.14
613.363	14.99
613.697	15.24
614.032	14.89
614.366	15.09
614.7	15.38
615.035	15.09
615.369	14.94
615.703	15.63
616.037	15.02
616.371	15.64
616.705	15.34
617.039	15.3
617.373	15.31
617.707	15.11
618.041	15.3
618.375	15.03
618.709	15.29
619.042	15.27
619.376	15.47
619.71	15.42
620.043	15.35
620.377	15.95
620.71	15.8
621.043	15.25
621.377	15.92
621.71	15.51
622.043	16.02
622.376	15.71
622.709	15.81
623.043	15.79
623.376	15.74
623.709	16.11
624.041	16.46
624.374	15.64
624.707	15.86
625.04	15.86
625.373	15.82
625.705	16.17
626.038	16.13
626.37	15.81
626.703	16.06
627.035	15.49
627.368	16.57
627.7	16.17
628.032	16.2
628.365	15.82
628.697	16.2
629.029	16.35
629.361	15.97
629.693	16.41
630.025	16
630.357	16.35
630.689	16.38
631.021	16.68
631.353	16.5
631.684	16.8
632.016	16.34
632.348	16.59
632.679	16.41
633.011	16.68
633.342	16.53
633.674	16.69
634.005	16.45
634.336	16.53
634.668	16.85
634.999	16.64
635.33	16.65
635.661	16.89
635.992	16.53
636.323	16.77
636.654	16.92
636.985	16.91
637.316	16.82
637.647	16.67
637.977	16.75
638.308	16.98
638.639	17.01
638.969	16.98
639.3	17.01
639.63	16.93
639.961	16.85
640.291	17.4
640.622	16.99
640.952	17.21
641.282	16.31
641.612	16.57
641.943	17.2
642.273	16.83
642.603	17.14
642.933	17.14
643.263	17.35
643.592	17.73
643.922	17.63
644.252	17.76
644.582	17.38
644.911	17.66
645.241	17.21
645.571	17.25
645.9	17.79
646.23	17.07
646.559	17.76
646.888	17.26
647.218	17.39
647.547	17.98
647.876	17.51
648.205	17.61
648.534	17.57
648.863	18.22
649.192	17.63
649.521	18.04
649.85	18.32
650.179	17.98
650.508	17.82
650.837	18.15
651.165	18.15
651.494	17.88
651.822	18.4
652.151	18.09
652.479	18.45
652.808	17.91
653.136	17.68
653.465	18.06
653.793	18.4
654.121	18.08
654.449	18.31
654.777	18.34
655.105	18.02
655.433	18.73
655.761	17.9
656.089	18.25
656.417	17.79
656.745	18.19
657.073	18.77
657.4	18.45
657.728	18.61
658.056	18.45
658.383	19.06
658.711	17.47
659.038	18.35
659.365	18.38
659.693	18.45
660.02	18.26
660.347	18.64
660.674	18.61
661.001	18.2
661.329	18.28
661.656	18.31
661.982	18.74
662.309	18.79
662.636	18.85
662.963	18.97
663.29	18.83
663.616	18.9
663.943	19.3
664.27	19.11
664.596	18.83
664.923	19.48
665.249	18.55
665.576	18.68
665.902	18.48
666.228	19.27
666.554	18.83
666.881	19.02
667.207	18.93
667.533	19.23
667.859	19.03
668.185	19.25
668.511	18.74
668.837	18.85
669.162	19.4
669.488	19.61
669.814	19.62
670.139	19.45
670.465	18.96
670.791	19.6
671.116	19.37
671.442	19.43
671.767	19.49
672.092	19.88
672.418	19.16
672.743	19.48
673.068	19.24
673.393	19.71
673.718	19.49
674.043	19.42
674.368	19.83
674.693	18.96
675.018	19.38
675.343	19.94
675.667	19.67
675.992	19.21
676.317	19.99
676.641	19.14
676.966	19.99
677.29	19.72
677.615	19.73
677.939	19.45
678.264	20.21
678.588	19.51
678.912	20.14
679.236	19.76
679.56	19.48
679.885	20.27
680.209	19.92
680.532	19.92
680.856	20.31
681.18	20.04
681.504	19.56
681.828	20.05
682.152	19.55
