Data from 0071_forehead_Reflection__2__326.txt Node

Date: Fri Dec 16 16:40:47 CST 2022
User: ToomeyLab
Spectrometer: FLMS14357
Trigger mode: 0
Integration Time (sec): 1.000000E-2
Scans to average: 100
Electric dark correction enabled: true
Nonlinearity correction enabled: false
Boxcar width: 0
XAxis mode: Wavelengths
Number of Pixels in Spectrum: 2048
>>>>>Begin Spectral Data<<<<<
189.047	3248.57
189.435	3248.57
189.823	3248.57
190.211	22.23
190.599	-11.28
190.987	91.79
191.375	51.72
191.763	6092.77
192.151	25.9
192.538	92.05
192.926	-41.41
193.314	211.3
193.702	-1102.15
194.089	-135.55
194.477	1678.72
194.864	173.07
195.252	190.09
195.639	98.42
196.027	-460.3
196.414	649.11
196.801	-62.31
197.189	138.47
197.576	53.3
197.963	23.9
198.351	39.18
198.738	-8.99
199.125	33.57
199.512	-18.35
199.899	-96.22
200.286	-23.51
200.673	8.5
201.06	49.08
201.447	11.31
201.833	22.72
202.22	17.04
202.607	-19.54
202.994	40.57
203.38	-48.38
203.767	-21.87
204.154	-45.16
204.54	18.92
204.927	7.4
205.313	56.77
205.699	-27.96
206.086	34.97
206.472	-6.44
206.858	-4.3
207.245	-10.28
207.631	-32.24
208.017	2.63
208.403	4.95
208.789	6.46
209.175	41.23
209.561	-89.2
209.947	-27.73
210.333	-19.38
210.719	-32.62
211.105	-40.83
211.491	16.41
211.876	19.42
212.262	-80.89
212.648	-49.76
213.034	-6.12
213.419	39.19
213.805	-11.77
214.19	-8.18
214.576	-18.36
214.961	-27.64
215.346	-8.72
215.732	-37.32
216.117	-5.54
216.502	15.39
216.888	-12.05
217.273	19.94
217.658	-27.1
218.043	-11.99
218.428	3.97
218.813	-39.72
219.198	-31.31
219.583	-1.69
219.968	-7.24
220.353	13.18
220.738	-4.99
221.122	23.92
221.507	5.16
221.892	16.12
222.276	15.49
222.661	-11.79
223.046	-12.94
223.43	-12.59
223.815	3.95
224.199	-2.83
224.583	-1.42
224.968	12.57
225.352	2.15
225.736	11.06
226.121	-0.26
226.505	-2.56
226.889	1.01
227.273	6.55
227.657	-2.78
228.041	1.69
228.425	4.53
228.809	6.13
229.193	0.13
229.577	2.04
229.961	2.89
230.344	2.8
230.728	2.84
231.112	2.3
231.495	1.75
231.879	2.61
232.263	1.72
232.646	1.09
233.03	-0.16
233.413	2.04
233.797	3.87
234.18	-0.98
234.563	1.6
234.946	-0.74
235.33	3.71
235.713	3.14
236.096	1.78
236.479	3.47
236.862	3.62
237.245	2.83
237.628	1.46
238.011	2.21
238.394	3.7
238.777	1.13
239.16	-0.29
239.543	0.66
239.925	3.27
240.308	3.18
240.691	1.32
241.073	3.18
241.456	1.66
241.838	1.11
242.221	2.33
242.603	3.22
242.986	3.38
243.368	2.9
243.75	2.27
244.133	2.52
244.515	2.44
244.897	2.76
245.279	1.92
245.661	2.71
246.043	2.96
246.425	1.4
246.807	3.08
247.189	3.18
247.571	2.88
247.953	2.88
248.335	3.03
248.717	2.65
249.098	2.62
249.48	2.62
249.862	2.93
250.243	2.82
250.625	3.14
251.006	3.23
251.388	3.12
251.769	1.84
252.151	2.14
252.532	3.18
252.913	2.82
253.295	2.92
253.676	3.08
254.057	2.43
254.438	2.48
254.819	3.38
255.2	3.1
255.581	1.16
255.962	2.62
256.343	3.35
256.724	1.75
257.105	2.48
257.486	2.43
257.867	1.09
258.247	2.35
258.628	2.66
259.009	2.31
259.389	2.67
259.77	2.28
260.15	3.27
260.531	3.12
260.911	2.77
261.292	2.73
261.672	2.59
262.052	2.52
262.432	2.41
262.813	2.31
263.193	2.57
263.573	2.93
263.953	2.72
264.333	2.95
264.713	2.16
265.093	2.65
265.473	3.58
265.853	2.52
266.233	2.15
266.612	2.27
266.992	2.6
267.372	3.28
267.752	2.09
268.131	2.59
268.511	2.85
268.89	3.1
269.27	3.03
269.649	2.79
270.029	2.35
270.408	2.69
270.787	2.17
271.167	3.15
271.546	1.98
271.925	2.91
272.304	2.62
272.683	2.19
273.062	3.07
273.441	3.21
273.82	2.97
274.199	2.88
274.578	2.74
274.957	2.57
275.336	2.33
275.715	2.78
276.093	2.64
276.472	2.76
276.851	2.84
277.229	3.18
277.608	2.58
277.986	2.42
278.365	2.71
278.743	3.06
279.122	1.94
279.5	2.66
279.878	1.81
280.257	2.56
280.635	2.42
281.013	3.01
281.391	2.21
281.769	2.36
282.147	2.42
282.525	2.64
282.903	3.14
283.281	2.34
283.659	2.53
284.037	2.74
284.415	3.14
284.792	2.55
285.17	2.35
285.548	2.58
285.925	2.94
286.303	2.48
286.68	2.94
287.058	2.97
287.435	2.63
287.813	2.57
288.19	3.01
288.567	2.36
288.945	2.92
289.322	2.56
289.699	2.56
290.076	3.17
290.453	2.86
290.83	2.96
291.207	2.96
291.584	2.81
291.961	2.99
292.338	3.04
292.715	2.69
293.092	2.96
293.469	2.89
293.845	3.59
294.222	2.88
294.599	3.22
294.975	3.15
295.352	2.44
295.728	3.29
296.105	3.01
296.481	3.73
296.858	3.14
297.234	3.17
297.61	3.02
297.986	3.11
298.363	2.95
298.739	3.09
299.115	2.95
299.491	3.09
299.867	3.09
300.243	3.06
300.619	3.45
300.995	3.51
301.371	3.39
301.746	3.4
302.122	3.55
302.498	3.17
302.874	3.71
303.249	3.47
303.625	3.49
304	2.99
304.376	3.71
304.751	3.87
305.127	3.73
305.502	3.94
305.878	3.34
306.253	3.89
306.628	4.28
307.003	3.59
307.378	3.49
307.754	3.75
308.129	3.62
308.504	3.32
308.879	3.78
309.254	4.43
309.629	3.75
310.003	4.56
310.378	3.98
310.753	3.78
311.128	3.6
311.502	3.9
311.877	4.14
312.252	3.98
312.626	4
313.001	3.96
313.375	4.23
313.75	3.85
314.124	4.72
314.498	4.5
314.873	4.53
315.247	4.67
315.621	4.66
315.995	4.04
316.369	4.51
316.743	4.46
317.117	4.69
317.491	4.5
317.865	4.11
318.239	5.03
318.613	4.89
318.987	5.11
319.361	4.42
319.734	5
320.108	5.35
320.482	5.22
320.855	5.29
321.229	5.6
321.602	5.38
321.976	4.85
322.349	4.29
322.723	5.08
323.096	5.19
323.469	5.13
323.843	5.05
324.216	4.63
324.589	5.75
324.962	5.51
325.335	5.3
325.708	5.21
326.081	6.09
326.454	5.16
326.827	5.62
327.2	6.33
327.573	5.89
327.945	5.47
328.318	5.54
328.691	5.76
329.063	5.76
329.436	5.39
329.809	4.76
330.181	5.45
330.553	5.71
330.926	5.39
331.298	5.36
331.671	5.82
332.043	5.61
332.415	6.29
332.787	6.38
333.159	5.83
333.532	5.68
333.904	6.34
334.276	5.91
334.648	6.02
335.02	5.89
335.391	6.01
335.763	6.04
336.135	6.28
336.507	5.98
336.879	5.72
337.25	6.42
337.622	6.91
337.993	6.34
338.365	6.63
338.736	6.53
339.108	6.03
339.479	6.17
339.851	6.7
340.222	6.15
340.593	6.17
340.964	6.23
341.336	6.21
341.707	6.24
342.078	6.43
342.449	6.91
342.82	6.41
343.191	6.37
343.562	6.48
343.933	6.65
344.303	7.11
344.674	6.89
345.045	7.47
345.416	6.64
345.786	6.42
346.157	6.93
346.527	6.68
346.898	6.74
347.268	6.94
347.639	6.96
348.009	6.9
348.38	7.07
348.75	7.65
349.12	7.48
349.49	7.02
349.861	7.5
350.231	7.37
350.601	7.27
350.971	7.27
351.341	7.56
351.711	7.58
352.081	7.72
352.45	7.67
352.82	7.77
353.19	7.3
353.56	7.37
353.929	7.65
354.299	7.5
354.669	7.8
355.038	7.89
355.408	7.82
355.777	7.71
356.147	8.22
356.516	8.28
356.885	7.65
357.254	7.77
357.624	7.92
357.993	7.57
358.362	8.05
358.731	7.91
359.1	8.1
359.469	8.1
359.838	8.04
360.207	8.09
360.576	8.43
360.945	8.12
361.314	8.34
361.682	8.06
362.051	7.9
362.42	8.42
362.788	8.35
363.157	8.19
363.525	8.38
363.894	8.23
364.262	8.55
364.631	9.03
364.999	8.43
365.367	8.78
365.735	8.43
366.104	8.56
366.472	8.98
366.84	8.99
367.208	8.55
367.576	8.59
367.944	8.97
368.312	8.45
368.68	9.01
369.048	8.9
369.416	9.09
369.783	9.35
370.151	8.99
370.519	8.96
370.886	9
371.254	9.37
371.621	9.04
371.989	9.32
372.356	9.52
372.724	9.42
373.091	9.32
373.458	9.54
373.826	9.39
374.193	9.91
374.56	9.43
374.927	9.14
375.294	9.98
375.661	9.61
376.028	9.84
376.395	9.69
376.762	10.2
377.129	9.72
377.496	9.69
377.863	10.07
378.229	9.9
378.596	9.76
378.963	9.94
379.329	9.92
379.696	10.11
380.062	10.21
380.429	10.3
380.795	10.12
381.161	10.17
381.528	9.75
381.894	10.31
382.26	10.17
382.626	10.25
382.993	10.14
383.359	10.43
383.725	10.64
384.091	10.5
384.457	10.73
384.823	10.58
385.188	10.88
385.554	10.59
385.92	10.92
386.286	10.73
386.651	10.81
387.017	10.7
387.383	10.78
387.748	10.68
388.114	10.83
388.479	10.92
388.845	11
389.21	11.11
389.575	11.26
389.94	10.83
390.306	11.43
390.671	10.85
391.036	11.5
391.401	11.53
391.766	11.1
392.131	11.24
392.496	11.52
392.861	11.12
393.226	11.3
393.591	11.38
393.956	11.49
394.32	11.4
394.685	11.22
395.05	11.48
395.414	12
395.779	11.52
396.143	11.72
396.508	11.62
396.872	11.76
397.236	11.46
397.601	11.86
397.965	11.59
398.329	11.98
398.694	11.71
399.058	12.42
399.422	12.17
399.786	12.05
400.15	11.88
400.514	12.2
400.878	11.83
401.242	12.43
401.605	11.98
401.969	12.34
402.333	12.34
402.697	12.4
403.06	12.5
403.424	12.36
403.787	12.46
404.151	12.56
404.514	12.64
404.878	12.68
405.241	12.83
405.604	12.47
405.968	12.56
406.331	12.72
406.694	12.6
407.057	12.74
407.42	12.61
407.783	12.71
408.146	12.79
408.509	12.63
408.872	12.74
409.235	13.08
409.598	12.89
409.961	12.96
410.323	13.09
410.686	13.17
411.049	13.12
411.411	13.07
411.774	12.98
412.136	13.29
412.499	12.96
412.861	13.17
413.223	13.42
413.586	13.25
413.948	13.55
414.31	13.24
414.672	13.43
415.035	13.62
415.397	13.9
415.759	13.5
416.121	13.7
416.483	13.59
416.845	13.68
417.206	13.71
417.568	13.7
417.93	13.64
418.292	13.64
418.653	13.88
419.015	13.84
419.377	13.74
419.738	13.58
420.1	13.65
420.461	13.68
420.822	13.81
421.184	13.87
421.545	13.81
421.906	13.9
422.267	13.76
422.629	13.83
422.99	13.78
423.351	13.93
423.712	13.92
424.073	14.07
424.434	14.09
424.795	14.16
425.155	14.14
425.516	14.18
425.877	14.22
426.238	14.15
426.598	14.27
426.959	14.18
427.32	14.46
427.68	14.48
428.041	14.57
428.401	14.48
428.761	14.58
429.122	14.74
429.482	14.68
429.842	14.86
430.202	15.04
430.563	15.03
430.923	14.95
431.283	15.24
431.643	15.01
432.003	15.05
432.363	15.13
432.722	15.16
433.082	15.08
433.442	15.33
433.802	15.53
434.161	15.51
434.521	15.31
434.881	15.33
435.24	15.33
435.6	15.29
435.959	15.44
436.319	15.54
436.678	15.66
437.037	15.82
437.396	15.66
437.756	15.83
438.115	15.84
438.474	15.8
438.833	15.82
439.192	16.12
439.551	16.1
439.91	16.03
440.269	16.26
440.628	16.12
440.987	15.98
441.345	15.93
441.704	16.06
442.063	16.06
442.421	16.13
442.78	16.23
443.138	15.96
443.497	16.1
443.855	16.21
444.214	16.36
444.572	16.37
444.93	16.6
445.288	16.62
445.647	16.73
446.005	16.37
446.363	16.63
446.721	16.53
447.079	16.63
447.437	16.74
447.795	16.65
448.153	16.54
448.51	16.56
448.868	16.71
449.226	16.62
449.584	16.77
449.941	17.03
450.299	16.92
450.656	17.08
451.014	17.22
451.371	17.1
451.729	17.2
452.086	17.32
452.443	17.27
452.801	17.62
453.158	17.36
453.515	17.5
453.872	17.61
454.229	17.41
454.586	17.6
454.943	17.48
455.3	17.78
455.657	17.66
456.014	17.89
456.371	17.91
456.727	17.72
457.084	17.79
457.441	17.83
457.797	18.02
458.154	18.16
458.51	18.07
458.867	18.1
459.223	18.13
459.58	18.25
459.936	18.36
460.292	18.18
460.648	18.3
461.005	18.15
461.361	18
461.717	17.96
462.073	17.99
462.429	18.24
462.785	18.28
463.141	18.48
463.496	18.39
463.852	18.81
464.208	18.68
464.564	18.59
464.919	18.7
465.275	18.96
465.631	19.07
465.986	18.83
466.342	19.2
466.697	19
467.052	19.11
467.408	19.17
467.763	19.13
468.118	19.17
468.473	19.39
468.829	19.16
469.184	19.49
469.539	19.41
469.894	19.52
470.249	19.63
470.603	19.62
470.958	19.65
471.313	19.42
471.668	19.73
472.023	19.9
472.377	19.52
472.732	19.79
473.086	19.79
473.441	19.87
473.795	20.19
474.15	19.96
474.504	19.88
474.859	20.08
475.213	20.09
475.567	19.99
475.921	20.1
476.275	20.05
476.63	20.1
476.984	20.32
477.338	20.55
477.692	20.3
478.045	20.45
478.399	20.45
478.753	20.26
479.107	20.45
479.461	20.45
479.814	20.34
480.168	20.36
480.521	20.52
480.875	20.61
481.228	20.75
481.582	20.52
481.935	20.79
482.289	20.81
482.642	20.74
482.995	20.76
483.348	20.7
483.701	20.68
484.055	20.65
484.408	20.65
484.761	20.34
485.114	20.38
485.466	20.11
485.819	19.89
486.172	19.74
486.525	19.86
486.878	20.02
487.23	20.32
487.583	20.61
487.936	20.73
488.288	20.76
488.641	20.64
488.993	20.59
489.345	20.44
489.698	20.47
490.05	20.48
490.402	20.54
490.754	20.72
491.107	20.95
491.459	21.21
491.811	21.39
492.163	21.49
492.515	21.57
492.866	21.23
493.218	21.13
493.57	21.04
493.922	20.91
494.274	21.01
494.625	21.28
494.977	21.5
495.328	21.89
495.68	22.03
496.031	22.22
496.383	22.23
496.734	22.32
497.086	22.34
497.437	22.63
497.788	22.38
498.139	22.3
498.49	22.52
498.842	22.28
499.193	22.19
499.544	22.45
499.894	22.53
500.245	22.39
500.596	22.6
500.947	22.75
501.298	22.68
501.648	22.71
501.999	22.91
502.35	23.06
502.7	23.05
503.051	23.15
503.401	23.22
503.752	23.08
504.102	23.11
504.452	23.23
504.803	23.33
505.153	23.32
505.503	23.32
505.853	23.28
506.203	23.22
506.553	23.4
506.903	23.48
507.253	23.55
507.603	23.42
507.953	23.63
508.303	23.69
508.652	23.77
509.002	23.72
509.352	23.65
509.701	23.86
510.051	23.67
510.4	23.63
510.75	23.73
511.099	23.49
511.449	23.68
511.798	23.73
512.147	23.76
512.496	24.06
512.846	23.76
513.195	23.92
513.544	23.87
513.893	23.92
514.242	24.2
514.591	24.14
514.939	24.03
515.288	24.1
515.637	24.3
515.986	24.27
516.334	24.38
516.683	24.55
517.032	24.4
517.38	24.71
517.729	24.66
518.077	24.77
518.426	24.57
518.774	24.58
519.122	24.76
519.47	24.6
519.819	24.37
520.167	24.37
520.515	24.17
520.863	24.19
521.211	24.32
521.559	24.38
521.907	24.65
522.255	24.76
522.602	24.82
522.95	24.85
523.298	24.95
523.645	24.99
523.993	25.2
524.341	25.14
524.688	25.26
525.036	25.3
525.383	25.31
525.73	25.46
526.078	25.27
526.425	25.26
526.772	25.09
527.119	24.98
527.466	24.97
527.814	24.86
528.161	24.87
528.508	24.98
528.854	24.99
529.201	25.16
529.548	25.02
529.895	25.01
530.242	24.84
530.588	24.58
530.935	24.39
531.282	24.32
531.628	24.6
531.975	24.89
532.321	25.02
532.667	25.28
533.014	25.49
533.36	25.5
533.706	25.6
534.052	25.58
534.399	25.57
534.745	25.44
535.091	25.41
535.437	25.13
535.783	25.25
536.129	25.39
536.474	25.49
536.82	25.85
537.166	25.94
537.512	26.17
537.857	26.21
538.203	26.08
538.549	26
538.894	25.88
539.239	25.94
539.585	26.1
539.93	26.32
540.276	26.4
540.621	26.62
540.966	26.61
541.311	26.71
541.656	26.76
542.001	26.73
542.346	26.45
542.691	26.46
543.036	26.15
543.381	25.86
543.726	25.86
544.071	25.88
544.415	26.12
544.76	26.3
545.105	26.49
545.449	26.44
545.794	26.52
546.138	26.92
546.483	26.88
546.827	27.15
547.171	27.06
547.516	27.18
547.86	27.07
548.204	27.12
548.548	27.29
548.892	27.05
549.236	27.12
549.58	27.14
549.924	27.22
550.268	27.57
550.612	27.72
550.956	27.57
551.3	27.84
551.643	27.95
551.987	28
552.33	28.02
552.674	28.01
553.017	28.32
553.361	28.11
553.704	28.22
554.048	28.4
554.391	28.04
554.734	28.01
555.077	28.19
555.42	28.19
555.764	28.27
556.107	28.33
556.45	28.38
556.793	28.64
557.135	28.64
557.478	28.66
557.821	28.52
558.164	28.77
558.507	28.67
558.849	28.82
559.192	28.94
559.534	28.68
559.877	29.08
560.219	29.06
560.562	28.98
560.904	28.73
561.246	29.12
561.589	28.91
561.931	29.4
562.273	29.2
562.615	29.02
562.957	29.46
563.299	28.96
563.641	29.18
563.983	29.24
564.325	29.17
564.667	29.02
565.008	29.1
565.35	29.44
565.692	29.65
566.033	29.47
566.375	29.46
566.716	29.57
567.058	29.55
567.399	29.39
567.741	29.56
568.082	29.45
568.423	29.23
568.764	29.28
569.105	29.48
569.447	29.32
569.788	29.41
570.129	29.87
570.47	29.79
570.811	29.98
571.151	29.84
571.492	29.97
571.833	29.89
572.174	29.83
572.514	29.96
572.855	30.33
573.195	29.89
573.536	29.88
573.876	29.92
574.217	29.82
574.557	30.13
574.898	29.73
575.238	29.75
575.578	30.4
575.918	30.02
576.258	30.34
576.598	30.2
576.938	30.32
577.278	30.11
577.618	30.09
577.958	30.38
578.298	30.13
578.638	30.33
578.977	30.46
579.317	30.53
579.657	30.62
579.996	30.66
580.336	30.82
580.675	30.95
581.014	30.88
581.354	30.98
581.693	31.11
582.032	30.9
582.372	30.9
582.711	31.07
583.05	31.19
583.389	31.17
583.728	31.25
584.067	30.84
584.406	31.07
584.745	31.22
585.083	31.61
585.422	31.32
585.761	31.51
586.1	31.53
586.438	31.37
586.777	31.52
587.115	31.53
587.454	31.44
587.792	31.23
588.13	31.56
588.469	31.54
588.807	31.89
589.145	31.71
589.483	31.75
589.821	31.8
590.159	31.63
590.497	31.63
590.835	31.53
591.173	31.97
591.511	32.07
591.849	32.26
592.187	32.15
592.524	31.68
592.862	31.94
593.2	32.1
593.537	31.95
593.875	32.29
594.212	32.18
594.55	32.31
594.887	32.59
595.224	32.24
595.561	32.27
595.899	32.49
596.236	32.37
596.573	32.19
596.91	32.4
597.247	32.33
597.584	32.21
597.921	32.68
598.258	32.58
598.594	32.16
598.931	31.92
599.268	31.88
599.604	32.34
599.941	32.06
600.277	32.29
600.614	32.42
600.95	32.56
601.287	32.75
601.623	32.62
601.959	32.63
602.296	33.25
602.632	33.09
602.968	32.81
603.304	32.88
603.64	33.09
603.976	33.13
604.312	33.1
604.648	33.3
604.984	32.86
605.319	33.11
605.655	33.04
605.991	32.97
606.326	32.65
606.662	32.76
606.998	32.61
607.333	32.74
607.668	32.71
608.004	32.93
608.339	32.85
608.674	33
609.01	33.15
609.345	33.27
609.68	33.1
610.015	33.51
610.35	33.6
610.685	33.6
611.02	33.66
611.355	33.34
611.689	33.01
612.024	33.36
612.359	33.2
612.694	33.67
613.028	33.79
613.363	33.39
613.697	33.34
614.032	33.64
614.366	33.43
614.7	34.26
615.035	33.96
615.369	33.79
615.703	34.17
616.037	33.53
616.371	33.65
616.705	33.96
617.039	34.48
617.373	34.16
617.707	34.22
618.041	34.61
618.375	34.18
618.709	34.34
619.042	34.31
619.376	33.96
619.71	34.06
620.043	34.13
620.377	34.21
620.71	34.52
621.043	34.59
621.377	35
621.71	34.98
622.043	34.61
622.376	34.22
622.709	34.85
623.043	34.76
623.376	34.71
623.709	34.93
624.041	34.57
624.374	34.57
624.707	34.52
625.04	35.03
625.373	34.85
625.705	34.83
626.038	34.81
626.37	34.9
626.703	35.07
627.035	35.24
627.368	35.47
627.7	35.18
628.032	35.01
628.365	35.21
628.697	35.19
629.029	35.29
629.361	35.05
629.693	34.71
630.025	35.05
630.357	35.16
630.689	34.93
631.021	35.2
631.353	35.5
631.684	35.28
632.016	35.19
632.348	35.85
632.679	35.45
633.011	35.96
633.342	35.4
633.674	35.89
634.005	35.76
634.336	35.58
634.668	35.76
634.999	35.75
635.33	35.7
635.661	35.91
635.992	35.9
636.323	35.66
636.654	36.04
636.985	35.71
637.316	35.95
637.647	36.45
637.977	35.69
638.308	35.54
638.639	35.88
638.969	36.12
639.3	36.35
639.63	35.84
639.961	36.58
640.291	36.39
640.622	36.45
640.952	36.41
641.282	36.29
641.612	36.6
641.943	36.48
642.273	36.78
642.603	36.27
642.933	36.7
643.263	36.19
643.592	36.65
643.922	36.71
644.252	36.94
644.582	36.97
644.911	36.15
645.241	36.43
645.571	36.82
645.9	36.85
646.23	36.53
646.559	36.79
646.888	36.57
647.218	36.95
647.547	36.66
647.876	37.26
648.205	37.42
648.534	36.93
648.863	37.2
649.192	36.62
649.521	36.36
649.85	37.42
650.179	37.04
650.508	36.81
650.837	37.59
651.165	37.32
651.494	37.38
651.822	37.18
652.151	37.69
652.479	37.44
652.808	37.24
653.136	37.31
653.465	36.96
653.793	37.74
654.121	37.85
654.449	37.7
654.777	37.26
655.105	37.71
655.433	37.98
655.761	37.25
656.089	37.32
656.417	37.78
656.745	38.17
657.073	37.67
657.4	37.33
657.728	37.56
658.056	37.63
658.383	38.58
658.711	37.86
659.038	37.95
659.365	38.07
659.693	37.53
660.02	37.96
660.347	37.64
660.674	37.65
661.001	37.59
661.329	37.74
661.656	37.33
661.982	37.8
662.309	37.84
662.636	37.73
662.963	37.44
663.29	37.87
663.616	38.23
663.943	37.92
664.27	37.93
664.596	38.05
664.923	37.99
665.249	38.13
665.576	38.14
665.902	38.07
666.228	38.49
666.554	37.61
666.881	38.35
667.207	37.74
667.533	38.16
667.859	38.64
668.185	38.02
668.511	38.65
668.837	39.04
669.162	38.83
669.488	38.82
669.814	38.76
670.139	39.32
670.465	39.43
670.791	38.62
671.116	38.54
671.442	39.46
671.767	38.64
