Data from 0071_forehead_Reflection__4__328.txt Node

Date: Fri Dec 16 16:41:08 CST 2022
User: ToomeyLab
Spectrometer: FLMS14357
Trigger mode: 0
Integration Time (sec): 1.000000E-2
Scans to average: 100
Electric dark correction enabled: true
Nonlinearity correction enabled: false
Boxcar width: 0
XAxis mode: Wavelengths
Number of Pixels in Spectrum: 2048
>>>>>Begin Spectral Data<<<<<
189.047	13777.14
189.435	13777.14
189.823	13777.14
190.211	38.65
190.599	171.51
190.987	39.31
191.375	104.75
191.763	4845.78
192.151	-600.93
192.538	169.31
192.926	99.93
193.314	118.17
193.702	-6612.9
194.089	-741.37
194.477	1198.58
194.864	38.57
195.252	40.46
195.639	110.35
196.027	-669.48
196.414	-480.19
196.801	-80.56
197.189	140.65
197.576	-86.16
197.963	71.22
198.351	15.22
198.738	-19.47
199.125	-21.32
199.512	24.43
199.899	-17.56
200.286	-134.31
200.673	25.16
201.06	30.72
201.447	19.08
201.833	5.38
202.22	39.01
202.607	-16.57
202.994	39.61
203.38	-47.97
203.767	6.29
204.154	15.8
204.54	31.7
204.927	8.78
205.313	28.63
205.699	-38.06
206.086	-14.13
206.472	-2.94
206.858	4.46
207.245	31.85
207.631	6.53
208.017	7.22
208.403	32.82
208.789	11.78
209.175	46.67
209.561	45.9
209.947	-22.57
210.333	-9.73
210.719	36.82
211.105	-27.46
211.491	22.8
211.876	8.65
212.262	-46.08
212.648	-27.09
213.034	2.51
213.419	13.95
213.805	2.31
214.19	18.26
214.576	-43.86
214.961	-13.3
215.346	-17.42
215.732	-20.64
216.117	-22.36
216.502	-32.33
216.888	-37.24
217.273	14.96
217.658	-43.35
218.043	-11.34
218.428	-11.52
218.813	-0.72
219.198	-6.8
219.583	5.05
219.968	-16.51
220.353	28.16
220.738	-28.01
221.122	0.85
221.507	-21.84
221.892	-3.81
222.276	4.23
222.661	8.96
223.046	7.09
223.43	-11.12
223.815	2.69
224.199	5.64
224.583	0.65
224.968	3.33
225.352	2.74
225.736	6.5
226.121	-0.36
226.505	4.75
226.889	4.27
227.273	4.44
227.657	-1.04
228.041	4.89
228.425	4.26
228.809	3.87
229.193	1.79
229.577	0.24
229.961	3.53
230.344	3.7
230.728	3.77
231.112	2.52
231.495	3.76
231.879	2.66
232.263	3.84
232.646	1.97
233.03	0.56
233.413	1.82
233.797	4.56
234.18	1.25
234.563	3.75
234.946	1.99
235.33	3.8
235.713	3.86
236.096	4.1
236.479	5.27
236.862	3.01
237.245	5.28
237.628	3.91
238.011	3.29
238.394	5.83
238.777	3.02
239.16	0.49
239.543	3.71
239.925	5.48
240.308	3.3
240.691	3.79
241.073	3.33
241.456	3.46
241.838	3.32
242.221	3.71
242.603	3.15
242.986	3.78
243.368	3.31
243.75	3.15
244.133	2.93
244.515	3.47
244.897	2.93
245.279	2.66
245.661	3.27
246.043	3.66
246.425	3.46
246.807	2.83
247.189	3.38
247.571	3.19
247.953	3.09
248.335	3.37
248.717	3.44
249.098	3.33
249.48	3.36
249.862	3.38
250.243	3.4
250.625	3.27
251.006	4.02
251.388	3.42
251.769	2.7
252.151	3.64
252.532	2.99
252.913	3.27
253.295	3.58
253.676	3.45
254.057	3.71
254.438	2.88
254.819	4
255.2	3.58
255.581	2.41
255.962	2.65
256.343	3.76
256.724	3.4
257.105	4.14
257.486	3.4
257.867	2.18
258.247	3.67
258.628	3.57
259.009	3.12
259.389	3.14
259.77	3.49
260.15	4.13
260.531	3.44
260.911	3.4
261.292	3.55
261.672	3.42
262.052	3.19
262.432	3.1
262.813	3.96
263.193	2.97
263.573	3.65
263.953	3.66
264.333	3.09
264.713	3.15
265.093	2.59
265.473	4.51
265.853	3.63
266.233	3.32
266.612	2.87
266.992	2.87
267.372	3.95
267.752	3.06
268.131	3.25
268.511	3.46
268.89	3.74
269.27	3.31
269.649	3.63
270.029	2.94
270.408	3.05
270.787	3.07
271.167	3.49
271.546	2.5
271.925	3.74
272.304	3.58
272.683	3.1
273.062	3.6
273.441	3.7
273.82	3.77
274.199	3.27
274.578	3.4
274.957	3.58
275.336	2.8
275.715	3.58
276.093	3.73
276.472	3.26
276.851	3.58
277.229	4.45
277.608	2.86
277.986	2.99
278.365	2.81
278.743	3.7
279.122	3.01
279.5	2.6
279.878	2.44
280.257	3.49
280.635	3.21
281.013	3.62
281.391	3.51
281.769	3.64
282.147	3.68
282.525	3
282.903	3.73
283.281	3.23
283.659	3.28
284.037	3.72
284.415	3.4
284.792	3.58
285.17	3.36
285.548	3.14
285.925	3.28
286.303	3.26
286.68	3.52
287.058	3.68
287.435	2.91
287.813	3.67
288.19	3.94
288.567	3.33
288.945	3.24
289.322	3.06
289.699	3.43
290.076	3.8
290.453	3.51
290.83	3
291.207	3.83
291.584	3.57
291.961	3.69
292.338	3.71
292.715	3.53
293.092	3.82
293.469	3.76
293.845	4.09
294.222	4
294.599	4.43
294.975	4
295.352	3.58
295.728	4.23
296.105	3.43
296.481	4.28
296.858	4.24
297.234	4.24
297.61	4.21
297.986	4.22
298.363	3.77
298.739	4.37
299.115	4.41
299.491	4.34
299.867	4.39
300.243	4.41
300.619	4.07
300.995	4.94
301.371	4.8
301.746	4.38
302.122	4.76
302.498	4.3
302.874	4.28
303.249	4.71
303.625	5.01
304	4.42
304.376	4.42
304.751	4.78
305.127	4.75
305.502	4.38
305.878	4.75
306.253	4.69
306.628	5.25
307.003	5.02
307.378	4.53
307.754	5.14
308.129	4.58
308.504	4.73
308.879	5.21
309.254	4.97
309.629	4.87
310.003	5.77
310.378	5.15
310.753	4.99
311.128	5.29
311.502	5.33
311.877	5.35
312.252	5.47
312.626	5.04
313.001	5.44
313.375	5.12
313.75	5.78
314.124	5.93
314.498	5.43
314.873	5.88
315.247	5.3
315.621	5.68
315.995	5.8
316.369	6.11
316.743	5.93
317.117	5.69
317.491	5.96
317.865	5.76
318.239	6.64
318.613	6.26
318.987	6.3
319.361	6.69
319.734	6.29
320.108	6.17
320.482	5.97
320.855	5.6
321.229	6.75
321.602	6.23
321.976	6.02
322.349	5.97
322.723	6.16
323.096	5.97
323.469	5.57
323.843	6.89
324.216	6.23
324.589	6.8
324.962	6.29
325.335	6.38
325.708	6.8
326.081	7.41
326.454	6.5
326.827	7.19
327.2	7.17
327.573	7.05
327.945	7.17
328.318	7.14
328.691	6.93
329.063	6.8
329.436	7.17
329.809	6.79
330.181	7.13
330.553	7.53
330.926	7.14
331.298	6.76
331.671	7.1
332.043	7.63
332.415	7.57
332.787	8.09
333.159	7.63
333.532	7.75
333.904	7.61
334.276	7.55
334.648	7.71
335.02	7.27
335.391	7.21
335.763	7.3
336.135	7.88
336.507	8.29
336.879	8.11
337.25	7.77
337.622	7.69
337.993	7.64
338.365	8.1
338.736	8.8
339.108	7.78
339.479	7.94
339.851	8.34
340.222	8.24
340.593	7.95
340.964	7.81
341.336	7.73
341.707	7.89
342.078	7.92
342.449	8.54
342.82	7.96
343.191	8.05
343.562	8.66
343.933	8.54
344.303	8.76
344.674	8.4
345.045	8.55
345.416	8.64
345.786	8.46
346.157	8.8
346.527	8.29
346.898	8.86
347.268	8.62
347.639	8.76
348.009	8.86
348.38	8.92
348.75	8.79
349.12	9.3
349.49	8.84
349.861	9.15
350.231	9.24
350.601	8.92
350.971	8.97
351.341	9.6
351.711	8.92
352.081	9.12
352.45	9.74
352.82	9.24
353.19	9.52
353.56	9.28
353.929	9.54
354.299	9.4
354.669	10.01
355.038	9.67
355.408	10.24
355.777	9.54
356.147	9.87
356.516	10.03
356.885	9.66
357.254	9.89
357.624	9.96
357.993	9.85
358.362	10.3
358.731	9.83
359.1	10.04
359.469	10
359.838	10.13
360.207	10.07
360.576	10.46
360.945	9.98
361.314	10.31
361.682	9.65
362.051	10.14
362.42	10.63
362.788	10.38
363.157	10.22
363.525	10.38
363.894	10.22
364.262	10.64
364.631	11.11
364.999	10.47
365.367	10.9
365.735	10.45
366.104	10.61
366.472	10.86
366.84	11.01
367.208	10.36
367.576	11.08
367.944	11.05
368.312	10.56
368.68	11.19
369.048	11.14
369.416	11.13
369.783	11.25
370.151	11.22
370.519	11.21
370.886	11.32
371.254	11.31
371.621	11.39
371.989	11.55
372.356	11.36
372.724	11.38
373.091	11.58
373.458	11.61
373.826	11.56
374.193	12.06
374.56	11.46
374.927	11.51
375.294	12.04
375.661	11.66
376.028	11.64
376.395	11.74
376.762	12.05
377.129	11.8
377.496	11.61
377.863	11.95
378.229	12.11
378.596	11.77
378.963	11.93
379.329	12.09
379.696	12.16
380.062	12.54
380.429	12.33
380.795	12.21
381.161	12.27
381.528	11.86
381.894	12.61
382.26	12.45
382.626	12.25
382.993	12.39
383.359	12.45
383.725	12.79
384.091	12.38
384.457	12.58
384.823	12.85
385.188	12.9
385.554	12.92
385.92	12.95
386.286	12.93
386.651	12.81
387.017	13.22
387.383	12.91
387.748	12.73
388.114	13.42
388.479	13.2
388.845	13.1
389.21	13.4
389.575	13.22
389.94	13.31
390.306	13.1
390.671	13.29
391.036	13.84
391.401	13.6
391.766	13.21
392.131	13.56
392.496	13.63
392.861	13.42
393.226	13.63
393.591	13.67
393.956	13.8
394.32	13.69
394.685	13.75
395.05	13.65
395.414	13.8
395.779	13.74
396.143	13.83
396.508	13.88
396.872	13.92
397.236	13.65
397.601	14.19
397.965	13.74
398.329	14.36
398.694	14.09
399.058	14.09
399.422	14.08
399.786	14.34
400.15	14.11
400.514	14.17
400.878	14.34
401.242	14.56
401.605	14.31
401.969	14.4
402.333	14.22
402.697	14.57
403.06	14.88
403.424	14.47
403.787	15.02
404.151	14.58
404.514	14.51
404.878	14.92
405.241	14.68
405.604	14.96
405.968	14.7
406.331	14.7
406.694	14.66
407.057	15.16
407.42	14.95
407.783	14.87
408.146	14.71
408.509	14.9
408.872	14.85
409.235	15.05
409.598	15.17
409.961	15.36
410.323	15.06
410.686	15.23
411.049	15.13
411.411	15.35
411.774	15.24
412.136	15.19
412.499	15.09
412.861	15.39
413.223	15.54
413.586	15.31
413.948	15.56
414.31	15.83
414.672	15.29
415.035	15.63
415.397	15.51
415.759	15.7
416.121	15.75
416.483	15.63
416.845	15.78
417.206	15.89
417.568	15.91
417.93	15.83
418.292	15.92
418.653	15.64
419.015	15.91
419.377	15.91
419.738	15.7
420.1	15.77
420.461	15.72
420.822	15.92
421.184	15.86
421.545	15.85
421.906	15.91
422.267	15.82
422.629	15.88
422.99	15.92
423.351	16.04
423.712	16.06
424.073	16.22
424.434	16.04
424.795	16.05
425.155	16.19
425.516	16.11
425.877	16.11
426.238	16.2
426.598	16.27
426.959	16.15
427.32	16.5
427.68	16.59
428.041	16.62
428.401	16.64
428.761	16.64
429.122	16.77
429.482	16.75
429.842	16.98
430.202	16.93
430.563	16.73
430.923	16.93
431.283	17.12
431.643	17.14
432.003	16.99
432.363	17.11
432.722	17.18
433.082	17.09
433.442	17.15
433.802	17.1
434.161	17.23
434.521	17.31
434.881	17.32
435.24	17.25
435.6	17.36
435.959	17.47
436.319	17.16
436.678	17.43
437.037	17.55
437.396	17.62
437.756	17.64
438.115	17.84
438.474	17.83
438.833	17.72
439.192	17.91
439.551	17.88
439.91	17.84
440.269	17.9
440.628	17.79
440.987	17.66
441.345	17.75
441.704	17.98
442.063	17.95
442.421	17.72
442.78	17.99
443.138	18.04
443.497	18.04
443.855	18.11
444.214	18.07
444.572	18.32
444.93	18.52
445.288	18.31
445.647	18.51
446.005	18.17
446.363	18.2
446.721	18.21
447.079	18.15
447.437	18.09
447.795	18.19
448.153	18.2
448.51	18.23
448.868	18.5
449.226	18.54
449.584	18.62
449.941	18.73
450.299	18.77
450.656	18.88
451.014	18.9
451.371	19.04
451.729	18.92
452.086	18.9
452.443	18.91
452.801	19.16
453.158	19.01
453.515	18.97
453.872	19.37
454.229	19.03
454.586	18.95
454.943	19.17
455.3	19.48
455.657	19.4
456.014	19.51
456.371	19.48
456.727	19.3
457.084	19.47
457.441	19.47
457.797	19.56
458.154	19.54
458.51	19.48
458.867	19.46
459.223	19.62
459.58	19.56
459.936	19.75
460.292	19.56
460.648	19.29
461.005	19.42
461.361	19.32
461.717	19.54
462.073	19.51
462.429	19.66
462.785	19.9
463.141	19.86
463.496	19.96
463.852	20.24
464.208	20.02
464.564	19.99
464.919	20.25
465.275	20.26
465.631	20.27
465.986	20.23
466.342	20.39
466.697	20.19
467.052	20.57
467.408	20.43
467.763	20.43
468.118	20.39
468.473	20.75
468.829	20.45
469.184	20.61
469.539	20.53
469.894	20.65
470.249	20.8
470.603	20.81
470.958	20.96
471.313	20.9
471.668	20.86
472.023	21.13
472.377	20.92
472.732	20.74
473.086	20.83
473.441	21.19
473.795	20.99
474.15	21.07
474.504	21.04
474.859	21.28
475.213	21.06
475.567	21.05
475.921	21.54
476.275	21.15
476.63	21.24
476.984	21.53
477.338	21.61
477.692	21.45
478.045	21.23
478.399	21.54
478.753	21.47
479.107	21.31
479.461	21.36
479.814	21.43
480.168	21.31
480.521	21.54
480.875	21.77
481.228	21.8
481.582	21.46
481.935	21.64
482.289	21.41
482.642	21.72
482.995	21.78
483.348	21.58
483.701	21.39
484.055	21.32
484.408	21.11
484.761	20.61
485.114	20.57
485.466	20.63
485.819	20.81
486.172	21.05
486.525	21.29
486.878	21.35
487.23	21.55
487.583	21.5
487.936	21.55
488.288	21.25
488.641	21.16
488.993	21.11
489.345	21.2
489.698	21.4
490.05	21.44
490.402	21.6
490.754	21.99
491.107	22.19
491.459	22.28
491.811	22.27
492.163	22.16
492.515	21.8
492.866	21.54
493.218	21.6
493.57	21.88
493.922	22.01
494.274	22.23
494.625	22.48
494.977	22.64
495.328	22.76
495.68	22.96
496.031	22.83
496.383	23.02
496.734	23.07
497.086	23.17
497.437	23.06
497.788	22.93
498.139	22.87
498.49	22.93
498.842	23.01
499.193	23.03
499.544	23.14
499.894	23.03
500.245	23.03
500.596	23.22
500.947	23.15
501.298	23.31
501.648	23.48
501.999	23.55
502.35	23.59
502.7	23.49
503.051	23.76
503.401	23.77
503.752	23.86
504.102	23.74
504.452	23.69
504.803	23.7
505.153	23.81
505.503	23.88
505.853	23.69
506.203	23.74
506.553	23.82
506.903	23.76
507.253	23.98
507.603	23.99
507.953	24.15
508.303	24.13
508.652	24.18
509.002	24.07
509.352	23.99
509.701	23.99
510.051	24.17
510.4	23.97
510.75	24
511.099	24.05
511.449	24.08
511.798	24.2
512.147	24.13
512.496	24.08
512.846	24.31
513.195	24.25
513.544	24.15
513.893	24.25
514.242	24.27
514.591	24.41
514.939	24.4
515.288	24.36
515.637	24.77
515.986	24.57
516.334	24.92
516.683	24.75
517.032	24.58
517.38	24.7
517.729	24.64
518.077	24.69
518.426	24.63
518.774	24.6
519.122	24.66
519.47	24.51
519.819	24.33
520.167	24.41
520.515	24.49
520.863	24.62
521.211	24.65
521.559	24.85
521.907	24.93
522.255	25.11
522.602	25.09
522.95	25.02
523.298	25.27
523.645	25.08
523.993	25.29
524.341	25.25
524.688	25.34
525.036	25.3
525.383	25.11
525.73	25.22
526.078	25.09
526.425	25
526.772	24.84
527.119	24.75
527.466	24.84
527.814	25.06
528.161	25.03
528.508	25.11
528.854	24.88
529.201	24.73
529.548	24.28
529.895	24.22
530.242	24.31
530.588	24.58
530.935	24.74
531.282	24.93
531.628	25.05
531.975	25.15
532.321	25.38
532.667	25.5
533.014	25.44
533.36	25.47
533.706	25.42
534.052	25.17
534.399	25.06
534.745	24.92
535.091	25.08
535.437	25.43
535.783	25.59
536.129	25.74
536.474	25.86
536.82	25.9
537.166	25.9
537.512	25.87
537.857	25.66
538.203	25.57
538.549	25.99
538.894	26
539.239	26.24
539.585	26.4
539.93	26.39
540.276	26.36
540.621	26.28
540.966	26.39
541.311	26.39
541.656	26.22
542.001	26.02
542.346	25.58
542.691	25.33
543.036	25.5
543.381	25.72
543.726	25.99
544.071	26.08
544.415	26.21
544.76	26.06
545.105	26.32
545.449	26.37
545.794	26.68
546.138	26.83
546.483	26.66
546.827	26.9
547.171	26.7
547.516	26.91
547.86	26.81
548.204	26.52
548.548	26.82
548.892	26.8
549.236	27.09
549.58	27.25
549.924	27.14
550.268	27.35
550.612	27.58
550.956	27.34
551.3	27.54
551.643	27.65
551.987	27.54
552.33	27.55
552.674	27.49
553.017	27.73
553.361	27.42
553.704	27.48
554.048	27.63
554.391	27.58
554.734	27.62
555.077	27.9
555.42	27.63
555.764	27.89
556.107	27.9
556.45	27.99
556.793	28.06
557.135	28.12
557.478	28.04
557.821	27.99
558.164	28
558.507	27.97
558.849	27.88
559.192	28.26
559.534	28.05
559.877	28.27
560.219	28.31
560.562	28.21
560.904	28.42
561.246	28.67
561.589	28.63
561.931	28.49
562.273	28.44
562.615	28.28
562.957	28.37
563.299	28.25
563.641	28.62
563.983	28.24
564.325	28.41
564.667	28.7
565.008	28.53
565.35	28.71
565.692	28.6
566.033	28.49
566.375	28.28
566.716	28.84
567.058	28.54
567.399	28.55
567.741	28.59
568.082	28.57
568.423	28.69
568.764	28.64
569.105	28.82
569.447	28.89
569.788	29.02
570.129	28.77
570.47	28.95
570.811	28.98
571.151	29
571.492	29.18
571.833	29.14
572.174	29.16
572.514	28.99
572.855	29.18
573.195	28.82
573.536	28.89
573.876	29.01
574.217	29.04
574.557	29.27
574.898	28.99
575.238	29.26
575.578	29.42
575.918	29.26
576.258	29.19
576.598	29.23
576.938	29.39
577.278	29.36
577.618	29.32
577.958	29.63
578.298	29.53
578.638	29.7
578.977	29.57
579.317	29.95
579.657	29.76
579.996	29.84
580.336	29.77
580.675	29.82
581.014	29.56
581.354	30.08
581.693	30.15
582.032	29.86
582.372	29.82
582.711	30.22
583.05	29.99
583.389	30.36
583.728	29.99
584.067	30
584.406	30.02
584.745	30.2
585.083	30.45
585.422	30.53
585.761	30.42
586.1	30.36
586.438	30.52
586.777	30.42
587.115	30.35
587.454	30.41
587.792	30.3
588.13	30.67
588.469	30.8
588.807	30.45
589.145	30.32
589.483	30.1
589.821	30.32
590.159	30.34
590.497	30.17
590.835	30.55
591.173	30.68
591.511	30.56
591.849	30.88
592.187	30.96
592.524	30.68
592.862	30.97
593.2	30.96
593.537	30.84
593.875	30.98
594.212	31
594.55	31.03
594.887	30.98
595.224	31.14
595.561	30.9
595.899	30.88
596.236	30.97
596.573	30.89
596.91	30.84
597.247	30.93
597.584	30.96
597.921	31.14
598.258	30.96
598.594	30.4
598.931	30.67
599.268	30.92
599.604	31.31
599.941	31.32
600.277	31.27
600.614	31.33
600.95	31.33
601.287	31.6
601.623	31.23
601.959	31.54
602.296	31.42
602.632	31.52
602.968	31.38
603.304	31.48
603.64	31.5
603.976	31.61
604.312	31.3
604.648	31.58
604.984	31.4
605.319	31.36
605.655	31.39
605.991	31.23
606.326	31.18
606.662	31.08
606.998	31.44
607.333	31.55
607.668	31.74
608.004	32
608.339	31.88
608.674	31.63
609.01	31.79
609.345	31.84
609.68	31.58
610.015	32.07
610.35	31.75
610.685	32.02
611.02	31.72
611.355	31.98
611.689	31.65
612.024	31.92
612.359	32.07
612.694	32.35
613.028	32.55
613.363	32.15
613.697	32.45
614.032	32.34
614.366	32.51
614.7	32.7
615.035	32.71
615.369	32.18
615.703	32.75
616.037	32.72
616.371	32.5
616.705	32.36
617.039	33.03
617.373	32.91
617.707	32.19
618.041	32.92
618.375	32.43
618.709	33
619.042	32.22
619.376	32.69
619.71	32.83
620.043	32.79
620.377	32.97
620.71	32.8
621.043	32.85
621.377	32.73
621.71	32.99
622.043	33.03
622.376	32.84
622.709	33.06
623.043	33.02
623.376	33.31
623.709	33.76
624.041	33.03
624.374	33.08
624.707	32.87
625.04	33.22
625.373	33.3
625.705	32.81
626.038	33.02
626.37	32.96
626.703	33.2
627.035	33.2
627.368	33.32
627.7	33.11
628.032	33.2
628.365	33.12
628.697	33.5
629.029	33.48
629.361	33.21
629.693	33.28
630.025	33.72
630.357	33.13
630.689	33.44
631.021	33.3
631.353	33.37
631.684	33.86
632.016	33.23
632.348	33.91
632.679	33.87
633.011	33.48
633.342	33.55
633.674	33.71
634.005	33.6
634.336	33.46
634.668	33.38
634.999	33.62
635.33	33.5
635.661	34.09
635.992	33.84
636.323	33.89
636.654	34.07
636.985	34.05
637.316	33.74
637.647	34.25
637.977	34.04
638.308	33.85
638.639	33.9
638.969	34.04
639.3	34.14
639.63	34.01
639.961	34.13
640.291	34.64
640.622	34.24
640.952	34.55
641.282	33.8
641.612	34
641.943	34.52
642.273	34.99
642.603	34.54
642.933	34.58
643.263	34.68
643.592	34.56
643.922	34.6
644.252	34.27
644.582	34.42
644.911	34
645.241	34.6
645.571	34.58
645.9	34.74
646.23	34.63
646.559	34.64
646.888	34.3
647.218	34.66
647.547	35.23
647.876	35.02
648.205	34.78
648.534	34.1
648.863	34.68
649.192	34.99
649.521	34.16
649.85	34.95
650.179	34.9
650.508	34.67
650.837	35.11
651.165	35.82
651.494	34.5
651.822	35.19
652.151	35.33
652.479	35.33
652.808	35.19
653.136	35.09
653.465	35.23
653.793	35.6
654.121	35.36
654.449	35.32
654.777	35.35
655.105	35.66
655.433	35.86
655.761	35.24
656.089	35.78
656.417	35.84
656.745	35.99
657.073	35.31
657.4	35.66
657.728	35.69
658.056	35.7
658.383	35.86
658.711	35.53
659.038	35.88
659.365	35.8
659.693	35.35
660.02	35.34
660.347	35.2
660.674	34.86
661.001	35.26
661.329	35.67
661.656	35.34
661.982	36.2
662.309	35.98
662.636	35.35
662.963	35.65
663.29	35.66
663.616	35.68
663.943	35.72
664.27	36.1
664.596	35.53
664.923	36.1
665.249	35.59
665.576	35.68
665.902	35.72
666.228	35.66
666.554	35.64
666.881	36.24
667.207	35.78
667.533	35.91
667.859	36.1
668.185	36.17
668.511	35.92
668.837	36.08
669.162	36.73
669.488	35.72
669.814	36.54
670.139	36.19
670.465	36.67
670.791	36.07
671.116	35.53
671.442	36.8
671.767	36.41
