Data from 0071_crown_Reflection__0__319.txt Node

Date: Fri Dec 16 16:39:03 CST 2022
User: ToomeyLab
Spectrometer: FLMS14357
Trigger mode: 0
Integration Time (sec): 1.000000E-2
Scans to average: 100
Electric dark correction enabled: true
Nonlinearity correction enabled: false
Boxcar width: 0
XAxis mode: Wavelengths
Number of Pixels in Spectrum: 2048
>>>>>Begin Spectral Data<<<<<
189.047	457.14
189.435	457.14
189.823	457.14
190.211	39.56
190.599	117.43
190.987	73.82
191.375	185.84
191.763	3816.87
192.151	776.77
192.538	-24.91
192.926	3.76
193.314	58.02
193.702	-4954.84
194.089	-585.09
194.477	-2246.81
194.864	-153.62
195.252	278.26
195.639	304.71
196.027	-27.79
196.414	-273.11
196.801	5.73
197.189	132.27
197.576	90.31
197.963	78.54
198.351	17.18
198.738	-32.51
199.125	30.54
199.512	-9.35
199.899	-25.81
200.286	-61.9
200.673	11.36
201.06	24.23
201.447	20.04
201.833	9.67
202.22	36.52
202.607	28.97
202.994	-7
203.38	-26.94
203.767	-5.72
204.154	-7.86
204.54	-7.08
204.927	14.24
205.313	27.23
205.699	2.35
206.086	-13.66
206.472	6.21
206.858	14.4
207.245	37.62
207.631	-23.21
208.017	11.63
208.403	30.28
208.789	3.96
209.175	25.75
209.561	-34.63
209.947	-8.99
210.333	-11.87
210.719	-10.67
211.105	-29.86
211.491	-23.01
211.876	32.72
212.262	-5.61
212.648	-12.7
213.034	-21.93
213.419	16.38
213.805	-6.91
214.19	-62.82
214.576	-12.5
214.961	2.93
215.346	-6.6
215.732	-18.46
216.117	-5.86
216.502	-39.63
216.888	-40.62
217.273	22.94
217.658	-47.01
218.043	-4.95
218.428	-7.33
218.813	-29.42
219.198	-40.13
219.583	-4.39
219.968	-3.88
220.353	12.93
220.738	-26.15
221.122	-17.78
221.507	-12.44
221.892	1.56
222.276	-6.35
222.661	1.51
223.046	0.73
223.43	-13.2
223.815	5.94
224.199	-5.7
224.583	-10.07
224.968	12.71
225.352	-5.98
225.736	-3.97
226.121	0.75
226.505	-2.18
226.889	4.06
227.273	2.95
227.657	2.25
228.041	3.39
228.425	4.45
228.809	4.1
229.193	3.11
229.577	4.56
229.961	4.9
230.344	5.22
230.728	4.73
231.112	3.84
231.495	3.96
231.879	5.13
232.263	4.42
232.646	4.34
233.03	2.05
233.413	3.45
233.797	7.71
234.18	4.93
234.563	5.26
234.946	2.64
235.33	6.36
235.713	4.49
236.096	5.12
236.479	5.4
236.862	5.82
237.245	5.38
237.628	4.02
238.011	4.17
238.394	4.04
238.777	3.57
239.16	4.31
239.543	3.81
239.925	7.02
240.308	5.04
240.691	3.74
241.073	2.77
241.456	4.13
241.838	5.64
242.221	4.59
242.603	4.44
242.986	5.55
243.368	4.67
243.75	4.31
244.133	4.73
244.515	4.38
244.897	4.88
245.279	4.43
245.661	3.93
246.043	3.86
246.425	4.59
246.807	4.27
247.189	4.61
247.571	4.89
247.953	4.43
248.335	4.88
248.717	4.64
249.098	5.19
249.48	4.57
249.862	4.64
250.243	5.05
250.625	4.54
251.006	5.18
251.388	4.46
251.769	3.92
252.151	4.82
252.532	4
252.913	4.45
253.295	5.1
253.676	5.01
254.057	3.83
254.438	3.79
254.819	4.89
255.2	4.55
255.581	4.38
255.962	3.32
256.343	4.97
256.724	4.34
257.105	3.9
257.486	4.28
257.867	2.61
258.247	4.49
258.628	5.35
259.009	4.47
259.389	4.48
259.77	3.89
260.15	4.76
260.531	4.51
260.911	4.22
261.292	4.32
261.672	4.53
262.052	4.3
262.432	3.94
262.813	3.66
263.193	3.27
263.573	4.08
263.953	4.74
264.333	4.88
264.713	4.1
265.093	4.04
265.473	5.03
265.853	3.75
266.233	3.91
266.612	4.22
266.992	3.83
267.372	4.56
267.752	3.94
268.131	4.26
268.511	4.47
268.89	4.8
269.27	4.52
269.649	4.66
270.029	4.01
270.408	4.45
270.787	4.45
271.167	3.62
271.546	3.66
271.925	3.6
272.304	4.46
272.683	4.08
273.062	4.26
273.441	4.38
273.82	4.23
274.199	4.46
274.578	4.45
274.957	4.18
275.336	4.06
275.715	4.47
276.093	4.82
276.472	4.01
276.851	4.22
277.229	4.53
277.608	4.34
277.986	4.05
278.365	3.85
278.743	4.22
279.122	4.22
279.5	3.96
279.878	3.26
280.257	4.27
280.635	3.41
281.013	3.39
281.391	3.83
281.769	3.85
282.147	4.29
282.525	3.73
282.903	4.07
283.281	4.22
283.659	3.91
284.037	4.1
284.415	4.06
284.792	4.05
285.17	3.76
285.548	3.78
285.925	3.76
286.303	3.76
286.68	4
287.058	3.67
287.435	4.13
287.813	3.9
288.19	4.85
288.567	3.96
288.945	3.93
289.322	4.09
289.699	3.74
290.076	4.13
290.453	4.14
290.83	4.11
291.207	3.79
291.584	3.49
291.961	4.01
292.338	4.14
292.715	4.27
293.092	3.82
293.469	4.43
293.845	3.93
294.222	4.06
294.599	4.51
294.975	4.1
295.352	3.41
295.728	3.98
296.105	4.06
296.481	4.04
296.858	3.62
297.234	4.01
297.61	4.13
297.986	4
298.363	3.6
298.739	4.32
299.115	3.65
299.491	3.99
299.867	3.73
300.243	4.06
300.619	3.47
300.995	3.98
301.371	4.08
301.746	3.8
302.122	3.88
302.498	3.96
302.874	4
303.249	3.84
303.625	3.67
304	3.28
304.376	3.78
304.751	3.75
305.127	3.65
305.502	4.05
305.878	3.42
306.253	3.6
306.628	4.3
307.003	3.67
307.378	3.44
307.754	4.2
308.129	3.73
308.504	3.46
308.879	3.74
309.254	4.42
309.629	4.21
310.003	4.14
310.378	4.39
310.753	3.91
311.128	3.79
311.502	3.58
311.877	3.5
312.252	3.89
312.626	3.42
313.001	3.69
313.375	3.48
313.75	3.45
314.124	4.45
314.498	3.76
314.873	4.14
315.247	3.45
315.621	3.54
315.995	3.21
316.369	3.98
316.743	4.29
317.117	3.59
317.491	4.23
317.865	3.54
318.239	3.83
318.613	3.66
318.987	3.81
319.361	3.93
319.734	3.6
320.108	3.58
320.482	3.55
320.855	4.03
321.229	4.38
321.602	3.56
321.976	3.54
322.349	3.04
322.723	3.11
323.096	3.47
323.469	3.13
323.843	3.85
324.216	3.48
324.589	3.95
324.962	3.98
325.335	3.59
325.708	3.91
326.081	4.39
326.454	3.82
326.827	4.3
327.2	3.98
327.573	3.98
327.945	3.44
328.318	3.79
328.691	4.43
329.063	3.54
329.436	3.54
329.809	3.79
330.181	3.63
330.553	4.27
330.926	4.23
331.298	3.66
331.671	3.63
332.043	3.69
332.415	4.16
332.787	4.78
333.159	3.64
333.532	3.88
333.904	4.01
334.276	4.14
334.648	3.75
335.02	3.48
335.391	4.14
335.763	4.12
336.135	3.53
336.507	4.06
336.879	3.69
337.25	4.4
337.622	3.91
337.993	3.9
338.365	3.99
338.736	4.13
339.108	3.64
339.479	3.65
339.851	4.3
340.222	4.15
340.593	3.71
340.964	3.87
341.336	3.79
341.707	3.98
342.078	3.21
342.449	4.39
342.82	3.98
343.191	3.53
343.562	3.98
343.933	3.76
344.303	4.04
344.674	4.1
345.045	4.27
345.416	3.44
345.786	3.7
346.157	3.88
346.527	3.76
346.898	3.97
347.268	3.9
347.639	4.18
348.009	4.19
348.38	4
348.75	3.6
349.12	4.27
349.49	3.73
349.861	4.43
350.231	4.04
350.601	4.3
350.971	3.7
351.341	4.01
351.711	3.75
352.081	4.38
352.45	4.2
352.82	3.93
353.19	3.66
353.56	3.92
353.929	4.44
354.299	3.88
354.669	3.74
355.038	3.84
355.408	4.33
355.777	3.72
356.147	4.61
356.516	4.43
356.885	3.86
357.254	4.08
357.624	4.39
357.993	4.12
358.362	4.18
358.731	4.27
359.1	4.16
359.469	3.99
359.838	4.09
360.207	4.15
360.576	3.89
360.945	3.84
361.314	4.24
361.682	3.95
362.051	3.97
362.42	4.41
362.788	4.17
363.157	3.84
363.525	4.14
363.894	3.97
364.262	4.4
364.631	4.68
364.999	4.04
365.367	4.42
365.735	3.74
366.104	3.85
366.472	4.26
366.84	4.32
367.208	3.73
367.576	4.11
367.944	4.48
368.312	3.79
368.68	4.31
369.048	4.34
369.416	4.1
369.783	4.13
370.151	4.11
370.519	4.12
370.886	4.04
371.254	4.35
371.621	4.41
371.989	4.36
372.356	3.76
372.724	4.32
373.091	4.08
373.458	3.98
373.826	4.04
374.193	4.42
374.56	4.22
374.927	4.15
375.294	4.49
375.661	4.26
376.028	4.18
376.395	4.24
376.762	4.44
377.129	4.32
377.496	4.25
377.863	4.52
378.229	4.39
378.596	4.37
378.963	4.19
379.329	4.23
379.696	4.56
380.062	4.49
380.429	4.48
380.795	3.97
381.161	4.2
381.528	4.08
381.894	4.33
382.26	4.07
382.626	4.08
382.993	4.16
383.359	3.97
383.725	4.36
384.091	4.05
384.457	4.44
384.823	4.39
385.188	4.69
385.554	4.46
385.92	4.59
386.286	4.34
386.651	4.27
387.017	4.45
387.383	4.39
387.748	4.02
388.114	4.36
388.479	4.34
388.845	4.47
389.21	4.53
389.575	4.52
389.94	4.27
390.306	4.16
390.671	4.19
391.036	4.52
391.401	4.49
391.766	4.44
392.131	4.1
392.496	4.45
392.861	4.2
393.226	4.34
393.591	4.56
393.956	4.39
394.32	4.29
394.685	4.52
395.05	4.19
395.414	4.34
395.779	4.27
396.143	4.33
396.508	4.59
396.872	4.69
397.236	4.34
397.601	4.53
397.965	4.06
398.329	4.69
398.694	4.51
399.058	4.49
399.422	4.68
399.786	4.31
400.15	4.34
400.514	4.37
400.878	4.49
401.242	4.57
401.605	4.41
401.969	4.59
402.333	4.37
402.697	4.74
403.06	4.74
403.424	4.38
403.787	4.93
404.151	4.36
404.514	4.46
404.878	4.54
405.241	4.61
405.604	4.46
405.968	4.38
406.331	4.4
406.694	4.48
407.057	4.7
407.42	4.37
407.783	4.56
408.146	4.43
408.509	4.32
408.872	4.44
409.235	4.58
409.598	4.72
409.961	4.87
410.323	4.46
410.686	4.56
411.049	4.34
411.411	4.64
411.774	4.41
412.136	4.39
412.499	4.52
412.861	4.31
413.223	4.56
413.586	4.53
413.948	4.44
414.31	4.56
414.672	4.57
415.035	4.52
415.397	4.56
415.759	4.49
416.121	4.77
416.483	4.69
416.845	4.52
417.206	4.53
417.568	4.45
417.93	4.26
418.292	4.57
418.653	4.66
419.015	4.68
419.377	4.64
419.738	4.39
420.1	4.53
420.461	4.5
420.822	4.55
421.184	4.61
421.545	4.57
421.906	4.44
422.267	4.38
422.629	4.35
422.99	4.49
423.351	4.56
423.712	4.51
424.073	4.61
424.434	4.44
424.795	4.43
425.155	4.42
425.516	4.4
425.877	4.46
426.238	4.4
426.598	4.54
426.959	4.4
427.32	4.65
427.68	4.61
428.041	4.71
428.401	4.53
428.761	4.59
429.122	4.61
429.482	4.36
429.842	4.41
430.202	4.45
430.563	4.68
430.923	4.45
431.283	4.7
431.643	4.58
432.003	4.69
432.363	4.65
432.722	4.4
433.082	4.41
433.442	4.59
433.802	4.51
434.161	4.56
434.521	4.48
434.881	4.58
435.24	4.42
435.6	4.58
435.959	4.61
436.319	4.45
436.678	4.57
437.037	4.56
437.396	4.59
437.756	4.74
438.115	4.56
438.474	4.64
438.833	4.61
439.192	4.73
439.551	4.55
439.91	4.58
440.269	4.61
440.628	4.62
440.987	4.42
441.345	4.6
441.704	4.7
442.063	4.53
442.421	4.61
442.78	4.55
443.138	4.54
443.497	4.57
443.855	4.57
444.214	4.64
444.572	4.55
444.93	4.74
445.288	4.82
445.647	4.65
446.005	4.39
446.363	4.46
446.721	4.43
447.079	4.54
447.437	4.54
447.795	4.53
448.153	4.49
448.51	4.43
448.868	4.66
449.226	4.55
449.584	4.61
449.941	4.69
450.299	4.65
450.656	4.53
451.014	4.64
451.371	4.68
451.729	4.62
452.086	4.5
452.443	4.61
452.801	4.68
453.158	4.43
453.515	4.54
453.872	4.67
454.229	4.48
454.586	4.45
454.943	4.52
455.3	4.83
455.657	4.58
456.014	4.62
456.371	4.63
456.727	4.64
457.084	4.57
457.441	4.51
457.797	4.59
458.154	4.55
458.51	4.4
458.867	4.57
459.223	4.5
459.58	4.66
459.936	4.43
460.292	4.59
460.648	4.36
461.005	4.43
461.361	4.47
461.717	4.51
462.073	4.75
462.429	4.59
462.785	4.69
463.141	4.66
463.496	4.58
463.852	4.85
464.208	4.55
464.564	4.48
464.919	4.49
465.275	4.6
465.631	4.66
465.986	4.47
466.342	4.51
466.697	4.63
467.052	4.66
467.408	4.69
467.763	4.51
468.118	4.65
468.473	4.73
468.829	4.49
469.184	4.71
469.539	4.5
469.894	4.6
470.249	4.63
470.603	4.46
470.958	4.71
471.313	4.6
471.668	4.73
472.023	4.74
472.377	4.65
472.732	4.49
473.086	4.46
473.441	4.55
473.795	4.76
474.15	4.65
474.504	4.48
474.859	4.62
475.213	4.6
475.567	4.52
475.921	4.69
476.275	4.63
476.63	4.62
476.984	4.44
477.338	4.75
477.692	4.52
478.045	4.48
478.399	4.58
478.753	4.54
479.107	4.55
479.461	4.58
479.814	4.67
480.168	4.59
480.521	4.58
480.875	4.77
481.228	4.75
481.582	4.35
481.935	4.43
482.289	4.4
482.642	4.5
482.995	4.53
483.348	4.49
483.701	4.42
484.055	4.39
484.408	4.41
484.761	4.22
485.114	4.15
485.466	4.22
485.819	4.3
486.172	4.41
486.525	4.53
486.878	4.54
487.23	4.56
487.583	4.53
487.936	4.47
488.288	4.34
488.641	4.36
488.993	4.25
489.345	4.34
489.698	4.38
490.05	4.42
490.402	4.52
490.754	4.6
491.107	4.46
491.459	4.58
491.811	4.5
492.163	4.55
492.515	4.44
492.866	4.2
493.218	4.27
493.57	4.47
493.922	4.52
494.274	4.61
494.625	4.51
494.977	4.56
495.328	4.62
495.68	4.65
496.031	4.55
496.383	4.53
496.734	4.59
497.086	4.43
497.437	4.63
497.788	4.56
498.139	4.52
498.49	4.57
498.842	4.54
499.193	4.57
499.544	4.6
499.894	4.59
500.245	4.57
500.596	4.54
500.947	4.55
501.298	4.57
501.648	4.55
501.999	4.74
502.35	4.78
502.7	4.62
503.051	4.75
503.401	4.66
503.752	4.55
504.102	4.57
504.452	4.45
504.803	4.38
505.153	4.58
505.503	4.6
505.853	4.43
506.203	4.59
506.553	4.61
506.903	4.47
507.253	4.62
507.603	4.43
507.953	4.72
508.303	4.56
508.652	4.57
509.002	4.66
509.352	4.59
509.701	4.54
510.051	4.65
510.4	4.53
510.75	4.43
511.099	4.54
511.449	4.42
511.798	4.59
512.147	4.67
512.496	4.56
512.846	4.5
513.195	4.66
513.544	4.49
513.893	4.35
514.242	4.61
514.591	4.64
514.939	4.64
515.288	4.57
515.637	4.67
515.986	4.56
516.334	4.65
516.683	4.61
517.032	4.53
517.38	4.63
517.729	4.59
518.077	4.52
518.426	4.48
518.774	4.57
519.122	4.51
519.47	4.41
519.819	4.4
520.167	4.46
520.515	4.46
520.863	4.61
521.211	4.48
521.559	4.55
521.907	4.54
522.255	4.61
522.602	4.64
522.95	4.65
523.298	4.61
523.645	4.55
523.993	4.66
524.341	4.59
524.688	4.5
525.036	4.62
525.383	4.75
525.73	4.62
526.078	4.58
526.425	4.48
526.772	4.29
527.119	4.44
527.466	4.5
527.814	4.53
528.161	4.49
528.508	4.43
528.854	4.37
529.201	4.43
529.548	4.33
529.895	4.23
530.242	4.23
530.588	4.37
530.935	4.46
531.282	4.49
531.628	4.54
531.975	4.57
532.321	4.54
532.667	4.58
533.014	4.57
533.36	4.49
533.706	4.53
534.052	4.44
534.399	4.36
534.745	4.3
535.091	4.47
535.437	4.48
535.783	4.61
536.129	4.6
536.474	4.66
536.82	4.55
537.166	4.61
537.512	4.59
537.857	4.45
538.203	4.46
538.549	4.46
538.894	4.6
539.239	4.75
539.585	4.69
539.93	4.61
540.276	4.59
540.621	4.6
540.966	4.62
541.311	4.69
541.656	4.49
542.001	4.5
542.346	4.44
542.691	4.31
543.036	4.31
543.381	4.5
543.726	4.56
544.071	4.63
544.415	4.52
544.76	4.54
545.105	4.56
545.449	4.44
545.794	4.56
546.138	4.67
546.483	4.58
546.827	4.57
547.171	4.5
547.516	4.66
547.86	4.56
548.204	4.5
548.548	4.65
548.892	4.58
549.236	4.73
549.58	4.66
549.924	4.6
550.268	4.69
550.612	4.73
550.956	4.79
551.3	4.61
551.643	4.62
551.987	4.5
552.33	4.6
552.674	4.67
553.017	4.7
553.361	4.64
553.704	4.41
554.048	4.72
554.391	4.68
554.734	4.6
555.077	4.66
555.42	4.74
555.764	4.68
556.107	4.74
556.45	4.55
556.793	4.75
557.135	4.89
557.478	4.71
557.821	4.57
558.164	4.71
558.507	4.67
558.849	4.62
559.192	4.86
559.534	4.5
559.877	4.79
560.219	4.8
560.562	4.5
560.904	4.68
561.246	4.82
561.589	4.77
561.931	4.83
562.273	4.66
562.615	4.75
562.957	4.78
563.299	4.8
563.641	4.82
563.983	4.78
564.325	4.4
564.667	4.64
565.008	4.52
565.35	4.84
565.692	4.77
566.033	4.69
566.375	4.72
566.716	4.63
567.058	4.69
567.399	4.75
567.741	4.66
568.082	4.74
568.423	4.58
568.764	4.64
569.105	4.74
569.447	4.73
569.788	4.74
570.129	4.73
570.47	4.76
570.811	4.67
571.151	4.61
571.492	4.8
571.833	4.78
572.174	4.61
572.514	4.64
572.855	4.73
573.195	4.57
573.536	4.54
573.876	4.7
574.217	4.66
574.557	4.81
574.898	4.62
575.238	4.67
575.578	4.65
575.918	4.78
576.258	4.71
576.598	4.61
576.938	4.91
577.278	4.78
577.618	4.52
577.958	4.61
578.298	4.76
578.638	4.77
578.977	4.64
579.317	4.71
579.657	4.63
579.996	4.89
580.336	4.62
580.675	4.7
581.014	4.7
581.354	4.78
581.693	4.76
582.032	4.62
582.372	4.75
582.711	4.68
583.05	5.03
583.389	4.8
583.728	4.83
584.067	4.56
584.406	4.97
584.745	4.52
585.083	4.96
585.422	4.69
585.761	4.88
586.1	4.8
586.438	4.76
586.777	4.68
587.115	4.94
587.454	4.74
587.792	4.76
588.13	4.91
588.469	4.93
588.807	4.88
589.145	4.8
589.483	4.61
589.821	4.74
590.159	4.79
590.497	4.34
590.835	4.81
591.173	4.8
591.511	4.94
591.849	4.82
592.187	4.95
592.524	4.65
592.862	4.96
593.2	4.9
593.537	4.87
593.875	4.87
594.212	4.76
594.55	4.9
594.887	5.16
595.224	4.89
595.561	4.85
595.899	4.82
596.236	4.73
596.573	4.61
596.91	4.96
597.247	4.84
597.584	4.91
597.921	4.73
598.258	4.75
598.594	4.56
598.931	4.71
599.268	4.67
599.604	4.94
599.941	4.8
600.277	4.73
600.614	4.95
600.95	4.91
601.287	4.78
601.623	5.01
601.959	4.78
602.296	4.62
602.632	5.11
602.968	4.76
603.304	4.86
603.64	4.94
603.976	5.03
604.312	4.85
604.648	4.71
604.984	5.03
605.319	4.74
605.655	4.76
605.991	4.89
606.326	4.77
606.662	4.8
606.998	4.77
607.333	4.96
607.668	4.89
608.004	5.01
608.339	4.71
608.674	4.81
609.01	5.01
609.345	5.29
609.68	4.72
610.015	4.69
610.35	4.71
610.685	4.96
611.02	5.04
611.355	4.99
611.689	4.65
612.024	5.11
612.359	4.9
612.694	5.07
613.028	5.12
613.363	4.73
613.697	5.19
614.032	5.35
614.366	4.78
614.7	5.3
615.035	4.98
615.369	5.06
615.703	5.34
616.037	4.76
616.371	4.57
616.705	4.75
617.039	5.06
617.373	4.97
617.707	4.88
618.041	4.9
618.375	4.84
618.709	5.05
619.042	4.8
619.376	4.96
619.71	4.76
620.043	4.73
620.377	4.76
620.71	5.12
621.043	4.91
621.377	4.78
621.71	5.06
622.043	5.08
622.376	4.9
622.709	5.33
623.043	4.63
623.376	4.91
623.709	5.33
624.041	5.16
624.374	4.88
624.707	5.3
625.04	4.92
625.373	5.21
625.705	5.26
626.038	4.71
626.37	4.8
626.703	5
627.035	4.89
627.368	5.2
627.7	5.1
628.032	5.05
628.365	4.65
628.697	4.99
629.029	5.11
629.361	4.99
629.693	5.2
630.025	5.09
630.357	4.75
630.689	4.99
631.021	4.99
631.353	5.25
631.684	5.09
632.016	4.79
632.348	5.23
632.679	4.91
633.011	4.93
633.342	4.78
633.674	5.1
634.005	5.07
634.336	4.95
634.668	5.19
634.999	5.28
635.33	5.03
635.661	5.39
635.992	4.85
636.323	4.89
636.654	5.32
636.985	4.71
637.316	5.04
637.647	4.94
637.977	5.01
638.308	4.79
638.639	4.96
638.969	4.83
639.3	5.46
639.63	5.23
639.961	5.16
640.291	5.29
640.622	5.22
640.952	5.02
641.282	4.21
641.612	5.06
641.943	5.47
642.273	5.02
642.603	5.18
642.933	4.82
643.263	5.07
643.592	5.17
643.922	5.45
644.252	5.11
644.582	5.04
644.911	4.73
645.241	4.88
645.571	4.68
645.9	5.49
646.23	4.77
646.559	5.1
646.888	4.84
647.218	5.15
647.547	5.4
647.876	5.28
648.205	5.07
648.534	4.83
648.863	5.24
649.192	4.93
649.521	4.75
649.85	5.28
650.179	5.02
650.508	5.63
650.837	5.06
651.165	5.36
651.494	4.98
651.822	4.86
652.151	5.42
652.479	5.61
652.808	4.77
653.136	5.19
653.465	5.7
653.793	5.04
654.121	5.09
654.449	5.35
654.777	5.04
655.105	5.49
655.433	5.65
655.761	4.86
656.089	5.39
656.417	4.45
656.745	5.94
657.073	5.48
657.4	5.11
657.728	5.14
658.056	5.04
658.383	5.05
658.711	4.75
659.038	5.24
659.365	5.07
659.693	5.07
660.02	5.16
660.347	5.29
660.674	4.94
661.001	4.97
661.329	5.39
661.656	5.14
661.982	5.46
662.309	5.44
662.636	5.03
662.963	4.9
663.29	5.2
663.616	5
663.943	5.29
664.27	5.41
664.596	5.2
664.923	5.42
665.249	5.27
665.576	4.19
665.902	4.64
666.228	5.17
666.554	5.23
666.881	5.69
667.207	5.38
667.533	5.4
667.859	5.11
668.185	5.51
668.511	4.93
668.837	5.23
669.162	5.19
669.488	5.22
669.814	5.63
670.139	5.94
670.465	5.22
670.791	5.59
671.116	4.86
671.442	5.18
671.767	5.11
672.092	5.52
672.418	5.22
672.743	4.86
673.068	4.71
673.393	5.2
673.718	4.61
674.043	5.42
674.368	5.93
674.693	5.82
675.018	5.19
675.343	5.43
675.667	5.03
675.992	4.5
676.317	5.09
676.641	5.88
676.966	5.31
677.29	5.38
677.615	5.69
677.939	5.36
678.264	5.54
678.588	5.51
678.912	5.55
679.236	5.38
679.56	4.86
679.885	5.43
680.209	4.38
680.532	5.02
680.856	5.6
681.18	5.68
681.504	5.28
681.828	5.35
682.152	5.52
682.475	5.43
682.799	5.7
683.122	4.96
683.446	5.21
683.769	5.5
684.093	5.41
684.416	5.27
684.739	5.66
685.062	5.56
685.386	5.16
685.709	5.61
686.032	5.18
686.355	5.63
686.678	5.71
687.001	4.89
687.324	4.77
687.646	5.18
687.969	5.49
688.292	6.03
688.614	5.7
688.937	5.03
689.26	4.72
689.582	5.1
689.904	6.07
690.227	5.37
690.549	5.33
690.871	5.75
691.194	5.98
691.516	5.73
691.838	5.61
