Data from 0071_forehead_Reflection__1__325.txt Node

Date: Fri Dec 16 16:40:35 CST 2022
User: ToomeyLab
Spectrometer: FLMS14357
Trigger mode: 0
Integration Time (sec): 1.000000E-2
Scans to average: 100
Electric dark correction enabled: true
Nonlinearity correction enabled: false
Boxcar width: 0
XAxis mode: Wavelengths
Number of Pixels in Spectrum: 2048
>>>>>Begin Spectral Data<<<<<
189.047	-1751.43
189.435	-1751.43
189.823	-1751.43
190.211	94.27
190.599	-85.21
190.987	-23.78
191.375	118.29
191.763	6740.96
192.151	238.44
192.538	76.65
192.926	-55.56
193.314	135.72
193.702	-7581.72
194.089	-642.8
194.477	-563.83
194.864	69.41
195.252	-126.78
195.639	44.72
196.027	-517.37
196.414	1258.13
196.801	-144.61
197.189	63.12
197.576	-314.02
197.963	138.47
198.351	42.44
198.738	18.6
199.125	34.22
199.512	-27.09
199.899	-49.9
200.286	-67.16
200.673	35
201.06	77.38
201.447	35.18
201.833	29.4
202.22	22.9
202.607	-55.61
202.994	-20.04
203.38	-58.37
203.767	-20.08
204.154	-48.96
204.54	-14.19
204.927	15.28
205.313	22.31
205.699	-10.43
206.086	-27.19
206.472	-5.41
206.858	-0.49
207.245	26.67
207.631	16.01
208.017	18.87
208.403	39.97
208.789	-0.05
209.175	45.26
209.561	-23.09
209.947	12.97
210.333	-21.52
210.719	-94.07
211.105	-53.91
211.491	-36.67
211.876	-8.92
212.262	15.26
212.648	-24.71
213.034	-63.22
213.419	18.92
213.805	9.7
214.19	-21.18
214.576	8.66
214.961	5.28
215.346	5.61
215.732	-30.25
216.117	-27.78
216.502	0.55
216.888	-2.87
217.273	5.98
217.658	-60.85
218.043	-7.34
218.428	-13.77
218.813	-34.45
219.198	-16.74
219.583	8.68
219.968	10.18
220.353	2.16
220.738	-15.61
221.122	-7.34
221.507	-7.61
221.892	-11
222.276	8.85
222.661	-5.05
223.046	3.14
223.43	-2.36
223.815	3.87
224.199	2.78
224.583	-8.11
224.968	5.5
225.352	-5.78
225.736	13.6
226.121	1.86
226.505	2.09
226.889	9.38
227.273	0.77
227.657	0.87
228.041	-0.65
228.425	4.12
228.809	1.41
229.193	-0.42
229.577	1.51
229.961	2.54
230.344	2.09
230.728	2.28
231.112	1.81
231.495	2.4
231.879	2.93
232.263	-0.37
232.646	1.74
233.03	0.41
233.413	1.11
233.797	5.82
234.18	0.17
234.563	-0.02
234.946	2.58
235.33	1.26
235.713	2.13
236.096	0.7
236.479	2.46
236.862	1.61
237.245	3.31
237.628	1.72
238.011	1.53
238.394	3.23
238.777	2.52
239.16	-1.5
239.543	-1.24
239.925	2.45
240.308	1.77
240.691	1.39
241.073	3.07
241.456	1.9
241.838	3.5
242.221	4.39
242.603	2.58
242.986	3.23
243.368	1.79
243.75	1.88
244.133	2.51
244.515	2.53
244.897	1.84
245.279	2.69
245.661	1.73
246.043	2.05
246.425	2.23
246.807	3.13
247.189	2.2
247.571	2.52
247.953	2.57
248.335	2.55
248.717	2.62
249.098	2.5
249.48	2.43
249.862	2.53
250.243	2.43
250.625	2.08
251.006	2.86
251.388	2.92
251.769	2.03
252.151	1.85
252.532	3.29
252.913	3.04
253.295	2.43
253.676	3.08
254.057	2.17
254.438	2.6
254.819	2.88
255.2	1.85
255.581	1.96
255.962	3.02
256.343	3.36
256.724	1.65
257.105	3.14
257.486	2.61
257.867	1.85
258.247	2.59
258.628	2.55
259.009	2.53
259.389	2.57
259.77	2.71
260.15	2.76
260.531	2.38
260.911	2.51
261.292	2.51
261.672	2.53
262.052	2.46
262.432	2.48
262.813	3.04
263.193	2.23
263.573	2.83
263.953	2.71
264.333	2.68
264.713	2.18
265.093	2.87
265.473	3.1
265.853	3.07
266.233	1.77
266.612	2.17
266.992	2.26
267.372	2.67
267.752	2.06
268.131	2.93
268.511	2.82
268.89	2.32
269.27	2.6
269.649	2.77
270.029	2.2
270.408	2.23
270.787	1.97
271.167	2.86
271.546	1.89
271.925	2.68
272.304	2.51
272.683	2.43
273.062	2.81
273.441	2.91
273.82	2.8
274.199	2.68
274.578	2.35
274.957	2.78
275.336	2.53
275.715	2.94
276.093	2.56
276.472	2.29
276.851	2.53
277.229	2.58
277.608	2.82
277.986	2.23
278.365	2.22
278.743	2.72
279.122	1.86
279.5	1.82
279.878	2.27
280.257	2.8
280.635	2.13
281.013	2.63
281.391	2.4
281.769	2.5
282.147	2.97
282.525	1.93
282.903	2.68
283.281	2.32
283.659	2.85
284.037	2.08
284.415	2.32
284.792	2.7
285.17	2.29
285.548	2.39
285.925	2.47
286.303	2.26
286.68	2.63
287.058	2.71
287.435	2.38
287.813	2.7
288.19	2.98
288.567	2.2
288.945	2.62
289.322	2.77
289.699	2.3
290.076	2.64
290.453	2.81
290.83	2.47
291.207	2.59
291.584	2.61
291.961	2.9
292.338	3
292.715	3.05
293.092	2.67
293.469	3.03
293.845	3.19
294.222	2.74
294.599	3.21
294.975	3.83
295.352	2.64
295.728	3.45
296.105	3.1
296.481	3.46
296.858	3.15
297.234	3.06
297.61	3.33
297.986	3.28
298.363	3.09
298.739	3.41
299.115	2.92
299.491	3.49
299.867	3.52
300.243	3.12
300.619	3.69
300.995	3.83
301.371	3.73
301.746	3.19
302.122	3.55
302.498	3.66
302.874	4.02
303.249	3.71
303.625	3.65
304	3.3
304.376	4.01
304.751	3.34
305.127	3.84
305.502	4.01
305.878	3.55
306.253	3.6
306.628	4.32
307.003	3.9
307.378	3.69
307.754	4.19
308.129	3.58
308.504	3.74
308.879	4.07
309.254	4.55
309.629	4.16
310.003	4.12
310.378	3.86
310.753	3.99
311.128	4.24
311.502	4.2
311.877	3.99
312.252	4.27
312.626	4.16
313.001	4.26
313.375	4.28
313.75	4.19
314.124	4.83
314.498	4.48
314.873	4.42
315.247	3.89
315.621	4.94
315.995	4.45
316.369	4.54
316.743	4.97
317.117	4.86
317.491	5.01
317.865	4.02
318.239	5.04
318.613	4.53
318.987	5.18
319.361	5.34
319.734	4.92
320.108	5.05
320.482	5.03
320.855	5.12
321.229	5.25
321.602	5.41
321.976	5.19
322.349	4.67
322.723	4.54
323.096	4.72
323.469	5.02
323.843	5.14
324.216	4.99
324.589	6.06
324.962	5.67
325.335	5.57
325.708	5.74
326.081	6.22
326.454	5.45
326.827	5.72
327.2	5.76
327.573	5.67
327.945	5.55
328.318	5.93
328.691	5.71
329.063	5.98
329.436	5.5
329.809	5.71
330.181	6.32
330.553	6.53
330.926	5.99
331.298	5.48
331.671	5.87
332.043	5.81
332.415	6.03
332.787	6.53
333.159	6.16
333.532	5.75
333.904	6.34
334.276	6.6
334.648	6.07
335.02	5.75
335.391	6.07
335.763	6.15
336.135	6.24
336.507	6.73
336.879	6.42
337.25	6.12
337.622	6.42
337.993	6.35
338.365	6.85
338.736	6.53
339.108	6.49
339.479	6.61
339.851	7.01
340.222	6.52
340.593	6.22
340.964	7.12
341.336	6.19
341.707	6.17
342.078	6.13
342.449	6.99
342.82	6.81
343.191	6.85
343.562	6.81
343.933	7.25
344.303	7.12
344.674	6.85
345.045	7.53
345.416	7.24
345.786	6.83
346.157	7.18
346.527	7.38
346.898	7.05
347.268	7.25
347.639	7.4
348.009	7.73
348.38	7.55
348.75	7.67
349.12	7.31
349.49	7.4
349.861	7.88
350.231	7.68
350.601	7.76
350.971	7.39
351.341	7.66
351.711	7.75
352.081	7.43
352.45	7.66
352.82	7.68
353.19	7.69
353.56	7.52
353.929	8.1
354.299	8.11
354.669	8.21
355.038	7.95
355.408	8.54
355.777	7.97
356.147	8.52
356.516	8.4
356.885	8.19
357.254	8.58
357.624	8.31
357.993	8.19
358.362	8.76
358.731	8.38
359.1	8.49
359.469	8.14
359.838	8.25
360.207	8.53
360.576	8.68
360.945	8.51
361.314	8.99
361.682	8.31
362.051	8.74
362.42	9.01
362.788	8.64
363.157	8.37
363.525	8.68
363.894	8.71
364.262	8.72
364.631	9.68
364.999	8.93
365.367	8.95
365.735	8.49
366.104	8.64
366.472	9.46
366.84	9.47
367.208	8.84
367.576	9.39
367.944	9.53
368.312	8.98
368.68	9.35
369.048	9.27
369.416	9.48
369.783	9.48
370.151	9.59
370.519	9.35
370.886	9.55
371.254	9.57
371.621	9.78
371.989	9.63
372.356	9.81
372.724	9.5
373.091	9.67
373.458	9.85
373.826	9.74
374.193	10.06
374.56	9.81
374.927	10.06
375.294	10.08
375.661	10.17
376.028	10.05
376.395	10.12
376.762	10.02
377.129	10.45
377.496	10.62
377.863	10.27
378.229	10.39
378.596	10.08
378.963	10.2
379.329	10.44
379.696	10.5
380.062	10.76
380.429	10.69
380.795	10.38
381.161	10.82
381.528	10.13
381.894	10.55
382.26	10.56
382.626	10.76
382.993	10.77
383.359	10.63
383.725	11.02
384.091	11.1
384.457	11.02
384.823	11.26
385.188	11.15
385.554	11.16
385.92	11.28
386.286	11.19
386.651	11.29
387.017	11.54
387.383	10.96
387.748	11.16
388.114	11.43
388.479	11.43
388.845	11.72
389.21	11.44
389.575	11.29
389.94	11.56
390.306	11.48
390.671	11.76
391.036	11.93
391.401	12.03
391.766	11.58
392.131	11.77
392.496	11.61
392.861	11.26
393.226	11.93
393.591	11.89
393.956	12.23
394.32	12.01
394.685	12.03
395.05	12.07
395.414	12.04
395.779	12.14
396.143	12.11
396.508	12.13
396.872	12.38
397.236	12.12
397.601	12.36
397.965	12.24
398.329	12.44
398.694	12.25
399.058	12.43
399.422	12.66
399.786	12.56
400.15	12.47
400.514	12.46
400.878	12.42
401.242	12.71
401.605	12.67
401.969	12.87
402.333	12.68
402.697	12.97
403.06	13.09
403.424	12.67
403.787	12.93
404.151	12.96
404.514	13.24
404.878	12.96
405.241	13.12
405.604	13.11
405.968	13.11
406.331	13.19
406.694	13.46
407.057	13.54
407.42	13.38
407.783	13.33
408.146	13.16
408.509	13.33
408.872	13.08
409.235	13.47
409.598	13.7
409.961	13.59
410.323	13.73
410.686	13.65
411.049	13.41
411.411	13.51
411.774	13.67
412.136	13.62
412.499	13.53
412.861	13.66
413.223	13.8
413.586	13.74
413.948	13.76
414.31	13.98
414.672	13.84
415.035	14.22
415.397	14.1
415.759	14.08
416.121	14.26
416.483	14.23
416.845	14.1
417.206	14.39
417.568	14.18
417.93	14.11
418.292	14.19
418.653	13.95
419.015	14.23
419.377	14.19
419.738	14.22
420.1	14.1
420.461	14.16
420.822	14.2
421.184	14.28
421.545	14.17
421.906	14.15
422.267	14.1
422.629	14.25
422.99	14.3
423.351	14.45
423.712	14.51
424.073	14.57
424.434	14.53
424.795	14.47
425.155	14.48
425.516	14.66
425.877	14.81
426.238	14.58
426.598	14.78
426.959	14.75
427.32	14.89
427.68	15.06
428.041	15.25
428.401	15.1
428.761	15.27
429.122	15.21
429.482	15.28
429.842	15.35
430.202	15.31
430.563	15.34
430.923	15.42
431.283	15.58
431.643	15.69
432.003	15.55
432.363	15.64
432.722	15.8
433.082	15.62
433.442	15.69
433.802	15.91
434.161	15.76
434.521	15.73
434.881	15.96
435.24	15.73
435.6	15.81
435.959	15.86
436.319	16.05
436.678	16.25
437.037	16.3
437.396	16.24
437.756	16.32
438.115	16.4
438.474	16.37
438.833	16.28
439.192	16.46
439.551	16.49
439.91	16.42
440.269	16.43
440.628	16.44
440.987	16.32
441.345	16.27
441.704	16.46
442.063	16.38
442.421	16.46
442.78	16.55
443.138	16.55
443.497	16.77
443.855	16.78
444.214	16.91
444.572	16.95
444.93	16.94
445.288	17.21
445.647	17.01
446.005	16.67
446.363	16.86
446.721	16.84
447.079	16.87
447.437	16.75
447.795	16.89
448.153	16.81
448.51	16.9
448.868	17.1
449.226	17.11
449.584	17.42
449.941	17.39
450.299	17.47
450.656	17.56
451.014	17.58
451.371	17.64
451.729	17.57
452.086	17.69
452.443	17.68
452.801	17.67
453.158	17.8
453.515	17.65
453.872	17.72
454.229	17.7
454.586	18
454.943	18.07
455.3	18.21
455.657	18
456.014	18.2
456.371	18.26
456.727	18.07
457.084	18.13
457.441	18.22
457.797	18.37
458.154	18.45
458.51	18.26
458.867	18.42
459.223	18.53
459.58	18.21
459.936	18.33
460.292	18.37
460.648	18.2
461.005	18.16
461.361	18.09
461.717	18.24
462.073	18.53
462.429	18.55
462.785	18.74
463.141	18.77
463.496	18.92
463.852	19.22
464.208	19.08
464.564	18.77
464.919	18.99
465.275	19.27
465.631	19.03
465.986	19.17
466.342	19.11
466.697	19.32
467.052	19.48
467.408	19.57
467.763	19.26
468.118	19.43
468.473	19.57
468.829	19.54
469.184	19.64
469.539	19.4
469.894	19.61
470.249	19.65
470.603	19.68
470.958	20.05
471.313	19.53
471.668	19.9
472.023	20.24
472.377	19.95
472.732	19.99
473.086	20
473.441	20
473.795	20.23
474.15	20.08
474.504	19.99
474.859	20.15
475.213	20.16
475.567	20.08
475.921	20.37
476.275	20.3
476.63	20.29
476.984	20.33
477.338	20.51
477.692	20.33
478.045	20.5
478.399	20.53
478.753	20.19
479.107	20.5
479.461	20.67
479.814	20.46
480.168	20.62
480.521	20.78
480.875	20.83
481.228	20.71
481.582	20.62
481.935	20.68
482.289	20.59
482.642	20.74
482.995	20.65
483.348	20.69
483.701	20.62
484.055	20.3
484.408	20.11
484.761	19.7
485.114	19.43
485.466	19.58
485.819	19.87
486.172	20.19
486.525	20.4
486.878	20.54
487.23	20.75
487.583	20.75
487.936	20.68
488.288	20.27
488.641	20.27
488.993	20.2
489.345	20.31
489.698	20.42
490.05	20.67
490.402	21.03
490.754	21.13
491.107	21.24
491.459	21.34
491.811	21.35
492.163	21.2
492.515	20.94
492.866	20.54
493.218	20.58
493.57	21.02
493.922	21.38
494.274	21.54
494.625	21.8
494.977	21.88
495.328	22.05
495.68	22.27
496.031	22.14
496.383	21.99
496.734	22.18
497.086	22.21
497.437	22.28
497.788	22.13
498.139	22.1
498.49	22.1
498.842	22.19
499.193	22.3
499.544	22.28
499.894	22.41
500.245	22.36
500.596	22.52
500.947	22.64
501.298	22.68
501.648	22.81
501.999	22.88
502.35	22.91
502.7	22.92
503.051	23.18
503.401	23.21
503.752	23.07
504.102	22.96
504.452	23.15
504.803	23.04
505.153	23.14
505.503	23.32
505.853	23.02
506.203	23.3
506.553	23.2
506.903	23.14
507.253	23.38
507.603	23.45
507.953	23.64
508.303	23.44
508.652	23.54
509.002	23.43
509.352	23.64
509.701	23.27
510.051	23.56
510.4	23.24
510.75	23.38
511.099	23.47
511.449	23.55
511.798	23.54
512.147	23.57
512.496	23.73
512.846	23.68
513.195	23.71
513.544	23.63
513.893	23.68
514.242	23.84
514.591	23.79
514.939	24.08
515.288	24.03
515.637	24.11
515.986	23.96
516.334	24.29
516.683	24.23
517.032	24.3
517.38	24.21
517.729	24.18
518.077	24.29
518.426	24.18
518.774	24.23
519.122	24.24
519.47	24.02
519.819	23.68
520.167	23.76
520.515	23.92
520.863	24.11
521.211	24.2
521.559	24.3
521.907	24.33
522.255	24.45
522.602	24.78
522.95	24.76
523.298	24.8
523.645	24.78
523.993	24.79
524.341	24.99
524.688	24.89
525.036	24.87
525.383	24.89
525.73	24.95
526.078	24.9
526.425	24.58
526.772	24.42
527.119	24.29
527.466	24.3
527.814	24.52
528.161	24.59
528.508	24.66
528.854	24.44
529.201	24.26
529.548	23.87
529.895	23.61
530.242	23.75
530.588	24.07
530.935	24.34
531.282	24.47
531.628	24.63
531.975	24.68
532.321	24.88
532.667	25.01
533.014	25.06
533.36	25.08
533.706	25.11
534.052	24.74
534.399	24.51
534.745	24.38
535.091	24.65
535.437	24.9
535.783	25.12
536.129	25.41
536.474	25.49
536.82	25.42
537.166	25.63
537.512	25.54
537.857	25.22
538.203	25.26
538.549	25.54
538.894	25.51
539.239	25.83
539.585	25.81
539.93	26.12
540.276	26.04
540.621	26.1
540.966	25.94
541.311	26.09
541.656	26.05
542.001	25.63
542.346	25.19
542.691	25.06
543.036	25.13
543.381	25.38
543.726	25.72
544.071	25.81
544.415	25.82
544.76	25.65
545.105	25.95
545.449	26.09
545.794	26.32
546.138	26.32
546.483	26.3
546.827	26.48
547.171	26.41
547.516	26.57
547.86	26.47
548.204	26.49
548.548	26.61
548.892	26.38
549.236	26.79
549.58	26.96
549.924	26.93
550.268	27.07
550.612	27.13
550.956	27.14
551.3	27.37
551.643	27.55
551.987	27.34
552.33	27.68
552.674	27.39
553.017	27.69
553.361	27.56
553.704	27.35
554.048	27.31
554.391	27.27
554.734	27.45
555.077	27.57
555.42	27.76
555.764	27.94
556.107	27.79
556.45	27.73
556.793	28.17
557.135	27.96
557.478	27.98
557.821	27.84
558.164	28.17
558.507	27.92
558.849	27.99
559.192	28.32
559.534	28.04
559.877	28.15
560.219	28.35
560.562	28.28
560.904	28.14
561.246	28.4
561.589	28.25
561.931	28.48
562.273	28.31
562.615	28.18
562.957	28.42
563.299	28.5
563.641	28.56
563.983	28.61
564.325	28.47
564.667	28.66
565.008	28.4
565.35	28.58
565.692	28.88
566.033	28.61
566.375	28.24
566.716	28.72
567.058	28.48
567.399	28.53
567.741	28.46
568.082	28.27
568.423	28.54
568.764	28.6
569.105	28.74
569.447	28.74
569.788	28.97
570.129	28.7
570.47	29.14
570.811	28.87
571.151	29.09
571.492	29.14
571.833	28.83
572.174	29
572.514	29.15
572.855	28.92
573.195	28.77
573.536	28.85
573.876	29
574.217	29.12
574.557	29.22
574.898	28.89
575.238	28.99
575.578	29.45
575.918	29.28
576.258	29.14
576.598	29.36
576.938	29.34
577.278	29.13
577.618	29.31
577.958	29.38
578.298	29.46
578.638	29.61
578.977	29.66
579.317	29.83
579.657	29.67
579.996	29.79
580.336	29.98
580.675	29.94
581.014	30.04
581.354	29.96
581.693	30.08
582.032	29.99
582.372	30.19
582.711	30.3
583.05	30.39
583.389	30.2
583.728	30.02
584.067	30.01
584.406	30.41
584.745	30.08
585.083	30.49
585.422	30.6
585.761	30.48
586.1	30.24
586.438	30.53
586.777	30.33
587.115	30.56
587.454	30.65
587.792	30.53
588.13	30.77
588.469	30.6
588.807	30.63
589.145	30.91
589.483	30.7
589.821	30.73
590.159	30.79
590.497	30.4
590.835	30.76
591.173	30.67
591.511	30.93
591.849	30.72
592.187	30.89
592.524	30.56
592.862	30.78
593.2	31.12
593.537	31.26
593.875	31.16
594.212	30.8
594.55	31.17
594.887	31.24
595.224	30.99
595.561	31.19
595.899	31.22
596.236	31.25
596.573	30.9
596.91	31.21
597.247	31.15
597.584	31.09
597.921	31.29
598.258	30.82
598.594	30.74
598.931	30.71
599.268	31.2
599.604	31.3
599.941	31.46
600.277	31.69
600.614	31.57
600.95	31.79
601.287	31.86
601.623	31.47
601.959	31.86
602.296	31.63
602.632	31.93
602.968	31.81
603.304	31.54
603.64	31.51
603.976	31.68
604.312	31.76
604.648	31.71
604.984	31.64
605.319	31.42
605.655	31.28
605.991	31.36
606.326	31.43
606.662	31.55
606.998	31.67
607.333	31.63
607.668	32
608.004	32.02
608.339	32.18
608.674	32.08
609.01	32.42
609.345	32.41
609.68	31.73
610.015	31.9
610.35	31.74
610.685	32.13
611.02	31.77
611.355	31.97
611.689	31.78
612.024	32.5
612.359	32.53
612.694	32.53
613.028	32.79
613.363	32.04
613.697	32.56
614.032	32.48
614.366	32.22
614.7	32.47
615.035	32.77
615.369	32.51
615.703	32.86
616.037	32.77
616.371	32.66
616.705	32.65
617.039	33.32
617.373	32.69
617.707	32.54
618.041	33.02
618.375	32.73
618.709	33
619.042	32.53
619.376	32.59
619.71	32.56
620.043	32.78
620.377	32.97
620.71	32.81
621.043	32.84
621.377	33.12
621.71	33.21
622.043	33.03
622.376	32.94
622.709	33.47
623.043	33.27
623.376	33.26
623.709	33.27
624.041	33.06
624.374	33.07
624.707	33.07
625.04	33.17
625.373	33.45
625.705	33.51
626.038	33.25
626.37	33.49
626.703	33.24
627.035	33.58
627.368	33.56
627.7	33.59
628.032	33.43
628.365	33.3
628.697	33.47
629.029	33.48
629.361	33.66
629.693	33.71
630.025	33.62
630.357	33.92
630.689	33.68
631.021	33.75
631.353	33.99
631.684	33.84
632.016	33.54
632.348	33.96
632.679	34.07
633.011	34.39
633.342	34.07
633.674	34.06
634.005	34.13
634.336	33.84
634.668	34.2
634.999	34.14
635.33	33.88
635.661	34.08
635.992	34.13
636.323	34.35
636.654	34.82
636.985	33.62
637.316	33.92
637.647	34.1
637.977	34.29
638.308	34.58
638.639	34.03
638.969	34.32
639.3	34.54
639.63	34.3
639.961	34.89
640.291	34.99
640.622	34.7
640.952	34.87
641.282	34.3
641.612	34.37
641.943	34.68
642.273	35.18
642.603	34.51
642.933	34.85
643.263	35.17
643.592	34.67
643.922	34.83
644.252	35.09
644.582	34.69
644.911	34.57
645.241	35.42
645.571	35.44
645.9	35.35
646.23	34.61
646.559	34.86
646.888	34.55
647.218	35.07
647.547	35.18
647.876	35.04
648.205	35.31
648.534	34.8
648.863	35.72
649.192	35.35
649.521	35.15
649.85	35.63
650.179	35.69
650.508	35.41
650.837	35.21
651.165	35.13
651.494	35.05
651.822	35.34
652.151	35.5
652.479	35.23
652.808	34.97
653.136	35.17
653.465	34.96
653.793	35.32
654.121	35.54
654.449	35.76
654.777	35.05
655.105	35.9
655.433	35.88
655.761	35.67
656.089	35.68
656.417	36.07
656.745	35.93
657.073	35.96
657.4	35.37
657.728	36.09
658.056	35.89
658.383	35.69
658.711	35.43
659.038	35.54
659.365	36
659.693	35.6
660.02	35.6
660.347	35.1
660.674	35.32
661.001	35.15
661.329	35.41
661.656	35.63
661.982	36.16
662.309	35.94
662.636	35.7
662.963	36.61
663.29	36.86
663.616	35.93
663.943	36.63
664.27	36.44
664.596	36.42
664.923	36.34
665.249	35.98
665.576	36.52
665.902	36.18
666.228	36.78
666.554	36.19
666.881	37.02
667.207	36.2
667.533	36.05
667.859	36.22
668.185	37.02
668.511	36.63
668.837	36.18
669.162	36.84
669.488	36.48
669.814	37.09
670.139	36.52
670.465	37.33
670.791	36.68
671.116	36.95
671.442	36.7
671.767	37.22
