Data from 0071_forehead_Reflection__3__327.txt Node

Date: Fri Dec 16 16:40:58 CST 2022
User: ToomeyLab
Spectrometer: FLMS14357
Trigger mode: 0
Integration Time (sec): 1.000000E-2
Scans to average: 100
Electric dark correction enabled: true
Nonlinearity correction enabled: false
Boxcar width: 0
XAxis mode: Wavelengths
Number of Pixels in Spectrum: 2048
>>>>>Begin Spectral Data<<<<<
189.047	16705.71
189.435	16705.71
189.823	16705.71
190.211	9.17
190.599	40.21
190.987	-13.28
191.375	32.78
191.763	7391.57
192.151	207.32
192.538	163.05
192.926	13
193.314	60.51
193.702	-3413.98
194.089	232.79
194.477	-1752.48
194.864	85.35
195.252	-1.33
195.639	174.11
196.027	-986.85
196.414	-230.43
196.801	-19.44
197.189	182.18
197.576	-124.12
197.963	5.41
198.351	-17.66
198.738	-34.18
199.125	57.65
199.512	29.78
199.899	-26.76
200.286	-38.22
200.673	-10.23
201.06	35.33
201.447	16.21
201.833	-33.73
202.22	-1.73
202.607	29.56
202.994	25.34
203.38	-53.98
203.767	-21.47
204.154	-70.18
204.54	19.1
204.927	23.84
205.313	30.54
205.699	-8.98
206.086	-8.48
206.472	16.54
206.858	-4.03
207.245	10.2
207.631	20.43
208.017	30.27
208.403	15.21
208.789	15.02
209.175	39.02
209.561	4.48
209.947	-18.07
210.333	5.58
210.719	13.02
211.105	27.58
211.491	-10.65
211.876	-8.26
212.262	-29.25
212.648	-8.11
213.034	-4.84
213.419	24.13
213.805	21.56
214.19	-19.75
214.576	6.89
214.961	13.93
215.346	-56.39
215.732	24.11
216.117	17.01
216.502	-11.47
216.888	-32.88
217.273	20.08
217.658	-32.99
218.043	16.51
218.428	-11.93
218.813	-21.88
219.198	-37.76
219.583	-2.8
219.968	3.11
220.353	16.36
220.738	-16.83
221.122	-6.28
221.507	-8.29
221.892	-4.91
222.276	15.84
222.661	-9.87
223.046	5.11
223.43	-11.17
223.815	13.17
224.199	9.22
224.583	-3.1
224.968	11.98
225.352	5.82
225.736	0.62
226.121	-2.35
226.505	2.8
226.889	3.7
227.273	4.69
227.657	-2.04
228.041	8.98
228.425	7.8
228.809	3.66
229.193	3.44
229.577	3.41
229.961	3.51
230.344	3.74
230.728	3.28
231.112	2.31
231.495	3.05
231.879	4.72
232.263	2.57
232.646	1.64
233.03	1.85
233.413	2.55
233.797	4.37
234.18	1.71
234.563	2.9
234.946	2.7
235.33	2.63
235.713	3.16
236.096	2.56
236.479	4.22
236.862	4.01
237.245	2.92
237.628	3.03
238.011	4.22
238.394	4.26
238.777	5.56
239.16	1.47
239.543	1.68
239.925	3.83
240.308	1.91
240.691	3.54
241.073	2.89
241.456	2.56
241.838	3.62
242.221	3.42
242.603	3.41
242.986	4.15
243.368	3.59
243.75	3.62
244.133	3.22
244.515	3.34
244.897	2.95
245.279	3.11
245.661	3.91
246.043	2.22
246.425	3.45
246.807	3.2
247.189	3.16
247.571	3.17
247.953	3.33
248.335	3.62
248.717	3.44
249.098	3.59
249.48	3.18
249.862	3.91
250.243	2.8
250.625	3.27
251.006	3.71
251.388	3.62
251.769	4.85
252.151	2.38
252.532	3.53
252.913	4.03
253.295	3.63
253.676	3.67
254.057	2.97
254.438	3.37
254.819	3.95
255.2	3.3
255.581	3.2
255.962	3.86
256.343	5.18
256.724	3.92
257.105	3.36
257.486	4.12
257.867	3.04
258.247	4.04
258.628	4.01
259.009	3.57
259.389	3.86
259.77	3.69
260.15	4.34
260.531	3.81
260.911	3.73
261.292	3.74
261.672	3.44
262.052	3.53
262.432	3.61
262.813	3.47
263.193	3.45
263.573	3.71
263.953	3.17
264.333	4.04
264.713	3.22
265.093	3.05
265.473	5.07
265.853	3.11
266.233	3.01
266.612	4.05
266.992	2.68
267.372	4.02
267.752	3.5
268.131	3.68
268.511	4.07
268.89	3.6
269.27	3.54
269.649	3.78
270.029	3.79
270.408	3.2
270.787	3.32
271.167	3.73
271.546	3
271.925	3.64
272.304	3.58
272.683	3.24
273.062	3.65
273.441	3.78
273.82	3.84
274.199	4.06
274.578	3.13
274.957	3.73
275.336	3.32
275.715	3.82
276.093	4.18
276.472	3.86
276.851	3.66
277.229	4.08
277.608	3.36
277.986	2.94
278.365	2.79
278.743	4.01
279.122	2.66
279.5	3.51
279.878	3.09
280.257	4.14
280.635	2.78
281.013	3.71
281.391	3.44
281.769	3.47
282.147	3.74
282.525	3.35
282.903	3.64
283.281	3.61
283.659	3.34
284.037	3.15
284.415	3.86
284.792	3.41
285.17	3.35
285.548	3.36
285.925	3.28
286.303	3.3
286.68	3.56
287.058	3.49
287.435	3.32
287.813	3.6
288.19	3.86
288.567	3.57
288.945	3.52
289.322	3.56
289.699	3.45
290.076	3.8
290.453	3.4
290.83	4.02
291.207	3.6
291.584	3.13
291.961	3.94
292.338	4.02
292.715	3.81
293.092	3.71
293.469	4.21
293.845	3.66
294.222	4
294.599	4.41
294.975	4.08
295.352	3.54
295.728	4.59
296.105	4.21
296.481	4.42
296.858	4.01
297.234	4.25
297.61	4.3
297.986	3.85
298.363	3.99
298.739	4.09
299.115	4
299.491	4.34
299.867	4.3
300.243	4.3
300.619	3.96
300.995	4.64
301.371	4.56
301.746	4.4
302.122	4.45
302.498	4.89
302.874	4.76
303.249	4.47
303.625	4.46
304	3.92
304.376	4.46
304.751	4.98
305.127	4.85
305.502	4.93
305.878	5.12
306.253	4.76
306.628	5.02
307.003	5.07
307.378	4.82
307.754	5.36
308.129	5.06
308.504	4.79
308.879	4.93
309.254	5.36
309.629	4.9
310.003	5.38
310.378	5.45
310.753	5.02
311.128	5.44
311.502	5.28
311.877	5.55
312.252	5.48
312.626	5.23
313.001	5.36
313.375	5.39
313.75	5.16
314.124	5.87
314.498	5.77
314.873	5.83
315.247	5.54
315.621	5.75
315.995	5.89
316.369	6.22
316.743	6.67
317.117	6.33
317.491	5.72
317.865	5.81
318.239	6.54
318.613	6.08
318.987	6.43
319.361	6.32
319.734	6.5
320.108	5.64
320.482	6.18
320.855	6.41
321.229	6.94
321.602	6.31
321.976	6.93
322.349	6.01
322.723	6.3
323.096	6.44
323.469	6.6
323.843	6.68
324.216	6.13
324.589	7.29
324.962	6.86
325.335	6.55
325.708	7.19
326.081	7.63
326.454	7.24
326.827	7.46
327.2	7.45
327.573	7.32
327.945	7.65
328.318	7.47
328.691	7.65
329.063	7.41
329.436	7.78
329.809	7.41
330.181	7.53
330.553	7.94
330.926	7.66
331.298	7.43
331.671	7.76
332.043	7.73
332.415	8.01
332.787	8.42
333.159	7.7
333.532	8.04
333.904	7.86
334.276	7.63
334.648	7.83
335.02	8.21
335.391	8.47
335.763	8.1
336.135	7.82
336.507	8.54
336.879	8.56
337.25	8.25
337.622	8.49
337.993	8.68
338.365	8.52
338.736	8.72
339.108	8.61
339.479	8.11
339.851	8.78
340.222	8.8
340.593	8.45
340.964	8.84
341.336	9.04
341.707	8.97
342.078	8.55
342.449	8.99
342.82	8.69
343.191	8.55
343.562	9.07
343.933	9.07
344.303	9.16
344.674	9.16
345.045	9.47
345.416	8.97
345.786	9.01
346.157	9.35
346.527	9.22
346.898	9.21
347.268	9.35
347.639	9.48
348.009	9.62
348.38	8.96
348.75	9.53
349.12	9.43
349.49	9.54
349.861	9.96
350.231	9.99
350.601	9.76
350.971	9.95
351.341	9.72
351.711	9.96
352.081	10.15
352.45	10.12
352.82	10.38
353.19	9.57
353.56	10.46
353.929	10.33
354.299	10.18
354.669	10.46
355.038	10.16
355.408	10.79
355.777	10.18
356.147	10.77
356.516	10.66
356.885	10.29
357.254	10.55
357.624	10.76
357.993	10.72
358.362	10.85
358.731	10.68
359.1	10.86
359.469	10.79
359.838	10.52
360.207	10.8
360.576	11.04
360.945	10.98
361.314	11.15
361.682	10.98
362.051	11.01
362.42	11.37
362.788	11.2
363.157	11.1
363.525	11.27
363.894	11.1
364.262	11.34
364.631	11.94
364.999	11.25
365.367	11.84
365.735	11.57
366.104	11.65
366.472	11.81
366.84	12.07
367.208	11.8
367.576	11.6
367.944	12.28
368.312	11.25
368.68	11.94
369.048	12.23
369.416	12.06
369.783	12.33
370.151	12.1
370.519	12.22
370.886	12.15
371.254	12.32
371.621	12.04
371.989	12.66
372.356	12.32
372.724	12.4
373.091	12.57
373.458	12.47
373.826	12.42
374.193	13.24
374.56	12.77
374.927	12.64
375.294	12.78
375.661	12.58
376.028	13.13
376.395	12.89
376.762	13.41
377.129	13.24
377.496	13.18
377.863	13.01
378.229	13
378.596	13.23
378.963	13.2
379.329	13.14
379.696	13.33
380.062	13.57
380.429	13.43
380.795	13.12
381.161	13.62
381.528	13.66
381.894	13.74
382.26	13.52
382.626	13.69
382.993	13.95
383.359	13.63
383.725	14.11
384.091	13.97
384.457	14.38
384.823	13.99
385.188	14.15
385.554	14.4
385.92	14.35
386.286	14.63
386.651	13.97
387.017	14.25
387.383	13.93
387.748	14.3
388.114	14.25
388.479	14.23
388.845	14.5
389.21	14.67
389.575	14.61
389.94	14.7
390.306	14.39
390.671	14.78
391.036	14.91
391.401	14.95
391.766	15.02
392.131	14.9
392.496	14.96
392.861	15
393.226	14.96
393.591	15.16
393.956	15.05
394.32	15.24
394.685	15.42
395.05	15.29
395.414	15.35
395.779	15.24
396.143	15.55
396.508	15.44
396.872	15.55
397.236	15.11
397.601	15.62
397.965	15.66
398.329	15.81
398.694	15.56
399.058	15.68
399.422	16.08
399.786	15.82
400.15	15.62
400.514	16.14
400.878	15.98
401.242	16.46
401.605	16.04
401.969	15.81
402.333	16.12
402.697	16.56
403.06	16.41
403.424	16.45
403.787	16.74
404.151	16.11
404.514	16.6
404.878	16.57
405.241	16.4
405.604	16.7
405.968	16.54
406.331	16.89
406.694	16.42
407.057	16.95
407.42	16.75
407.783	16.41
408.146	16.98
408.509	16.72
408.872	16.87
409.235	17.14
409.598	17.15
409.961	17.13
410.323	17.16
410.686	16.96
411.049	17.07
411.411	17.17
411.774	17.17
412.136	17.44
412.499	17.25
412.861	17.12
413.223	17.37
413.586	17.52
413.948	17.54
414.31	17.5
414.672	17.43
415.035	17.77
415.397	17.94
415.759	17.95
416.121	17.87
416.483	17.91
416.845	17.87
417.206	17.79
417.568	17.81
417.93	17.88
418.292	18
418.653	17.96
419.015	17.99
419.377	17.96
419.738	17.88
420.1	17.98
420.461	18.03
420.822	18.02
421.184	17.99
421.545	18.17
421.906	18.09
422.267	18.01
422.629	18.08
422.99	18.02
423.351	18.09
423.712	18.31
424.073	18.37
424.434	18.41
424.795	18.43
425.155	18.42
425.516	18.47
425.877	18.45
426.238	18.35
426.598	18.57
426.959	18.56
427.32	18.8
427.68	18.95
428.041	18.93
428.401	18.65
428.761	19.06
429.122	18.97
429.482	19.09
429.842	19.44
430.202	19.27
430.563	19.43
430.923	19.35
431.283	19.43
431.643	19.73
432.003	19.46
432.363	19.66
432.722	19.9
433.082	19.58
433.442	19.77
433.802	19.6
434.161	19.81
434.521	19.84
434.881	19.92
435.24	19.71
435.6	20
435.959	19.81
436.319	19.9
436.678	20.03
437.037	20.44
437.396	20.17
437.756	20.32
438.115	20.45
438.474	20.4
438.833	20.44
439.192	20.52
439.551	20.63
439.91	20.52
440.269	20.53
440.628	20.56
440.987	20.54
441.345	20.49
441.704	20.72
442.063	20.63
442.421	20.49
442.78	20.8
443.138	20.85
443.497	20.75
443.855	20.76
444.214	21.09
444.572	21.06
444.93	21.26
445.288	21.17
445.647	21.15
446.005	21.23
446.363	21.28
446.721	21.32
447.079	21.31
447.437	21.39
447.795	21.17
448.153	21.15
448.51	21.28
448.868	21.35
449.226	21.41
449.584	21.54
449.941	21.64
450.299	21.59
450.656	21.83
451.014	21.84
451.371	22.08
451.729	21.98
452.086	21.85
452.443	22.11
452.801	22.17
453.158	22.49
453.515	22.36
453.872	22.33
454.229	22.17
454.586	22.31
454.943	22.12
455.3	22.73
455.657	22.51
456.014	22.73
456.371	22.78
456.727	22.56
457.084	22.61
457.441	22.68
457.797	22.9
458.154	22.88
458.51	23.02
458.867	22.89
459.223	23.04
459.58	22.81
459.936	23.23
460.292	23.17
460.648	23.04
461.005	23.02
461.361	22.86
461.717	22.89
462.073	22.99
462.429	22.92
462.785	23.18
463.141	23.13
463.496	23.28
463.852	23.56
464.208	23.53
464.564	23.57
464.919	23.72
465.275	23.85
465.631	23.65
465.986	23.81
466.342	24.01
466.697	23.8
467.052	24.02
467.408	23.96
467.763	23.88
468.118	23.96
468.473	24.47
468.829	24.23
469.184	24.4
469.539	24.17
469.894	24.41
470.249	24.62
470.603	24.41
470.958	24.8
471.313	24.4
471.668	24.73
472.023	24.88
472.377	24.63
472.732	24.97
473.086	24.83
473.441	24.93
473.795	24.99
474.15	24.84
474.504	24.85
474.859	25.08
475.213	24.91
475.567	24.74
475.921	25.33
476.275	25.16
476.63	25.31
476.984	25.17
477.338	25.54
477.692	25.41
478.045	25.35
478.399	25.49
478.753	25.4
479.107	25.59
479.461	25.41
479.814	25.65
480.168	25.51
480.521	25.53
480.875	25.73
481.228	25.77
481.582	25.71
481.935	25.68
482.289	25.68
482.642	25.92
482.995	25.8
483.348	25.69
483.701	25.63
484.055	25.53
484.408	25.43
484.761	25.25
485.114	25.17
485.466	25.02
485.819	24.83
486.172	24.81
486.525	24.93
486.878	25.16
487.23	25.34
487.583	25.55
487.936	25.77
488.288	25.63
488.641	25.58
488.993	25.58
489.345	25.46
489.698	25.51
490.05	25.45
490.402	25.64
490.754	25.92
491.107	26.14
491.459	26.38
491.811	26.47
492.163	26.63
492.515	26.4
492.866	26.25
493.218	26.09
493.57	26.03
493.922	26.06
494.274	26.16
494.625	26.46
494.977	26.62
495.328	27.09
495.68	27.27
496.031	27.35
496.383	27.18
496.734	27.38
497.086	27.62
497.437	27.7
497.788	27.52
498.139	27.47
498.49	27.54
498.842	27.4
499.193	27.42
499.544	27.83
499.894	27.63
500.245	27.68
500.596	27.83
500.947	27.82
501.298	28.02
501.648	27.94
501.999	28.11
502.35	28.32
502.7	28.27
503.051	28.32
503.401	28.35
503.752	28.38
504.102	28.38
504.452	28.67
504.803	28.43
505.153	28.53
505.503	28.58
505.853	28.47
506.203	28.51
506.553	28.69
506.903	28.59
507.253	28.81
507.603	28.73
507.953	28.83
508.303	29.01
508.652	29.02
509.002	28.79
509.352	28.92
509.701	28.93
510.051	28.97
510.4	28.86
510.75	28.82
511.099	28.84
511.449	29.01
511.798	29.11
512.147	29.27
512.496	29.23
512.846	29.06
513.195	29.15
513.544	29.26
513.893	29.27
514.242	29.42
514.591	29.48
514.939	29.32
515.288	29.57
515.637	29.71
515.986	29.58
516.334	29.89
516.683	29.8
517.032	29.78
517.38	29.76
517.729	29.87
518.077	29.96
518.426	29.99
518.774	29.88
519.122	29.95
519.47	29.85
519.819	29.67
520.167	29.67
520.515	29.64
520.863	29.59
521.211	29.65
521.559	29.99
521.907	30.25
522.255	30.18
522.602	30.18
522.95	30.36
523.298	30.49
523.645	30.3
523.993	30.65
524.341	30.6
524.688	30.6
525.036	30.73
525.383	30.6
525.73	30.56
526.078	30.62
526.425	30.47
526.772	30.31
527.119	30.38
527.466	30.3
527.814	30.28
528.161	30.24
528.508	30.34
528.854	30.3
529.201	30.28
529.548	30.3
529.895	30.05
530.242	30.1
530.588	29.96
530.935	29.84
531.282	29.86
531.628	30.13
531.975	30.19
532.321	30.48
532.667	30.8
533.014	30.93
533.36	30.97
533.706	31.03
534.052	30.92
534.399	30.87
534.745	30.81
535.091	30.73
535.437	30.7
535.783	30.71
536.129	30.88
536.474	31.1
536.82	31.28
537.166	31.68
537.512	31.64
537.857	31.47
538.203	31.34
538.549	31.48
538.894	31.54
539.239	31.68
539.585	31.68
539.93	31.78
540.276	31.82
540.621	32.04
540.966	32.18
541.311	32.19
541.656	32.12
542.001	32.08
542.346	31.76
542.691	31.58
543.036	31.51
543.381	31.28
543.726	31.33
544.071	31.42
544.415	31.65
544.76	31.74
545.105	31.79
545.449	31.99
545.794	32.24
546.138	32.36
546.483	32.26
546.827	32.67
547.171	32.37
547.516	32.73
547.86	32.72
548.204	32.58
548.548	32.6
548.892	32.63
549.236	32.63
549.58	32.77
549.924	32.75
550.268	32.92
550.612	32.92
550.956	33.26
551.3	33.58
551.643	33.28
551.987	33.27
552.33	33.5
552.674	33.63
553.017	33.81
553.361	33.73
553.704	33.5
554.048	33.75
554.391	33.74
554.734	33.67
555.077	33.83
555.42	33.84
555.764	33.86
556.107	33.94
556.45	33.71
556.793	34.25
557.135	34.16
557.478	34.22
557.821	34.04
558.164	34.34
558.507	34.08
558.849	34.25
559.192	34.53
559.534	34.3
559.877	34.33
560.219	34.49
560.562	34.58
560.904	34.54
561.246	34.78
561.589	34.59
561.931	35
562.273	34.67
562.615	34.42
562.957	34.85
563.299	34.68
563.641	34.74
563.983	34.4
564.325	34.5
564.667	34.42
565.008	34.74
565.35	34.99
565.692	35.07
566.033	35.04
566.375	34.73
566.716	35.28
567.058	35.07
567.399	35.12
567.741	35.15
568.082	34.99
568.423	34.84
568.764	34.67
569.105	34.94
569.447	34.96
569.788	35.25
570.129	35.24
570.47	35.33
570.811	35.49
571.151	35.35
571.492	35.59
571.833	35.23
572.174	35.33
572.514	35.33
572.855	35.5
573.195	35.27
573.536	35.5
573.876	35.46
574.217	35.57
574.557	35.62
574.898	35.23
575.238	35.54
575.578	35.75
575.918	35.82
576.258	35.63
576.598	35.75
576.938	35.99
577.278	35.64
577.618	35.59
577.958	35.66
578.298	35.91
578.638	35.82
578.977	35.91
579.317	36.13
579.657	36.02
579.996	36.5
580.336	36.28
580.675	36.53
581.014	36.1
581.354	36.57
581.693	36.87
582.032	36.56
582.372	36.46
582.711	36.61
583.05	36.79
583.389	36.77
583.728	36.7
584.067	36.99
584.406	36.81
584.745	36.96
585.083	37.19
585.422	36.93
585.761	36.91
586.1	37.33
586.438	37.11
586.777	37.08
587.115	37.21
587.454	37.13
587.792	36.91
588.13	37.3
588.469	37.31
588.807	37.45
589.145	37.41
589.483	37
589.821	37.44
590.159	37.47
590.497	37.23
590.835	37.64
591.173	37.5
591.511	37.47
591.849	37.57
592.187	37.64
592.524	37.47
592.862	37.6
593.2	37.79
593.537	37.69
593.875	37.8
594.212	37.98
594.55	37.83
594.887	37.81
595.224	37.93
595.561	37.92
595.899	37.68
596.236	38.21
596.573	37.8
596.91	37.93
597.247	37.73
597.584	37.77
597.921	37.87
598.258	37.91
598.594	37.63
598.931	37.65
599.268	37.92
599.604	38.27
599.941	37.88
600.277	38.2
600.614	38.13
600.95	38.39
601.287	38.56
601.623	38.15
601.959	38.55
602.296	38.73
602.632	38.74
602.968	38.59
603.304	38.3
603.64	38.47
603.976	38.55
604.312	38.72
604.648	38.67
604.984	38.58
605.319	38.21
605.655	38.68
605.991	38.54
606.326	38.47
606.662	38.48
606.998	38.26
607.333	38.48
607.668	38.49
608.004	38.64
608.339	38.81
608.674	38.91
609.01	39.2
609.345	39.09
609.68	39.03
610.015	39.1
610.35	39.12
610.685	39.28
611.02	39.35
611.355	39.1
611.689	39.04
612.024	39.12
612.359	39.26
612.694	39.44
613.028	39.43
613.363	39.08
613.697	39.36
614.032	39.73
614.366	39.47
614.7	39.79
615.035	39.75
615.369	39.35
615.703	39.85
616.037	39.97
616.371	39.86
616.705	40.15
617.039	40.15
617.373	40.17
617.707	39.77
618.041	40.28
618.375	39.98
618.709	40.49
619.042	39.64
619.376	39.92
619.71	39.84
620.043	40.24
620.377	40.27
620.71	40.11
621.043	40.34
621.377	40.29
621.71	40.21
622.043	40.29
622.376	39.98
622.709	40.69
623.043	40.42
623.376	40.87
623.709	40.9
624.041	40.26
624.374	40.72
624.707	40.52
625.04	40.7
625.373	41.06
625.705	40.64
626.038	40.28
626.37	40.75
626.703	40.31
627.035	40.8
627.368	40.91
627.7	40.96
628.032	41.11
628.365	40.79
628.697	41.02
629.029	41.05
629.361	40.85
629.693	40.83
630.025	40.98
630.357	40.96
630.689	40.98
631.021	41.27
631.353	41.13
631.684	41.09
632.016	40.68
632.348	41.15
632.679	41.14
633.011	41.29
633.342	41.38
633.674	41.63
634.005	41.44
634.336	41.3
634.668	41.48
634.999	41.43
635.33	41.31
635.661	41.78
635.992	41.66
636.323	41.22
636.654	41.67
636.985	41.63
637.316	41.83
637.647	41.84
637.977	41.39
638.308	41.86
638.639	41.6
638.969	41.74
639.3	41.79
639.63	42.24
639.961	41.7
640.291	42.05
640.622	42.11
640.952	42.19
641.282	41.66
641.612	41.98
641.943	41.94
642.273	42.6
642.603	41.93
642.933	42.06
643.263	42.32
643.592	42.44
643.922	42.57
644.252	42.99
644.582	42.3
644.911	41.82
645.241	42.76
645.571	42.35
645.9	42.36
646.23	42.12
646.559	42.5
646.888	42.53
647.218	42.54
647.547	43.07
647.876	42.93
648.205	42.51
648.534	42.74
648.863	42.9
649.192	43.25
649.521	42.26
649.85	42.41
650.179	43.13
650.508	42.86
650.837	42.84
651.165	43.72
651.494	43.1
651.822	43.28
652.151	42.95
652.479	43.31
652.808	43.5
653.136	42.43
653.465	43.17
653.793	43.26
654.121	43.3
654.449	43.56
654.777	43.13
655.105	43.34
655.433	43.94
655.761	43.27
656.089	43.46
656.417	42.97
656.745	43.71
657.073	43.78
657.4	43.66
657.728	44.04
658.056	43.47
658.383	44.08
658.711	43.16
659.038	43.22
659.365	43.76
659.693	43.68
660.02	43.61
660.347	43.72
660.674	43.45
661.001	43.48
661.329	43.59
661.656	43.39
661.982	43.6
662.309	43.16
662.636	44.13
662.963	43.85
663.29	44.05
663.616	44
663.943	43.7
664.27	44.05
664.596	44.04
664.923	44.55
665.249	43.4
665.576	43.87
665.902	44.38
666.228	44.05
666.554	43.56
666.881	44.18
667.207	43.84
667.533	44.08
667.859	44.23
668.185	45.03
668.511	44.19
668.837	43.94
669.162	44.58
669.488	44.17
669.814	44.74
670.139	44.06
670.465	45.15
