Data from 0281_chest_Reflection__2__217.txt Node

Date: Fri Oct 20 22:27:42 CDT 2023
User: ToomeyLab
Spectrometer: FLMS14357
Trigger mode: 0
Integration Time (sec): 1.000000E-2
Scans to average: 100
Electric dark correction enabled: true
Nonlinearity correction enabled: false
Boxcar width: 0
XAxis mode: Wavelengths
Number of Pixels in Spectrum: 2048
>>>>>Begin Spectral Data<<<<<
189.047	52.2
189.435	52.2
189.823	52.2
190.211	62.67
190.599	151.11
190.987	89.74
191.375	35.55
191.763	427.64
192.151	86.35
192.538	71.61
192.926	-97.14
193.314	198.19
193.702	77.19
194.089	136.27
194.477	19.46
194.864	-16.29
195.252	109.83
195.639	129.71
196.027	-15.93
196.414	33.27
196.801	-512.82
197.189	156.03
197.576	-10.36
197.963	-24.27
198.351	15.68
198.738	16.37
199.125	4.74
199.512	44.27
199.899	22.15
200.286	-22.94
200.673	51.22
201.06	62.88
201.447	-18.59
201.833	44.2
202.22	39.25
202.607	32.22
202.994	17.47
203.38	3.97
203.767	40.31
204.154	24.99
204.54	43.4
204.927	31.04
205.313	36.42
205.699	41.93
206.086	15.27
206.472	14.13
206.858	50.29
207.245	-12.5
207.631	49.92
208.017	2.86
208.403	-5.74
208.789	37.49
209.175	10.89
209.561	31.15
209.947	11.71
210.333	8.16
210.719	27.46
211.105	-8.72
211.491	25.37
211.876	1.89
212.262	29.56
212.648	12.82
213.034	-8
213.419	-4.23
213.805	8.55
214.19	-26.03
214.576	8.94
214.961	26.21
215.346	45.03
215.732	42.28
216.117	-10.29
216.502	39.76
216.888	30.25
217.273	-22.39
217.658	28.87
218.043	3.78
218.428	-6.96
218.813	27.06
219.198	0.47
219.583	-8.19
219.968	0.93
220.353	10.45
220.738	9.37
221.122	9.76
221.507	12.7
221.892	10.28
222.276	-0.93
222.661	27.08
223.046	4.79
223.43	17.61
223.815	8.34
224.199	20.14
224.583	-0.12
224.968	-3.25
225.352	-3
225.736	6
226.121	0.84
226.505	2.41
226.889	3.99
227.273	5.73
227.657	5.98
228.041	4.19
228.425	-0.56
228.809	7.23
229.193	6.23
229.577	5.93
229.961	2.48
230.344	3.68
230.728	2.17
231.112	3.53
231.495	2.24
231.879	2.98
232.263	3.5
232.646	2.53
233.03	2.53
233.413	1.22
233.797	2.17
234.18	1.86
234.563	2.58
234.946	3.22
235.33	3.41
235.713	2.64
236.096	5.08
236.479	4.69
236.862	1.2
237.245	3.37
237.628	1.75
238.011	3.07
238.394	2.53
238.777	5.33
239.16	2.93
239.543	4.14
239.925	5.38
240.308	3.13
240.691	4.23
241.073	4.06
241.456	3.72
241.838	2.9
242.221	3.03
242.603	3.01
242.986	2.62
243.368	3.09
243.75	2.58
244.133	1.81
244.515	2.31
244.897	2.44
245.279	2.83
245.661	1.87
246.043	2.55
246.425	2.81
246.807	2.36
247.189	2.83
247.571	1.59
247.953	2.82
248.335	2.89
248.717	2.32
249.098	2.02
249.48	2.11
249.862	2.24
250.243	2.4
250.625	2.6
251.006	2.47
251.388	2.37
251.769	2.86
252.151	1.7
252.532	2.06
252.913	2.57
253.295	1.91
253.676	2.89
254.057	2.34
254.438	2.13
254.819	2.51
255.2	3.08
255.581	2.66
255.962	2.15
256.343	3.87
256.724	1.29
257.105	3.26
257.486	3.5
257.867	2.37
258.247	2.74
258.628	1.87
259.009	1.29
259.389	1.64
259.77	1.99
260.15	2.8
260.531	2.62
260.911	2.13
261.292	2.33
261.672	2.34
262.052	2.15
262.432	2.3
262.813	1.98
263.193	2.21
263.573	1.83
263.953	2.2
264.333	2.17
264.713	2.34
265.093	2.71
265.473	2.4
265.853	2.8
266.233	2.44
266.612	2
266.992	2.73
267.372	2.28
267.752	1.52
268.131	2.08
268.511	2.68
268.89	2.1
269.27	2.72
269.649	2.08
270.029	1.88
270.408	2.3
270.787	2.36
271.167	2.02
271.546	2.67
271.925	2.4
272.304	2.38
272.683	2.42
273.062	2
273.441	2.62
273.82	2.13
274.199	2.37
274.578	1.95
274.957	2.56
275.336	2.4
275.715	2.29
276.093	1.89
276.472	2.16
276.851	2.22
277.229	2.15
277.608	1.68
277.986	1.7
278.365	2.66
278.743	2.06
279.122	2.39
279.5	1.89
279.878	1.4
280.257	1.95
280.635	1.88
281.013	3.11
281.391	2.74
281.769	1.86
282.147	1.98
282.525	1.99
282.903	1.79
283.281	2.17
283.659	2.15
284.037	2.5
284.415	1.61
284.792	2.01
285.17	2.46
285.548	2.08
285.925	1.63
286.303	1.78
286.68	2.08
287.058	2.6
287.435	2.26
287.813	1.75
288.19	2.27
288.567	2.13
288.945	2.24
289.322	2.35
289.699	1.87
290.076	2.38
290.453	1.98
290.83	1.57
291.207	2.64
291.584	1.87
291.961	1.79
292.338	1.98
292.715	2.11
293.092	1.72
293.469	2.23
293.845	2.25
294.222	2.01
294.599	1.97
294.975	3.14
295.352	2.14
295.728	2.01
296.105	2.48
296.481	2.05
296.858	2.25
297.234	2.56
297.61	1.47
297.986	1.61
298.363	2.22
298.739	2.04
299.115	2.03
299.491	2.17
299.867	1.97
300.243	1.96
300.619	1.62
300.995	1.69
301.371	2
301.746	2.25
302.122	2.4
302.498	1.79
302.874	2.12
303.249	2.17
303.625	2.38
304	2.03
304.376	1.91
304.751	2.06
305.127	1.79
305.502	1.93
305.878	2.09
306.253	2.18
306.628	1.62
307.003	2.04
307.378	2.03
307.754	2.12
308.129	1.97
308.504	2.19
308.879	1.97
309.254	2.46
309.629	1.14
310.003	1.43
310.378	1.97
310.753	2.29
311.128	2.19
311.502	2.13
311.877	1.75
312.252	1.83
312.626	2.06
313.001	2.3
313.375	2.17
313.75	2.07
314.124	1.64
314.498	2.18
314.873	2.01
315.247	2.58
315.621	1.71
315.995	2.59
316.369	2.04
316.743	2.21
317.117	2.26
317.491	1.69
317.865	1.86
318.239	2.69
318.613	1.99
318.987	1.88
319.361	1.34
319.734	1.95
320.108	1.95
320.482	2.81
320.855	1.68
321.229	2.9
321.602	2.05
321.976	1.9
322.349	2.6
322.723	1.99
323.096	2.49
323.469	1.49
323.843	2.44
324.216	2.51
324.589	2.2
324.962	2.66
325.335	2.2
325.708	2.03
326.081	2.13
326.454	2.29
326.827	2.56
327.2	2.57
327.573	2.29
327.945	2.32
328.318	1.79
328.691	2.23
329.063	2.88
329.436	2.03
329.809	2.12
330.181	2.35
330.553	2.13
330.926	1.94
331.298	1.58
331.671	1.71
332.043	2.01
332.415	1.98
332.787	1.9
333.159	2
333.532	2.42
333.904	1.92
334.276	1.86
334.648	2.08
335.02	2.36
335.391	2.03
335.763	2.59
336.135	1.76
336.507	2.04
336.879	2.16
337.25	2.4
337.622	2.57
337.993	2.53
338.365	2.23
338.736	2.03
339.108	2.32
339.479	2.02
339.851	2.02
340.222	1.89
340.593	1.95
340.964	2.03
341.336	2.08
341.707	2.44
342.078	1.89
342.449	2.14
342.82	2.2
343.191	1.98
343.562	2.24
343.933	1.95
344.303	2.18
344.674	2.78
345.045	2.58
345.416	2.67
345.786	2.2
346.157	2.42
346.527	2.07
346.898	2.31
347.268	2.28
347.639	2.53
348.009	2.01
348.38	2.29
348.75	2.34
349.12	2.28
349.49	2.01
349.861	2.63
350.231	2.01
350.601	1.91
350.971	2.15
351.341	2.43
351.711	2.46
352.081	2.3
352.45	2.43
352.82	2.37
353.19	2.74
353.56	2.61
353.929	2.2
354.299	2.4
354.669	2.33
355.038	2.46
355.408	2.59
355.777	2.04
356.147	2.12
356.516	2.24
356.885	2.15
357.254	2.48
357.624	2.23
357.993	2.03
358.362	2.56
358.731	1.84
359.1	1.83
359.469	2.07
359.838	2.44
360.207	2.32
360.576	2.55
360.945	2.24
361.314	2.14
361.682	2.09
362.051	1.96
362.42	2.01
362.788	2.29
363.157	2.29
363.525	2.1
363.894	2.36
364.262	2.09
364.631	2.33
364.999	2.25
365.367	2.42
365.735	2.15
366.104	2.22
366.472	2.38
366.84	2.41
367.208	2.25
367.576	1.96
367.944	2.1
368.312	2.18
368.68	2.45
369.048	2.37
369.416	2.49
369.783	2.35
370.151	2.34
370.519	2.45
370.886	2.6
371.254	2.4
371.621	2.28
371.989	2.16
372.356	2.67
372.724	2.29
373.091	2.3
373.458	1.88
373.826	2.51
374.193	2.21
374.56	2.24
374.927	2.03
375.294	2.16
375.661	2.57
376.028	2.3
376.395	2.55
376.762	2.37
377.129	2.25
377.496	2.5
377.863	2.83
378.229	2.71
378.596	2.29
378.963	2.28
379.329	2.35
379.696	2.26
380.062	2.3
380.429	2.38
380.795	2.51
381.161	2.28
381.528	2.68
381.894	2.46
382.26	2.46
382.626	2.96
382.993	2.53
383.359	2.21
383.725	2.31
384.091	2.56
384.457	2.61
384.823	2.51
385.188	2.75
385.554	2.31
385.92	2.46
386.286	2.5
386.651	2.23
387.017	2.52
387.383	2.15
387.748	2.19
388.114	2.24
388.479	2.36
388.845	2.59
389.21	2.3
389.575	2.21
389.94	2.3
390.306	2.18
390.671	2.18
391.036	2.33
391.401	2.57
391.766	2.49
392.131	2.29
392.496	2.54
392.861	2.54
393.226	2.53
393.591	2.26
393.956	2.51
394.32	2.59
394.685	2.34
395.05	2.76
395.414	2.73
395.779	2.2
396.143	2.38
396.508	2.31
396.872	2.3
397.236	2.39
397.601	2.2
397.965	2.41
398.329	2.26
398.694	2.5
399.058	2.25
399.422	2.4
399.786	2.45
400.15	2.31
400.514	2.19
400.878	2.42
401.242	2.62
401.605	2.59
401.969	2.18
402.333	2.54
402.697	2.56
403.06	2.35
403.424	2.52
403.787	2.41
404.151	2.42
404.514	2.59
404.878	2.45
405.241	2.47
405.604	2.44
405.968	2.42
406.331	2.35
406.694	2.14
407.057	2.28
407.42	2.58
407.783	2.55
408.146	2.45
408.509	2.54
408.872	2.55
409.235	2.37
409.598	2.4
409.961	2.66
410.323	2.42
410.686	2.35
411.049	2.37
411.411	2.3
411.774	2.59
412.136	2.5
412.499	2.57
412.861	2.49
413.223	2.63
413.586	2.3
413.948	2.56
414.31	2.67
414.672	2.37
415.035	2.47
415.397	2.52
415.759	2.54
416.121	2.48
416.483	2.61
416.845	2.31
417.206	2.53
417.568	2.57
417.93	2.35
418.292	2.35
418.653	2.47
419.015	2.37
419.377	2.5
419.738	2.37
420.1	2.32
420.461	2.38
420.822	2.41
421.184	2.4
421.545	2.39
421.906	2.38
422.267	2.35
422.629	2.38
422.99	2.36
423.351	2.4
423.712	2.36
424.073	2.44
424.434	2.38
424.795	2.34
425.155	2.48
425.516	2.37
425.877	2.4
426.238	2.25
426.598	2.38
426.959	2.36
427.32	2.34
427.68	2.37
428.041	2.37
428.401	2.51
428.761	2.43
429.122	2.48
429.482	2.38
429.842	2.57
430.202	2.48
430.563	2.48
430.923	2.69
431.283	2.38
431.643	2.54
432.003	2.78
432.363	2.58
432.722	2.54
433.082	2.36
433.442	2.41
433.802	2.53
434.161	2.38
434.521	2.58
434.881	2.38
435.24	2.39
435.6	2.45
435.959	2.37
436.319	2.44
436.678	2.53
437.037	2.5
437.396	2.65
437.756	2.56
438.115	2.2
438.474	2.59
438.833	2.58
439.192	2.25
439.551	2.35
439.91	2.49
440.269	2.59
440.628	2.65
440.987	2.54
441.345	2.37
441.704	2.47
442.063	2.52
442.421	2.38
442.78	2.48
443.138	2.56
443.497	2.54
443.855	2.48
444.214	2.5
444.572	2.49
444.93	2.5
445.288	2.5
445.647	2.68
446.005	2.3
446.363	2.55
446.721	2.52
447.079	2.52
447.437	2.45
447.795	2.43
448.153	2.32
448.51	2.46
448.868	2.49
449.226	2.35
449.584	2.53
449.941	2.46
450.299	2.44
450.656	2.37
451.014	2.49
451.371	2.53
451.729	2.36
452.086	2.57
452.443	2.65
452.801	2.38
453.158	2.58
453.515	2.57
453.872	2.59
454.229	2.73
454.586	2.59
454.943	2.46
455.3	2.47
455.657	2.61
456.014	2.5
456.371	2.58
456.727	2.66
457.084	2.53
457.441	2.61
457.797	2.46
458.154	2.49
458.51	2.55
458.867	2.59
459.223	2.61
459.58	2.51
459.936	2.55
460.292	2.54
460.648	2.44
461.005	2.41
461.361	2.54
461.717	2.41
462.073	2.54
462.429	2.46
462.785	2.52
463.141	2.6
463.496	2.46
463.852	2.72
464.208	2.57
464.564	2.55
464.919	2.46
465.275	2.73
465.631	2.64
465.986	2.6
466.342	2.73
466.697	2.53
467.052	2.5
467.408	2.59
467.763	2.77
468.118	2.92
468.473	2.66
468.829	2.53
469.184	2.56
469.539	2.49
469.894	2.71
470.249	2.52
470.603	2.52
470.958	2.61
471.313	2.71
471.668	2.55
472.023	2.63
472.377	2.66
472.732	2.62
473.086	2.66
473.441	2.74
473.795	2.68
474.15	2.56
474.504	2.38
474.859	2.63
475.213	2.57
475.567	2.68
475.921	2.63
476.275	2.57
476.63	2.7
476.984	2.71
477.338	2.43
477.692	2.49
478.045	2.67
478.399	2.6
478.753	2.53
479.107	2.63
479.461	2.67
479.814	2.75
480.168	2.73
480.521	2.65
480.875	2.74
481.228	2.79
481.582	2.73
481.935	2.66
482.289	2.6
482.642	2.75
482.995	2.56
483.348	2.63
483.701	2.59
484.055	2.57
484.408	2.5
484.761	2.55
485.114	2.47
485.466	2.47
485.819	2.39
486.172	2.36
486.525	2.37
486.878	2.45
487.23	2.44
487.583	2.52
487.936	2.43
488.288	2.52
488.641	2.55
488.993	2.46
489.345	2.43
489.698	2.45
490.05	2.45
490.402	2.42
490.754	2.41
491.107	2.53
491.459	2.54
491.811	2.56
492.163	2.58
492.515	2.57
492.866	2.62
493.218	2.46
493.57	2.49
493.922	2.44
494.274	2.47
494.625	2.55
494.977	2.51
495.328	2.65
495.68	2.6
496.031	2.53
496.383	2.73
496.734	2.78
497.086	2.72
497.437	2.58
497.788	2.59
498.139	2.77
498.49	2.61
498.842	2.49
499.193	2.65
499.544	2.7
499.894	2.63
500.245	2.63
500.596	2.79
500.947	2.76
501.298	2.72
501.648	2.76
501.999	2.67
502.35	2.66
502.7	2.9
503.051	2.73
503.401	2.73
503.752	2.68
504.102	2.68
504.452	2.68
504.803	2.8
505.153	2.76
505.503	2.72
505.853	2.88
506.203	2.57
506.553	2.67
506.903	2.7
507.253	2.75
507.603	2.73
507.953	2.7
508.303	2.69
508.652	2.62
509.002	2.75
509.352	2.78
509.701	2.82
510.051	2.63
510.4	2.7
510.75	2.75
511.099	2.71
511.449	2.8
511.798	2.75
512.147	2.76
512.496	2.8
512.846	2.71
513.195	2.83
513.544	2.72
513.893	2.68
514.242	2.76
514.591	2.65
514.939	2.78
515.288	2.66
515.637	2.72
515.986	2.81
516.334	2.81
516.683	2.79
517.032	2.55
517.38	2.78
517.729	2.83
518.077	2.78
518.426	2.71
518.774	2.64
519.122	2.74
519.47	2.76
519.819	2.64
520.167	2.72
520.515	2.79
520.863	2.84
521.211	2.73
521.559	2.75
521.907	2.66
522.255	2.77
522.602	2.96
522.95	2.71
523.298	2.79
523.645	2.89
523.993	2.7
524.341	2.81
524.688	2.91
525.036	2.84
525.383	2.77
525.73	2.87
526.078	2.79
526.425	2.95
526.772	2.74
527.119	2.83
527.466	2.82
527.814	2.85
528.161	2.82
528.508	2.78
528.854	2.82
529.201	2.72
529.548	2.84
529.895	2.79
530.242	2.7
530.588	2.66
530.935	2.67
531.282	2.7
531.628	2.75
531.975	2.72
532.321	2.79
532.667	2.75
533.014	2.8
533.36	2.86
533.706	2.91
534.052	2.83
534.399	2.77
534.745	2.76
535.091	2.79
535.437	2.82
535.783	2.8
536.129	2.85
536.474	2.88
536.82	2.84
537.166	2.88
537.512	2.87
537.857	3.11
538.203	2.87
538.549	3.03
538.894	2.88
539.239	2.9
539.585	2.91
539.93	2.96
540.276	2.99
540.621	3.03
540.966	3.01
541.311	3.11
541.656	3.07
542.001	2.99
542.346	2.99
542.691	3
543.036	2.89
543.381	2.88
543.726	2.82
544.071	2.84
544.415	2.88
544.76	2.95
545.105	3.07
545.449	2.97
545.794	3.04
546.138	2.95
546.483	3.02
546.827	3.07
547.171	3.09
547.516	3.01
547.86	3.14
548.204	3.01
548.548	3.07
548.892	3
549.236	3.07
549.58	2.99
549.924	3.08
550.268	3.05
550.612	3.22
550.956	3.25
551.3	3.16
551.643	3.19
551.987	3.3
552.33	3.22
552.674	3.21
553.017	3.18
553.361	3.31
553.704	3.25
554.048	3.24
554.391	3.26
554.734	3.28
555.077	3.25
555.42	2.95
555.764	3.27
556.107	3.32
556.45	3.34
556.793	3.18
557.135	3.14
557.478	3.31
557.821	3.35
558.164	3.52
558.507	3.49
558.849	3.48
559.192	3.46
559.534	3.42
559.877	3.28
560.219	3.37
560.562	3.45
560.904	3.28
561.246	3.38
561.589	3.42
561.931	3.58
562.273	3.56
562.615	3.58
562.957	3.42
563.299	3.42
563.641	3.57
563.983	3.42
564.325	3.38
564.667	3.52
565.008	3.53
565.35	3.48
565.692	3.49
566.033	3.55
566.375	3.43
566.716	3.69
567.058	3.5
567.399	3.63
567.741	3.35
568.082	3.57
568.423	3.54
568.764	3.37
569.105	3.63
569.447	3.49
569.788	3.51
570.129	3.56
570.47	3.56
570.811	3.65
571.151	3.56
571.492	3.75
571.833	3.76
572.174	3.72
572.514	3.62
572.855	3.58
573.195	3.86
573.536	3.54
573.876	3.91
574.217	3.67
574.557	3.57
574.898	3.49
575.238	3.57
575.578	3.74
575.918	3.68
576.258	3.82
576.598	3.78
576.938	3.95
577.278	3.73
577.618	3.59
577.958	3.72
578.298	3.73
578.638	3.79
578.977	3.91
579.317	3.82
579.657	3.81
579.996	3.89
580.336	3.91
580.675	4.02
581.014	3.74
581.354	3.81
581.693	3.99
582.032	4.09
582.372	4.08
582.711	4.22
583.05	4.27
583.389	4.14
583.728	3.92
584.067	4.23
584.406	3.99
584.745	4.06
585.083	4.13
585.422	4.09
585.761	4.12
586.1	4.13
586.438	3.91
586.777	4.22
587.115	4.31
587.454	4.13
587.792	4.11
588.13	4.36
588.469	4.35
588.807	3.83
589.145	4.2
589.483	3.89
589.821	4
590.159	4.07
590.497	4.1
590.835	4.32
591.173	4.19
591.511	4.3
591.849	4.12
592.187	4.11
592.524	4.02
592.862	4.19
593.2	4.3
593.537	4.29
593.875	4.11
594.212	4.35
594.55	4.29
594.887	4.42
595.224	4.36
595.561	4.44
595.899	4.3
596.236	4.3
596.573	4.35
596.91	4.34
597.247	4.35
597.584	4.18
597.921	4.41
598.258	4.5
598.594	4.45
598.931	4.35
599.268	4.23
599.604	4.5
599.941	4.49
600.277	4.6
600.614	4.59
600.95	4.55
601.287	4.54
601.623	4.71
601.959	4.7
602.296	4.61
602.632	4.56
602.968	4.34
603.304	4.62
603.64	4.6
603.976	4.77
604.312	4.79
604.648	4.67
604.984	4.92
605.319	4.56
605.655	4.67
605.991	4.57
606.326	4.62
606.662	4.47
606.998	4.47
607.333	4.71
607.668	4.51
608.004	4.8
608.339	4.7
608.674	4.71
609.01	4.77
609.345	4.85
609.68	4.7
610.015	4.81
610.35	4.87
610.685	4.88
611.02	4.76
611.355	4.61
611.689	4.76
612.024	5.02
612.359	4.83
612.694	4.93
613.028	4.99
613.363	5.05
613.697	5.01
614.032	5
614.366	4.9
614.7	5.21
615.035	5.08
615.369	5.43
615.703	4.88
616.037	5.44
616.371	5.17
616.705	5.23
617.039	5.16
617.373	5.06
617.707	5
618.041	5.22
618.375	5.11
618.709	5.02
619.042	5.46
619.376	5.53
619.71	5.14
620.043	5.26
620.377	5.2
620.71	5.63
621.043	5.53
621.377	5.34
621.71	5.28
622.043	5.05
622.376	5.33
622.709	5.66
623.043	5.48
623.376	5.14
623.709	5.37
624.041	5.49
624.374	5.65
624.707	5.12
625.04	5.67
625.373	5.48
625.705	5.24
626.038	5.52
626.37	5.47
626.703	5.49
627.035	5.33
627.368	5.54
627.7	5.77
628.032	5.7
628.365	5.72
628.697	5.25
629.029	5.53
629.361	5.66
629.693	5.54
630.025	5.79
630.357	5.65
630.689	5.77
631.021	5.96
631.353	5.64
631.684	5.57
632.016	5.93
632.348	5.71
632.679	5.43
633.011	5.81
633.342	5.86
633.674	5.82
634.005	6.07
634.336	6.25
634.668	5.76
634.999	5.81
635.33	5.67
635.661	6.08
635.992	6.07
636.323	6.12
636.654	5.9
636.985	6.07
637.316	6.14
637.647	5.77
637.977	5.74
638.308	6.02
638.639	6.21
638.969	6.43
639.3	5.64
639.63	5.97
639.961	6.15
640.291	5.99
640.622	6.66
640.952	5.97
641.282	6.19
641.612	6.03
641.943	6.24
642.273	5.81
642.603	6.17
642.933	6.38
643.263	6.12
643.592	6.15
643.922	6.71
644.252	5.86
644.582	6.37
644.911	6.35
645.241	6.45
645.571	6.84
645.9	6.13
646.23	6.52
646.559	6.48
646.888	6.5
647.218	6.33
647.547	6.32
647.876	6.9
648.205	6.84
648.534	6.34
648.863	6.66
649.192	6.3
649.521	6.38
649.85	6.3
650.179	6.84
650.508	6.52
650.837	6.81
651.165	6.66
651.494	6.27
651.822	6.81
652.151	7
652.479	6.5
652.808	6.8
653.136	6.27
653.465	6.71
653.793	7.14
654.121	7.04
654.449	6.62
654.777	6.74
655.105	6.59
655.433	6.97
655.761	7.25
656.089	6.6
656.417	6.97
656.745	6.85
657.073	7.02
657.4	7.85
657.728	7.04
658.056	7.07
658.383	6.83
658.711	7.09
659.038	6.98
659.365	7.45
659.693	7.1
660.02	6.99
660.347	7.02
660.674	6.43
661.001	6.7
661.329	7.19
661.656	7.18
661.982	6.86
662.309	7.19
662.636	6.95
662.963	7.07
663.29	7.29
663.616	7.41
663.943	7.27
664.27	7.9
664.596	6.99
664.923	7.13
665.249	7.19
665.576	7.29
665.902	7.75
666.228	7.33
666.554	7.25
666.881	6.67
667.207	7.43
667.533	7.16
667.859	7.56
668.185	7.98
668.511	7.87
668.837	7.8
669.162	7.55
669.488	7.91
669.814	7.65
670.139	7.87
670.465	7.44
670.791	7.47
671.116	7.48
671.442	7.33
671.767	7.47
672.092	7.92
672.418	7.7
672.743	7.55
673.068	7.56
673.393	7.53
673.718	7.89
674.043	7.44
674.368	7.73
674.693	7.64
675.018	8.58
675.343	8.33
675.667	7.89
675.992	8.19
676.317	7.58
676.641	8.45
676.966	8.4
677.29	8.38
677.615	8.09
677.939	7.3
678.264	7.93
678.588	7.73
678.912	7.67
679.236	7.66
679.56	7.96
679.885	8.39
680.209	8.22
680.532	7.84
680.856	8.4
681.18	8.15
681.504	8.5
681.828	8.61
682.152	8.54
682.475	8.3
682.799	8.24
683.122	8.23
683.446	8.52
683.769	8.03
684.093	8.31
684.416	7.72
684.739	7.63
685.062	7.65
685.386	8.08
685.709	7.98
686.032	7.85
686.355	8.64
686.678	8.28
687.001	9.09
687.324	7.67
687.646	8.49
687.969	9.24
688.292	9.24
688.614	8.62
688.937	8.48
689.26	8.26
689.582	8.26
689.904	7.55
690.227	8.94
690.549	8.8
690.871	8.85
691.194	8.99
691.516	8.32
691.838	9.44
692.16	8.92
692.482	8.96
692.804	8.96
693.126	8.09
