Data from 0281_chest_Reflection__3__218.txt Node

Date: Fri Oct 20 22:27:52 CDT 2023
User: ToomeyLab
Spectrometer: FLMS14357
Trigger mode: 0
Integration Time (sec): 1.000000E-2
Scans to average: 100
Electric dark correction enabled: true
Nonlinearity correction enabled: false
Boxcar width: 0
XAxis mode: Wavelengths
Number of Pixels in Spectrum: 2048
>>>>>Begin Spectral Data<<<<<
189.047	-374.95
189.435	-374.95
189.823	-374.95
190.211	12.59
190.599	-58.51
190.987	22.05
191.375	-11.72
191.763	758.26
192.151	7.74
192.538	187.68
192.926	1.41
193.314	245.47
193.702	124.59
194.089	128
194.477	71.98
194.864	45.63
195.252	6.82
195.639	123.86
196.027	-174.72
196.414	62.14
196.801	-299.01
197.189	-91.32
197.576	56.62
197.963	-158.87
198.351	18.61
198.738	-17.55
199.125	15.79
199.512	30.21
199.899	16.51
200.286	-28.73
200.673	21.1
201.06	-18.04
201.447	-31.43
201.833	21.99
202.22	13.87
202.607	48.46
202.994	6.47
203.38	-32.63
203.767	8.83
204.154	24.39
204.54	39.54
204.927	9.49
205.313	-0.62
205.699	33.29
206.086	-9.83
206.472	16.91
206.858	37.12
207.245	-29.91
207.631	19.21
208.017	23.64
208.403	11.44
208.789	10.24
209.175	7.45
209.561	16.16
209.947	-42.14
210.333	1.67
210.719	12.5
211.105	13.11
211.491	20.95
211.876	-4.88
212.262	11.48
212.648	7.19
213.034	5.76
213.419	6.42
213.805	-7.51
214.19	-28.69
214.576	-11.24
214.961	8.74
215.346	9.13
215.732	11.54
216.117	-32.12
216.502	-3.66
216.888	5.64
217.273	2.86
217.658	1.84
218.043	4.47
218.428	-4.78
218.813	4.58
219.198	-5.01
219.583	-21.99
219.968	-11.41
220.353	21.62
220.738	19.78
221.122	-2.2
221.507	-0.98
221.892	-3.62
222.276	9.34
222.661	19.77
223.046	-11.65
223.43	13
223.815	14.09
224.199	16.18
224.583	-14.36
224.968	4.92
225.352	-6.09
225.736	6.72
226.121	2.68
226.505	-0.94
226.889	5.5
227.273	5.49
227.657	5.5
228.041	8.27
228.425	1.8
228.809	3.82
229.193	3.75
229.577	2.24
229.961	2.8
230.344	2.85
230.728	2.61
231.112	3.77
231.495	2.91
231.879	3.75
232.263	4.1
232.646	1.59
233.03	1.47
233.413	2.05
233.797	3.41
234.18	4.21
234.563	4.95
234.946	5.77
235.33	3.52
235.713	3.63
236.096	4.07
236.479	4.32
236.862	2.81
237.245	3.89
237.628	3.51
238.011	3.44
238.394	2.78
238.777	5.06
239.16	3.55
239.543	3.17
239.925	2.83
240.308	4.28
240.691	2.17
241.073	3.87
241.456	3.55
241.838	3.68
242.221	3.21
242.603	3.34
242.986	3.89
243.368	3.18
243.75	3.09
244.133	2.94
244.515	3.26
244.897	2.93
245.279	3.25
245.661	2.71
246.043	2.34
246.425	3.31
246.807	2.06
247.189	2.23
247.571	2.62
247.953	3.05
248.335	3.04
248.717	2.83
249.098	2.84
249.48	2.91
249.862	3.2
250.243	3.2
250.625	3.24
251.006	2.87
251.388	2.63
251.769	3.29
252.151	2.09
252.532	3.09
252.913	2.85
253.295	2.81
253.676	2.22
254.057	2.48
254.438	2.54
254.819	2.62
255.2	2.17
255.581	3.39
255.962	2.96
256.343	3.78
256.724	2.96
257.105	3.05
257.486	3.2
257.867	2.68
258.247	2.35
258.628	2.27
259.009	2.57
259.389	2.89
259.77	2.6
260.15	2.15
260.531	2.99
260.911	2.53
261.292	2.88
261.672	2.8
262.052	2.75
262.432	2.69
262.813	2.53
263.193	2.76
263.573	2.62
263.953	2.25
264.333	2.58
264.713	2.89
265.093	2.7
265.473	3.11
265.853	2.34
266.233	2.61
266.612	3.05
266.992	2.61
267.372	2.12
267.752	2.6
268.131	2.71
268.511	2.39
268.89	2.24
269.27	2.14
269.649	2.4
270.029	2.61
270.408	2.87
270.787	3.07
271.167	1.85
271.546	2.59
271.925	3.21
272.304	2.51
272.683	2.34
273.062	2.93
273.441	2.42
273.82	3
274.199	2.67
274.578	2.98
274.957	2.96
275.336	3.21
275.715	2.69
276.093	2.93
276.472	2.78
276.851	3.03
277.229	3.1
277.608	1.95
277.986	2.11
278.365	2.87
278.743	2.8
279.122	2.61
279.5	2.96
279.878	2.16
280.257	2.88
280.635	2.45
281.013	2.79
281.391	2.81
281.769	2.33
282.147	2.18
282.525	2.77
282.903	2.42
283.281	2.39
283.659	2.49
284.037	2.58
284.415	2
284.792	2.62
285.17	2.18
285.548	2.2
285.925	2.58
286.303	2.33
286.68	2.58
287.058	3.11
287.435	2.88
287.813	2.2
288.19	2.52
288.567	2.45
288.945	3.06
289.322	2.93
289.699	1.81
290.076	3.25
290.453	2.71
290.83	2.04
291.207	2.82
291.584	1.98
291.961	2.53
292.338	2.55
292.715	2.46
293.092	2.33
293.469	2.85
293.845	2.21
294.222	1.99
294.599	2.55
294.975	3.59
295.352	2.49
295.728	2.65
296.105	2.28
296.481	2.61
296.858	2.62
297.234	2.71
297.61	2.11
297.986	2.26
298.363	2.8
298.739	2.54
299.115	2.23
299.491	2.59
299.867	2.69
300.243	2.58
300.619	2.52
300.995	2.64
301.371	2.35
301.746	2.86
302.122	2.63
302.498	2.36
302.874	2.6
303.249	2.52
303.625	2.82
304	2.73
304.376	2.34
304.751	2.2
305.127	2.31
305.502	2.91
305.878	2.41
306.253	2.37
306.628	2.63
307.003	2.38
307.378	2.54
307.754	2.43
308.129	3.07
308.504	3.21
308.879	2.43
309.254	2.5
309.629	2.33
310.003	2.51
310.378	3.16
310.753	2.73
311.128	2.99
311.502	2.63
311.877	2.71
312.252	2.78
312.626	2.63
313.001	2.62
313.375	2.56
313.75	2.47
314.124	2.45
314.498	2.78
314.873	2.11
315.247	2.5
315.621	2.63
315.995	3.01
316.369	2.04
316.743	2.74
317.117	2.64
317.491	2.46
317.865	2.65
318.239	2.93
318.613	2.33
318.987	2.22
319.361	1.67
319.734	2.38
320.108	2.87
320.482	2.97
320.855	3.15
321.229	3.11
321.602	2.61
321.976	2.27
322.349	2.8
322.723	2.4
323.096	2.52
323.469	2.39
323.843	2.95
324.216	2.7
324.589	3.09
324.962	3.36
325.335	2.66
325.708	2.59
326.081	2.8
326.454	2.69
326.827	2.6
327.2	2.93
327.573	3.14
327.945	2.58
328.318	2.32
328.691	2.92
329.063	3.17
329.436	2.16
329.809	3.2
330.181	3.2
330.553	2.71
330.926	2.95
331.298	2.22
331.671	2.08
332.043	2.5
332.415	2.92
332.787	3.22
333.159	2.17
333.532	3.11
333.904	2.91
334.276	2.49
334.648	2.87
335.02	2.83
335.391	2.71
335.763	3.18
336.135	2.61
336.507	2.9
336.879	2.73
337.25	2.53
337.622	2.78
337.993	2.99
338.365	2.26
338.736	2.82
339.108	2.95
339.479	2.47
339.851	2.72
340.222	2.64
340.593	2.21
340.964	2.57
341.336	3.4
341.707	2.79
342.078	2.74
342.449	2.8
342.82	2.82
343.191	2.61
343.562	2.93
343.933	2.64
344.303	2.92
344.674	2.92
345.045	2.83
345.416	2.76
345.786	3.06
346.157	2.61
346.527	2.78
346.898	2.91
347.268	3.09
347.639	3.02
348.009	2.42
348.38	2.83
348.75	2.43
349.12	3.01
349.49	2.7
349.861	3.12
350.231	2.36
350.601	2.76
350.971	3.12
351.341	2.73
351.711	3.28
352.081	3.12
352.45	2.76
352.82	2.67
353.19	3.01
353.56	3.11
353.929	2.94
354.299	2.97
354.669	2.64
355.038	3.03
355.408	3.05
355.777	2.58
356.147	2.45
356.516	2.7
356.885	2.56
357.254	2.64
357.624	2.68
357.993	2.53
358.362	2.87
358.731	2.36
359.1	2.26
359.469	2.79
359.838	3.06
360.207	2.75
360.576	2.94
360.945	2.73
361.314	2.65
361.682	2.68
362.051	2.6
362.42	2.76
362.788	3.05
363.157	2.86
363.525	2.63
363.894	2.79
364.262	2.93
364.631	3
364.999	2.95
365.367	2.98
365.735	2.7
366.104	2.66
366.472	2.88
366.84	2.78
367.208	2.88
367.576	2.63
367.944	2.84
368.312	2.46
368.68	2.97
369.048	2.76
369.416	3.14
369.783	3.22
370.151	2.76
370.519	3.03
370.886	2.86
371.254	3.01
371.621	2.89
371.989	2.68
372.356	2.88
372.724	3.14
373.091	3.01
373.458	2.91
373.826	2.74
374.193	2.92
374.56	2.87
374.927	2.89
375.294	3.01
375.661	2.81
376.028	2.9
376.395	3.28
376.762	2.44
377.129	2.91
377.496	3.14
377.863	3.06
378.229	3.03
378.596	3.13
378.963	2.95
379.329	2.96
379.696	3.11
380.062	2.92
380.429	3.01
380.795	2.71
381.161	2.72
381.528	3.19
381.894	2.73
382.26	3.04
382.626	3.02
382.993	3.04
383.359	2.94
383.725	2.98
384.091	3.32
384.457	3.07
384.823	2.55
385.188	3.19
385.554	3.05
385.92	2.79
386.286	3.04
386.651	2.68
387.017	3.23
387.383	2.81
387.748	3
388.114	2.48
388.479	2.73
388.845	3.01
389.21	2.78
389.575	2.89
389.94	3.01
390.306	2.91
390.671	2.85
391.036	3.02
391.401	3.22
391.766	3.01
392.131	2.72
392.496	2.94
392.861	3.04
393.226	3.05
393.591	3.21
393.956	2.95
394.32	3.09
394.685	2.92
395.05	3.17
395.414	3.22
395.779	2.83
396.143	2.85
396.508	2.91
396.872	2.97
397.236	2.92
397.601	3.08
397.965	2.91
398.329	2.79
398.694	3.02
399.058	2.85
399.422	3
399.786	3.16
400.15	2.88
400.514	2.87
400.878	3.14
401.242	3.21
401.605	3.12
401.969	2.96
402.333	2.84
402.697	3.14
403.06	2.95
403.424	3.1
403.787	2.95
404.151	2.94
404.514	3.05
404.878	3.18
405.241	3.36
405.604	2.95
405.968	3.06
406.331	3.01
406.694	3.07
407.057	3.01
407.42	3.15
407.783	3.22
408.146	2.94
408.509	2.95
408.872	3.27
409.235	3.08
409.598	3.15
409.961	3.21
410.323	3.09
410.686	2.92
411.049	3.04
411.411	2.91
411.774	3.16
412.136	3.11
412.499	3.07
412.861	3.1
413.223	2.92
413.586	3.22
413.948	3.07
414.31	3.17
414.672	2.99
415.035	3.17
415.397	3.11
415.759	3.14
416.121	3.06
416.483	3.41
416.845	2.98
417.206	3.22
417.568	3.21
417.93	3.03
418.292	3
418.653	3.27
419.015	3.14
419.377	2.99
419.738	3.07
420.1	3.12
420.461	3.08
420.822	3.01
421.184	3.13
421.545	3.11
421.906	3.12
422.267	3
422.629	3.01
422.99	3.01
423.351	3.04
423.712	3.06
424.073	3.14
424.434	3.03
424.795	2.98
425.155	3.13
425.516	2.98
425.877	3.09
426.238	3.03
426.598	3.07
426.959	2.98
427.32	3.07
427.68	3.13
428.041	2.97
428.401	3.24
428.761	3.14
429.122	3.08
429.482	3.08
429.842	3.22
430.202	3.22
430.563	3.06
430.923	3.16
431.283	3.15
431.643	3.1
432.003	3.28
432.363	3.05
432.722	3.17
433.082	3.03
433.442	3.01
433.802	3.33
434.161	3.14
434.521	3.29
434.881	3.1
435.24	3.03
435.6	3.1
435.959	3.07
436.319	3.21
436.678	3.24
437.037	3.12
437.396	3.38
437.756	3.21
438.115	2.85
438.474	3.22
438.833	3.27
439.192	3.09
439.551	2.98
439.91	3.15
440.269	3.27
440.628	3.34
440.987	3.2
441.345	3.01
441.704	2.98
442.063	3.16
442.421	3.05
442.78	3.06
443.138	3.21
443.497	3.16
443.855	3.15
444.214	3.09
444.572	3.15
444.93	3.31
445.288	3.3
445.647	3.41
446.005	3.14
446.363	3.11
446.721	3.19
447.079	3.28
447.437	3.14
447.795	3.13
448.153	3.19
448.51	3.09
448.868	3.05
449.226	3.11
449.584	3.16
449.941	3.12
450.299	3.15
450.656	3.12
451.014	3.2
451.371	3.12
451.729	3.08
452.086	3.07
452.443	3.27
452.801	3.17
453.158	3.28
453.515	3.17
453.872	3.29
454.229	3.4
454.586	3.25
454.943	3.17
455.3	3.13
455.657	3.44
456.014	3.07
456.371	3.26
456.727	3.28
457.084	3.25
457.441	3.3
457.797	3.43
458.154	3.15
458.51	3.26
458.867	3.26
459.223	3.17
459.58	3.23
459.936	3.2
460.292	3.24
460.648	3.03
461.005	3.03
461.361	3.33
461.717	3.14
462.073	3.29
462.429	3.21
462.785	3.26
463.141	3.36
463.496	3.21
463.852	3.35
464.208	3.43
464.564	3.31
464.919	3.12
465.275	3.53
465.631	3.29
465.986	3.36
466.342	3.34
466.697	3.33
467.052	3.31
467.408	3.37
467.763	3.42
468.118	3.48
468.473	3.3
468.829	3.14
469.184	3.28
469.539	3.26
469.894	3.39
470.249	3.36
470.603	3.31
470.958	3.27
471.313	3.48
471.668	3.26
472.023	3.36
472.377	3.27
472.732	3.22
473.086	3.35
473.441	3.41
473.795	3.53
474.15	3.37
474.504	3.37
474.859	3.25
475.213	3.51
475.567	3.31
475.921	3.42
476.275	3.31
476.63	3.52
476.984	3.54
477.338	3.26
477.692	3.26
478.045	3.45
478.399	3.32
478.753	3.4
479.107	3.34
479.461	3.33
479.814	3.49
480.168	3.52
480.521	3.5
480.875	3.31
481.228	3.45
481.582	3.43
481.935	3.36
482.289	3.35
482.642	3.28
482.995	3.35
483.348	3.31
483.701	3.33
484.055	3.36
484.408	3.19
484.761	3.23
485.114	3.21
485.466	3.21
485.819	3.15
486.172	3.09
486.525	3.13
486.878	3.2
487.23	3.26
487.583	3.27
487.936	3.25
488.288	3.25
488.641	3.38
488.993	3.26
489.345	3.28
489.698	3.24
490.05	3.19
490.402	3.25
490.754	3.27
491.107	3.26
491.459	3.34
491.811	3.3
492.163	3.35
492.515	3.42
492.866	3.39
493.218	3.31
493.57	3.27
493.922	3.25
494.274	3.28
494.625	3.28
494.977	3.25
495.328	3.38
495.68	3.51
496.031	3.39
496.383	3.37
496.734	3.48
497.086	3.58
497.437	3.46
497.788	3.39
498.139	3.65
498.49	3.4
498.842	3.38
499.193	3.41
499.544	3.5
499.894	3.47
500.245	3.47
500.596	3.47
500.947	3.48
501.298	3.49
501.648	3.37
501.999	3.49
502.35	3.52
502.7	3.59
503.051	3.49
503.401	3.55
503.752	3.61
504.102	3.52
504.452	3.46
504.803	3.38
505.153	3.58
505.503	3.59
505.853	3.6
506.203	3.51
506.553	3.51
506.903	3.47
507.253	3.67
507.603	3.58
507.953	3.53
508.303	3.54
508.652	3.71
509.002	3.58
509.352	3.77
509.701	3.7
510.051	3.55
510.4	3.54
510.75	3.55
511.099	3.57
511.449	3.57
511.798	3.61
512.147	3.64
512.496	3.6
512.846	3.55
513.195	3.74
513.544	3.66
513.893	3.53
514.242	3.61
514.591	3.62
514.939	3.58
515.288	3.62
515.637	3.63
515.986	3.66
516.334	3.68
516.683	3.63
517.032	3.45
517.38	3.57
517.729	3.63
518.077	3.61
518.426	3.55
518.774	3.65
519.122	3.68
519.47	3.61
519.819	3.56
520.167	3.62
520.515	3.54
520.863	3.71
521.211	3.66
521.559	3.7
521.907	3.68
522.255	3.61
522.602	3.83
522.95	3.72
523.298	3.72
523.645	3.76
523.993	3.74
524.341	3.73
524.688	3.76
525.036	3.87
525.383	3.58
525.73	3.86
526.078	3.67
526.425	3.83
526.772	3.68
527.119	3.7
527.466	3.61
527.814	3.73
528.161	3.72
528.508	3.66
528.854	3.66
529.201	3.78
529.548	3.75
529.895	3.74
530.242	3.65
530.588	3.6
530.935	3.55
531.282	3.64
531.628	3.66
531.975	3.64
532.321	3.66
532.667	3.77
533.014	3.77
533.36	3.8
533.706	3.83
534.052	3.86
534.399	3.66
534.745	3.71
535.091	3.78
535.437	3.82
535.783	3.79
536.129	3.82
536.474	3.89
536.82	3.88
537.166	3.84
537.512	3.91
537.857	3.95
538.203	3.92
538.549	3.99
538.894	3.85
539.239	3.96
539.585	3.86
539.93	4.08
540.276	4.06
540.621	3.99
540.966	4.05
541.311	4.14
541.656	4.05
542.001	4.11
542.346	4.08
542.691	3.99
543.036	3.95
543.381	3.88
543.726	3.87
544.071	3.94
544.415	3.99
544.76	3.99
545.105	4.03
545.449	4
545.794	4.05
546.138	4.05
546.483	4.07
546.827	4.1
547.171	4.13
547.516	3.99
547.86	4.25
548.204	4.03
548.548	4.18
548.892	4.15
549.236	4.12
549.58	4.04
549.924	4.06
550.268	4.28
550.612	4.23
550.956	4.44
551.3	4.23
551.643	4.27
551.987	4.31
552.33	4.35
552.674	4.31
553.017	4.39
553.361	4.46
553.704	4.49
554.048	4.43
554.391	4.38
554.734	4.53
555.077	4.41
555.42	4.4
555.764	4.37
556.107	4.69
556.45	4.37
556.793	4.33
557.135	4.42
557.478	4.38
557.821	4.57
558.164	4.7
558.507	4.6
558.849	4.63
559.192	4.66
559.534	4.87
559.877	4.38
560.219	4.65
560.562	4.65
560.904	4.38
561.246	4.63
561.589	4.57
561.931	4.71
562.273	4.63
562.615	4.81
562.957	4.73
563.299	4.63
563.641	4.81
563.983	4.65
564.325	4.56
564.667	4.75
565.008	4.68
565.35	4.73
565.692	4.58
566.033	4.81
566.375	4.79
566.716	4.98
567.058	4.86
567.399	5.03
567.741	4.82
568.082	4.79
568.423	4.85
568.764	4.76
569.105	4.95
569.447	4.77
569.788	5.08
570.129	4.98
570.47	4.92
570.811	5.07
571.151	4.86
571.492	5.21
571.833	5.13
572.174	5.2
572.514	5.09
572.855	5
573.195	5.11
573.536	4.94
573.876	5.22
574.217	4.94
574.557	5.1
574.898	4.86
575.238	5.06
575.578	5.21
575.918	5
576.258	5.21
576.598	5.21
576.938	5.1
577.278	5.29
577.618	5.02
577.958	5.09
578.298	5.32
578.638	5.33
578.977	5.17
579.317	5.27
579.657	5.31
579.996	5.3
580.336	5.45
580.675	5.45
581.014	5.37
581.354	5.35
581.693	5.45
582.032	5.39
582.372	5.56
582.711	5.51
583.05	5.58
583.389	5.44
583.728	5.58
584.067	5.62
584.406	5.87
584.745	5.49
585.083	5.64
585.422	5.54
585.761	5.42
586.1	6.01
586.438	5.47
586.777	5.89
587.115	5.66
587.454	5.69
587.792	5.8
588.13	6
588.469	5.82
588.807	5.47
589.145	5.75
589.483	5.75
589.821	5.77
590.159	5.91
590.497	6.11
590.835	5.71
591.173	5.79
591.511	5.99
591.849	5.97
592.187	5.91
592.524	5.7
592.862	6.15
593.2	6.23
593.537	5.99
593.875	6.03
594.212	6.1
594.55	6.16
594.887	6.34
595.224	6.07
595.561	6.08
595.899	6.18
596.236	6.19
596.573	6.34
596.91	6.17
597.247	6.21
597.584	6.1
597.921	6.32
598.258	6.22
598.594	6.49
598.931	6.05
599.268	6.1
599.604	6.25
599.941	6.22
600.277	6.3
600.614	6.41
600.95	6.2
601.287	6.26
601.623	6.48
601.959	6.67
602.296	6.48
602.632	6.61
602.968	6.27
603.304	6.57
603.64	6.41
603.976	6.6
604.312	6.64
604.648	6.66
604.984	6.57
605.319	6.66
605.655	6.48
605.991	6.63
606.326	6.63
606.662	6.62
606.998	6.41
607.333	6.6
607.668	6.55
608.004	6.65
608.339	6.8
608.674	6.97
609.01	6.86
609.345	6.99
609.68	7.06
610.015	6.93
610.35	6.94
610.685	7.12
611.02	7.06
611.355	6.79
611.689	6.79
612.024	7.14
612.359	6.91
612.694	7.12
613.028	7.17
613.363	6.99
613.697	7.25
614.032	7.15
614.366	7.25
614.7	7.11
615.035	7.16
615.369	7.41
615.703	7.03
616.037	7.57
616.371	7.19
616.705	7.45
617.039	7.47
617.373	7.28
617.707	7.49
618.041	7.49
618.375	7.23
618.709	7.38
619.042	7.48
619.376	7.52
619.71	7.58
620.043	7.74
620.377	7.33
620.71	7.58
621.043	7.85
621.377	7.6
621.71	7.57
622.043	7.8
622.376	7.74
622.709	7.76
623.043	7.6
623.376	7.78
623.709	7.51
624.041	7.83
624.374	7.86
624.707	7.62
625.04	7.72
625.373	8.24
625.705	7.77
626.038	7.98
626.37	7.73
626.703	7.66
627.035	7.79
627.368	7.94
627.7	7.83
628.032	8.03
628.365	8.13
628.697	8.13
629.029	7.91
629.361	8.16
629.693	7.89
630.025	8.21
630.357	8.09
630.689	8.14
631.021	8.55
631.353	8.44
631.684	8.24
632.016	8.47
632.348	8.3
632.679	8.32
633.011	8.61
633.342	8.33
633.674	8.46
634.005	8.52
634.336	8.86
634.668	8.05
634.999	8.25
635.33	8.2
635.661	8.79
635.992	8.87
636.323	8.93
636.654	8.59
636.985	8.53
637.316	8.85
637.647	8.51
637.977	8.3
638.308	8.54
638.639	8.37
638.969	8.82
639.3	8.5
639.63	8.98
639.961	8.56
640.291	9.14
640.622	8.75
640.952	8.75
641.282	8.91
641.612	8.82
641.943	8.76
642.273	8.63
642.603	9.3
642.933	8.96
643.263	9.41
643.592	9.13
643.922	9.69
644.252	9.12
644.582	9.14
644.911	9.07
645.241	9.43
645.571	9.69
645.9	9.2
646.23	9.37
646.559	9.12
646.888	9.53
647.218	9.59
647.547	9.07
647.876	9.22
648.205	9.62
648.534	9.11
648.863	9.31
649.192	9.11
649.521	9.7
649.85	9.26
650.179	9.68
650.508	9.59
650.837	9.68
651.165	9.41
651.494	9.55
651.822	9.87
652.151	9.7
652.479	10.02
652.808	9.37
653.136	9.51
653.465	9.65
653.793	9.75
654.121	9.97
654.449	9.95
654.777	9.64
655.105	9.92
655.433	10.61
655.761	10.17
656.089	9.51
656.417	9.8
656.745	10.35
657.073	10.06
657.4	10.67
657.728	10.4
658.056	10.16
658.383	9.88
658.711	10.3
659.038	10.86
659.365	10.49
659.693	10.17
660.02	10.29
660.347	10.28
660.674	10.43
661.001	9.83
661.329	10.37
661.656	10.56
661.982	10.15
662.309	10.49
662.636	10.63
662.963	10.53
663.29	10.67
663.616	10.37
663.943	9.91
664.27	10.6
664.596	10.57
664.923	10.24
665.249	10.49
665.576	10.41
665.902	10.69
666.228	10.89
666.554	11.3
666.881	10.38
667.207	11.03
667.533	10.69
667.859	11.05
668.185	11.22
668.511	11
668.837	10.8
669.162	11.05
669.488	11.18
669.814	10.44
670.139	10.99
670.465	10.5
670.791	11.44
671.116	10.81
671.442	11.33
671.767	11.01
672.092	10.94
672.418	11.18
672.743	11.53
673.068	11.64
673.393	11.11
673.718	11.38
674.043	10.94
674.368	11.25
674.693	11.58
675.018	12.4
675.343	10.92
675.667	11.44
675.992	11.43
676.317	12.07
676.641	11.35
676.966	11.71
677.29	11.49
677.615	11.52
677.939	11.25
678.264	12.02
678.588	11.59
678.912	12.58
679.236	12.12
679.56	11.49
679.885	11.5
680.209	11.71
680.532	11.38
680.856	11.75
681.18	11.73
681.504	11.71
681.828	11.57
682.152	11.53
682.475	11.85
682.799	11.85
683.122	12.16
683.446	11.95
683.769	11.85
684.093	12.32
684.416	11.67
684.739	11.56
685.062	11.32
685.386	12.16
685.709	12.21
686.032	12.25
686.355	12.69
686.678	11.94
687.001	12.63
687.324	11.4
687.646	11.76
687.969	12.79
688.292	12.35
688.614	11.83
688.937	12.31
689.26	11.86
689.582	12.09
689.904	11.91
