Data from 0281_crown_Reflection__2__222.txt Node

Date: Fri Oct 20 22:29:11 CDT 2023
User: ToomeyLab
Spectrometer: FLMS14357
Trigger mode: 0
Integration Time (sec): 1.000000E-2
Scans to average: 100
Electric dark correction enabled: true
Nonlinearity correction enabled: false
Boxcar width: 0
XAxis mode: Wavelengths
Number of Pixels in Spectrum: 2048
>>>>>Begin Spectral Data<<<<<
189.047	-629.64
189.435	-629.64
189.823	-629.64
190.211	81.55
190.599	121.43
190.987	11.14
191.375	111.99
191.763	157.88
192.151	-26.25
192.538	19.64
192.926	102.96
193.314	109.01
193.702	107.47
194.089	148.81
194.477	-9.15
194.864	29.2
195.252	78.93
195.639	-149.2
196.027	-53.61
196.414	120.59
196.801	-189.03
197.189	112.43
197.576	75.32
197.963	-84.62
198.351	25.99
198.738	35.11
199.125	17.92
199.512	76.32
199.899	2.41
200.286	-19.93
200.673	37.8
201.06	4.94
201.447	43.39
201.833	9.91
202.22	19.12
202.607	31.45
202.994	16.79
203.38	-14.55
203.767	-10.41
204.154	5.31
204.54	26.21
204.927	-5.37
205.313	8.01
205.699	49.09
206.086	16.27
206.472	36.82
206.858	30.94
207.245	-24.52
207.631	58.89
208.017	29.8
208.403	28.2
208.789	20.88
209.175	-2.43
209.561	11.73
209.947	17.64
210.333	-28.5
210.719	23.81
211.105	27.87
211.491	2.06
211.876	11.75
212.262	35.5
212.648	24.98
213.034	-9.24
213.419	-5.16
213.805	19.84
214.19	-7.08
214.576	6.42
214.961	28.94
215.346	12.63
215.732	0.84
216.117	-21.51
216.502	21.47
216.888	18.41
217.273	0.12
217.658	-1.43
218.043	2.56
218.428	13.78
218.813	-14.14
219.198	-0.72
219.583	-25.35
219.968	-21.57
220.353	12.03
220.738	29.82
221.122	-31.31
221.507	-9.48
221.892	12.66
222.276	14.76
222.661	14.55
223.046	8.53
223.43	9.19
223.815	14.96
224.199	15.12
224.583	-8.99
224.968	-0.07
225.352	9.75
225.736	-0.62
226.121	5.45
226.505	-2.99
226.889	8.72
227.273	5.51
227.657	9.94
228.041	11.62
228.425	4.62
228.809	8.73
229.193	5.78
229.577	7.97
229.961	3.83
230.344	5.83
230.728	5.59
231.112	6.85
231.495	5.89
231.879	6.43
232.263	7.64
232.646	4.6
233.03	5.83
233.413	4.48
233.797	6.71
234.18	4.97
234.563	7.5
234.946	8.1
235.33	2.96
235.713	7.22
236.096	6.95
236.479	7.09
236.862	6.57
237.245	3.99
237.628	5.28
238.011	6.09
238.394	5.73
238.777	6.67
239.16	5.45
239.543	7.29
239.925	7.7
240.308	7.72
240.691	6.03
241.073	7.01
241.456	6.27
241.838	4.87
242.221	7.11
242.603	7.04
242.986	6.59
243.368	6.13
243.75	6.41
244.133	5.43
244.515	5.51
244.897	5.74
245.279	5.93
245.661	5.52
246.043	5.84
246.425	4.43
246.807	6.31
247.189	5.21
247.571	5.67
247.953	4.97
248.335	5.59
248.717	5.57
249.098	5.07
249.48	5.48
249.862	5.91
250.243	5.87
250.625	5.79
251.006	5.43
251.388	5.42
251.769	5.52
252.151	4.28
252.532	6.03
252.913	5.05
253.295	4.58
253.676	5.34
254.057	5.69
254.438	5.21
254.819	5.73
255.2	5.24
255.581	5
255.962	5.43
256.343	5.68
256.724	4.13
257.105	4.84
257.486	4.73
257.867	6.21
258.247	5.5
258.628	5.2
259.009	5.29
259.389	5.52
259.77	4.58
260.15	5.02
260.531	5.13
260.911	5.48
261.292	4.76
261.672	5.38
262.052	5.02
262.432	5.37
262.813	4.98
263.193	5.35
263.573	4.38
263.953	5.34
264.333	5.32
264.713	5.44
265.093	5.65
265.473	4.98
265.853	5.14
266.233	4.55
266.612	5.14
266.992	5.16
267.372	5.27
267.752	5.04
268.131	5.61
268.511	4.97
268.89	5.24
269.27	4.38
269.649	4.9
270.029	4.9
270.408	4.94
270.787	4.68
271.167	5.11
271.546	5.18
271.925	5.31
272.304	5.5
272.683	4.8
273.062	4.95
273.441	5.34
273.82	4.83
274.199	5.03
274.578	5.01
274.957	4.91
275.336	4.87
275.715	4.84
276.093	4.53
276.472	4.56
276.851	4.93
277.229	4.51
277.608	4.61
277.986	4.51
278.365	4.92
278.743	4.61
279.122	4.81
279.5	4.57
279.878	4.42
280.257	5.25
280.635	4.38
281.013	4.78
281.391	5.56
281.769	4.69
282.147	4.87
282.525	4.84
282.903	4.73
283.281	4.78
283.659	4.73
284.037	4.96
284.415	4
284.792	4.33
285.17	4.69
285.548	4.17
285.925	4.43
286.303	4.29
286.68	4.73
287.058	5.27
287.435	4.91
287.813	4.36
288.19	4.55
288.567	4.26
288.945	4.7
289.322	4.64
289.699	3.95
290.076	4.62
290.453	4.55
290.83	4.18
291.207	4.86
291.584	4.03
291.961	4.54
292.338	4.27
292.715	4.49
293.092	4.26
293.469	4.88
293.845	4.22
294.222	4.35
294.599	4.31
294.975	5.15
295.352	4.36
295.728	4.88
296.105	4.6
296.481	4.15
296.858	4.25
297.234	4.8
297.61	3.81
297.986	4.29
298.363	4.47
298.739	4.45
299.115	4.33
299.491	4.19
299.867	4.34
300.243	4.23
300.619	3.9
300.995	3.98
301.371	4.78
301.746	4.1
302.122	4.33
302.498	3.99
302.874	3.83
303.249	3.86
303.625	4.36
304	4.76
304.376	4.16
304.751	3.76
305.127	4.08
305.502	4.21
305.878	3.85
306.253	3.75
306.628	4.19
307.003	4.05
307.378	3.99
307.754	4.13
308.129	4.65
308.504	4.68
308.879	4.58
309.254	4.28
309.629	3.8
310.003	4.16
310.378	4.32
310.753	4.24
311.128	4.12
311.502	3.93
311.877	4.3
312.252	4.03
312.626	4.41
313.001	3.85
313.375	3.79
313.75	4.05
314.124	3.77
314.498	4.11
314.873	4.35
315.247	3.77
315.621	4.12
315.995	4.59
316.369	3.76
316.743	4.33
317.117	3.45
317.491	3.79
317.865	4.4
318.239	4.82
318.613	3.8
318.987	3.96
319.361	3.51
319.734	3.43
320.108	3.76
320.482	4.02
320.855	3.57
321.229	4.66
321.602	4.48
321.976	4.07
322.349	4.69
322.723	3.92
323.096	4.13
323.469	4.26
323.843	4.18
324.216	3.79
324.589	4.32
324.962	4.34
325.335	3.8
325.708	3.79
326.081	4.07
326.454	4.24
326.827	4.29
327.2	4.75
327.573	4.24
327.945	4.01
328.318	3.37
328.691	3.79
329.063	4.32
329.436	3.89
329.809	4.1
330.181	4.08
330.553	3.93
330.926	4.15
331.298	3.71
331.671	3.53
332.043	3.68
332.415	4.3
332.787	3.89
333.159	3.89
333.532	3.93
333.904	4.17
334.276	3.7
334.648	3.87
335.02	4.29
335.391	4.16
335.763	4.32
336.135	3.73
336.507	4.1
336.879	3.79
337.25	3.84
337.622	3.96
337.993	4.38
338.365	3.64
338.736	4.12
339.108	4.18
339.479	4.09
339.851	4.03
340.222	4.02
340.593	3.9
340.964	4.11
341.336	4.67
341.707	4.13
342.078	4.19
342.449	3.6
342.82	3.52
343.191	4.18
343.562	4.05
343.933	3.72
344.303	4.18
344.674	4.09
345.045	4.09
345.416	4.3
345.786	3.87
346.157	3.8
346.527	4.05
346.898	3.98
347.268	4.43
347.639	3.85
348.009	4.03
348.38	4.37
348.75	4.16
349.12	3.96
349.49	3.65
349.861	4.43
350.231	3.97
350.601	4.1
350.971	4.27
351.341	4.23
351.711	4.75
352.081	4.37
352.45	3.95
352.82	4.3
353.19	4.54
353.56	4.25
353.929	4.15
354.299	4.32
354.669	4.01
355.038	4.13
355.408	4.59
355.777	4.44
356.147	4.11
356.516	4.11
356.885	4.56
357.254	4.31
357.624	4.29
357.993	4.17
358.362	4.16
358.731	3.79
359.1	3.71
359.469	4.24
359.838	4.29
360.207	4.13
360.576	4.48
360.945	4.06
361.314	4.45
361.682	4.31
362.051	3.97
362.42	4.04
362.788	4.45
363.157	4.31
363.525	4.03
363.894	4.23
364.262	3.99
364.631	4.19
364.999	4.53
365.367	4.45
365.735	4.28
366.104	4.25
366.472	4.32
366.84	4.49
367.208	4.27
367.576	4.07
367.944	4.31
368.312	4.12
368.68	4.31
369.048	4.78
369.416	4.89
369.783	4.52
370.151	4.29
370.519	4.33
370.886	4.6
371.254	4.44
371.621	5.14
371.989	4.07
372.356	4.48
372.724	4.71
373.091	4.02
373.458	3.79
373.826	4.41
374.193	4.39
374.56	4.1
374.927	3.99
375.294	4.35
375.661	4.26
376.028	4.36
376.395	4.31
376.762	4.44
377.129	4.41
377.496	4.6
377.863	4.7
378.229	4.5
378.596	4.49
378.963	4.39
379.329	4.56
379.696	4.47
380.062	4.54
380.429	4.28
380.795	4.19
381.161	4.35
381.528	4.42
381.894	4.23
382.26	4.67
382.626	4.74
382.993	4.45
383.359	4.31
383.725	4.38
384.091	4.46
384.457	4.9
384.823	4.45
385.188	4.79
385.554	4.43
385.92	4.35
386.286	4.92
386.651	4.34
387.017	4.52
387.383	4.51
387.748	4.32
388.114	4.36
388.479	4.78
388.845	4.48
389.21	4.4
389.575	4.47
389.94	4.57
390.306	4.67
390.671	4.68
391.036	4.61
391.401	4.88
391.766	4.83
392.131	4.81
392.496	4.69
392.861	4.56
393.226	4.89
393.591	4.54
393.956	4.85
394.32	4.72
394.685	4.55
395.05	4.87
395.414	4.85
395.779	4.66
396.143	4.58
396.508	4.58
396.872	4.63
397.236	4.69
397.601	4.67
397.965	4.52
398.329	4.5
398.694	4.99
399.058	4.45
399.422	4.8
399.786	4.7
400.15	4.57
400.514	4.48
400.878	4.76
401.242	4.93
401.605	4.73
401.969	4.59
402.333	4.77
402.697	4.78
403.06	4.71
403.424	4.67
403.787	4.61
404.151	4.36
404.514	4.7
404.878	4.84
405.241	4.55
405.604	4.7
405.968	4.84
406.331	4.67
406.694	4.68
407.057	4.38
407.42	4.82
407.783	5.03
408.146	4.8
408.509	4.7
408.872	4.95
409.235	4.68
409.598	4.8
409.961	5.18
410.323	4.78
410.686	4.79
411.049	4.86
411.411	4.71
411.774	4.83
412.136	4.71
412.499	4.98
412.861	4.92
413.223	4.64
413.586	4.78
413.948	4.95
414.31	4.92
414.672	4.84
415.035	4.79
415.397	4.99
415.759	5.05
416.121	5.13
416.483	4.93
416.845	5.01
417.206	4.76
417.568	5
417.93	4.92
418.292	4.49
418.653	4.98
419.015	4.86
419.377	4.79
419.738	4.64
420.1	4.77
420.461	4.77
420.822	4.77
421.184	4.79
421.545	4.73
421.906	4.79
422.267	4.68
422.629	4.87
422.99	4.7
423.351	4.75
423.712	4.75
424.073	4.74
424.434	4.74
424.795	4.68
425.155	4.78
425.516	4.76
425.877	4.79
426.238	4.63
426.598	4.83
426.959	4.75
427.32	4.82
427.68	4.8
428.041	4.82
428.401	4.96
428.761	4.72
429.122	4.92
429.482	4.92
429.842	4.86
430.202	4.83
430.563	5.06
430.923	5.05
431.283	4.92
431.643	5.05
432.003	5.06
432.363	4.89
432.722	4.95
433.082	4.99
433.442	4.87
433.802	5.15
434.161	4.79
434.521	5.04
434.881	4.98
435.24	4.77
435.6	4.91
435.959	4.95
436.319	4.8
436.678	4.95
437.037	5.03
437.396	4.93
437.756	5.08
438.115	4.82
438.474	5.04
438.833	5.01
439.192	4.8
439.551	4.8
439.91	4.87
440.269	5.03
440.628	5.01
440.987	4.88
441.345	4.78
441.704	4.89
442.063	5.02
442.421	4.83
442.78	4.88
443.138	4.94
443.497	4.92
443.855	5.05
444.214	4.92
444.572	4.87
444.93	4.96
445.288	4.98
445.647	5.18
446.005	4.82
446.363	5.07
446.721	4.89
447.079	4.99
447.437	4.91
447.795	4.97
448.153	4.79
448.51	4.88
448.868	4.87
449.226	4.96
449.584	4.9
449.941	4.9
450.299	4.93
450.656	4.85
451.014	4.99
451.371	4.87
451.729	4.92
452.086	4.95
452.443	5.08
452.801	5.01
453.158	5.16
453.515	5.01
453.872	5.02
454.229	5.07
454.586	5.13
454.943	4.95
455.3	4.99
455.657	5.02
456.014	5.02
456.371	4.91
456.727	4.97
457.084	5.1
457.441	5.02
457.797	4.98
458.154	4.8
458.51	5.01
458.867	4.96
459.223	4.97
459.58	5.03
459.936	5.12
460.292	5
460.648	4.83
461.005	4.81
461.361	4.98
461.717	4.8
462.073	4.9
462.429	4.86
462.785	4.98
463.141	4.97
463.496	4.96
463.852	5.02
464.208	5.09
464.564	5.09
464.919	5.05
465.275	5.14
465.631	5.21
465.986	5.15
466.342	5.11
466.697	5.16
467.052	4.9
467.408	5.15
467.763	5.05
468.118	5.33
468.473	5.12
468.829	5.23
469.184	5.13
469.539	5
469.894	4.92
470.249	5.02
470.603	5.12
470.958	5.22
471.313	5.12
471.668	5.05
472.023	5.09
472.377	5.14
472.732	4.95
473.086	5.04
473.441	5.24
473.795	5.2
474.15	5.14
474.504	5.04
474.859	5.06
475.213	5.19
475.567	5.25
475.921	5.12
476.275	5.16
476.63	5.3
476.984	5.13
477.338	5.14
477.692	5.08
478.045	5.02
478.399	5.01
478.753	5.16
479.107	5.09
479.461	5.16
479.814	5.36
480.168	5.15
480.521	5.13
480.875	5.05
481.228	5.13
481.582	5.23
481.935	5.09
482.289	5.2
482.642	5.13
482.995	4.96
483.348	5
483.701	5.08
484.055	5.02
484.408	5
484.761	4.85
485.114	4.85
485.466	4.83
485.819	4.74
486.172	4.63
486.525	4.68
486.878	4.8
487.23	4.85
487.583	4.92
487.936	4.9
488.288	4.92
488.641	4.99
488.993	4.82
489.345	4.83
489.698	4.79
490.05	4.75
490.402	4.79
490.754	4.87
491.107	4.85
491.459	4.97
491.811	4.97
492.163	4.99
492.515	4.89
492.866	4.93
493.218	4.88
493.57	4.85
493.922	4.77
494.274	4.82
494.625	4.82
494.977	4.89
495.328	5.04
495.68	5.13
496.031	5.07
496.383	5.17
496.734	5.13
497.086	5.16
497.437	5.11
497.788	5.07
498.139	5.17
498.49	4.96
498.842	4.93
499.193	5.09
499.544	5.02
499.894	5.04
500.245	5.05
500.596	5.13
500.947	5.06
501.298	5.09
501.648	5.04
501.999	5.19
502.35	5.08
502.7	5.23
503.051	5.15
503.401	5.14
503.752	5.32
504.102	5.17
504.452	5.11
504.803	5.1
505.153	5.15
505.503	5.06
505.853	5.18
506.203	5.08
506.553	5.01
506.903	5.2
507.253	5.2
507.603	5.02
507.953	5.19
508.303	5.07
508.652	5.23
509.002	5.08
509.352	5.09
509.701	5.13
510.051	5.13
510.4	5.01
510.75	5.06
511.099	5.04
511.449	5.16
511.798	5.07
512.147	5.14
512.496	5.07
512.846	5.14
513.195	5.16
513.544	5.11
513.893	5.05
514.242	5.05
514.591	5.05
514.939	4.96
515.288	5.05
515.637	5.09
515.986	5.16
516.334	5.07
516.683	5.12
517.032	5.03
517.38	4.97
517.729	5.13
518.077	5.16
518.426	5.08
518.774	4.95
519.122	5.1
519.47	5.05
519.819	5
520.167	4.94
520.515	4.93
520.863	4.97
521.211	5.03
521.559	5.01
521.907	5
522.255	5.03
522.602	5.12
522.95	5.03
523.298	5.06
523.645	5.09
523.993	5.08
524.341	5.07
524.688	5.08
525.036	5.05
525.383	4.87
525.73	5.18
526.078	5.13
526.425	5.21
526.772	5.11
527.119	5.05
527.466	5.02
527.814	4.97
528.161	4.87
528.508	4.96
528.854	5.01
529.201	4.99
529.548	4.97
529.895	4.96
530.242	4.84
530.588	4.8
530.935	4.75
531.282	4.8
531.628	4.85
531.975	4.83
532.321	4.9
532.667	4.89
533.014	4.95
533.36	5.06
533.706	5.04
534.052	5.05
534.399	4.88
534.745	4.82
535.091	4.87
535.437	4.92
535.783	4.86
536.129	4.94
536.474	4.98
536.82	5.01
537.166	5
537.512	5.05
537.857	5.05
538.203	4.95
538.549	5.08
538.894	4.93
539.239	4.99
539.585	5
539.93	5.08
540.276	5.05
540.621	5.11
540.966	5.13
541.311	5.11
541.656	5.02
542.001	5.15
542.346	5.07
542.691	4.96
543.036	4.91
543.381	4.85
543.726	4.81
544.071	4.83
544.415	4.92
544.76	4.92
545.105	4.99
545.449	4.91
545.794	5
546.138	4.9
546.483	4.94
546.827	5.06
547.171	5.14
547.516	5.1
547.86	5.17
548.204	5.09
548.548	5
548.892	4.98
549.236	5.07
549.58	4.99
549.924	4.94
550.268	5.01
550.612	5.13
550.956	5.15
551.3	5.16
551.643	5
551.987	5.2
552.33	5.03
552.674	5.29
553.017	5.13
553.361	5.19
553.704	5.26
554.048	5.12
554.391	4.97
554.734	5.15
555.077	5.14
555.42	5.05
555.764	4.98
556.107	5.21
556.45	5.04
556.793	5.05
557.135	4.99
557.478	4.94
557.821	5.14
558.164	5.22
558.507	5.28
558.849	5.31
559.192	5.2
559.534	5.11
559.877	4.9
560.219	5.17
560.562	5.15
560.904	5.07
561.246	5.2
561.589	4.94
561.931	5.1
562.273	5.34
562.615	5.33
562.957	5.2
563.299	4.94
563.641	5.1
563.983	5
564.325	5.18
564.667	5.35
565.008	5.22
565.35	5.18
565.692	4.97
566.033	5.13
566.375	5.11
566.716	5.06
567.058	5.09
567.399	5.21
567.741	5.08
568.082	4.96
568.423	5.12
568.764	5.04
569.105	5.17
569.447	5.12
569.788	5.06
570.129	5.15
570.47	5.07
570.811	5.21
571.151	5
571.492	5.25
571.833	5.38
572.174	5.13
572.514	5.01
572.855	5.08
573.195	5.01
573.536	4.85
573.876	5.07
574.217	4.97
574.557	5.01
574.898	4.95
575.238	5.06
575.578	5.02
575.918	4.9
576.258	4.94
576.598	5.23
576.938	5.08
577.278	4.93
577.618	4.87
577.958	5
578.298	5.02
578.638	5.07
578.977	5.13
579.317	5.11
579.657	4.77
579.996	5.05
580.336	5.04
580.675	4.84
581.014	5.01
581.354	4.97
581.693	5.11
582.032	5.24
582.372	5
582.711	4.94
583.05	5.09
583.389	4.98
583.728	5.12
584.067	5.09
584.406	5.14
584.745	5.23
585.083	4.98
585.422	4.94
585.761	5.04
586.1	5.28
586.438	4.7
586.777	4.96
587.115	5.12
587.454	5.29
587.792	4.97
588.13	5.26
588.469	5.21
588.807	4.6
589.145	4.93
589.483	5.05
589.821	5.06
590.159	5.2
590.497	5.03
590.835	5.21
591.173	5.16
591.511	5.16
591.849	4.92
592.187	5.17
592.524	4.83
592.862	4.97
593.2	5.07
593.537	5.02
593.875	4.95
594.212	5.18
594.55	5.24
594.887	5.07
595.224	4.87
595.561	4.86
595.899	4.94
596.236	5.11
596.573	5.03
596.91	5.05
597.247	5.06
597.584	4.73
597.921	5.07
598.258	5.04
598.594	5.08
598.931	4.81
599.268	4.85
599.604	4.93
599.941	4.84
600.277	4.73
600.614	5.1
600.95	4.89
601.287	4.82
601.623	5.12
601.959	4.95
602.296	4.81
602.632	5.18
602.968	4.89
603.304	5.31
603.64	4.86
603.976	5.13
604.312	5.2
604.648	5.09
604.984	4.96
605.319	4.86
605.655	4.84
605.991	4.88
606.326	4.78
606.662	4.8
606.998	4.72
607.333	4.79
607.668	4.66
608.004	4.78
608.339	4.81
608.674	5.06
609.01	4.99
609.345	5.07
609.68	5.1
610.015	4.76
610.35	5.14
610.685	5.04
611.02	4.89
611.355	4.74
611.689	4.71
612.024	4.96
612.359	4.86
612.694	4.93
613.028	4.91
613.363	4.96
613.697	5
614.032	4.83
614.366	5.02
614.7	5.01
615.035	4.92
615.369	5.07
615.703	4.76
616.037	4.95
616.371	4.83
616.705	4.96
617.039	4.67
617.373	4.88
617.707	4.99
618.041	4.8
618.375	4.58
618.709	4.94
619.042	4.99
619.376	4.88
619.71	4.99
620.043	5.07
620.377	4.99
620.71	4.97
621.043	4.89
621.377	4.78
621.71	4.75
622.043	4.88
622.376	5.32
622.709	4.92
623.043	5.05
623.376	4.65
623.709	4.89
624.041	4.76
624.374	5.13
624.707	4.66
625.04	4.95
625.373	4.89
625.705	4.53
626.038	4.86
626.37	4.58
626.703	4.82
627.035	5.01
627.368	4.9
627.7	5.09
628.032	4.72
628.365	5.12
628.697	4.93
629.029	4.79
629.361	4.89
629.693	4.41
630.025	4.88
630.357	4.61
630.689	4.82
631.021	5.02
631.353	4.89
631.684	4.63
632.016	4.95
632.348	4.62
632.679	4.63
633.011	4.83
633.342	4.44
633.674	4.6
634.005	4.8
634.336	5.05
634.668	4.63
634.999	4.85
635.33	4.73
635.661	4.98
635.992	4.94
636.323	4.9
636.654	4.83
636.985	4.78
637.316	4.93
637.647	4.76
637.977	4.42
638.308	4.73
638.639	4.82
638.969	4.8
639.3	4.3
639.63	4.54
639.961	4.8
640.291	4.99
640.622	4.81
640.952	4.78
641.282	4.83
641.612	5.2
641.943	4.75
642.273	4.3
642.603	4.87
642.933	4.86
643.263	5.08
643.592	4.59
643.922	5.14
644.252	4.29
644.582	4.65
644.911	4.68
645.241	4.99
645.571	5.06
645.9	5.13
646.23	4.69
646.559	4.64
646.888	4.59
647.218	4.74
647.547	4.14
647.876	4.65
648.205	4.78
648.534	4.82
648.863	5.13
649.192	4.58
649.521	4.7
649.85	4.71
650.179	4.3
650.508	4.69
650.837	4.77
651.165	4.45
651.494	4.29
651.822	4.62
652.151	4.91
652.479	4.92
652.808	4.91
653.136	4.58
653.465	4.94
653.793	4.84
654.121	5.29
654.449	4.73
654.777	4.5
655.105	4.91
655.433	5
655.761	5.22
656.089	4.72
656.417	4.79
656.745	5.07
657.073	4.92
657.4	5.69
657.728	5.17
658.056	4.83
658.383	4.88
658.711	4.71
659.038	5
659.365	4.72
659.693	4.62
660.02	4.54
660.347	4.56
660.674	4.49
661.001	4.54
661.329	4.77
661.656	4.84
661.982	4.75
662.309	4.4
662.636	4.74
662.963	4.78
663.29	4.75
663.616	4.77
663.943	4.62
664.27	5.14
664.596	4.84
664.923	4.23
665.249	4.6
665.576	5.08
665.902	4.73
666.228	5.09
666.554	4.34
666.881	4.45
667.207	5.56
667.533	4.81
667.859	4.81
668.185	4.93
668.511	5.32
668.837	5.24
669.162	4.94
669.488	4.7
669.814	3.99
670.139	4.78
670.465	4.61
670.791	5.31
671.116	4.71
671.442	4.89
671.767	4.63
672.092	5.31
672.418	5.14
672.743	4.57
673.068	5.45
673.393	5.09
673.718	4.79
674.043	4.99
674.368	4.45
674.693	5.71
675.018	4.94
675.343	4.86
675.667	5.01
675.992	4.98
676.317	4.71
676.641	4.93
676.966	4.71
677.29	4.93
677.615	5.16
677.939	4.81
678.264	5.12
678.588	4.22
678.912	5.39
679.236	4.57
679.56	4.7
679.885	5.07
680.209	5.09
680.532	4.78
680.856	4.75
681.18	4.67
681.504	4.93
681.828	5.56
682.152	4.67
682.475	4.31
682.799	4.81
683.122	4.72
683.446	5.17
683.769	4.93
684.093	5.09
684.416	4.4
684.739	4.65
685.062	4.36
685.386	4.66
685.709	4.94
686.032	5.03
686.355	5.42
686.678	5.04
687.001	4.83
687.324	4.51
687.646	4.97
687.969	5.15
688.292	5.22
688.614	4.69
688.937	4.42
689.26	4.57
689.582	4.6
689.904	4.45
690.227	4.54
690.549	5.18
690.871	5.32
691.194	4.72
691.516	4.5
691.838	4.9
692.16	4.8
692.482	5.06
692.804	5.17
693.126	4.85
