Data from 0281_crown_Reflection__1__221.txt Node

Date: Fri Oct 20 22:29:02 CDT 2023
User: ToomeyLab
Spectrometer: FLMS14357
Trigger mode: 0
Integration Time (sec): 1.000000E-2
Scans to average: 100
Electric dark correction enabled: true
Nonlinearity correction enabled: false
Boxcar width: 0
XAxis mode: Wavelengths
Number of Pixels in Spectrum: 2048
>>>>>Begin Spectral Data<<<<<
189.047	806.69
189.435	806.69
189.823	806.69
190.211	42.92
190.599	248.16
190.987	90.14
191.375	48.77
191.763	319.67
192.151	83.93
192.538	-24.93
192.926	-59.09
193.314	256.63
193.702	13.1
194.089	172.87
194.477	2.1
194.864	111.47
195.252	60.84
195.639	-38.48
196.027	-85.93
196.414	82.81
196.801	-746.36
197.189	128.28
197.576	48.57
197.963	-99.72
198.351	35.27
198.738	8.13
199.125	22.18
199.512	79.16
199.899	24.6
200.286	-15.44
200.673	25.12
201.06	13.35
201.447	-8.54
201.833	24.59
202.22	28.55
202.607	42.47
202.994	30.22
203.38	14.25
203.767	9.96
204.154	15
204.54	48.01
204.927	-5.3
205.313	20.53
205.699	42.88
206.086	39.83
206.472	22.91
206.858	29.05
207.245	-19.62
207.631	24.2
208.017	11.31
208.403	3.77
208.789	38.73
209.175	-13.83
209.561	15.99
209.947	23.88
210.333	18.1
210.719	12.28
211.105	15.03
211.491	32.1
211.876	-17.73
212.262	6.71
212.648	20.78
213.034	14.94
213.419	21.59
213.805	22.71
214.19	13.35
214.576	-8.24
214.961	22.42
215.346	42
215.732	35.57
216.117	-48.94
216.502	17.91
216.888	16.94
217.273	20.16
217.658	-9.77
218.043	12.7
218.428	7.71
218.813	29.97
219.198	16.23
219.583	-21.77
219.968	-10.55
220.353	-3.29
220.738	-3.66
221.122	-4.24
221.507	13.87
221.892	12.56
222.276	0.86
222.661	23.53
223.046	9.19
223.43	15.92
223.815	28.21
224.199	21.91
224.583	-0.7
224.968	7.15
225.352	8.68
225.736	7.8
226.121	10.02
226.505	11.18
226.889	4.95
227.273	12.68
227.657	11.48
228.041	11.28
228.425	11.43
228.809	12.5
229.193	11.1
229.577	14.29
229.961	8.94
230.344	10.36
230.728	10.51
231.112	11.52
231.495	10.81
231.879	11.89
232.263	12.5
232.646	10.03
233.03	9.59
233.413	10.61
233.797	9.69
234.18	11.01
234.563	11.43
234.946	13.27
235.33	8.84
235.713	10.31
236.096	12.19
236.479	11.22
236.862	11.05
237.245	9.38
237.628	9.15
238.011	11.53
238.394	9.45
238.777	11.35
239.16	8.77
239.543	10.13
239.925	12.77
240.308	11.89
240.691	11.16
241.073	12.58
241.456	11.46
241.838	9.63
242.221	10.03
242.603	10.56
242.986	10.71
243.368	10.55
243.75	9.88
244.133	9.6
244.515	9.88
244.897	10.15
245.279	9.99
245.661	9.6
246.043	9.2
246.425	8.76
246.807	9.11
247.189	9.11
247.571	9.45
247.953	9.22
248.335	9.98
248.717	9.38
249.098	9.22
249.48	9.35
249.862	9.67
250.243	9.46
250.625	9.28
251.006	9.41
251.388	9.48
251.769	9.21
252.151	8.04
252.532	9.22
252.913	8.2
253.295	8.68
253.676	8.56
254.057	8.61
254.438	9.34
254.819	9.42
255.2	9.06
255.581	8.84
255.962	8.93
256.343	9.48
256.724	7.82
257.105	8.56
257.486	8.65
257.867	8.74
258.247	9.52
258.628	8.82
259.009	9.37
259.389	7.94
259.77	8.65
260.15	9.09
260.531	8.74
260.911	8.87
261.292	8.3
261.672	8.88
262.052	8.81
262.432	8.49
262.813	8.46
263.193	8.87
263.573	8.59
263.953	8.79
264.333	8.45
264.713	8.79
265.093	8.61
265.473	8.52
265.853	8.01
266.233	8.05
266.612	7.9
266.992	8.77
267.372	8.01
267.752	8.42
268.131	8.45
268.511	8.08
268.89	8.25
269.27	8
269.649	7.37
270.029	7.88
270.408	8.23
270.787	8.35
271.167	7.73
271.546	8.22
271.925	8.88
272.304	8.69
272.683	8.08
273.062	8.34
273.441	8.09
273.82	7.78
274.199	8.42
274.578	7.72
274.957	8.08
275.336	7.82
275.715	8.13
276.093	7.96
276.472	7.82
276.851	8.44
277.229	8.02
277.608	7.7
277.986	7.71
278.365	8.51
278.743	8.14
279.122	7.89
279.5	8.24
279.878	7.05
280.257	7.53
280.635	8.29
281.013	7.59
281.391	7.62
281.769	8
282.147	7.4
282.525	7.77
282.903	7.59
283.281	7.61
283.659	6.96
284.037	7.67
284.415	7
284.792	7.48
285.17	7.34
285.548	7.17
285.925	6.78
286.303	7.47
286.68	7.13
287.058	7.82
287.435	7.35
287.813	7.11
288.19	7.11
288.567	7.17
288.945	7.42
289.322	7.72
289.699	6.58
290.076	7.95
290.453	7.51
290.83	7.29
291.207	7.46
291.584	6.97
291.961	6.93
292.338	7.09
292.715	6.94
293.092	7.16
293.469	7.6
293.845	6.91
294.222	6.98
294.599	6.11
294.975	7.72
295.352	7.17
295.728	6.92
296.105	6.59
296.481	6.95
296.858	6.77
297.234	7.1
297.61	6.68
297.986	6.95
298.363	6.89
298.739	6.79
299.115	6.49
299.491	6.89
299.867	6.66
300.243	6.45
300.619	6.34
300.995	6.59
301.371	7.17
301.746	6.74
302.122	6.81
302.498	6.17
302.874	6.29
303.249	6.75
303.625	6.55
304	6.74
304.376	6.28
304.751	6.12
305.127	5.93
305.502	7.28
305.878	6.48
306.253	6.78
306.628	6.27
307.003	6.77
307.378	6.67
307.754	6.53
308.129	6.79
308.504	6.34
308.879	6.45
309.254	7
309.629	6.36
310.003	5.75
310.378	6.73
310.753	6.74
311.128	6.67
311.502	6.42
311.877	6.61
312.252	6.13
312.626	6.57
313.001	6.02
313.375	6.11
313.75	6.35
314.124	6.04
314.498	6.72
314.873	6.53
315.247	6.22
315.621	6.39
315.995	6.43
316.369	6.48
316.743	6.19
317.117	6.5
317.491	5.57
317.865	6.95
318.239	6.83
318.613	6.19
318.987	6.27
319.361	6.46
319.734	6.03
320.108	5.93
320.482	6.36
320.855	6.3
321.229	6.12
321.602	6.05
321.976	5.47
322.349	6.93
322.723	5.78
323.096	5.84
323.469	6.02
323.843	7.01
324.216	6.32
324.589	6.37
324.962	6.63
325.335	6.1
325.708	6.1
326.081	6.18
326.454	6.52
326.827	6.25
327.2	6.39
327.573	6.51
327.945	6.5
328.318	6.41
328.691	6.02
329.063	6.52
329.436	5.92
329.809	6.65
330.181	6.44
330.553	6.17
330.926	6.47
331.298	5.76
331.671	6.08
332.043	6.15
332.415	5.82
332.787	6.85
333.159	5.61
333.532	6.15
333.904	6.38
334.276	5.64
334.648	6.34
335.02	6.69
335.391	5.92
335.763	6.27
336.135	6.01
336.507	6.36
336.879	6.2
337.25	6.01
337.622	6.06
337.993	6.15
338.365	6.35
338.736	6.09
339.108	6.71
339.479	6.26
339.851	6.46
340.222	6.31
340.593	5.94
340.964	6.02
341.336	6.04
341.707	6.24
342.078	6.18
342.449	5.88
342.82	6.07
343.191	6.12
343.562	6.31
343.933	5.97
344.303	6.09
344.674	6.62
345.045	6.26
345.416	6.64
345.786	6.06
346.157	6.81
346.527	5.97
346.898	6.43
347.268	6.65
347.639	6.48
348.009	6.42
348.38	6.32
348.75	6.49
349.12	6.18
349.49	6.4
349.861	6.71
350.231	5.93
350.601	6.13
350.971	6.58
351.341	6.58
351.711	7.05
352.081	6.32
352.45	6.66
352.82	6.95
353.19	6.66
353.56	6.59
353.929	6.14
354.299	6.62
354.669	6.19
355.038	6.64
355.408	6.74
355.777	6.22
356.147	6.41
356.516	6.62
356.885	6.62
357.254	6.35
357.624	6.4
357.993	6.17
358.362	6.31
358.731	6.22
359.1	6.2
359.469	6.43
359.838	6.58
360.207	6.63
360.576	6.97
360.945	6.63
361.314	6.45
361.682	6.49
362.051	6.52
362.42	6.58
362.788	6.66
363.157	6.97
363.525	6.34
363.894	6.3
364.262	6.66
364.631	6.84
364.999	6.79
365.367	6.82
365.735	6.48
366.104	6.55
366.472	6.75
366.84	6.98
367.208	6.98
367.576	6.49
367.944	6.94
368.312	6.74
368.68	6.94
369.048	6.76
369.416	6.85
369.783	6.82
370.151	6.94
370.519	6.54
370.886	7
371.254	6.91
371.621	6.9
371.989	6.73
372.356	6.91
372.724	6.92
373.091	7
373.458	6.76
373.826	7.24
374.193	6.71
374.56	7.09
374.927	6.88
375.294	7.01
375.661	7.11
376.028	6.9
376.395	7.1
376.762	7.18
377.129	7.02
377.496	6.58
377.863	7.31
378.229	6.94
378.596	7.12
378.963	7.05
379.329	7.34
379.696	7.11
380.062	7.34
380.429	7.11
380.795	6.8
381.161	7.17
381.528	7.31
381.894	7.19
382.26	7.27
382.626	7.61
382.993	7.22
383.359	7.04
383.725	7.17
384.091	7.2
384.457	7.2
384.823	7.18
385.188	7.15
385.554	7.32
385.92	7.28
386.286	7.58
386.651	7.11
387.017	7.39
387.383	7.03
387.748	6.92
388.114	6.99
388.479	7.18
388.845	7.6
389.21	7.26
389.575	7.11
389.94	7.33
390.306	7.27
390.671	7.29
391.036	7.4
391.401	7.81
391.766	7.56
392.131	7.04
392.496	7.39
392.861	7.35
393.226	7.34
393.591	7.13
393.956	7.64
394.32	7.66
394.685	7.38
395.05	7.62
395.414	7.39
395.779	7.3
396.143	7.36
396.508	7.31
396.872	7.39
397.236	7.45
397.601	7.34
397.965	7.21
398.329	7.26
398.694	7.45
399.058	7.34
399.422	7.44
399.786	7.47
400.15	7.27
400.514	7.57
400.878	7.7
401.242	7.73
401.605	7.5
401.969	7.49
402.333	7.41
402.697	7.42
403.06	7.55
403.424	7.61
403.787	7.71
404.151	7.57
404.514	7.73
404.878	7.82
405.241	7.7
405.604	7.4
405.968	7.58
406.331	7.39
406.694	7.66
407.057	7.38
407.42	7.66
407.783	7.51
408.146	7.51
408.509	7.56
408.872	7.84
409.235	7.6
409.598	7.73
409.961	7.81
410.323	7.8
410.686	7.69
411.049	7.71
411.411	7.6
411.774	7.66
412.136	7.59
412.499	7.71
412.861	7.57
413.223	7.77
413.586	7.54
413.948	7.65
414.31	7.74
414.672	7.49
415.035	7.66
415.397	7.73
415.759	7.79
416.121	7.67
416.483	7.8
416.845	7.62
417.206	7.83
417.568	7.78
417.93	7.5
418.292	7.59
418.653	7.88
419.015	7.65
419.377	7.51
419.738	7.7
420.1	7.57
420.461	7.6
420.822	7.68
421.184	7.57
421.545	7.64
421.906	7.69
422.267	7.63
422.629	7.68
422.99	7.56
423.351	7.59
423.712	7.65
424.073	7.58
424.434	7.6
424.795	7.61
425.155	7.66
425.516	7.64
425.877	7.6
426.238	7.62
426.598	7.63
426.959	7.53
427.32	7.63
427.68	7.69
428.041	7.55
428.401	7.72
428.761	7.75
429.122	7.63
429.482	7.79
429.842	7.79
430.202	7.96
430.563	7.91
430.923	7.77
431.283	7.69
431.643	7.91
432.003	7.99
432.363	7.66
432.722	7.79
433.082	7.92
433.442	7.8
433.802	7.95
434.161	7.61
434.521	7.84
434.881	7.91
435.24	7.82
435.6	7.78
435.959	7.78
436.319	7.69
436.678	7.82
437.037	7.74
437.396	7.84
437.756	7.96
438.115	7.71
438.474	7.78
438.833	7.92
439.192	7.68
439.551	7.85
439.91	7.92
440.269	8.08
440.628	7.91
440.987	7.74
441.345	7.79
441.704	7.86
442.063	7.83
442.421	7.76
442.78	7.76
443.138	7.77
443.497	7.83
443.855	7.79
444.214	7.88
444.572	7.88
444.93	7.99
445.288	7.79
445.647	8.1
446.005	7.68
446.363	7.82
446.721	7.79
447.079	7.92
447.437	7.9
447.795	7.7
448.153	7.7
448.51	7.8
448.868	7.69
449.226	7.7
449.584	7.8
449.941	7.64
450.299	7.78
450.656	7.77
451.014	7.9
451.371	7.84
451.729	7.79
452.086	7.84
452.443	7.87
452.801	7.85
453.158	7.96
453.515	7.85
453.872	7.78
454.229	8.05
454.586	7.88
454.943	7.87
455.3	7.8
455.657	7.97
456.014	7.86
456.371	7.95
456.727	8.03
457.084	7.95
457.441	8.01
457.797	7.85
458.154	7.83
458.51	7.94
458.867	7.97
459.223	7.97
459.58	8.1
459.936	7.88
460.292	8.04
460.648	7.75
461.005	7.77
461.361	7.91
461.717	7.71
462.073	7.77
462.429	7.7
462.785	7.81
463.141	7.82
463.496	7.8
463.852	7.89
464.208	7.85
464.564	7.94
464.919	7.86
465.275	8.07
465.631	8.05
465.986	7.93
466.342	7.88
466.697	7.97
467.052	7.87
467.408	7.97
467.763	8.05
468.118	8.13
468.473	8
468.829	7.98
469.184	7.96
469.539	8.19
469.894	8
470.249	7.88
470.603	7.91
470.958	8.09
471.313	8
471.668	8.02
472.023	7.78
472.377	7.98
472.732	8.11
473.086	7.94
473.441	8.04
473.795	7.99
474.15	7.89
474.504	7.78
474.859	7.91
475.213	8.01
475.567	7.85
475.921	7.87
476.275	7.92
476.63	8
476.984	8.01
477.338	7.91
477.692	7.93
478.045	7.94
478.399	7.9
478.753	7.9
479.107	7.85
479.461	7.94
479.814	7.99
480.168	8.09
480.521	8.04
480.875	7.85
481.228	7.88
481.582	8
481.935	8.01
482.289	7.86
482.642	8.01
482.995	7.97
483.348	7.84
483.701	7.81
484.055	7.94
484.408	7.79
484.761	7.7
485.114	7.68
485.466	7.56
485.819	7.53
486.172	7.45
486.525	7.48
486.878	7.4
487.23	7.5
487.583	7.55
487.936	7.65
488.288	7.61
488.641	7.72
488.993	7.67
489.345	7.63
489.698	7.55
490.05	7.52
490.402	7.54
490.754	7.6
491.107	7.57
491.459	7.67
491.811	7.64
492.163	7.74
492.515	7.82
492.866	7.78
493.218	7.69
493.57	7.67
493.922	7.65
494.274	7.59
494.625	7.6
494.977	7.53
495.328	7.72
495.68	7.84
496.031	7.79
496.383	7.96
496.734	7.94
497.086	7.93
497.437	7.87
497.788	7.99
498.139	8.01
498.49	7.88
498.842	7.81
499.193	7.94
499.544	7.78
499.894	7.84
500.245	7.69
500.596	7.98
500.947	7.96
501.298	7.79
501.648	7.86
501.999	7.94
502.35	7.86
502.7	8.09
503.051	7.98
503.401	7.89
503.752	7.99
504.102	7.83
504.452	7.97
504.803	7.95
505.153	7.9
505.503	7.87
505.853	8.02
506.203	7.73
506.553	7.88
506.903	7.85
507.253	7.92
507.603	7.9
507.953	7.88
508.303	7.82
508.652	7.96
509.002	7.92
509.352	8.06
509.701	7.88
510.051	7.71
510.4	7.91
510.75	7.89
511.099	7.71
511.449	7.72
511.798	7.86
512.147	7.86
512.496	7.79
512.846	7.84
513.195	7.86
513.544	7.83
513.893	7.71
514.242	7.91
514.591	7.98
514.939	7.79
515.288	7.8
515.637	7.85
515.986	7.96
516.334	7.83
516.683	7.88
517.032	7.81
517.38	7.81
517.729	7.8
518.077	7.78
518.426	7.76
518.774	7.81
519.122	7.82
519.47	7.83
519.819	7.71
520.167	7.74
520.515	7.78
520.863	7.76
521.211	7.74
521.559	7.82
521.907	7.63
522.255	7.74
522.602	7.84
522.95	7.6
523.298	7.78
523.645	7.85
523.993	7.88
524.341	7.78
524.688	7.82
525.036	7.93
525.383	7.74
525.73	7.92
526.078	7.77
526.425	7.9
526.772	7.67
527.119	7.83
527.466	7.67
527.814	7.74
528.161	7.66
528.508	7.6
528.854	7.66
529.201	7.62
529.548	7.65
529.895	7.64
530.242	7.58
530.588	7.5
530.935	7.48
531.282	7.47
531.628	7.5
531.975	7.42
532.321	7.47
532.667	7.57
533.014	7.64
533.36	7.72
533.706	7.64
534.052	7.69
534.399	7.69
534.745	7.56
535.091	7.57
535.437	7.63
535.783	7.57
536.129	7.59
536.474	7.61
536.82	7.65
537.166	7.55
537.512	7.68
537.857	7.81
538.203	7.73
538.549	7.81
538.894	7.62
539.239	7.7
539.585	7.66
539.93	7.7
540.276	7.8
540.621	7.77
540.966	7.81
541.311	7.66
541.656	7.75
542.001	7.86
542.346	7.7
542.691	7.64
543.036	7.65
543.381	7.57
543.726	7.56
544.071	7.47
544.415	7.48
544.76	7.49
545.105	7.62
545.449	7.58
545.794	7.64
546.138	7.61
546.483	7.54
546.827	7.52
547.171	7.75
547.516	7.79
547.86	7.87
548.204	7.72
548.548	7.63
548.892	7.63
549.236	7.79
549.58	7.65
549.924	7.61
550.268	7.69
550.612	7.81
550.956	7.85
551.3	7.65
551.643	7.8
551.987	7.86
552.33	7.84
552.674	7.74
553.017	7.64
553.361	7.76
553.704	7.72
554.048	7.78
554.391	7.77
554.734	7.85
555.077	7.68
555.42	7.49
555.764	7.76
556.107	7.8
556.45	7.71
556.793	7.55
557.135	7.72
557.478	7.62
557.821	7.88
558.164	7.84
558.507	7.71
558.849	7.74
559.192	7.8
559.534	7.89
559.877	7.53
560.219	7.76
560.562	7.76
560.904	7.78
561.246	7.72
561.589	7.71
561.931	7.85
562.273	7.85
562.615	7.83
562.957	7.84
563.299	7.77
563.641	7.69
563.983	7.52
564.325	7.52
564.667	7.66
565.008	7.6
565.35	7.79
565.692	7.72
566.033	7.6
566.375	7.62
566.716	7.77
567.058	7.7
567.399	7.73
567.741	7.84
568.082	7.81
568.423	7.62
568.764	7.51
569.105	7.77
569.447	7.57
569.788	7.63
570.129	7.8
570.47	7.6
570.811	7.75
571.151	7.47
571.492	7.84
571.833	7.79
572.174	7.56
572.514	7.63
572.855	7.56
573.195	7.67
573.536	7.53
573.876	7.76
574.217	7.5
574.557	7.54
574.898	7.53
575.238	7.52
575.578	7.59
575.918	7.46
576.258	7.52
576.598	7.54
576.938	7.49
577.278	7.67
577.618	7.46
577.958	7.41
578.298	7.49
578.638	7.66
578.977	7.58
579.317	7.65
579.657	7.56
579.996	7.63
580.336	7.59
580.675	7.38
581.014	7.49
581.354	7.35
581.693	7.4
582.032	7.82
582.372	7.42
582.711	7.57
583.05	7.89
583.389	7.64
583.728	7.69
584.067	7.53
584.406	7.38
584.745	7.57
585.083	7.52
585.422	7.42
585.761	7.49
586.1	7.51
586.438	7.13
586.777	7.43
587.115	7.55
587.454	7.57
587.792	7.54
588.13	7.56
588.469	7.59
588.807	7.27
589.145	7.31
589.483	7.25
589.821	7.25
590.159	7.29
590.497	7.65
590.835	7.62
591.173	7.22
591.511	7.54
591.849	7.33
592.187	7.5
592.524	7.46
592.862	7.32
593.2	7.49
593.537	7.22
593.875	7.31
594.212	7.52
594.55	7.48
594.887	7.39
595.224	7.27
595.561	7.01
595.899	7.4
596.236	7.37
596.573	7.5
596.91	7.37
597.247	7.46
597.584	7.1
597.921	7.48
598.258	7.37
598.594	7.45
598.931	7.08
599.268	7.29
599.604	7.35
599.941	7.41
600.277	7.11
600.614	7.26
600.95	7.2
601.287	6.98
601.623	7.37
601.959	7.38
602.296	7.14
602.632	7.47
602.968	7.12
603.304	7.42
603.64	7.28
603.976	7.28
604.312	7.19
604.648	7.3
604.984	7.29
605.319	7.17
605.655	7.11
605.991	7.23
606.326	7.17
606.662	7.01
606.998	7.13
607.333	7.03
607.668	6.99
608.004	7.03
608.339	7.04
608.674	7.22
609.01	7.03
609.345	7.63
609.68	7.42
610.015	6.96
610.35	7.35
610.685	7.24
611.02	7.18
611.355	7.09
611.689	7.14
612.024	7.27
612.359	7.04
612.694	7.26
613.028	7.04
613.363	7.12
613.697	7.03
614.032	7.27
614.366	7.21
614.7	6.87
615.035	6.95
615.369	7.1
615.703	6.95
616.037	7.22
616.371	7.1
616.705	6.82
617.039	7.06
617.373	7.15
617.707	7.4
618.041	6.97
618.375	7.12
618.709	7.39
619.042	6.97
619.376	7.13
619.71	7.22
620.043	7.4
620.377	6.93
620.71	7.13
621.043	6.93
621.377	6.97
621.71	7.35
622.043	6.89
622.376	7.23
622.709	7.36
623.043	7.31
623.376	7.04
623.709	6.86
624.041	6.95
624.374	7
624.707	6.51
625.04	7.11
625.373	7.14
625.705	6.81
626.038	7.45
626.37	6.58
626.703	6.72
627.035	6.95
627.368	7.07
627.7	7.28
628.032	6.9
628.365	7.25
628.697	7.17
629.029	6.88
629.361	7.38
629.693	6.58
630.025	6.96
630.357	7.01
630.689	7.02
631.021	7.08
631.353	6.78
631.684	6.83
632.016	7.07
632.348	6.7
632.679	6.62
633.011	7.09
633.342	6.66
633.674	7.04
634.005	7.02
634.336	7.08
634.668	6.83
634.999	6.62
635.33	6.53
635.661	7.08
635.992	6.94
636.323	6.89
636.654	6.75
636.985	6.84
637.316	6.77
637.647	6.95
637.977	6.48
638.308	6.84
638.639	6.87
638.969	6.72
639.3	6.63
639.63	6.73
639.961	6.79
640.291	6.83
640.622	6.77
640.952	7.11
641.282	6.85
641.612	7.15
641.943	7.35
642.273	6.59
642.603	7.16
642.933	6.84
643.263	6.99
643.592	6.66
643.922	7.47
644.252	6.45
644.582	6.66
644.911	6.63
645.241	6.72
645.571	7.45
645.9	6.4
646.23	7.05
646.559	6.84
646.888	6.88
647.218	7
647.547	6.59
647.876	6.9
648.205	6.87
648.534	6.51
648.863	6.85
649.192	6.41
649.521	6.66
649.85	6.82
650.179	6.56
650.508	6.2
650.837	6.88
651.165	7.24
651.494	6.54
651.822	6.94
652.151	6.86
652.479	6.35
652.808	6.51
653.136	6.58
653.465	6.92
653.793	6.94
654.121	7.52
654.449	6.85
654.777	6.9
655.105	6.69
655.433	7.3
655.761	6.91
656.089	6.55
656.417	6.65
656.745	6.82
657.073	6.61
657.4	7.73
657.728	6.89
658.056	6.99
658.383	6.43
658.711	6.49
659.038	7
659.365	6.63
659.693	6.25
660.02	6.79
660.347	6.64
660.674	6.89
661.001	6.3
661.329	6.91
661.656	6.81
661.982	6.62
662.309	6.71
662.636	6.51
662.963	6.84
663.29	6.54
663.616	6.68
663.943	6.28
664.27	6.52
664.596	6.94
664.923	6.59
665.249	6.24
665.576	6.74
665.902	6.34
666.228	7.14
666.554	6.93
666.881	6.57
667.207	6.36
667.533	6.66
667.859	6.65
668.185	6.73
668.511	7.57
668.837	6.8
669.162	7.37
669.488	7.07
669.814	6.45
670.139	6.95
670.465	6.69
670.791	6.69
671.116	6.93
671.442	6.44
671.767	6.4
672.092	6.54
672.418	6.11
672.743	6.46
673.068	7.16
673.393	6.76
673.718	6.65
674.043	6.28
674.368	6.66
674.693	7.01
675.018	7.25
675.343	6.65
675.667	6.82
675.992	6.87
676.317	6.92
676.641	6.76
676.966	6.93
677.29	6.91
677.615	6.16
677.939	6.24
678.264	6.56
678.588	6.52
678.912	6.53
679.236	7.1
679.56	6.68
679.885	7.08
680.209	7.18
680.532	6.56
680.856	6.11
681.18	6.8
681.504	6.59
681.828	6.55
682.152	6.69
682.475	6.21
682.799	6.88
683.122	7.06
683.446	7
683.769	6.67
684.093	6.85
684.416	6.71
684.739	6.1
685.062	6.5
685.386	6.2
685.709	6.52
686.032	6.76
686.355	6.74
686.678	6.4
687.001	7.43
687.324	6.22
687.646	6.75
687.969	6.88
688.292	6.86
688.614	6.73
688.937	6.27
689.26	6.51
689.582	6.14
689.904	5.76
690.227	7.09
690.549	6.55
690.871	6.93
691.194	7.61
691.516	6.84
691.838	7.57
692.16	6.02
692.482	5.77
