Data from 0281_chest_Reflection__1__216.txt Node

Date: Fri Oct 20 22:27:26 CDT 2023
User: ToomeyLab
Spectrometer: FLMS14357
Trigger mode: 0
Integration Time (sec): 1.000000E-2
Scans to average: 100
Electric dark correction enabled: true
Nonlinearity correction enabled: false
Boxcar width: 0
XAxis mode: Wavelengths
Number of Pixels in Spectrum: 2048
>>>>>Begin Spectral Data<<<<<
189.047	791.01
189.435	791.01
189.823	791.01
190.211	2.8
190.599	41.08
190.987	61.76
191.375	-10.79
191.763	1331.54
192.151	39.14
192.538	94.71
192.926	61.76
193.314	409.25
193.702	83.27
194.089	118.5
194.477	30.21
194.864	-33.28
195.252	50.92
195.639	66.39
196.027	-18.47
196.414	76.42
196.801	-786.07
197.189	138.46
197.576	69
197.963	-108.66
198.351	40.26
198.738	17.71
199.125	18.99
199.512	53.48
199.899	11.31
200.286	7.49
200.673	-3.92
201.06	-18.02
201.447	1.11
201.833	32.1
202.22	34.27
202.607	18.59
202.994	13.08
203.38	-28.36
203.767	14.56
204.154	29.7
204.54	33.17
204.927	12.13
205.313	-25.1
205.699	36.97
206.086	4.45
206.472	28.35
206.858	29.6
207.245	-0.17
207.631	53.57
208.017	1.71
208.403	23.14
208.789	21.66
209.175	16.69
209.561	33
209.947	-2.95
210.333	-18.48
210.719	3.73
211.105	14.67
211.491	17.58
211.876	-16.81
212.262	30.98
212.648	4.46
213.034	-14.6
213.419	1.48
213.805	-20.41
214.19	-4.71
214.576	29.64
214.961	32.08
215.346	16.17
215.732	13.4
216.117	-26.26
216.502	26.03
216.888	28.78
217.273	1.86
217.658	3.93
218.043	3.17
218.428	-2.96
218.813	16.83
219.198	8.59
219.583	-5.95
219.968	-24.16
220.353	-0.03
220.738	8.02
221.122	-18.31
221.507	8.96
221.892	-6.79
222.276	4.04
222.661	13.79
223.046	5.68
223.43	-2.18
223.815	7.3
224.199	16.46
224.583	-3.27
224.968	9.48
225.352	5.16
225.736	7.24
226.121	11.35
226.505	3.76
226.889	0.19
227.273	6.5
227.657	2.27
228.041	9.7
228.425	3.15
228.809	5.44
229.193	2.7
229.577	7.06
229.961	1.88
230.344	3.38
230.728	2.04
231.112	3.62
231.495	2.41
231.879	3.25
232.263	3.2
232.646	0.55
233.03	0.85
233.413	1.97
233.797	3.44
234.18	2.81
234.563	3.87
234.946	2.61
235.33	3.01
235.713	1.74
236.096	4.7
236.479	3.4
236.862	3.31
237.245	1.86
237.628	1.47
238.011	4.28
238.394	1.62
238.777	3.86
239.16	2.52
239.543	1.78
239.925	5.63
240.308	2.31
240.691	1.58
241.073	2.69
241.456	4.92
241.838	3.21
242.221	3.58
242.603	3.03
242.986	3.03
243.368	2.94
243.75	2.56
244.133	2.03
244.515	2.27
244.897	2.54
245.279	2.9
245.661	2.11
246.043	2.21
246.425	2.87
246.807	2.59
247.189	2.23
247.571	2.7
247.953	2.17
248.335	2.53
248.717	2
249.098	2.03
249.48	2.09
249.862	2.66
250.243	2.84
250.625	2.78
251.006	2.55
251.388	2.77
251.769	2.21
252.151	1.34
252.532	1.6
252.913	1.99
253.295	1.11
253.676	2.44
254.057	2.09
254.438	2.31
254.819	2.68
255.2	2.07
255.581	2.01
255.962	2.58
256.343	3.92
256.724	1.19
257.105	3.29
257.486	3.51
257.867	2.73
258.247	2.5
258.628	1.71
259.009	1.42
259.389	2.06
259.77	2.22
260.15	2.49
260.531	2.09
260.911	2.49
261.292	1.77
261.672	2.29
262.052	2.43
262.432	2.23
262.813	2.14
263.193	2.54
263.573	1.97
263.953	2.34
264.333	2.03
264.713	2.72
265.093	2.57
265.473	2.21
265.853	1.77
266.233	2.01
266.612	1.89
266.992	2.66
267.372	1.6
267.752	1.65
268.131	2.32
268.511	2.21
268.89	2.75
269.27	1.79
269.649	1.78
270.029	2.34
270.408	2.36
270.787	2.67
271.167	1.62
271.546	2.14
271.925	2.49
272.304	2.75
272.683	2.19
273.062	2.24
273.441	1.97
273.82	1.95
274.199	2.55
274.578	2.34
274.957	2.23
275.336	2.25
275.715	2.71
276.093	2.02
276.472	2.42
276.851	2.77
277.229	2.37
277.608	1.9
277.986	1.68
278.365	2.75
278.743	2.19
279.122	2.14
279.5	1.63
279.878	2.04
280.257	1.73
280.635	2.42
281.013	2.83
281.391	2.5
281.769	2.12
282.147	1.71
282.525	2.44
282.903	2.26
283.281	2.41
283.659	2.05
284.037	2.04
284.415	1.85
284.792	2.08
285.17	2.17
285.548	2
285.925	1.59
286.303	1.71
286.68	1.62
287.058	2.57
287.435	2.27
287.813	1.56
288.19	1.87
288.567	1.99
288.945	2.62
289.322	2.24
289.699	1.49
290.076	2.67
290.453	1.93
290.83	2
291.207	2.52
291.584	1.7
291.961	1.98
292.338	2.13
292.715	2.01
293.092	2.01
293.469	2.54
293.845	2.06
294.222	1.57
294.599	2.08
294.975	2.73
295.352	1.81
295.728	2.14
296.105	1.97
296.481	1.76
296.858	1.93
297.234	2.28
297.61	1.65
297.986	2.09
298.363	2.26
298.739	2.25
299.115	1.92
299.491	2.07
299.867	2.27
300.243	2.37
300.619	1.97
300.995	1.9
301.371	2.43
301.746	1.94
302.122	2.04
302.498	2.15
302.874	2.06
303.249	2.16
303.625	2.08
304	2.45
304.376	1.8
304.751	1.89
305.127	1.72
305.502	2.68
305.878	1.68
306.253	2.25
306.628	2.4
307.003	2.28
307.378	1.53
307.754	2.23
308.129	2.26
308.504	2.4
308.879	2.28
309.254	2
309.629	1.54
310.003	1.98
310.378	2.4
310.753	1.86
311.128	2.2
311.502	2.25
311.877	2.24
312.252	2.12
312.626	2.26
313.001	2.48
313.375	2.13
313.75	2.36
314.124	2.17
314.498	2.3
314.873	1.73
315.247	2.28
315.621	2.21
315.995	2.13
316.369	2.06
316.743	2.11
317.117	2.15
317.491	1.56
317.865	2.32
318.239	2.62
318.613	2.31
318.987	1.94
319.361	1.67
319.734	2.05
320.108	1.11
320.482	2.29
320.855	2.85
321.229	2.97
321.602	2.06
321.976	2.01
322.349	2.21
322.723	2.32
323.096	2.29
323.469	1.96
323.843	2.5
324.216	2.43
324.589	3.02
324.962	2.58
325.335	2.28
325.708	2.23
326.081	2.35
326.454	2.2
326.827	2.52
327.2	2.24
327.573	2.28
327.945	2.31
328.318	2.09
328.691	2.41
329.063	2.55
329.436	1.35
329.809	2.63
330.181	2.9
330.553	2.67
330.926	2.48
331.298	1.99
331.671	1.76
332.043	2.11
332.415	2.12
332.787	2.59
333.159	1.75
333.532	2.05
333.904	2.61
334.276	1.92
334.648	2.42
335.02	2.02
335.391	2.16
335.763	2.62
336.135	2.19
336.507	2.29
336.879	2.48
337.25	2.06
337.622	2.22
337.993	2.53
338.365	2.02
338.736	2.62
339.108	2.66
339.479	2.1
339.851	2.31
340.222	1.85
340.593	2.04
340.964	2.19
341.336	2.67
341.707	2.34
342.078	2.33
342.449	2.04
342.82	2.56
343.191	2.34
343.562	2.31
343.933	2.29
344.303	2.41
344.674	2.98
345.045	2.66
345.416	2.5
345.786	2.4
346.157	2.42
346.527	2.29
346.898	2.26
347.268	2.18
347.639	2.6
348.009	2.41
348.38	2.65
348.75	2.39
349.12	2.07
349.49	2.11
349.861	2.5
350.231	1.91
350.601	2.35
350.971	2.43
351.341	2.48
351.711	3.03
352.081	2.46
352.45	1.86
352.82	2.78
353.19	2.85
353.56	2.57
353.929	2.08
354.299	1.8
354.669	2.38
355.038	2.55
355.408	2.47
355.777	2.5
356.147	2.52
356.516	2.2
356.885	2.64
357.254	2.68
357.624	2.28
357.993	2.18
358.362	2.49
358.731	1.93
359.1	1.97
359.469	2.11
359.838	2.47
360.207	2.48
360.576	2.57
360.945	2.12
361.314	2.57
361.682	2.29
362.051	2.23
362.42	2.15
362.788	2.45
363.157	2.34
363.525	2.21
363.894	2.28
364.262	2.35
364.631	2.45
364.999	2.41
365.367	2.44
365.735	2.03
366.104	2.51
366.472	2.4
366.84	2.56
367.208	2.4
367.576	2.51
367.944	2.18
368.312	2.29
368.68	2.49
369.048	2.36
369.416	2.47
369.783	2.77
370.151	2.47
370.519	2.42
370.886	2.82
371.254	2.43
371.621	2.77
371.989	2.18
372.356	2.51
372.724	2.76
373.091	2.1
373.458	2.34
373.826	2.38
374.193	2.49
374.56	2.52
374.927	2.56
375.294	2.89
375.661	2.8
376.028	2.51
376.395	2.45
376.762	2.33
377.129	2.78
377.496	2.42
377.863	2.83
378.229	2.86
378.596	2.79
378.963	2.43
379.329	2.68
379.696	2.59
380.062	2.43
380.429	2.26
380.795	2.55
381.161	2.2
381.528	2.52
381.894	2.62
382.26	2.46
382.626	2.84
382.993	2.57
383.359	2.63
383.725	2.5
384.091	2.55
384.457	2.75
384.823	2.51
385.188	2.88
385.554	2.54
385.92	2.53
386.286	2.73
386.651	2.32
387.017	2.78
387.383	2.7
387.748	2.41
388.114	2.46
388.479	2.44
388.845	2.57
389.21	2.44
389.575	2.02
389.94	2.44
390.306	2.34
390.671	2.48
391.036	2.56
391.401	2.61
391.766	2.76
392.131	2.55
392.496	2.57
392.861	2.92
393.226	2.79
393.591	2.63
393.956	2.63
394.32	2.56
394.685	2.41
395.05	2.89
395.414	2.7
395.779	2.29
396.143	2.44
396.508	2.48
396.872	2.6
397.236	2.6
397.601	2.46
397.965	2.55
398.329	2.57
398.694	2.82
399.058	2.49
399.422	2.46
399.786	2.65
400.15	2.44
400.514	2.41
400.878	2.76
401.242	2.68
401.605	2.64
401.969	2.46
402.333	2.51
402.697	2.63
403.06	2.6
403.424	2.49
403.787	2.66
404.151	2.65
404.514	2.62
404.878	2.59
405.241	2.61
405.604	2.67
405.968	2.53
406.331	2.6
406.694	2.63
407.057	2.41
407.42	2.94
407.783	2.85
408.146	2.38
408.509	2.66
408.872	2.84
409.235	2.68
409.598	2.77
409.961	2.71
410.323	2.49
410.686	2.5
411.049	2.37
411.411	2.71
411.774	2.91
412.136	2.58
412.499	2.52
412.861	2.68
413.223	2.51
413.586	2.63
413.948	2.72
414.31	2.78
414.672	2.6
415.035	2.66
415.397	2.64
415.759	2.77
416.121	2.41
416.483	2.93
416.845	2.6
417.206	2.63
417.568	2.83
417.93	2.66
418.292	2.53
418.653	2.74
419.015	2.67
419.377	2.45
419.738	2.53
420.1	2.41
420.461	2.67
420.822	2.46
421.184	2.5
421.545	2.62
421.906	2.52
422.267	2.49
422.629	2.59
422.99	2.49
423.351	2.55
423.712	2.58
424.073	2.57
424.434	2.52
424.795	2.46
425.155	2.65
425.516	2.62
425.877	2.63
426.238	2.4
426.598	2.64
426.959	2.61
427.32	2.61
427.68	2.64
428.041	2.58
428.401	2.7
428.761	2.65
429.122	2.52
429.482	2.6
429.842	2.67
430.202	2.6
430.563	2.63
430.923	2.71
431.283	2.6
431.643	2.83
432.003	2.82
432.363	2.64
432.722	2.78
433.082	2.8
433.442	2.64
433.802	2.93
434.161	2.44
434.521	2.79
434.881	2.72
435.24	2.69
435.6	2.59
435.959	2.66
436.319	2.62
436.678	2.66
437.037	2.61
437.396	2.68
437.756	2.77
438.115	2.47
438.474	2.74
438.833	2.66
439.192	2.54
439.551	2.61
439.91	2.7
440.269	2.88
440.628	2.81
440.987	2.61
441.345	2.52
441.704	2.79
442.063	2.61
442.421	2.57
442.78	2.59
443.138	2.74
443.497	2.79
443.855	2.71
444.214	2.66
444.572	2.73
444.93	2.73
445.288	2.64
445.647	2.87
446.005	2.58
446.363	2.75
446.721	2.79
447.079	2.74
447.437	2.68
447.795	2.71
448.153	2.66
448.51	2.71
448.868	2.65
449.226	2.59
449.584	2.67
449.941	2.67
450.299	2.65
450.656	2.6
451.014	2.71
451.371	2.69
451.729	2.67
452.086	2.56
452.443	2.71
452.801	2.75
453.158	2.63
453.515	2.7
453.872	2.82
454.229	2.9
454.586	2.58
454.943	2.69
455.3	2.7
455.657	2.79
456.014	2.59
456.371	2.76
456.727	2.84
457.084	2.78
457.441	3
457.797	2.78
458.154	2.72
458.51	2.8
458.867	2.68
459.223	2.86
459.58	2.73
459.936	2.83
460.292	2.82
460.648	2.58
461.005	2.53
461.361	2.73
461.717	2.58
462.073	2.73
462.429	2.71
462.785	2.68
463.141	2.83
463.496	2.84
463.852	2.9
464.208	2.81
464.564	2.83
464.919	2.67
465.275	3
465.631	2.76
465.986	2.81
466.342	3
466.697	2.77
467.052	2.73
467.408	2.76
467.763	2.9
468.118	2.91
468.473	2.75
468.829	2.63
469.184	2.81
469.539	2.79
469.894	2.78
470.249	2.75
470.603	2.71
470.958	2.99
471.313	3.12
471.668	2.91
472.023	2.78
472.377	2.76
472.732	2.64
473.086	2.99
473.441	2.93
473.795	3.04
474.15	2.81
474.504	2.72
474.859	2.96
475.213	2.92
475.567	2.87
475.921	2.88
476.275	2.83
476.63	2.98
476.984	2.82
477.338	2.72
477.692	2.84
478.045	2.74
478.399	2.78
478.753	2.78
479.107	2.79
479.461	2.85
479.814	3.15
480.168	2.95
480.521	2.84
480.875	2.96
481.228	2.92
481.582	2.96
481.935	2.85
482.289	2.81
482.642	2.89
482.995	2.76
483.348	2.94
483.701	2.9
484.055	2.84
484.408	2.75
484.761	2.74
485.114	2.68
485.466	2.68
485.819	2.69
486.172	2.6
486.525	2.6
486.878	2.71
487.23	2.74
487.583	2.71
487.936	2.74
488.288	2.72
488.641	2.75
488.993	2.71
489.345	2.7
489.698	2.69
490.05	2.68
490.402	2.67
490.754	2.68
491.107	2.7
491.459	2.82
491.811	2.85
492.163	2.74
492.515	2.87
492.866	2.8
493.218	2.76
493.57	2.73
493.922	2.73
494.274	2.72
494.625	2.81
494.977	2.74
495.328	2.86
495.68	3.02
496.031	2.81
496.383	2.89
496.734	2.9
497.086	2.98
497.437	2.93
497.788	2.86
498.139	3.03
498.49	2.91
498.842	2.71
499.193	2.81
499.544	2.96
499.894	2.97
500.245	2.89
500.596	2.99
500.947	2.89
501.298	2.93
501.648	2.89
501.999	2.96
502.35	3.05
502.7	3.13
503.051	2.99
503.401	2.97
503.752	3.01
504.102	2.92
504.452	2.88
504.803	2.87
505.153	2.96
505.503	2.95
505.853	3.01
506.203	2.91
506.553	3.05
506.903	2.89
507.253	2.94
507.603	3.06
507.953	2.91
508.303	2.88
508.652	3.1
509.002	2.98
509.352	3.12
509.701	3.11
510.051	2.89
510.4	3.1
510.75	3.13
511.099	2.93
511.449	3.07
511.798	3.05
512.147	2.96
512.496	3.05
512.846	2.89
513.195	3.03
513.544	3.08
513.893	2.97
514.242	2.98
514.591	3.12
514.939	3.08
515.288	3.02
515.637	2.97
515.986	3.17
516.334	3
516.683	3.06
517.032	2.92
517.38	2.93
517.729	3.07
518.077	3.02
518.426	3.08
518.774	3.04
519.122	3.14
519.47	3.01
519.819	3.03
520.167	2.98
520.515	3.07
520.863	3.09
521.211	2.95
521.559	3.1
521.907	3.02
522.255	3.1
522.602	3.22
522.95	3.03
523.298	3.11
523.645	3.13
523.993	3.12
524.341	3.06
524.688	3.2
525.036	3.03
525.383	3.03
525.73	3.07
526.078	3.21
526.425	3.2
526.772	3.08
527.119	3.13
527.466	3.06
527.814	3.09
528.161	3.09
528.508	3.06
528.854	3.1
529.201	3
529.548	3.08
529.895	3.09
530.242	2.99
530.588	2.95
530.935	2.93
531.282	2.99
531.628	3.01
531.975	3.03
532.321	3.08
532.667	3.1
533.014	3.18
533.36	3.17
533.706	3.22
534.052	3.13
534.399	3.04
534.745	3.06
535.091	3.13
535.437	3.14
535.783	3.09
536.129	3.16
536.474	3.2
536.82	3.27
537.166	3.2
537.512	3.21
537.857	3.27
538.203	3.17
538.549	3.36
538.894	3.14
539.239	3.25
539.585	3.26
539.93	3.31
540.276	3.41
540.621	3.28
540.966	3.36
541.311	3.54
541.656	3.43
542.001	3.44
542.346	3.38
542.691	3.25
543.036	3.21
543.381	3.22
543.726	3.17
544.071	3.23
544.415	3.22
544.76	3.28
545.105	3.33
545.449	3.31
545.794	3.36
546.138	3.39
546.483	3.37
546.827	3.39
547.171	3.5
547.516	3.37
547.86	3.5
548.204	3.36
548.548	3.47
548.892	3.45
549.236	3.48
549.58	3.41
549.924	3.4
550.268	3.39
550.612	3.57
550.956	3.73
551.3	3.62
551.643	3.64
551.987	3.71
552.33	3.62
552.674	3.48
553.017	3.69
553.361	3.63
553.704	3.61
554.048	3.67
554.391	3.84
554.734	3.75
555.077	3.54
555.42	3.61
555.764	3.67
556.107	3.88
556.45	3.62
556.793	3.55
557.135	3.57
557.478	3.68
557.821	3.72
558.164	3.92
558.507	3.82
558.849	3.9
559.192	3.73
559.534	3.95
559.877	3.63
560.219	3.89
560.562	3.94
560.904	3.65
561.246	3.87
561.589	3.78
561.931	3.81
562.273	4.01
562.615	4.06
562.957	4.11
563.299	3.91
563.641	4.04
563.983	3.83
564.325	3.65
564.667	4.04
565.008	3.86
565.35	3.94
565.692	3.91
566.033	4.13
566.375	4.09
566.716	4.16
567.058	4
567.399	4.03
567.741	3.96
568.082	4.01
568.423	4.05
568.764	3.87
569.105	4.15
569.447	4.06
569.788	4.04
570.129	4.14
570.47	4.06
570.811	4.36
571.151	4.07
571.492	4.14
571.833	4.23
572.174	4.41
572.514	4.17
572.855	4.18
573.195	4.28
573.536	4.07
573.876	4.24
574.217	4.11
574.557	4.23
574.898	4.13
575.238	4.09
575.578	4.28
575.918	4.22
576.258	4.42
576.598	4.32
576.938	4.46
577.278	4.36
577.618	4.05
577.958	4.31
578.298	4.33
578.638	4.4
578.977	4.4
579.317	4.28
579.657	4.35
579.996	4.54
580.336	4.6
580.675	4.47
581.014	4.32
581.354	4.47
581.693	4.6
582.032	4.59
582.372	4.4
582.711	4.64
583.05	4.81
583.389	4.74
583.728	4.7
584.067	4.82
584.406	4.72
584.745	4.64
585.083	4.67
585.422	4.54
585.761	4.79
586.1	4.64
586.438	4.54
586.777	4.84
587.115	4.76
587.454	4.79
587.792	4.76
588.13	4.98
588.469	5.01
588.807	4.55
589.145	4.69
589.483	4.5
589.821	4.82
590.159	4.95
590.497	4.94
590.835	4.76
591.173	5.06
591.511	5.01
591.849	4.84
592.187	4.97
592.524	4.74
592.862	5.08
593.2	4.8
593.537	4.92
593.875	4.75
594.212	5.12
594.55	5.18
594.887	5.1
595.224	4.97
595.561	5.04
595.899	4.98
596.236	5.31
596.573	5.01
596.91	5.29
597.247	5.16
597.584	4.9
597.921	5.24
598.258	5.27
598.594	5.37
598.931	4.95
599.268	5.19
599.604	5.19
599.941	5.17
600.277	4.97
600.614	5.12
600.95	5.51
601.287	5.16
601.623	5.54
601.959	5.42
602.296	5.19
602.632	5.29
602.968	5.08
603.304	5.5
603.64	5.26
603.976	5.51
604.312	5.87
604.648	5.66
604.984	5.63
605.319	5.34
605.655	5.4
605.991	5.59
606.326	5.33
606.662	5.34
606.998	5.34
607.333	5.42
607.668	5.4
608.004	5.59
608.339	5.54
608.674	5.63
609.01	5.86
609.345	5.77
609.68	5.76
610.015	5.54
610.35	5.87
610.685	6.13
611.02	5.45
611.355	5.72
611.689	5.63
612.024	5.73
612.359	5.73
612.694	5.75
613.028	5.91
613.363	5.98
613.697	5.75
614.032	5.92
614.366	5.85
614.7	6.05
615.035	5.9
615.369	6.1
615.703	5.93
616.037	6.37
616.371	5.94
616.705	5.82
617.039	5.98
617.373	6.37
617.707	6.54
618.041	6.27
618.375	6.25
618.709	6.13
619.042	6.52
619.376	6.32
619.71	6.34
620.043	6.54
620.377	6.25
620.71	6.54
621.043	6.61
621.377	6.05
621.71	6.28
622.043	6.62
622.376	6.33
622.709	6.52
623.043	6.36
623.376	6.33
623.709	6
624.041	6.45
624.374	6.42
624.707	6.59
625.04	6.77
625.373	6.85
625.705	6.33
626.038	6.64
626.37	6.38
626.703	6.57
627.035	6.41
627.368	6.7
627.7	6.85
628.032	6.56
628.365	6.99
628.697	6.63
629.029	6.62
629.361	6.82
629.693	6.52
630.025	6.98
630.357	6.85
630.689	6.81
631.021	7.05
631.353	6.91
631.684	6.74
632.016	6.92
632.348	6.67
632.679	6.7
633.011	6.81
633.342	6.68
633.674	6.97
634.005	7.2
634.336	7.29
634.668	7.15
634.999	6.89
635.33	6.43
635.661	7.33
635.992	7.13
636.323	7.21
636.654	7.3
636.985	7.13
637.316	7.3
637.647	6.91
637.977	6.89
638.308	7.2
638.639	7.07
638.969	7.24
639.3	7.19
639.63	7.3
639.961	7.26
640.291	7.1
640.622	7.11
640.952	7.49
641.282	7.05
641.612	7.13
641.943	7.61
642.273	7.22
642.603	7.63
642.933	7.44
643.263	7.57
643.592	7.74
643.922	8.08
644.252	6.95
644.582	7.6
644.911	7.23
645.241	7.66
645.571	8.26
645.9	7.42
646.23	7.68
646.559	7.45
646.888	7.84
647.218	7.42
647.547	7.72
647.876	7.7
648.205	7.89
648.534	7.78
648.863	7.8
649.192	7.63
649.521	7.86
649.85	7.96
650.179	8.24
650.508	7.8
650.837	8.51
651.165	8.36
651.494	7.84
651.822	7.92
652.151	8.42
652.479	8.33
652.808	7.9
653.136	7.73
653.465	8.31
653.793	8.72
654.121	8.42
654.449	8.49
654.777	7.97
655.105	8.22
655.433	8.72
655.761	8.46
656.089	8.14
656.417	8.14
656.745	8.24
657.073	8.33
657.4	8.91
657.728	8.6
658.056	7.94
658.383	8.57
658.711	8.52
659.038	9.05
659.365	8.59
659.693	8.7
660.02	8.57
660.347	8.79
660.674	8.4
661.001	8.39
661.329	8.66
661.656	8.41
661.982	8.47
662.309	8.63
662.636	8.72
662.963	8.96
663.29	8.49
663.616	8.71
663.943	8.2
664.27	8.98
664.596	8.8
664.923	8.45
665.249	8.59
665.576	8.39
665.902	8.82
666.228	9.22
666.554	9.47
666.881	8.78
667.207	8.73
667.533	8.86
667.859	9.11
668.185	9.67
668.511	9.59
668.837	9.43
669.162	9.1
669.488	9.3
669.814	8.96
670.139	9.07
670.465	9
670.791	8.88
671.116	9.03
671.442	9.36
671.767	8.85
672.092	8.91
672.418	9.33
672.743	8.99
673.068	9.82
673.393	9.39
673.718	9.88
674.043	9.15
674.368	9.39
674.693	9.35
675.018	9.89
675.343	10.15
675.667	9.78
675.992	9.3
676.317	9.67
676.641	9.73
676.966	10.01
677.29	9.93
677.615	9.67
677.939	9.16
678.264	9.34
678.588	9.01
678.912	9.63
679.236	9.47
679.56	9.39
679.885	10.13
680.209	9.85
680.532	9.77
680.856	9.21
681.18	10.03
681.504	9.61
681.828	10.22
682.152	10.15
682.475	9.64
682.799	9.89
683.122	9.9
683.446	9.45
683.769	10.03
684.093	10.39
684.416	9.46
684.739	9.9
685.062	9.31
685.386	10.04
685.709	10.4
686.032	10.19
686.355	10.37
686.678	10.34
687.001	10.6
687.324	9.81
687.646	10.62
687.969	10.39
688.292	10.35
688.614	10.36
688.937	10.89
689.26	10.23
689.582	9.73
689.904	9.76
690.227	10.7
690.549	10.48
690.871	10.65
691.194	10.29
691.516	10.31
691.838	11.68
692.16	10.78
692.482	10.37
692.804	10.9
