Data from 0281_crown_Reflection__4__224.txt Node

Date: Fri Oct 20 22:29:30 CDT 2023
User: ToomeyLab
Spectrometer: FLMS14357
Trigger mode: 0
Integration Time (sec): 1.000000E-2
Scans to average: 100
Electric dark correction enabled: true
Nonlinearity correction enabled: false
Boxcar width: 0
XAxis mode: Wavelengths
Number of Pixels in Spectrum: 2048
>>>>>Begin Spectral Data<<<<<
189.047	-156.02
189.435	-156.02
189.823	-156.02
190.211	26.55
190.599	292.69
190.987	91.45
191.375	-7.7
191.763	97.96
192.151	-24.11
192.538	43.59
192.926	-6.32
193.314	135.49
193.702	51.44
194.089	26.54
194.477	0.25
194.864	108.52
195.252	1
195.639	129.75
196.027	-192.46
196.414	105.97
196.801	-457.71
197.189	11.14
197.576	28.97
197.963	-125.29
198.351	66.75
198.738	-8.81
199.125	34.17
199.512	70.95
199.899	-11.92
200.286	-10.4
200.673	36.65
201.06	49.46
201.447	45.41
201.833	35.23
202.22	33.74
202.607	28.91
202.994	38.5
203.38	-19.39
203.767	12.63
204.154	8.07
204.54	39.23
204.927	85.23
205.313	-4.74
205.699	59.09
206.086	25.8
206.472	22.33
206.858	32.36
207.245	-23.24
207.631	32.31
208.017	26.83
208.403	22.81
208.789	37.04
209.175	4.34
209.561	-4.61
209.947	-15.25
210.333	10.08
210.719	46.48
211.105	22.16
211.491	24.92
211.876	-5.87
212.262	23.22
212.648	-8.16
213.034	27.87
213.419	11.92
213.805	-3.09
214.19	5.57
214.576	21.47
214.961	-2.16
215.346	38.87
215.732	25.14
216.117	-20.59
216.502	13.13
216.888	14.98
217.273	-13.46
217.658	4.42
218.043	11.74
218.428	4.3
218.813	16.21
219.198	-9
219.583	-19.26
219.968	-13.98
220.353	16.74
220.738	38.71
221.122	6.37
221.507	19.8
221.892	18.46
222.276	-1.19
222.661	18.4
223.046	4.42
223.43	5.74
223.815	15.45
224.199	18.91
224.583	-3.37
224.968	-3.18
225.352	3.52
225.736	4.63
226.121	6.75
226.505	9.46
226.889	11.71
227.273	4.5
227.657	7.2
228.041	11.64
228.425	7.11
228.809	9.45
229.193	9.57
229.577	9.69
229.961	4.98
230.344	7.77
230.728	7.24
231.112	8.55
231.495	7.28
231.879	8
232.263	8.68
232.646	6.19
233.03	6.52
233.413	7.13
233.797	7.93
234.18	7.58
234.563	9.19
234.946	9.24
235.33	8.81
235.713	9.29
236.096	7.48
236.479	6.92
236.862	7.06
237.245	7.3
237.628	7.55
238.011	8.04
238.394	7.67
238.777	9.32
239.16	7.25
239.543	8.83
239.925	7.88
240.308	6.25
240.691	7.58
241.073	8.44
241.456	7.33
241.838	7.94
242.221	7.63
242.603	8.5
242.986	7.68
243.368	8.38
243.75	6.58
244.133	6.79
244.515	6.61
244.897	7.26
245.279	7.03
245.661	6.6
246.043	6.62
246.425	6.46
246.807	6.49
247.189	6.69
247.571	5.55
247.953	6.74
248.335	6.8
248.717	6.52
249.098	6.4
249.48	6.48
249.862	6.76
250.243	6.67
250.625	6.93
251.006	6.6
251.388	6.63
251.769	6.7
252.151	5.9
252.532	7.13
252.913	5.96
253.295	6.04
253.676	7.06
254.057	6.22
254.438	6.4
254.819	6.53
255.2	6.04
255.581	6
255.962	5.28
256.343	7.4
256.724	5.71
257.105	7.33
257.486	6.99
257.867	5.98
258.247	6.85
258.628	6.58
259.009	5.58
259.389	6.2
259.77	5.51
260.15	6.58
260.531	6.2
260.911	6.07
261.292	5.8
261.672	6.22
262.052	6.09
262.432	6.12
262.813	5.99
263.193	6
263.573	6.13
263.953	6.12
264.333	6.29
264.713	6.39
265.093	6.64
265.473	6.32
265.853	6.49
266.233	6.7
266.612	6.22
266.992	4.94
267.372	5.63
267.752	6.06
268.131	6.09
268.511	5.97
268.89	5.62
269.27	5.56
269.649	5.28
270.029	5.97
270.408	6.19
270.787	5.72
271.167	5.72
271.546	5.82
271.925	5.94
272.304	5.65
272.683	5.85
273.062	6.07
273.441	5.77
273.82	5.55
274.199	5.47
274.578	5.58
274.957	5.67
275.336	5.94
275.715	5.57
276.093	5.89
276.472	5.56
276.851	6.42
277.229	5.6
277.608	4.81
277.986	5.49
278.365	5.87
278.743	5.4
279.122	5.29
279.5	5.59
279.878	4.99
280.257	5.11
280.635	5.83
281.013	5.62
281.391	5.12
281.769	5.23
282.147	5.43
282.525	5.46
282.903	5.69
283.281	5.18
283.659	5.52
284.037	5.77
284.415	4.73
284.792	5.11
285.17	5.44
285.548	5.98
285.925	5.16
286.303	5.27
286.68	5.23
287.058	5.96
287.435	5.34
287.813	4.45
288.19	5.35
288.567	4.82
288.945	5.33
289.322	5.25
289.699	4.63
290.076	5.78
290.453	5.02
290.83	5.11
291.207	5.12
291.584	4.9
291.961	5.03
292.338	4.97
292.715	4.98
293.092	5.29
293.469	5.5
293.845	5.06
294.222	4.97
294.599	5
294.975	5.88
295.352	5.32
295.728	5.43
296.105	4.79
296.481	4.7
296.858	4.89
297.234	5.04
297.61	4.41
297.986	4.84
298.363	4.93
298.739	4.76
299.115	4.82
299.491	4.74
299.867	5.1
300.243	5.02
300.619	4.91
300.995	4.86
301.371	5.26
301.746	5
302.122	5.07
302.498	4.38
302.874	4.77
303.249	4.97
303.625	5.12
304	5.19
304.376	4.89
304.751	5.05
305.127	5
305.502	5.34
305.878	4.6
306.253	4.87
306.628	5.15
307.003	4.96
307.378	4.86
307.754	4.74
308.129	5.19
308.504	4.93
308.879	3.98
309.254	4.75
309.629	4.9
310.003	4.49
310.378	4.63
310.753	4.71
311.128	4.79
311.502	4.57
311.877	5.4
312.252	4.78
312.626	5.26
313.001	4.81
313.375	5.15
313.75	4.91
314.124	4.4
314.498	4.57
314.873	4.47
315.247	5.1
315.621	5.1
315.995	5.07
316.369	4.88
316.743	4.52
317.117	4.53
317.491	4.11
317.865	4.76
318.239	4.97
318.613	4.56
318.987	4.45
319.361	4.38
319.734	4.65
320.108	3.9
320.482	5
320.855	5.19
321.229	5.4
321.602	5.01
321.976	4.08
322.349	5.03
322.723	4.24
323.096	4.58
323.469	4.63
323.843	4.72
324.216	4.41
324.589	5
324.962	5.22
325.335	5.04
325.708	4.27
326.081	5
326.454	5.15
326.827	5.08
327.2	5.06
327.573	5.23
327.945	4.7
328.318	4.39
328.691	4.33
329.063	5.47
329.436	4.6
329.809	5.16
330.181	4.97
330.553	5.25
330.926	4.79
331.298	4.53
331.671	4.36
332.043	4.31
332.415	4.57
332.787	4.7
333.159	4.53
333.532	4.56
333.904	4.62
334.276	4.48
334.648	4.72
335.02	4.62
335.391	4.43
335.763	5.09
336.135	4.95
336.507	4.64
336.879	4.48
337.25	5.31
337.622	5.24
337.993	5.55
338.365	4.72
338.736	4.67
339.108	5.03
339.479	4.83
339.851	4.72
340.222	4.39
340.593	4.54
340.964	4.5
341.336	5.31
341.707	4.6
342.078	5.01
342.449	4.89
342.82	4.68
343.191	4.96
343.562	4.82
343.933	5.13
344.303	4.89
344.674	5.21
345.045	5.36
345.416	4.86
345.786	4.78
346.157	5.15
346.527	5.09
346.898	5.09
347.268	5.26
347.639	5.16
348.009	4.64
348.38	5.12
348.75	5.25
349.12	5.1
349.49	4.85
349.861	5.04
350.231	4.81
350.601	4.91
350.971	5.01
351.341	5
351.711	5.62
352.081	4.91
352.45	4.93
352.82	5.09
353.19	5.09
353.56	4.74
353.929	4.81
354.299	4.74
354.669	4.99
355.038	5.17
355.408	5.15
355.777	5.23
356.147	5
356.516	4.88
356.885	4.94
357.254	5.12
357.624	4.97
357.993	4.79
358.362	5.14
358.731	5.12
359.1	4.58
359.469	4.78
359.838	5.28
360.207	5.2
360.576	5.42
360.945	4.98
361.314	5
361.682	5.07
362.051	4.94
362.42	4.94
362.788	5.12
363.157	5.09
363.525	4.67
363.894	5.16
364.262	5.28
364.631	5.35
364.999	5.21
365.367	5.4
365.735	4.88
366.104	5.19
366.472	5.53
366.84	5.45
367.208	5.38
367.576	5.15
367.944	5.28
368.312	5.22
368.68	5.14
369.048	5.49
369.416	5.69
369.783	5.53
370.151	5.04
370.519	5.2
370.886	5.66
371.254	5.25
371.621	5.42
371.989	5.29
372.356	5.62
372.724	5.56
373.091	5.24
373.458	4.98
373.826	5.12
374.193	5.19
374.56	5.38
374.927	5.54
375.294	5.47
375.661	5.51
376.028	5.18
376.395	5.59
376.762	4.99
377.129	5.58
377.496	5.55
377.863	5.43
378.229	5.67
378.596	5.41
378.963	5.21
379.329	5.5
379.696	5.53
380.062	5.4
380.429	5.32
380.795	5.19
381.161	5.25
381.528	6.04
381.894	5.27
382.26	5.69
382.626	5.57
382.993	5.44
383.359	5.55
383.725	5.59
384.091	5.48
384.457	5.7
384.823	5.61
385.188	5.59
385.554	5.46
385.92	5.5
386.286	5.86
386.651	5.51
387.017	5.61
387.383	5.63
387.748	5.29
388.114	5.52
388.479	5.51
388.845	6.03
389.21	5.41
389.575	5.34
389.94	5.44
390.306	5.43
390.671	5.4
391.036	5.5
391.401	5.82
391.766	5.85
392.131	5.68
392.496	5.73
392.861	5.65
393.226	5.66
393.591	5.6
393.956	5.54
394.32	5.78
394.685	5.52
395.05	5.81
395.414	6
395.779	5.49
396.143	5.54
396.508	5.62
396.872	5.67
397.236	5.79
397.601	5.9
397.965	5.59
398.329	5.56
398.694	5.8
399.058	5.43
399.422	5.91
399.786	5.43
400.15	5.79
400.514	5.76
400.878	5.68
401.242	5.84
401.605	5.76
401.969	5.61
402.333	5.65
402.697	5.99
403.06	5.82
403.424	5.87
403.787	6.06
404.151	5.63
404.514	5.78
404.878	5.96
405.241	5.64
405.604	5.51
405.968	5.79
406.331	5.86
406.694	5.73
407.057	5.72
407.42	6.09
407.783	5.93
408.146	5.73
408.509	5.79
408.872	6
409.235	5.69
409.598	6.03
409.961	5.99
410.323	5.64
410.686	5.65
411.049	5.94
411.411	5.83
411.774	5.9
412.136	5.91
412.499	5.9
412.861	5.88
413.223	5.92
413.586	5.79
413.948	5.97
414.31	5.98
414.672	5.97
415.035	5.73
415.397	5.96
415.759	5.8
416.121	5.81
416.483	6.05
416.845	5.96
417.206	5.86
417.568	5.69
417.93	5.89
418.292	5.65
418.653	5.96
419.015	5.75
419.377	5.68
419.738	5.79
420.1	5.71
420.461	5.9
420.822	5.78
421.184	5.75
421.545	5.89
421.906	5.78
422.267	5.8
422.629	5.68
422.99	5.59
423.351	5.71
423.712	5.7
424.073	5.73
424.434	5.67
424.795	5.7
425.155	5.74
425.516	5.7
425.877	5.85
426.238	5.61
426.598	5.71
426.959	5.75
427.32	5.73
427.68	5.77
428.041	5.69
428.401	5.86
428.761	5.87
429.122	5.78
429.482	5.74
429.842	5.81
430.202	5.88
430.563	5.99
430.923	5.87
431.283	5.79
431.643	6.09
432.003	6.19
432.363	5.81
432.722	5.99
433.082	5.96
433.442	5.88
433.802	6.02
434.161	5.76
434.521	6.04
434.881	5.85
435.24	5.98
435.6	5.92
435.959	5.87
436.319	5.88
436.678	6.02
437.037	5.92
437.396	5.98
437.756	6.08
438.115	5.88
438.474	5.96
438.833	6.01
439.192	5.66
439.551	5.76
439.91	5.92
440.269	6
440.628	5.94
440.987	5.88
441.345	5.81
441.704	5.87
442.063	5.92
442.421	5.77
442.78	5.75
443.138	5.91
443.497	5.96
443.855	5.89
444.214	5.92
444.572	5.82
444.93	6.02
445.288	5.94
445.647	6.17
446.005	5.86
446.363	6.02
446.721	5.94
447.079	5.93
447.437	5.9
447.795	5.78
448.153	5.8
448.51	5.83
448.868	5.78
449.226	5.85
449.584	5.82
449.941	5.85
450.299	5.91
450.656	5.92
451.014	5.9
451.371	5.89
451.729	5.85
452.086	5.89
452.443	6
452.801	5.98
453.158	6.05
453.515	5.93
453.872	5.99
454.229	6.11
454.586	5.96
454.943	5.93
455.3	5.92
455.657	6.05
456.014	5.81
456.371	5.98
456.727	6.05
457.084	6.16
457.441	6.13
457.797	6.02
458.154	5.88
458.51	5.98
458.867	6.05
459.223	6.15
459.58	5.88
459.936	6.08
460.292	6.06
460.648	5.74
461.005	5.87
461.361	6.02
461.717	5.71
462.073	5.85
462.429	5.85
462.785	5.87
463.141	6.01
463.496	5.94
463.852	6.05
464.208	6.05
464.564	6.11
464.919	5.99
465.275	6.15
465.631	6.14
465.986	6.12
466.342	6
466.697	5.87
467.052	5.91
467.408	5.9
467.763	6.14
468.118	6.27
468.473	6.14
468.829	5.96
469.184	5.99
469.539	6.07
469.894	5.97
470.249	6
470.603	6.07
470.958	6.13
471.313	6.14
471.668	6.02
472.023	6.07
472.377	6.15
472.732	5.92
473.086	6.02
473.441	6.24
473.795	6.14
474.15	5.87
474.504	5.84
474.859	6.13
475.213	6.14
475.567	6.17
475.921	6
476.275	5.93
476.63	6.03
476.984	6.1
477.338	5.86
477.692	5.96
478.045	6.12
478.399	6.11
478.753	6.09
479.107	6
479.461	6
479.814	6.15
480.168	5.92
480.521	5.94
480.875	6.12
481.228	6.06
481.582	5.95
481.935	6.14
482.289	5.96
482.642	6.02
482.995	5.95
483.348	5.96
483.701	6
484.055	6.04
484.408	5.83
484.761	5.8
485.114	5.69
485.466	5.66
485.819	5.6
486.172	5.51
486.525	5.59
486.878	5.66
487.23	5.72
487.583	5.76
487.936	5.8
488.288	5.81
488.641	5.83
488.993	5.79
489.345	5.62
489.698	5.63
490.05	5.62
490.402	5.68
490.754	5.75
491.107	5.75
491.459	5.82
491.811	5.85
492.163	5.85
492.515	5.87
492.866	5.95
493.218	5.81
493.57	5.73
493.922	5.69
494.274	5.73
494.625	5.73
494.977	5.77
495.328	5.91
495.68	5.9
496.031	5.78
496.383	6.03
496.734	6.06
497.086	5.93
497.437	5.97
497.788	5.87
498.139	6.08
498.49	5.95
498.842	5.84
499.193	5.88
499.544	5.92
499.894	5.93
500.245	5.92
500.596	6.02
500.947	5.97
501.298	6
501.648	5.91
501.999	6.08
502.35	6
502.7	6.1
503.051	5.97
503.401	6.03
503.752	5.99
504.102	6.02
504.452	5.91
504.803	5.92
505.153	6.02
505.503	6.03
505.853	5.95
506.203	6
506.553	5.9
506.903	5.98
507.253	5.99
507.603	6
507.953	6.04
508.303	5.94
508.652	6.02
509.002	6.02
509.352	5.87
509.701	6.05
510.051	5.99
510.4	5.93
510.75	5.96
511.099	5.9
511.449	5.97
511.798	6.05
512.147	5.89
512.496	5.91
512.846	5.9
513.195	5.97
513.544	5.99
513.893	5.87
514.242	6.02
514.591	5.97
514.939	5.9
515.288	5.79
515.637	5.91
515.986	5.97
516.334	5.94
516.683	5.92
517.032	5.87
517.38	5.85
517.729	6.03
518.077	5.92
518.426	6.02
518.774	5.87
519.122	6
519.47	5.91
519.819	5.86
520.167	5.95
520.515	5.89
520.863	5.89
521.211	5.9
521.559	5.91
521.907	5.89
522.255	5.97
522.602	6.06
522.95	5.86
523.298	5.96
523.645	5.88
523.993	5.94
524.341	5.93
524.688	6.01
525.036	6
525.383	5.76
525.73	6.1
526.078	5.97
526.425	5.9
526.772	5.94
527.119	5.95
527.466	5.83
527.814	5.81
528.161	5.78
528.508	5.8
528.854	5.79
529.201	5.77
529.548	5.77
529.895	5.76
530.242	5.69
530.588	5.57
530.935	5.54
531.282	5.58
531.628	5.69
531.975	5.64
532.321	5.69
532.667	5.75
533.014	5.77
533.36	5.88
533.706	5.93
534.052	5.84
534.399	5.81
534.745	5.67
535.091	5.69
535.437	5.67
535.783	5.67
536.129	5.75
536.474	5.81
536.82	5.79
537.166	5.82
537.512	5.87
537.857	5.87
538.203	5.89
538.549	5.92
538.894	5.77
539.239	5.8
539.585	5.77
539.93	5.93
540.276	5.91
540.621	5.87
540.966	5.88
541.311	5.98
541.656	5.91
542.001	6.09
542.346	5.93
542.691	5.71
543.036	5.71
543.381	5.65
543.726	5.64
544.071	5.64
544.415	5.68
544.76	5.62
545.105	5.83
545.449	5.77
545.794	5.75
546.138	5.85
546.483	5.79
546.827	5.82
547.171	5.93
547.516	5.74
547.86	5.86
548.204	5.69
548.548	5.78
548.892	5.83
549.236	5.84
549.58	5.7
549.924	5.87
550.268	5.89
550.612	5.85
550.956	5.96
551.3	5.79
551.643	5.86
551.987	5.97
552.33	5.9
552.674	5.77
553.017	5.89
553.361	5.95
553.704	5.98
554.048	5.92
554.391	5.96
554.734	5.94
555.077	5.85
555.42	5.73
555.764	5.86
556.107	6.12
556.45	5.82
556.793	5.93
557.135	5.79
557.478	5.87
557.821	5.91
558.164	6.05
558.507	6.02
558.849	5.83
559.192	6.11
559.534	5.96
559.877	5.73
560.219	5.86
560.562	6.01
560.904	5.72
561.246	5.91
561.589	5.75
561.931	6
562.273	6.05
562.615	6.14
562.957	6
563.299	6.05
563.641	5.97
563.983	5.81
564.325	5.85
564.667	5.95
565.008	5.85
565.35	5.99
565.692	5.95
566.033	5.99
566.375	6
566.716	5.9
567.058	5.9
567.399	5.85
567.741	5.93
568.082	5.97
568.423	5.9
568.764	5.78
569.105	5.95
569.447	5.75
569.788	5.8
570.129	5.92
570.47	5.8
570.811	5.98
571.151	5.89
571.492	5.93
571.833	6.1
572.174	5.78
572.514	5.73
572.855	5.72
573.195	6.02
573.536	5.83
573.876	5.98
574.217	5.72
574.557	5.76
574.898	5.67
575.238	5.71
575.578	6.01
575.918	5.75
576.258	5.86
576.598	6
576.938	5.94
577.278	6.04
577.618	5.69
577.958	5.72
578.298	5.76
578.638	5.95
578.977	5.6
579.317	5.89
579.657	5.77
579.996	5.89
580.336	5.88
580.675	5.85
581.014	5.7
581.354	5.78
581.693	5.9
582.032	5.89
582.372	5.86
582.711	6.03
583.05	5.9
583.389	5.89
583.728	5.9
584.067	5.87
584.406	6.01
584.745	5.83
585.083	5.88
585.422	5.7
585.761	5.71
586.1	5.96
586.438	5.46
586.777	5.79
587.115	5.84
587.454	5.89
587.792	5.8
588.13	5.84
588.469	5.85
588.807	5.65
589.145	5.53
589.483	5.78
589.821	5.75
590.159	5.95
590.497	5.82
590.835	5.87
591.173	5.74
591.511	5.83
591.849	5.84
592.187	5.76
592.524	5.61
592.862	5.93
593.2	5.69
593.537	5.68
593.875	5.64
594.212	5.59
594.55	5.73
594.887	5.82
595.224	5.67
595.561	5.59
595.899	5.64
596.236	5.89
596.573	5.97
596.91	6.16
597.247	5.64
597.584	5.56
597.921	5.78
598.258	6.09
598.594	5.81
598.931	5.63
599.268	5.52
599.604	5.78
599.941	5.69
600.277	5.68
600.614	5.6
600.95	5.61
601.287	5.65
601.623	5.85
601.959	5.81
602.296	5.67
602.632	5.7
602.968	5.41
603.304	5.95
603.64	5.63
603.976	5.76
604.312	5.84
604.648	5.71
604.984	5.6
605.319	5.52
605.655	5.76
605.991	5.71
606.326	5.55
606.662	5.51
606.998	5.42
607.333	5.53
607.668	5.55
608.004	5.64
608.339	5.52
608.674	5.64
609.01	5.7
609.345	5.65
609.68	5.9
610.015	5.52
610.35	5.64
610.685	5.62
611.02	5.62
611.355	5.39
611.689	5.49
612.024	5.64
612.359	5.45
612.694	5.55
613.028	5.83
613.363	5.59
613.697	5.84
614.032	5.72
614.366	5.64
614.7	5.65
615.035	5.55
615.369	5.62
615.703	5.49
616.037	5.51
616.371	5.7
616.705	5.58
617.039	5.46
617.373	5.64
617.707	5.82
618.041	5.81
618.375	5.38
618.709	5.68
619.042	5.62
619.376	5.79
619.71	5.66
620.043	5.87
620.377	5.32
620.71	5.91
621.043	5.98
621.377	5.75
621.71	5.72
622.043	5.66
622.376	5.94
622.709	5.86
623.043	5.87
623.376	5.68
623.709	5.56
624.041	5.53
624.374	5.97
624.707	5.59
625.04	5.94
625.373	5.94
625.705	5.4
626.038	5.88
626.37	5.29
626.703	5.67
627.035	5.39
627.368	5.67
627.7	5.7
628.032	5.47
628.365	5.69
628.697	5.76
629.029	5.67
629.361	5.51
629.693	5.42
630.025	5.7
630.357	5.53
630.689	5.62
631.021	5.74
631.353	5.48
631.684	5.31
632.016	5.89
632.348	5.34
632.679	5.11
633.011	5.58
633.342	5.25
633.674	5.68
634.005	5.7
634.336	6.01
634.668	5.38
634.999	5.49
635.33	5.44
635.661	5.86
635.992	5.65
636.323	5.83
636.654	5.66
636.985	5.74
637.316	5.79
637.647	5.45
637.977	5.56
638.308	5.39
638.639	5.7
638.969	5.8
639.3	5.39
639.63	5.5
639.961	5.53
640.291	5.49
640.622	5.49
640.952	5.52
641.282	5.51
641.612	5.93
641.943	5.89
642.273	5.48
642.603	6.07
642.933	5.6
643.263	6.08
643.592	5.65
643.922	5.91
644.252	5.24
644.582	5.39
644.911	5.49
645.241	5.67
645.571	6
645.9	5.51
646.23	5.83
646.559	5.46
646.888	5.5
647.218	5.29
647.547	5.41
647.876	5.45
648.205	5.61
648.534	5.43
648.863	5.49
649.192	5.34
649.521	5.93
649.85	5.56
650.179	5.24
650.508	5
650.837	5.64
651.165	5.7
651.494	5.45
651.822	5.5
652.151	5.77
652.479	5.32
652.808	5.49
653.136	5.02
653.465	5.86
653.793	5.5
654.121	5.49
654.449	5.31
654.777	5.23
655.105	5.79
655.433	5.79
655.761	5.77
656.089	5.66
656.417	6.04
656.745	5.44
657.073	5.39
657.4	6.26
657.728	6.03
658.056	5.77
658.383	5.41
658.711	5.74
659.038	5.83
659.365	5.58
659.693	5.77
660.02	5.98
660.347	5.73
660.674	5.41
661.001	5.31
661.329	5.65
661.656	5.46
661.982	5.22
662.309	5.7
662.636	5.69
662.963	5.57
663.29	5.71
663.616	5.6
663.943	5.01
664.27	5.05
664.596	5.43
664.923	5.37
665.249	5.65
665.576	5.53
665.902	5.33
666.228	5.82
666.554	6.19
666.881	5.11
667.207	5.18
667.533	6.01
667.859	5.71
668.185	5.64
668.511	5.89
668.837	5.82
669.162	5.81
669.488	5.88
669.814	5.05
670.139	5.55
670.465	5.56
670.791	5.93
671.116	5.52
671.442	5.48
671.767	5.45
672.092	5.41
672.418	5.58
672.743	5.54
673.068	6.14
673.393	5.6
673.718	6.01
674.043	5.02
674.368	5.85
674.693	6.01
675.018	6.12
675.343	5.58
675.667	5.83
675.992	5.83
676.317	5.51
676.641	5.75
676.966	6.15
677.29	5.69
677.615	6.08
677.939	5.7
678.264	5.78
678.588	5.25
678.912	5.85
679.236	5.63
679.56	5.2
679.885	5.89
680.209	5.5
680.532	5.64
680.856	5.32
681.18	5.9
681.504	5.95
681.828	5.99
682.152	5.89
682.475	5.12
682.799	6.03
683.122	5.42
683.446	5.63
683.769	5.75
684.093	5.91
684.416	6.12
684.739	4.89
685.062	5.25
685.386	5.34
685.709	5.22
686.032	5.55
686.355	6.49
686.678	5.75
687.001	5.47
687.324	5.33
687.646	5.23
687.969	6.74
688.292	6.08
688.614	5.88
688.937	5.34
689.26	5.04
689.582	5.36
689.904	4.64
690.227	5.88
690.549	6.15
690.871	5.96
691.194	5.84
691.516	5.24
691.838	6.2
692.16	5.51
692.482	5.29
692.804	5.9
693.126	5.67
693.448	6.37
693.769	5.26
694.091	6.14
694.413	5.19
