Data from 0281_crown_Reflection__0__220.txt Node

Date: Fri Oct 20 22:28:53 CDT 2023
User: ToomeyLab
Spectrometer: FLMS14357
Trigger mode: 0
Integration Time (sec): 1.000000E-2
Scans to average: 100
Electric dark correction enabled: true
Nonlinearity correction enabled: false
Boxcar width: 0
XAxis mode: Wavelengths
Number of Pixels in Spectrum: 2048
>>>>>Begin Spectral Data<<<<<
189.047	406.5
189.435	406.5
189.823	406.5
190.211	37.4
190.599	217.79
190.987	115.58
191.375	-46.23
191.763	557.7
192.151	-5.27
192.538	-23.51
192.926	-16.93
193.314	325.7
193.702	10.38
194.089	40.09
194.477	50.37
194.864	21.12
195.252	91.97
195.639	23.16
196.027	-82.16
196.414	61.98
196.801	-236.99
197.189	211.57
197.576	64.18
197.963	63.29
198.351	65.3
198.738	-47.37
199.125	22.97
199.512	17.03
199.899	-11.82
200.286	-9.57
200.673	46.65
201.06	19.8
201.447	-24.92
201.833	22.34
202.22	18.84
202.607	42
202.994	35.62
203.38	20.5
203.767	7.78
204.154	36.44
204.54	48.93
204.927	52.94
205.313	20.56
205.699	3.48
206.086	19.42
206.472	26.03
206.858	26.57
207.245	-3.67
207.631	38.91
208.017	30.87
208.403	-17.81
208.789	31.97
209.175	-12.32
209.561	34.63
209.947	-18.16
210.333	9.97
210.719	44.03
211.105	0.41
211.491	7.46
211.876	24.18
212.262	20.86
212.648	36.44
213.034	-25.18
213.419	17.87
213.805	-7.29
214.19	-3.06
214.576	-6.96
214.961	8.14
215.346	3.73
215.732	25.53
216.117	-26.93
216.502	15.06
216.888	8.9
217.273	-10.86
217.658	7.38
218.043	6.64
218.428	-19.62
218.813	14.29
219.198	4.58
219.583	-16.89
219.968	-5.31
220.353	3.08
220.738	-6.82
221.122	2.39
221.507	20.11
221.892	-12.25
222.276	2.56
222.661	24.44
223.046	-1.78
223.43	2.51
223.815	10.62
224.199	19.86
224.583	-4.7
224.968	-2.42
225.352	4.04
225.736	5.59
226.121	11.7
226.505	-0.37
226.889	9.78
227.273	5.88
227.657	10.5
228.041	8.37
228.425	-1.65
228.809	2.35
229.193	3.18
229.577	6.82
229.961	4.91
230.344	3.66
230.728	3.24
231.112	4.93
231.495	3.97
231.879	4.78
232.263	4.85
232.646	1.72
233.03	3.35
233.413	4.36
233.797	3.06
234.18	5.11
234.563	4.85
234.946	7.03
235.33	5.69
235.713	3.96
236.096	5.66
236.479	5.65
236.862	5.64
237.245	4.37
237.628	5.8
238.011	4.59
238.394	2.94
238.777	6.06
239.16	4.58
239.543	4.61
239.925	5.56
240.308	4.92
240.691	4.51
241.073	4.92
241.456	5.59
241.838	5.12
242.221	4.68
242.603	4.59
242.986	4.73
243.368	4.9
243.75	3.92
244.133	3.83
244.515	4.16
244.897	3.91
245.279	4.33
245.661	3.96
246.043	4.44
246.425	3.66
246.807	3.57
247.189	4.47
247.571	3.51
247.953	4.11
248.335	4.22
248.717	3.76
249.098	3.87
249.48	3.75
249.862	4.11
250.243	4.38
250.625	4.04
251.006	4.04
251.388	4.45
251.769	3.82
252.151	4.01
252.532	4.08
252.913	4.26
253.295	3.78
253.676	3.76
254.057	3.86
254.438	3.93
254.819	4.16
255.2	4.39
255.581	3.7
255.962	4.07
256.343	3.64
256.724	2.94
257.105	3.94
257.486	3.89
257.867	4.57
258.247	4.1
258.628	3.47
259.009	3.53
259.389	3.1
259.77	3.37
260.15	3.72
260.531	3.3
260.911	4.06
261.292	3.42
261.672	3.71
262.052	3.92
262.432	3.88
262.813	3.7
263.193	3.98
263.573	3.8
263.953	3.58
264.333	3.94
264.713	3.74
265.093	3.96
265.473	3.55
265.853	3.47
266.233	4.25
266.612	3.3
266.992	3.78
267.372	3.37
267.752	3.17
268.131	3.75
268.511	3.94
268.89	3.9
269.27	3.58
269.649	3.05
270.029	3.43
270.408	4.06
270.787	3.59
271.167	3.66
271.546	4.17
271.925	4.05
272.304	4.38
272.683	3.94
273.062	3.84
273.441	3.67
273.82	3.88
274.199	4.06
274.578	3.51
274.957	3.85
275.336	3.83
275.715	3.83
276.093	3.26
276.472	3.54
276.851	3.58
277.229	4.41
277.608	3.45
277.986	3.66
278.365	4.11
278.743	3.56
279.122	3.13
279.5	3.9
279.878	2.73
280.257	3.53
280.635	3.39
281.013	3.81
281.391	4.02
281.769	3.91
282.147	3.49
282.525	3.59
282.903	3.85
283.281	3.57
283.659	3.61
284.037	3.58
284.415	2.94
284.792	3.73
285.17	3.36
285.548	3.47
285.925	3.02
286.303	3.13
286.68	3.01
287.058	4.04
287.435	3.69
287.813	3.1
288.19	3.33
288.567	3.59
288.945	3.82
289.322	3.78
289.699	3.14
290.076	3.97
290.453	3.43
290.83	3.05
291.207	3.57
291.584	3.14
291.961	3.05
292.338	3.43
292.715	3.49
293.092	3.41
293.469	3.45
293.845	3.76
294.222	3.51
294.599	3.42
294.975	4.13
295.352	3.68
295.728	3.39
296.105	3.27
296.481	3.17
296.858	3.48
297.234	3.72
297.61	2.91
297.986	3.26
298.363	3.31
298.739	3.13
299.115	3.3
299.491	3.45
299.867	3.47
300.243	3.35
300.619	3.45
300.995	3.03
301.371	3.64
301.746	3.17
302.122	3.7
302.498	2.85
302.874	3.15
303.249	3.33
303.625	3.32
304	3.85
304.376	2.74
304.751	3
305.127	2.66
305.502	3.57
305.878	3.07
306.253	3.2
306.628	3.51
307.003	3.14
307.378	3.07
307.754	2.87
308.129	3.32
308.504	3.61
308.879	3.29
309.254	3.42
309.629	3.1
310.003	3.04
310.378	3.42
310.753	3.37
311.128	3.4
311.502	3.08
311.877	3.35
312.252	3.1
312.626	3.8
313.001	3.19
313.375	3.38
313.75	3.14
314.124	2.89
314.498	3.29
314.873	2.86
315.247	3.78
315.621	3.24
315.995	3.16
316.369	2.91
316.743	3.17
317.117	3.28
317.491	2.95
317.865	3.3
318.239	3.58
318.613	2.98
318.987	3.3
319.361	2.59
319.734	2.94
320.108	3.03
320.482	3.14
320.855	3.11
321.229	3.6
321.602	3.35
321.976	3.11
322.349	3.57
322.723	3.27
323.096	3.49
323.469	3.25
323.843	3.17
324.216	3.32
324.589	3.3
324.962	3.76
325.335	3.02
325.708	3.48
326.081	3.46
326.454	3.56
326.827	3.28
327.2	3.36
327.573	3.67
327.945	3.48
328.318	3.21
328.691	3.25
329.063	3.72
329.436	2.89
329.809	3.66
330.181	3.12
330.553	3.7
330.926	3.1
331.298	2.96
331.671	2.88
332.043	2.49
332.415	3.12
332.787	3.64
333.159	2.77
333.532	3.49
333.904	3.67
334.276	2.92
334.648	3.03
335.02	3.63
335.391	3.03
335.763	3.63
336.135	3.89
336.507	3.36
336.879	3.12
337.25	3.74
337.622	3.88
337.993	3.54
338.365	3.34
338.736	3.01
339.108	4
339.479	2.89
339.851	2.77
340.222	3.11
340.593	2.97
340.964	3.29
341.336	3.51
341.707	3.35
342.078	3.4
342.449	3.2
342.82	3.36
343.191	3.12
343.562	3.05
343.933	3.13
344.303	3.14
344.674	3.49
345.045	3.54
345.416	3.55
345.786	2.97
346.157	3.43
346.527	3.15
346.898	3.3
347.268	3.72
347.639	3.52
348.009	3.15
348.38	3.56
348.75	3.03
349.12	3.47
349.49	3.16
349.861	3.42
350.231	3.29
350.601	3.28
350.971	3.8
351.341	3.54
351.711	3.92
352.081	3.2
352.45	3.25
352.82	3.72
353.19	3.78
353.56	3.42
353.929	2.93
354.299	3.68
354.669	3.04
355.038	3.61
355.408	3.63
355.777	3.52
356.147	3.3
356.516	3.45
356.885	3.36
357.254	3.34
357.624	3.28
357.993	3.19
358.362	3.49
358.731	2.95
359.1	2.97
359.469	3
359.838	3.23
360.207	3.08
360.576	3.48
360.945	3.16
361.314	3.37
361.682	3.53
362.051	3.26
362.42	3.38
362.788	3.3
363.157	3.65
363.525	3.12
363.894	3.25
364.262	3.09
364.631	3.49
364.999	3.54
365.367	3.56
365.735	3.47
366.104	3.13
366.472	3.51
366.84	3.68
367.208	3.35
367.576	3.47
367.944	3.47
368.312	3.34
368.68	3.44
369.048	3.44
369.416	3.5
369.783	3.59
370.151	3.65
370.519	3.51
370.886	3.57
371.254	3.96
371.621	3.75
371.989	3.52
372.356	3.69
372.724	3.56
373.091	3.53
373.458	3.15
373.826	3.38
374.193	3.6
374.56	3.82
374.927	3.73
375.294	3.59
375.661	3.55
376.028	3.6
376.395	3.93
376.762	3.24
377.129	3.59
377.496	3.65
377.863	3.71
378.229	3.78
378.596	3.52
378.963	3.81
379.329	3.72
379.696	3.37
380.062	3.44
380.429	3.37
380.795	3.42
381.161	3.39
381.528	3.94
381.894	3.68
382.26	3.73
382.626	3.71
382.993	3.67
383.359	3.38
383.725	3.63
384.091	3.75
384.457	3.93
384.823	3.61
385.188	3.87
385.554	3.81
385.92	3.65
386.286	3.86
386.651	3.43
387.017	3.6
387.383	3.94
387.748	3.22
388.114	3.5
388.479	3.46
388.845	3.87
389.21	3.44
389.575	3.15
389.94	3.61
390.306	3.52
390.671	3.61
391.036	3.79
391.401	3.69
391.766	3.72
392.131	3.67
392.496	3.67
392.861	3.66
393.226	3.58
393.591	3.69
393.956	3.87
394.32	3.87
394.685	3.54
395.05	3.78
395.414	3.8
395.779	3.47
396.143	3.87
396.508	3.66
396.872	3.8
397.236	3.68
397.601	3.58
397.965	3.61
398.329	3.46
398.694	4.07
399.058	3.47
399.422	3.66
399.786	3.6
400.15	3.8
400.514	3.61
400.878	3.68
401.242	3.84
401.605	3.92
401.969	3.56
402.333	3.72
402.697	3.83
403.06	3.68
403.424	3.79
403.787	3.86
404.151	3.72
404.514	3.81
404.878	4.02
405.241	3.68
405.604	3.61
405.968	3.81
406.331	3.84
406.694	3.75
407.057	3.54
407.42	4.15
407.783	3.88
408.146	3.57
408.509	3.67
408.872	4.03
409.235	3.89
409.598	4.04
409.961	3.94
410.323	3.91
410.686	3.65
411.049	3.83
411.411	4
411.774	3.84
412.136	3.85
412.499	3.93
412.861	3.9
413.223	3.95
413.586	3.88
413.948	3.85
414.31	3.99
414.672	3.68
415.035	3.87
415.397	4.03
415.759	3.95
416.121	3.86
416.483	3.96
416.845	3.74
417.206	3.92
417.568	3.86
417.93	3.85
418.292	3.57
418.653	3.92
419.015	3.94
419.377	3.63
419.738	3.8
420.1	3.6
420.461	3.72
420.822	3.77
421.184	3.81
421.545	3.85
421.906	3.81
422.267	3.8
422.629	3.87
422.99	3.63
423.351	3.69
423.712	3.77
424.073	3.69
424.434	3.59
424.795	3.81
425.155	3.73
425.516	3.75
425.877	3.92
426.238	3.71
426.598	3.78
426.959	3.74
427.32	3.71
427.68	3.85
428.041	3.69
428.401	3.88
428.761	4
429.122	3.78
429.482	3.86
429.842	3.94
430.202	3.87
430.563	3.88
430.923	3.88
431.283	3.84
431.643	3.9
432.003	4.15
432.363	3.92
432.722	3.95
433.082	3.96
433.442	3.88
433.802	4.06
434.161	3.82
434.521	3.94
434.881	3.93
435.24	3.91
435.6	3.82
435.959	3.81
436.319	3.93
436.678	3.84
437.037	3.89
437.396	4.09
437.756	4.1
438.115	3.76
438.474	3.89
438.833	3.95
439.192	3.75
439.551	3.98
439.91	3.92
440.269	3.97
440.628	4
440.987	3.9
441.345	3.81
441.704	3.9
442.063	3.8
442.421	3.88
442.78	3.78
443.138	4.05
443.497	4.01
443.855	3.88
444.214	3.88
444.572	3.91
444.93	3.88
445.288	3.95
445.647	4.18
446.005	3.8
446.363	3.86
446.721	3.92
447.079	4.09
447.437	3.94
447.795	3.78
448.153	3.81
448.51	3.88
448.868	3.76
449.226	3.86
449.584	3.96
449.941	3.89
450.299	3.88
450.656	3.72
451.014	4.04
451.371	3.94
451.729	3.92
452.086	3.96
452.443	3.99
452.801	4
453.158	4.08
453.515	3.99
453.872	4.01
454.229	4.1
454.586	4.04
454.943	4.08
455.3	3.94
455.657	4.05
456.014	3.91
456.371	3.99
456.727	4.08
457.084	4.05
457.441	4
457.797	4.06
458.154	4.06
458.51	4.19
458.867	3.92
459.223	3.96
459.58	3.98
459.936	4.05
460.292	3.9
460.648	3.92
461.005	3.87
461.361	4.06
461.717	3.79
462.073	3.95
462.429	3.91
462.785	3.98
463.141	4.04
463.496	4.08
463.852	4.03
464.208	4.05
464.564	4.1
464.919	4.02
465.275	4.15
465.631	4.26
465.986	4.08
466.342	4.09
466.697	4.21
467.052	4.05
467.408	4.09
467.763	4.15
468.118	4.18
468.473	4.11
468.829	4.08
469.184	4.08
469.539	4.08
469.894	4.06
470.249	4.03
470.603	4.12
470.958	4.02
471.313	4.15
471.668	4.11
472.023	4.04
472.377	4.11
472.732	4.04
473.086	4.01
473.441	4.13
473.795	4.27
474.15	4.12
474.504	3.97
474.859	4.06
475.213	4.11
475.567	4.2
475.921	4.16
476.275	4.12
476.63	4.22
476.984	4.19
477.338	4.06
477.692	4.06
478.045	4.03
478.399	3.95
478.753	4.07
479.107	4.17
479.461	4.08
479.814	4.25
480.168	4.25
480.521	4.02
480.875	4.24
481.228	4.29
481.582	4.1
481.935	4.11
482.289	4.19
482.642	4.12
482.995	3.98
483.348	4.17
483.701	4.07
484.055	4.04
484.408	4.05
484.761	3.97
485.114	3.86
485.466	3.85
485.819	3.75
486.172	3.72
486.525	3.77
486.878	3.89
487.23	3.94
487.583	3.94
487.936	3.94
488.288	3.97
488.641	4.07
488.993	3.96
489.345	3.9
489.698	3.84
490.05	3.83
490.402	3.88
490.754	3.88
491.107	3.95
491.459	4.1
491.811	4.03
492.163	4.03
492.515	4.11
492.866	4.04
493.218	3.98
493.57	3.85
493.922	3.84
494.274	3.95
494.625	4.01
494.977	3.98
495.328	4.08
495.68	4.11
496.031	4.05
496.383	4.1
496.734	4.03
497.086	4.07
497.437	4.17
497.788	4.18
498.139	4.25
498.49	4.04
498.842	4.07
499.193	4.09
499.544	4.11
499.894	4.1
500.245	4.22
500.596	4.11
500.947	4.05
501.298	4.15
501.648	4.15
501.999	4.19
502.35	4.07
502.7	4.24
503.051	4.22
503.401	4.21
503.752	4.28
504.102	4.22
504.452	4.14
504.803	4.15
505.153	4.21
505.503	4.15
505.853	4.19
506.203	4.14
506.553	4.08
506.903	4.18
507.253	4.3
507.603	4.17
507.953	4.25
508.303	4.03
508.652	4.25
509.002	4.26
509.352	4.24
509.701	4.28
510.051	4.18
510.4	4.2
510.75	4.21
511.099	4.09
511.449	4.16
511.798	4.21
512.147	4.1
512.496	4.19
512.846	4.22
513.195	4.19
513.544	4.15
513.893	4.1
514.242	4.09
514.591	4.16
514.939	4.17
515.288	4.16
515.637	4.08
515.986	4.25
516.334	4.23
516.683	4.2
517.032	4.17
517.38	4.15
517.729	4.31
518.077	4.28
518.426	4.17
518.774	4.08
519.122	4.13
519.47	4.1
519.819	3.99
520.167	4.05
520.515	4.02
520.863	4.16
521.211	4.11
521.559	4.21
521.907	4.03
522.255	4.21
522.602	4.21
522.95	4.14
523.298	4.16
523.645	4.18
523.993	4.18
524.341	4.26
524.688	4.26
525.036	4.34
525.383	4.21
525.73	4.37
526.078	4.19
526.425	4.23
526.772	4.18
527.119	4.09
527.466	4.07
527.814	4.06
528.161	4.1
528.508	4.11
528.854	4.15
529.201	4.04
529.548	4.14
529.895	4.05
530.242	3.95
530.588	3.91
530.935	3.82
531.282	3.97
531.628	4.03
531.975	4.05
532.321	4.05
532.667	4.12
533.014	4.07
533.36	4.2
533.706	4.23
534.052	4.13
534.399	4.1
534.745	4.03
535.091	4.01
535.437	4.02
535.783	4.07
536.129	4.09
536.474	4.14
536.82	4.14
537.166	4.14
537.512	4.25
537.857	4.24
538.203	4.2
538.549	4.3
538.894	4.15
539.239	4.12
539.585	4.18
539.93	4.24
540.276	4.31
540.621	4.22
540.966	4.24
541.311	4.29
541.656	4.37
542.001	4.27
542.346	4.19
542.691	4.11
543.036	4.05
543.381	3.99
543.726	4
544.071	4.08
544.415	4.09
544.76	4.12
545.105	4.19
545.449	4.12
545.794	4.15
546.138	4.18
546.483	4.19
546.827	4.25
547.171	4.34
547.516	4.09
547.86	4.28
548.204	4.14
548.548	4.23
548.892	4.08
549.236	4.2
549.58	4.12
549.924	4.17
550.268	4.34
550.612	4.24
550.956	4.32
551.3	4.25
551.643	4.3
551.987	4.49
552.33	4.33
552.674	4.25
553.017	4.18
553.361	4.41
553.704	4.35
554.048	4.32
554.391	4.28
554.734	4.3
555.077	4.23
555.42	4.19
555.764	4.21
556.107	4.44
556.45	4.26
556.793	4.09
557.135	4.15
557.478	4.38
557.821	4.51
558.164	4.41
558.507	4.49
558.849	4.47
559.192	4.45
559.534	4.47
559.877	4.18
560.219	4.32
560.562	4.51
560.904	4.18
561.246	4.27
561.589	4.2
561.931	4.44
562.273	4.43
562.615	4.56
562.957	4.56
563.299	4.33
563.641	4.38
563.983	4.18
564.325	4.12
564.667	4.4
565.008	4.33
565.35	4.43
565.692	4.27
566.033	4.33
566.375	4.23
566.716	4.34
567.058	4.2
567.399	4.43
567.741	4.21
568.082	4.4
568.423	4.37
568.764	4.17
569.105	4.39
569.447	4.42
569.788	4.26
570.129	4.46
570.47	4.35
570.811	4.45
571.151	4.37
571.492	4.39
571.833	4.48
572.174	4.4
572.514	4.52
572.855	4.21
573.195	4.36
573.536	4.24
573.876	4.39
574.217	4.19
574.557	4.08
574.898	4.16
575.238	4.36
575.578	4.41
575.918	4.23
576.258	4.38
576.598	4.47
576.938	4.35
577.278	4.42
577.618	4.2
577.958	4.19
578.298	4.36
578.638	4.45
578.977	4.33
579.317	4.36
579.657	4.35
579.996	4.4
580.336	4.47
580.675	4.37
581.014	4.47
581.354	4.31
581.693	4.44
582.032	4.35
582.372	4.51
582.711	4.59
583.05	4.62
583.389	4.66
583.728	4.55
584.067	4.44
584.406	4.48
584.745	4.57
585.083	4.44
585.422	4.26
585.761	4.46
586.1	4.34
586.438	4
586.777	4.31
587.115	4.54
587.454	4.31
587.792	4.29
588.13	4.55
588.469	4.57
588.807	4.11
589.145	4.43
589.483	4.35
589.821	4.49
590.159	4.35
590.497	4.32
590.835	4.47
591.173	4.35
591.511	4.44
591.849	4.31
592.187	4.42
592.524	4.23
592.862	4.45
593.2	4.65
593.537	4.21
593.875	4.33
594.212	4.76
594.55	4.36
594.887	4.57
595.224	4.3
595.561	4.39
595.899	4.45
596.236	4.43
596.573	4.46
596.91	4.52
597.247	4.41
597.584	4.23
597.921	4.56
598.258	4.37
598.594	4.26
598.931	4.13
599.268	4.21
599.604	4.27
599.941	4.26
600.277	4.39
600.614	4.41
600.95	4.24
601.287	4.15
601.623	4.58
601.959	4.51
602.296	4.3
602.632	4.52
602.968	4.36
603.304	4.57
603.64	4.29
603.976	4.43
604.312	4.61
604.648	4.48
604.984	4.45
605.319	4.36
605.655	4.23
605.991	4.32
606.326	4.29
606.662	4.15
606.998	4.19
607.333	4.34
607.668	4.21
608.004	4.35
608.339	3.98
608.674	4.35
609.01	4.46
609.345	4.69
609.68	4.44
610.015	4.1
610.35	4.54
610.685	4.69
611.02	4.37
611.355	4.32
611.689	4.26
612.024	4.45
612.359	4.25
612.694	4.22
613.028	4.3
613.363	4.32
613.697	4.45
614.032	4.6
614.366	4.41
614.7	4.33
615.035	4.52
615.369	4.68
615.703	4.37
616.037	4.7
616.371	4.24
616.705	4.3
617.039	4.32
617.373	4.42
617.707	4.31
618.041	4.22
618.375	4.23
618.709	4.69
619.042	4.56
619.376	4.9
619.71	4.49
620.043	4.46
620.377	4.61
620.71	4.5
621.043	4.37
621.377	4.5
621.71	4.36
622.043	4.6
622.376	4.39
622.709	4.66
623.043	4.31
623.376	4.36
623.709	4.22
624.041	4.5
624.374	4.38
624.707	4.17
625.04	4.35
625.373	4.78
625.705	4.37
626.038	4.59
626.37	4.32
626.703	4.25
627.035	4.05
627.368	4.49
627.7	4.63
628.032	4.36
628.365	4.22
628.697	4.17
629.029	4.36
629.361	4.42
629.693	4.32
630.025	4.44
630.357	4.32
630.689	4.48
631.021	4.65
631.353	4.38
631.684	4.12
632.016	4.53
632.348	4.37
632.679	4.3
633.011	4.6
633.342	4.19
633.674	4.37
634.005	4.63
634.336	5.09
634.668	4.43
634.999	4.3
635.33	4.28
635.661	4.78
635.992	4.57
636.323	4.48
636.654	4.55
636.985	4.69
637.316	4.4
637.647	4.28
637.977	4.39
638.308	4.39
638.639	4.55
638.969	4.58
639.3	4.22
639.63	4.56
639.961	4.35
640.291	4.37
640.622	4.46
640.952	4.46
641.282	4.5
641.612	4.57
641.943	4.68
642.273	4.36
642.603	4.39
642.933	4.64
643.263	4.78
643.592	4.25
643.922	4.98
644.252	4.06
644.582	4.17
644.911	4.43
645.241	4.83
645.571	4.8
645.9	4.07
646.23	4.44
646.559	4.59
646.888	4.75
647.218	4.54
647.547	4.59
647.876	4.46
648.205	4.41
648.534	4.45
648.863	4.64
649.192	4.22
649.521	4.54
649.85	4.78
650.179	4.27
650.508	4.15
650.837	4.27
651.165	4.8
651.494	4.44
651.822	4.42
652.151	4.79
652.479	4.47
652.808	4.47
653.136	4.37
653.465	4.42
653.793	4.46
654.121	4.74
654.449	4.65
654.777	4.21
655.105	4.62
655.433	4.88
655.761	4.59
656.089	4.54
656.417	4.72
656.745	4.4
657.073	4.43
657.4	5.24
657.728	4.67
658.056	4.47
658.383	4.58
658.711	4.29
659.038	4.5
659.365	4.72
659.693	4.93
660.02	4.63
660.347	3.99
660.674	4.29
661.001	4.21
661.329	4.65
661.656	4.65
661.982	4.29
662.309	4.5
662.636	4.96
662.963	4.42
663.29	4.66
663.616	4.75
663.943	4.34
664.27	4.7
664.596	4.53
664.923	4.17
665.249	4.82
665.576	4.06
665.902	4.77
666.228	4.76
666.554	4.88
666.881	4.28
667.207	4.98
667.533	4.95
667.859	4.4
668.185	4.84
668.511	4.8
668.837	5.31
669.162	5.02
669.488	5.01
669.814	3.99
670.139	4.31
670.465	4.63
670.791	4.6
671.116	4.63
671.442	4.7
671.767	4.57
672.092	4.84
672.418	4.6
672.743	4.46
673.068	5.13
673.393	4.28
673.718	4.64
674.043	4.84
674.368	4.83
674.693	4.88
675.018	5.39
675.343	4.34
675.667	4.77
675.992	5.14
676.317	4.84
676.641	4.61
676.966	4.44
677.29	4.59
677.615	4.68
677.939	4.68
678.264	4.17
678.588	4.82
678.912	5.53
679.236	4.23
679.56	4.73
679.885	4.76
680.209	4.8
680.532	4.24
680.856	4.49
681.18	4.63
681.504	4.68
681.828	5.1
682.152	4.62
682.475	3.77
682.799	5.22
683.122	4.35
683.446	4.64
683.769	5.01
684.093	4.82
684.416	4.55
684.739	4.44
685.062	4.05
685.386	4.52
685.709	4.98
686.032	4.55
686.355	5.07
686.678	4.45
687.001	5.14
687.324	4.54
687.646	5.01
687.969	5.18
688.292	4.9
688.614	4.57
688.937	4.31
689.26	4.14
689.582	4.43
689.904	4.32
690.227	4.86
690.549	5.18
690.871	5.03
691.194	5.07
691.516	5.13
691.838	5.04
692.16	4.33
692.482	4.48
692.804	4.91
