Data from 0281_forehead_Reflection__4__229.txt Node

Date: Fri Oct 20 22:30:41 CDT 2023
User: ToomeyLab
Spectrometer: FLMS14357
Trigger mode: 0
Integration Time (sec): 1.000000E-2
Scans to average: 100
Electric dark correction enabled: true
Nonlinearity correction enabled: false
Boxcar width: 0
XAxis mode: Wavelengths
Number of Pixels in Spectrum: 2048
>>>>>Begin Spectral Data<<<<<
189.047	263.48
189.435	263.48
189.823	263.48
190.211	-4.75
190.599	41.49
190.987	102.82
191.375	25.5
191.763	1472.73
192.151	116.45
192.538	-66.29
192.926	9.82
193.314	347.82
193.702	22.64
194.089	86.31
194.477	-0.03
194.864	29.61
195.252	18.21
195.639	165.85
196.027	-122.65
196.414	130.63
196.801	-451.54
197.189	53.24
197.576	46.67
197.963	-127.41
198.351	68.11
198.738	14.02
199.125	28.5
199.512	56.85
199.899	-3.51
200.286	5.72
200.673	47.13
201.06	94.23
201.447	26.68
201.833	44.83
202.22	58.58
202.607	79.38
202.994	36.77
203.38	48.55
203.767	10.34
204.154	23.49
204.54	36.4
204.927	99.6
205.313	39
205.699	56.68
206.086	32.3
206.472	35.26
206.858	60.57
207.245	51.45
207.631	53.24
208.017	27.76
208.403	29.96
208.789	60.08
209.175	12.39
209.561	29.75
209.947	43.27
210.333	45.65
210.719	42.71
211.105	31.87
211.491	63.11
211.876	8.39
212.262	31.76
212.648	46.03
213.034	11.14
213.419	-4.73
213.805	23.11
214.19	20.66
214.576	20.58
214.961	27.65
215.346	33.89
215.732	42.18
216.117	-20.46
216.502	28.95
216.888	39.08
217.273	14.88
217.658	17.78
218.043	37.21
218.428	8.27
218.813	28.31
219.198	37.12
219.583	-10.57
219.968	-9.36
220.353	44.64
220.738	38.8
221.122	26.88
221.507	8.68
221.892	11.51
222.276	23.01
222.661	40.06
223.046	22.02
223.43	9.41
223.815	25.1
224.199	14.41
224.583	2.01
224.968	2.38
225.352	5.63
225.736	19.85
226.121	13.65
226.505	2.35
226.889	7.5
227.273	12.22
227.657	16.69
228.041	9.63
228.425	5.02
228.809	5.18
229.193	7.26
229.577	9.37
229.961	5.15
230.344	6.27
230.728	4.25
231.112	5.07
231.495	4.42
231.879	4.59
232.263	4.92
232.646	4.84
233.03	4.93
233.413	4.62
233.797	5.5
234.18	4.83
234.563	5.06
234.946	8.21
235.33	6.84
235.713	4.53
236.096	5.8
236.479	6.32
236.862	4.35
237.245	4.69
237.628	4.76
238.011	5.44
238.394	5.38
238.777	7.02
239.16	5.07
239.543	7.06
239.925	6.58
240.308	5.16
240.691	5.37
241.073	4.65
241.456	5.74
241.838	4.1
242.221	5.92
242.603	4.35
242.986	5.24
243.368	5.06
243.75	4.63
244.133	4.52
244.515	4.26
244.897	4.45
245.279	4.55
245.661	3.99
246.043	4.09
246.425	4.86
246.807	4.75
247.189	5.07
247.571	4.38
247.953	4.37
248.335	5.04
248.717	4.11
249.098	3.96
249.48	3.97
249.862	4.22
250.243	4.49
250.625	4.53
251.006	4.68
251.388	4.7
251.769	5.57
252.151	4.66
252.532	4.54
252.913	3.76
253.295	3.22
253.676	4.21
254.057	3.98
254.438	4.56
254.819	4.95
255.2	4.33
255.581	5.05
255.962	5.04
256.343	4.43
256.724	3.18
257.105	5.35
257.486	5.23
257.867	5.15
258.247	5.38
258.628	4.62
259.009	4.31
259.389	4.33
259.77	4.4
260.15	4.71
260.531	4.25
260.911	4.55
261.292	3.98
261.672	4.36
262.052	4.23
262.432	3.99
262.813	4.26
263.193	4.18
263.573	4.37
263.953	4.52
264.333	4.37
264.713	4.87
265.093	4.78
265.473	4.62
265.853	4.24
266.233	4.42
266.612	5.03
266.992	4.57
267.372	4.23
267.752	4.39
268.131	4
268.511	4.34
268.89	4.32
269.27	3.73
269.649	3.82
270.029	4.28
270.408	4.93
270.787	4.28
271.167	4.47
271.546	4.87
271.925	4.88
272.304	4.49
272.683	4.42
273.062	4.14
273.441	4.52
273.82	4.14
274.199	4.3
274.578	4.01
274.957	4.41
275.336	4.76
275.715	4.35
276.093	4.15
276.472	4.72
276.851	4.54
277.229	4.29
277.608	4.45
277.986	4.01
278.365	5.02
278.743	3.88
279.122	3.83
279.5	4.48
279.878	3.71
280.257	4.39
280.635	3.98
281.013	4.74
281.391	4.69
281.769	3.71
282.147	4.04
282.525	4.73
282.903	4.57
283.281	4.7
283.659	4.22
284.037	4.73
284.415	3.93
284.792	4.16
285.17	4.35
285.548	3.92
285.925	4.42
286.303	3.7
286.68	4.14
287.058	4.58
287.435	4.3
287.813	4.28
288.19	4.2
288.567	4.19
288.945	4.29
289.322	4.89
289.699	4.13
290.076	4.78
290.453	4.57
290.83	4.33
291.207	4.94
291.584	4.28
291.961	4.15
292.338	4.18
292.715	4.63
293.092	4.76
293.469	4.88
293.845	4.44
294.222	4.19
294.599	4.92
294.975	5.45
295.352	4.76
295.728	4.95
296.105	4.56
296.481	4.3
296.858	4.72
297.234	4.79
297.61	4.86
297.986	4.48
298.363	4.81
298.739	5.05
299.115	4.53
299.491	4.79
299.867	4.91
300.243	5.05
300.619	5.11
300.995	4.76
301.371	5.12
301.746	5.24
302.122	5.37
302.498	4.94
302.874	5.14
303.249	5.71
303.625	5.68
304	5.74
304.376	4.84
304.751	4.83
305.127	5.02
305.502	5.54
305.878	5.64
306.253	6.01
306.628	5.95
307.003	5.88
307.378	5.84
307.754	5.67
308.129	6.39
308.504	5.87
308.879	6.19
309.254	6.17
309.629	5.66
310.003	5.41
310.378	6.18
310.753	6.11
311.128	6.21
311.502	5.97
311.877	6.4
312.252	5.78
312.626	6.07
313.001	6.57
313.375	6.1
313.75	6.33
314.124	6.29
314.498	6.63
314.873	6.13
315.247	6.76
315.621	6.59
315.995	6.87
316.369	6.37
316.743	6.79
317.117	7.1
317.491	6.62
317.865	7.33
318.239	7.87
318.613	6.89
318.987	7.04
319.361	6.98
319.734	7.12
320.108	6.66
320.482	7.82
320.855	7.69
321.229	7.84
321.602	7.47
321.976	7.52
322.349	8.12
322.723	7.03
323.096	7.58
323.469	7.37
323.843	7.69
324.216	8.13
324.589	8.05
324.962	8.59
325.335	8.35
325.708	8.01
326.081	8.1
326.454	8.43
326.827	8.55
327.2	8.59
327.573	8.43
327.945	8.14
328.318	7.91
328.691	8.51
329.063	8.77
329.436	8.48
329.809	8.87
330.181	8.67
330.553	8.65
330.926	8.4
331.298	8.28
331.671	8.25
332.043	8.75
332.415	8.43
332.787	9.31
333.159	8.56
333.532	9.12
333.904	9.09
334.276	8.9
334.648	9.02
335.02	9.33
335.391	8.99
335.763	9.64
336.135	9.6
336.507	9.53
336.879	9.39
337.25	9.56
337.622	9.51
337.993	9.77
338.365	9.23
338.736	9.52
339.108	10.09
339.479	9.89
339.851	9.71
340.222	9.63
340.593	9.24
340.964	9.84
341.336	10.32
341.707	10.09
342.078	10.26
342.449	10.11
342.82	9.99
343.191	10.2
343.562	10.24
343.933	10.04
344.303	10.12
344.674	10.77
345.045	10.3
345.416	11.03
345.786	10.66
346.157	10.83
346.527	10.32
346.898	10.58
347.268	10.8
347.639	11.06
348.009	10.48
348.38	11.05
348.75	11.03
349.12	11.33
349.49	11.03
349.861	11.54
350.231	11
350.601	11.13
350.971	11.3
351.341	11.77
351.711	11.8
352.081	11.45
352.45	11.3
352.82	11.36
353.19	11.57
353.56	11.82
353.929	11.65
354.299	11.36
354.669	11.63
355.038	12.09
355.408	12.02
355.777	11.53
356.147	11.77
356.516	11.61
356.885	12.09
357.254	12.28
357.624	12.32
357.993	11.67
358.362	12.01
358.731	12.19
359.1	11.99
359.469	11.89
359.838	12.24
360.207	12.26
360.576	12.4
360.945	12.13
361.314	12.46
361.682	12.75
362.051	12.52
362.42	12.48
362.788	12.97
363.157	12.62
363.525	12.66
363.894	12.42
364.262	12.58
364.631	12.72
364.999	13.11
365.367	13.01
365.735	12.96
366.104	12.95
366.472	13.22
366.84	13.28
367.208	12.87
367.576	13.11
367.944	13.45
368.312	13.61
368.68	13.29
369.048	13.59
369.416	13.96
369.783	14.08
370.151	13.44
370.519	13.72
370.886	13.91
371.254	13.82
371.621	13.88
371.989	13.92
372.356	13.94
372.724	14.32
373.091	14.26
373.458	13.7
373.826	14.31
374.193	14.17
374.56	14.41
374.927	14.39
375.294	14.5
375.661	14.85
376.028	14.85
376.395	14.72
376.762	14.85
377.129	14.99
377.496	14.96
377.863	15.1
378.229	14.96
378.596	15.01
378.963	15.08
379.329	15.17
379.696	14.88
380.062	15.03
380.429	15.17
380.795	15.35
381.161	15.36
381.528	15.7
381.894	15.65
382.26	15.55
382.626	15.73
382.993	15.71
383.359	15.68
383.725	15.85
384.091	15.88
384.457	15.86
384.823	15.84
385.188	16.5
385.554	16.04
385.92	16.1
386.286	16.43
386.651	16.01
387.017	15.99
387.383	16.38
387.748	16.19
388.114	16.17
388.479	16.37
388.845	16.88
389.21	16.72
389.575	16.59
389.94	16.68
390.306	16.79
390.671	16.81
391.036	16.88
391.401	17.17
391.766	17.32
392.131	17.11
392.496	17.16
392.861	17.13
393.226	17.18
393.591	17.31
393.956	17.3
394.32	17.51
394.685	17.32
395.05	17.65
395.414	17.68
395.779	17.52
396.143	17.53
396.508	17.71
396.872	17.98
397.236	17.71
397.601	17.61
397.965	17.74
398.329	18.03
398.694	18.19
399.058	18.11
399.422	18.48
399.786	18.46
400.15	18.2
400.514	18.29
400.878	18.43
401.242	18.72
401.605	18.7
401.969	18.45
402.333	18.53
402.697	18.65
403.06	18.82
403.424	18.75
403.787	18.85
404.151	19.05
404.514	19.01
404.878	19.11
405.241	19.05
405.604	19.05
405.968	19.41
406.331	19.03
406.694	19.15
407.057	19.24
407.42	19.57
407.783	19.31
408.146	19.37
408.509	19.3
408.872	19.56
409.235	19.63
409.598	19.83
409.961	19.87
410.323	19.82
410.686	19.73
411.049	20.06
411.411	19.84
411.774	20.14
412.136	20.24
412.499	20.3
412.861	20.13
413.223	20.34
413.586	20.25
413.948	20.57
414.31	20.85
414.672	20.8
415.035	20.89
415.397	20.86
415.759	20.62
416.121	20.86
416.483	21.12
416.845	20.85
417.206	21.07
417.568	21.2
417.93	21.05
418.292	20.96
418.653	21
419.015	20.97
419.377	20.96
419.738	20.83
420.1	21
420.461	21.05
420.822	21.01
421.184	21.13
421.545	21.25
421.906	21.25
422.267	21.17
422.629	21.26
422.99	21.12
423.351	21.15
423.712	21.32
424.073	21.39
424.434	21.59
424.795	21.57
425.155	21.79
425.516	21.67
425.877	21.65
426.238	21.68
426.598	21.64
426.959	21.79
427.32	21.91
427.68	21.95
428.041	22.09
428.401	22.29
428.761	22.47
429.122	22.45
429.482	22.5
429.842	22.89
430.202	22.75
430.563	23
430.923	23.26
431.283	22.91
431.643	23.06
432.003	23.22
432.363	23.05
432.722	23.45
433.082	23.27
433.442	23.3
433.802	23.45
434.161	23.27
434.521	23.53
434.881	23.35
435.24	23.41
435.6	23.57
435.959	23.36
436.319	23.63
436.678	23.61
437.037	23.67
437.396	23.82
437.756	23.88
438.115	23.81
438.474	24.27
438.833	24.04
439.192	24.24
439.551	24.13
439.91	24.36
440.269	24.25
440.628	24.31
440.987	24.35
441.345	24.29
441.704	24.32
442.063	24.29
442.421	24.41
442.78	24.2
443.138	24.41
443.497	24.4
443.855	24.6
444.214	24.76
444.572	24.74
444.93	24.94
445.288	24.98
445.647	25.26
446.005	24.69
446.363	25.01
446.721	25.09
447.079	25.19
447.437	25.23
447.795	25.01
448.153	24.83
448.51	25.12
448.868	25.01
449.226	24.96
449.584	25.16
449.941	25.32
450.299	25.42
450.656	25.56
451.014	25.71
451.371	25.85
451.729	25.79
452.086	26.03
452.443	26.36
452.801	26.17
453.158	26.34
453.515	26.24
453.872	26.29
454.229	26.54
454.586	26.37
454.943	26.44
455.3	26.5
455.657	26.53
456.014	26.43
456.371	26.63
456.727	26.82
457.084	26.87
457.441	26.99
457.797	27.12
458.154	26.99
458.51	27.07
458.867	27.3
459.223	27.2
459.58	27.12
459.936	27.27
460.292	27.44
460.648	27.23
461.005	27.24
461.361	27.39
461.717	27
462.073	26.97
462.429	26.93
462.785	27.09
463.141	27.47
463.496	27.68
463.852	27.66
464.208	27.95
464.564	28.1
464.919	27.9
465.275	28.29
465.631	28.22
465.986	28.21
466.342	28.4
466.697	28.25
467.052	28.4
467.408	28.59
467.763	28.68
468.118	28.92
468.473	28.79
468.829	28.69
469.184	28.89
469.539	28.79
469.894	28.97
470.249	28.86
470.603	29.12
470.958	29.21
471.313	29.13
471.668	29.27
472.023	29.36
472.377	29.43
472.732	29.25
473.086	29.48
473.441	29.7
473.795	29.74
474.15	29.78
474.504	29.62
474.859	29.62
475.213	29.86
475.567	29.72
475.921	29.7
476.275	29.88
476.63	30.02
476.984	30.08
477.338	30.02
477.692	30.21
478.045	30.08
478.399	30.11
478.753	30.19
479.107	30.14
479.461	30.31
479.814	30.36
480.168	30.1
480.521	30.33
480.875	30.43
481.228	30.53
481.582	30.48
481.935	30.64
482.289	30.89
482.642	30.62
482.995	30.61
483.348	30.51
483.701	30.44
484.055	30.57
484.408	30.25
484.761	30.24
485.114	30.04
485.466	29.73
485.819	29.52
486.172	29.51
486.525	29.72
486.878	29.93
487.23	30.06
487.583	30.28
487.936	30.45
488.288	30.43
488.641	30.63
488.993	30.43
489.345	30.27
489.698	30.23
490.05	30.33
490.402	30.32
490.754	30.56
491.107	30.86
491.459	31.08
491.811	31.2
492.163	31.33
492.515	31.54
492.866	31.44
493.218	31.28
493.57	30.87
493.922	30.87
494.274	31.05
494.625	31.31
494.977	31.59
495.328	31.85
495.68	32.08
496.031	32.4
496.383	32.71
496.734	32.65
497.086	32.87
497.437	32.8
497.788	32.98
498.139	32.82
498.49	32.98
498.842	32.62
499.193	32.59
499.544	32.69
499.894	32.72
500.245	32.95
500.596	32.95
500.947	33.09
501.298	33.09
501.648	33.34
501.999	33.51
502.35	33.63
502.7	33.72
503.051	33.68
503.401	33.7
503.752	33.76
504.102	33.99
504.452	33.91
504.803	34.04
505.153	34.14
505.503	34.07
505.853	34.14
506.203	34.11
506.553	34.2
506.903	34.3
507.253	34.44
507.603	34.35
507.953	34.56
508.303	34.16
508.652	34.62
509.002	34.62
509.352	34.75
509.701	34.66
510.051	34.56
510.4	34.48
510.75	34.67
511.099	34.5
511.449	34.64
511.798	34.52
512.147	34.67
512.496	34.8
512.846	34.77
513.195	34.96
513.544	34.99
513.893	34.8
514.242	34.91
514.591	35.15
514.939	35.08
515.288	35.1
515.637	35.53
515.986	35.44
516.334	35.47
516.683	35.72
517.032	35.5
517.38	35.66
517.729	35.78
518.077	35.89
518.426	35.75
518.774	35.79
519.122	35.85
519.47	35.89
519.819	35.62
520.167	35.47
520.515	35.36
520.863	35.49
521.211	35.39
521.559	35.65
521.907	35.67
522.255	36.03
522.602	36.13
522.95	36.24
523.298	36.46
523.645	36.53
523.993	36.67
524.341	36.76
524.688	36.68
525.036	36.86
525.383	36.73
525.73	36.92
526.078	36.81
526.425	36.89
526.772	36.77
527.119	36.51
527.466	36.3
527.814	36.46
528.161	36.34
528.508	36.42
528.854	36.47
529.201	36.49
529.548	36.64
529.895	36.35
530.242	35.97
530.588	35.91
530.935	35.98
531.282	36.17
531.628	36.28
531.975	36.35
532.321	36.56
532.667	36.79
533.014	37.16
533.36	37.18
533.706	37.36
534.052	37.23
534.399	37.33
534.745	37.2
535.091	37.06
535.437	36.89
535.783	37.05
536.129	37.1
536.474	37.43
536.82	37.69
537.166	37.64
537.512	37.94
537.857	37.95
538.203	38.19
538.549	38.1
538.894	37.83
539.239	37.93
539.585	38.06
539.93	38.27
540.276	38.58
540.621	38.6
540.966	38.67
541.311	38.87
541.656	38.69
542.001	38.87
542.346	38.83
542.691	38.45
543.036	38.17
543.381	37.96
543.726	38.04
544.071	37.96
544.415	38.21
544.76	38.45
545.105	38.51
545.449	38.8
545.794	38.85
546.138	38.92
546.483	39.01
546.827	39.37
547.171	39.51
547.516	39.51
547.86	39.6
548.204	39.35
548.548	39.4
548.892	39.12
549.236	39.53
549.58	39.51
549.924	39.67
550.268	40.11
550.612	40.17
550.956	40.32
551.3	40.42
551.643	40.62
551.987	40.67
552.33	40.72
552.674	40.62
553.017	40.7
553.361	41
553.704	40.87
554.048	41.05
554.391	41.24
554.734	40.8
555.077	40.79
555.42	40.92
555.764	40.95
556.107	41.18
556.45	41.16
556.793	41.22
557.135	41.46
557.478	41.4
557.821	41.67
558.164	41.65
558.507	41.67
558.849	41.5
559.192	41.98
559.534	41.97
559.877	41.91
560.219	42.14
560.562	42.01
560.904	42.11
561.246	42.11
561.589	42.31
561.931	42.41
562.273	42.43
562.615	42.54
562.957	42.65
563.299	42.35
563.641	42.43
563.983	42.33
564.325	42.41
564.667	42.49
565.008	42.72
565.35	42.72
565.692	42.54
566.033	42.76
566.375	42.82
566.716	42.69
567.058	42.83
567.399	42.74
567.741	42.63
568.082	42.79
568.423	42.49
568.764	42.65
569.105	42.67
569.447	42.74
569.788	43.04
570.129	43.23
570.47	43.19
570.811	43.26
571.151	42.98
571.492	43.2
571.833	43.44
572.174	43.37
572.514	43.45
572.855	43.57
573.195	43.45
573.536	43.27
573.876	43.51
574.217	43.29
574.557	43.17
574.898	43.18
575.238	43.6
575.578	43.66
575.918	43.52
576.258	43.93
576.598	44.28
576.938	43.87
577.278	43.83
577.618	43.95
577.958	43.89
578.298	44.03
578.638	44
578.977	44.34
579.317	44.47
579.657	44.44
579.996	44.46
580.336	44.52
580.675	44.81
581.014	44.84
581.354	44.52
581.693	44.84
582.032	44.94
582.372	45.02
582.711	45.09
583.05	45.28
583.389	45.51
583.728	45.28
584.067	45.62
584.406	45.54
584.745	45.24
585.083	45.26
585.422	45.14
585.761	45.37
586.1	45.41
586.438	45.54
586.777	45.76
587.115	45.46
587.454	45.86
587.792	45.76
588.13	45.8
588.469	45.77
588.807	45.79
589.145	45.98
589.483	46.44
589.821	45.74
590.159	46.04
590.497	46.19
590.835	45.93
591.173	46.05
591.511	45.96
591.849	45.92
592.187	46.09
592.524	45.96
592.862	45.92
593.2	46.33
593.537	46.19
593.875	46.38
594.212	46.67
594.55	46.47
594.887	46.5
595.224	46.59
595.561	46.54
595.899	46.53
596.236	46.65
596.573	46.65
596.91	46.6
597.247	46.99
597.584	46.96
597.921	46.55
598.258	46.61
598.594	46.73
598.931	46.67
599.268	46.55
599.604	46.64
599.941	46.65
600.277	46.56
600.614	46.74
600.95	47.25
601.287	47.17
601.623	47.56
601.959	47.38
602.296	47.45
602.632	47.19
602.968	47.97
603.304	48.14
603.64	47.76
603.976	47.59
604.312	47.96
604.648	47.79
604.984	47.57
605.319	47.37
605.655	47.64
605.991	47.44
606.326	47.72
606.662	47.54
606.998	47.08
607.333	47.38
607.668	47.51
608.004	47.63
608.339	47.87
608.674	47.79
609.01	48.32
609.345	48.27
609.68	48.23
610.015	48.06
610.35	48.42
610.685	48.57
611.02	48.46
611.355	47.87
611.689	48.09
612.024	48.41
612.359	48.23
612.694	48.43
613.028	48.6
613.363	48.53
613.697	48.64
614.032	48.65
614.366	48.81
614.7	48.73
615.035	48.91
615.369	49.47
615.703	48.7
616.037	49.25
616.371	49.49
616.705	49.35
617.039	49.15
617.373	49.1
617.707	49.52
618.041	49.47
618.375	49.41
618.709	49.46
619.042	49.72
619.376	49.68
619.71	49.79
620.043	49.73
620.377	49.38
620.71	49.91
621.043	49.99
621.377	50.06
621.71	50.02
622.043	49.99
622.376	50.12
622.709	50.02
623.043	49.55
623.376	49.98
623.709	50.02
624.041	49.89
624.374	50.06
624.707	49.87
625.04	50.66
625.373	50.39
625.705	50.15
626.038	50.65
626.37	50.56
626.703	50.35
627.035	50.29
627.368	50.54
627.7	50.6
628.032	50.54
628.365	50.7
628.697	50.7
629.029	50.24
629.361	50.42
629.693	50.27
630.025	50.66
630.357	50.5
630.689	50.81
631.021	50.56
631.353	51.07
631.684	50.69
632.016	51.21
632.348	51.03
632.679	50.59
633.011	50.67
633.342	51.3
633.674	51.22
634.005	51.31
634.336	51.55
634.668	50.88
634.999	51.2
635.33	51.01
635.661	51.42
635.992	51.18
636.323	51.19
636.654	51.43
636.985	51.11
637.316	51.87
637.647	51.4
637.977	50.95
638.308	51.62
638.639	51.68
638.969	51.8
639.3	51.72
639.63	51.75
639.961	51.56
640.291	52.22
640.622	52.03
640.952	52.36
641.282	51.57
641.612	52.18
641.943	51.87
642.273	51.91
642.603	52.57
642.933	52.48
643.263	52.27
643.592	52.6
643.922	52.26
644.252	51.89
644.582	52.09
644.911	52.94
645.241	52.77
645.571	52.96
645.9	51.62
646.23	52.17
646.559	52.39
646.888	52.39
647.218	53.16
647.547	52.48
647.876	52.37
648.205	52.44
648.534	53.09
648.863	52.96
649.192	52.65
649.521	52.96
649.85	52.75
650.179	53.32
650.508	53.28
650.837	53.48
651.165	53.36
651.494	52.55
651.822	52.79
652.151	53.92
652.479	53.06
652.808	53.23
653.136	52.86
653.465	53.31
653.793	53.89
654.121	53.43
654.449	53.08
654.777	53.04
655.105	53.42
655.433	54.08
655.761	53.79
656.089	53.29
656.417	53.75
656.745	53.37
657.073	53.6
657.4	54.02
657.728	53.87
658.056	53.26
658.383	53.6
658.711	53.93
659.038	54
659.365	54.56
659.693	53.86
660.02	54.03
660.347	53.77
660.674	53.44
661.001	53.47
661.329	54.43
661.656	54.3
661.982	53.98
662.309	53.81
662.636	54.08
662.963	54.28
663.29	54.1
663.616	54.35
663.943	54.18
664.27	54.35
664.596	54.73
664.923	53.89
665.249	54.51
665.576	54.34
665.902	55.2
666.228	55.33
666.554	54.22
666.881	54.67
667.207	54.62
667.533	55.08
667.859	54.48
668.185	54.61
668.511	54.98
668.837	55.5
669.162	55.09
669.488	55.24
669.814	54.64
670.139	55.17
