Data from 0281_crown_Reflection__3__223.txt Node

Date: Fri Oct 20 22:29:21 CDT 2023
User: ToomeyLab
Spectrometer: FLMS14357
Trigger mode: 0
Integration Time (sec): 1.000000E-2
Scans to average: 100
Electric dark correction enabled: true
Nonlinearity correction enabled: false
Boxcar width: 0
XAxis mode: Wavelengths
Number of Pixels in Spectrum: 2048
>>>>>Begin Spectral Data<<<<<
189.047	701.91
189.435	701.91
189.823	701.91
190.211	-5.19
190.599	110.71
190.987	64.44
191.375	83.34
191.763	779.04
192.151	-11.68
192.538	133.02
192.926	57.86
193.314	221.98
193.702	26.57
194.089	200.87
194.477	67.68
194.864	18.72
195.252	152.19
195.639	27.8
196.027	27.19
196.414	-16.98
196.801	-297.04
197.189	193.2
197.576	32.38
197.963	-200.88
198.351	60.16
198.738	19.58
199.125	36.62
199.512	59.66
199.899	14.13
200.286	12.75
200.673	57.52
201.06	24.63
201.447	6.8
201.833	81.33
202.22	12.59
202.607	46.52
202.994	10.64
203.38	13.5
203.767	26.29
204.154	37.83
204.54	55.07
204.927	51.48
205.313	3.71
205.699	50.72
206.086	26.18
206.472	16.73
206.858	24.36
207.245	-9.74
207.631	27.39
208.017	32.49
208.403	31.47
208.789	30.67
209.175	-12.27
209.561	47.21
209.947	20.83
210.333	12.17
210.719	17.38
211.105	30
211.491	25.85
211.876	21.73
212.262	10.18
212.648	35.57
213.034	-19.3
213.419	12.02
213.805	4.59
214.19	4.89
214.576	-8.62
214.961	23.12
215.346	29.14
215.732	38.21
216.117	-19.72
216.502	-8.46
216.888	16.82
217.273	-23.56
217.658	15.28
218.043	13.42
218.428	4.17
218.813	33.47
219.198	26.31
219.583	-8.64
219.968	-13.79
220.353	24.07
220.738	27.75
221.122	9.46
221.507	22.53
221.892	12.13
222.276	26.53
222.661	32.19
223.046	15.25
223.43	12.38
223.815	9.52
224.199	15.32
224.583	5.6
224.968	1.62
225.352	-1.56
225.736	-1.8
226.121	4.53
226.505	5.79
226.889	4.43
227.273	5.94
227.657	4.49
228.041	14.43
228.425	8.79
228.809	9.96
229.193	7.56
229.577	10.9
229.961	7.92
230.344	8.86
230.728	7.57
231.112	8.63
231.495	7.5
231.879	8.49
232.263	9.18
232.646	7.56
233.03	7.85
233.413	7.49
233.797	7.9
234.18	7.55
234.563	8.75
234.946	11.39
235.33	10.77
235.713	7.3
236.096	8.7
236.479	8.01
236.862	9.41
237.245	8.41
237.628	9.02
238.011	8.87
238.394	8.39
238.777	9.11
239.16	8.73
239.543	9.77
239.925	9.27
240.308	7.7
240.691	9.22
241.073	10.1
241.456	8.56
241.838	8.08
242.221	9.09
242.603	8.4
242.986	8.3
243.368	8.29
243.75	8.17
244.133	7.29
244.515	7.69
244.897	7.37
245.279	7.41
245.661	7.35
246.043	6.98
246.425	7.45
246.807	7.41
247.189	7.8
247.571	7.06
247.953	7.36
248.335	7.75
248.717	7.16
249.098	7.07
249.48	7.27
249.862	7.39
250.243	7.74
250.625	7.41
251.006	7.48
251.388	7.63
251.769	7.73
252.151	6.21
252.532	7.04
252.913	6.66
253.295	6.16
253.676	7.49
254.057	7.13
254.438	6.98
254.819	7.43
255.2	7.17
255.581	5.67
255.962	7.6
256.343	7.52
256.724	6.89
257.105	6.75
257.486	7.56
257.867	7.67
258.247	6.87
258.628	6.39
259.009	7.14
259.389	7.09
259.77	6.37
260.15	6.72
260.531	6.6
260.911	6.79
261.292	6.33
261.672	6.51
262.052	6.84
262.432	6.7
262.813	6.63
263.193	6.97
263.573	6.79
263.953	6.66
264.333	6.95
264.713	7.04
265.093	6.88
265.473	7.16
265.853	5.8
266.233	7.24
266.612	6.61
266.992	6.04
267.372	6.18
267.752	5.97
268.131	6.95
268.511	6.39
268.89	6.71
269.27	6.28
269.649	6.38
270.029	6.43
270.408	6.54
270.787	6.73
271.167	6.36
271.546	6.61
271.925	7.27
272.304	6.63
272.683	6.05
273.062	6.34
273.441	6.65
273.82	6.27
274.199	7.14
274.578	6.57
274.957	6.42
275.336	6.44
275.715	6.15
276.093	6.32
276.472	6.15
276.851	6.55
277.229	6.25
277.608	5.5
277.986	5.87
278.365	6.55
278.743	6.02
279.122	6.39
279.5	6.32
279.878	5.97
280.257	6.16
280.635	5.94
281.013	6.78
281.391	6.64
281.769	5.85
282.147	5.92
282.525	6.18
282.903	6.25
283.281	5.6
283.659	6.52
284.037	6
284.415	5.56
284.792	5.53
285.17	5.9
285.548	5.69
285.925	5.8
286.303	5.67
286.68	5.73
287.058	6.58
287.435	5.87
287.813	5.69
288.19	5.69
288.567	5.27
288.945	5.73
289.322	6.16
289.699	5.59
290.076	6.07
290.453	5.81
290.83	5.9
291.207	5.92
291.584	5.8
291.961	5.9
292.338	5.76
292.715	5.88
293.092	5.7
293.469	5.95
293.845	5.46
294.222	5.64
294.599	5.4
294.975	6.28
295.352	5.86
295.728	5.55
296.105	5.72
296.481	5.37
296.858	5.89
297.234	6.04
297.61	5.22
297.986	5.55
298.363	5.64
298.739	5.43
299.115	5.33
299.491	5.61
299.867	5.4
300.243	5.48
300.619	5.49
300.995	5.27
301.371	5.74
301.746	5.87
302.122	5.06
302.498	5.18
302.874	5.54
303.249	5.41
303.625	5.54
304	5.64
304.376	4.94
304.751	5.05
305.127	5.32
305.502	5.85
305.878	5.04
306.253	5.13
306.628	5.42
307.003	5.41
307.378	5.04
307.754	6
308.129	5.99
308.504	5.81
308.879	5.45
309.254	5.69
309.629	4.99
310.003	4.93
310.378	5.35
310.753	5.15
311.128	5.06
311.502	5.67
311.877	5.12
312.252	5.19
312.626	5.26
313.001	4.94
313.375	5.33
313.75	5.18
314.124	4.75
314.498	5.21
314.873	5.25
315.247	5.61
315.621	5.9
315.995	5.22
316.369	4.94
316.743	5.23
317.117	5.37
317.491	5.06
317.865	5.33
318.239	5.64
318.613	5.16
318.987	4.63
319.361	4.66
319.734	4.51
320.108	4.42
320.482	5.19
320.855	5.01
321.229	5.39
321.602	4.96
321.976	4.83
322.349	5.82
322.723	4.71
323.096	5.59
323.469	5.11
323.843	5.28
324.216	5.08
324.589	5.64
324.962	5.28
325.335	5.33
325.708	4.98
326.081	5.1
326.454	5.58
326.827	5.49
327.2	5.29
327.573	5.32
327.945	4.88
328.318	4.63
328.691	4.85
329.063	5.31
329.436	4.85
329.809	5.67
330.181	5.26
330.553	4.92
330.926	4.88
331.298	5.36
331.671	4.97
332.043	4.62
332.415	4.74
332.787	5.58
333.159	5.13
333.532	5.29
333.904	5.15
334.276	4.99
334.648	5.14
335.02	5.3
335.391	5.16
335.763	5.5
336.135	5.05
336.507	5.03
336.879	4.94
337.25	5.13
337.622	4.94
337.993	5.55
338.365	4.81
338.736	5.24
339.108	5.49
339.479	5.38
339.851	5.49
340.222	4.93
340.593	4.56
340.964	5.22
341.336	5.41
341.707	5.26
342.078	5.18
342.449	5.11
342.82	4.9
343.191	5.08
343.562	5.35
343.933	4.86
344.303	5.12
344.674	5.38
345.045	5.3
345.416	5.13
345.786	5.25
346.157	5.46
346.527	5.28
346.898	5.36
347.268	5.1
347.639	5.26
348.009	4.7
348.38	5.04
348.75	5.25
349.12	4.74
349.49	5
349.861	5.11
350.231	5.3
350.601	5.52
350.971	5.43
351.341	5.56
351.711	5.85
352.081	5.02
352.45	5.44
352.82	6.01
353.19	5.51
353.56	5.35
353.929	4.95
354.299	5.16
354.669	5.61
355.038	5.46
355.408	5.87
355.777	5.26
356.147	5.07
356.516	5.18
356.885	4.99
357.254	5.15
357.624	5.3
357.993	5.45
358.362	5.59
358.731	4.85
359.1	4.99
359.469	5.14
359.838	5.54
360.207	5.27
360.576	5.51
360.945	4.99
361.314	5.51
361.682	5.32
362.051	5.2
362.42	5.27
362.788	5.44
363.157	5.4
363.525	5.21
363.894	5.52
364.262	5.33
364.631	5.35
364.999	5.56
365.367	5.52
365.735	5.07
366.104	5.42
366.472	5.59
366.84	5.43
367.208	5.54
367.576	5.56
367.944	5.21
368.312	5.09
368.68	5.55
369.048	5.64
369.416	5.84
369.783	5.7
370.151	5.43
370.519	5.26
370.886	5.39
371.254	5.71
371.621	5.84
371.989	5.71
372.356	5.9
372.724	5.83
373.091	5.66
373.458	5.51
373.826	5.63
374.193	5.52
374.56	5.53
374.927	5.63
375.294	5.82
375.661	5.64
376.028	5.7
376.395	5.87
376.762	5.49
377.129	5.57
377.496	5.74
377.863	5.77
378.229	6.03
378.596	5.91
378.963	5.72
379.329	5.66
379.696	5.71
380.062	5.61
380.429	5.77
380.795	5.66
381.161	5.72
381.528	5.83
381.894	5.92
382.26	6.08
382.626	6.12
382.993	5.78
383.359	5.77
383.725	5.87
384.091	5.78
384.457	5.99
384.823	5.87
385.188	6.19
385.554	5.82
385.92	5.82
386.286	6.19
386.651	5.8
387.017	5.93
387.383	6
387.748	5.92
388.114	5.72
388.479	5.88
388.845	6.12
389.21	5.91
389.575	5.49
389.94	5.81
390.306	5.91
390.671	5.7
391.036	6.18
391.401	6
391.766	5.94
392.131	5.89
392.496	5.7
392.861	5.68
393.226	5.9
393.591	5.91
393.956	5.92
394.32	6.19
394.685	5.97
395.05	6.17
395.414	6.3
395.779	5.99
396.143	6.02
396.508	5.95
396.872	6.07
397.236	6
397.601	5.99
397.965	5.83
398.329	6.18
398.694	6.24
399.058	5.87
399.422	6.18
399.786	5.92
400.15	6
400.514	5.89
400.878	6.22
401.242	6.18
401.605	6
401.969	5.99
402.333	6
402.697	6
403.06	6.23
403.424	6.11
403.787	6.12
404.151	6.15
404.514	6.24
404.878	6.47
405.241	6.25
405.604	6.01
405.968	6.26
406.331	5.96
406.694	6.3
407.057	6.01
407.42	6.25
407.783	6.31
408.146	6.19
408.509	6.2
408.872	6.42
409.235	6.3
409.598	6.43
409.961	6.22
410.323	6.35
410.686	6.09
411.049	6.3
411.411	6.23
411.774	6.21
412.136	6.03
412.499	6.34
412.861	6.41
413.223	6.27
413.586	6.26
413.948	6.33
414.31	6.57
414.672	6.27
415.035	6.09
415.397	6.62
415.759	6.43
416.121	6.27
416.483	6.39
416.845	6.29
417.206	6.42
417.568	6.42
417.93	6.35
418.292	6.27
418.653	6.68
419.015	6.06
419.377	6.38
419.738	6.22
420.1	6.16
420.461	6.13
420.822	6.17
421.184	6.17
421.545	6.2
421.906	6.25
422.267	6.22
422.629	6.22
422.99	6.06
423.351	6.18
423.712	6.08
424.073	6.24
424.434	6.21
424.795	6.07
425.155	6.14
425.516	6.14
425.877	6.21
426.238	6.03
426.598	6.17
426.959	6.09
427.32	6.28
427.68	6.28
428.041	6.17
428.401	6.21
428.761	6.23
429.122	6.28
429.482	6.33
429.842	6.24
430.202	6.3
430.563	6.39
430.923	6.4
431.283	6.22
431.643	6.49
432.003	6.6
432.363	6.4
432.722	6.39
433.082	6.45
433.442	6.38
433.802	6.57
434.161	6.39
434.521	6.5
434.881	6.4
435.24	6.45
435.6	6.33
435.959	6.23
436.319	6.33
436.678	6.38
437.037	6.3
437.396	6.43
437.756	6.45
438.115	6.21
438.474	6.42
438.833	6.45
439.192	6.42
439.551	6.28
439.91	6.48
440.269	6.68
440.628	6.33
440.987	6.41
441.345	6.29
441.704	6.34
442.063	6.42
442.421	6.35
442.78	6.37
443.138	6.36
443.497	6.48
443.855	6.39
444.214	6.39
444.572	6.35
444.93	6.49
445.288	6.52
445.647	6.71
446.005	6.28
446.363	6.53
446.721	6.37
447.079	6.55
447.437	6.44
447.795	6.26
448.153	6.29
448.51	6.32
448.868	6.29
449.226	6.34
449.584	6.36
449.941	6.41
450.299	6.36
450.656	6.38
451.014	6.41
451.371	6.43
451.729	6.35
452.086	6.5
452.443	6.48
452.801	6.55
453.158	6.66
453.515	6.33
453.872	6.54
454.229	6.55
454.586	6.53
454.943	6.49
455.3	6.36
455.657	6.49
456.014	6.39
456.371	6.4
456.727	6.59
457.084	6.58
457.441	6.49
457.797	6.49
458.154	6.43
458.51	6.4
458.867	6.46
459.223	6.64
459.58	6.53
459.936	6.64
460.292	6.46
460.648	6.37
461.005	6.36
461.361	6.46
461.717	6.21
462.073	6.37
462.429	6.39
462.785	6.39
463.141	6.48
463.496	6.48
463.852	6.49
464.208	6.63
464.564	6.64
464.919	6.62
465.275	6.58
465.631	6.6
465.986	6.54
466.342	6.63
466.697	6.56
467.052	6.61
467.408	6.63
467.763	6.65
468.118	6.83
468.473	6.55
468.829	6.53
469.184	6.56
469.539	6.48
469.894	6.52
470.249	6.53
470.603	6.41
470.958	6.58
471.313	6.7
471.668	6.6
472.023	6.58
472.377	6.47
472.732	6.54
473.086	6.72
473.441	6.74
473.795	6.8
474.15	6.41
474.504	6.57
474.859	6.62
475.213	6.59
475.567	6.64
475.921	6.38
476.275	6.57
476.63	6.67
476.984	6.75
477.338	6.54
477.692	6.63
478.045	6.57
478.399	6.51
478.753	6.62
479.107	6.56
479.461	6.48
479.814	6.73
480.168	6.58
480.521	6.5
480.875	6.69
481.228	6.65
481.582	6.63
481.935	6.6
482.289	6.56
482.642	6.65
482.995	6.61
483.348	6.52
483.701	6.47
484.055	6.51
484.408	6.5
484.761	6.34
485.114	6.37
485.466	6.27
485.819	6.18
486.172	6.09
486.525	6.1
486.878	6.2
487.23	6.29
487.583	6.32
487.936	6.41
488.288	6.42
488.641	6.41
488.993	6.34
489.345	6.22
489.698	6.17
490.05	6.26
490.402	6.29
490.754	6.28
491.107	6.31
491.459	6.44
491.811	6.41
492.163	6.41
492.515	6.58
492.866	6.45
493.218	6.39
493.57	6.27
493.922	6.26
494.274	6.32
494.625	6.29
494.977	6.42
495.328	6.53
495.68	6.52
496.031	6.46
496.383	6.67
496.734	6.49
497.086	6.64
497.437	6.68
497.788	6.6
498.139	6.57
498.49	6.54
498.842	6.44
499.193	6.61
499.544	6.54
499.894	6.52
500.245	6.5
500.596	6.6
500.947	6.61
501.298	6.48
501.648	6.49
501.999	6.64
502.35	6.61
502.7	6.76
503.051	6.63
503.401	6.67
503.752	6.7
504.102	6.71
504.452	6.55
504.803	6.7
505.153	6.72
505.503	6.64
505.853	6.68
506.203	6.49
506.553	6.51
506.903	6.69
507.253	6.69
507.603	6.56
507.953	6.63
508.303	6.61
508.652	6.68
509.002	6.63
509.352	6.67
509.701	6.64
510.051	6.46
510.4	6.53
510.75	6.62
511.099	6.5
511.449	6.62
511.798	6.65
512.147	6.58
512.496	6.58
512.846	6.63
513.195	6.66
513.544	6.49
513.893	6.48
514.242	6.56
514.591	6.55
514.939	6.52
515.288	6.59
515.637	6.63
515.986	6.63
516.334	6.51
516.683	6.65
517.032	6.48
517.38	6.51
517.729	6.64
518.077	6.61
518.426	6.51
518.774	6.56
519.122	6.61
519.47	6.52
519.819	6.5
520.167	6.45
520.515	6.4
520.863	6.5
521.211	6.43
521.559	6.57
521.907	6.51
522.255	6.49
522.602	6.61
522.95	6.57
523.298	6.53
523.645	6.61
523.993	6.52
524.341	6.54
524.688	6.61
525.036	6.66
525.383	6.56
525.73	6.71
526.078	6.63
526.425	6.59
526.772	6.48
527.119	6.55
527.466	6.51
527.814	6.47
528.161	6.44
528.508	6.41
528.854	6.4
529.201	6.4
529.548	6.4
529.895	6.41
530.242	6.31
530.588	6.22
530.935	6.18
531.282	6.26
531.628	6.3
531.975	6.26
532.321	6.32
532.667	6.37
533.014	6.5
533.36	6.48
533.706	6.43
534.052	6.48
534.399	6.41
534.745	6.33
535.091	6.31
535.437	6.38
535.783	6.33
536.129	6.36
536.474	6.4
536.82	6.4
537.166	6.49
537.512	6.46
537.857	6.57
538.203	6.49
538.549	6.47
538.894	6.31
539.239	6.46
539.585	6.44
539.93	6.5
540.276	6.58
540.621	6.47
540.966	6.56
541.311	6.66
541.656	6.55
542.001	6.53
542.346	6.55
542.691	6.41
543.036	6.4
543.381	6.26
543.726	6.25
544.071	6.25
544.415	6.3
544.76	6.33
545.105	6.39
545.449	6.35
545.794	6.42
546.138	6.32
546.483	6.33
546.827	6.39
547.171	6.5
547.516	6.4
547.86	6.44
548.204	6.34
548.548	6.54
548.892	6.43
549.236	6.48
549.58	6.36
549.924	6.39
550.268	6.44
550.612	6.56
550.956	6.67
551.3	6.6
551.643	6.37
551.987	6.62
552.33	6.61
552.674	6.42
553.017	6.62
553.361	6.55
553.704	6.63
554.048	6.58
554.391	6.69
554.734	6.53
555.077	6.46
555.42	6.36
555.764	6.45
556.107	6.55
556.45	6.43
556.793	6.42
557.135	6.44
557.478	6.48
557.821	6.69
558.164	6.66
558.507	6.61
558.849	6.59
559.192	6.64
559.534	6.7
559.877	6.5
560.219	6.68
560.562	6.54
560.904	6.42
561.246	6.67
561.589	6.39
561.931	6.58
562.273	6.6
562.615	6.7
562.957	6.76
563.299	6.37
563.641	6.63
563.983	6.42
564.325	6.34
564.667	6.58
565.008	6.48
565.35	6.65
565.692	6.61
566.033	6.56
566.375	6.53
566.716	6.6
567.058	6.44
567.399	6.57
567.741	6.38
568.082	6.57
568.423	6.48
568.764	6.27
569.105	6.44
569.447	6.45
569.788	6.32
570.129	6.39
570.47	6.45
570.811	6.41
571.151	6.45
571.492	6.47
571.833	6.58
572.174	6.56
572.514	6.53
572.855	6.36
573.195	6.46
573.536	6.12
573.876	6.47
574.217	6.41
574.557	6.51
574.898	6.22
575.238	6.32
575.578	6.34
575.918	6.46
576.258	6.3
576.598	6.56
576.938	6.42
577.278	6.47
577.618	6.26
577.958	6.26
578.298	6.45
578.638	6.32
578.977	6.52
579.317	6.26
579.657	6.28
579.996	6.36
580.336	6.52
580.675	6.45
581.014	6.37
581.354	6.42
581.693	6.56
582.032	6.43
582.372	6.46
582.711	6.45
583.05	6.65
583.389	6.42
583.728	6.52
584.067	6.43
584.406	6.36
584.745	6.21
585.083	6.5
585.422	6.21
585.761	6.28
586.1	6.43
586.438	6.19
586.777	6.33
587.115	6.55
587.454	6.3
587.792	6.3
588.13	6.44
588.469	6.51
588.807	6.18
589.145	6.16
589.483	6.35
589.821	6.07
590.159	6.34
590.497	6.24
590.835	6.3
591.173	6.3
591.511	6.25
591.849	6.29
592.187	6.3
592.524	6.17
592.862	6.19
593.2	6.22
593.537	6.17
593.875	6.26
594.212	6.31
594.55	6.45
594.887	6.42
595.224	6.21
595.561	6.3
595.899	6.38
596.236	6.42
596.573	6.41
596.91	6.43
597.247	6.36
597.584	6.24
597.921	6.41
598.258	6.36
598.594	6.42
598.931	6.15
599.268	5.85
599.604	6.24
599.941	6.09
600.277	6.17
600.614	6.06
600.95	6.17
601.287	6.22
601.623	6.3
601.959	6.18
602.296	6.28
602.632	6.13
602.968	6.16
603.304	6.54
603.64	6.14
603.976	6.17
604.312	6.58
604.648	6.2
604.984	6.31
605.319	6.38
605.655	5.99
605.991	6.19
606.326	6.03
606.662	5.99
606.998	6.14
607.333	5.92
607.668	5.99
608.004	6.26
608.339	6
608.674	6.15
609.01	6.26
609.345	6.21
609.68	6.28
610.015	6.19
610.35	6.25
610.685	6.13
611.02	6.27
611.355	6.02
611.689	5.96
612.024	6.25
612.359	6.13
612.694	5.98
613.028	6.22
613.363	6.17
613.697	5.93
614.032	5.95
614.366	6.12
614.7	6.23
615.035	5.95
615.369	6.27
615.703	5.84
616.037	6.09
616.371	6.35
616.705	5.95
617.039	6.21
617.373	6.18
617.707	6.31
618.041	6.19
618.375	5.86
618.709	6.04
619.042	6.44
619.376	6.62
619.71	6.39
620.043	6.12
620.377	6.04
620.71	6.09
621.043	6.41
621.377	6.03
621.71	6.04
622.043	5.86
622.376	6.29
622.709	6.31
623.043	6.2
623.376	5.61
623.709	5.77
624.041	6.03
624.374	5.96
624.707	5.99
625.04	6.16
625.373	6.44
625.705	5.67
626.038	5.99
626.37	5.7
626.703	6.04
627.035	5.9
627.368	6.17
627.7	6.08
628.032	5.97
628.365	6.06
628.697	5.9
629.029	6.04
629.361	6.02
629.693	5.84
630.025	5.91
630.357	5.99
630.689	6.03
631.021	5.97
631.353	6.06
631.684	5.86
632.016	5.98
632.348	6.04
632.679	5.69
633.011	6.17
633.342	5.86
633.674	6.17
634.005	6.05
634.336	6.12
634.668	6.03
634.999	5.78
635.33	5.58
635.661	6.11
635.992	5.98
636.323	6.01
636.654	6.24
636.985	5.46
637.316	5.98
637.647	5.62
637.977	5.62
638.308	5.77
638.639	5.88
638.969	6
639.3	5.75
639.63	6.08
639.961	5.81
640.291	5.72
640.622	5.99
640.952	6.24
641.282	5.94
641.612	6.16
641.943	6.26
642.273	5.47
642.603	6.11
642.933	6.24
643.263	6.16
643.592	5.92
643.922	6.26
644.252	5.38
644.582	5.84
644.911	5.75
645.241	6.13
645.571	6.36
645.9	5.71
646.23	5.8
646.559	5.88
646.888	6.28
647.218	6.13
647.547	5.33
647.876	6.02
648.205	6.05
648.534	5.85
648.863	6.14
649.192	5.6
649.521	5.75
649.85	5.79
650.179	5.75
650.508	5.67
650.837	6.02
651.165	5.8
651.494	5.48
651.822	6.24
652.151	6.29
652.479	6.13
652.808	5.72
653.136	5.3
653.465	6.04
653.793	5.99
654.121	6.25
654.449	5.95
654.777	5.77
655.105	5.68
655.433	6.09
655.761	5.74
656.089	6.34
656.417	6.16
656.745	6.08
657.073	5.75
657.4	6.6
657.728	5.8
658.056	6.09
658.383	6.09
658.711	5.71
659.038	6.03
659.365	5.96
659.693	5.86
660.02	6
660.347	5.46
660.674	5.56
661.001	5.35
661.329	6.15
661.656	5.82
661.982	5.62
662.309	5.78
662.636	5.73
662.963	6.02
663.29	5.93
663.616	6.03
663.943	5.49
664.27	6.12
664.596	5.94
664.923	5.98
665.249	5.91
665.576	5.87
665.902	5.97
666.228	6.15
666.554	6.05
666.881	5.28
667.207	6.31
667.533	5.61
667.859	6.15
668.185	6.19
668.511	6.83
668.837	5.82
669.162	5.73
669.488	6.19
669.814	5.7
670.139	6.15
670.465	5.78
670.791	6.45
671.116	6.1
671.442	5.91
671.767	5.51
672.092	5.76
672.418	5.55
672.743	5.81
673.068	6.46
673.393	5.17
673.718	5.63
674.043	5.25
674.368	5.9
674.693	6.05
675.018	7.04
675.343	5.93
675.667	6.4
675.992	5.94
676.317	6.52
676.641	5.37
676.966	6.56
677.29	5.82
677.615	5.93
677.939	5.57
678.264	6.37
678.588	5.7
678.912	6.71
679.236	5.75
679.56	6.15
679.885	6.14
680.209	6.08
680.532	5.87
680.856	5.95
681.18	6.08
681.504	5.74
681.828	6.17
682.152	5.98
682.475	5.6
682.799	6.01
683.122	5.72
683.446	5.97
683.769	6.45
684.093	6.04
684.416	6.05
684.739	5.51
685.062	5.52
685.386	5.58
685.709	5.88
686.032	5.8
686.355	6.05
686.678	5.33
687.001	6.46
687.324	5.62
687.646	5.97
687.969	6.31
688.292	6.35
688.614	6.38
688.937	5.64
689.26	5.14
689.582	6.05
689.904	5.53
690.227	6.88
690.549	6.15
690.871	6.72
691.194	5.8
691.516	5.95
691.838	6.61
692.16	5.38
692.482	5.62
692.804	5.87
693.126	5.07
