Data from 0281_chest_Reflection__4__219.txt Node

Date: Fri Oct 20 22:28:02 CDT 2023
User: ToomeyLab
Spectrometer: FLMS14357
Trigger mode: 0
Integration Time (sec): 1.000000E-2
Scans to average: 100
Electric dark correction enabled: true
Nonlinearity correction enabled: false
Boxcar width: 0
XAxis mode: Wavelengths
Number of Pixels in Spectrum: 2048
>>>>>Begin Spectral Data<<<<<
189.047	-206.69
189.435	-206.69
189.823	-206.69
190.211	-1.48
190.599	152.84
190.987	119.16
191.375	-4.31
191.763	974.95
192.151	-11.68
192.538	71.86
192.926	102.07
193.314	271.32
193.702	68.98
194.089	182.88
194.477	5.71
194.864	120.18
195.252	70.55
195.639	19.69
196.027	-112.98
196.414	103.67
196.801	-721.21
197.189	183.77
197.576	154.46
197.963	-141.92
198.351	49
198.738	40.97
199.125	23.62
199.512	82.91
199.899	22.19
200.286	-3.07
200.673	47.62
201.06	33.5
201.447	-15.32
201.833	14.57
202.22	16.22
202.607	52.82
202.994	22.89
203.38	58.93
203.767	14.1
204.154	19.41
204.54	23.32
204.927	27.4
205.313	35.53
205.699	44.2
206.086	9.82
206.472	29.65
206.858	50.25
207.245	25.65
207.631	41.4
208.017	19.4
208.403	-2.28
208.789	28.95
209.175	-18.66
209.561	31.89
209.947	5.45
210.333	30.09
210.719	26.28
211.105	16.98
211.491	27.09
211.876	-12.52
212.262	31.37
212.648	47.3
213.034	11.07
213.419	3.69
213.805	-1.69
214.19	3.27
214.576	-7.36
214.961	16.09
215.346	33.1
215.732	34.72
216.117	-15.86
216.502	-10.22
216.888	-12.47
217.273	0.55
217.658	2.29
218.043	22.62
218.428	-6.93
218.813	27.31
219.198	-2.81
219.583	-4.73
219.968	-12.03
220.353	20.86
220.738	22.41
221.122	-12.03
221.507	10.46
221.892	19.17
222.276	17.97
222.661	30.57
223.046	11.37
223.43	-0.95
223.815	20.81
224.199	17.19
224.583	1.18
224.968	8.29
225.352	9.69
225.736	2.42
226.121	11.59
226.505	-0.26
226.889	9.31
227.273	6.67
227.657	12.95
228.041	7.35
228.425	6.95
228.809	9.11
229.193	5.91
229.577	8.21
229.961	4.82
230.344	5.65
230.728	5.12
231.112	6.11
231.495	5.09
231.879	6.09
232.263	5.84
232.646	4.21
233.03	4.73
233.413	5.49
233.797	4.36
234.18	5.78
234.563	6.19
234.946	7.48
235.33	6.7
235.713	4.36
236.096	7.61
236.479	6.45
236.862	6.55
237.245	5.37
237.628	4.38
238.011	5.43
238.394	5.51
238.777	6.38
239.16	4.84
239.543	8.54
239.925	6.72
240.308	5.86
240.691	4.56
241.073	6.81
241.456	5.8
241.838	5.19
242.221	6.38
242.603	5.29
242.986	6.25
243.368	6.05
243.75	5.34
244.133	4.99
244.515	4.95
244.897	4.94
245.279	4.98
245.661	4.65
246.043	4.9
246.425	4.72
246.807	5.67
247.189	5.06
247.571	4.35
247.953	5.19
248.335	5.75
248.717	4.99
249.098	4.86
249.48	4.81
249.862	4.96
250.243	5.32
250.625	5.18
251.006	5.08
251.388	4.26
251.769	5.57
252.151	4.56
252.532	5.71
252.913	4.86
253.295	4.24
253.676	4.45
254.057	4.59
254.438	5.06
254.819	4.48
255.2	4.31
255.581	4.84
255.962	5.43
256.343	4.72
256.724	3.05
257.105	4.82
257.486	4.8
257.867	4.6
258.247	4.87
258.628	5
259.009	4.04
259.389	3.7
259.77	4.18
260.15	4.73
260.531	4.98
260.911	4.74
261.292	4.19
261.672	4.23
262.052	4.5
262.432	4.66
262.813	4.49
263.193	4.77
263.573	4.55
263.953	4.72
264.333	4.45
264.713	4.43
265.093	5.39
265.473	4.52
265.853	4.49
266.233	5.08
266.612	4.17
266.992	4.58
267.372	4.34
267.752	3.96
268.131	4.37
268.511	4.69
268.89	4.83
269.27	4.32
269.649	4.07
270.029	4.46
270.408	4.47
270.787	4.42
271.167	5.36
271.546	4.54
271.925	4.75
272.304	4.5
272.683	4.34
273.062	4.63
273.441	4.5
273.82	4.71
274.199	4.88
274.578	4.93
274.957	4.52
275.336	4.55
275.715	4.69
276.093	4.41
276.472	4.67
276.851	4.13
277.229	4.31
277.608	4.03
277.986	3.78
278.365	4.65
278.743	4.49
279.122	4.12
279.5	4.6
279.878	3.84
280.257	4.94
280.635	4.55
281.013	4.96
281.391	4.4
281.769	3.97
282.147	4.15
282.525	4.77
282.903	4.41
283.281	4.43
283.659	4.53
284.037	4.63
284.415	4.27
284.792	4.06
285.17	4.48
285.548	4.54
285.925	4.04
286.303	4.05
286.68	4.53
287.058	4.85
287.435	4.62
287.813	3.57
288.19	3.97
288.567	4.39
288.945	4.33
289.322	4.54
289.699	3.9
290.076	4.89
290.453	4.66
290.83	4.02
291.207	4.23
291.584	3.77
291.961	4.15
292.338	3.87
292.715	4.21
293.092	4.13
293.469	4.24
293.845	4.18
294.222	4.04
294.599	4.17
294.975	4.95
295.352	4.25
295.728	4.4
296.105	3.73
296.481	4.44
296.858	4.42
297.234	4.17
297.61	3.95
297.986	4.8
298.363	4.12
298.739	4.61
299.115	4.1
299.491	4.33
299.867	4.61
300.243	4.39
300.619	4.4
300.995	4.14
301.371	4.55
301.746	3.77
302.122	4.72
302.498	4.08
302.874	4.07
303.249	4.45
303.625	4.77
304	4.75
304.376	4.28
304.751	4.22
305.127	4.36
305.502	4.71
305.878	4.3
306.253	4.47
306.628	4.75
307.003	4.56
307.378	4.31
307.754	4.32
308.129	5.17
308.504	4.86
308.879	4.76
309.254	4.95
309.629	4.24
310.003	3.6
310.378	4.72
310.753	4.69
311.128	4.49
311.502	4.64
311.877	4.67
312.252	4.52
312.626	4.52
313.001	4.86
313.375	4.63
313.75	4.6
314.124	4.31
314.498	4.47
314.873	4.16
315.247	4.29
315.621	4.22
315.995	4.87
316.369	4.5
316.743	4.77
317.117	4.69
317.491	3.7
317.865	4.95
318.239	4.35
318.613	4.35
318.987	4.52
319.361	4.16
319.734	4.62
320.108	4.54
320.482	4.99
320.855	5.04
321.229	5.36
321.602	4.52
321.976	4.64
322.349	5.16
322.723	4.13
323.096	4.51
323.469	4.8
323.843	4.31
324.216	4.72
324.589	5.22
324.962	4.64
325.335	4.78
325.708	4.75
326.081	4.76
326.454	4.54
326.827	5.17
327.2	5.12
327.573	4.59
327.945	4.47
328.318	4.48
328.691	4.65
329.063	5.23
329.436	4.74
329.809	4.65
330.181	5.14
330.553	4.83
330.926	4.43
331.298	4.72
331.671	4.36
332.043	4.57
332.415	4.04
332.787	4.64
333.159	4.7
333.532	4.89
333.904	5.08
334.276	4.23
334.648	4.85
335.02	5.03
335.391	4.56
335.763	4.96
336.135	4.89
336.507	4.89
336.879	4.45
337.25	5.08
337.622	4.88
337.993	5.11
338.365	4.66
338.736	4.86
339.108	4.98
339.479	4.75
339.851	4.48
340.222	4.6
340.593	4.35
340.964	4.51
341.336	5.12
341.707	4.7
342.078	4.43
342.449	4.69
342.82	4.55
343.191	4.79
343.562	4.89
343.933	4.62
344.303	4.94
344.674	4.64
345.045	4.99
345.416	5.21
345.786	4.5
346.157	4.69
346.527	4.84
346.898	4.42
347.268	4.4
347.639	5.04
348.009	4.8
348.38	5.05
348.75	4.58
349.12	4.82
349.49	4.63
349.861	5.15
350.231	4.59
350.601	4.34
350.971	4.78
351.341	4.51
351.711	5.29
352.081	4.65
352.45	4.61
352.82	5.21
353.19	4.92
353.56	4.84
353.929	4.82
354.299	4.62
354.669	4.49
355.038	5.46
355.408	4.52
355.777	4.7
356.147	4.59
356.516	4.53
356.885	4.92
357.254	5.22
357.624	5.07
357.993	4.54
358.362	4.94
358.731	4.73
359.1	4.3
359.469	4.55
359.838	5.01
360.207	4.83
360.576	5.04
360.945	4.66
361.314	4.6
361.682	4.87
362.051	4.53
362.42	4.75
362.788	4.96
363.157	4.78
363.525	4.72
363.894	4.59
364.262	4.53
364.631	5.02
364.999	4.65
365.367	4.8
365.735	4.56
366.104	4.69
366.472	4.89
366.84	4.96
367.208	5.19
367.576	4.86
367.944	5.05
368.312	4.77
368.68	5.18
369.048	5.15
369.416	4.98
369.783	5.01
370.151	4.74
370.519	4.99
370.886	5.09
371.254	5.16
371.621	4.8
371.989	4.83
372.356	5.21
372.724	5.27
373.091	4.82
373.458	4.63
373.826	4.67
374.193	4.84
374.56	4.76
374.927	4.86
375.294	4.61
375.661	5.13
376.028	5.04
376.395	5.38
376.762	4.68
377.129	4.97
377.496	4.94
377.863	5.21
378.229	5.18
378.596	5.08
378.963	5.19
379.329	5.13
379.696	5
380.062	4.91
380.429	4.97
380.795	5
381.161	4.92
381.528	5.39
381.894	4.81
382.26	5.27
382.626	5.3
382.993	5.21
383.359	4.89
383.725	5.01
384.091	4.9
384.457	5.07
384.823	5.06
385.188	5.13
385.554	4.85
385.92	4.87
386.286	4.96
386.651	4.88
387.017	5.02
387.383	4.95
387.748	4.82
388.114	4.79
388.479	5
388.845	5.36
389.21	4.99
389.575	4.6
389.94	4.99
390.306	4.91
390.671	4.97
391.036	5.14
391.401	5.1
391.766	5.03
392.131	5.18
392.496	5.19
392.861	5.18
393.226	5.24
393.591	4.99
393.956	5.21
394.32	5.37
394.685	4.86
395.05	5.2
395.414	5.33
395.779	4.91
396.143	4.96
396.508	5.02
396.872	5.13
397.236	5.02
397.601	5.12
397.965	4.9
398.329	5.16
398.694	4.96
399.058	4.86
399.422	5.26
399.786	5.18
400.15	5.05
400.514	4.99
400.878	5.26
401.242	5.34
401.605	5.29
401.969	4.94
402.333	5.06
402.697	5.3
403.06	5.15
403.424	5.34
403.787	4.99
404.151	5.16
404.514	5.44
404.878	5.26
405.241	5.25
405.604	5.16
405.968	5.38
406.331	4.9
406.694	5.17
407.057	5.07
407.42	5.38
407.783	5.3
408.146	5.2
408.509	5.21
408.872	5.35
409.235	5.32
409.598	5.27
409.961	5.35
410.323	5.24
410.686	5.1
411.049	5.02
411.411	5.06
411.774	5.29
412.136	5.15
412.499	5.01
412.861	5.21
413.223	5.26
413.586	5.19
413.948	5.28
414.31	5.41
414.672	5.19
415.035	5.25
415.397	5.46
415.759	5.42
416.121	5.17
416.483	5.54
416.845	5.34
417.206	5.29
417.568	5.39
417.93	5.46
418.292	4.99
418.653	5.35
419.015	5.21
419.377	5.29
419.738	5.18
420.1	5.19
420.461	5.28
420.822	5.17
421.184	5.17
421.545	5.26
421.906	5.36
422.267	5.07
422.629	5.28
422.99	5.08
423.351	5.17
423.712	5.23
424.073	5.22
424.434	5.15
424.795	5.1
425.155	5.28
425.516	5.24
425.877	5.39
426.238	5.09
426.598	5.21
426.959	5.19
427.32	5.3
427.68	5.24
428.041	5.17
428.401	5.3
428.761	5.34
429.122	5.39
429.482	5.49
429.842	5.38
430.202	5.33
430.563	5.36
430.923	5.33
431.283	5.41
431.643	5.44
432.003	5.57
432.363	5.27
432.722	5.42
433.082	5.42
433.442	5.36
433.802	5.45
434.161	5.44
434.521	5.49
434.881	5.51
435.24	5.56
435.6	5.42
435.959	5.36
436.319	5.28
436.678	5.36
437.037	5.46
437.396	5.55
437.756	5.58
438.115	5.42
438.474	5.61
438.833	5.5
439.192	5.33
439.551	5.46
439.91	5.46
440.269	5.55
440.628	5.38
440.987	5.4
441.345	5.42
441.704	5.53
442.063	5.35
442.421	5.36
442.78	5.3
443.138	5.45
443.497	5.52
443.855	5.42
444.214	5.46
444.572	5.53
444.93	5.61
445.288	5.42
445.647	5.77
446.005	5.41
446.363	5.47
446.721	5.39
447.079	5.56
447.437	5.49
447.795	5.39
448.153	5.38
448.51	5.47
448.868	5.46
449.226	5.3
449.584	5.42
449.941	5.35
450.299	5.47
450.656	5.53
451.014	5.58
451.371	5.53
451.729	5.4
452.086	5.47
452.443	5.52
452.801	5.57
453.158	5.81
453.515	5.53
453.872	5.52
454.229	5.66
454.586	5.7
454.943	5.41
455.3	5.54
455.657	5.57
456.014	5.54
456.371	5.6
456.727	5.58
457.084	5.65
457.441	5.79
457.797	5.5
458.154	5.67
458.51	5.54
458.867	5.63
459.223	5.56
459.58	5.65
459.936	5.75
460.292	5.62
460.648	5.64
461.005	5.47
461.361	5.62
461.717	5.48
462.073	5.64
462.429	5.55
462.785	5.55
463.141	5.71
463.496	5.63
463.852	5.6
464.208	5.79
464.564	5.79
464.919	5.71
465.275	5.8
465.631	5.67
465.986	5.91
466.342	5.81
466.697	5.76
467.052	5.77
467.408	5.82
467.763	5.91
468.118	5.92
468.473	5.83
468.829	5.62
469.184	5.71
469.539	5.7
469.894	5.83
470.249	5.65
470.603	5.61
470.958	5.85
471.313	5.85
471.668	5.82
472.023	5.9
472.377	5.82
472.732	5.75
473.086	5.9
473.441	5.87
473.795	6.07
474.15	5.91
474.504	5.84
474.859	5.81
475.213	5.8
475.567	5.78
475.921	5.9
476.275	5.86
476.63	5.93
476.984	5.94
477.338	5.82
477.692	5.88
478.045	5.98
478.399	5.86
478.753	6
479.107	5.94
479.461	5.89
479.814	6.03
480.168	5.98
480.521	5.99
480.875	5.97
481.228	5.92
481.582	6.03
481.935	5.99
482.289	5.89
482.642	5.85
482.995	5.95
483.348	5.93
483.701	6
484.055	5.89
484.408	5.73
484.761	5.83
485.114	5.73
485.466	5.75
485.819	5.66
486.172	5.58
486.525	5.57
486.878	5.59
487.23	5.66
487.583	5.76
487.936	5.71
488.288	5.81
488.641	5.87
488.993	5.75
489.345	5.82
489.698	5.75
490.05	5.73
490.402	5.74
490.754	5.8
491.107	5.75
491.459	5.88
491.811	5.91
492.163	5.9
492.515	5.93
492.866	5.97
493.218	5.85
493.57	5.86
493.922	5.85
494.274	5.87
494.625	5.81
494.977	5.89
495.328	5.98
495.68	6.04
496.031	5.9
496.383	6.07
496.734	6.15
497.086	6.13
497.437	6.23
497.788	6.06
498.139	6.3
498.49	6.18
498.842	6.09
499.193	6.15
499.544	6.14
499.894	6.21
500.245	6.08
500.596	6.08
500.947	6.15
501.298	6.21
501.648	6.15
501.999	6.15
502.35	6.28
502.7	6.28
503.051	6.4
503.401	6.35
503.752	6.32
504.102	6.41
504.452	6.28
504.803	6.19
505.153	6.41
505.503	6.32
505.853	6.42
506.203	6.25
506.553	6.31
506.903	6.25
507.253	6.34
507.603	6.39
507.953	6.43
508.303	6.39
508.652	6.47
509.002	6.5
509.352	6.37
509.701	6.44
510.051	6.29
510.4	6.38
510.75	6.52
511.099	6.43
511.449	6.42
511.798	6.44
512.147	6.25
512.496	6.33
512.846	6.37
513.195	6.45
513.544	6.56
513.893	6.39
514.242	6.48
514.591	6.58
514.939	6.36
515.288	6.39
515.637	6.54
515.986	6.66
516.334	6.45
516.683	6.54
517.032	6.48
517.38	6.62
517.729	6.56
518.077	6.58
518.426	6.48
518.774	6.51
519.122	6.68
519.47	6.58
519.819	6.43
520.167	6.53
520.515	6.56
520.863	6.56
521.211	6.49
521.559	6.57
521.907	6.62
522.255	6.61
522.602	6.81
522.95	6.55
523.298	6.69
523.645	6.67
523.993	6.65
524.341	6.72
524.688	6.77
525.036	6.73
525.383	6.71
525.73	6.93
526.078	6.92
526.425	6.88
526.772	6.74
527.119	6.88
527.466	6.77
527.814	6.79
528.161	6.7
528.508	6.69
528.854	6.74
529.201	6.72
529.548	6.85
529.895	6.86
530.242	6.66
530.588	6.64
530.935	6.64
531.282	6.66
531.628	6.69
531.975	6.59
532.321	6.74
532.667	6.8
533.014	6.9
533.36	6.97
533.706	7.03
534.052	6.9
534.399	6.96
534.745	6.93
535.091	6.93
535.437	6.93
535.783	6.92
536.129	6.93
536.474	6.99
536.82	6.95
537.166	7.03
537.512	7.1
537.857	7.13
538.203	7.13
538.549	7.29
538.894	7.1
539.239	7.14
539.585	7.13
539.93	7.18
540.276	7.34
540.621	7.15
540.966	7.39
541.311	7.37
541.656	7.33
542.001	7.45
542.346	7.42
542.691	7.29
543.036	7.26
543.381	7.22
543.726	7.19
544.071	7.19
544.415	7.23
544.76	7.22
545.105	7.26
545.449	7.4
545.794	7.34
546.138	7.32
546.483	7.41
546.827	7.52
547.171	7.62
547.516	7.49
547.86	7.59
548.204	7.46
548.548	7.59
548.892	7.59
549.236	7.77
549.58	7.67
549.924	7.66
550.268	7.59
550.612	7.7
550.956	7.87
551.3	7.66
551.643	7.82
551.987	8
552.33	7.97
552.674	7.97
553.017	7.63
553.361	7.99
553.704	7.83
554.048	8
554.391	8
554.734	8.06
555.077	7.98
555.42	7.86
555.764	7.96
556.107	8.08
556.45	7.97
556.793	7.89
557.135	8.1
557.478	8.01
557.821	8.37
558.164	8.27
558.507	8.13
558.849	8.3
559.192	8.29
559.534	8.49
559.877	8.11
560.219	8.45
560.562	8.45
560.904	8.08
561.246	8.34
561.589	8.16
561.931	8.64
562.273	8.57
562.615	8.53
562.957	8.79
563.299	8.62
563.641	8.65
563.983	8.44
564.325	8.43
564.667	8.52
565.008	8.65
565.35	8.63
565.692	8.62
566.033	8.72
566.375	8.71
566.716	8.79
567.058	8.71
567.399	8.82
567.741	8.59
568.082	8.8
568.423	8.81
568.764	8.66
569.105	8.89
569.447	8.74
569.788	8.91
570.129	8.9
570.47	8.97
570.811	9.04
571.151	8.85
571.492	9.12
571.833	9.06
572.174	9.24
572.514	9.15
572.855	9.06
573.195	9.13
573.536	9.06
573.876	9.24
574.217	9.22
574.557	9.1
574.898	9.08
575.238	9.21
575.578	9.19
575.918	9.24
576.258	9.3
576.598	9.37
576.938	9.44
577.278	9.38
577.618	9.33
577.958	9.36
578.298	9.46
578.638	9.5
578.977	9.44
579.317	9.5
579.657	9.57
579.996	9.53
580.336	9.68
580.675	9.72
581.014	9.68
581.354	9.68
581.693	9.71
582.032	9.9
582.372	9.74
582.711	9.89
583.05	9.96
583.389	9.88
583.728	10.18
584.067	9.91
584.406	10.05
584.745	10.14
585.083	10.08
585.422	10.04
585.761	10.02
586.1	10.11
586.438	9.79
586.777	10.08
587.115	10.29
587.454	10.29
587.792	10.31
588.13	10.5
588.469	10.41
588.807	10.07
589.145	10.27
589.483	10.17
589.821	10.36
590.159	10.31
590.497	10.4
590.835	10.5
591.173	10.45
591.511	10.54
591.849	10.29
592.187	10.41
592.524	10.33
592.862	10.46
593.2	10.27
593.537	10.44
593.875	10.58
594.212	10.77
594.55	10.62
594.887	10.68
595.224	10.57
595.561	10.69
595.899	10.82
596.236	10.86
596.573	11
596.91	11.02
597.247	11.02
597.584	10.65
597.921	10.77
598.258	11.15
598.594	11.07
598.931	10.98
599.268	10.92
599.604	10.98
599.941	11.11
600.277	10.82
600.614	11.13
600.95	11.27
601.287	11.21
601.623	11.6
601.959	11.4
602.296	11.48
602.632	11.35
602.968	11.49
603.304	11.87
603.64	11.63
603.976	11.28
604.312	11.71
604.648	11.71
604.984	11.73
605.319	11.66
605.655	11.57
605.991	11.64
606.326	11.49
606.662	11.58
606.998	11.54
607.333	11.62
607.668	11.45
608.004	11.72
608.339	11.81
608.674	11.96
609.01	11.77
609.345	12.07
609.68	11.97
610.015	11.92
610.35	12.09
610.685	12.2
611.02	12.07
611.355	12.21
611.689	12.07
612.024	12.29
612.359	12.1
612.694	12.05
613.028	12.22
613.363	12.06
613.697	12.37
614.032	12.54
614.366	12.28
614.7	12.43
615.035	12.34
615.369	12.43
615.703	12.01
616.037	12.84
616.371	12.37
616.705	12.45
617.039	12.41
617.373	12.85
617.707	13.25
618.041	12.94
618.375	12.54
618.709	12.9
619.042	12.88
619.376	12.95
619.71	13.04
620.043	13.4
620.377	12.88
620.71	13.22
621.043	13.1
621.377	12.73
621.71	12.94
622.043	12.99
622.376	13.11
622.709	13.22
623.043	13.07
623.376	12.88
623.709	13.08
624.041	13.28
624.374	13.36
624.707	12.99
625.04	13.49
625.373	13.6
625.705	13.34
626.038	13.24
626.37	12.82
626.703	13.44
627.035	13.81
627.368	13.68
627.7	14.09
628.032	13.54
628.365	13.91
628.697	14.03
629.029	13.67
629.361	13.73
629.693	13.46
630.025	13.83
630.357	13.94
630.689	13.93
631.021	14.11
631.353	13.95
631.684	13.97
632.016	14.18
632.348	14.01
632.679	13.83
633.011	14.08
633.342	13.71
633.674	14.06
634.005	14.2
634.336	14.6
634.668	14
634.999	14.01
635.33	14.16
635.661	14.64
635.992	14.28
636.323	14.34
636.654	14.55
636.985	13.89
637.316	14.52
637.647	14.35
637.977	14.21
638.308	14.51
638.639	14.29
638.969	14.75
639.3	14.14
639.63	14.51
639.961	14.53
640.291	14.77
640.622	14.51
640.952	15
641.282	15.02
641.612	14.64
641.943	15
642.273	14.7
642.603	15.06
642.933	14.93
643.263	15.27
643.592	14.57
643.922	15.2
644.252	14.83
644.582	15.18
644.911	15.28
645.241	15.27
645.571	15.42
645.9	15.06
646.23	15.08
646.559	15.11
646.888	15.21
647.218	15.08
647.547	15.07
647.876	15.34
648.205	15.43
648.534	15.38
648.863	15.31
649.192	14.93
649.521	15.52
649.85	15.51
650.179	15.45
650.508	15.15
650.837	15.9
651.165	15.73
651.494	15.53
651.822	15.63
652.151	16.01
652.479	15.95
652.808	15.83
653.136	15.32
653.465	16.2
653.793	16.26
654.121	16.2
654.449	16.24
654.777	16.18
655.105	15.56
655.433	16.33
655.761	16.15
656.089	16.24
656.417	16.09
656.745	15.58
657.073	16.44
657.4	16.92
657.728	16.39
658.056	16.46
658.383	16.58
658.711	16.12
659.038	16.62
659.365	16.79
659.693	16.57
660.02	16.72
660.347	16.25
660.674	16.39
661.001	16.34
661.329	16.61
661.656	17.06
661.982	16.62
662.309	17.1
662.636	16.67
662.963	16.7
663.29	16.54
663.616	16.76
663.943	16.28
664.27	17.23
664.596	16.75
664.923	16.44
665.249	16.95
665.576	17.27
665.902	17.45
666.228	17.32
666.554	17.46
666.881	16.33
667.207	17.41
667.533	17.63
667.859	17.77
668.185	17.58
668.511	17.09
668.837	17.41
669.162	17.83
669.488	17.49
669.814	17.5
670.139	17.62
670.465	17.81
670.791	17.68
671.116	17.93
671.442	17.75
671.767	17.75
672.092	17.62
672.418	17.52
672.743	17.63
673.068	18.27
673.393	17.47
673.718	17.94
674.043	17.91
674.368	18.51
674.693	18.08
675.018	18.57
675.343	18.09
675.667	17.95
675.992	18.33
676.317	18.72
676.641	17.63
676.966	18.17
677.29	18.32
677.615	18.11
677.939	18.24
678.264	17.96
678.588	17.78
678.912	18.89
679.236	18.05
679.56	18.23
679.885	18.53
680.209	18.2
680.532	18.26
680.856	18.41
681.18	18.85
681.504	18.46
681.828	19.25
682.152	18.61
682.475	18.52
682.799	19.03
683.122	19.25
683.446	19.1
683.769	18.92
684.093	18.94
684.416	18.48
684.739	18.61
685.062	18.47
685.386	19.24
