Data from 0281_forehead_Reflection__1__226.txt Node

Date: Fri Oct 20 22:30:11 CDT 2023
User: ToomeyLab
Spectrometer: FLMS14357
Trigger mode: 0
Integration Time (sec): 1.000000E-2
Scans to average: 100
Electric dark correction enabled: true
Nonlinearity correction enabled: false
Boxcar width: 0
XAxis mode: Wavelengths
Number of Pixels in Spectrum: 2048
>>>>>Begin Spectral Data<<<<<
189.047	187
189.435	187
189.823	187
190.211	40.12
190.599	-69.63
190.987	86.3
191.375	54.82
191.763	594.06
192.151	160.65
192.538	-114.44
192.926	18.11
193.314	163.78
193.702	5.26
194.089	162.33
194.477	5.28
194.864	115.63
195.252	84.92
195.639	-59.96
196.027	44.39
196.414	106.29
196.801	33.79
197.189	-5.89
197.576	19.77
197.963	-139.2
198.351	52.05
198.738	55.55
199.125	33.15
199.512	76.48
199.899	49.63
200.286	-9.82
200.673	56.35
201.06	67.99
201.447	18.91
201.833	51.73
202.22	50.85
202.607	78.99
202.994	43.55
203.38	72.19
203.767	49.43
204.154	40.18
204.54	46.59
204.927	85.86
205.313	21.41
205.699	87.17
206.086	49.32
206.472	49.15
206.858	39.78
207.245	22.07
207.631	71.53
208.017	36.15
208.403	38.11
208.789	33.03
209.175	22.89
209.561	41.07
209.947	12.24
210.333	20.18
210.719	17.95
211.105	37.71
211.491	69.96
211.876	47.04
212.262	56.6
212.648	41.12
213.034	-1.13
213.419	22.34
213.805	18.65
214.19	14.92
214.576	6.14
214.961	21.58
215.346	34.25
215.732	53.06
216.117	10.19
216.502	49.93
216.888	39.55
217.273	-0.09
217.658	38.16
218.043	43.04
218.428	-2.48
218.813	21.35
219.198	23.34
219.583	25.38
219.968	26.36
220.353	29.15
220.738	59.31
221.122	7.04
221.507	17.92
221.892	21.31
222.276	23.76
222.661	47.11
223.046	14.41
223.43	17.84
223.815	20.7
224.199	29.99
224.583	7.71
224.968	13.25
225.352	8.14
225.736	10.71
226.121	9.1
226.505	-0.68
226.889	14.76
227.273	15.16
227.657	9.58
228.041	12.97
228.425	7.63
228.809	12.83
229.193	9.16
229.577	8.07
229.961	7.1
230.344	6.32
230.728	5.1
231.112	6.48
231.495	5.73
231.879	5.34
232.263	6.53
232.646	5.68
233.03	6.74
233.413	5.83
233.797	6.19
234.18	6.06
234.563	5.78
234.946	10.82
235.33	6.96
235.713	6.63
236.096	7.6
236.479	6.88
236.862	7.11
237.245	6.08
237.628	6.56
238.011	7.39
238.394	6.82
238.777	9.21
239.16	6.34
239.543	7.72
239.925	7.18
240.308	7.42
240.691	6.32
241.073	7.73
241.456	6.59
241.838	4.29
242.221	7.47
242.603	7.03
242.986	5.34
243.368	6.2
243.75	5.7
244.133	5.27
244.515	5.55
244.897	5.5
245.279	5.83
245.661	5.25
246.043	5.79
246.425	5.73
246.807	4.92
247.189	6.07
247.571	4.76
247.953	5.65
248.335	5.57
248.717	5.35
249.098	5.08
249.48	5.08
249.862	5.24
250.243	5.92
250.625	5.33
251.006	5.81
251.388	6.1
251.769	6.29
252.151	4.38
252.532	5.03
252.913	6.55
253.295	4.71
253.676	5.49
254.057	5.7
254.438	5.38
254.819	5.61
255.2	5.74
255.581	5.68
255.962	6.32
256.343	5.65
256.724	5.12
257.105	6.41
257.486	5.55
257.867	7.03
258.247	7.07
258.628	6.4
259.009	5.25
259.389	5.81
259.77	5.55
260.15	5.92
260.531	5.99
260.911	5.8
261.292	5
261.672	5.31
262.052	5.25
262.432	5.23
262.813	5.28
263.193	5.5
263.573	5.24
263.953	5.74
264.333	5.87
264.713	5.79
265.093	6.02
265.473	5.91
265.853	4.88
266.233	6.37
266.612	5.35
266.992	6.14
267.372	5.74
267.752	5.61
268.131	6.31
268.511	5.16
268.89	5.37
269.27	5.23
269.649	4.67
270.029	5.65
270.408	5.37
270.787	5.57
271.167	5.89
271.546	5.09
271.925	6.22
272.304	6.18
272.683	5.74
273.062	5.75
273.441	5.6
273.82	5.42
274.199	5.59
274.578	5.39
274.957	5.59
275.336	5.31
275.715	5.89
276.093	5.25
276.472	5.51
276.851	5.21
277.229	5.15
277.608	5.47
277.986	4.91
278.365	5.37
278.743	5.22
279.122	5.49
279.5	5.21
279.878	4.84
280.257	5.39
280.635	5.37
281.013	5.95
281.391	5.71
281.769	5.14
282.147	5.58
282.525	5.59
282.903	5.84
283.281	5.21
283.659	5.16
284.037	5.65
284.415	4.7
284.792	4.9
285.17	5.29
285.548	5.57
285.925	5.41
286.303	5.36
286.68	4.99
287.058	5.82
287.435	5.37
287.813	4.81
288.19	5.16
288.567	5.69
288.945	5.82
289.322	5.9
289.699	5.22
290.076	5.64
290.453	5.54
290.83	5.27
291.207	5.62
291.584	5.17
291.961	5.51
292.338	5.72
292.715	5.56
293.092	5.88
293.469	5.8
293.845	5.86
294.222	5.8
294.599	5.78
294.975	6.99
295.352	6.05
295.728	6.62
296.105	6.42
296.481	6.27
296.858	6.59
297.234	6.81
297.61	6
297.986	6.18
298.363	6.5
298.739	6.57
299.115	6.25
299.491	6.18
299.867	6.46
300.243	6.81
300.619	6.7
300.995	6.41
301.371	7.11
301.746	7.03
302.122	6.73
302.498	7.06
302.874	6.91
303.249	7.07
303.625	7.25
304	7.69
304.376	6.8
304.751	6.66
305.127	7.28
305.502	7.54
305.878	7.16
306.253	7.25
306.628	7.57
307.003	8.09
307.378	7.91
307.754	7.95
308.129	8.3
308.504	7.84
308.879	7.99
309.254	8.55
309.629	7.74
310.003	7.68
310.378	8.69
310.753	8.05
311.128	8.92
311.502	8.31
311.877	8.5
312.252	8.5
312.626	8.9
313.001	8.8
313.375	8.52
313.75	8.59
314.124	8.35
314.498	8.8
314.873	8.99
315.247	8.91
315.621	8.98
315.995	9.24
316.369	9.22
316.743	9.41
317.117	9.57
317.491	9.17
317.865	10.07
318.239	10.15
318.613	9.88
318.987	9.82
319.361	9.61
319.734	9.55
320.108	8.94
320.482	10.18
320.855	10.57
321.229	10.27
321.602	10.44
321.976	10.09
322.349	10.68
322.723	10.44
323.096	10.64
323.469	10.62
323.843	11.04
324.216	10.81
324.589	11.25
324.962	11.28
325.335	10.8
325.708	11.22
326.081	11.26
326.454	11.59
326.827	11.17
327.2	11.56
327.573	11.36
327.945	11.65
328.318	11.41
328.691	12.15
329.063	12.13
329.436	11.18
329.809	12.1
330.181	11.93
330.553	11.88
330.926	12.2
331.298	12.15
331.671	12.07
332.043	11.92
332.415	12.4
332.787	12.25
333.159	12.32
333.532	12.91
333.904	12.79
334.276	12.4
334.648	12.91
335.02	12.99
335.391	12.93
335.763	13.01
336.135	13.23
336.507	12.73
336.879	13.05
337.25	12.96
337.622	13.46
337.993	13.83
338.365	12.78
338.736	13.58
339.108	13.97
339.479	13.72
339.851	13.68
340.222	13.56
340.593	13.23
340.964	13.45
341.336	14.12
341.707	14.21
342.078	14.15
342.449	13.71
342.82	14.21
343.191	14.05
343.562	14.47
343.933	14.13
344.303	14.47
344.674	14.84
345.045	15.18
345.416	14.9
345.786	14.42
346.157	14.79
346.527	14.69
346.898	14.8
347.268	15.21
347.639	14.99
348.009	14.74
348.38	15.61
348.75	15.48
349.12	14.9
349.49	15.28
349.861	15.77
350.231	15.77
350.601	15.8
350.971	15.83
351.341	15.86
351.711	16.25
352.081	15.83
352.45	15.82
352.82	16.2
353.19	15.94
353.56	16.62
353.929	16.18
354.299	16.15
354.669	16.37
355.038	16.55
355.408	16.67
355.777	16.77
356.147	16.68
356.516	16.61
356.885	16.55
357.254	16.73
357.624	16.97
357.993	16.87
358.362	17.06
358.731	17.08
359.1	16.9
359.469	16.83
359.838	17.19
360.207	17.3
360.576	17.35
360.945	17.15
361.314	17.31
361.682	17.51
362.051	17.36
362.42	17.58
362.788	17.75
363.157	17.99
363.525	17.62
363.894	18
364.262	17.72
364.631	18.13
364.999	17.89
365.367	18.38
365.735	18.11
366.104	18.33
366.472	18.38
366.84	18.44
367.208	18.76
367.576	18.35
367.944	19
368.312	18.74
368.68	19.11
369.048	18.79
369.416	19.49
369.783	19.05
370.151	18.98
370.519	19.47
370.886	19.55
371.254	19.47
371.621	19.68
371.989	19.4
372.356	19.95
372.724	19.87
373.091	19.98
373.458	19.56
373.826	20
374.193	20
374.56	20.11
374.927	20.27
375.294	20.39
375.661	20.15
376.028	20.55
376.395	20.6
376.762	20.61
377.129	20.85
377.496	20.8
377.863	21.05
378.229	21.16
378.596	20.78
378.963	20.98
379.329	21.12
379.696	21.16
380.062	21.1
380.429	21.37
380.795	21.35
381.161	21.46
381.528	21.53
381.894	21.75
382.26	22.18
382.626	22.26
382.993	21.6
383.359	21.81
383.725	22.04
384.091	21.99
384.457	22.2
384.823	22.06
385.188	22.69
385.554	22.61
385.92	22.16
386.286	22.43
386.651	22.43
387.017	22.78
387.383	22.85
387.748	22.84
388.114	22.62
388.479	23.14
388.845	23.3
389.21	22.79
389.575	23.21
389.94	23.09
390.306	23.19
390.671	23.58
391.036	23.4
391.401	23.5
391.766	23.7
392.131	23.55
392.496	23.7
392.861	24.02
393.226	24.04
393.591	24.37
393.956	23.92
394.32	24.28
394.685	24.15
395.05	24.22
395.414	24.75
395.779	24.27
396.143	24.7
396.508	24.64
396.872	24.91
397.236	24.57
397.601	24.72
397.965	24.96
398.329	24.79
398.694	25.28
399.058	25.04
399.422	25.36
399.786	25.07
400.15	25.4
400.514	25.4
400.878	25.57
401.242	25.58
401.605	25.55
401.969	25.47
402.333	25.65
402.697	25.99
403.06	25.82
403.424	25.99
403.787	26.18
404.151	25.95
404.514	26.29
404.878	26.27
405.241	26.51
405.604	26.45
405.968	26.49
406.331	26.52
406.694	26.68
407.057	26.76
407.42	27.19
407.783	26.74
408.146	27.18
408.509	26.9
408.872	27.12
409.235	27.27
409.598	27.6
409.961	27.59
410.323	27.73
410.686	27.54
411.049	27.78
411.411	27.48
411.774	27.83
412.136	27.95
412.499	27.99
412.861	28.11
413.223	28.29
413.586	28
413.948	28.51
414.31	28.57
414.672	28.42
415.035	28.32
415.397	28.6
415.759	28.72
416.121	28.85
416.483	28.76
416.845	29.21
417.206	28.91
417.568	28.97
417.93	28.88
418.292	28.82
418.653	28.88
419.015	28.97
419.377	28.82
419.738	29.04
420.1	29.11
420.461	29.09
420.822	29.21
421.184	29.21
421.545	29.14
421.906	29.21
422.267	29.32
422.629	29.41
422.99	29.24
423.351	29.3
423.712	29.38
424.073	29.37
424.434	29.66
424.795	29.9
425.155	29.87
425.516	29.96
425.877	30.08
426.238	29.99
426.598	29.95
426.959	30.07
427.32	30.36
427.68	30.31
428.041	30.5
428.401	30.84
428.761	30.74
429.122	31
429.482	31.19
429.842	31.19
430.202	31.23
430.563	31.39
430.923	31.67
431.283	31.62
431.643	31.81
432.003	31.64
432.363	31.77
432.722	31.79
433.082	32.07
433.442	31.93
433.802	32.16
434.161	32.14
434.521	32.23
434.881	32.27
435.24	32.15
435.6	32.15
435.959	32.38
436.319	32.49
436.678	32.33
437.037	32.55
437.396	32.68
437.756	33.03
438.115	32.79
438.474	33.22
438.833	33.3
439.192	33.29
439.551	33.26
439.91	33.14
440.269	33.4
440.628	33.27
440.987	33.49
441.345	33.38
441.704	33.18
442.063	33.26
442.421	33.25
442.78	33.33
443.138	33.54
443.497	33.43
443.855	33.65
444.214	33.86
444.572	34.21
444.93	34.3
445.288	34.34
445.647	34.45
446.005	34.15
446.363	34.43
446.721	34.37
447.079	34.34
447.437	34.43
447.795	34.23
448.153	34.07
448.51	34.3
448.868	34.12
449.226	34.27
449.584	34.4
449.941	34.71
450.299	34.7
450.656	34.93
451.014	35.14
451.371	35.21
451.729	35.29
452.086	35.36
452.443	35.58
452.801	35.62
453.158	35.75
453.515	35.88
453.872	35.79
454.229	35.87
454.586	35.96
454.943	35.88
455.3	36.11
455.657	36.07
456.014	36.29
456.371	36.36
456.727	36.42
457.084	36.47
457.441	36.61
457.797	36.6
458.154	36.86
458.51	36.77
458.867	36.83
459.223	36.94
459.58	36.99
459.936	37.05
460.292	37.1
460.648	37.03
461.005	36.88
461.361	37.06
461.717	36.77
462.073	36.87
462.429	36.9
462.785	36.74
463.141	37.14
463.496	37.29
463.852	37.46
464.208	37.88
464.564	37.91
464.919	38.04
465.275	37.86
465.631	38.09
465.986	38.04
466.342	38.29
466.697	38.34
467.052	38.31
467.408	38.36
467.763	38.51
468.118	38.81
468.473	38.42
468.829	38.62
469.184	38.63
469.539	38.7
469.894	38.82
470.249	38.74
470.603	39.16
470.958	39.09
471.313	39.25
471.668	39.32
472.023	39.39
472.377	39.35
472.732	39.31
473.086	39.57
473.441	39.66
473.795	40.06
474.15	39.98
474.504	39.71
474.859	39.87
475.213	39.85
475.567	39.85
475.921	40.03
476.275	40.3
476.63	40.35
476.984	40.38
477.338	40.36
477.692	40.5
478.045	40.39
478.399	40.5
478.753	40.43
479.107	40.36
479.461	40.33
479.814	40.75
480.168	40.81
480.521	40.79
480.875	40.68
481.228	40.79
481.582	40.8
481.935	41.12
482.289	41.23
482.642	40.96
482.995	41.23
483.348	40.96
483.701	40.97
484.055	41.09
484.408	40.79
484.761	40.65
485.114	40.67
485.466	40.26
485.819	40.37
486.172	40.47
486.525	40.34
486.878	40.38
487.23	40.51
487.583	40.62
487.936	40.79
488.288	41
488.641	41.21
488.993	41.07
489.345	41
489.698	40.83
490.05	40.9
490.402	40.98
490.754	41.14
491.107	41.31
491.459	41.64
491.811	41.75
492.163	41.98
492.515	42.25
492.866	42.24
493.218	41.79
493.57	41.66
493.922	41.66
494.274	41.68
494.625	41.87
494.977	42.06
495.328	42.45
495.68	42.65
496.031	43.08
496.383	43.21
496.734	43.32
497.086	43.57
497.437	43.68
497.788	43.46
498.139	43.64
498.49	43.63
498.842	43.33
499.193	43.46
499.544	43.45
499.894	43.49
500.245	43.61
500.596	43.81
500.947	43.85
501.298	43.99
501.648	44.13
501.999	44.29
502.35	44.3
502.7	44.5
503.051	44.5
503.401	44.65
503.752	44.78
504.102	44.71
504.452	44.79
504.803	45
505.153	45.22
505.503	45.1
505.853	44.98
506.203	44.92
506.553	44.81
506.903	44.98
507.253	45.28
507.603	45.09
507.953	45.41
508.303	45.29
508.652	45.57
509.002	45.59
509.352	45.62
509.701	45.64
510.051	45.34
510.4	45.47
510.75	45.42
511.099	45.64
511.449	45.68
511.798	45.54
512.147	45.62
512.496	45.71
512.846	45.9
513.195	46.21
513.544	46.02
513.893	46.02
514.242	46.03
514.591	46.01
514.939	46.13
515.288	46.11
515.637	46.46
515.986	46.55
516.334	46.71
516.683	46.6
517.032	46.78
517.38	46.78
517.729	46.7
518.077	46.8
518.426	46.99
518.774	47.18
519.122	46.93
519.47	47.01
519.819	46.94
520.167	46.83
520.515	46.68
520.863	46.81
521.211	46.76
521.559	46.76
521.907	46.81
522.255	47.06
522.602	47.19
522.95	47.4
523.298	47.6
523.645	47.55
523.993	47.84
524.341	47.84
524.688	47.73
525.036	47.88
525.383	47.96
525.73	47.97
526.078	48.13
526.425	47.99
526.772	47.98
527.119	48.09
527.466	47.87
527.814	47.79
528.161	47.68
528.508	47.71
528.854	47.77
529.201	47.79
529.548	47.92
529.895	47.74
530.242	47.57
530.588	47.53
530.935	47.66
531.282	47.71
531.628	47.62
531.975	47.68
532.321	47.68
532.667	48.05
533.014	48.32
533.36	48.61
533.706	48.59
534.052	48.76
534.399	48.68
534.745	48.49
535.091	48.51
535.437	48.28
535.783	48.39
536.129	48.39
536.474	48.71
536.82	48.88
537.166	48.96
537.512	49.36
537.857	49.56
538.203	49.56
538.549	49.42
538.894	49.33
539.239	49.53
539.585	49.58
539.93	49.73
540.276	49.88
540.621	50.22
540.966	50.19
541.311	50.36
541.656	50.32
542.001	50.33
542.346	50.41
542.691	50.34
543.036	49.75
543.381	49.6
543.726	49.59
544.071	49.52
544.415	49.67
544.76	49.96
545.105	49.88
545.449	50.24
545.794	50.44
546.138	50.39
546.483	50.42
546.827	50.82
547.171	50.85
547.516	51.04
547.86	51.23
548.204	51.19
548.548	51.12
548.892	50.9
549.236	51.19
549.58	51.28
549.924	51.25
550.268	51.43
550.612	51.62
550.956	51.97
551.3	51.96
551.643	52.17
551.987	52.25
552.33	52.21
552.674	52.19
553.017	52.45
553.361	52.46
553.704	52.42
554.048	52.75
554.391	52.42
554.734	52.58
555.077	52.37
555.42	52.3
555.764	52.5
556.107	52.82
556.45	52.79
556.793	52.9
557.135	53.04
557.478	52.8
557.821	53.45
558.164	53.37
558.507	53.49
558.849	53.25
559.192	53.61
559.534	53.31
559.877	53.43
560.219	53.58
560.562	53.61
560.904	53.68
561.246	53.8
561.589	53.72
561.931	53.87
562.273	53.72
562.615	54.08
562.957	54.33
563.299	54.15
563.641	53.97
563.983	54.31
564.325	53.99
564.667	54.29
565.008	54.32
565.35	54.37
565.692	54.44
566.033	54.28
566.375	54.42
566.716	54.59
567.058	54.56
567.399	54.49
567.741	54.32
568.082	54.59
568.423	54.48
568.764	54.08
569.105	54.48
569.447	54.56
569.788	54.77
570.129	54.8
570.47	54.83
570.811	54.87
571.151	55.05
571.492	55.13
571.833	55.18
572.174	55.38
572.514	55.14
572.855	55.08
573.195	55.24
573.536	55.18
573.876	55.31
574.217	54.95
574.557	55.22
574.898	55.25
575.238	55.35
575.578	55.4
575.918	55.68
576.258	55.54
576.598	55.94
576.938	55.99
577.278	55.87
577.618	55.46
577.958	55.91
578.298	55.65
578.638	55.4
578.977	56.21
579.317	56.54
579.657	55.99
579.996	55.94
580.336	56.2
580.675	56.16
581.014	56.54
581.354	56.44
581.693	56.76
582.032	56.91
582.372	56.77
582.711	56.94
583.05	56.87
583.389	57.23
583.728	57
584.067	57.13
584.406	57.38
584.745	56.97
585.083	57.15
585.422	57.18
585.761	57.24
586.1	57.22
586.438	57.03
586.777	57.38
587.115	57.43
587.454	57.58
587.792	57.59
588.13	57.72
588.469	57.54
588.807	57.76
589.145	57.44
589.483	57.94
589.821	57.75
590.159	57.61
590.497	57.87
590.835	57.51
591.173	57.68
591.511	57.83
591.849	57.92
592.187	57.89
592.524	57.93
592.862	58.17
593.2	58.26
593.537	58.08
593.875	58.38
594.212	58.51
594.55	58.56
594.887	58.5
595.224	58.49
595.561	58.44
595.899	58.21
596.236	58.32
596.573	58.4
596.91	58.67
597.247	58.8
597.584	58.77
597.921	58.69
598.258	58.76
598.594	58.83
598.931	58.56
599.268	58.47
599.604	58.27
599.941	58.75
600.277	58.54
600.614	58.59
600.95	58.58
601.287	59.48
601.623	59.32
601.959	59.47
602.296	59.16
602.632	59.35
602.968	59.78
603.304	60.02
603.64	59.88
603.976	59.47
604.312	59.58
604.648	59.4
604.984	59.26
605.319	59.48
605.655	59.2
605.991	59.48
606.326	58.9
606.662	59.63
606.998	59.41
607.333	59.4
607.668	59.37
608.004	59.37
608.339	59.62
608.674	59.95
609.01	60.02
609.345	60.5
609.68	60.38
610.015	60.23
610.35	60.3
610.685	60.57
611.02	60.53
611.355	60.36
611.689	59.93
612.024	60.32
612.359	60
612.694	59.95
613.028	60.29
613.363	60.68
613.697	60.26
614.032	60.49
614.366	60.65
614.7	60.74
615.035	60.98
615.369	61.23
615.703	60.93
616.037	61.06
616.371	61.1
616.705	60.88
617.039	61.21
617.373	60.93
617.707	61.29
618.041	61.46
618.375	61.5
618.709	61.1
619.042	62.4
619.376	61.02
619.71	61.39
620.043	61.83
620.377	61.46
620.71	61.6
621.043	61.55
621.377	61.67
621.71	61.75
622.043	62.19
622.376	61.98
622.709	61.6
623.043	62.02
623.376	62.42
623.709	62.08
624.041	61.76
624.374	61.72
624.707	61.89
625.04	61.94
625.373	62.27
625.705	62.42
626.038	62.27
626.37	62.66
626.703	62.78
627.035	62.16
627.368	62.06
627.7	62.47
628.032	62.48
628.365	62.35
628.697	62.54
629.029	61.77
629.361	62.62
629.693	62.12
630.025	62.58
630.357	62.57
630.689	63.07
631.021	62.38
631.353	63.1
631.684	62.93
632.016	63.27
632.348	62.91
632.679	62.48
633.011	62.86
633.342	63.05
633.674	63.33
634.005	63.45
634.336	63.49
634.668	62.93
634.999	62.79
635.33	63.5
635.661	63.11
635.992	63.58
636.323	62.99
636.654	63.27
636.985	63.55
637.316	63.59
637.647	63.24
637.977	62.66
638.308	63.37
638.639	63.33
638.969	63.63
639.3	63.53
639.63	64.07
639.961	63.59
640.291	63.6
640.622	63.43
640.952	64.21
641.282	63.64
641.612	64
641.943	64.01
642.273	63.9
642.603	64.14
642.933	63.94
643.263	63.48
643.592	63.64
643.922	64.35
644.252	63.58
644.582	64.16
644.911	63.97
645.241	64.81
645.571	64.47
645.9	64.21
646.23	63.97
646.559	64.39
646.888	64.71
647.218	64.39
647.547	64.26
647.876	64.3
648.205	64.38
648.534	64.74
648.863	65.27
649.192	64.75
649.521	64.59
649.85	64.91
650.179	64.55
650.508	65.29
650.837	65.27
651.165	64.66
651.494	64.45
651.822	64.83
652.151	65.12
652.479	64.87
652.808	64.86
653.136	65.07
653.465	64.75
653.793	65.34
654.121	65.04
654.449	65.41
654.777	64.94
655.105	64.85
655.433	66
655.761	65.32
656.089	65.17
656.417	65.35
656.745	65.46
657.073	65.55
657.4	66.65
657.728	65.74
658.056	65.34
658.383	65.72
658.711	65.79
659.038	65.7
659.365	66.07
659.693	66.02
660.02	66.43
660.347	65.57
660.674	65.54
661.001	65.56
661.329	66.25
661.656	66
661.982	65.7
662.309	66.27
662.636	65.42
662.963	66.45
663.29	66.49
663.616	65.82
663.943	66.17
664.27	66.24
664.596	66.13
664.923	65.71
665.249	66.95
665.576	66.78
665.902	67.24
666.228	66.74
666.554	66.82
666.881	66.91
667.207	66.98
667.533	65.89
667.859	66.03
668.185	66.54
668.511	66.89
668.837	66.49
669.162	67
669.488	66.71
669.814	66.19
