Data from 0049_forehead_Reflection__4__210.txt Node

Date: Fri Nov 04 16:33:28 CDT 2022
User: ToomeyLab
Spectrometer: FLMS14357
Trigger mode: 0
Integration Time (sec): 1.000000E-2
Scans to average: 100
Electric dark correction enabled: true
Nonlinearity correction enabled: false
Boxcar width: 0
XAxis mode: Wavelengths
Number of Pixels in Spectrum: 2048
>>>>>Begin Spectral Data<<<<<
189.047	32.63
189.435	32.63
189.823	32.63
190.211	34.46
190.599	109.18
190.987	82.54
191.375	-233.3
191.763	66.08
192.151	-541.08
192.538	-23.29
192.926	99.41
193.314	-106.07
193.702	104.15
194.089	372.37
194.477	-235.71
194.864	-671.04
195.252	460.34
195.639	456.13
196.027	30.4
196.414	77.79
196.801	98.65
197.189	472.86
197.576	64.9
197.963	-106.69
198.351	52.14
198.738	59.04
199.125	32.58
199.512	-14.35
199.899	17.56
200.286	8.34
200.673	-5.57
201.06	9.29
201.447	-7.7
201.833	11.76
202.22	2.95
202.607	28.91
202.994	47.52
203.38	27.67
203.767	16.08
204.154	33.03
204.54	-10.16
204.927	-2.42
205.313	51.81
205.699	19.51
206.086	38.98
206.472	0.6
206.858	28.36
207.245	11.23
207.631	41.52
208.017	1.56
208.403	22.22
208.789	32.82
209.175	20.84
209.561	-53.98
209.947	-23.26
210.333	5.39
210.719	-13.74
211.105	-27.28
211.491	7.53
211.876	20.47
212.262	-4.06
212.648	-9.91
213.034	22.31
213.419	0.3
213.805	-13.81
214.19	-39.44
214.576	0.85
214.961	21.18
215.346	8.65
215.732	-2.62
216.117	-20.37
216.502	40.31
216.888	16.7
217.273	18.18
217.658	2.51
218.043	1.35
218.428	32.3
218.813	-5.14
219.198	14.4
219.583	3.51
219.968	5.69
220.353	-26.35
220.738	-14.89
221.122	29.54
221.507	15.24
221.892	-15.83
222.276	-5.02
222.661	10.46
223.046	5.2
223.43	-11.12
223.815	1.65
224.199	13.11
224.583	-2.78
224.968	3.95
225.352	9.82
225.736	4.29
226.121	-9.89
226.505	9.78
226.889	2.98
227.273	-0.36
227.657	0.67
228.041	4.39
228.425	6.73
228.809	4.53
229.193	4.21
229.577	2
229.961	4.22
230.344	4.52
230.728	3.41
231.112	2.52
231.495	2.45
231.879	4.41
232.263	2.65
232.646	2.62
233.03	2.09
233.413	1.45
233.797	3.08
234.18	2.13
234.563	2.75
234.946	2.51
235.33	3.38
235.713	3.1
236.096	2.42
236.479	2.31
236.862	2.3
237.245	1.75
237.628	2.02
238.011	2.29
238.394	3.86
238.777	3.7
239.16	3.9
239.543	2.04
239.925	3.14
240.308	3.28
240.691	2.88
241.073	3.02
241.456	2.56
241.838	3.04
242.221	3.42
242.603	3.03
242.986	2.03
243.368	3.33
243.75	2.77
244.133	3.49
244.515	3.15
244.897	2.95
245.279	3.35
245.661	3.56
246.043	4.25
246.425	3.42
246.807	4.16
247.189	3.26
247.571	4.08
247.953	3.17
248.335	3.41
248.717	3.21
249.098	3.17
249.48	3.31
249.862	3.71
250.243	3.38
250.625	3.18
251.006	3.1
251.388	3.11
251.769	3.91
252.151	3.98
252.532	3.07
252.913	3.39
253.295	3.92
253.676	3.23
254.057	3.04
254.438	3.38
254.819	3.27
255.2	2.93
255.581	4.27
255.962	3.33
256.343	3.21
256.724	3.78
257.105	2.78
257.486	4.37
257.867	5.69
258.247	3.96
258.628	3.5
259.009	3
259.389	3.09
259.77	3.94
260.15	3.48
260.531	3.27
260.911	3.27
261.292	3.25
261.672	3.37
262.052	3.42
262.432	3.27
262.813	3.08
263.193	2.63
263.573	3.48
263.953	3.14
264.333	3.29
264.713	3.87
265.093	3.29
265.473	3.99
265.853	3.12
266.233	3.93
266.612	3.33
266.992	3.82
267.372	2.59
267.752	2.91
268.131	3.55
268.511	3.38
268.89	4.06
269.27	3.66
269.649	3.62
270.029	3.32
270.408	3.22
270.787	3.42
271.167	3.19
271.546	3.94
271.925	3.57
272.304	3.67
272.683	3.48
273.062	3.09
273.441	3.7
273.82	2.68
274.199	3.39
274.578	3.22
274.957	3.23
275.336	3.13
275.715	3.12
276.093	3.23
276.472	3.51
276.851	2.9
277.229	3.37
277.608	3.19
277.986	3.75
278.365	3.9
278.743	3.64
279.122	3.63
279.5	3.31
279.878	3.34
280.257	3.18
280.635	3.22
281.013	3.64
281.391	3.61
281.769	3.43
282.147	3.08
282.525	3.09
282.903	3.04
283.281	3.54
283.659	3.39
284.037	3.19
284.415	3.14
284.792	3.17
285.17	2.8
285.548	3.73
285.925	3.3
286.303	3.72
286.68	3.48
287.058	3.25
287.435	3.33
287.813	3.13
288.19	3.24
288.567	3.38
288.945	3.38
289.322	3.6
289.699	3.1
290.076	3.81
290.453	3.27
290.83	3.46
291.207	3.17
291.584	3.62
291.961	3.69
292.338	3.69
292.715	3.9
293.092	3.84
293.469	3.61
293.845	3.53
294.222	3.63
294.599	3.61
294.975	3.43
295.352	3.86
295.728	4.1
296.105	4.01
296.481	3.73
296.858	4.28
297.234	4.44
297.61	4.25
297.986	4.06
298.363	3.93
298.739	4.28
299.115	4.13
299.491	3.89
299.867	4.4
300.243	4.23
300.619	4.65
300.995	4.71
301.371	5.01
301.746	4.44
302.122	4.54
302.498	4.54
302.874	4.57
303.249	4.57
303.625	4.52
304	4.51
304.376	4.87
304.751	4.72
305.127	4.1
305.502	5.27
305.878	5.21
306.253	5.14
306.628	4.63
307.003	5.15
307.378	5.21
307.754	5.07
308.129	5.06
308.504	5.24
308.879	5.27
309.254	5.45
309.629	5.87
310.003	5.47
310.378	5.67
310.753	5.81
311.128	5.62
311.502	5.12
311.877	5.96
312.252	5.52
312.626	5.89
313.001	6.11
313.375	5.74
313.75	5.61
314.124	5.96
314.498	6.18
314.873	6.4
315.247	6.44
315.621	5.7
315.995	6.57
316.369	6.21
316.743	6.91
317.117	7.19
317.491	6.7
317.865	6.75
318.239	6.99
318.613	7.11
318.987	6.9
319.361	7.13
319.734	6.81
320.108	6.92
320.482	6.39
320.855	7.2
321.229	6.82
321.602	6.99
321.976	7.58
322.349	7.98
322.723	7.5
323.096	7.48
323.469	7.74
323.843	7.97
324.216	8.16
324.589	7.84
324.962	8.2
325.335	7.95
325.708	7.41
326.081	7.94
326.454	7.75
326.827	8.14
327.2	7.82
327.573	7.61
327.945	8.65
328.318	8.05
328.691	8.35
329.063	8.14
329.436	8.75
329.809	8.22
330.181	8.44
330.553	8.39
330.926	8.46
331.298	8.96
331.671	8.49
332.043	8.57
332.415	8.51
332.787	8.81
333.159	8.67
333.532	9.05
333.904	8.94
334.276	9.38
334.648	9.3
335.02	8.58
335.391	9.19
335.763	9.44
336.135	9.34
336.507	9.1
336.879	9.21
337.25	9.3
337.622	9.79
337.993	9.5
338.365	9.6
338.736	9.94
339.108	9.74
339.479	9.96
339.851	9.67
340.222	9.52
340.593	10.29
340.964	9.98
341.336	9.98
341.707	9.79
342.078	10.23
342.449	10.03
342.82	10.19
343.191	10.37
343.562	10.35
343.933	10.6
344.303	10.58
344.674	10.47
345.045	10.31
345.416	10.18
345.786	10.63
346.157	10.52
346.527	10.73
346.898	10.62
347.268	10.76
347.639	10.57
348.009	11.27
348.38	10.82
348.75	10.58
349.12	10.99
349.49	11.08
349.861	10.67
350.231	11.24
350.601	11.36
350.971	11.07
351.341	11.24
351.711	11.13
352.081	11.12
352.45	11.23
352.82	11.31
353.19	11.43
353.56	11.58
353.929	11.62
354.299	12.02
354.669	11.63
355.038	11.82
355.408	11.66
355.777	11.71
356.147	11.66
356.516	11.6
356.885	11.88
357.254	12.34
357.624	12.12
357.993	12.1
358.362	11.91
358.731	12.11
359.1	12.21
359.469	12.22
359.838	11.99
360.207	12.04
360.576	12.38
360.945	12.65
361.314	12.63
361.682	12.44
362.051	12.87
362.42	12.59
362.788	12.55
363.157	12.35
363.525	12.41
363.894	12.6
364.262	12.57
364.631	12.7
364.999	13.32
365.367	12.59
365.735	12.91
366.104	13
366.472	13.34
366.84	12.77
367.208	13.19
367.576	13.21
367.944	13.39
368.312	13.23
368.68	13.42
369.048	13.22
369.416	13.31
369.783	13.46
370.151	13.49
370.519	13.99
370.886	13.72
371.254	13.89
371.621	13.7
371.989	13.63
372.356	14.06
372.724	13.88
373.091	13.86
373.458	13.95
373.826	13.43
374.193	13.82
374.56	13.74
374.927	14.47
375.294	13.99
375.661	14.33
376.028	14.28
376.395	14.68
376.762	14.53
377.129	14.37
377.496	14.62
377.863	14.73
378.229	14.45
378.596	14.81
378.963	14.61
379.329	14.26
379.696	14.59
380.062	14.94
380.429	14.66
380.795	14.99
381.161	14.89
381.528	14.79
381.894	14.54
382.26	14.99
382.626	15.12
382.993	15.52
383.359	15.31
383.725	15.11
384.091	15.37
384.457	15.59
384.823	15.33
385.188	15.52
385.554	15.13
385.92	15.34
386.286	15.43
386.651	15.38
387.017	15.45
387.383	15.66
387.748	15.54
388.114	15.35
388.479	16.12
388.845	15.77
389.21	16.1
389.575	16.42
389.94	16.26
390.306	16.3
390.671	16.15
391.036	16.01
391.401	16.16
391.766	16.01
392.131	16.27
392.496	16.18
392.861	16.44
393.226	16.06
393.591	16.34
393.956	16.5
394.32	16.28
394.685	16.71
395.05	16.7
395.414	16.67
395.779	16.86
396.143	16.37
396.508	16.63
396.872	16.67
397.236	16.74
397.601	16.66
397.965	16.92
398.329	17.09
398.694	17.09
399.058	17.21
399.422	17.18
399.786	17.06
400.15	17.1
400.514	17.23
400.878	17.06
401.242	17.32
401.605	17.17
401.969	17.58
402.333	17.56
402.697	17.68
403.06	17.64
403.424	17.38
403.787	17.5
404.151	17.79
404.514	17.83
404.878	17.77
405.241	17.78
405.604	17.85
405.968	17.8
406.331	17.75
406.694	17.75
407.057	18.02
407.42	17.89
407.783	17.88
408.146	18.1
408.509	18.08
408.872	18.18
409.235	18.3
409.598	18.39
409.961	18.64
410.323	18.46
410.686	18.55
411.049	18.41
411.411	18.47
411.774	18.45
412.136	18.6
412.499	18.54
412.861	18.59
413.223	18.73
413.586	18.68
413.948	18.75
414.31	18.88
414.672	19.05
415.035	19.1
415.397	19.07
415.759	19.12
416.121	18.76
416.483	18.99
416.845	19.17
417.206	19.04
417.568	19.09
417.93	19.09
418.292	19.07
418.653	19.37
419.015	19.14
419.377	19
419.738	19.11
420.1	19.06
420.461	19.17
420.822	19.12
421.184	19.25
421.545	19.07
421.906	19.09
422.267	19.06
422.629	19.04
422.99	18.97
423.351	18.98
423.712	19.12
424.073	19.19
424.434	19.33
424.795	19.5
425.155	19.55
425.516	19.3
425.877	19.33
426.238	19.35
426.598	19.43
426.959	19.37
427.32	19.63
427.68	19.64
428.041	19.8
428.401	19.87
428.761	20
429.122	20.06
429.482	20.2
429.842	20
430.202	20.51
430.563	20.28
430.923	20.54
431.283	20.45
431.643	20.67
432.003	20.76
432.363	20.69
432.722	20.64
433.082	20.73
433.442	20.65
433.802	20.85
434.161	20.83
434.521	20.73
434.881	20.75
435.24	20.69
435.6	20.89
435.959	20.78
436.319	20.93
436.678	20.99
437.037	21.08
437.396	21.23
437.756	21.17
438.115	21.14
438.474	21.19
438.833	21.44
439.192	21.27
439.551	21.41
439.91	21.54
440.269	21.29
440.628	21.23
440.987	21.36
441.345	21.22
441.704	21.29
442.063	21.26
442.421	21.26
442.78	21.24
443.138	21.41
443.497	21.45
443.855	21.49
444.214	21.7
444.572	21.69
444.93	21.73
445.288	21.82
445.647	21.78
446.005	21.76
446.363	21.83
446.721	21.98
447.079	21.72
447.437	21.59
447.795	21.71
448.153	21.69
448.51	21.74
448.868	21.74
449.226	21.82
449.584	21.92
449.941	21.95
450.299	22.08
450.656	22.12
451.014	22.35
451.371	22.54
451.729	22.64
452.086	22.4
452.443	22.62
452.801	22.71
453.158	22.82
453.515	22.82
453.872	22.85
454.229	22.99
454.586	22.82
454.943	22.81
455.3	22.91
455.657	23.02
456.014	23.04
456.371	23.2
456.727	23.19
457.084	23.33
457.441	23.25
457.797	23.15
458.154	23.31
458.51	23.38
458.867	23.31
459.223	23.46
459.58	23.57
459.936	23.4
460.292	23.39
460.648	23.34
461.005	23.28
461.361	23.18
461.717	23.1
462.073	23.11
462.429	23.32
462.785	23.32
463.141	23.51
463.496	23.65
463.852	23.74
464.208	23.89
464.564	23.77
464.919	24.17
465.275	24.06
465.631	24.23
465.986	24.26
466.342	24.16
466.697	24.1
467.052	24.06
467.408	24.32
467.763	24.29
468.118	24.67
468.473	24.42
468.829	24.41
469.184	24.47
469.539	24.44
469.894	24.61
470.249	24.7
470.603	24.79
470.958	24.51
471.313	24.61
471.668	24.84
472.023	24.6
472.377	24.9
472.732	24.8
473.086	24.99
473.441	25.05
473.795	24.93
474.15	25.25
474.504	25.2
474.859	25.07
475.213	25.11
475.567	25.16
475.921	25.19
476.275	25.3
476.63	25.4
476.984	25.3
477.338	25.65
477.692	25.52
478.045	25.46
478.399	25.49
478.753	25.58
479.107	25.43
479.461	25.62
479.814	25.66
480.168	25.66
480.521	25.47
480.875	25.6
481.228	25.68
481.582	25.76
481.935	25.66
482.289	25.65
482.642	25.96
482.995	25.68
483.348	25.7
483.701	25.47
484.055	25.61
484.408	25.39
484.761	25.32
485.114	25.06
485.466	24.87
485.819	24.77
486.172	24.84
486.525	24.93
486.878	25.18
487.23	25.37
487.583	25.48
487.936	25.62
488.288	25.61
488.641	25.55
488.993	25.4
489.345	25.28
489.698	25.32
490.05	25.4
490.402	25.48
490.754	25.65
491.107	25.95
491.459	26.15
491.811	26.09
492.163	26.35
492.515	26.38
492.866	26.24
493.218	25.92
493.57	25.82
493.922	25.81
494.274	25.96
494.625	26.31
494.977	26.62
495.328	26.75
495.68	26.94
496.031	27.15
496.383	27.24
496.734	27.27
497.086	27.45
497.437	27.44
497.788	27.46
498.139	27.28
498.49	27.2
498.842	27.2
499.193	27.09
499.544	27.28
499.894	27.37
500.245	27.54
500.596	27.47
500.947	27.56
501.298	27.66
501.648	27.82
501.999	28.06
502.35	27.8
502.7	27.68
503.051	28.09
503.401	28.21
503.752	28.27
504.102	28.13
504.452	28.36
504.803	28.3
505.153	28.26
505.503	28.15
505.853	28.22
506.203	28.34
506.553	28.35
506.903	28.37
507.253	28.4
507.603	28.4
507.953	28.61
508.303	28.81
508.652	28.62
509.002	28.66
509.352	28.76
509.701	28.63
510.051	28.5
510.4	28.48
510.75	28.52
511.099	28.52
511.449	28.57
511.798	28.51
512.147	28.68
512.496	28.78
512.846	28.7
513.195	28.77
513.544	28.84
513.893	28.75
514.242	28.77
514.591	28.78
514.939	28.91
515.288	29.07
515.637	29.23
515.986	29.36
516.334	29.25
516.683	29.28
517.032	29.4
517.38	29.4
517.729	29.51
518.077	29.48
518.426	29.59
518.774	29.59
519.122	29.43
519.47	29.32
519.819	29.3
520.167	29.08
520.515	29.01
520.863	29.13
521.211	29.24
521.559	29.26
521.907	29.48
522.255	29.73
522.602	29.82
522.95	29.74
523.298	29.99
523.645	30.06
523.993	30.06
524.341	30.11
524.688	30.16
525.036	30.21
525.383	30.2
525.73	30.24
526.078	30.15
526.425	30.4
526.772	30.01
527.119	29.87
527.466	29.71
527.814	29.63
528.161	29.64
528.508	29.83
528.854	29.89
529.201	29.91
529.548	29.83
529.895	29.61
530.242	29.3
530.588	29.36
530.935	29.44
531.282	29.72
531.628	29.72
531.975	29.84
532.321	30.03
532.667	30.29
533.014	30.39
533.36	30.48
533.706	30.55
534.052	30.53
534.399	30.44
534.745	30.23
535.091	30.18
535.437	30.15
535.783	30.27
536.129	30.48
536.474	30.56
536.82	30.72
537.166	30.86
537.512	30.99
537.857	30.92
538.203	30.9
538.549	30.63
538.894	30.91
539.239	31.01
539.585	31.03
539.93	31.16
540.276	31.32
540.621	31.39
540.966	31.61
541.311	31.6
541.656	31.72
542.001	31.51
542.346	31.28
542.691	31.24
543.036	30.85
543.381	30.86
543.726	30.92
544.071	31.04
544.415	31.22
544.76	31.32
545.105	31.23
545.449	31.4
545.794	31.57
546.138	31.66
546.483	31.9
546.827	31.99
547.171	31.98
547.516	32.11
547.86	32.03
548.204	31.96
548.548	31.9
548.892	31.93
549.236	32.06
549.58	32.24
549.924	32.34
550.268	32.52
550.612	32.77
550.956	32.87
551.3	32.93
551.643	33.16
551.987	32.96
552.33	33.21
552.674	33.3
553.017	33.22
553.361	33.21
553.704	33.09
554.048	33.22
554.391	33.02
554.734	33.35
555.077	33
555.42	33.19
555.764	33.41
556.107	33.44
556.45	33.51
556.793	33.55
557.135	33.35
557.478	33.57
557.821	33.56
558.164	33.65
558.507	33.6
558.849	33.88
559.192	33.82
559.534	33.88
559.877	33.83
560.219	34.05
560.562	34.16
560.904	34.37
561.246	33.94
561.589	34.01
561.931	34
562.273	34.11
562.615	33.93
562.957	33.94
563.299	34.18
563.641	34.14
563.983	34.11
564.325	34.4
564.667	34.21
565.008	34.42
565.35	34.49
565.692	34.69
566.033	34.71
566.375	34.34
566.716	34.26
567.058	34.45
567.399	34.41
567.741	34.23
568.082	34.52
568.423	34.24
568.764	34.43
569.105	34.59
569.447	34.7
569.788	34.61
570.129	34.7
570.47	34.67
570.811	34.74
571.151	34.72
571.492	34.9
571.833	34.91
572.174	34.95
572.514	34.9
572.855	34.78
573.195	34.95
573.536	34.75
573.876	34.81
574.217	34.53
574.557	34.84
574.898	35.04
575.238	34.95
575.578	34.95
575.918	35.26
576.258	35.24
576.598	34.94
576.938	35.1
577.278	35.05
577.618	35.01
577.958	35.02
578.298	35.52
578.638	35.57
578.977	35.57
579.317	35.45
579.657	35.38
579.996	35.64
580.336	35.78
580.675	35.78
581.014	36.11
581.354	35.79
581.693	36.06
582.032	36.17
582.372	35.99
582.711	35.84
583.05	36.3
583.389	35.84
583.728	35.98
584.067	36.17
584.406	35.94
584.745	36.24
585.083	36.09
585.422	36.15
585.761	36.49
586.1	36.66
586.438	36.24
586.777	36.7
587.115	36.51
587.454	36.78
587.792	36.63
588.13	36.57
588.469	36.6
588.807	36.8
589.145	36.84
589.483	36.62
589.821	36.73
590.159	36.52
590.497	36.79
590.835	36.63
591.173	36.34
591.511	36.57
591.849	36.94
592.187	36.81
592.524	36.82
592.862	36.72
593.2	36.94
593.537	36.86
593.875	37.18
594.212	37.23
594.55	36.74
594.887	37.34
595.224	37.28
595.561	36.99
595.899	37.2
596.236	37.33
596.573	37.22
596.91	37.01
597.247	37.26
597.584	37.08
597.921	37.53
598.258	37.19
598.594	36.64
598.931	37.08
599.268	36.79
599.604	37.07
599.941	37.09
600.277	37.39
600.614	37.31
600.95	37.47
601.287	37.5
601.623	37.55
601.959	37.72
602.296	37.69
602.632	37.84
602.968	37.61
603.304	37.57
603.64	37.75
603.976	37.62
604.312	37.67
604.648	37.87
604.984	37.81
605.319	37.65
605.655	37.61
605.991	37.51
606.326	37.36
606.662	37.29
606.998	37.62
607.333	37.65
607.668	37.99
608.004	37.78
608.339	37.93
608.674	38.1
609.01	38.18
609.345	38.23
609.68	38.32
610.015	38.34
610.35	37.98
610.685	38.27
611.02	38.16
611.355	38.19
611.689	38.23
612.024	38.1
612.359	38.2
612.694	38.11
613.028	38.61
613.363	38.81
613.697	38.58
614.032	38.7
614.366	38.77
614.7	38.65
615.035	39.07
615.369	38.67
615.703	39.47
616.037	38.81
616.371	38.86
616.705	39.19
617.039	39
617.373	39.45
617.707	38.97
618.041	39.04
618.375	39.18
618.709	39.12
619.042	39.2
619.376	39.04
619.71	39.26
620.043	39.35
620.377	39.08
620.71	39.28
621.043	39.15
621.377	39.41
621.71	39.38
622.043	39.51
622.376	39.63
622.709	39.32
623.043	39.57
623.376	39.62
623.709	39.53
624.041	39.89
624.374	39.4
624.707	39.53
625.04	39.54
625.373	39.93
625.705	39.63
626.038	39.63
626.37	40.08
626.703	40.42
627.035	39.97
627.368	39.69
627.7	39.34
628.032	39.74
628.365	40.28
628.697	39.6
629.029	39.56
629.361	39.61
629.693	39.76
630.025	39.7
630.357	39.87
630.689	39.69
631.021	40.09
631.353	40.04
631.684	40.19
632.016	40.18
632.348	39.99
632.679	40.45
633.011	40.05
633.342	40.23
633.674	39.8
634.005	40.58
634.336	40.67
634.668	40.19
634.999	40.24
635.33	40.2
635.661	40.25
635.992	40.32
636.323	40.08
636.654	40.37
636.985	40.22
637.316	40.42
637.647	40.18
637.977	40.73
638.308	41.07
638.639	40.4
638.969	40.19
639.3	40.55
639.63	40.37
639.961	40.94
640.291	40.99
640.622	40.93
640.952	40.58
641.282	40.96
641.612	40.99
641.943	40.58
642.273	40.53
642.603	41.09
642.933	41.08
643.263	40.76
643.592	40.68
643.922	41.3
644.252	41.36
644.582	40.88
644.911	41.19
645.241	41.26
645.571	41.11
645.9	40.93
646.23	41.56
646.559	41.39
646.888	41.2
647.218	41.3
647.547	41.07
647.876	40.92
648.205	40.95
648.534	41.43
648.863	41.65
649.192	41.95
649.521	41.43
649.85	41.61
650.179	41.64
650.508	41.59
650.837	41.73
651.165	41.32
651.494	41.69
651.822	41.69
652.151	41.48
652.479	41.27
652.808	41.23
653.136	41.54
653.465	41.29
653.793	41.88
654.121	41.92
654.449	41.04
654.777	41.28
655.105	41.28
655.433	41.91
655.761	41.48
656.089	41.89
656.417	42.19
656.745	41.34
657.073	41.98
657.4	41.72
657.728	41.95
658.056	42.2
658.383	41.82
658.711	42.22
659.038	41.99
659.365	42.48
659.693	41.43
660.02	41.98
660.347	41.88
660.674	41.66
661.001	41.79
661.329	42.19
661.656	41.9
661.982	41.63
662.309	41.82
662.636	42.58
662.963	41.71
663.29	42.08
663.616	41.81
663.943	42.73
664.27	42.77
664.596	41.87
664.923	42.44
665.249	42.73
665.576	42.24
665.902	42.35
666.228	42.28
666.554	42.89
666.881	42.24
667.207	42.75
667.533	42.4
667.859	41.88
668.185	42.33
668.511	42.5
668.837	42.87
669.162	42.71
669.488	41.86
669.814	42.65
670.139	42.9
670.465	42.92
670.791	42.99
