Data from 0049_crown_Reflection__3__204.txt Node

Date: Fri Nov 04 16:31:30 CDT 2022
User: ToomeyLab
Spectrometer: FLMS14357
Trigger mode: 0
Integration Time (sec): 1.000000E-2
Scans to average: 100
Electric dark correction enabled: true
Nonlinearity correction enabled: false
Boxcar width: 0
XAxis mode: Wavelengths
Number of Pixels in Spectrum: 2048
>>>>>Begin Spectral Data<<<<<
189.047	-167.51
189.435	-167.51
189.823	-167.51
190.211	-97.28
190.599	-97.79
190.987	154.68
191.375	-29.91
191.763	6.07
192.151	299.68
192.538	110.98
192.926	-123.1
193.314	-164.43
193.702	146.06
194.089	261.46
194.477	540.41
194.864	-168.77
195.252	238.05
195.639	1063.03
196.027	-2.15
196.414	86.83
196.801	84.15
197.189	1086.73
197.576	133.14
197.963	-155.35
198.351	-6.72
198.738	22.13
199.125	36.49
199.512	-33.15
199.899	2.11
200.286	-28.26
200.673	-55.01
201.06	-24.69
201.447	-33.48
201.833	15.85
202.22	-32.89
202.607	-15.68
202.994	27.47
203.38	3.22
203.767	-40.08
204.154	37.78
204.54	-8.53
204.927	3.35
205.313	23.83
205.699	-0.37
206.086	-14.06
206.472	-2.98
206.858	20.55
207.245	-6.89
207.631	-27.37
208.017	-3.16
208.403	7.58
208.789	11.65
209.175	-9.52
209.561	-59.57
209.947	-34.12
210.333	12.85
210.719	-5.68
211.105	-49.51
211.491	-0.07
211.876	2.63
212.262	-22.21
212.648	-13.43
213.034	20.99
213.419	-15.97
213.805	-31.48
214.19	-64.23
214.576	-10.06
214.961	27.21
215.346	-4.92
215.732	18.31
216.117	-28.64
216.502	20.74
216.888	-25.25
217.273	14.3
217.658	-22.92
218.043	-21.21
218.428	-10.49
218.813	-4.19
219.198	-1.87
219.583	-69.6
219.968	5.39
220.353	5.8
220.738	-14.07
221.122	-15.79
221.507	15.24
221.892	-24.62
222.276	-3.47
222.661	13.11
223.046	-3.1
223.43	-12.94
223.815	-3.17
224.199	7.71
224.583	-2.09
224.968	-10.5
225.352	-1.88
225.736	-11.19
226.121	-2.75
226.505	-3.43
226.889	0.21
227.273	1.05
227.657	1.55
228.041	7.67
228.425	6.13
228.809	6.3
229.193	4.14
229.577	2.15
229.961	6.99
230.344	6.4
230.728	6.12
231.112	5.13
231.495	5.17
231.879	6.35
232.263	4.27
232.646	5.07
233.03	4.04
233.413	3.14
233.797	3.87
234.18	4.35
234.563	4.31
234.946	3.26
235.33	6.24
235.713	4.4
236.096	6.17
236.479	5.14
236.862	5.31
237.245	4.69
237.628	5.75
238.011	2.77
238.394	6.5
238.777	5.23
239.16	6.51
239.543	3.9
239.925	5.25
240.308	5.75
240.691	6.1
241.073	3.75
241.456	4.91
241.838	3.87
242.221	4.88
242.603	5.34
242.986	5.51
243.368	6.1
243.75	5.05
244.133	5.67
244.515	5.48
244.897	5.47
245.279	5.27
245.661	5.78
246.043	5.08
246.425	5.43
246.807	6.21
247.189	4.94
247.571	5.95
247.953	5.65
248.335	5.5
248.717	5.54
249.098	5.48
249.48	5.56
249.862	5.4
250.243	5.48
250.625	5.23
251.006	5.56
251.388	5.66
251.769	5.84
252.151	5.28
252.532	5.51
252.913	5
253.295	5.26
253.676	5.34
254.057	5.36
254.438	5.2
254.819	5.42
255.2	4.44
255.581	5.71
255.962	4.91
256.343	4.61
256.724	4.56
257.105	4.01
257.486	4.89
257.867	6.87
258.247	4.87
258.628	4.33
259.009	4.11
259.389	5.58
259.77	5.07
260.15	4.77
260.531	5.02
260.911	5
261.292	4.63
261.672	4.98
262.052	5.01
262.432	5.02
262.813	4.68
263.193	4.86
263.573	5.29
263.953	5.28
264.333	5.65
264.713	5.48
265.093	4.93
265.473	5.05
265.853	4.39
266.233	5.43
266.612	5.34
266.992	4.9
267.372	4.12
267.752	4.48
268.131	5.42
268.511	5.24
268.89	5.14
269.27	5.06
269.649	4.79
270.029	4.94
270.408	4.68
270.787	4.94
271.167	4.61
271.546	5.35
271.925	4.78
272.304	4.36
272.683	4.76
273.062	4.76
273.441	4.71
273.82	4.58
274.199	4.93
274.578	4.56
274.957	4.8
275.336	4.2
275.715	4.34
276.093	4.93
276.472	4.4
276.851	4.4
277.229	4.62
277.608	4.73
277.986	4.95
278.365	4.77
278.743	4.67
279.122	4.92
279.5	4.27
279.878	4.98
280.257	4.29
280.635	3.95
281.013	4.54
281.391	4.66
281.769	4.79
282.147	4.6
282.525	4.39
282.903	4.52
283.281	4.83
283.659	4.4
284.037	4.13
284.415	4.49
284.792	4.55
285.17	4.38
285.548	4.76
285.925	4.51
286.303	4.76
286.68	4.8
287.058	4.35
287.435	4.52
287.813	4.63
288.19	4.65
288.567	4.44
288.945	4.34
289.322	4.52
289.699	4.49
290.076	4.53
290.453	4.35
290.83	4.3
291.207	4.34
291.584	4.65
291.961	4.6
292.338	4.7
292.715	4.57
293.092	4.53
293.469	4.35
293.845	4.55
294.222	4.39
294.599	4.36
294.975	3.75
295.352	4.09
295.728	4.55
296.105	4.66
296.481	4.17
296.858	4.5
297.234	5.08
297.61	4.77
297.986	4.3
298.363	4.45
298.739	4.58
299.115	4.64
299.491	4.53
299.867	4.47
300.243	4.44
300.619	5.06
300.995	4.66
301.371	4.52
301.746	4.49
302.122	4.81
302.498	4.39
302.874	4.75
303.249	4.21
303.625	4.38
304	4.31
304.376	4.83
304.751	4.44
305.127	4.25
305.502	4.42
305.878	4.7
306.253	4.75
306.628	4.33
307.003	4.44
307.378	4.6
307.754	4.69
308.129	4.29
308.504	4.36
308.879	4.68
309.254	4.72
309.629	4.86
310.003	4.84
310.378	4.64
310.753	4.86
311.128	4.39
311.502	4.22
311.877	4.25
312.252	4.59
312.626	4.5
313.001	4.42
313.375	4.49
313.75	4.37
314.124	4.54
314.498	4.45
314.873	4.54
315.247	4.24
315.621	4.43
315.995	4.64
316.369	4.6
316.743	4.86
317.117	4.57
317.491	4.89
317.865	4.47
318.239	4.9
318.613	5.15
318.987	4.29
319.361	4.45
319.734	4.28
320.108	4.4
320.482	3.59
320.855	4.57
321.229	4.26
321.602	4.09
321.976	4.83
322.349	4.82
322.723	4.23
323.096	4.03
323.469	3.97
323.843	4.45
324.216	4.65
324.589	4.65
324.962	4.27
325.335	4.75
325.708	3.86
326.081	4.62
326.454	4.49
326.827	4.65
327.2	4.27
327.573	4.15
327.945	4.03
328.318	4.18
328.691	4.33
329.063	4.36
329.436	4.39
329.809	4.41
330.181	4.39
330.553	4.19
330.926	4.65
331.298	4.69
331.671	4.41
332.043	4.64
332.415	4.1
332.787	4.29
333.159	4.24
333.532	4.03
333.904	4.15
334.276	4.39
334.648	4.44
335.02	3.99
335.391	4.66
335.763	4.74
336.135	4.36
336.507	4.37
336.879	4.76
337.25	4.72
337.622	4.7
337.993	4.37
338.365	4.18
338.736	4.45
339.108	4.76
339.479	4.66
339.851	4.67
340.222	4.28
340.593	4.47
340.964	4.57
341.336	4.54
341.707	4.19
342.078	4.59
342.449	4.54
342.82	4.35
343.191	4.48
343.562	4.26
343.933	4.4
344.303	4.51
344.674	4.86
345.045	4.1
345.416	4.43
345.786	4.47
346.157	4.56
346.527	4.74
346.898	4.63
347.268	4.21
347.639	4.27
348.009	4.65
348.38	4.46
348.75	4.43
349.12	4.2
349.49	4.54
349.861	4.23
350.231	4.7
350.601	4.43
350.971	3.99
351.341	4.41
351.711	4.13
352.081	4.68
352.45	4.35
352.82	4.56
353.19	4.44
353.56	4.69
353.929	4.38
354.299	4.55
354.669	4.81
355.038	5.1
355.408	4.42
355.777	4.66
356.147	4.22
356.516	4.25
356.885	4.48
357.254	4.63
357.624	4.64
357.993	4.56
358.362	4.37
358.731	4.5
359.1	4.52
359.469	4.47
359.838	4.45
360.207	4.33
360.576	4.73
360.945	4.95
361.314	4.68
361.682	4.63
362.051	4.4
362.42	4.64
362.788	4.45
363.157	4.54
363.525	4.59
363.894	4.53
364.262	4.6
364.631	4.76
364.999	4.88
365.367	4.47
365.735	4.67
366.104	4.64
366.472	4.7
366.84	4.4
367.208	4.7
367.576	4.5
367.944	4.82
368.312	4.82
368.68	4.54
369.048	4.39
369.416	4.33
369.783	4.42
370.151	4.6
370.519	4.89
370.886	4.85
371.254	4.68
371.621	4.67
371.989	4.45
372.356	4.78
372.724	4.67
373.091	4.68
373.458	4.56
373.826	4.96
374.193	4.52
374.56	4.47
374.927	4.96
375.294	4.76
375.661	4.73
376.028	4.58
376.395	4.72
376.762	4.86
377.129	4.74
377.496	4.98
377.863	4.79
378.229	4.56
378.596	4.41
378.963	4.72
379.329	4.56
379.696	4.75
380.062	4.87
380.429	4.62
380.795	4.69
381.161	4.72
381.528	5.02
381.894	4.37
382.26	4.8
382.626	4.69
382.993	5.02
383.359	4.68
383.725	4.92
384.091	4.73
384.457	4.61
384.823	4.63
385.188	4.91
385.554	4.79
385.92	4.72
386.286	4.64
386.651	4.66
387.017	4.91
387.383	4.91
387.748	4.54
388.114	4.67
388.479	5.26
388.845	4.99
389.21	4.96
389.575	5.05
389.94	4.97
390.306	4.81
390.671	5.09
391.036	4.74
391.401	5
391.766	4.77
392.131	4.73
392.496	4.69
392.861	4.77
393.226	4.62
393.591	4.87
393.956	4.92
394.32	4.7
394.685	4.92
395.05	5.05
395.414	5.02
395.779	4.95
396.143	4.73
396.508	5.08
396.872	4.98
397.236	4.71
397.601	4.76
397.965	4.73
398.329	4.82
398.694	5.16
399.058	5.07
399.422	5.21
399.786	4.76
400.15	4.95
400.514	4.95
400.878	5
401.242	5.15
401.605	4.89
401.969	5.05
402.333	4.83
402.697	4.94
403.06	5.15
403.424	4.94
403.787	4.95
404.151	5.16
404.514	5.11
404.878	5.14
405.241	5.24
405.604	5.23
405.968	4.96
406.331	4.85
406.694	4.94
407.057	4.94
407.42	5.03
407.783	4.89
408.146	5
408.509	5.2
408.872	4.98
409.235	5.03
409.598	5.04
409.961	5.23
410.323	4.96
410.686	5.12
411.049	4.96
411.411	4.86
411.774	5.05
412.136	5.37
412.499	5.23
412.861	4.8
413.223	5.01
413.586	5.1
413.948	5.23
414.31	5.13
414.672	5.17
415.035	5.09
415.397	5.19
415.759	5.33
416.121	5.07
416.483	5.11
416.845	5.09
417.206	4.95
417.568	5.06
417.93	5.08
418.292	5.02
418.653	5.12
419.015	5.05
419.377	4.99
419.738	5.06
420.1	5.05
420.461	5.13
420.822	5.06
421.184	5.13
421.545	5.06
421.906	5
422.267	5.13
422.629	5.06
422.99	4.92
423.351	4.98
423.712	5
424.073	5.14
424.434	5.03
424.795	5.1
425.155	5.15
425.516	5.18
425.877	4.98
426.238	5.11
426.598	5.16
426.959	5.05
427.32	5.08
427.68	4.94
428.041	5.17
428.401	5.2
428.761	5.22
429.122	5.16
429.482	5.16
429.842	5.06
430.202	5.39
430.563	5.3
430.923	5.32
431.283	5.29
431.643	5.33
432.003	5.46
432.363	5.26
432.722	5.29
433.082	5.35
433.442	5.26
433.802	5.24
434.161	5.09
434.521	5.11
434.881	5.42
435.24	5.06
435.6	5.22
435.959	5.18
436.319	5.28
436.678	5.17
437.037	5.4
437.396	5.32
437.756	5.28
438.115	5.28
438.474	5.21
438.833	5.32
439.192	5.29
439.551	5.38
439.91	5.41
440.269	5.32
440.628	5.36
440.987	5.36
441.345	5.29
441.704	5.3
442.063	5.3
442.421	5.25
442.78	5.45
443.138	5.3
443.497	5.37
443.855	5.15
444.214	5.51
444.572	5.25
444.93	5.35
445.288	5.36
445.647	5.31
446.005	5.39
446.363	5.33
446.721	5.33
447.079	5.34
447.437	5.26
447.795	5.31
448.153	5.27
448.51	5.33
448.868	5.26
449.226	5.27
449.584	5.36
449.941	5.31
450.299	5.32
450.656	5.33
451.014	5.51
451.371	5.64
451.729	5.59
452.086	5.38
452.443	5.38
452.801	5.53
453.158	5.57
453.515	5.52
453.872	5.42
454.229	5.59
454.586	5.58
454.943	5.49
455.3	5.56
455.657	5.42
456.014	5.49
456.371	5.48
456.727	5.6
457.084	5.67
457.441	5.54
457.797	5.5
458.154	5.57
458.51	5.61
458.867	5.56
459.223	5.61
459.58	5.69
459.936	5.44
460.292	5.4
460.648	5.52
461.005	5.47
461.361	5.62
461.717	5.53
462.073	5.54
462.429	5.62
462.785	5.46
463.141	5.62
463.496	5.59
463.852	5.74
464.208	5.6
464.564	5.54
464.919	5.76
465.275	5.83
465.631	5.68
465.986	5.6
466.342	5.5
466.697	5.75
467.052	5.55
467.408	5.6
467.763	5.57
468.118	5.85
468.473	5.57
468.829	5.51
469.184	5.6
469.539	5.52
469.894	5.68
470.249	5.7
470.603	5.69
470.958	5.66
471.313	5.65
471.668	5.52
472.023	5.66
472.377	5.76
472.732	5.72
473.086	5.6
473.441	5.83
473.795	5.66
474.15	5.76
474.504	5.7
474.859	5.65
475.213	5.72
475.567	5.74
475.921	5.63
476.275	5.75
476.63	5.68
476.984	5.71
477.338	5.9
477.692	5.79
478.045	5.82
478.399	5.71
478.753	5.96
479.107	5.78
479.461	5.91
479.814	5.9
480.168	5.85
480.521	5.76
480.875	5.81
481.228	5.85
481.582	5.94
481.935	5.89
482.289	5.81
482.642	5.83
482.995	5.84
483.348	5.84
483.701	5.75
484.055	5.7
484.408	5.76
484.761	5.74
485.114	5.63
485.466	5.6
485.819	5.59
486.172	5.62
486.525	5.59
486.878	5.63
487.23	5.63
487.583	5.62
487.936	5.74
488.288	5.77
488.641	5.81
488.993	5.7
489.345	5.71
489.698	5.73
490.05	5.75
490.402	5.69
490.754	5.71
491.107	5.8
491.459	5.79
491.811	5.74
492.163	5.89
492.515	5.89
492.866	5.85
493.218	5.81
493.57	5.81
493.922	5.85
494.274	5.81
494.625	5.83
494.977	5.94
495.328	5.98
495.68	5.87
496.031	5.92
496.383	5.95
496.734	5.94
497.086	6.15
497.437	6.09
497.788	6.22
498.139	6
498.49	6.01
498.842	6.18
499.193	6.04
499.544	6.1
499.894	5.97
500.245	6.11
500.596	6.04
500.947	6.05
501.298	6.07
501.648	6.11
501.999	6.2
502.35	6.06
502.7	6.03
503.051	6.15
503.401	6.13
503.752	6.25
504.102	6.24
504.452	6.19
504.803	6.21
505.153	6.15
505.503	6.2
505.853	6.13
506.203	6.23
506.553	6.27
506.903	6.15
507.253	6.24
507.603	6.18
507.953	6.15
508.303	6.26
508.652	6.29
509.002	6.29
509.352	6.25
509.701	6.2
510.051	6.27
510.4	6.24
510.75	6.25
511.099	6.19
511.449	6.12
511.798	6.23
512.147	6.25
512.496	6.21
512.846	6.18
513.195	6.29
513.544	6.26
513.893	6.39
514.242	6.24
514.591	6.22
514.939	6.27
515.288	6.25
515.637	6.29
515.986	6.37
516.334	6.33
516.683	6.24
517.032	6.34
517.38	6.37
517.729	6.33
518.077	6.35
518.426	6.34
518.774	6.45
519.122	6.24
519.47	6.37
519.819	6.36
520.167	6.38
520.515	6.3
520.863	6.32
521.211	6.27
521.559	6.33
521.907	6.35
522.255	6.43
522.602	6.33
522.95	6.33
523.298	6.5
523.645	6.44
523.993	6.47
524.341	6.47
524.688	6.55
525.036	6.41
525.383	6.44
525.73	6.47
526.078	6.52
526.425	6.46
526.772	6.39
527.119	6.44
527.466	6.44
527.814	6.43
528.161	6.41
528.508	6.39
528.854	6.41
529.201	6.36
529.548	6.37
529.895	6.32
530.242	6.24
530.588	6.29
530.935	6.34
531.282	6.29
531.628	6.21
531.975	6.28
532.321	6.4
532.667	6.38
533.014	6.41
533.36	6.46
533.706	6.49
534.052	6.52
534.399	6.53
534.745	6.52
535.091	6.4
535.437	6.47
535.783	6.48
536.129	6.57
536.474	6.47
536.82	6.47
537.166	6.5
537.512	6.63
537.857	6.58
538.203	6.56
538.549	6.6
538.894	6.66
539.239	6.64
539.585	6.57
539.93	6.62
540.276	6.64
540.621	6.52
540.966	6.74
541.311	6.65
541.656	6.63
542.001	6.81
542.346	6.64
542.691	6.6
543.036	6.53
543.381	6.58
543.726	6.58
544.071	6.52
544.415	6.55
544.76	6.56
545.105	6.62
545.449	6.6
545.794	6.66
546.138	6.61
546.483	6.72
546.827	6.66
547.171	6.68
547.516	6.75
547.86	6.7
548.204	6.84
548.548	6.71
548.892	6.82
549.236	6.84
549.58	6.8
549.924	6.82
550.268	6.84
550.612	6.85
550.956	6.94
551.3	7
551.643	6.83
551.987	6.69
552.33	6.94
552.674	6.97
553.017	7
553.361	7.17
553.704	6.93
554.048	6.98
554.391	6.87
554.734	7.03
555.077	7.06
555.42	6.93
555.764	7.04
556.107	6.96
556.45	6.93
556.793	6.94
557.135	6.97
557.478	7.03
557.821	7.08
558.164	7.03
558.507	6.92
558.849	7.14
559.192	7.06
559.534	7
559.877	6.95
560.219	7.13
560.562	7.28
560.904	7.13
561.246	6.93
561.589	7
561.931	6.94
562.273	7.05
562.615	7.04
562.957	7.24
563.299	7.02
563.641	7
563.983	7.24
564.325	7.08
564.667	7.08
565.008	7.13
565.35	7.18
565.692	7.26
566.033	7.31
566.375	7.1
566.716	7.16
567.058	7.26
567.399	7.21
567.741	7.29
568.082	7.17
568.423	7.11
568.764	7.13
569.105	7.41
569.447	7.18
569.788	7.11
570.129	7.11
570.47	7.38
570.811	7.33
571.151	7.23
571.492	7.29
571.833	7.2
572.174	7.42
572.514	7.23
572.855	7.12
573.195	7.32
573.536	7.29
573.876	7.22
574.217	7.17
574.557	7.27
574.898	7.22
575.238	7.2
575.578	7.32
575.918	7.24
576.258	7.33
576.598	7.29
576.938	7.33
577.278	7.24
577.618	7.18
577.958	7.26
578.298	7.35
578.638	7.25
578.977	7.45
579.317	7.25
579.657	7.48
579.996	7.35
580.336	7.26
580.675	7.29
581.014	7.6
581.354	7.26
581.693	7.51
582.032	7.45
582.372	7.55
582.711	7.36
583.05	7.61
583.389	7.47
583.728	7.52
584.067	7.54
584.406	7.21
584.745	7.63
585.083	7.55
585.422	7.57
585.761	7.43
586.1	7.47
586.438	7.31
586.777	7.52
587.115	7.47
587.454	7.59
587.792	7.91
588.13	7.53
588.469	7.59
588.807	7.81
589.145	7.51
589.483	7.43
589.821	7.74
590.159	7.51
590.497	7.66
590.835	7.52
591.173	7.48
591.511	7.61
591.849	7.94
592.187	7.44
592.524	7.64
592.862	7.57
593.2	7.79
593.537	7.68
593.875	7.48
594.212	7.64
594.55	7.71
594.887	7.76
595.224	7.83
595.561	7.5
595.899	7.78
596.236	7.84
596.573	7.83
596.91	7.77
597.247	7.71
597.584	7.56
597.921	7.96
598.258	7.78
598.594	7.32
598.931	7.86
599.268	7.82
599.604	7.64
599.941	7.79
600.277	7.76
600.614	7.83
600.95	7.9
601.287	7.75
601.623	7.73
601.959	8.07
602.296	7.82
602.632	8
602.968	7.71
603.304	7.99
603.64	8.18
603.976	7.71
604.312	7.94
604.648	7.84
604.984	7.87
605.319	7.91
605.655	7.89
605.991	7.97
606.326	7.98
606.662	7.88
606.998	7.84
607.333	7.78
607.668	7.93
608.004	7.86
608.339	7.7
608.674	8.15
609.01	7.89
609.345	8.13
609.68	7.82
610.015	7.8
610.35	7.95
610.685	8
611.02	7.87
611.355	7.93
611.689	8.07
612.024	7.92
612.359	7.93
612.694	7.91
613.028	8.07
613.363	8.27
613.697	7.76
614.032	7.8
614.366	8.02
614.7	7.9
615.035	8.29
615.369	7.98
615.703	8.31
616.037	8.12
616.371	8.22
616.705	8.18
617.039	8.21
617.373	8.3
617.707	8.25
618.041	8.43
618.375	8.29
618.709	8.25
619.042	8.41
619.376	8.45
619.71	8.23
620.043	8.58
620.377	8.36
620.71	8.16
621.043	8.08
621.377	8.34
621.71	8.37
622.043	8.47
622.376	8.32
622.709	8.48
623.043	8.04
623.376	8.33
623.709	8.12
624.041	8.34
624.374	8.35
624.707	7.99
625.04	8.23
625.373	8.38
625.705	7.97
626.038	8.03
626.37	8.64
626.703	8.42
627.035	8.39
627.368	8.34
627.7	8.01
628.032	8.36
628.365	8.78
628.697	8.38
629.029	8.43
629.361	8.26
629.693	8.44
630.025	8.55
630.357	8.4
630.689	8.26
631.021	8.12
631.353	8.23
631.684	8.42
632.016	8.54
632.348	8.22
632.679	8.29
633.011	8.55
633.342	8.52
633.674	8.26
634.005	8.37
634.336	8.58
634.668	8.45
634.999	8.81
635.33	8.38
635.661	8.74
635.992	8.5
636.323	8.41
636.654	8.2
636.985	8.67
637.316	8.75
637.647	8.28
637.977	8.73
638.308	9.05
638.639	8.7
638.969	8.3
639.3	8.8
639.63	8.27
639.961	8.67
640.291	8.74
640.622	8.67
640.952	8.85
641.282	8.74
641.612	8.98
641.943	8.24
642.273	8.35
642.603	8.88
642.933	8.6
643.263	8.59
643.592	8.67
643.922	9.54
644.252	9.07
644.582	8.8
644.911	8.99
645.241	8.58
645.571	8.91
645.9	8.96
646.23	8.74
646.559	9.15
646.888	8.95
647.218	8.56
647.547	8.52
647.876	9.06
648.205	8.54
648.534	8.9
648.863	9.1
649.192	9.09
649.521	8.78
649.85	9.28
650.179	8.74
650.508	8.87
650.837	9.13
651.165	8.96
651.494	9.13
651.822	9.05
652.151	9.14
652.479	8.73
652.808	8.53
653.136	8.83
653.465	9.03
653.793	9.01
654.121	9.04
654.449	8.71
654.777	8.87
655.105	9.06
655.433	9.18
655.761	8.74
656.089	8.81
656.417	8.9
656.745	9
657.073	9.22
657.4	8.7
657.728	9.18
658.056	8.97
658.383	9.32
658.711	8.84
659.038	9.36
659.365	9.56
659.693	9.68
660.02	9.16
660.347	9.15
660.674	9.25
661.001	8.79
661.329	9.43
661.656	9.62
661.982	9.08
662.309	8.95
662.636	9.36
662.963	8.8
663.29	8.74
663.616	9.49
663.943	9.33
664.27	9.63
664.596	9.42
664.923	9.52
665.249	9.32
665.576	9.66
665.902	9.3
666.228	9.09
666.554	9.54
666.881	8.61
667.207	9.62
667.533	9.54
667.859	9.3
668.185	9.11
668.511	9.52
668.837	9.18
669.162	9.7
669.488	8.9
669.814	9.52
670.139	9.66
670.465	9.33
670.791	9.08
671.116	9.66
671.442	9.19
671.767	10.07
672.092	9.68
672.418	9.45
672.743	9.77
673.068	9.58
673.393	10
673.718	9.85
674.043	8.49
674.368	8.89
674.693	9.86
675.018	9.37
675.343	9.66
675.667	9.4
675.992	9.75
676.317	9.61
676.641	9.43
676.966	9.01
677.29	9.72
677.615	9.5
677.939	9.81
678.264	9.75
678.588	10.5
678.912	10.36
679.236	10.14
679.56	9.77
679.885	9.67
680.209	9.89
680.532	9.97
680.856	9.77
681.18	9.56
681.504	9.86
681.828	9.58
682.152	10.26
682.475	9.85
682.799	10.51
683.122	10.18
683.446	9.94
683.769	9.4
684.093	9.81
684.416	9.59
684.739	10.08
685.062	10.37
685.386	9.93
685.709	10.58
686.032	9.98
686.355	10.55
686.678	10.08
687.001	10.46
687.324	9.87
687.646	10.22
687.969	9.75
688.292	10.29
688.614	10.53
688.937	10.62
689.26	9.77
689.582	10.77
689.904	10.6
690.227	9.57
690.549	10.22
690.871	10.14
691.194	9.89
691.516	9.69
691.838	9.71
