Data from 0049_crown_Reflection__2__203.txt Node

Date: Fri Nov 04 16:31:18 CDT 2022
User: ToomeyLab
Spectrometer: FLMS14357
Trigger mode: 0
Integration Time (sec): 1.000000E-2
Scans to average: 100
Electric dark correction enabled: true
Nonlinearity correction enabled: false
Boxcar width: 0
XAxis mode: Wavelengths
Number of Pixels in Spectrum: 2048
>>>>>Begin Spectral Data<<<<<
189.047	-55.1
189.435	-55.1
189.823	-55.1
190.211	10.38
190.599	48.99
190.987	205.05
191.375	-157.44
191.763	28.06
192.151	-545.54
192.538	-153.22
192.926	74.61
193.314	-65.38
193.702	146.85
194.089	319.32
194.477	-208.21
194.864	64.56
195.252	480.86
195.639	508.62
196.027	88.05
196.414	25.93
196.801	51.89
197.189	208.78
197.576	233.95
197.963	150
198.351	-55.47
198.738	12.79
199.125	-13.23
199.512	-24.51
199.899	6.78
200.286	-34.1
200.673	34.26
201.06	-2.81
201.447	16.34
201.833	-3.87
202.22	25.89
202.607	8.62
202.994	38.38
203.38	53.81
203.767	-21.27
204.154	16.13
204.54	-33.8
204.927	-25.98
205.313	31.6
205.699	36.5
206.086	8.17
206.472	-8.08
206.858	-4.68
207.245	-5.5
207.631	4.39
208.017	11.54
208.403	30.69
208.789	27.31
209.175	21.91
209.561	-31.63
209.947	-29.17
210.333	7.56
210.719	14.02
211.105	-18.04
211.491	28.32
211.876	6.14
212.262	2.53
212.648	-13.45
213.034	19.73
213.419	-10.51
213.805	13.23
214.19	-56.46
214.576	9.5
214.961	17.02
215.346	17.03
215.732	9.48
216.117	-3.6
216.502	28.7
216.888	-8.89
217.273	-7.63
217.658	-18.4
218.043	-10.01
218.428	15.41
218.813	-5.15
219.198	14.17
219.583	15
219.968	6.19
220.353	-7.51
220.738	-27.24
221.122	19.42
221.507	10.37
221.892	-5.48
222.276	-14.75
222.661	13.65
223.046	12.43
223.43	12.78
223.815	-9.46
224.199	12.46
224.583	9.69
224.968	6.66
225.352	9.36
225.736	-1.91
226.121	-3.36
226.505	11.54
226.889	8.18
227.273	8.64
227.657	2.37
228.041	2.54
228.425	10.64
228.809	5.17
229.193	9.88
229.577	6.73
229.961	9.7
230.344	6.93
230.728	7.62
231.112	6.95
231.495	7.08
231.879	7.55
232.263	5.4
232.646	5.82
233.03	6.02
233.413	4.86
233.797	7.86
234.18	5.84
234.563	6.89
234.946	6.45
235.33	9.4
235.713	6.63
236.096	7.34
236.479	6.21
236.862	6.16
237.245	5.73
237.628	7.18
238.011	5.23
238.394	7.96
238.777	7.35
239.16	8.55
239.543	5.31
239.925	8.04
240.308	7.71
240.691	6.49
241.073	5.8
241.456	6.67
241.838	6.51
242.221	5.76
242.603	6.16
242.986	6.3
243.368	6.63
243.75	7.11
244.133	7.07
244.515	6.99
244.897	6.41
245.279	6.82
245.661	7.87
246.043	7.39
246.425	7.07
246.807	6.56
247.189	6.68
247.571	7.16
247.953	6.47
248.335	6.58
248.717	6.58
249.098	6.44
249.48	6.49
249.862	6.88
250.243	6.57
250.625	6.38
251.006	6.89
251.388	6.95
251.769	7.55
252.151	5.97
252.532	5.76
252.913	6.92
253.295	6.46
253.676	6
254.057	6.5
254.438	6.38
254.819	6.37
255.2	6.06
255.581	6.04
255.962	6.91
256.343	6.02
256.724	6.46
257.105	5.56
257.486	7.43
257.867	7.75
258.247	6.96
258.628	5.77
259.009	6.15
259.389	6.87
259.77	6.2
260.15	6.17
260.531	6.4
260.911	6.14
261.292	6.38
261.672	6.16
262.052	6.1
262.432	6.19
262.813	5.97
263.193	5.52
263.573	6.39
263.953	5.83
264.333	6.2
264.713	6.29
265.093	6.07
265.473	6.12
265.853	5.06
266.233	6.02
266.612	6.36
266.992	6.75
267.372	5.05
267.752	5.79
268.131	5.96
268.511	5.75
268.89	6.01
269.27	5.92
269.649	5.33
270.029	5.93
270.408	5.74
270.787	5.74
271.167	5.56
271.546	6.39
271.925	5.64
272.304	5.38
272.683	5.71
273.062	5.95
273.441	5.82
273.82	5.24
274.199	5.9
274.578	5.19
274.957	5.53
275.336	5.32
275.715	5.61
276.093	6.16
276.472	5.02
276.851	5.41
277.229	5.65
277.608	5.44
277.986	5.74
278.365	5.81
278.743	5.56
279.122	5.5
279.5	5.57
279.878	5.25
280.257	5.26
280.635	5.06
281.013	5.98
281.391	5.37
281.769	5.63
282.147	5.31
282.525	5.06
282.903	5.28
283.281	5.5
283.659	5.37
284.037	5.02
284.415	5.02
284.792	5.58
285.17	4.93
285.548	5.68
285.925	5.51
286.303	5.41
286.68	5.58
287.058	5.06
287.435	5.29
287.813	4.98
288.19	5.4
288.567	5.11
288.945	5.59
289.322	5.37
289.699	5.01
290.076	5.42
290.453	4.58
290.83	4.98
291.207	5.08
291.584	5.59
291.961	5.11
292.338	5.24
292.715	5.24
293.092	5.5
293.469	5.02
293.845	5.28
294.222	5.32
294.599	5.2
294.975	5.12
295.352	4.76
295.728	5.46
296.105	5.16
296.481	5
296.858	4.87
297.234	5.56
297.61	5.25
297.986	5.02
298.363	4.86
298.739	4.87
299.115	4.88
299.491	4.88
299.867	5.01
300.243	4.95
300.619	5.43
300.995	5.11
301.371	5.36
301.746	5.09
302.122	4.98
302.498	4.79
302.874	4.91
303.249	4.89
303.625	4.87
304	4.77
304.376	4.68
304.751	4.76
305.127	4.51
305.502	4.86
305.878	5
306.253	5.16
306.628	4.74
307.003	4.99
307.378	4.83
307.754	4.82
308.129	4.49
308.504	4.63
308.879	4.78
309.254	4.73
309.629	4.79
310.003	4.87
310.378	4.77
310.753	4.99
311.128	4.65
311.502	4.59
311.877	4.63
312.252	4.66
312.626	4.38
313.001	4.68
313.375	4.69
313.75	4.51
314.124	4.81
314.498	4.88
314.873	5
315.247	4.95
315.621	4.85
315.995	5.22
316.369	4.65
316.743	5.23
317.117	4.77
317.491	4.88
317.865	4.48
318.239	4.51
318.613	4.62
318.987	4.66
319.361	4.87
319.734	5.1
320.108	4.91
320.482	4.19
320.855	4.71
321.229	4.54
321.602	4.54
321.976	4.3
322.349	5.26
322.723	4.47
323.096	4.8
323.469	4.47
323.843	4.45
324.216	4.72
324.589	4.77
324.962	5.38
325.335	4.62
325.708	4.2
326.081	4.67
326.454	4.29
326.827	4.57
327.2	4.22
327.573	4.49
327.945	4.64
328.318	4.47
328.691	4.68
329.063	4.44
329.436	5.25
329.809	4.36
330.181	4.51
330.553	4.22
330.926	4.85
331.298	4.84
331.671	4.35
332.043	4.75
332.415	4.41
332.787	4.67
333.159	4.38
333.532	4.14
333.904	4.7
334.276	4.75
334.648	4.56
335.02	4.35
335.391	4.94
335.763	4.86
336.135	4.92
336.507	4.94
336.879	4.96
337.25	4.89
337.622	4.5
337.993	5.02
338.365	5.02
338.736	5.02
339.108	5.15
339.479	4.63
339.851	4.66
340.222	4.23
340.593	4.83
340.964	4.59
341.336	4.41
341.707	4.48
342.078	4.58
342.449	4.6
342.82	4.77
343.191	4.82
343.562	4.54
343.933	4.96
344.303	4.79
344.674	4.95
345.045	4.36
345.416	4.21
345.786	4.63
346.157	4.91
346.527	4.95
346.898	4.84
347.268	4.26
347.639	4.57
348.009	5
348.38	4.47
348.75	4.61
349.12	4.85
349.49	5.16
349.861	4.41
350.231	5.26
350.601	4.71
350.971	4.76
351.341	4.7
351.711	4.62
352.081	4.66
352.45	4.82
352.82	5.13
353.19	4.97
353.56	5
353.929	4.72
354.299	4.93
354.669	5.27
355.038	5.27
355.408	4.48
355.777	4.94
356.147	4.81
356.516	4.68
356.885	4.53
357.254	5.09
357.624	5.01
357.993	4.93
358.362	4.98
358.731	4.88
359.1	4.8
359.469	4.96
359.838	4.95
360.207	4.84
360.576	4.86
360.945	5
361.314	5.08
361.682	4.86
362.051	4.93
362.42	4.93
362.788	4.92
363.157	4.79
363.525	4.98
363.894	4.93
364.262	5.09
364.631	5.04
364.999	4.76
365.367	4.89
365.735	5.32
366.104	5.06
366.472	5.2
366.84	4.79
367.208	5.09
367.576	4.81
367.944	4.89
368.312	5.3
368.68	4.83
369.048	4.98
369.416	5.12
369.783	4.96
370.151	4.71
370.519	5.41
370.886	4.91
371.254	5.33
371.621	4.71
371.989	5.08
372.356	5.1
372.724	5.06
373.091	5.3
373.458	5.11
373.826	5.03
374.193	4.9
374.56	4.99
374.927	5.18
375.294	5.21
375.661	5.22
376.028	5.13
376.395	5.37
376.762	5.24
377.129	5.26
377.496	5.48
377.863	4.98
378.229	5.2
378.596	5.09
378.963	5.3
379.329	5.03
379.696	5.13
380.062	5.34
380.429	5.29
380.795	5.37
381.161	5.28
381.528	5.32
381.894	5.05
382.26	5.16
382.626	5.08
382.993	5.42
383.359	5.48
383.725	5.08
384.091	5.12
384.457	5.25
384.823	5.14
385.188	5.37
385.554	5.23
385.92	5.17
386.286	5.14
386.651	5.29
387.017	5.06
387.383	5.27
387.748	5.2
388.114	5.13
388.479	5.78
388.845	5.46
389.21	5.5
389.575	5.54
389.94	5.64
390.306	5.27
390.671	5.46
391.036	5.23
391.401	5.62
391.766	5.16
392.131	5.12
392.496	5.2
392.861	5.54
393.226	5.35
393.591	5.38
393.956	5.63
394.32	5.28
394.685	5.32
395.05	5.53
395.414	5.2
395.779	5.26
396.143	5.28
396.508	5.47
396.872	5.59
397.236	5.46
397.601	5.21
397.965	5.2
398.329	5.36
398.694	5.46
399.058	5.34
399.422	5.36
399.786	5.43
400.15	5.57
400.514	5.52
400.878	5.34
401.242	5.55
401.605	5.34
401.969	5.76
402.333	5.57
402.697	5.58
403.06	5.6
403.424	5.45
403.787	5.35
404.151	5.61
404.514	5.62
404.878	5.37
405.241	5.59
405.604	5.64
405.968	5.46
406.331	5.43
406.694	5.27
407.057	5.63
407.42	5.55
407.783	5.41
408.146	5.49
408.509	5.51
408.872	5.64
409.235	5.65
409.598	5.55
409.961	5.58
410.323	5.62
410.686	5.48
411.049	5.38
411.411	5.46
411.774	5.49
412.136	5.69
412.499	5.76
412.861	5.64
413.223	5.45
413.586	5.57
413.948	5.86
414.31	5.61
414.672	5.58
415.035	5.74
415.397	5.62
415.759	5.86
416.121	5.5
416.483	5.6
416.845	5.53
417.206	5.6
417.568	5.74
417.93	5.51
418.292	5.73
418.653	5.77
419.015	5.67
419.377	5.49
419.738	5.67
420.1	5.64
420.461	5.5
420.822	5.56
421.184	5.66
421.545	5.5
421.906	5.66
422.267	5.54
422.629	5.56
422.99	5.44
423.351	5.44
423.712	5.5
424.073	5.61
424.434	5.6
424.795	5.67
425.155	5.63
425.516	5.63
425.877	5.5
426.238	5.63
426.598	5.58
426.959	5.55
427.32	5.52
427.68	5.6
428.041	5.62
428.401	5.75
428.761	5.74
429.122	5.77
429.482	5.74
429.842	5.52
430.202	5.66
430.563	5.77
430.923	5.81
431.283	5.6
431.643	5.88
432.003	5.94
432.363	5.88
432.722	5.71
433.082	5.98
433.442	5.93
433.802	5.75
434.161	5.8
434.521	5.68
434.881	5.87
435.24	5.68
435.6	5.7
435.959	5.74
436.319	5.76
436.678	5.81
437.037	5.83
437.396	5.97
437.756	5.84
438.115	5.8
438.474	5.81
438.833	6.01
439.192	5.86
439.551	5.85
439.91	5.81
440.269	5.75
440.628	5.86
440.987	5.75
441.345	5.74
441.704	5.82
442.063	5.75
442.421	5.87
442.78	5.71
443.138	5.76
443.497	5.68
443.855	5.67
444.214	5.88
444.572	5.71
444.93	5.81
445.288	5.85
445.647	5.78
446.005	5.78
446.363	5.69
446.721	5.79
447.079	5.84
447.437	5.72
447.795	5.69
448.153	5.66
448.51	5.76
448.868	5.69
449.226	5.61
449.584	5.84
449.941	5.77
450.299	5.82
450.656	5.78
451.014	5.95
451.371	5.88
451.729	5.92
452.086	5.87
452.443	5.95
452.801	6.05
453.158	5.89
453.515	5.95
453.872	5.78
454.229	6.04
454.586	5.88
454.943	5.9
455.3	5.82
455.657	5.84
456.014	5.88
456.371	5.81
456.727	5.93
457.084	6
457.441	5.93
457.797	5.85
458.154	6.07
458.51	6.02
458.867	5.87
459.223	5.85
459.58	6.09
459.936	5.77
460.292	5.83
460.648	5.91
461.005	5.74
461.361	5.88
461.717	5.85
462.073	5.86
462.429	5.94
462.785	5.82
463.141	5.88
463.496	5.86
463.852	5.96
464.208	5.97
464.564	5.87
464.919	6.15
465.275	5.95
465.631	5.94
465.986	5.93
466.342	5.97
466.697	6.05
467.052	5.93
467.408	5.96
467.763	6.14
468.118	6.08
468.473	6.04
468.829	5.97
469.184	5.87
469.539	5.97
469.894	5.96
470.249	5.95
470.603	5.97
470.958	5.93
471.313	5.99
471.668	5.85
472.023	5.94
472.377	6.09
472.732	6.11
473.086	5.87
473.441	6
473.795	5.93
474.15	6.09
474.504	6.03
474.859	5.98
475.213	6.01
475.567	5.89
475.921	5.88
476.275	6.04
476.63	6.03
476.984	5.83
477.338	6.08
477.692	6.12
478.045	6.07
478.399	6.01
478.753	5.94
479.107	5.92
479.461	6.1
479.814	6.17
480.168	5.95
480.521	5.85
480.875	5.91
481.228	6.1
481.582	6
481.935	6.12
482.289	5.95
482.642	6.02
482.995	6.01
483.348	5.98
483.701	5.92
484.055	5.97
484.408	5.96
484.761	5.94
485.114	5.79
485.466	5.77
485.819	5.71
486.172	5.69
486.525	5.69
486.878	5.76
487.23	5.78
487.583	5.78
487.936	5.87
488.288	5.87
488.641	5.77
488.993	5.81
489.345	5.81
489.698	5.79
490.05	5.79
490.402	5.79
490.754	5.8
491.107	5.86
491.459	5.93
491.811	5.93
492.163	5.99
492.515	6.08
492.866	5.92
493.218	5.8
493.57	5.8
493.922	5.92
494.274	5.81
494.625	5.9
494.977	5.98
495.328	6.03
495.68	6.03
496.031	5.93
496.383	6.13
496.734	5.91
497.086	6.19
497.437	6.26
497.788	6.24
498.139	6.06
498.49	5.98
498.842	6.15
499.193	6.02
499.544	6.1
499.894	6.07
500.245	6.13
500.596	6
500.947	6.07
501.298	6.06
501.648	6.08
501.999	6.21
502.35	6.13
502.7	6.09
503.051	6.06
503.401	6.1
503.752	6.25
504.102	6.07
504.452	6.16
504.803	6.19
505.153	6.02
505.503	6.25
505.853	6.21
506.203	6.08
506.553	6.3
506.903	6.08
507.253	6.17
507.603	6.08
507.953	6.16
508.303	6.22
508.652	6.14
509.002	6.26
509.352	6.15
509.701	6.06
510.051	6.18
510.4	6.02
510.75	6.13
511.099	6.06
511.449	6.04
511.798	6
512.147	5.98
512.496	6.07
512.846	5.97
513.195	6.17
513.544	6.01
513.893	6.18
514.242	6.01
514.591	6.08
514.939	6.17
515.288	6.13
515.637	6.16
515.986	6.08
516.334	6.15
516.683	6.18
517.032	6.09
517.38	6.16
517.729	6.19
518.077	6.25
518.426	6.19
518.774	6.19
519.122	6.2
519.47	6.13
519.819	6.12
520.167	6.15
520.515	6.1
520.863	6
521.211	5.98
521.559	6.09
521.907	6.08
522.255	6.19
522.602	6.21
522.95	6.11
523.298	6.16
523.645	6.19
523.993	6.14
524.341	6.26
524.688	6.19
525.036	6.07
525.383	6.2
525.73	6.28
526.078	6.22
526.425	6.24
526.772	6.13
527.119	6.14
527.466	6.13
527.814	6.04
528.161	6.07
528.508	6.11
528.854	6.04
529.201	6.03
529.548	6.02
529.895	5.98
530.242	5.92
530.588	5.91
530.935	5.89
531.282	5.95
531.628	5.91
531.975	5.95
532.321	6.02
532.667	6.05
533.014	6.06
533.36	6.13
533.706	6.18
534.052	6.12
534.399	6.18
534.745	6.11
535.091	5.99
535.437	6.01
535.783	6.03
536.129	6.1
536.474	6.05
536.82	6.12
537.166	6.14
537.512	6.22
537.857	6.06
538.203	6.16
538.549	6.14
538.894	6.18
539.239	6.19
539.585	6.09
539.93	6.06
540.276	6.29
540.621	6.25
540.966	6.23
541.311	6.09
541.656	6.24
542.001	6.29
542.346	6.22
542.691	6.1
543.036	6
543.381	6.06
543.726	6.01
544.071	6.06
544.415	6.03
544.76	6.1
545.105	6.04
545.449	6.12
545.794	6.17
546.138	6.19
546.483	6.17
546.827	6.17
547.171	6.24
547.516	6.18
547.86	6.17
548.204	6.24
548.548	6.16
548.892	6.16
549.236	6.28
549.58	6.24
549.924	6.25
550.268	6.27
550.612	6.25
550.956	6.22
551.3	6.31
551.643	6.31
551.987	6.25
552.33	6.34
552.674	6.27
553.017	6.43
553.361	6.52
553.704	6.24
554.048	6.11
554.391	6.19
554.734	6.33
555.077	6.34
555.42	6.31
555.764	6.41
556.107	6.39
556.45	6.31
556.793	6.3
557.135	6.25
557.478	6.27
557.821	6.31
558.164	6.3
558.507	6.39
558.849	6.42
559.192	6.33
559.534	6.19
559.877	6.35
560.219	6.28
560.562	6.57
560.904	6.4
561.246	6.37
561.589	6.46
561.931	6.35
562.273	6.45
562.615	6.27
562.957	6.35
563.299	6.43
563.641	6.38
563.983	6.32
564.325	6.17
564.667	6.21
565.008	6.3
565.35	6.39
565.692	6.57
566.033	6.59
566.375	6.34
566.716	6.37
567.058	6.37
567.399	6.38
567.741	6.38
568.082	6.41
568.423	6.28
568.764	6.28
569.105	6.29
569.447	6.37
569.788	6.22
570.129	6.57
570.47	6.43
570.811	6.47
571.151	6.49
571.492	6.66
571.833	6.17
572.174	6.53
572.514	6.31
572.855	6.24
573.195	6.45
573.536	6.25
573.876	6.42
574.217	6.25
574.557	6.18
574.898	6.35
575.238	6.29
575.578	6.52
575.918	6.28
576.258	6.23
576.598	6.39
576.938	6.42
577.278	6.31
577.618	6.2
577.958	6.28
578.298	6.34
578.638	6.25
578.977	6.39
579.317	6.33
579.657	6.33
579.996	6.43
580.336	6.29
580.675	6.24
581.014	6.37
581.354	6.48
581.693	6.61
582.032	6.2
582.372	6.49
582.711	6.19
583.05	6.57
583.389	6.34
583.728	6.51
584.067	6.35
584.406	6.28
584.745	6.51
585.083	6.32
585.422	6.55
585.761	6.48
586.1	6.27
586.438	6.24
586.777	6.5
587.115	6.26
587.454	6.5
587.792	6.64
588.13	6.51
588.469	6.5
588.807	6.63
589.145	6.34
589.483	6.23
589.821	6.31
590.159	6.22
590.497	6.4
590.835	6.39
591.173	6.2
591.511	6.46
591.849	6.65
592.187	6.37
592.524	6.37
592.862	6.47
593.2	6.27
593.537	6.4
593.875	6.41
594.212	6.39
594.55	6.43
594.887	6.49
595.224	6.39
595.561	6.2
595.899	6.35
596.236	6.65
596.573	6.34
596.91	6.33
597.247	6.43
597.584	6.25
597.921	6.59
598.258	6.33
598.594	6.09
598.931	6.29
599.268	6.32
599.604	6.3
599.941	6.3
600.277	6.34
600.614	6.43
600.95	6.44
601.287	6.29
601.623	6.44
601.959	6.41
602.296	6.42
602.632	6.5
602.968	6.42
603.304	6.25
603.64	6.58
603.976	6.16
604.312	6.53
604.648	6.3
604.984	6.31
605.319	6.3
605.655	6.52
605.991	6.48
606.326	6.25
606.662	6.34
606.998	6.26
607.333	6.12
607.668	6.53
608.004	6.33
608.339	6.28
608.674	6.46
609.01	6.65
609.345	6.47
609.68	6.45
610.015	6.37
610.35	6.38
610.685	6.73
611.02	6.52
611.355	6.32
611.689	6.48
612.024	6.51
612.359	6.29
612.694	6.35
613.028	6.58
613.363	6.77
613.697	6.24
614.032	6.35
614.366	6.71
614.7	6.54
615.035	6.53
615.369	6.47
615.703	6.48
616.037	6.55
616.371	6.28
616.705	6.43
617.039	6.81
617.373	6.59
617.707	6.71
618.041	6.53
618.375	6.24
618.709	6.57
619.042	6.61
619.376	6.7
619.71	6.43
620.043	6.88
620.377	6.64
620.71	6.58
621.043	6.3
621.377	6.33
621.71	6.73
622.043	6.58
622.376	6.64
622.709	6.71
623.043	6.42
623.376	6.77
623.709	6.21
624.041	6.67
624.374	6.35
624.707	6.31
625.04	6.6
625.373	6.93
625.705	6.27
626.038	6.51
626.37	6.54
626.703	6.65
627.035	6.63
627.368	6.17
627.7	6.26
628.032	6.47
628.365	6.68
628.697	6.55
629.029	6.37
629.361	6.4
629.693	6.74
630.025	6.52
630.357	6.43
630.689	6.38
631.021	6.41
631.353	6.75
631.684	6.38
632.016	6.48
632.348	6.46
632.679	6.34
633.011	6.39
633.342	6.46
633.674	6.39
634.005	6.67
634.336	6.62
634.668	6.66
634.999	6.5
635.33	6.28
635.661	6.69
635.992	6.69
636.323	6.25
636.654	6.52
636.985	6.61
637.316	6.46
637.647	6.16
637.977	6.95
638.308	6.93
638.639	6.8
638.969	6.17
639.3	6.64
639.63	6.58
639.961	6.98
640.291	6.89
640.622	6.55
640.952	6.74
641.282	6.38
641.612	6.92
641.943	6.17
642.273	6.71
642.603	6.74
642.933	6.8
643.263	6.35
643.592	6.26
643.922	6.82
644.252	6.5
644.582	6.42
644.911	6.91
645.241	6.34
645.571	6.66
645.9	6.82
646.23	6.77
646.559	7.13
646.888	6.45
647.218	6.57
647.547	6.56
647.876	6.49
648.205	6.39
648.534	6.77
648.863	6.69
649.192	6.85
649.521	6.55
649.85	7.12
650.179	6.36
650.508	6.75
650.837	6.77
651.165	6.36
651.494	6.5
651.822	6.93
652.151	6.67
652.479	6.16
652.808	6.35
653.136	6.86
653.465	6.76
653.793	6.86
654.121	6.58
654.449	6.17
654.777	6.09
655.105	6.59
655.433	6.75
655.761	6.43
656.089	6.48
656.417	6.92
656.745	6.88
657.073	6.88
657.4	6.85
657.728	6.52
658.056	6.26
658.383	6.81
658.711	6.56
659.038	7.13
659.365	7.07
659.693	7.09
660.02	7.15
660.347	6.51
660.674	6.67
661.001	6.85
661.329	6.72
661.656	6.72
661.982	6.42
662.309	6.9
662.636	6.69
662.963	6.53
663.29	6.44
663.616	7.15
663.943	7.05
664.27	6.83
664.596	6.56
664.923	6.56
665.249	6.83
665.576	6.83
665.902	6.39
666.228	6.15
666.554	7.62
666.881	6.59
667.207	7.18
667.533	6.95
667.859	6.87
668.185	7.05
668.511	7.1
668.837	6.69
669.162	7.42
669.488	6.6
669.814	6.56
670.139	6.71
670.465	6.79
670.791	6.48
671.116	6.59
671.442	7.04
671.767	6.43
672.092	6.91
672.418	7.21
672.743	6.87
673.068	6.8
673.393	6.97
673.718	7.03
674.043	7
674.368	6.72
674.693	7
675.018	7
675.343	6.97
675.667	7.1
675.992	6.96
676.317	7.47
676.641	6.83
676.966	6.71
677.29	6.83
677.615	6.72
677.939	7.12
678.264	7.49
678.588	6.98
678.912	7.31
679.236	7.06
679.56	7.16
679.885	7.12
680.209	7.17
680.532	6.98
680.856	6.97
681.18	6.83
681.504	6.93
681.828	6.55
682.152	7.2
682.475	6.97
682.799	7.51
683.122	7.08
683.446	7.04
683.769	6.99
684.093	6.85
684.416	6.33
684.739	7.46
685.062	7.08
685.386	6.77
685.709	7.18
686.032	7.15
686.355	8.13
686.678	7.37
687.001	7.7
687.324	7.34
687.646	7.71
687.969	7.06
688.292	7.16
688.614	7.45
688.937	7.24
689.26	6.94
689.582	7.93
689.904	7.35
690.227	6.97
690.549	7.51
690.871	6.84
691.194	7.38
691.516	7.25
691.838	7.02
692.16	7.68
692.482	6.68
692.804	6.83
