Data from 0049_chest_Reflection__0__196.txt Node

Date: Fri Nov 04 16:28:36 CDT 2022
User: ToomeyLab
Spectrometer: FLMS14357
Trigger mode: 0
Integration Time (sec): 1.000000E-2
Scans to average: 100
Electric dark correction enabled: true
Nonlinearity correction enabled: false
Boxcar width: 0
XAxis mode: Wavelengths
Number of Pixels in Spectrum: 2048
>>>>>Begin Spectral Data<<<<<
189.047	-140.11
189.435	-140.11
189.823	-140.11
190.211	16.93
190.599	214.95
190.987	26.51
191.375	39.31
191.763	-1.78
192.151	-631.21
192.538	-238.46
192.926	-35.04
193.314	-113.48
193.702	271.53
194.089	541.4
194.477	327.72
194.864	-312.94
195.252	988.53
195.639	303.83
196.027	40.64
196.414	-142.33
196.801	72.77
197.189	-61.63
197.576	216.72
197.963	-99.51
198.351	-37.02
198.738	41.8
199.125	-38.51
199.512	-17.17
199.899	-43.22
200.286	2.24
200.673	22.77
201.06	-15.47
201.447	-55.04
201.833	4.19
202.22	14.45
202.607	11.13
202.994	25.49
203.38	56.3
203.767	29.8
204.154	13.31
204.54	4.85
204.927	-11.68
205.313	10.64
205.699	17.18
206.086	24.88
206.472	-20.47
206.858	3.44
207.245	-20.13
207.631	-5.71
208.017	0.81
208.403	3.24
208.789	32.73
209.175	21.67
209.561	-47.87
209.947	-17.15
210.333	29.85
210.719	-22.44
211.105	-7.23
211.491	6.59
211.876	-4.56
212.262	-7.29
212.648	-4.98
213.034	17.73
213.419	-10.52
213.805	-39.06
214.19	-48.3
214.576	-7.92
214.961	14.15
215.346	-6.92
215.732	3.53
216.117	-7.12
216.502	-25.29
216.888	-44.32
217.273	4.91
217.658	-3.25
218.043	-10.87
218.428	19.05
218.813	-17.13
219.198	-7.09
219.583	-24.07
219.968	8.39
220.353	-21.49
220.738	-28.82
221.122	-29.86
221.507	4.67
221.892	-27.76
222.276	-3.64
222.661	4.65
223.046	-12.2
223.43	-7.92
223.815	-7.2
224.199	9.79
224.583	-7.87
224.968	0.44
225.352	-0.79
225.736	-7.35
226.121	-8.91
226.505	1.7
226.889	2.25
227.273	-1.74
227.657	-0.57
228.041	5.45
228.425	-0.57
228.809	5.15
229.193	3.68
229.577	-1.3
229.961	2.6
230.344	1.91
230.728	1.97
231.112	1.57
231.495	1.59
231.879	2.56
232.263	0.9
232.646	2.02
233.03	1.37
233.413	-0.63
233.797	0.65
234.18	0.9
234.563	2.01
234.946	1.89
235.33	1.98
235.713	1.16
236.096	1.52
236.479	1.48
236.862	0.17
237.245	1.35
237.628	0.84
238.011	0.4
238.394	2.39
238.777	2.25
239.16	2.01
239.543	1.12
239.925	1.24
240.308	1.65
240.691	2.17
241.073	2.38
241.456	1.65
241.838	1.44
242.221	2.25
242.603	1.29
242.986	2.14
243.368	2.7
243.75	2.08
244.133	2.66
244.515	2.11
244.897	2.73
245.279	2.38
245.661	2.09
246.043	2.84
246.425	2.75
246.807	3.05
247.189	1.68
247.571	2.44
247.953	1.63
248.335	2.17
248.717	2.54
249.098	2.21
249.48	2.44
249.862	2.53
250.243	2.32
250.625	2.22
251.006	2.25
251.388	2.29
251.769	2.93
252.151	3.11
252.532	2.14
252.913	1.37
253.295	2.08
253.676	2.17
254.057	2.12
254.438	2.46
254.819	2.54
255.2	1.96
255.581	3.03
255.962	2.28
256.343	1.3
256.724	2.23
257.105	1.02
257.486	3.15
257.867	4.65
258.247	2.66
258.628	2.08
259.009	1.81
259.389	2.23
259.77	2.33
260.15	1.97
260.531	2.52
260.911	1.94
261.292	2.26
261.672	2.33
262.052	2.36
262.432	2.41
262.813	1.95
263.193	1.81
263.573	2.3
263.953	2.4
264.333	2.73
264.713	3.03
265.093	2.17
265.473	2.56
265.853	1.48
266.233	1.98
266.612	2.84
266.992	2.38
267.372	0.84
267.752	1.68
268.131	2.76
268.511	2.44
268.89	2.34
269.27	2.04
269.649	2.53
270.029	2.26
270.408	2.32
270.787	2.45
271.167	2.28
271.546	2.9
271.925	2.13
272.304	2.21
272.683	1.69
273.062	1.88
273.441	2.21
273.82	1.92
274.199	2.24
274.578	2.01
274.957	1.82
275.336	1.67
275.715	2.44
276.093	1.87
276.472	1.77
276.851	1.61
277.229	2.05
277.608	2.1
277.986	2.34
278.365	2.43
278.743	2.27
279.122	2.29
279.5	2.49
279.878	2.2
280.257	2.02
280.635	2.13
281.013	1.95
281.391	1.96
281.769	2.4
282.147	1.73
282.525	2.29
282.903	2.36
283.281	2.78
283.659	2.09
284.037	1.84
284.415	1.95
284.792	2.22
285.17	2
285.548	2.36
285.925	1.99
286.303	2.44
286.68	2.55
287.058	2.29
287.435	2.25
287.813	2.16
288.19	2.42
288.567	2.15
288.945	2.21
289.322	2.58
289.699	2.45
290.076	2.18
290.453	2.14
290.83	1.69
291.207	2.34
291.584	2.68
291.961	2.46
292.338	2.41
292.715	2.37
293.092	2.46
293.469	2.69
293.845	1.77
294.222	2.56
294.599	2.02
294.975	2.5
295.352	2.36
295.728	2.34
296.105	2.63
296.481	2.18
296.858	2.7
297.234	2.85
297.61	2.78
297.986	2.3
298.363	1.97
298.739	2.56
299.115	2.6
299.491	2.72
299.867	2.55
300.243	2.65
300.619	3.05
300.995	2.89
301.371	2.97
301.746	2.56
302.122	2.37
302.498	2.61
302.874	3.2
303.249	2.73
303.625	3.03
304	2.8
304.376	2.56
304.751	2.51
305.127	2.53
305.502	2.67
305.878	2.87
306.253	2.64
306.628	2.49
307.003	2.33
307.378	2.87
307.754	2.9
308.129	2.24
308.504	2.93
308.879	2.39
309.254	2.71
309.629	2.76
310.003	2.89
310.378	3.04
310.753	3.22
311.128	2.51
311.502	2.41
311.877	2.78
312.252	2.84
312.626	3.12
313.001	2.67
313.375	2.95
313.75	2.51
314.124	2.68
314.498	2.79
314.873	3.22
315.247	2.87
315.621	2.83
315.995	2.94
316.369	2.5
316.743	3.44
317.117	3.36
317.491	3.43
317.865	3.33
318.239	2.76
318.613	3.47
318.987	2.9
319.361	3.28
319.734	3.43
320.108	3.31
320.482	2.42
320.855	3.06
321.229	2.67
321.602	2.88
321.976	2.72
322.349	3.48
322.723	3.28
323.096	3.45
323.469	3.08
323.843	3.14
324.216	3.24
324.589	3.03
324.962	3.6
325.335	3.48
325.708	2.75
326.081	3.03
326.454	2.88
326.827	3.01
327.2	3.18
327.573	3.04
327.945	3.18
328.318	2.7
328.691	2.92
329.063	3.06
329.436	3.57
329.809	2.97
330.181	2.76
330.553	3.19
330.926	3.42
331.298	3.46
331.671	3.02
332.043	3.1
332.415	2.85
332.787	2.97
333.159	3.13
333.532	3.01
333.904	3.49
334.276	3.27
334.648	3.4
335.02	2.94
335.391	3.52
335.763	3.45
336.135	3.42
336.507	3.18
336.879	3.25
337.25	3.7
337.622	2.93
337.993	3.52
338.365	3.38
338.736	3.76
339.108	4.1
339.479	3.4
339.851	3.07
340.222	3.05
340.593	3.46
340.964	3.41
341.336	3.54
341.707	3.03
342.078	3.2
342.449	3.34
342.82	3.37
343.191	3.14
343.562	3.16
343.933	3.59
344.303	3.59
344.674	3.42
345.045	2.94
345.416	3.12
345.786	3.37
346.157	3.38
346.527	3.49
346.898	3.5
347.268	3.23
347.639	3.59
348.009	3.8
348.38	3.37
348.75	3.42
349.12	3.69
349.49	3.46
349.861	2.84
350.231	3.6
350.601	3.37
350.971	3.29
351.341	3.5
351.711	3.2
352.081	3.37
352.45	3.48
352.82	3.33
353.19	3.73
353.56	3.75
353.929	3.52
354.299	3.76
354.669	3.99
355.038	3.63
355.408	3.36
355.777	3.75
356.147	3.18
356.516	3.29
356.885	3.47
357.254	3.56
357.624	3.36
357.993	3.06
358.362	3.28
358.731	3.19
359.1	3.64
359.469	3.33
359.838	3.35
360.207	3.01
360.576	3.28
360.945	3.7
361.314	3.33
361.682	3.52
362.051	3.42
362.42	3.54
362.788	3.39
363.157	3.44
363.525	3.34
363.894	3.39
364.262	3.27
364.631	3.58
364.999	3.36
365.367	3.48
365.735	3.62
366.104	3.26
366.472	3.32
366.84	3.37
367.208	3.48
367.576	3.19
367.944	3.81
368.312	3.4
368.68	3.39
369.048	3.35
369.416	3.59
369.783	3.15
370.151	3.34
370.519	3.83
370.886	3.42
371.254	3.57
371.621	3.6
371.989	3.76
372.356	3.64
372.724	3.56
373.091	3.45
373.458	3.58
373.826	3.68
374.193	3.41
374.56	3.35
374.927	3.63
375.294	3.38
375.661	3.52
376.028	3.52
376.395	3.57
376.762	3.42
377.129	3.54
377.496	3.7
377.863	3.63
378.229	3.55
378.596	3.55
378.963	3.45
379.329	3.28
379.696	3.56
380.062	3.97
380.429	3.56
380.795	3.72
381.161	3.57
381.528	3.8
381.894	3.33
382.26	3.61
382.626	3.37
382.993	3.8
383.359	3.59
383.725	3.39
384.091	3.71
384.457	3.6
384.823	3.73
385.188	3.79
385.554	3.64
385.92	3.42
386.286	3.39
386.651	3.7
387.017	3.45
387.383	3.63
387.748	3.38
388.114	3.48
388.479	3.94
388.845	3.82
389.21	3.82
389.575	3.96
389.94	3.64
390.306	3.57
390.671	3.74
391.036	3.61
391.401	3.88
391.766	3.58
392.131	3.24
392.496	3.94
392.861	3.65
393.226	3.69
393.591	3.66
393.956	3.98
394.32	3.68
394.685	3.49
395.05	3.78
395.414	3.63
395.779	3.66
396.143	3.7
396.508	3.79
396.872	3.92
397.236	3.66
397.601	3.65
397.965	3.71
398.329	3.79
398.694	3.67
399.058	3.85
399.422	3.81
399.786	3.75
400.15	3.74
400.514	3.8
400.878	3.51
401.242	3.78
401.605	3.83
401.969	3.82
402.333	3.76
402.697	3.7
403.06	4.01
403.424	3.81
403.787	3.78
404.151	3.72
404.514	3.97
404.878	3.87
405.241	3.85
405.604	3.89
405.968	3.76
406.331	3.67
406.694	3.58
407.057	3.86
407.42	3.78
407.783	3.73
408.146	3.78
408.509	3.8
408.872	3.94
409.235	3.79
409.598	3.88
409.961	3.9
410.323	3.94
410.686	3.83
411.049	3.91
411.411	3.74
411.774	3.82
412.136	3.99
412.499	3.92
412.861	3.88
413.223	3.88
413.586	3.88
413.948	3.93
414.31	3.84
414.672	4.07
415.035	3.95
415.397	3.92
415.759	3.85
416.121	3.8
416.483	3.93
416.845	3.99
417.206	3.98
417.568	3.96
417.93	3.91
418.292	3.8
418.653	3.96
419.015	3.84
419.377	3.82
419.738	3.96
420.1	3.86
420.461	3.85
420.822	3.8
421.184	3.95
421.545	3.74
421.906	3.87
422.267	3.81
422.629	3.88
422.99	3.83
423.351	3.75
423.712	3.85
424.073	3.95
424.434	3.86
424.795	3.86
425.155	3.91
425.516	3.87
425.877	3.77
426.238	3.81
426.598	3.96
426.959	3.82
427.32	3.95
427.68	3.95
428.041	3.93
428.401	4.05
428.761	3.93
429.122	3.98
429.482	3.95
429.842	3.95
430.202	4.19
430.563	4.09
430.923	4.06
431.283	3.87
431.643	4.05
432.003	4.32
432.363	4.13
432.722	3.96
433.082	4.06
433.442	4.07
433.802	4.06
434.161	4.13
434.521	4.03
434.881	4.02
435.24	3.98
435.6	4.09
435.959	3.92
436.319	4.1
436.678	4.11
437.037	4.14
437.396	4.21
437.756	4.2
438.115	4.06
438.474	4.06
438.833	4.11
439.192	4.11
439.551	4.15
439.91	4.18
440.269	4.21
440.628	4.19
440.987	4
441.345	4.04
441.704	4.16
442.063	4.02
442.421	4.16
442.78	4.14
443.138	4.07
443.497	4.08
443.855	4.15
444.214	4.26
444.572	4.17
444.93	4.15
445.288	4.22
445.647	4.17
446.005	4.16
446.363	4.3
446.721	4.12
447.079	4.23
447.437	4.13
447.795	4.13
448.153	4.03
448.51	4.18
448.868	4.05
449.226	4.08
449.584	4.04
449.941	4.11
450.299	4.14
450.656	4.1
451.014	4.3
451.371	4.31
451.729	4.35
452.086	4.18
452.443	4.29
452.801	4.3
453.158	4.3
453.515	4.38
453.872	4.14
454.229	4.28
454.586	4.19
454.943	4.14
455.3	4.29
455.657	4.18
456.014	4.28
456.371	4.29
456.727	4.42
457.084	4.4
457.441	4.25
457.797	4.26
458.154	4.47
458.51	4.43
458.867	4.29
459.223	4.38
459.58	4.63
459.936	4.25
460.292	4.39
460.648	4.33
461.005	4.34
461.361	4.35
461.717	4.26
462.073	4.29
462.429	4.36
462.785	4.32
463.141	4.29
463.496	4.34
463.852	4.47
464.208	4.47
464.564	4.41
464.919	4.56
465.275	4.46
465.631	4.51
465.986	4.56
466.342	4.29
466.697	4.39
467.052	4.44
467.408	4.55
467.763	4.44
468.118	4.52
468.473	4.46
468.829	4.44
469.184	4.42
469.539	4.41
469.894	4.6
470.249	4.51
470.603	4.73
470.958	4.45
471.313	4.49
471.668	4.37
472.023	4.34
472.377	4.56
472.732	4.5
473.086	4.5
473.441	4.55
473.795	4.6
474.15	4.57
474.504	4.66
474.859	4.53
475.213	4.66
475.567	4.55
475.921	4.58
476.275	4.75
476.63	4.54
476.984	4.77
477.338	4.5
477.692	4.74
478.045	4.6
478.399	4.47
478.753	4.71
479.107	4.64
479.461	4.7
479.814	4.85
480.168	4.67
480.521	4.57
480.875	4.83
481.228	4.71
481.582	4.74
481.935	4.7
482.289	4.58
482.642	4.75
482.995	4.63
483.348	4.62
483.701	4.68
484.055	4.57
484.408	4.67
484.761	4.62
485.114	4.49
485.466	4.43
485.819	4.35
486.172	4.39
486.525	4.45
486.878	4.57
487.23	4.65
487.583	4.69
487.936	4.77
488.288	4.63
488.641	4.6
488.993	4.57
489.345	4.49
489.698	4.57
490.05	4.55
490.402	4.56
490.754	4.66
491.107	4.69
491.459	4.77
491.811	4.78
492.163	4.82
492.515	4.8
492.866	4.76
493.218	4.67
493.57	4.6
493.922	4.66
494.274	4.67
494.625	4.8
494.977	4.87
495.328	4.94
495.68	4.78
496.031	4.88
496.383	4.98
496.734	4.91
497.086	5.11
497.437	5.04
497.788	5.04
498.139	4.86
498.49	4.88
498.842	4.93
499.193	4.92
499.544	5.01
499.894	4.96
500.245	5.03
500.596	5
500.947	5.01
501.298	4.92
501.648	5.01
501.999	5.06
502.35	5.11
502.7	5.08
503.051	5.1
503.401	5.13
503.752	5.24
504.102	5.06
504.452	5.1
504.803	5.19
505.153	5.23
505.503	5.1
505.853	5.21
506.203	5.19
506.553	5.16
506.903	5.21
507.253	5.22
507.603	5.16
507.953	5.15
508.303	5.25
508.652	5.17
509.002	5.31
509.352	5.33
509.701	5.19
510.051	5.19
510.4	5.18
510.75	5.16
511.099	5.17
511.449	5.22
511.798	5.23
512.147	5.31
512.496	5.18
512.846	5.24
513.195	5.28
513.544	5.25
513.893	5.26
514.242	5.21
514.591	5.2
514.939	5.41
515.288	5.33
515.637	5.4
515.986	5.4
516.334	5.35
516.683	5.49
517.032	5.42
517.38	5.5
517.729	5.51
518.077	5.52
518.426	5.4
518.774	5.48
519.122	5.44
519.47	5.45
519.819	5.41
520.167	5.39
520.515	5.28
520.863	5.46
521.211	5.43
521.559	5.5
521.907	5.47
522.255	5.62
522.602	5.51
522.95	5.58
523.298	5.64
523.645	5.67
523.993	5.67
524.341	5.63
524.688	5.76
525.036	5.61
525.383	5.77
525.73	5.72
526.078	5.72
526.425	5.75
526.772	5.51
527.119	5.59
527.466	5.65
527.814	5.58
528.161	5.56
528.508	5.61
528.854	5.61
529.201	5.63
529.548	5.57
529.895	5.54
530.242	5.49
530.588	5.43
530.935	5.48
531.282	5.55
531.628	5.61
531.975	5.73
532.321	5.83
532.667	5.81
533.014	5.81
533.36	5.88
533.706	5.95
534.052	5.85
534.399	5.79
534.745	5.81
535.091	5.76
535.437	5.69
535.783	5.76
536.129	5.86
536.474	5.94
536.82	5.96
537.166	6.02
537.512	6.11
537.857	5.98
538.203	5.93
538.549	5.93
538.894	6
539.239	6.07
539.585	6.09
539.93	6.08
540.276	6.17
540.621	6.16
540.966	6.3
541.311	6.09
541.656	6.17
542.001	6.18
542.346	6.12
542.691	6.08
543.036	5.93
543.381	5.96
543.726	5.99
544.071	6.08
544.415	6.2
544.76	6.24
545.105	6.18
545.449	6.27
545.794	6.27
546.138	6.34
546.483	6.44
546.827	6.44
547.171	6.41
547.516	6.4
547.86	6.33
548.204	6.44
548.548	6.32
548.892	6.44
549.236	6.37
549.58	6.55
549.924	6.56
550.268	6.65
550.612	6.59
550.956	6.67
551.3	6.68
551.643	6.62
551.987	6.66
552.33	6.72
552.674	6.7
553.017	6.88
553.361	6.8
553.704	6.72
554.048	6.71
554.391	6.76
554.734	6.9
555.077	6.76
555.42	6.79
555.764	7.01
556.107	7.08
556.45	6.98
556.793	6.86
557.135	7.01
557.478	6.84
557.821	7.07
558.164	7.16
558.507	6.98
558.849	7.11
559.192	7.28
559.534	7.12
559.877	7.08
560.219	7.19
560.562	7.27
560.904	7.36
561.246	7.16
561.589	7.18
561.931	7.16
562.273	7.29
562.615	7.07
562.957	7.32
563.299	7.2
563.641	7.37
563.983	7.35
564.325	7.42
564.667	7.29
565.008	7.25
565.35	7.38
565.692	7.52
566.033	7.44
566.375	7.5
566.716	7.56
567.058	7.59
567.399	7.4
567.741	7.49
568.082	7.55
568.423	7.41
568.764	7.46
569.105	7.58
569.447	7.73
569.788	7.7
570.129	7.7
570.47	7.74
570.811	7.81
571.151	7.8
571.492	7.85
571.833	7.65
572.174	7.9
572.514	7.75
572.855	7.61
573.195	7.87
573.536	7.87
573.876	7.81
574.217	7.71
574.557	7.78
574.898	7.8
575.238	7.95
575.578	8.08
575.918	8.01
576.258	8.07
576.598	8.02
576.938	8.06
577.278	8
577.618	7.97
577.958	8.07
578.298	8.15
578.638	8.27
578.977	8.18
579.317	8.23
579.657	8.21
579.996	8.24
580.336	8.22
580.675	8.18
581.014	8.31
581.354	8.14
581.693	8.38
582.032	8.43
582.372	8.63
582.711	8.4
583.05	8.61
583.389	8.29
583.728	8.4
584.067	8.62
584.406	8.56
584.745	8.56
585.083	8.75
585.422	8.72
585.761	8.6
586.1	8.78
586.438	8.39
586.777	8.66
587.115	8.85
587.454	8.9
587.792	9.13
588.13	9.09
588.469	8.95
588.807	8.93
589.145	9.18
589.483	8.7
589.821	8.98
590.159	8.7
590.497	8.99
590.835	8.87
591.173	8.75
591.511	9.07
591.849	9
592.187	8.85
592.524	8.85
592.862	9.22
593.2	9.22
593.537	9.03
593.875	9.27
594.212	9.07
594.55	8.93
594.887	9.39
595.224	9.28
595.561	9.22
595.899	9.32
596.236	9.32
596.573	9.59
596.91	9.5
597.247	9.38
597.584	9.26
597.921	9.62
598.258	9.62
598.594	9.22
598.931	9.54
599.268	9.56
599.604	9.44
599.941	9.45
600.277	9.47
600.614	9.64
600.95	9.7
601.287	9.61
601.623	9.68
601.959	9.52
602.296	9.72
602.632	9.67
602.968	9.88
603.304	9.58
603.64	10.1
603.976	9.61
604.312	9.79
604.648	9.81
604.984	9.92
605.319	9.91
605.655	9.84
605.991	9.96
606.326	9.91
606.662	9.9
606.998	9.88
607.333	9.88
607.668	10.11
608.004	10.31
608.339	10.12
608.674	10.28
609.01	9.89
609.345	10.12
609.68	10.54
610.015	10.38
610.35	10.27
610.685	10.44
611.02	10.21
611.355	10.38
611.689	10.37
612.024	10.37
612.359	10.17
612.694	10.52
613.028	10.6
613.363	10.8
613.697	10.66
614.032	10.51
614.366	10.56
614.7	10.67
615.035	10.85
615.369	10.56
615.703	10.73
616.037	10.52
616.371	11.09
616.705	10.74
617.039	11.07
617.373	11.05
617.707	11.03
618.041	11.03
618.375	10.77
618.709	10.98
619.042	11.06
619.376	10.99
619.71	11.34
620.043	10.87
620.377	11.43
620.71	11.51
621.043	11.2
621.377	11.29
621.71	11.48
622.043	11.32
622.376	11.24
622.709	11.24
623.043	11.34
623.376	11.55
623.709	11.24
624.041	11.59
624.374	11.19
624.707	10.9
625.04	11.64
625.373	11.63
625.705	11.38
626.038	11.37
626.37	11.53
626.703	11.58
627.035	11.13
627.368	11.48
627.7	11.26
628.032	11.47
628.365	11.78
628.697	11.24
629.029	11.42
629.361	11.72
629.693	11.74
630.025	11.81
630.357	11.61
630.689	11.79
631.021	11.7
631.353	11.54
631.684	11.54
632.016	12.06
632.348	11.97
632.679	11.94
633.011	11.58
633.342	12.17
633.674	11.68
634.005	11.82
634.336	12.21
634.668	12.11
634.999	12.15
635.33	11.8
635.661	12.4
635.992	12.32
636.323	12.1
636.654	11.89
636.985	12.23
637.316	12.28
637.647	12.03
637.977	12.48
638.308	12.45
638.639	12.39
638.969	12.46
639.3	12.53
639.63	12.28
639.961	12.64
640.291	12.79
640.622	12.86
640.952	12.64
641.282	12.4
641.612	12.72
641.943	12.45
642.273	12.26
642.603	12.84
642.933	12.54
643.263	12.35
643.592	12.5
643.922	13.04
644.252	13.29
644.582	12.62
644.911	13.23
645.241	13.07
645.571	13.02
645.9	13.08
646.23	12.65
646.559	13.11
646.888	12.92
647.218	13.22
647.547	13.04
647.876	13.17
648.205	12.87
648.534	13.14
648.863	13.31
649.192	13.13
649.521	13.08
649.85	13.5
650.179	13.17
650.508	13.27
650.837	13.48
651.165	13.57
651.494	13.25
651.822	13.41
652.151	13.65
652.479	13.37
652.808	12.68
653.136	13.38
653.465	13.43
653.793	13.49
654.121	13.5
654.449	12.9
654.777	13.32
655.105	13.69
655.433	13.8
655.761	13.51
656.089	13.42
656.417	13.69
656.745	13.56
657.073	13.58
657.4	13.17
657.728	13.81
658.056	13.4
658.383	14.25
658.711	13.57
659.038	13.94
659.365	14.38
659.693	14.14
660.02	14.32
660.347	13.95
660.674	14.01
661.001	14.22
661.329	13.93
661.656	14.01
661.982	13.71
662.309	14.27
662.636	14.36
662.963	13.78
663.29	13.75
663.616	13.97
663.943	14.51
664.27	14.6
664.596	14.17
664.923	14.31
665.249	14.38
665.576	14.28
665.902	13.47
666.228	13.75
666.554	14.71
666.881	13.83
667.207	14.52
667.533	14.83
667.859	14.33
668.185	14.16
668.511	14.24
668.837	14.61
669.162	15.1
669.488	14.87
669.814	14.59
670.139	14.47
670.465	14.86
670.791	14.82
671.116	14.37
671.442	14.39
671.767	14.8
672.092	14.47
672.418	14.6
672.743	14.7
673.068	14.98
673.393	14.85
673.718	14.96
674.043	14.4
674.368	14.93
674.693	14.4
675.018	14.92
675.343	15.11
675.667	14.82
675.992	15.25
676.317	15
676.641	14.81
676.966	14.9
677.29	15.06
677.615	14.82
677.939	15.26
678.264	15.23
678.588	14.96
678.912	15.95
679.236	15.83
679.56	15.02
679.885	15.52
680.209	15.52
680.532	15.68
680.856	15.3
681.18	15.52
681.504	15.75
681.828	15.58
682.152	15.91
682.475	15.5
682.799	16.05
683.122	15.53
683.446	15.83
683.769	15.19
684.093	16.82
684.416	15.28
684.739	15.87
685.062	15.97
685.386	15.12
685.709	16.2
686.032	15.9
686.355	16.47
686.678	16.17
