Data from 0049_forehead_Reflection__2__208.txt Node

Date: Fri Nov 04 16:32:52 CDT 2022
User: ToomeyLab
Spectrometer: FLMS14357
Trigger mode: 0
Integration Time (sec): 1.000000E-2
Scans to average: 100
Electric dark correction enabled: true
Nonlinearity correction enabled: false
Boxcar width: 0
XAxis mode: Wavelengths
Number of Pixels in Spectrum: 2048
>>>>>Begin Spectral Data<<<<<
189.047	-102.1
189.435	-102.1
189.823	-102.1
190.211	36.38
190.599	-19.95
190.987	-78.75
191.375	-66.64
191.763	-20.56
192.151	-1395.22
192.538	103.85
192.926	296.57
193.314	15.34
193.702	138.41
194.089	395.1
194.477	123.13
194.864	-540.61
195.252	693.78
195.639	68.01
196.027	49.86
196.414	21.73
196.801	31.19
197.189	911.63
197.576	182.09
197.963	98.91
198.351	44.16
198.738	8.54
199.125	12.67
199.512	-0.77
199.899	-3.85
200.286	6.51
200.673	15.83
201.06	-3.12
201.447	-28.83
201.833	54.7
202.22	18.03
202.607	-5.34
202.994	1.61
203.38	37.91
203.767	36.59
204.154	44.28
204.54	-21.88
204.927	8.42
205.313	59.55
205.699	24.76
206.086	26.81
206.472	-18.97
206.858	30.88
207.245	16.49
207.631	-3.22
208.017	1.8
208.403	20.32
208.789	39.85
209.175	35
209.561	-16.43
209.947	0.37
210.333	18.46
210.719	-0.63
211.105	-16.94
211.491	41.4
211.876	67
212.262	-19.82
212.648	-8.91
213.034	35.3
213.419	2.4
213.805	-23.13
214.19	-22.35
214.576	19.56
214.961	34.75
215.346	3.08
215.732	5.42
216.117	10.11
216.502	29.3
216.888	-3.91
217.273	28.57
217.658	7.1
218.043	0.41
218.428	5.43
218.813	21.46
219.198	2.7
219.583	-18.27
219.968	5.81
220.353	2.76
220.738	-15.85
221.122	15.55
221.507	16.04
221.892	-0.39
222.276	0.69
222.661	10.49
223.046	-10.07
223.43	3.7
223.815	3.25
224.199	10.43
224.583	1.16
224.968	-3.7
225.352	3.34
225.736	-4.83
226.121	-2.23
226.505	5.9
226.889	2.04
227.273	1.82
227.657	0.26
228.041	4.9
228.425	5.44
228.809	1.53
229.193	4.61
229.577	1.18
229.961	3.72
230.344	2.25
230.728	2.71
231.112	1.57
231.495	2.67
231.879	2.57
232.263	2.93
232.646	2.53
233.03	0.7
233.413	2.62
233.797	2.32
234.18	2.63
234.563	3.88
234.946	2
235.33	3.54
235.713	2.48
236.096	3.39
236.479	1.32
236.862	1.64
237.245	2.22
237.628	3.86
238.011	2.91
238.394	2.1
238.777	3.88
239.16	1.12
239.543	1.8
239.925	3.64
240.308	4.13
240.691	2.39
241.073	1.67
241.456	2.68
241.838	1.09
242.221	2
242.603	2.08
242.986	1.99
243.368	3.2
243.75	2.21
244.133	2.3
244.515	2.53
244.897	2.73
245.279	2.41
245.661	2.65
246.043	3.78
246.425	3.3
246.807	3.7
247.189	2.01
247.571	2.92
247.953	2.94
248.335	2.57
248.717	2.63
249.098	2.43
249.48	2.57
249.862	2.68
250.243	2.2
250.625	2.25
251.006	2.73
251.388	2.79
251.769	2.99
252.151	3.19
252.532	2.19
252.913	2.47
253.295	2.87
253.676	2.63
254.057	2.51
254.438	2.47
254.819	3.14
255.2	2.75
255.581	2.88
255.962	2.98
256.343	2.07
256.724	3.46
257.105	2.39
257.486	3.12
257.867	3.53
258.247	2.71
258.628	2.83
259.009	2.85
259.389	3.18
259.77	3.26
260.15	2.43
260.531	2.55
260.911	2.31
261.292	2.16
261.672	2.56
262.052	2.57
262.432	2.63
262.813	2.5
263.193	1.87
263.573	2.45
263.953	2.89
264.333	2.94
264.713	2.88
265.093	2.13
265.473	2.78
265.853	2.15
266.233	2.92
266.612	2.96
266.992	3.15
267.372	1.64
267.752	3.13
268.131	2.97
268.511	2.73
268.89	3.04
269.27	2.08
269.649	2.42
270.029	2.26
270.408	2.86
270.787	3.07
271.167	2.69
271.546	3.12
271.925	2.28
272.304	1.97
272.683	1.97
273.062	2.69
273.441	2.82
273.82	2.33
274.199	2.35
274.578	2.22
274.957	2.05
275.336	2.41
275.715	2.24
276.093	2.72
276.472	2.1
276.851	2.51
277.229	2.4
277.608	2.53
277.986	2.56
278.365	2.44
278.743	2.79
279.122	2.69
279.5	2.45
279.878	3
280.257	2.41
280.635	2.29
281.013	2.98
281.391	2.94
281.769	2.66
282.147	2.41
282.525	2.58
282.903	2.32
283.281	2.8
283.659	2.47
284.037	2.32
284.415	2.06
284.792	2.81
285.17	2.43
285.548	2.59
285.925	2.04
286.303	2.72
286.68	2.62
287.058	2.32
287.435	2.47
287.813	2.21
288.19	2.51
288.567	2.38
288.945	2.3
289.322	2.63
289.699	2.7
290.076	2.83
290.453	2.76
290.83	2.84
291.207	2.37
291.584	2.96
291.961	2.68
292.338	2.89
292.715	3.03
293.092	2.98
293.469	2.51
293.845	2.27
294.222	2.73
294.599	2.44
294.975	2.48
295.352	2.64
295.728	2.81
296.105	2.86
296.481	2.79
296.858	2.79
297.234	3.06
297.61	3.16
297.986	2.59
298.363	2.84
298.739	2.72
299.115	3.12
299.491	2.98
299.867	2.91
300.243	2.62
300.619	3.19
300.995	3.38
301.371	3.62
301.746	3.06
302.122	2.88
302.498	3.14
302.874	3.34
303.249	2.99
303.625	2.99
304	3.65
304.376	3.16
304.751	3.37
305.127	3.17
305.502	3.71
305.878	3.73
306.253	3.55
306.628	3.13
307.003	3.69
307.378	3.34
307.754	3.36
308.129	3.4
308.504	3.58
308.879	3.71
309.254	3.61
309.629	3.65
310.003	3.73
310.378	3.74
310.753	3.68
311.128	3.83
311.502	3.8
311.877	3.67
312.252	3.78
312.626	3.87
313.001	3.97
313.375	3.74
313.75	3.68
314.124	3.68
314.498	3.97
314.873	4.21
315.247	4.29
315.621	4.01
315.995	4.59
316.369	4.04
316.743	4.8
317.117	4.19
317.491	4.66
317.865	4.46
318.239	4.34
318.613	4.65
318.987	4.16
319.361	4.56
319.734	4.45
320.108	5.09
320.482	4.42
320.855	4.6
321.229	4.5
321.602	4.68
321.976	4.68
322.349	5.25
322.723	4.6
323.096	4.45
323.469	4.63
323.843	4.88
324.216	5.23
324.589	4.79
324.962	5.41
325.335	4.59
325.708	4.45
326.081	4.86
326.454	4.86
326.827	4.84
327.2	5.02
327.573	5.07
327.945	5.16
328.318	4.98
328.691	4.84
329.063	4.82
329.436	5.46
329.809	5.3
330.181	5.04
330.553	5.28
330.926	5.32
331.298	5.67
331.671	5.16
332.043	5.5
332.415	5.32
332.787	5.09
333.159	5.37
333.532	5.09
333.904	5.65
334.276	5.21
334.648	5.96
335.02	5.45
335.391	5.85
335.763	5.72
336.135	5.6
336.507	5.96
336.879	5.9
337.25	6.41
337.622	6.17
337.993	6.03
338.365	5.96
338.736	5.92
339.108	6.08
339.479	5.9
339.851	6.08
340.222	6.2
340.593	6.33
340.964	6.4
341.336	6
341.707	5.88
342.078	5.96
342.449	6.29
342.82	6
343.191	5.96
343.562	6.51
343.933	6.1
344.303	6.53
344.674	6.26
345.045	6.5
345.416	5.68
345.786	6.76
346.157	6.4
346.527	6.45
346.898	6.3
347.268	6.14
347.639	6.27
348.009	6.76
348.38	6.57
348.75	6.7
349.12	6.13
349.49	6.77
349.861	6.59
350.231	6.56
350.601	6.7
350.971	6.7
351.341	7.02
351.711	6.75
352.081	6.75
352.45	6.73
352.82	7.06
353.19	7.08
353.56	7.2
353.929	6.93
354.299	7.35
354.669	7.72
355.038	7.47
355.408	6.7
355.777	7.17
356.147	6.88
356.516	7.17
356.885	7.36
357.254	7.52
357.624	7.57
357.993	7.02
358.362	6.93
358.731	7.43
359.1	7.39
359.469	7.56
359.838	7.51
360.207	7.38
360.576	7.65
360.945	7.7
361.314	7.8
361.682	7.55
362.051	7.74
362.42	7.72
362.788	7.64
363.157	7.48
363.525	7.68
363.894	7.63
364.262	7.9
364.631	7.96
364.999	7.92
365.367	7.93
365.735	8.07
366.104	7.81
366.472	8.12
366.84	8.13
367.208	8.15
367.576	8.01
367.944	8.28
368.312	8.26
368.68	8.27
369.048	8.15
369.416	8.1
369.783	8.2
370.151	8.44
370.519	8.82
370.886	8.48
371.254	8.3
371.621	8.55
371.989	8.41
372.356	8.44
372.724	8.69
373.091	8.87
373.458	8.76
373.826	8.57
374.193	8.49
374.56	8.57
374.927	8.99
375.294	8.65
375.661	8.71
376.028	8.66
376.395	8.92
376.762	8.92
377.129	8.88
377.496	9.23
377.863	9.17
378.229	8.77
378.596	9.15
378.963	9.33
379.329	8.79
379.696	8.91
380.062	9.51
380.429	9.29
380.795	9.18
381.161	9.39
381.528	9.6
381.894	9.14
382.26	9.5
382.626	9.54
382.993	9.67
383.359	9.65
383.725	9.46
384.091	9.95
384.457	9.51
384.823	9.49
385.188	9.89
385.554	9.48
385.92	9.64
386.286	9.51
386.651	9.89
387.017	9.92
387.383	10.07
387.748	9.94
388.114	9.9
388.479	10.3
388.845	10.13
389.21	10.12
389.575	10.14
389.94	10.13
390.306	10.13
390.671	10.04
391.036	10.26
391.401	10.54
391.766	10.02
392.131	10.32
392.496	10.29
392.861	10.37
393.226	10.32
393.591	10.45
393.956	10.68
394.32	10.64
394.685	10.56
395.05	10.9
395.414	10.7
395.779	10.64
396.143	10.58
396.508	10.65
396.872	10.75
397.236	10.84
397.601	10.63
397.965	10.82
398.329	10.96
398.694	10.97
399.058	11.16
399.422	10.93
399.786	10.78
400.15	10.93
400.514	10.95
400.878	11.03
401.242	11.12
401.605	10.95
401.969	11.32
402.333	11.43
402.697	11.23
403.06	11.36
403.424	11.64
403.787	11.32
404.151	11.54
404.514	11.39
404.878	11.64
405.241	11.68
405.604	11.58
405.968	11.58
406.331	11.43
406.694	11.41
407.057	11.69
407.42	11.73
407.783	11.37
408.146	11.69
408.509	11.74
408.872	11.91
409.235	12
409.598	12.23
409.961	12.21
410.323	11.88
410.686	12.18
411.049	12.18
411.411	12.11
411.774	12.1
412.136	12.38
412.499	12.4
412.861	12.35
413.223	12.24
413.586	11.97
413.948	12.31
414.31	12.49
414.672	12.61
415.035	12.65
415.397	12.34
415.759	12.72
416.121	12.49
416.483	12.68
416.845	12.69
417.206	12.39
417.568	12.83
417.93	12.75
418.292	12.59
418.653	12.74
419.015	12.63
419.377	12.59
419.738	12.7
420.1	12.85
420.461	12.77
420.822	12.81
421.184	12.72
421.545	12.59
421.906	12.75
422.267	12.63
422.629	12.8
422.99	12.64
423.351	12.62
423.712	12.82
424.073	12.92
424.434	12.9
424.795	13.04
425.155	13.04
425.516	13.05
425.877	12.9
426.238	13.1
426.598	13.04
426.959	13
427.32	13.22
427.68	13.28
428.041	13.32
428.401	13.54
428.761	13.58
429.122	13.56
429.482	13.66
429.842	13.55
430.202	13.87
430.563	13.78
430.923	14
431.283	13.78
431.643	14.02
432.003	14.36
432.363	13.94
432.722	14.18
433.082	14.05
433.442	14.29
433.802	14.07
434.161	14.18
434.521	14.21
434.881	14.15
435.24	14.19
435.6	14.19
435.959	14.1
436.319	14.35
436.678	14.3
437.037	14.47
437.396	14.64
437.756	14.54
438.115	14.32
438.474	14.68
438.833	14.84
439.192	14.83
439.551	14.74
439.91	14.74
440.269	14.82
440.628	14.71
440.987	14.85
441.345	14.71
441.704	14.73
442.063	14.69
442.421	14.82
442.78	14.75
443.138	14.83
443.497	14.73
443.855	14.92
444.214	15.17
444.572	15.06
444.93	15.16
445.288	15.22
445.647	15.04
446.005	15.31
446.363	15.26
446.721	15.37
447.079	15.28
447.437	15.15
447.795	15.19
448.153	15.05
448.51	15.15
448.868	15.19
449.226	15.27
449.584	15.27
449.941	15.44
450.299	15.47
450.656	15.62
451.014	15.69
451.371	15.86
451.729	15.89
452.086	15.74
452.443	15.98
452.801	16.08
453.158	16.05
453.515	16.07
453.872	16.01
454.229	16.17
454.586	16.21
454.943	16.42
455.3	16.23
455.657	16.22
456.014	16.38
456.371	16.42
456.727	16.52
457.084	16.5
457.441	16.49
457.797	16.38
458.154	16.59
458.51	16.81
458.867	16.71
459.223	16.75
459.58	16.96
459.936	16.68
460.292	16.71
460.648	16.66
461.005	16.61
461.361	16.49
461.717	16.51
462.073	16.56
462.429	16.56
462.785	16.72
463.141	16.81
463.496	16.88
463.852	17.12
464.208	17.16
464.564	17.05
464.919	17.35
465.275	17.48
465.631	17.42
465.986	17.37
466.342	17.51
466.697	17.44
467.052	17.49
467.408	17.56
467.763	17.54
468.118	17.79
468.473	17.71
468.829	17.55
469.184	17.71
469.539	17.64
469.894	17.92
470.249	17.82
470.603	18.03
470.958	17.73
471.313	17.9
471.668	17.97
472.023	17.86
472.377	18.08
472.732	18.06
473.086	18.26
473.441	18.31
473.795	18.13
474.15	18.5
474.504	18.48
474.859	18.52
475.213	18.31
475.567	18.38
475.921	18.61
476.275	18.66
476.63	18.6
476.984	18.54
477.338	18.74
477.692	18.76
478.045	18.59
478.399	18.61
478.753	18.74
479.107	18.9
479.461	18.75
479.814	18.84
480.168	18.91
480.521	18.88
480.875	18.89
481.228	19.06
481.582	19.12
481.935	19.05
482.289	19.04
482.642	19.06
482.995	19.02
483.348	18.94
483.701	18.92
484.055	18.93
484.408	18.76
484.761	18.83
485.114	18.44
485.466	18.27
485.819	18.19
486.172	18.29
486.525	18.34
486.878	18.46
487.23	18.59
487.583	18.76
487.936	18.97
488.288	19.03
488.641	19.05
488.993	18.83
489.345	18.76
489.698	18.79
490.05	18.8
490.402	18.88
490.754	18.96
491.107	19.24
491.459	19.37
491.811	19.43
492.163	19.73
492.515	19.72
492.866	19.6
493.218	19.4
493.57	19.24
493.922	19.28
494.274	19.41
494.625	19.59
494.977	19.86
495.328	19.95
495.68	20.13
496.031	20.32
496.383	20.49
496.734	20.63
497.086	20.77
497.437	20.77
497.788	20.67
498.139	20.53
498.49	20.49
498.842	20.49
499.193	20.54
499.544	20.64
499.894	20.61
500.245	20.84
500.596	20.73
500.947	20.8
501.298	20.97
501.648	21.12
501.999	21.19
502.35	21.14
502.7	21.11
503.051	21.34
503.401	21.3
503.752	21.47
504.102	21.51
504.452	21.66
504.803	21.6
505.153	21.69
505.503	21.6
505.853	21.63
506.203	21.63
506.553	21.65
506.903	21.53
507.253	21.79
507.603	21.64
507.953	21.7
508.303	22
508.652	21.77
509.002	22.03
509.352	22.03
509.701	21.83
510.051	21.86
510.4	21.93
510.75	21.82
511.099	22
511.449	21.85
511.798	21.92
512.147	22.09
512.496	22.05
512.846	21.96
513.195	22.28
513.544	22.17
513.893	22.16
514.242	22.2
514.591	22.24
514.939	22.43
515.288	22.37
515.637	22.5
515.986	22.59
516.334	22.6
516.683	22.61
517.032	22.88
517.38	22.95
517.729	22.81
518.077	23
518.426	22.88
518.774	22.82
519.122	22.78
519.47	22.74
519.819	22.74
520.167	22.66
520.515	22.61
520.863	22.62
521.211	22.63
521.559	22.81
521.907	22.91
522.255	23.03
522.602	23.02
522.95	23.15
523.298	23.38
523.645	23.47
523.993	23.47
524.341	23.49
524.688	23.58
525.036	23.65
525.383	23.55
525.73	23.72
526.078	23.72
526.425	23.65
526.772	23.51
527.119	23.52
527.466	23.39
527.814	23.2
528.161	23.22
528.508	23.27
528.854	23.33
529.201	23.39
529.548	23.28
529.895	23.06
530.242	22.9
530.588	22.9
530.935	22.92
531.282	23.1
531.628	23.1
531.975	23.2
532.321	23.31
532.667	23.51
533.014	23.78
533.36	23.86
533.706	24
534.052	23.88
534.399	23.88
534.745	23.8
535.091	23.65
535.437	23.69
535.783	23.77
536.129	23.82
536.474	23.97
536.82	24.13
537.166	24.32
537.512	24.49
537.857	24.45
538.203	24.3
538.549	24.25
538.894	24.39
539.239	24.49
539.585	24.55
539.93	24.66
540.276	24.77
540.621	24.8
540.966	25.17
541.311	24.99
541.656	25.11
542.001	25.1
542.346	25.05
542.691	24.76
543.036	24.39
543.381	24.41
543.726	24.58
544.071	24.49
544.415	24.62
544.76	24.63
545.105	24.75
545.449	24.91
545.794	25.12
546.138	25.21
546.483	25.21
546.827	25.47
547.171	25.66
547.516	25.6
547.86	25.57
548.204	25.64
548.548	25.48
548.892	25.53
549.236	25.53
549.58	25.66
549.924	25.83
550.268	26.1
550.612	26.13
550.956	26.28
551.3	26.39
551.643	26.61
551.987	26.48
552.33	26.58
552.674	26.67
553.017	26.85
553.361	26.86
553.704	26.7
554.048	26.68
554.391	26.71
554.734	26.5
555.077	26.92
555.42	26.66
555.764	26.93
556.107	26.85
556.45	27.05
556.793	27.07
557.135	27.13
557.478	27.07
557.821	27.28
558.164	27.39
558.507	27.13
558.849	27.37
559.192	27.39
559.534	27.48
559.877	27.54
560.219	27.55
560.562	27.6
560.904	27.77
561.246	27.73
561.589	27.63
561.931	27.63
562.273	27.6
562.615	27.68
562.957	27.56
563.299	27.72
563.641	27.68
563.983	27.67
564.325	28.1
564.667	28.06
565.008	27.92
565.35	27.96
565.692	28.06
566.033	28.33
566.375	28.26
566.716	28.28
567.058	28.24
567.399	28.04
567.741	28.17
568.082	28.05
568.423	28.11
568.764	28.03
569.105	28.17
569.447	28.34
569.788	28.34
570.129	28.49
570.47	28.62
570.811	28.6
571.151	28.53
571.492	28.78
571.833	28.55
572.174	28.77
572.514	28.59
572.855	28.61
573.195	28.74
573.536	28.57
573.876	28.7
574.217	28.54
574.557	28.5
574.898	28.65
575.238	28.66
575.578	28.79
575.918	28.82
576.258	28.96
576.598	28.88
576.938	28.82
577.278	29.06
577.618	28.95
577.958	28.84
578.298	29.18
578.638	29.18
578.977	29.27
579.317	29.22
579.657	29.26
579.996	29.32
580.336	29.62
580.675	29.56
581.014	29.54
581.354	29.63
581.693	29.84
582.032	29.78
582.372	29.81
582.711	29.83
583.05	30.08
583.389	29.73
583.728	29.98
584.067	30.08
584.406	29.68
584.745	30.17
585.083	30.01
585.422	30.04
585.761	30.19
586.1	30.36
586.438	30.16
586.777	30.49
587.115	30.68
587.454	30.55
587.792	30.68
588.13	30.73
588.469	30.21
588.807	30.62
589.145	30.5
589.483	30.43
589.821	30.75
590.159	30.59
590.497	30.63
590.835	30.33
591.173	30.74
591.511	30.61
591.849	30.73
592.187	30.81
592.524	30.99
592.862	30.94
593.2	30.77
593.537	31
593.875	31.1
594.212	31.2
594.55	30.81
594.887	30.96
595.224	31.24
595.561	31.1
595.899	31.15
596.236	31.22
596.573	30.95
596.91	31.25
597.247	31.05
597.584	31.2
597.921	31.51
598.258	31.4
598.594	30.89
598.931	31.35
599.268	31.12
599.604	31.22
599.941	31.2
600.277	31.45
600.614	31.21
600.95	31.48
601.287	31.4
601.623	31.63
601.959	31.62
602.296	32.03
602.632	31.96
602.968	31.55
603.304	31.96
603.64	32.01
603.976	31.99
604.312	32.03
604.648	31.97
604.984	31.86
605.319	31.97
605.655	31.9
605.991	31.83
606.326	31.84
606.662	31.66
606.998	31.69
607.333	31.84
607.668	31.86
608.004	31.82
608.339	31.89
608.674	32.18
609.01	32.33
609.345	32.54
609.68	32.6
610.015	32.38
610.35	32.52
610.685	32.63
611.02	32.44
611.355	32.28
611.689	32.21
612.024	32.41
612.359	32.34
612.694	32.34
613.028	32.82
613.363	32.82
613.697	32.91
614.032	33.1
614.366	33.09
614.7	32.82
615.035	33.29
615.369	33.25
615.703	33.29
616.037	33.02
616.371	33.11
616.705	33.08
617.039	33.58
617.373	33.46
617.707	33.43
618.041	33.61
618.375	33.49
618.709	33.29
619.042	33.66
619.376	33.3
619.71	33.39
620.043	33.61
620.377	33.57
620.71	33.64
621.043	33.08
621.377	33.75
621.71	33.39
622.043	34.05
622.376	33.99
622.709	33.89
623.043	34.04
623.376	33.96
623.709	33.7
624.041	33.89
624.374	33.9
624.707	33.49
625.04	34.29
625.373	34.06
625.705	33.86
626.038	34.28
626.37	34.1
626.703	33.98
627.035	34.01
627.368	33.92
627.7	33.92
628.032	34.14
628.365	34.38
628.697	34.19
629.029	34.11
629.361	34.01
629.693	34.29
630.025	34.07
630.357	34.21
630.689	34.15
631.021	34.46
631.353	34.36
631.684	34.57
632.016	34.54
632.348	34.57
632.679	34.63
633.011	34.66
633.342	34.65
633.674	34.51
634.005	34.79
634.336	34.88
634.668	34.61
634.999	35.19
635.33	34.46
635.661	34.83
635.992	35.09
636.323	34.61
636.654	35.04
636.985	34.75
637.316	34.47
637.647	35.12
637.977	35.57
638.308	35.83
638.639	35.38
638.969	34.97
639.3	35.28
639.63	35.25
639.961	35.18
640.291	35.56
640.622	35.47
640.952	35.3
641.282	35.59
641.612	35.31
641.943	35.27
642.273	35.3
642.603	35.46
642.933	35.27
643.263	35.13
643.592	35.18
643.922	35.91
644.252	35.89
644.582	35.69
644.911	36.01
645.241	36.01
645.571	35.7
645.9	35.92
646.23	36.29
646.559	36.19
646.888	35.99
647.218	35.83
647.547	36.17
647.876	36.09
648.205	35.54
648.534	36.13
648.863	35.69
649.192	36.61
649.521	36.23
649.85	36.47
650.179	36.44
650.508	36.45
650.837	36.6
651.165	36.44
651.494	36.11
651.822	36.36
652.151	36.47
652.479	36.54
652.808	36.35
653.136	36.71
653.465	36.08
653.793	36.42
654.121	36.48
654.449	35.71
654.777	36.32
655.105	36.54
655.433	36.83
655.761	36.27
656.089	36.45
656.417	36.55
656.745	36.33
657.073	36.91
657.4	36.63
657.728	36.71
658.056	36.33
658.383	37.34
658.711	37.06
659.038	36.47
659.365	37.05
659.693	36.61
660.02	36.88
660.347	36.34
660.674	37.07
661.001	37.1
661.329	36.93
661.656	36.89
661.982	36.46
662.309	37.11
662.636	37.05
662.963	36.92
663.29	37.1
663.616	37.32
663.943	37.19
664.27	37.31
664.596	37.32
664.923	37.14
665.249	37.23
665.576	36.82
665.902	37.23
666.228	37.07
666.554	38.02
666.881	37.38
667.207	37.54
667.533	37.06
667.859	36.96
668.185	37.11
668.511	37.73
668.837	37.98
669.162	37.42
669.488	37.26
669.814	37.9
670.139	37.55
670.465	37.86
670.791	37.36
671.116	37.96
671.442	37.93
671.767	37.93
672.092	38.06
672.418	38.16
672.743	38.06
673.068	37.89
673.393	37.77
673.718	38.26
