Data from 0049_chest_Reflection__1__197.txt Node

Date: Fri Nov 04 16:28:47 CDT 2022
User: ToomeyLab
Spectrometer: FLMS14357
Trigger mode: 0
Integration Time (sec): 1.000000E-2
Scans to average: 100
Electric dark correction enabled: true
Nonlinearity correction enabled: false
Boxcar width: 0
XAxis mode: Wavelengths
Number of Pixels in Spectrum: 2048
>>>>>Begin Spectral Data<<<<<
189.047	-14.85
189.435	-14.85
189.823	-14.85
190.211	5.41
190.599	48.37
190.987	57.53
191.375	-22.93
191.763	49.8
192.151	-1941.72
192.538	163.43
192.926	147.8
193.314	-125.02
193.702	104.2
194.089	362.2
194.477	230.17
194.864	235.44
195.252	425.28
195.639	281.8
196.027	46.63
196.414	-1.21
196.801	9.69
197.189	-42.65
197.576	257.79
197.963	42.94
198.351	-23.89
198.738	-5.38
199.125	-8.23
199.512	20.85
199.899	-13.87
200.286	-22.81
200.673	-21.18
201.06	0.41
201.447	-29.64
201.833	4.32
202.22	4.39
202.607	10.78
202.994	35.85
203.38	44.79
203.767	-20.92
204.154	13.33
204.54	-37.64
204.927	-1.55
205.313	27.98
205.699	18.92
206.086	-0.5
206.472	-1.15
206.858	-10.81
207.245	23.02
207.631	28.58
208.017	18.26
208.403	7.68
208.789	15.88
209.175	21.26
209.561	-68.47
209.947	-57.82
210.333	-5.91
210.719	-29.61
211.105	-2.81
211.491	-26.38
211.876	1.26
212.262	-0.87
212.648	-26.25
213.034	19.49
213.419	-9.09
213.805	-3.58
214.19	-44.65
214.576	-9.24
214.961	29.31
215.346	21.86
215.732	9.98
216.117	-24.81
216.502	20.1
216.888	7.37
217.273	-5.17
217.658	-10.44
218.043	2.9
218.428	4.44
218.813	11.98
219.198	-9.71
219.583	-16.38
219.968	11.87
220.353	-13.29
220.738	-13.8
221.122	-17.08
221.507	-5.56
221.892	-7.17
222.276	2.78
222.661	4.98
223.046	-12.65
223.43	-5.15
223.815	-4.59
224.199	10.4
224.583	2.85
224.968	-3.56
225.352	2.71
225.736	-2.31
226.121	-8.27
226.505	0.69
226.889	2.81
227.273	5.32
227.657	-1.27
228.041	3.28
228.425	5.09
228.809	3.3
229.193	3.4
229.577	0.51
229.961	3.13
230.344	3.46
230.728	3.18
231.112	2.34
231.495	2.26
231.879	3.39
232.263	1.74
232.646	2.31
233.03	1.4
233.413	1.12
233.797	1.22
234.18	1.98
234.563	4.05
234.946	2.3
235.33	2.97
235.713	1.79
236.096	2.84
236.479	2.3
236.862	1.84
237.245	1.27
237.628	2.74
238.011	0.45
238.394	3.58
238.777	1.77
239.16	2.21
239.543	1.4
239.925	2.74
240.308	4.19
240.691	2.88
241.073	2.47
241.456	1.59
241.838	2.65
242.221	2.46
242.603	2.68
242.986	2.36
243.368	3.02
243.75	2.7
244.133	3
244.515	2.51
244.897	2.36
245.279	2.72
245.661	2.4
246.043	2.99
246.425	2.01
246.807	3.51
247.189	2.86
247.571	3.12
247.953	2.5
248.335	2.75
248.717	2.57
249.098	2.36
249.48	2.63
249.862	3.17
250.243	2.44
250.625	2.31
251.006	2.53
251.388	2.49
251.769	3.35
252.151	3.03
252.532	1.32
252.913	1.84
253.295	2.63
253.676	2.67
254.057	2.29
254.438	2.42
254.819	3.03
255.2	2.16
255.581	2.59
255.962	3.22
256.343	1.66
256.724	3.01
257.105	2.02
257.486	2.28
257.867	3.43
258.247	2.71
258.628	2.19
259.009	1.53
259.389	2.5
259.77	2.02
260.15	2.62
260.531	2.35
260.911	2.13
261.292	1.93
261.672	2.4
262.052	2.48
262.432	2.34
262.813	2.25
263.193	2.1
263.573	2.41
263.953	2.09
264.333	2.83
264.713	2.68
265.093	1.73
265.473	2.86
265.853	1.69
266.233	2.34
266.612	2.7
266.992	3.02
267.372	2.2
267.752	2.31
268.131	2.37
268.511	2.78
268.89	2.96
269.27	2.43
269.649	2.56
270.029	1.83
270.408	2.56
270.787	2.52
271.167	1.99
271.546	2.98
271.925	2.49
272.304	2.24
272.683	2.11
273.062	2.32
273.441	2.73
273.82	2.24
274.199	2.31
274.578	2.3
274.957	2.02
275.336	1.84
275.715	1.97
276.093	2.68
276.472	2.52
276.851	2.19
277.229	2.24
277.608	2.14
277.986	2.61
278.365	2.26
278.743	2.77
279.122	2.02
279.5	2.54
279.878	2.03
280.257	2.2
280.635	1.43
281.013	2.1
281.391	2.4
281.769	2.34
282.147	1.76
282.525	2.42
282.903	2.37
283.281	2.76
283.659	2.33
284.037	1.97
284.415	2.27
284.792	2.5
285.17	1.93
285.548	2.88
285.925	2.17
286.303	2.69
286.68	2.32
287.058	2.42
287.435	2.27
287.813	2.35
288.19	2.05
288.567	2.3
288.945	2.11
289.322	2.47
289.699	2.37
290.076	2.5
290.453	2.17
290.83	2.14
291.207	2.06
291.584	2.42
291.961	2.66
292.338	2.44
292.715	2.47
293.092	2.7
293.469	2.51
293.845	2.04
294.222	2.25
294.599	2.2
294.975	1.72
295.352	2.08
295.728	2.62
296.105	2.32
296.481	1.77
296.858	2.07
297.234	2.75
297.61	2.31
297.986	2.29
298.363	2.04
298.739	2.26
299.115	2.57
299.491	2.41
299.867	2.26
300.243	2.47
300.619	2.57
300.995	2.62
301.371	2.8
301.746	2.45
302.122	2.42
302.498	2.35
302.874	2.58
303.249	2.05
303.625	1.89
304	2.53
304.376	2.2
304.751	2.42
305.127	1.93
305.502	2.68
305.878	2.53
306.253	2.47
306.628	2.44
307.003	2.02
307.378	2.45
307.754	2.36
308.129	1.79
308.504	2.23
308.879	2.32
309.254	2.49
309.629	2.34
310.003	2.42
310.378	2.22
310.753	2.34
311.128	2.15
311.502	2.01
311.877	2.19
312.252	2.56
312.626	2.35
313.001	2.29
313.375	2.5
313.75	2.65
314.124	2.18
314.498	2.48
314.873	2.68
315.247	2.6
315.621	2.5
315.995	2.74
316.369	2.4
316.743	2.95
317.117	3.04
317.491	2.7
317.865	2.31
318.239	2.44
318.613	2.93
318.987	2.41
319.361	2.56
319.734	2.66
320.108	2.26
320.482	2
320.855	2.23
321.229	2.74
321.602	2.21
321.976	2.25
322.349	3.16
322.723	2.82
323.096	2.74
323.469	2.51
323.843	2.64
324.216	2.55
324.589	2.8
324.962	2.89
325.335	2.5
325.708	2.56
326.081	2.03
326.454	2.47
326.827	2.39
327.2	2.56
327.573	2.66
327.945	2.47
328.318	2.22
328.691	2.69
329.063	2.13
329.436	2.78
329.809	2.33
330.181	2.53
330.553	2.13
330.926	2.45
331.298	2.46
331.671	2.47
332.043	2.85
332.415	2.33
332.787	2.35
333.159	2.04
333.532	2.42
333.904	2.96
334.276	2.39
334.648	2.31
335.02	2.26
335.391	2.65
335.763	2.49
336.135	2.84
336.507	2.63
336.879	2.52
337.25	2.83
337.622	2.38
337.993	2.81
338.365	2.22
338.736	2.94
339.108	2.53
339.479	2.71
339.851	2.36
340.222	2.45
340.593	2.84
340.964	2.54
341.336	2.56
341.707	2.47
342.078	2.92
342.449	2.81
342.82	2.44
343.191	2.41
343.562	2.54
343.933	2.65
344.303	2.82
344.674	2.68
345.045	2.26
345.416	1.78
345.786	2.55
346.157	2.51
346.527	2.57
346.898	2.8
347.268	2.13
347.639	2.71
348.009	2.67
348.38	2.61
348.75	2.4
349.12	2.21
349.49	2.54
349.861	2.26
350.231	2.73
350.601	2.58
350.971	2.69
351.341	2.79
351.711	2.53
352.081	2.83
352.45	2.71
352.82	2.87
353.19	2.63
353.56	2.89
353.929	2.87
354.299	3.03
354.669	2.92
355.038	2.9
355.408	2.49
355.777	2.6
356.147	2.37
356.516	2.32
356.885	2.85
357.254	2.72
357.624	2.67
357.993	2.54
358.362	2.55
358.731	2.71
359.1	2.78
359.469	2.56
359.838	2.66
360.207	2.55
360.576	2.68
360.945	2.75
361.314	2.88
361.682	2.46
362.051	2.83
362.42	2.68
362.788	2.52
363.157	2.36
363.525	2.61
363.894	2.63
364.262	2.73
364.631	2.92
364.999	2.57
365.367	2.6
365.735	2.65
366.104	2.59
366.472	2.82
366.84	2.34
367.208	2.72
367.576	2.58
367.944	2.71
368.312	2.88
368.68	2.64
369.048	2.39
369.416	2.62
369.783	2.55
370.151	2.72
370.519	3.18
370.886	2.38
371.254	2.77
371.621	2.85
371.989	2.95
372.356	2.73
372.724	2.88
373.091	3.02
373.458	2.71
373.826	2.78
374.193	2.56
374.56	2.54
374.927	2.86
375.294	2.76
375.661	3.14
376.028	2.78
376.395	2.52
376.762	2.74
377.129	2.68
377.496	2.9
377.863	2.88
378.229	2.66
378.596	2.73
378.963	2.82
379.329	2.66
379.696	2.72
380.062	2.85
380.429	2.6
380.795	2.65
381.161	2.69
381.528	2.91
381.894	2.4
382.26	2.66
382.626	2.47
382.993	2.68
383.359	2.71
383.725	2.84
384.091	2.59
384.457	2.75
384.823	2.74
385.188	2.84
385.554	2.66
385.92	2.61
386.286	2.97
386.651	2.7
387.017	2.61
387.383	2.67
387.748	2.46
388.114	2.64
388.479	3.34
388.845	2.51
389.21	2.87
389.575	3.04
389.94	2.63
390.306	2.67
390.671	3.11
391.036	2.78
391.401	3.24
391.766	2.85
392.131	2.68
392.496	2.83
392.861	3
393.226	2.57
393.591	2.97
393.956	3
394.32	2.72
394.685	2.7
395.05	2.9
395.414	3.01
395.779	2.57
396.143	2.78
396.508	2.94
396.872	2.89
397.236	2.78
397.601	2.87
397.965	2.71
398.329	2.92
398.694	2.88
399.058	3.02
399.422	2.94
399.786	2.86
400.15	2.84
400.514	2.83
400.878	2.88
401.242	2.84
401.605	2.77
401.969	2.87
402.333	2.97
402.697	2.93
403.06	2.98
403.424	2.81
403.787	2.75
404.151	2.92
404.514	3.09
404.878	2.96
405.241	2.78
405.604	2.93
405.968	2.84
406.331	2.83
406.694	2.7
407.057	2.93
407.42	2.61
407.783	2.68
408.146	2.78
408.509	2.66
408.872	2.85
409.235	2.92
409.598	2.93
409.961	2.96
410.323	2.86
410.686	2.88
411.049	2.89
411.411	2.61
411.774	2.78
412.136	3.07
412.499	2.93
412.861	2.78
413.223	2.96
413.586	2.69
413.948	2.95
414.31	2.82
414.672	3.05
415.035	3.19
415.397	2.83
415.759	2.89
416.121	2.66
416.483	3.03
416.845	3.09
417.206	2.77
417.568	2.96
417.93	2.87
418.292	2.9
418.653	3.2
419.015	2.81
419.377	2.99
419.738	2.98
420.1	3.03
420.461	2.91
420.822	2.72
421.184	2.85
421.545	2.81
421.906	2.92
422.267	2.76
422.629	2.89
422.99	2.72
423.351	2.73
423.712	2.82
424.073	2.84
424.434	2.79
424.795	2.91
425.155	2.97
425.516	2.89
425.877	2.93
426.238	2.82
426.598	2.86
426.959	2.8
427.32	2.88
427.68	2.84
428.041	2.91
428.401	2.96
428.761	2.96
429.122	3.03
429.482	2.93
429.842	2.75
430.202	2.95
430.563	2.91
430.923	2.92
431.283	2.78
431.643	2.98
432.003	3.11
432.363	2.99
432.722	2.94
433.082	3.07
433.442	2.88
433.802	2.92
434.161	3.01
434.521	2.92
434.881	2.96
435.24	2.86
435.6	2.91
435.959	2.9
436.319	2.93
436.678	2.89
437.037	2.97
437.396	3.04
437.756	3.01
438.115	2.86
438.474	3.08
438.833	3.15
439.192	2.89
439.551	2.95
439.91	2.98
440.269	3.09
440.628	3.1
440.987	3.07
441.345	3.01
441.704	2.92
442.063	2.94
442.421	2.97
442.78	3.01
443.138	3.03
443.497	2.96
443.855	2.97
444.214	3.06
444.572	3.12
444.93	2.87
445.288	2.91
445.647	2.94
446.005	2.98
446.363	3.08
446.721	2.99
447.079	2.96
447.437	2.95
447.795	2.96
448.153	2.87
448.51	2.99
448.868	2.94
449.226	2.98
449.584	2.97
449.941	2.78
450.299	2.98
450.656	3.06
451.014	3.11
451.371	3.03
451.729	3.06
452.086	2.99
452.443	3.05
452.801	3.04
453.158	3.08
453.515	3.21
453.872	2.84
454.229	3.08
454.586	2.99
454.943	3.05
455.3	3.05
455.657	2.95
456.014	3.08
456.371	3.08
456.727	3.16
457.084	3.09
457.441	3.09
457.797	2.99
458.154	3.01
458.51	3.12
458.867	2.95
459.223	3.12
459.58	3.27
459.936	3.04
460.292	2.96
460.648	3.08
461.005	2.98
461.361	3.08
461.717	2.99
462.073	3.05
462.429	3.09
462.785	3.06
463.141	3.11
463.496	3.1
463.852	3.1
464.208	3.03
464.564	3.02
464.919	3.27
465.275	3.16
465.631	3.15
465.986	3.15
466.342	3.04
466.697	3.13
467.052	2.97
467.408	3.05
467.763	3.12
468.118	3.29
468.473	3.14
468.829	3.18
469.184	3.18
469.539	3.16
469.894	3.26
470.249	2.99
470.603	3.2
470.958	3.03
471.313	3.09
471.668	3.01
472.023	3.03
472.377	3.21
472.732	3.11
473.086	3.08
473.441	3.18
473.795	3.09
474.15	3.12
474.504	3.21
474.859	3.14
475.213	3.19
475.567	3.1
475.921	3.16
476.275	3.23
476.63	3.13
476.984	3.13
477.338	3.14
477.692	3.23
478.045	3.25
478.399	3.01
478.753	3.26
479.107	3.15
479.461	3.26
479.814	3.24
480.168	3.26
480.521	3.06
480.875	3.26
481.228	3.34
481.582	3.24
481.935	3.21
482.289	3.16
482.642	3.14
482.995	3.19
483.348	3.11
483.701	3.18
484.055	3.13
484.408	3.14
484.761	3.19
485.114	3.02
485.466	2.97
485.819	2.96
486.172	2.95
486.525	3
486.878	3.06
487.23	3.11
487.583	3.1
487.936	3.15
488.288	3.08
488.641	3.07
488.993	3.07
489.345	2.99
489.698	3.04
490.05	3.11
490.402	3.11
490.754	3.08
491.107	3.17
491.459	3.17
491.811	3.11
492.163	3.21
492.515	3.2
492.866	3.16
493.218	3.11
493.57	3.06
493.922	3.13
494.274	3.08
494.625	3.16
494.977	3.26
495.328	3.26
495.68	3.28
496.031	3.26
496.383	3.37
496.734	3.18
497.086	3.38
497.437	3.42
497.788	3.44
498.139	3.24
498.49	3.23
498.842	3.25
499.193	3.26
499.544	3.32
499.894	3.21
500.245	3.4
500.596	3.29
500.947	3.3
501.298	3.3
501.648	3.42
501.999	3.47
502.35	3.35
502.7	3.38
503.051	3.4
503.401	3.32
503.752	3.48
504.102	3.41
504.452	3.37
504.803	3.37
505.153	3.35
505.503	3.4
505.853	3.48
506.203	3.34
506.553	3.47
506.903	3.42
507.253	3.43
507.603	3.45
507.953	3.4
508.303	3.41
508.652	3.4
509.002	3.53
509.352	3.52
509.701	3.39
510.051	3.42
510.4	3.45
510.75	3.44
511.099	3.42
511.449	3.44
511.798	3.47
512.147	3.42
512.496	3.3
512.846	3.28
513.195	3.54
513.544	3.38
513.893	3.5
514.242	3.38
514.591	3.46
514.939	3.58
515.288	3.42
515.637	3.55
515.986	3.51
516.334	3.43
516.683	3.6
517.032	3.54
517.38	3.6
517.729	3.56
518.077	3.62
518.426	3.61
518.774	3.63
519.122	3.44
519.47	3.5
519.819	3.5
520.167	3.55
520.515	3.48
520.863	3.46
521.211	3.45
521.559	3.54
521.907	3.49
522.255	3.58
522.602	3.6
522.95	3.6
523.298	3.64
523.645	3.57
523.993	3.67
524.341	3.67
524.688	3.74
525.036	3.63
525.383	3.74
525.73	3.67
526.078	3.67
526.425	3.69
526.772	3.6
527.119	3.6
527.466	3.62
527.814	3.53
528.161	3.56
528.508	3.64
528.854	3.65
529.201	3.57
529.548	3.63
529.895	3.55
530.242	3.49
530.588	3.49
530.935	3.49
531.282	3.56
531.628	3.57
531.975	3.64
532.321	3.64
532.667	3.64
533.014	3.71
533.36	3.71
533.706	3.75
534.052	3.73
534.399	3.65
534.745	3.7
535.091	3.64
535.437	3.58
535.783	3.65
536.129	3.77
536.474	3.77
536.82	3.83
537.166	3.84
537.512	3.92
537.857	3.84
538.203	3.72
538.549	3.68
538.894	3.84
539.239	3.94
539.585	3.84
539.93	3.9
540.276	3.86
540.621	3.91
540.966	4.07
541.311	3.77
541.656	3.97
542.001	3.98
542.346	3.85
542.691	3.93
543.036	3.71
543.381	3.76
543.726	3.88
544.071	3.87
544.415	3.89
544.76	3.97
545.105	3.93
545.449	3.99
545.794	4
546.138	3.99
546.483	4.06
546.827	4.05
547.171	4.09
547.516	4.1
547.86	4.1
548.204	4.15
548.548	4
548.892	3.99
549.236	4.16
549.58	4.09
549.924	4.15
550.268	4.27
550.612	4.15
550.956	4.34
551.3	4.2
551.643	4.22
551.987	4.19
552.33	4.26
552.674	4.32
553.017	4.52
553.361	4.44
553.704	4.29
554.048	4.17
554.391	4.15
554.734	4.35
555.077	4.39
555.42	4.36
555.764	4.55
556.107	4.42
556.45	4.34
556.793	4.41
557.135	4.47
557.478	4.39
557.821	4.3
558.164	4.52
558.507	4.38
558.849	4.54
559.192	4.6
559.534	4.51
559.877	4.48
560.219	4.66
560.562	4.7
560.904	4.65
561.246	4.45
561.589	4.55
561.931	4.61
562.273	4.63
562.615	4.57
562.957	4.57
563.299	4.72
563.641	4.76
563.983	4.61
564.325	4.6
564.667	4.69
565.008	4.73
565.35	4.77
565.692	4.85
566.033	4.89
566.375	4.83
566.716	4.77
567.058	4.85
567.399	4.83
567.741	4.77
568.082	5.01
568.423	4.84
568.764	4.77
569.105	4.97
569.447	5.08
569.788	4.93
570.129	5.02
570.47	5.13
570.811	5.17
571.151	4.84
571.492	5.24
571.833	5.07
572.174	5.15
572.514	5.08
572.855	4.95
573.195	5.08
573.536	5.15
573.876	5.13
574.217	5.14
574.557	5.12
574.898	5.2
575.238	5.11
575.578	5.33
575.918	5.12
576.258	5.21
576.598	5.31
576.938	5.2
577.278	5.25
577.618	5.22
577.958	5.29
578.298	5.32
578.638	5.37
578.977	5.46
579.317	5.41
579.657	5.46
579.996	5.45
580.336	5.38
580.675	5.42
581.014	5.6
581.354	5.56
581.693	5.62
582.032	5.37
582.372	5.68
582.711	5.53
583.05	5.75
583.389	5.47
583.728	5.72
584.067	5.78
584.406	5.35
584.745	5.8
585.083	5.58
585.422	5.87
585.761	5.81
586.1	5.76
586.438	5.72
586.777	5.76
587.115	5.72
587.454	6.06
587.792	6.03
588.13	5.85
588.469	5.9
588.807	5.96
589.145	6.07
589.483	5.75
589.821	5.77
590.159	5.93
590.497	6.22
590.835	5.96
591.173	5.94
591.511	6.17
591.849	6.3
592.187	6.06
592.524	6.06
592.862	6.15
593.2	6.24
593.537	6.14
593.875	6.24
594.212	6.24
594.55	6.23
594.887	6.29
595.224	6.31
595.561	6.1
595.899	6.25
596.236	6.36
596.573	6.32
596.91	6.52
597.247	6.42
597.584	6.27
597.921	6.6
598.258	6.42
598.594	6.08
598.931	6.4
599.268	6.54
599.604	6.46
599.941	6.58
600.277	6.55
600.614	6.63
600.95	6.76
601.287	6.73
601.623	6.85
601.959	6.7
602.296	6.75
602.632	6.77
602.968	6.89
603.304	6.67
603.64	6.77
603.976	6.51
604.312	6.71
604.648	6.71
604.984	6.79
605.319	6.85
605.655	6.72
605.991	6.89
606.326	6.93
606.662	6.96
606.998	6.69
607.333	6.77
607.668	7.13
608.004	7
608.339	6.95
608.674	7.11
609.01	7.16
609.345	7.04
609.68	7.21
610.015	7.12
610.35	7.14
610.685	7.2
611.02	7.24
611.355	7.21
611.689	7.24
612.024	7.46
612.359	7.29
612.694	7.23
613.028	7.41
613.363	7.79
613.697	7.29
614.032	7.52
614.366	7.52
614.7	7.55
615.035	7.63
615.369	7.49
615.703	8.06
616.037	7.43
616.371	7.78
616.705	7.75
617.039	8.02
617.373	8.04
617.707	7.97
618.041	7.97
618.375	7.68
618.709	7.75
619.042	8.14
619.376	7.83
619.71	7.96
620.043	8.23
620.377	8.35
620.71	8.13
621.043	8.07
621.377	7.99
621.71	8.18
622.043	8.29
622.376	8.21
622.709	8.23
623.043	8.22
623.376	8.32
623.709	7.95
624.041	8.43
624.374	8.03
624.707	7.71
625.04	8.45
625.373	8.22
625.705	8.2
626.038	8.28
626.37	8.44
626.703	8.81
627.035	8.23
627.368	8.25
627.7	8.29
628.032	8.48
628.365	8.9
628.697	8.84
629.029	8.41
629.361	8.45
629.693	8.65
630.025	8.79
630.357	8.43
630.689	8.6
631.021	8.78
631.353	8.87
631.684	9.27
632.016	8.91
632.348	8.74
632.679	8.89
633.011	8.75
633.342	8.73
633.674	9.2
634.005	9.08
634.336	9.02
634.668	9.01
634.999	9.22
635.33	9.06
635.661	9.24
635.992	9.17
636.323	8.88
636.654	9.15
636.985	8.97
637.316	9.25
637.647	8.99
637.977	9.24
638.308	9.37
638.639	9.31
638.969	9.16
639.3	9.51
639.63	9.19
639.961	9.32
640.291	9.52
640.622	9.7
640.952	9.77
641.282	9.43
641.612	9.75
641.943	9.35
642.273	9.42
642.603	9.65
642.933	9.48
643.263	9.54
643.592	9.6
643.922	10.44
644.252	10.12
644.582	10.12
644.911	9.75
645.241	9.48
645.571	9.19
645.9	10.12
646.23	9.63
646.559	10.22
646.888	9.91
647.218	10.53
647.547	10.04
647.876	10.06
648.205	9.72
648.534	9.9
648.863	10.07
649.192	10.24
649.521	10.3
649.85	10.32
650.179	10.44
650.508	10.28
650.837	10.51
651.165	10.48
651.494	10.59
651.822	10.56
652.151	10.78
652.479	9.99
652.808	10.11
653.136	10.68
653.465	10.53
653.793	10.57
654.121	10.19
654.449	10.23
654.777	10.62
655.105	10.63
655.433	10.47
655.761	10.47
656.089	10.82
656.417	10.49
656.745	10.62
657.073	10.58
657.4	10.66
657.728	10.95
658.056	10.65
658.383	10.72
658.711	10.84
659.038	10.97
659.365	11.54
659.693	11.2
660.02	11.23
660.347	10.72
660.674	11.04
661.001	10.92
661.329	11.31
661.656	11.17
661.982	10.97
662.309	11.27
662.636	11.05
662.963	10.99
663.29	11.08
663.616	11.6
663.943	11.43
664.27	11.32
664.596	11.28
664.923	11.34
665.249	11.81
665.576	11.71
665.902	11.16
666.228	10.86
666.554	12.01
666.881	10.89
667.207	11.96
667.533	11.63
667.859	11.28
668.185	11.42
668.511	11.82
668.837	11.7
669.162	11.78
669.488	11.68
669.814	11.8
670.139	12.04
670.465	11.78
670.791	11.5
671.116	11.78
671.442	11.88
671.767	11.83
672.092	11.6
672.418	12.27
672.743	12.34
673.068	12.45
673.393	12.16
673.718	12.41
674.043	12.04
674.368	11.74
674.693	12.32
675.018	11.66
675.343	12.4
675.667	13.09
675.992	12.37
676.317	12.67
676.641	12.33
676.966	12.46
677.29	12.87
677.615	12.56
677.939	12.75
678.264	12.57
678.588	12.49
678.912	12.73
679.236	12.96
679.56	12.77
679.885	13
680.209	13.09
680.532	13.01
680.856	12.97
681.18	12.26
681.504	12.53
681.828	12.84
682.152	13.3
682.475	12.59
682.799	13.12
683.122	13.4
683.446	12.79
683.769	12.82
684.093	12.96
684.416	12.79
684.739	13
685.062	13.88
685.386	12.98
685.709	13.51
686.032	13.29
686.355	14.35
686.678	13.39
687.001	13.49
687.324	13.25
687.646	13.5
687.969	13.08
688.292	13.29
688.614	13.89
688.937	13.81
689.26	13.53
