Data from 0049_forehead_Reflection__3__209.txt Node

Date: Fri Nov 04 16:33:10 CDT 2022
User: ToomeyLab
Spectrometer: FLMS14357
Trigger mode: 0
Integration Time (sec): 1.000000E-2
Scans to average: 100
Electric dark correction enabled: true
Nonlinearity correction enabled: false
Boxcar width: 0
XAxis mode: Wavelengths
Number of Pixels in Spectrum: 2048
>>>>>Begin Spectral Data<<<<<
189.047	-55.27
189.435	-55.27
189.823	-55.27
190.211	-141.79
190.599	-135.86
190.987	-77.69
191.375	-2.46
191.763	-7.64
192.151	-1089.17
192.538	224.62
192.926	187.56
193.314	19.19
193.702	39.78
194.089	313.86
194.477	397.87
194.864	-84.79
195.252	542.49
195.639	420.69
196.027	71.29
196.414	-121.81
196.801	40.52
197.189	-54.69
197.576	80.3
197.963	373.24
198.351	17.99
198.738	23.62
199.125	38.87
199.512	-29.18
199.899	39.34
200.286	1.75
200.673	25.95
201.06	19.31
201.447	-31.86
201.833	1.7
202.22	6.87
202.607	55.46
202.994	62.96
203.38	78.11
203.767	43.91
204.154	45.63
204.54	-12.44
204.927	23.52
205.313	42.69
205.699	37.04
206.086	41.8
206.472	30.71
206.858	5.66
207.245	32.4
207.631	30.56
208.017	16.87
208.403	45.65
208.789	25.03
209.175	31.09
209.561	-26.09
209.947	-5.92
210.333	27.2
210.719	12.24
211.105	-15.15
211.491	-5.06
211.876	8.15
212.262	-24.48
212.648	26.23
213.034	20.21
213.419	4.1
213.805	1.58
214.19	-22.62
214.576	3.14
214.961	34.9
215.346	12.28
215.732	3.44
216.117	-23.56
216.502	6.29
216.888	-8.31
217.273	16.22
217.658	11.91
218.043	13.8
218.428	46.04
218.813	5.93
219.198	22.51
219.583	13.34
219.968	5.29
220.353	6.59
220.738	-6.65
221.122	9.61
221.507	26.02
221.892	7.59
222.276	11.11
222.661	11.4
223.046	3.42
223.43	8.9
223.815	4.24
224.199	14.71
224.583	16.86
224.968	-3
225.352	13.58
225.736	-2.32
226.121	-1.4
226.505	6.89
226.889	4.71
227.273	3.04
227.657	4.38
228.041	5.76
228.425	8.18
228.809	5.82
229.193	6.42
229.577	4.3
229.961	5.13
230.344	5.26
230.728	4.46
231.112	4.18
231.495	4.31
231.879	5.64
232.263	4.79
232.646	5.08
233.03	4.11
233.413	2.92
233.797	4.4
234.18	6.51
234.563	4.31
234.946	4.72
235.33	7.52
235.713	5.15
236.096	5.81
236.479	3.3
236.862	3.58
237.245	4.21
237.628	5.33
238.011	2.83
238.394	5.63
238.777	5.59
239.16	4.71
239.543	4.95
239.925	3.77
240.308	5.7
240.691	4.62
241.073	4.92
241.456	5.68
241.838	4.21
242.221	4.55
242.603	4.53
242.986	4.19
243.368	4.52
243.75	4.66
244.133	4.94
244.515	4.83
244.897	5.01
245.279	4.71
245.661	5.62
246.043	5.4
246.425	5.56
246.807	5.05
247.189	4.37
247.571	5.22
247.953	4.97
248.335	5.08
248.717	4.88
249.098	4.78
249.48	5.01
249.862	4.8
250.243	4.97
250.625	4.89
251.006	5.02
251.388	5.55
251.769	5.57
252.151	5.99
252.532	4.48
252.913	4.17
253.295	5.34
253.676	5.08
254.057	5.13
254.438	5.09
254.819	4.99
255.2	4.81
255.581	5.1
255.962	5.31
256.343	5.79
256.724	5.5
257.105	4.42
257.486	5.49
257.867	7.53
258.247	5.58
258.628	4.74
259.009	4.43
259.389	5.67
259.77	5.68
260.15	4.69
260.531	5.27
260.911	4.54
261.292	4.63
261.672	4.75
262.052	4.75
262.432	4.8
262.813	4.76
263.193	4.82
263.573	5.06
263.953	4.67
264.333	5.45
264.713	5.3
265.093	5.13
265.473	5.97
265.853	4.76
266.233	5.28
266.612	5.48
266.992	5.85
267.372	4.28
267.752	4.89
268.131	5.05
268.511	5.04
268.89	5.02
269.27	4.78
269.649	4.87
270.029	4.71
270.408	4.65
270.787	4.62
271.167	4.91
271.546	5.3
271.925	4.81
272.304	4.86
272.683	4.71
273.062	4.8
273.441	5
273.82	4.34
274.199	4.88
274.578	4.49
274.957	4.55
275.336	4.57
275.715	4.75
276.093	4.66
276.472	5.01
276.851	4.14
277.229	4.72
277.608	4.33
277.986	4.81
278.365	5.28
278.743	5.02
279.122	4.83
279.5	4.95
279.878	4.74
280.257	4.18
280.635	4.71
281.013	5.04
281.391	4.83
281.769	4.86
282.147	4.65
282.525	5.22
282.903	4.99
283.281	5.15
283.659	4.49
284.037	4.67
284.415	4.54
284.792	4.85
285.17	4.51
285.548	4.72
285.925	4.74
286.303	4.9
286.68	4.79
287.058	4.82
287.435	4.55
287.813	4.31
288.19	4.62
288.567	4.5
288.945	4.61
289.322	4.94
289.699	4.56
290.076	5.12
290.453	4.58
290.83	4.82
291.207	4.9
291.584	5.07
291.961	5.06
292.338	4.85
292.715	5.13
293.092	4.99
293.469	4.74
293.845	5.09
294.222	4.88
294.599	4.99
294.975	5.08
295.352	5.24
295.728	5.29
296.105	5.21
296.481	5.25
296.858	5.37
297.234	5.59
297.61	5.66
297.986	5.19
298.363	5.06
298.739	5.4
299.115	5.57
299.491	5.51
299.867	5.43
300.243	5.48
300.619	5.66
300.995	6
301.371	5.92
301.746	5.37
302.122	5.43
302.498	5.63
302.874	5.89
303.249	5.85
303.625	5.88
304	6.05
304.376	5.6
304.751	6.24
305.127	5.78
305.502	6.23
305.878	6.57
306.253	6.53
306.628	5.95
307.003	6.21
307.378	6.34
307.754	6.58
308.129	5.99
308.504	6.66
308.879	6.79
309.254	6.88
309.629	7.15
310.003	6.79
310.378	6.66
310.753	7.03
311.128	6.86
311.502	6.7
311.877	7.11
312.252	7.02
312.626	7.23
313.001	7.11
313.375	7.24
313.75	6.89
314.124	7.08
314.498	7.55
314.873	8.08
315.247	7.79
315.621	7.18
315.995	8.07
316.369	7.5
316.743	8.02
317.117	7.89
317.491	8.2
317.865	7.69
318.239	7.95
318.613	8.47
318.987	8.29
319.361	8.04
319.734	8.25
320.108	8.7
320.482	8.03
320.855	8.13
321.229	8.58
321.602	8.17
321.976	8.62
322.349	9.04
322.723	8.73
323.096	8.96
323.469	8.95
323.843	8.77
324.216	9.31
324.589	8.76
324.962	8.96
325.335	8.79
325.708	8.82
326.081	9.14
326.454	9.1
326.827	8.96
327.2	9.29
327.573	9.02
327.945	9.42
328.318	8.82
328.691	9.56
329.063	9.15
329.436	9.57
329.809	9.15
330.181	9.04
330.553	9.28
330.926	9.36
331.298	9.55
331.671	9.85
332.043	10.01
332.415	9.88
332.787	9.65
333.159	9.31
333.532	9.64
333.904	10.35
334.276	10.09
334.648	10.1
335.02	9.78
335.391	10.22
335.763	10.22
336.135	10.37
336.507	10.49
336.879	10.36
337.25	10.53
337.622	10.54
337.993	10.75
338.365	10.84
338.736	10.92
339.108	11.22
339.479	10.37
339.851	10.64
340.222	10.97
340.593	10.99
340.964	10.83
341.336	11.03
341.707	10.82
342.078	11.36
342.449	11.35
342.82	11.02
343.191	10.9
343.562	10.82
343.933	11.04
344.303	10.99
344.674	11.6
345.045	11.04
345.416	10.7
345.786	11.24
346.157	11.38
346.527	11.36
346.898	11.67
347.268	11.47
347.639	11.48
348.009	11.73
348.38	11.68
348.75	11.79
349.12	11.79
349.49	12.1
349.861	11.69
350.231	12.25
350.601	11.72
350.971	12.24
351.341	12.32
351.711	12.1
352.081	12
352.45	12.31
352.82	12.34
353.19	12.34
353.56	12.44
353.929	12.17
354.299	12.84
354.669	13.07
355.038	12.82
355.408	12.28
355.777	12.69
356.147	12.41
356.516	12.64
356.885	12.74
357.254	12.94
357.624	12.91
357.993	12.98
358.362	12.69
358.731	12.72
359.1	12.74
359.469	12.97
359.838	13.24
360.207	12.82
360.576	13.32
360.945	13.18
361.314	13.35
361.682	13.2
362.051	13.48
362.42	13.56
362.788	13.39
363.157	13.52
363.525	13.49
363.894	13.57
364.262	13.49
364.631	13.78
364.999	13.74
365.367	13.73
365.735	14.05
366.104	13.87
366.472	14.14
366.84	13.66
367.208	14.01
367.576	13.93
367.944	14.36
368.312	14.27
368.68	14.29
369.048	14.12
369.416	14.14
369.783	14.34
370.151	14.45
370.519	14.85
370.886	14.49
371.254	14.63
371.621	14.78
371.989	14.75
372.356	14.47
372.724	14.77
373.091	14.77
373.458	14.84
373.826	14.96
374.193	14.83
374.56	14.69
374.927	15.28
375.294	15.04
375.661	15.19
376.028	15.04
376.395	15.02
376.762	15.46
377.129	15.31
377.496	15.68
377.863	15.06
378.229	15.45
378.596	15.58
378.963	15.46
379.329	15.43
379.696	15.54
380.062	16.1
380.429	15.77
380.795	15.65
381.161	15.98
381.528	16.33
381.894	15.42
382.26	15.86
382.626	16.05
382.993	15.97
383.359	16.13
383.725	16.01
384.091	16.45
384.457	16.18
384.823	16.43
385.188	16.53
385.554	16.09
385.92	16.38
386.286	16.56
386.651	16.52
387.017	16.27
387.383	16.52
387.748	16.67
388.114	16.35
388.479	16.98
388.845	16.96
389.21	17.22
389.575	17.11
389.94	16.86
390.306	17
390.671	16.96
391.036	16.95
391.401	17.07
391.766	16.94
392.131	17.16
392.496	17.05
392.861	17.4
393.226	17.06
393.591	17.3
393.956	17.34
394.32	17.39
394.685	17.39
395.05	17.57
395.414	17.76
395.779	17.63
396.143	17.54
396.508	17.77
396.872	17.76
397.236	17.91
397.601	17.77
397.965	17.76
398.329	17.83
398.694	18.08
399.058	18.12
399.422	18.06
399.786	18.14
400.15	18.07
400.514	18.01
400.878	18.22
401.242	18.33
401.605	18.04
401.969	18.39
402.333	18.37
402.697	18.59
403.06	18.56
403.424	18.64
403.787	18.57
404.151	18.71
404.514	18.66
404.878	18.77
405.241	18.78
405.604	18.66
405.968	18.91
406.331	18.86
406.694	18.52
407.057	18.94
407.42	18.94
407.783	18.87
408.146	19.22
408.509	19.13
408.872	19.07
409.235	19.2
409.598	19.15
409.961	19.24
410.323	19.3
410.686	19.49
411.049	19.2
411.411	19.52
411.774	19.36
412.136	19.63
412.499	19.52
412.861	19.68
413.223	19.53
413.586	19.58
413.948	19.97
414.31	19.83
414.672	19.92
415.035	19.86
415.397	19.83
415.759	20.07
416.121	19.79
416.483	20.12
416.845	19.99
417.206	19.86
417.568	20.07
417.93	19.95
418.292	19.93
418.653	20.18
419.015	19.97
419.377	19.91
419.738	19.95
420.1	20.2
420.461	20.09
420.822	20.14
421.184	20.32
421.545	20.11
421.906	20.18
422.267	20.1
422.629	20.18
422.99	20.1
423.351	19.98
423.712	20.11
424.073	20.3
424.434	20.31
424.795	20.54
425.155	20.63
425.516	20.52
425.877	20.44
426.238	20.38
426.598	20.52
426.959	20.5
427.32	20.66
427.68	20.82
428.041	20.93
428.401	20.92
428.761	21.03
429.122	21.22
429.482	21.34
429.842	20.96
430.202	21.47
430.563	21.63
430.923	21.82
431.283	21.49
431.643	21.72
432.003	21.83
432.363	21.8
432.722	21.7
433.082	21.99
433.442	21.72
433.802	21.6
434.161	21.97
434.521	21.88
434.881	21.85
435.24	21.81
435.6	22.09
435.959	21.97
436.319	21.84
436.678	22.03
437.037	22.23
437.396	22.35
437.756	22.39
438.115	22.39
438.474	22.44
438.833	22.48
439.192	22.32
439.551	22.54
439.91	22.34
440.269	22.46
440.628	22.45
440.987	22.45
441.345	22.4
441.704	22.61
442.063	22.5
442.421	22.45
442.78	22.47
443.138	22.51
443.497	22.62
443.855	22.81
444.214	22.96
444.572	22.74
444.93	22.96
445.288	22.96
445.647	22.98
446.005	22.96
446.363	23.01
446.721	22.97
447.079	22.95
447.437	22.93
447.795	22.82
448.153	22.91
448.51	22.97
448.868	22.88
449.226	22.93
449.584	23.02
449.941	23.08
450.299	23.25
450.656	23.4
451.014	23.51
451.371	23.73
451.729	23.75
452.086	23.85
452.443	24.01
452.801	24.03
453.158	23.96
453.515	24.07
453.872	23.99
454.229	24.15
454.586	24.08
454.943	24.04
455.3	24.07
455.657	24.17
456.014	24.27
456.371	24.22
456.727	24.34
457.084	24.32
457.441	24.4
457.797	24.58
458.154	24.47
458.51	24.58
458.867	24.64
459.223	24.83
459.58	24.57
459.936	24.58
460.292	24.61
460.648	24.59
461.005	24.48
461.361	24.48
461.717	24.34
462.073	24.54
462.429	24.49
462.785	24.55
463.141	24.69
463.496	24.79
463.852	24.99
464.208	25.21
464.564	25.13
464.919	25.47
465.275	25.41
465.631	25.64
465.986	25.35
466.342	25.42
466.697	25.3
467.052	25.39
467.408	25.6
467.763	25.49
468.118	25.57
468.473	25.65
468.829	25.59
469.184	25.63
469.539	25.64
469.894	25.75
470.249	25.68
470.603	25.97
470.958	25.66
471.313	25.81
471.668	26
472.023	25.9
472.377	26.07
472.732	26
473.086	26.14
473.441	26.27
473.795	26.5
474.15	26.36
474.504	26.51
474.859	26.5
475.213	26.53
475.567	26.53
475.921	26.37
476.275	26.58
476.63	26.68
476.984	26.67
477.338	26.66
477.692	26.84
478.045	26.51
478.399	26.69
478.753	26.82
479.107	26.91
479.461	26.78
479.814	26.94
480.168	27.01
480.521	26.65
480.875	27.04
481.228	27.03
481.582	27.1
481.935	27.09
482.289	26.91
482.642	27.09
482.995	27.15
483.348	26.94
483.701	26.99
484.055	26.98
484.408	26.81
484.761	26.65
485.114	26.41
485.466	26.25
485.819	26.25
486.172	26.35
486.525	26.35
486.878	26.43
487.23	26.63
487.583	26.8
487.936	26.91
488.288	26.92
488.641	26.91
488.993	26.76
489.345	26.8
489.698	26.79
490.05	26.81
490.402	26.92
490.754	26.97
491.107	27.14
491.459	27.27
491.811	27.41
492.163	27.72
492.515	27.65
492.866	27.57
493.218	27.35
493.57	27.18
493.922	27.3
494.274	27.34
494.625	27.5
494.977	27.8
495.328	27.91
495.68	28.19
496.031	28.18
496.383	28.49
496.734	28.67
497.086	28.74
497.437	28.69
497.788	28.86
498.139	28.61
498.49	28.66
498.842	28.48
499.193	28.54
499.544	28.65
499.894	28.67
500.245	28.83
500.596	28.82
500.947	28.96
501.298	28.87
501.648	29.08
501.999	29.3
502.35	29.22
502.7	29.18
503.051	29.5
503.401	29.4
503.752	29.5
504.102	29.53
504.452	29.68
504.803	29.6
505.153	29.86
505.503	29.42
505.853	29.52
506.203	29.69
506.553	29.77
506.903	29.77
507.253	29.88
507.603	29.89
507.953	29.93
508.303	29.88
508.652	30.08
509.002	30.08
509.352	29.91
509.701	29.86
510.051	29.94
510.4	29.82
510.75	29.86
511.099	29.98
511.449	29.9
511.798	30.06
512.147	30.12
512.496	30.13
512.846	30.2
513.195	30.27
513.544	30.07
513.893	30.28
514.242	30.24
514.591	30.24
514.939	30.38
515.288	30.46
515.637	30.41
515.986	30.55
516.334	30.67
516.683	30.51
517.032	30.8
517.38	30.68
517.729	30.93
518.077	30.96
518.426	30.91
518.774	30.86
519.122	30.93
519.47	30.77
519.819	30.8
520.167	30.66
520.515	30.7
520.863	30.7
521.211	30.68
521.559	30.74
521.907	30.83
522.255	31.06
522.602	31.02
522.95	31.16
523.298	31.41
523.645	31.51
523.993	31.51
524.341	31.47
524.688	31.76
525.036	31.51
525.383	31.6
525.73	31.78
526.078	31.72
526.425	31.65
526.772	31.45
527.119	31.46
527.466	31.36
527.814	31.21
528.161	31.24
528.508	31.28
528.854	31.2
529.201	31.49
529.548	31.3
529.895	31.15
530.242	30.98
530.588	31.05
530.935	31.15
531.282	31.24
531.628	31.28
531.975	31.32
532.321	31.49
532.667	31.74
533.014	31.8
533.36	31.89
533.706	32.13
534.052	31.96
534.399	31.88
534.745	31.77
535.091	31.72
535.437	31.81
535.783	31.81
536.129	31.97
536.474	31.96
536.82	32.2
537.166	32.42
537.512	32.41
537.857	32.49
538.203	32.52
538.549	32.38
538.894	32.48
539.239	32.59
539.585	32.57
539.93	32.63
540.276	32.94
540.621	33.02
540.966	33.17
541.311	33.08
541.656	33.13
542.001	33.06
542.346	33.01
542.691	32.78
543.036	32.48
543.381	32.46
543.726	32.56
544.071	32.65
544.415	32.73
544.76	32.79
545.105	32.91
545.449	32.89
545.794	33.16
546.138	33.17
546.483	33.38
546.827	33.6
547.171	33.51
547.516	33.59
547.86	33.66
548.204	33.77
548.548	33.49
548.892	33.63
549.236	33.68
549.58	33.73
549.924	33.96
550.268	34.1
550.612	34.49
550.956	34.16
551.3	34.33
551.643	34.61
551.987	34.45
552.33	34.48
552.674	34.7
553.017	34.75
553.361	34.83
553.704	34.79
554.048	34.83
554.391	34.72
554.734	34.69
555.077	34.77
555.42	34.64
555.764	34.98
556.107	34.99
556.45	35.06
556.793	35.08
557.135	35.04
557.478	35.21
557.821	35.13
558.164	35.13
558.507	35.18
558.849	35.18
559.192	35.24
559.534	35.47
559.877	35.19
560.219	35.45
560.562	35.61
560.904	35.3
561.246	35.32
561.589	35.55
561.931	35.54
562.273	35.86
562.615	35.57
562.957	35.52
563.299	35.83
563.641	35.55
563.983	35.73
564.325	35.83
564.667	36.04
565.008	35.85
565.35	35.87
565.692	35.86
566.033	36.2
566.375	36.03
566.716	36.29
567.058	36.1
567.399	36.19
567.741	35.97
568.082	36.04
568.423	36.01
568.764	36.18
569.105	36.11
569.447	36.31
569.788	36.34
570.129	36.35
570.47	36.68
570.811	36.49
571.151	36.37
571.492	36.7
571.833	36.52
572.174	36.67
572.514	36.59
572.855	36.6
573.195	36.75
573.536	36.69
573.876	36.61
574.217	36.66
574.557	36.5
574.898	36.67
575.238	36.44
575.578	36.77
575.918	36.8
576.258	36.95
576.598	36.77
576.938	36.87
577.278	36.89
577.618	36.73
577.958	36.95
578.298	37.11
578.638	37.22
578.977	37.09
579.317	37.42
579.657	37.3
579.996	37.5
580.336	37.44
580.675	37.45
581.014	37.48
581.354	37.32
581.693	37.86
582.032	37.97
582.372	37.69
582.711	37.91
583.05	38.04
583.389	37.65
583.728	37.98
584.067	37.9
584.406	37.9
584.745	37.98
585.083	38.07
585.422	38.09
585.761	38.29
586.1	38.35
586.438	38.2
586.777	38.3
587.115	38.46
587.454	38.33
587.792	38.29
588.13	38.35
588.469	38.45
588.807	38.61
589.145	38.51
589.483	38.37
589.821	38.38
590.159	38.23
590.497	38.35
590.835	38.51
591.173	38.33
591.511	38.44
591.849	38.38
592.187	38.51
592.524	38.58
592.862	38.88
593.2	38.86
593.537	38.74
593.875	38.66
594.212	38.88
594.55	38.78
594.887	39.09
595.224	39.05
595.561	38.91
595.899	38.58
596.236	39.13
596.573	38.91
596.91	38.79
597.247	38.7
597.584	39.26
597.921	39.44
598.258	39.24
598.594	38.83
598.931	39.19
599.268	38.77
599.604	38.97
599.941	39.12
600.277	39.32
600.614	39.26
600.95	38.99
601.287	39.51
601.623	39.33
601.959	39.3
602.296	39.9
602.632	39.52
602.968	39.81
603.304	39.84
603.64	39.78
603.976	39.49
604.312	39.42
604.648	39.81
604.984	39.81
605.319	39.55
605.655	39.8
605.991	39.68
606.326	39.6
606.662	39.38
606.998	39.59
607.333	39.67
607.668	39.86
608.004	39.61
608.339	39.85
608.674	40.07
609.01	40
609.345	39.81
609.68	39.88
610.015	40
610.35	40.01
610.685	40.42
611.02	40.08
611.355	40.08
611.689	40.38
612.024	40.27
612.359	40.1
612.694	40.22
613.028	40.49
613.363	40.78
613.697	40.36
614.032	40.67
614.366	40.84
614.7	40.59
615.035	40.79
615.369	40.59
615.703	41.08
616.037	40.98
616.371	41.08
616.705	40.96
617.039	41.05
617.373	41.23
617.707	41.42
618.041	41.51
618.375	40.94
618.709	41.29
619.042	41.27
619.376	41.27
619.71	41.39
620.043	41.48
620.377	41.33
620.71	41.58
621.043	40.98
621.377	41.54
621.71	41.61
622.043	41.73
622.376	41.19
622.709	41.62
623.043	41.29
623.376	41.61
623.709	41.49
624.041	41.28
624.374	42
624.707	41.8
625.04	42.08
625.373	41.95
625.705	41.74
626.038	42.19
626.37	41.79
626.703	41.97
627.035	42.33
627.368	41.83
627.7	41.48
628.032	41.75
628.365	42.46
628.697	41.78
629.029	42
629.361	42.29
629.693	41.99
630.025	42.12
630.357	42.04
630.689	41.96
631.021	42.12
631.353	42.06
631.684	42.37
632.016	42.49
632.348	42.27
632.679	42.12
633.011	42.57
633.342	42.2
633.674	42.15
634.005	42.44
634.336	42.76
634.668	42.35
634.999	42.65
635.33	42.97
635.661	42.65
635.992	42.63
636.323	42.4
636.654	42.8
636.985	42.92
637.316	43.11
637.647	42.71
637.977	42.93
638.308	43.09
638.639	42.92
638.969	42.45
639.3	42.91
639.63	42.91
639.961	43.11
640.291	43.34
640.622	43.47
640.952	43.16
641.282	43.33
641.612	43.62
641.943	42.78
642.273	43.25
642.603	43.51
642.933	43.43
643.263	42.96
643.592	43.36
643.922	43.4
644.252	43.72
644.582	43.68
644.911	43.54
645.241	43.47
645.571	43.65
645.9	43.34
646.23	43.21
646.559	43.88
646.888	43.21
647.218	43.51
647.547	43.75
647.876	43.25
648.205	43.29
648.534	43.74
648.863	43.78
649.192	44.4
649.521	44.45
649.85	43.8
650.179	44.18
650.508	44.11
650.837	44.34
651.165	43.9
651.494	43.63
651.822	43.73
652.151	44.13
652.479	43.99
652.808	43.9
653.136	44.35
653.465	44.33
653.793	43.86
654.121	43.97
654.449	43.73
654.777	43.73
655.105	44.31
655.433	44.36
655.761	43.77
656.089	44.39
656.417	44.21
656.745	43.97
657.073	44.63
657.4	44.61
657.728	44.51
658.056	44.72
658.383	44.59
658.711	44.58
659.038	44.46
659.365	44.93
659.693	44.49
660.02	44.75
660.347	44.29
660.674	44.87
661.001	45.07
661.329	44.8
661.656	44.88
661.982	43.99
662.309	44.84
662.636	44.72
662.963	44.32
663.29	44.45
663.616	44.53
663.943	45.06
664.27	45.7
664.596	44.67
664.923	44.54
665.249	44.95
665.576	45.14
665.902	44.88
666.228	45.36
666.554	45.38
666.881	44.67
667.207	45.15
667.533	45.45
667.859	45
668.185	45.25
668.511	45.4
668.837	45.07
669.162	45.28
669.488	45.3
669.814	45.24
670.139	45.23
