Data from 0049_crown_Reflection__1__202.txt Node

Date: Fri Nov 04 16:31:04 CDT 2022
User: ToomeyLab
Spectrometer: FLMS14357
Trigger mode: 0
Integration Time (sec): 1.000000E-2
Scans to average: 100
Electric dark correction enabled: true
Nonlinearity correction enabled: false
Boxcar width: 0
XAxis mode: Wavelengths
Number of Pixels in Spectrum: 2048
>>>>>Begin Spectral Data<<<<<
189.047	-104.41
189.435	-104.41
189.823	-104.41
190.211	-32.88
190.599	-28.12
190.987	-22.98
191.375	-27.83
191.763	9.37
192.151	633.76
192.538	189.79
192.926	147.39
193.314	-150.75
193.702	61.34
194.089	379.11
194.477	207.04
194.864	428.16
195.252	175.28
195.639	77.78
196.027	109.71
196.414	-15.99
196.801	121.02
197.189	758.78
197.576	150.78
197.963	-372.51
198.351	-42.04
198.738	-0.9
199.125	4
199.512	-57.78
199.899	7.4
200.286	-33.2
200.673	-3.91
201.06	-57.55
201.447	-17.92
201.833	29.8
202.22	-16.24
202.607	-3.59
202.994	38.26
203.38	15.84
203.767	-29.19
204.154	15.5
204.54	11.31
204.927	35.61
205.313	38.69
205.699	34.15
206.086	21.89
206.472	7.81
206.858	-6.85
207.245	0.36
207.631	-4.31
208.017	11.41
208.403	8.91
208.789	27.91
209.175	0.72
209.561	-25.54
209.947	-26.35
210.333	2.79
210.719	9.69
211.105	-25.09
211.491	12.61
211.876	-4.81
212.262	-5.86
212.648	-5.28
213.034	26.08
213.419	-11.32
213.805	-18.08
214.19	-25.75
214.576	-1.45
214.961	4.94
215.346	-1.19
215.732	-13.38
216.117	-38.14
216.502	-18.68
216.888	1.6
217.273	3.66
217.658	-1.7
218.043	-2.14
218.428	29.53
218.813	6.57
219.198	-0.48
219.583	-33.28
219.968	28.41
220.353	-9.04
220.738	-30.13
221.122	13.85
221.507	-1.79
221.892	-8.01
222.276	-12.05
222.661	2.63
223.046	-8.5
223.43	5.92
223.815	-14.91
224.199	4.38
224.583	-2.45
224.968	-3.1
225.352	10.11
225.736	-0.84
226.121	-8.48
226.505	5.92
226.889	0.69
227.273	4.37
227.657	1.48
228.041	7.31
228.425	4.41
228.809	5.01
229.193	6.27
229.577	4.33
229.961	6.9
230.344	6.7
230.728	6.5
231.112	6.82
231.495	6.74
231.879	7.24
232.263	6.75
232.646	6.45
233.03	6.09
233.413	3.85
233.797	5.68
234.18	5.68
234.563	7.38
234.946	5.91
235.33	8.28
235.713	6.31
236.096	5.48
236.479	6.9
236.862	6.05
237.245	5.06
237.628	5.3
238.011	4.84
238.394	6.42
238.777	5.43
239.16	5.7
239.543	5.01
239.925	6.28
240.308	7.35
240.691	5.98
241.073	5.53
241.456	6.94
241.838	5.53
242.221	6.39
242.603	5.72
242.986	6.02
243.368	6.28
243.75	6.03
244.133	6.5
244.515	6.37
244.897	6.48
245.279	6.56
245.661	6.31
246.043	6.3
246.425	6.5
246.807	7.36
247.189	6.16
247.571	6.53
247.953	6.28
248.335	5.98
248.717	6.15
249.098	6.19
249.48	6.2
249.862	6.37
250.243	6.23
250.625	6.01
251.006	5.87
251.388	5.95
251.769	6.2
252.151	7.15
252.532	6.52
252.913	5.41
253.295	6.62
253.676	5.91
254.057	5.6
254.438	5.63
254.819	5.43
255.2	5.43
255.581	6.54
255.962	7.21
256.343	4.25
256.724	5.71
257.105	4.99
257.486	5.81
257.867	6.75
258.247	6.29
258.628	5.55
259.009	5.15
259.389	5.48
259.77	6.09
260.15	5.83
260.531	5.76
260.911	5.67
261.292	5.58
261.672	5.59
262.052	5.45
262.432	5.79
262.813	5.3
263.193	4.9
263.573	5.36
263.953	5.66
264.333	5.95
264.713	5.74
265.093	5.53
265.473	6.04
265.853	4.35
266.233	5.57
266.612	5.88
266.992	5.94
267.372	5.23
267.752	5.24
268.131	5.8
268.511	5.73
268.89	5.71
269.27	5.11
269.649	5.49
270.029	5.19
270.408	5.69
270.787	5.54
271.167	5.45
271.546	5.91
271.925	5.19
272.304	5.04
272.683	5.26
273.062	5.17
273.441	5.61
273.82	5.11
274.199	5.52
274.578	5.21
274.957	5.31
275.336	5.12
275.715	5.18
276.093	5.73
276.472	5.44
276.851	4.54
277.229	5.45
277.608	5.05
277.986	4.91
278.365	5.35
278.743	5.58
279.122	5.08
279.5	5.05
279.878	5.38
280.257	5.22
280.635	4.98
281.013	4.95
281.391	5.4
281.769	5.09
282.147	4.73
282.525	5.15
282.903	5.24
283.281	5.38
283.659	5.04
284.037	4.54
284.415	5.14
284.792	5.23
285.17	4.82
285.548	5.22
285.925	5.33
286.303	5.32
286.68	5.2
287.058	5.27
287.435	4.94
287.813	4.85
288.19	5.06
288.567	4.93
288.945	4.73
289.322	5.03
289.699	5.1
290.076	5.15
290.453	4.69
290.83	4.58
291.207	4.84
291.584	5.1
291.961	5.07
292.338	5
292.715	4.82
293.092	4.8
293.469	4.68
293.845	4.59
294.222	4.78
294.599	4.22
294.975	4.66
295.352	5.02
295.728	5.1
296.105	5.08
296.481	4.67
296.858	4.61
297.234	4.9
297.61	5.15
297.986	4.37
298.363	4.3
298.739	4.57
299.115	4.64
299.491	4.34
299.867	4.62
300.243	4.71
300.619	4.87
300.995	4.88
301.371	4.72
301.746	4.65
302.122	4.74
302.498	4.71
302.874	4.56
303.249	4.71
303.625	4.42
304	4.65
304.376	4.55
304.751	4.66
305.127	4.01
305.502	4.34
305.878	4.56
306.253	4.73
306.628	4.47
307.003	4.64
307.378	4.63
307.754	4.9
308.129	4.38
308.504	4.67
308.879	4.34
309.254	5.11
309.629	4.57
310.003	4.73
310.378	4.56
310.753	4.71
311.128	4.38
311.502	4.29
311.877	4.52
312.252	4.3
312.626	4.45
313.001	4.6
313.375	4.53
313.75	4.31
314.124	4.19
314.498	4.79
314.873	4.6
315.247	4.58
315.621	4.89
315.995	4.69
316.369	4.6
316.743	4.96
317.117	4.45
317.491	4.9
317.865	4.5
318.239	4.47
318.613	4.41
318.987	4.57
319.361	4.35
319.734	4.85
320.108	4.21
320.482	3.85
320.855	4.57
321.229	4.65
321.602	4.49
321.976	4.27
322.349	5.27
322.723	4.64
323.096	4.22
323.469	4.16
323.843	4.3
324.216	4.75
324.589	4.46
324.962	4.55
325.335	4.47
325.708	4.21
326.081	4.32
326.454	4.25
326.827	4.68
327.2	4.69
327.573	4.65
327.945	4.57
328.318	3.97
328.691	4.42
329.063	4.56
329.436	4.56
329.809	4.22
330.181	4.46
330.553	4.4
330.926	4.34
331.298	4.71
331.671	4.45
332.043	4.09
332.415	4.09
332.787	4.37
333.159	4.07
333.532	3.91
333.904	4.86
334.276	4.53
334.648	4.55
335.02	4.4
335.391	4.16
335.763	4.04
336.135	4.58
336.507	4.07
336.879	4.32
337.25	4.49
337.622	4.82
337.993	4.42
338.365	3.93
338.736	4.6
339.108	4.77
339.479	4.92
339.851	4.2
340.222	4.36
340.593	4.9
340.964	4.44
341.336	4.33
341.707	4.2
342.078	4.46
342.449	4.47
342.82	4.38
343.191	4.23
343.562	4.39
343.933	4.9
344.303	4.77
344.674	4.31
345.045	4.38
345.416	4.32
345.786	4.67
346.157	4.45
346.527	4.21
346.898	4.52
347.268	4.35
347.639	4.5
348.009	4.73
348.38	4.31
348.75	4.36
349.12	4.31
349.49	4.65
349.861	4.13
350.231	4.7
350.601	4.73
350.971	4.23
351.341	4.46
351.711	4.53
352.081	4.47
352.45	4.57
352.82	4.59
353.19	4.49
353.56	4.4
353.929	4.56
354.299	4.9
354.669	5.13
355.038	4.69
355.408	4.41
355.777	4.76
356.147	4.22
356.516	4.52
356.885	4.67
357.254	4.87
357.624	4.55
357.993	4.62
358.362	4.43
358.731	4.97
359.1	4.55
359.469	4.79
359.838	4.79
360.207	4.51
360.576	4.62
360.945	4.85
361.314	5
361.682	4.45
362.051	4.74
362.42	4.65
362.788	4.55
363.157	4.57
363.525	4.8
363.894	4.72
364.262	4.94
364.631	4.94
364.999	4.77
365.367	4.46
365.735	5.11
366.104	4.63
366.472	4.91
366.84	4.48
367.208	4.82
367.576	4.53
367.944	4.7
368.312	4.76
368.68	4.61
369.048	4.8
369.416	4.81
369.783	4.73
370.151	4.68
370.519	5.24
370.886	4.65
371.254	5.06
371.621	5.02
371.989	4.67
372.356	4.54
372.724	5.18
373.091	5
373.458	4.78
373.826	5.2
374.193	4.42
374.56	4.35
374.927	5.15
375.294	4.52
375.661	5.11
376.028	4.87
376.395	4.98
376.762	5.27
377.129	4.79
377.496	5.35
377.863	4.83
378.229	4.9
378.596	4.75
378.963	4.85
379.329	4.8
379.696	4.85
380.062	5.25
380.429	4.93
380.795	4.84
381.161	5.02
381.528	5.14
381.894	4.79
382.26	5.1
382.626	4.64
382.993	5.21
383.359	4.96
383.725	4.84
384.091	4.93
384.457	4.85
384.823	5.16
385.188	5.21
385.554	4.86
385.92	4.76
386.286	4.88
386.651	5.18
387.017	4.77
387.383	5.05
387.748	4.89
388.114	4.85
388.479	5.52
388.845	5.09
389.21	5.42
389.575	5.15
389.94	5.05
390.306	5.27
390.671	5.13
391.036	4.87
391.401	5.2
391.766	4.88
392.131	4.85
392.496	5.12
392.861	5.12
393.226	4.96
393.591	5.09
393.956	5.17
394.32	5.07
394.685	5.05
395.05	5.42
395.414	5.02
395.779	5.21
396.143	5.09
396.508	5.31
396.872	5.03
397.236	5.12
397.601	5.11
397.965	4.96
398.329	5.26
398.694	5.37
399.058	5.2
399.422	5.18
399.786	5.03
400.15	5.01
400.514	4.87
400.878	5.03
401.242	5.3
401.605	5.03
401.969	5.19
402.333	5.46
402.697	5.19
403.06	5.19
403.424	5.13
403.787	5.3
404.151	5.37
404.514	5.36
404.878	5.29
405.241	5.08
405.604	5.35
405.968	5.16
406.331	5.1
406.694	4.94
407.057	5.15
407.42	5.17
407.783	5.15
408.146	5.29
408.509	5.27
408.872	5.12
409.235	5.39
409.598	5.31
409.961	5.37
410.323	5.27
410.686	5.26
411.049	5.33
411.411	5.21
411.774	5.27
412.136	5.33
412.499	5.38
412.861	5.37
413.223	5.39
413.586	5.32
413.948	5.42
414.31	5.33
414.672	5.37
415.035	5.6
415.397	5.29
415.759	5.63
416.121	5.33
416.483	5.22
416.845	5.33
417.206	5.28
417.568	5.48
417.93	5.25
418.292	5.27
418.653	5.36
419.015	5.26
419.377	5.3
419.738	5.27
420.1	5.4
420.461	5.29
420.822	5.22
421.184	5.35
421.545	5.21
421.906	5.29
422.267	5.16
422.629	5.32
422.99	5.19
423.351	5.13
423.712	5.27
424.073	5.45
424.434	5.15
424.795	5.39
425.155	5.26
425.516	5.36
425.877	5.23
426.238	5.28
426.598	5.3
426.959	5.28
427.32	5.39
427.68	5.32
428.041	5.28
428.401	5.31
428.761	5.43
429.122	5.36
429.482	5.46
429.842	5.2
430.202	5.34
430.563	5.5
430.923	5.63
431.283	5.44
431.643	5.4
432.003	5.69
432.363	5.46
432.722	5.33
433.082	5.48
433.442	5.38
433.802	5.25
434.161	5.47
434.521	5.5
434.881	5.44
435.24	5.31
435.6	5.51
435.959	5.34
436.319	5.38
436.678	5.42
437.037	5.34
437.396	5.54
437.756	5.5
438.115	5.35
438.474	5.5
438.833	5.57
439.192	5.35
439.551	5.51
439.91	5.52
440.269	5.51
440.628	5.56
440.987	5.42
441.345	5.44
441.704	5.37
442.063	5.33
442.421	5.53
442.78	5.49
443.138	5.4
443.497	5.41
443.855	5.49
444.214	5.48
444.572	5.37
444.93	5.41
445.288	5.39
445.647	5.37
446.005	5.43
446.363	5.39
446.721	5.35
447.079	5.41
447.437	5.27
447.795	5.34
448.153	5.34
448.51	5.45
448.868	5.34
449.226	5.34
449.584	5.4
449.941	5.42
450.299	5.51
450.656	5.41
451.014	5.55
451.371	5.51
451.729	5.53
452.086	5.45
452.443	5.45
452.801	5.46
453.158	5.45
453.515	5.51
453.872	5.36
454.229	5.59
454.586	5.42
454.943	5.65
455.3	5.46
455.657	5.44
456.014	5.53
456.371	5.39
456.727	5.57
457.084	5.63
457.441	5.52
457.797	5.49
458.154	5.53
458.51	5.54
458.867	5.45
459.223	5.57
459.58	5.72
459.936	5.52
460.292	5.52
460.648	5.69
461.005	5.4
461.361	5.49
461.717	5.44
462.073	5.53
462.429	5.47
462.785	5.54
463.141	5.52
463.496	5.49
463.852	5.6
464.208	5.57
464.564	5.46
464.919	5.49
465.275	5.76
465.631	5.58
465.986	5.67
466.342	5.53
466.697	5.56
467.052	5.53
467.408	5.54
467.763	5.54
468.118	5.77
468.473	5.5
468.829	5.55
469.184	5.63
469.539	5.41
469.894	5.63
470.249	5.61
470.603	5.65
470.958	5.63
471.313	5.44
471.668	5.4
472.023	5.51
472.377	5.51
472.732	5.47
473.086	5.5
473.441	5.56
473.795	5.63
474.15	5.66
474.504	5.66
474.859	5.6
475.213	5.64
475.567	5.52
475.921	5.59
476.275	5.53
476.63	5.46
476.984	5.56
477.338	5.53
477.692	5.67
478.045	5.55
478.399	5.48
478.753	5.65
479.107	5.54
479.461	5.79
479.814	5.56
480.168	5.57
480.521	5.45
480.875	5.53
481.228	5.62
481.582	5.57
481.935	5.53
482.289	5.55
482.642	5.6
482.995	5.53
483.348	5.55
483.701	5.54
484.055	5.5
484.408	5.51
484.761	5.48
485.114	5.41
485.466	5.33
485.819	5.3
486.172	5.3
486.525	5.27
486.878	5.3
487.23	5.38
487.583	5.32
487.936	5.4
488.288	5.42
488.641	5.41
488.993	5.41
489.345	5.37
489.698	5.35
490.05	5.37
490.402	5.37
490.754	5.45
491.107	5.37
491.459	5.45
491.811	5.35
492.163	5.54
492.515	5.63
492.866	5.44
493.218	5.43
493.57	5.38
493.922	5.43
494.274	5.34
494.625	5.42
494.977	5.5
495.328	5.56
495.68	5.44
496.031	5.54
496.383	5.51
496.734	5.55
497.086	5.73
497.437	5.63
497.788	5.69
498.139	5.53
498.49	5.49
498.842	5.59
499.193	5.59
499.544	5.57
499.894	5.58
500.245	5.6
500.596	5.58
500.947	5.54
501.298	5.44
501.648	5.58
501.999	5.72
502.35	5.6
502.7	5.55
503.051	5.6
503.401	5.63
503.752	5.67
504.102	5.54
504.452	5.64
504.803	5.47
505.153	5.58
505.503	5.62
505.853	5.64
506.203	5.63
506.553	5.6
506.903	5.63
507.253	5.64
507.603	5.59
507.953	5.59
508.303	5.57
508.652	5.58
509.002	5.63
509.352	5.66
509.701	5.59
510.051	5.63
510.4	5.57
510.75	5.69
511.099	5.64
511.449	5.5
511.798	5.53
512.147	5.61
512.496	5.55
512.846	5.5
513.195	5.58
513.544	5.41
513.893	5.57
514.242	5.59
514.591	5.53
514.939	5.62
515.288	5.57
515.637	5.55
515.986	5.59
516.334	5.6
516.683	5.6
517.032	5.57
517.38	5.65
517.729	5.64
518.077	5.61
518.426	5.55
518.774	5.59
519.122	5.49
519.47	5.61
519.819	5.51
520.167	5.53
520.515	5.51
520.863	5.52
521.211	5.49
521.559	5.54
521.907	5.55
522.255	5.59
522.602	5.59
522.95	5.58
523.298	5.56
523.645	5.65
523.993	5.71
524.341	5.55
524.688	5.63
525.036	5.52
525.383	5.64
525.73	5.64
526.078	5.63
526.425	5.62
526.772	5.43
527.119	5.53
527.466	5.48
527.814	5.47
528.161	5.46
528.508	5.5
528.854	5.48
529.201	5.43
529.548	5.39
529.895	5.4
530.242	5.39
530.588	5.32
530.935	5.35
531.282	5.36
531.628	5.3
531.975	5.36
532.321	5.4
532.667	5.4
533.014	5.5
533.36	5.51
533.706	5.5
534.052	5.48
534.399	5.45
534.745	5.45
535.091	5.42
535.437	5.42
535.783	5.41
536.129	5.49
536.474	5.49
536.82	5.38
537.166	5.45
537.512	5.48
537.857	5.41
538.203	5.45
538.549	5.43
538.894	5.45
539.239	5.56
539.585	5.47
539.93	5.49
540.276	5.43
540.621	5.45
540.966	5.63
541.311	5.52
541.656	5.55
542.001	5.57
542.346	5.47
542.691	5.46
543.036	5.34
543.381	5.37
543.726	5.38
544.071	5.32
544.415	5.36
544.76	5.39
545.105	5.43
545.449	5.44
545.794	5.41
546.138	5.43
546.483	5.44
546.827	5.36
547.171	5.51
547.516	5.56
547.86	5.48
548.204	5.55
548.548	5.49
548.892	5.54
549.236	5.49
549.58	5.49
549.924	5.5
550.268	5.55
550.612	5.35
550.956	5.5
551.3	5.53
551.643	5.57
551.987	5.39
552.33	5.48
552.674	5.46
553.017	5.64
553.361	5.67
553.704	5.58
554.048	5.56
554.391	5.5
554.734	5.57
555.077	5.57
555.42	5.57
555.764	5.72
556.107	5.66
556.45	5.57
556.793	5.45
557.135	5.57
557.478	5.45
557.821	5.51
558.164	5.63
558.507	5.52
558.849	5.58
559.192	5.64
559.534	5.47
559.877	5.78
560.219	5.58
560.562	5.56
560.904	5.71
561.246	5.48
561.589	5.6
561.931	5.56
562.273	5.58
562.615	5.5
562.957	5.59
563.299	5.48
563.641	5.59
563.983	5.55
564.325	5.41
564.667	5.33
565.008	5.43
565.35	5.48
565.692	5.59
566.033	5.63
566.375	5.6
566.716	5.58
567.058	5.45
567.399	5.57
567.741	5.49
568.082	5.66
568.423	5.51
568.764	5.44
569.105	5.6
569.447	5.59
569.788	5.64
570.129	5.54
570.47	5.59
570.811	5.66
571.151	5.48
571.492	5.66
571.833	5.43
572.174	5.69
572.514	5.5
572.855	5.35
573.195	5.46
573.536	5.5
573.876	5.36
574.217	5.54
574.557	5.51
574.898	5.56
575.238	5.37
575.578	5.55
575.918	5.44
576.258	5.4
576.598	5.49
576.938	5.63
577.278	5.48
577.618	5.31
577.958	5.47
578.298	5.57
578.638	5.38
578.977	5.59
579.317	5.47
579.657	5.35
579.996	5.36
580.336	5.52
580.675	5.26
581.014	5.64
581.354	5.46
581.693	5.75
582.032	5.49
582.372	5.51
582.711	5.52
583.05	5.62
583.389	5.29
583.728	5.28
584.067	5.65
584.406	5.45
584.745	5.6
585.083	5.43
585.422	5.61
585.761	5.56
586.1	5.4
586.438	5.32
586.777	5.39
587.115	5.39
587.454	5.49
587.792	5.81
588.13	5.39
588.469	5.68
588.807	5.42
589.145	5.47
589.483	5.3
589.821	5.47
590.159	5.42
590.497	5.71
590.835	5.57
591.173	5.31
591.511	5.39
591.849	5.51
592.187	5.33
592.524	5.58
592.862	5.38
593.2	5.24
593.537	5.31
593.875	5.51
594.212	5.28
594.55	5.21
594.887	5.5
595.224	5.56
595.561	5.05
595.899	5.37
596.236	5.42
596.573	5.48
596.91	5.44
597.247	5.37
597.584	5.09
597.921	5.55
598.258	5.3
598.594	5.2
598.931	5.47
599.268	5.54
599.604	5.42
599.941	5.55
600.277	5.16
600.614	5.51
600.95	5.51
601.287	5.21
601.623	5.5
601.959	5.42
602.296	5.47
602.632	5.38
602.968	5.53
603.304	5.41
603.64	5.45
603.976	5.05
604.312	5.37
604.648	5.1
604.984	5.37
605.319	5.28
605.655	5.15
605.991	5.39
606.326	5.3
606.662	5.34
606.998	5.32
607.333	5.32
607.668	5.43
608.004	5.19
608.339	5.27
608.674	5.53
609.01	5.5
609.345	5.36
609.68	5.46
610.015	5.4
610.35	5.54
610.685	5.24
611.02	5.23
611.355	5.38
611.689	5.53
612.024	5.33
612.359	5.2
612.694	5.33
613.028	5.5
613.363	5.59
613.697	5.26
614.032	5.31
614.366	5.28
614.7	5.43
615.035	5.19
615.369	5.22
615.703	5.52
616.037	5.38
616.371	5.69
616.705	5.62
617.039	5.76
617.373	5.49
617.707	5.41
618.041	5.48
618.375	5.03
618.709	5.36
619.042	5.51
619.376	5.71
619.71	5.08
620.043	5.74
620.377	5.6
620.71	5.33
621.043	5.25
621.377	5.63
621.71	5.45
622.043	5.56
622.376	5.56
622.709	5.27
623.043	5.53
623.376	5.62
623.709	5.51
624.041	5.51
624.374	5.29
624.707	4.99
625.04	5.34
625.373	5.67
625.705	5.39
626.038	5.32
626.37	5.88
626.703	5.41
627.035	5.14
627.368	5.38
627.7	5.2
628.032	5.29
628.365	5.83
628.697	5.16
629.029	5.26
629.361	5.34
629.693	5.4
630.025	5.46
630.357	5.11
630.689	5.21
631.021	5.44
631.353	5.34
631.684	5.37
632.016	5.45
632.348	5.55
632.679	5.15
633.011	5.38
633.342	5.54
633.674	5.06
634.005	5.35
634.336	5.41
634.668	5.52
634.999	5.64
635.33	5.09
635.661	5.48
635.992	5.45
636.323	5.17
636.654	5.07
636.985	5.43
637.316	5.18
637.647	5.25
637.977	5.37
638.308	5.82
638.639	5.44
638.969	5.17
639.3	5.81
639.63	5.33
639.961	5.46
640.291	5.38
640.622	5.57
640.952	5.63
641.282	5.24
641.612	5.27
641.943	5.18
642.273	5.1
642.603	5.48
642.933	5
643.263	4.89
643.592	5.14
643.922	5.69
644.252	5.47
644.582	5.47
644.911	5.74
645.241	5.3
645.571	5.54
645.9	5.38
646.23	5.19
646.559	5.51
646.888	5.23
647.218	5.83
647.547	5.47
647.876	5.96
648.205	5.12
648.534	5.65
648.863	5.54
649.192	5.6
649.521	5.26
649.85	5.79
650.179	5.47
650.508	5.28
650.837	5.44
651.165	5.48
651.494	5.46
651.822	5.59
652.151	5.37
652.479	5.38
652.808	5.33
653.136	5.51
653.465	5.4
653.793	5.49
654.121	5.27
654.449	5.1
654.777	5.2
655.105	5.59
655.433	5.42
655.761	5.27
656.089	5.62
656.417	5.31
656.745	4.98
657.073	5.16
657.4	5.32
657.728	5.47
658.056	4.96
658.383	5.45
658.711	5.01
659.038	5.18
659.365	5.85
659.693	5.72
660.02	5.75
660.347	5.15
660.674	5.53
661.001	5.57
661.329	5.29
661.656	5.54
661.982	5.09
662.309	5.58
662.636	5.61
662.963	4.87
663.29	5.09
663.616	5.74
663.943	5.65
664.27	5.73
664.596	5.64
664.923	5.4
665.249	6.12
665.576	5.51
665.902	4.73
666.228	5.02
666.554	5.74
666.881	5.25
667.207	5.41
667.533	5.16
667.859	5.86
668.185	5.62
668.511	5.49
668.837	5.31
669.162	5.52
669.488	5.01
669.814	5.42
670.139	5.27
670.465	5.77
670.791	5.33
671.116	4.8
671.442	5.12
671.767	5.44
672.092	5.61
672.418	5.3
672.743	5.59
673.068	5.27
673.393	5.5
673.718	5.41
674.043	5.18
674.368	4.91
674.693	5.38
675.018	5.13
675.343	5.14
675.667	5.14
675.992	5.13
676.317	5.7
676.641	5.32
676.966	5.22
677.29	5.68
677.615	5.46
677.939	5.94
678.264	5.8
678.588	5.13
678.912	6.25
679.236	5.71
679.56	5.37
679.885	5.38
680.209	5.51
680.532	5.63
680.856	5.6
681.18	5.16
681.504	5.48
681.828	5.32
682.152	5.99
682.475	5.41
682.799	5.97
683.122	5.62
683.446	5.58
683.769	5.35
684.093	5.62
684.416	4.89
684.739	5.09
685.062	6.33
685.386	5.22
685.709	5.65
686.032	5.96
686.355	6.53
686.678	5.74
687.001	5.45
687.324	5.73
687.646	5.84
687.969	5.69
688.292	5.47
688.614	5.91
688.937	5.75
689.26	5.5
689.582	6.04
689.904	6.03
690.227	5.17
690.549	5.68
690.871	5.36
691.194	6
691.516	5.49
691.838	5.63
692.16	6.08
692.482	4.99
