Data from 0049_forehead_Reflection__1__207.txt Node

Date: Fri Nov 04 16:32:36 CDT 2022
User: ToomeyLab
Spectrometer: FLMS14357
Trigger mode: 0
Integration Time (sec): 1.000000E-2
Scans to average: 100
Electric dark correction enabled: true
Nonlinearity correction enabled: false
Boxcar width: 0
XAxis mode: Wavelengths
Number of Pixels in Spectrum: 2048
>>>>>Begin Spectral Data<<<<<
189.047	76.19
189.435	76.19
189.823	76.19
190.211	32.39
190.599	-5.46
190.987	50.54
191.375	-47.25
191.763	57.02
192.151	-505.41
192.538	176.99
192.926	43.05
193.314	-29.94
193.702	70.4
194.089	292.51
194.477	185.61
194.864	-344.82
195.252	313
195.639	-150.77
196.027	30.4
196.414	-228.51
196.801	58.05
197.189	-157.35
197.576	384.46
197.963	25.67
198.351	-18.68
198.738	22.99
199.125	30.69
199.512	20.32
199.899	-11.07
200.286	-15.43
200.673	-2.77
201.06	-21.47
201.447	24.97
201.833	16.07
202.22	10.78
202.607	22.32
202.994	34.48
203.38	36.35
203.767	20.79
204.154	45.08
204.54	-35.4
204.927	46.67
205.313	29.48
205.699	77.51
206.086	-16.71
206.472	27.99
206.858	11.4
207.245	13.23
207.631	0.62
208.017	22.72
208.403	30.01
208.789	37.41
209.175	32.98
209.561	-40.28
209.947	-29.93
210.333	19.77
210.719	10.71
211.105	-20.4
211.491	12.75
211.876	58.86
212.262	-2.7
212.648	15.31
213.034	15.02
213.419	-10.36
213.805	-30.86
214.19	-6.47
214.576	-13.9
214.961	27.78
215.346	-9.41
215.732	18.56
216.117	-16.75
216.502	63.73
216.888	-34.87
217.273	-8.39
217.658	23.04
218.043	4.24
218.428	28.96
218.813	17.86
219.198	-1.79
219.583	-23.57
219.968	4.21
220.353	-16.89
220.738	-8.27
221.122	15.02
221.507	3.55
221.892	-25.62
222.276	1.4
222.661	12.79
223.046	8.07
223.43	3.72
223.815	-2.02
224.199	2.67
224.583	3.44
224.968	0.45
225.352	5.75
225.736	-6.77
226.121	-16.57
226.505	6.78
226.889	5.6
227.273	2.46
227.657	3.36
228.041	5.24
228.425	4.34
228.809	2.87
229.193	3.66
229.577	0.37
229.961	2.97
230.344	2.55
230.728	2.19
231.112	1.41
231.495	1.21
231.879	1.8
232.263	1.18
232.646	1.27
233.03	0.43
233.413	0.74
233.797	0.73
234.18	1.36
234.563	1.16
234.946	0.39
235.33	4.84
235.713	2.42
236.096	2.54
236.479	0.81
236.862	1.52
237.245	-0.15
237.628	2.13
238.011	-0.53
238.394	1.11
238.777	3.34
239.16	1.31
239.543	0.34
239.925	3.85
240.308	3
240.691	2.33
241.073	1.03
241.456	2.85
241.838	1.71
242.221	1.42
242.603	1.58
242.986	1.16
243.368	1.87
243.75	1.66
244.133	1.71
244.515	1.55
244.897	1.54
245.279	1.99
245.661	1.84
246.043	2.6
246.425	1.45
246.807	2.61
247.189	1.98
247.571	2.29
247.953	1.6
248.335	1.81
248.717	1.88
249.098	1.74
249.48	1.83
249.862	2.04
250.243	1.98
250.625	1.41
251.006	1.77
251.388	1.56
251.769	1.97
252.151	2.07
252.532	1.95
252.913	1.6
253.295	1.86
253.676	2.02
254.057	1.6
254.438	1.45
254.819	1.94
255.2	1.36
255.581	2.33
255.962	1.84
256.343	1.2
256.724	2.2
257.105	0.63
257.486	2.54
257.867	3.19
258.247	1.99
258.628	1.82
259.009	2.02
259.389	2.43
259.77	2.1
260.15	2.07
260.531	2.11
260.911	1.69
261.292	1.81
261.672	1.73
262.052	1.8
262.432	2.05
262.813	1.81
263.193	1.23
263.573	2.04
263.953	1.96
264.333	2.16
264.713	2.58
265.093	1.61
265.473	2.34
265.853	1.59
266.233	1.66
266.612	2
266.992	2.48
267.372	1.1
267.752	2.09
268.131	2.24
268.511	1.73
268.89	2.29
269.27	1.94
269.649	2.23
270.029	1.78
270.408	1.91
270.787	1.76
271.167	2
271.546	2.21
271.925	1.85
272.304	1.77
272.683	1.62
273.062	2.03
273.441	2.24
273.82	1.53
274.199	1.79
274.578	1.67
274.957	1.57
275.336	1.42
275.715	1.54
276.093	1.92
276.472	1.65
276.851	1.2
277.229	1.34
277.608	2.09
277.986	2.22
278.365	2.44
278.743	1.89
279.122	2.03
279.5	1.93
279.878	1.72
280.257	1.88
280.635	1.4
281.013	1.9
281.391	2.35
281.769	1.93
282.147	1.71
282.525	1.78
282.903	1.73
283.281	2.45
283.659	1.38
284.037	1.83
284.415	1.85
284.792	2.01
285.17	1.7
285.548	2.21
285.925	1.78
286.303	2.39
286.68	2.08
287.058	2.01
287.435	1.98
287.813	1.39
288.19	1.83
288.567	1.62
288.945	1.96
289.322	2.21
289.699	2.11
290.076	1.79
290.453	1.62
290.83	1.55
291.207	2.26
291.584	2.08
291.961	2.06
292.338	2.03
292.715	2.25
293.092	2.54
293.469	2.56
293.845	2.04
294.222	1.78
294.599	1.88
294.975	2
295.352	2.39
295.728	2.8
296.105	2.56
296.481	2.26
296.858	2.57
297.234	2.74
297.61	2.44
297.986	2.12
298.363	2.09
298.739	2.38
299.115	2.59
299.491	2.5
299.867	2.6
300.243	2.42
300.619	2.63
300.995	2.81
301.371	3.03
301.746	2.5
302.122	3.01
302.498	2.98
302.874	2.94
303.249	2.69
303.625	2.65
304	2.75
304.376	2.53
304.751	3.28
305.127	2.23
305.502	2.82
305.878	3.01
306.253	2.99
306.628	2.68
307.003	2.73
307.378	2.9
307.754	3.42
308.129	2.57
308.504	3.11
308.879	3.59
309.254	3.61
309.629	3.44
310.003	3.74
310.378	3.43
310.753	3.72
311.128	3.26
311.502	3.57
311.877	3.48
312.252	3.57
312.626	3.78
313.001	3.44
313.375	3.58
313.75	3.79
314.124	3.63
314.498	3.76
314.873	4.08
315.247	3.78
315.621	4.19
315.995	4.14
316.369	3.77
316.743	4.5
317.117	4.58
317.491	4.11
317.865	3.93
318.239	4.13
318.613	5.23
318.987	4.41
319.361	4.75
319.734	4.85
320.108	4.37
320.482	3.73
320.855	4.13
321.229	4.55
321.602	4.37
321.976	4.61
322.349	5.39
322.723	4.54
323.096	4.77
323.469	4.79
323.843	4.95
324.216	4.8
324.589	4.82
324.962	5.52
325.335	5.24
325.708	4.93
326.081	4.83
326.454	5.34
326.827	5.54
327.2	5.34
327.573	5.09
327.945	5.59
328.318	4.7
328.691	5.01
329.063	5.25
329.436	5.67
329.809	5.09
330.181	5.94
330.553	5.51
330.926	6.18
331.298	6.03
331.671	5.8
332.043	6.32
332.415	5.38
332.787	5.89
333.159	5.59
333.532	5.75
333.904	6.1
334.276	6.06
334.648	6.19
335.02	5.94
335.391	6.03
335.763	6.21
336.135	6.17
336.507	6.55
336.879	6.09
337.25	6.67
337.622	6.53
337.993	6.29
338.365	6.17
338.736	6.69
339.108	6.91
339.479	6.74
339.851	6.5
340.222	6.68
340.593	6.8
340.964	6.52
341.336	6.42
341.707	6.48
342.078	6.83
342.449	6.57
342.82	6.89
343.191	6.53
343.562	6.82
343.933	6.86
344.303	6.79
344.674	6.91
345.045	7.04
345.416	7.03
345.786	7.22
346.157	7.25
346.527	6.97
346.898	7.33
347.268	7.1
347.639	7.1
348.009	7.43
348.38	7.49
348.75	7.19
349.12	7.11
349.49	7.54
349.861	7.25
350.231	7.59
350.601	7.56
350.971	6.97
351.341	7.79
351.711	7.47
352.081	7.67
352.45	7.69
352.82	7.96
353.19	7.71
353.56	7.74
353.929	7.67
354.299	8.19
354.669	8.2
355.038	8
355.408	7.6
355.777	7.91
356.147	8.14
356.516	7.89
356.885	8.07
357.254	8.23
357.624	8.25
357.993	8.17
358.362	7.9
358.731	8.51
359.1	8.25
359.469	7.98
359.838	8.57
360.207	8.33
360.576	8.76
360.945	8.93
361.314	8.66
361.682	8.31
362.051	8.37
362.42	8.63
362.788	8.59
363.157	8.7
363.525	8.61
363.894	8.76
364.262	8.63
364.631	8.9
364.999	9.26
365.367	8.7
365.735	9.05
366.104	8.96
366.472	9.02
366.84	8.84
367.208	9.11
367.576	8.97
367.944	9.01
368.312	9.16
368.68	9.08
369.048	9.33
369.416	9.21
369.783	8.98
370.151	9.31
370.519	9.81
370.886	9.47
371.254	9.75
371.621	9.65
371.989	9.18
372.356	9.71
372.724	9.62
373.091	9.63
373.458	9.54
373.826	9.82
374.193	9.56
374.56	9.56
374.927	10.17
375.294	9.21
375.661	9.81
376.028	9.86
376.395	9.97
376.762	10.04
377.129	10
377.496	10.23
377.863	9.98
378.229	10.17
378.596	10.11
378.963	10.17
379.329	9.86
379.696	9.99
380.062	10.5
380.429	10.32
380.795	10.45
381.161	10.41
381.528	10.25
381.894	10.18
382.26	10.45
382.626	10.32
382.993	10.6
383.359	10.5
383.725	10.57
384.091	10.63
384.457	10.96
384.823	10.68
385.188	11.1
385.554	10.74
385.92	10.82
386.286	10.88
386.651	10.94
387.017	11.16
387.383	10.85
387.748	10.7
388.114	10.83
388.479	11.55
388.845	11.22
389.21	11.35
389.575	11.56
389.94	11.2
390.306	11.4
390.671	11.44
391.036	11.22
391.401	11.59
391.766	11.26
392.131	11.12
392.496	11.44
392.861	11.4
393.226	11.26
393.591	11.53
393.956	11.52
394.32	11.4
394.685	11.61
395.05	11.96
395.414	11.75
395.779	11.64
396.143	11.66
396.508	11.77
396.872	11.68
397.236	12
397.601	11.87
397.965	11.83
398.329	11.99
398.694	12.23
399.058	11.97
399.422	11.99
399.786	11.94
400.15	12.2
400.514	12.12
400.878	12.08
401.242	12.19
401.605	11.94
401.969	12.22
402.333	12.42
402.697	12.45
403.06	12.69
403.424	12.37
403.787	12.38
404.151	12.47
404.514	12.58
404.878	12.5
405.241	12.56
405.604	12.6
405.968	12.5
406.331	12.53
406.694	12.37
407.057	12.7
407.42	12.89
407.783	12.61
408.146	13.01
408.509	12.78
408.872	12.88
409.235	12.9
409.598	12.97
409.961	13.24
410.323	12.95
410.686	13.14
411.049	13.28
411.411	13.1
411.774	13.12
412.136	13.28
412.499	13.27
412.861	13.34
413.223	13.36
413.586	13.23
413.948	13.58
414.31	13.48
414.672	13.41
415.035	13.54
415.397	13.56
415.759	13.57
416.121	13.53
416.483	13.6
416.845	13.52
417.206	13.51
417.568	13.55
417.93	13.55
418.292	13.59
418.653	13.61
419.015	13.45
419.377	13.65
419.738	13.44
420.1	13.74
420.461	13.59
420.822	13.61
421.184	13.8
421.545	13.46
421.906	13.64
422.267	13.62
422.629	13.72
422.99	13.65
423.351	13.59
423.712	13.62
424.073	13.81
424.434	13.63
424.795	13.87
425.155	13.95
425.516	13.93
425.877	13.97
426.238	13.89
426.598	13.94
426.959	13.82
427.32	14.03
427.68	14.1
428.041	14.18
428.401	14.37
428.761	14.43
429.122	14.48
429.482	14.54
429.842	14.34
430.202	14.81
430.563	14.66
430.923	14.85
431.283	14.75
431.643	14.95
432.003	14.99
432.363	14.73
432.722	14.94
433.082	14.81
433.442	14.91
433.802	14.89
434.161	14.94
434.521	14.86
434.881	15.02
435.24	14.9
435.6	15.01
435.959	15.05
436.319	15.11
436.678	15.1
437.037	15.12
437.396	15.15
437.756	15.14
438.115	15.06
438.474	15.25
438.833	15.38
439.192	15.3
439.551	15.41
439.91	15.43
440.269	15.31
440.628	15.38
440.987	15.37
441.345	15.33
441.704	15.41
442.063	15.4
442.421	15.45
442.78	15.3
443.138	15.45
443.497	15.43
443.855	15.52
444.214	15.77
444.572	15.86
444.93	15.8
445.288	15.79
445.647	15.77
446.005	15.79
446.363	15.82
446.721	15.77
447.079	15.69
447.437	15.75
447.795	15.68
448.153	15.62
448.51	15.68
448.868	15.71
449.226	15.69
449.584	15.85
449.941	16.01
450.299	16
450.656	16.16
451.014	16.36
451.371	16.38
451.729	16.5
452.086	16.33
452.443	16.52
452.801	16.52
453.158	16.47
453.515	16.63
453.872	16.59
454.229	16.57
454.586	16.64
454.943	16.55
455.3	16.66
455.657	16.62
456.014	16.69
456.371	16.89
456.727	17.06
457.084	17
457.441	16.92
457.797	16.97
458.154	17.19
458.51	17.15
458.867	16.88
459.223	17.06
459.58	17.17
459.936	16.94
460.292	17
460.648	17.1
461.005	16.94
461.361	16.93
461.717	16.8
462.073	16.78
462.429	16.88
462.785	17.1
463.141	17.15
463.496	17.25
463.852	17.39
464.208	17.62
464.564	17.45
464.919	17.64
465.275	17.51
465.631	17.84
465.986	17.84
466.342	17.55
466.697	17.54
467.052	17.65
467.408	17.62
467.763	17.73
468.118	17.84
468.473	18.07
468.829	17.76
469.184	17.87
469.539	17.85
469.894	18.01
470.249	17.83
470.603	18.01
470.958	18.04
471.313	18.01
471.668	18.09
472.023	17.95
472.377	18.31
472.732	18.25
473.086	18.13
473.441	18.19
473.795	18.44
474.15	18.37
474.504	18.47
474.859	18.39
475.213	18.45
475.567	18.4
475.921	18.41
476.275	18.6
476.63	18.53
476.984	18.47
477.338	18.61
477.692	18.71
478.045	18.57
478.399	18.71
478.753	18.66
479.107	18.62
479.461	18.85
479.814	18.79
480.168	18.69
480.521	18.65
480.875	18.81
481.228	18.9
481.582	18.9
481.935	18.89
482.289	18.95
482.642	18.99
482.995	18.91
483.348	18.86
483.701	18.79
484.055	18.75
484.408	18.74
484.761	18.61
485.114	18.3
485.466	18.07
485.819	17.97
486.172	18.05
486.525	18.11
486.878	18.43
487.23	18.58
487.583	18.68
487.936	18.87
488.288	18.82
488.641	18.68
488.993	18.53
489.345	18.47
489.698	18.47
490.05	18.59
490.402	18.61
490.754	18.8
491.107	19.07
491.459	19.19
491.811	19.21
492.163	19.47
492.515	19.42
492.866	19.27
493.218	18.99
493.57	18.87
493.922	18.9
494.274	18.94
494.625	19.26
494.977	19.51
495.328	19.68
495.68	19.73
496.031	19.95
496.383	20.15
496.734	20.14
497.086	20.21
497.437	20.2
497.788	20.33
498.139	20.08
498.49	20
498.842	19.97
499.193	19.93
499.544	20.15
499.894	20.08
500.245	20.29
500.596	20.21
500.947	20.3
501.298	20.3
501.648	20.59
501.999	20.73
502.35	20.55
502.7	20.49
503.051	20.83
503.401	20.61
503.752	20.84
504.102	20.89
504.452	20.83
504.803	20.84
505.153	20.99
505.503	20.87
505.853	20.96
506.203	20.9
506.553	20.96
506.903	21.05
507.253	21.03
507.603	21.05
507.953	21.06
508.303	21.05
508.652	21.35
509.002	21.31
509.352	21.28
509.701	21.06
510.051	21.19
510.4	21.07
510.75	20.97
511.099	21.01
511.449	21.15
511.798	21.07
512.147	21.2
512.496	21.12
512.846	21.15
513.195	21.31
513.544	21.22
513.893	21.46
514.242	21.3
514.591	21.37
514.939	21.53
515.288	21.61
515.637	21.56
515.986	21.49
516.334	21.78
516.683	21.75
517.032	21.86
517.38	21.92
517.729	21.9
518.077	21.81
518.426	21.85
518.774	21.94
519.122	21.87
519.47	21.79
519.819	21.76
520.167	21.64
520.515	21.44
520.863	21.65
521.211	21.56
521.559	21.75
521.907	21.8
522.255	22.04
522.602	21.96
522.95	22.01
523.298	22.28
523.645	22.27
523.993	22.28
524.341	22.27
524.688	22.43
525.036	22.34
525.383	22.45
525.73	22.42
526.078	22.43
526.425	22.36
526.772	22.17
527.119	22.1
527.466	22.2
527.814	22.03
528.161	21.97
528.508	22.14
528.854	22.18
529.201	22.18
529.548	22.18
529.895	21.89
530.242	21.69
530.588	21.63
530.935	21.66
531.282	21.94
531.628	21.98
531.975	22.19
532.321	22.26
532.667	22.45
533.014	22.56
533.36	22.69
533.706	22.69
534.052	22.66
534.399	22.71
534.745	22.52
535.091	22.37
535.437	22.28
535.783	22.36
536.129	22.54
536.474	22.73
536.82	22.93
537.166	23.08
537.512	23.19
537.857	23.18
538.203	23.06
538.549	22.93
538.894	22.95
539.239	23.09
539.585	23.14
539.93	23.33
540.276	23.49
540.621	23.6
540.966	23.67
541.311	23.71
541.656	23.68
542.001	23.6
542.346	23.43
542.691	23.24
543.036	22.9
543.381	22.84
543.726	22.91
544.071	23
544.415	23.22
544.76	23.34
545.105	23.29
545.449	23.5
545.794	23.47
546.138	23.68
546.483	23.89
546.827	24.02
547.171	23.92
547.516	23.91
547.86	23.89
548.204	23.89
548.548	23.91
548.892	23.89
549.236	23.88
549.58	24.06
549.924	24.26
550.268	24.42
550.612	24.52
550.956	24.56
551.3	24.84
551.643	25.02
551.987	24.67
552.33	24.82
552.674	24.87
553.017	24.96
553.361	25.14
553.704	24.86
554.048	24.83
554.391	24.82
554.734	24.87
555.077	24.79
555.42	24.92
555.764	25.18
556.107	25.08
556.45	25.27
556.793	25.29
557.135	25.31
557.478	25.15
557.821	25.25
558.164	25.43
558.507	25.4
558.849	25.5
559.192	25.44
559.534	25.43
559.877	25.41
560.219	25.37
560.562	25.57
560.904	25.54
561.246	25.5
561.589	25.63
561.931	25.67
562.273	25.61
562.615	25.54
562.957	25.58
563.299	25.57
563.641	25.76
563.983	25.57
564.325	25.84
564.667	25.94
565.008	25.91
565.35	25.86
565.692	25.94
566.033	26.11
566.375	26.12
566.716	25.97
567.058	25.89
567.399	25.94
567.741	25.9
568.082	25.92
568.423	25.74
568.764	25.84
569.105	25.98
569.447	26.01
569.788	26.12
570.129	26.33
570.47	26.27
570.811	26.46
571.151	26.42
571.492	26.46
571.833	26.37
572.174	26.5
572.514	26.47
572.855	26.38
573.195	26.5
573.536	26.29
573.876	26.29
574.217	26.26
574.557	26.3
574.898	26.27
575.238	26.55
575.578	26.59
575.918	26.66
576.258	26.56
576.598	26.53
576.938	26.49
577.278	26.59
577.618	26.63
577.958	26.68
578.298	26.71
578.638	26.71
578.977	26.78
579.317	26.98
579.657	26.89
579.996	26.97
580.336	27.14
580.675	27.08
581.014	27.19
581.354	27.03
581.693	27.35
582.032	27.35
582.372	27.56
582.711	27.24
583.05	27.76
583.389	27.18
583.728	27.41
584.067	27.51
584.406	27.42
584.745	27.52
585.083	27.48
585.422	27.7
585.761	27.57
586.1	27.78
586.438	27.69
586.777	27.92
587.115	27.73
587.454	27.95
587.792	28.09
588.13	27.87
588.469	27.93
588.807	27.88
589.145	27.75
589.483	27.88
589.821	27.83
590.159	27.92
590.497	28.09
590.835	28.03
591.173	27.78
591.511	28.13
591.849	27.81
592.187	27.87
592.524	28.32
592.862	28.32
593.2	28.13
593.537	27.99
593.875	28.3
594.212	28.25
594.55	28.29
594.887	28.3
595.224	28.46
595.561	28.27
595.899	28.27
596.236	28.53
596.573	28.35
596.91	28.25
597.247	28.14
597.584	28.41
597.921	28.51
598.258	28.48
598.594	27.86
598.931	28.33
599.268	28.35
599.604	28.32
599.941	28.4
600.277	28.6
600.614	28.71
600.95	28.64
601.287	28.49
601.623	28.56
601.959	28.47
602.296	29.14
602.632	28.9
602.968	28.84
603.304	29.05
603.64	28.86
603.976	28.76
604.312	28.93
604.648	28.95
604.984	28.73
605.319	28.96
605.655	28.85
605.991	28.98
606.326	28.84
606.662	28.65
606.998	28.51
607.333	28.63
607.668	28.67
608.004	28.98
608.339	29.06
608.674	29.23
609.01	29.63
609.345	29.26
609.68	29.2
610.015	29.4
610.35	29.45
610.685	29.44
611.02	29.29
611.355	29.1
611.689	29.04
612.024	29.23
612.359	29.33
612.694	29.45
613.028	29.72
613.363	29.71
613.697	29.82
614.032	29.5
614.366	29.91
614.7	29.73
615.035	30
615.369	29.7
615.703	29.9
616.037	29.98
616.371	29.79
616.705	29.89
617.039	30.14
617.373	30.05
617.707	30.16
618.041	30.5
618.375	30.23
618.709	29.95
619.042	30.2
619.376	30.12
619.71	30.46
620.043	30.13
620.377	30.17
620.71	30.27
621.043	30.08
621.377	30.34
621.71	30.54
622.043	30.68
622.376	30.08
622.709	30.32
623.043	30.55
623.376	30.67
623.709	30.53
624.041	30.46
624.374	30.53
624.707	30.23
625.04	30.77
625.373	30.73
625.705	30.56
626.038	30.7
626.37	30.65
626.703	30.63
627.035	30.74
627.368	30.54
627.7	30.29
628.032	30.31
628.365	30.64
628.697	30.5
629.029	30.64
629.361	30.63
629.693	30.62
630.025	30.77
630.357	30.68
630.689	30.84
631.021	30.78
631.353	30.7
631.684	31.05
632.016	30.67
632.348	30.74
632.679	31.19
633.011	31.35
633.342	31.07
633.674	31.1
634.005	31.36
634.336	31.3
634.668	31.14
634.999	31.58
635.33	30.86
635.661	31.19
635.992	30.9
636.323	30.95
636.654	31.17
636.985	31.25
637.316	30.87
637.647	30.6
637.977	31.78
638.308	31.77
638.639	31.58
638.969	31.34
639.3	31.68
639.63	31.39
639.961	31.64
640.291	31.68
640.622	31.41
640.952	31.28
641.282	31.72
641.612	32.16
641.943	31.94
642.273	31.6
642.603	32.01
642.933	31.79
643.263	31.43
643.592	31.43
643.922	32.05
644.252	32.06
644.582	32.05
644.911	32.21
645.241	32.05
645.571	31.86
645.9	31.29
646.23	32.06
646.559	32.18
646.888	31.93
647.218	32.31
647.547	32.21
647.876	32.33
648.205	32.09
648.534	32.13
648.863	32.4
649.192	32.44
649.521	32.48
649.85	32.57
650.179	32.27
650.508	32.4
650.837	32.27
651.165	32.19
651.494	32.22
651.822	32.36
652.151	32.47
652.479	31.96
652.808	32.11
653.136	32.54
653.465	32.52
653.793	32.66
654.121	32.26
654.449	31.74
654.777	31.95
655.105	32.46
655.433	31.99
655.761	32.33
656.089	32.58
656.417	32.31
656.745	32.57
657.073	32.35
657.4	32.89
657.728	33.01
658.056	32.48
658.383	32.71
658.711	32.92
659.038	32.74
659.365	32.96
659.693	32.86
660.02	33.09
660.347	32.28
660.674	32.64
661.001	32.99
661.329	32.75
661.656	32.62
661.982	32.48
662.309	32.96
662.636	33.04
662.963	32.79
663.29	32.98
663.616	33.3
663.943	33.6
664.27	33.48
664.596	33.42
664.923	33.12
665.249	33.8
665.576	32.93
665.902	33.33
666.228	33.11
666.554	33.76
666.881	33.7
667.207	34.24
667.533	33.38
667.859	33.03
668.185	33.13
668.511	33.53
668.837	33.51
669.162	33.25
669.488	33.83
669.814	33.29
670.139	33.6
670.465	33.66
670.791	33.38
671.116	33.5
671.442	33.68
671.767	33.84
672.092	33.43
672.418	33.75
672.743	34.48
