Data from 0049_forehead_Reflection__0__206.txt Node

Date: Fri Nov 04 16:32:23 CDT 2022
User: ToomeyLab
Spectrometer: FLMS14357
Trigger mode: 0
Integration Time (sec): 1.000000E-2
Scans to average: 100
Electric dark correction enabled: true
Nonlinearity correction enabled: false
Boxcar width: 0
XAxis mode: Wavelengths
Number of Pixels in Spectrum: 2048
>>>>>Begin Spectral Data<<<<<
189.047	-62.3
189.435	-62.3
189.823	-62.3
190.211	70.84
190.599	84.9
190.987	130.17
191.375	-128.41
191.763	0.91
192.151	-759.24
192.538	-311.05
192.926	46.84
193.314	17.13
193.702	88.27
194.089	309.06
194.477	-29
194.864	-217.48
195.252	743.13
195.639	637.55
196.027	-15.53
196.414	67.21
196.801	73.14
197.189	512.65
197.576	299.53
197.963	585.89
198.351	-60.22
198.738	9.71
199.125	-6.21
199.512	-49.04
199.899	-22.21
200.286	-29.24
200.673	3.46
201.06	-50.11
201.447	-28.15
201.833	11.31
202.22	-7.3
202.607	-15.96
202.994	60.7
203.38	20.45
203.767	-9.24
204.154	29.02
204.54	-2.51
204.927	-1.55
205.313	-0.19
205.699	40.91
206.086	19.58
206.472	7.97
206.858	-6.14
207.245	22.51
207.631	5.22
208.017	-4.9
208.403	-4.18
208.789	18.84
209.175	-12.9
209.561	-79.48
209.947	-21.19
210.333	15.11
210.719	-11.83
211.105	-34.97
211.491	2.84
211.876	42.37
212.262	-7.38
212.648	-0.52
213.034	17.82
213.419	-12.08
213.805	-11.98
214.19	-12.98
214.576	-10.58
214.961	35.66
215.346	-22.54
215.732	6.26
216.117	-15.14
216.502	0.21
216.888	11.25
217.273	1.81
217.658	-1.48
218.043	-5.29
218.428	8.87
218.813	-6.24
219.198	20.04
219.583	-41.26
219.968	1.62
220.353	-9.54
220.738	7.46
221.122	-26.16
221.507	3.1
221.892	-21.52
222.276	-16.36
222.661	10.96
223.046	0
223.43	-2.97
223.815	-16.89
224.199	6.21
224.583	3.81
224.968	1.5
225.352	-0.82
225.736	-12.88
226.121	-19.88
226.505	3.36
226.889	-1.79
227.273	3.21
227.657	-1
228.041	4.54
228.425	3
228.809	0.59
229.193	-0.52
229.577	-1.12
229.961	1.5
230.344	1.38
230.728	1.08
231.112	0.26
231.495	0.97
231.879	1.96
232.263	0.18
232.646	1.46
233.03	1.1
233.413	-0.92
233.797	-0.38
234.18	0.83
234.563	0.73
234.946	0.43
235.33	1.16
235.713	0.11
236.096	1.19
236.479	1.5
236.862	0.61
237.245	0.19
237.628	0.64
238.011	-1.22
238.394	1.98
238.777	0.93
239.16	1.86
239.543	0.51
239.925	1.58
240.308	2.76
240.691	1.51
241.073	1.02
241.456	1.11
241.838	1.12
242.221	0.95
242.603	1.14
242.986	0.84
243.368	0.85
243.75	1.07
244.133	1.18
244.515	0.89
244.897	1.39
245.279	1.18
245.661	1.79
246.043	2.1
246.425	1.17
246.807	2.15
247.189	1.81
247.571	1.59
247.953	1.54
248.335	1.05
248.717	1.19
249.098	1.29
249.48	1.34
249.862	1.43
250.243	1.12
250.625	1.27
251.006	1.51
251.388	1.12
251.769	0.94
252.151	1.71
252.532	1.62
252.913	1.15
253.295	1.77
253.676	1.28
254.057	1.05
254.438	1.33
254.819	1.24
255.2	0.42
255.581	1.98
255.962	1.45
256.343	1.02
256.724	0.74
257.105	1.06
257.486	1.75
257.867	2.63
258.247	2.34
258.628	1.2
259.009	0.77
259.389	1.79
259.77	1.51
260.15	0.99
260.531	1.3
260.911	1.25
261.292	1.14
261.672	1.19
262.052	1.31
262.432	1.33
262.813	1.19
263.193	0.82
263.573	1.49
263.953	1.35
264.333	1.38
264.713	1.38
265.093	1.27
265.473	1.08
265.853	0.94
266.233	1.04
266.612	1.73
266.992	2.37
267.372	0.41
267.752	1.33
268.131	1.31
268.511	1.32
268.89	1.51
269.27	1.22
269.649	1.36
270.029	0.93
270.408	1.15
270.787	1.46
271.167	0.87
271.546	1.61
271.925	0.9
272.304	1
272.683	1.08
273.062	1.35
273.441	1.75
273.82	1.01
274.199	1.45
274.578	1.07
274.957	1.14
275.336	1.06
275.715	0.83
276.093	1.28
276.472	0.98
276.851	1.33
277.229	1.08
277.608	1.03
277.986	1.23
278.365	1.11
278.743	1.11
279.122	0.95
279.5	1.51
279.878	1.23
280.257	1
280.635	1.2
281.013	1.23
281.391	0.94
281.769	1.12
282.147	0.32
282.525	1.25
282.903	1.51
283.281	2.18
283.659	1.03
284.037	1.5
284.415	0.98
284.792	1.3
285.17	0.91
285.548	1.08
285.925	1.17
286.303	1.25
286.68	1.49
287.058	1.23
287.435	1.21
287.813	1.12
288.19	1.23
288.567	1.06
288.945	1.27
289.322	1.34
289.699	1.22
290.076	1.46
290.453	0.99
290.83	1.1
291.207	1.27
291.584	0.93
291.961	1.79
292.338	1.66
292.715	1.45
293.092	1.54
293.469	1.56
293.845	1.72
294.222	1.26
294.599	1.17
294.975	1.55
295.352	1.75
295.728	1.64
296.105	1.55
296.481	1.48
296.858	1.59
297.234	2.41
297.61	1.9
297.986	1.54
298.363	1.25
298.739	1.74
299.115	2.09
299.491	1.74
299.867	1.73
300.243	2.06
300.619	1.8
300.995	2.11
301.371	2.41
301.746	1.7
302.122	2.12
302.498	1.91
302.874	2.28
303.249	1.9
303.625	1.61
304	2.32
304.376	1.87
304.751	1.78
305.127	1.48
305.502	1.92
305.878	1.68
306.253	2.08
306.628	1.89
307.003	2.27
307.378	1.86
307.754	2.18
308.129	2.23
308.504	2.4
308.879	2.65
309.254	2.45
309.629	2.35
310.003	2.44
310.378	2.72
310.753	2.66
311.128	2.12
311.502	2.39
311.877	2.51
312.252	2.32
312.626	2.68
313.001	2.5
313.375	2.58
313.75	2.61
314.124	2.53
314.498	2.79
314.873	2.79
315.247	2.85
315.621	2.61
315.995	2.97
316.369	2.65
316.743	3.03
317.117	3.32
317.491	3.03
317.865	2.61
318.239	3.07
318.613	3.37
318.987	3.31
319.361	3.08
319.734	3.1
320.108	3.05
320.482	2.01
320.855	3.12
321.229	2.87
321.602	2.95
321.976	3.19
322.349	3.51
322.723	3.37
323.096	3.27
323.469	3.27
323.843	3.22
324.216	3.39
324.589	3.33
324.962	3.89
325.335	3.34
325.708	3.34
326.081	3.36
326.454	3.51
326.827	3.54
327.2	3.34
327.573	3.45
327.945	3.54
328.318	3.06
328.691	3.58
329.063	3.5
329.436	4.05
329.809	3.37
330.181	3.47
330.553	3.43
330.926	4.14
331.298	4.21
331.671	3.77
332.043	4.07
332.415	3.75
332.787	3.41
333.159	3.74
333.532	3.34
333.904	4.34
334.276	4.15
334.648	4.04
335.02	3.8
335.391	3.93
335.763	3.76
336.135	4.01
336.507	3.79
336.879	3.45
337.25	4.51
337.622	4.52
337.993	4.23
338.365	4.06
338.736	4.44
339.108	4.79
339.479	4.06
339.851	3.84
340.222	4.34
340.593	4.28
340.964	4.09
341.336	4.2
341.707	4.18
342.078	4.5
342.449	4.43
342.82	4.53
343.191	4.46
343.562	4.52
343.933	4.33
344.303	4.42
344.674	4.21
345.045	4.45
345.416	4.16
345.786	4.98
346.157	4.95
346.527	4.93
346.898	4.69
347.268	4.43
347.639	4.29
348.009	5.24
348.38	4.73
348.75	4.76
349.12	4.69
349.49	4.95
349.861	4.66
350.231	5.06
350.601	4.73
350.971	4.75
351.341	4.73
351.711	4.66
352.081	4.9
352.45	4.96
352.82	4.77
353.19	5.1
353.56	5.1
353.929	5.17
354.299	5.53
354.669	5.04
355.038	5.24
355.408	4.98
355.777	5.05
356.147	4.95
356.516	4.87
356.885	5
357.254	5.18
357.624	5.33
357.993	4.95
358.362	4.98
358.731	5.24
359.1	5.35
359.469	5.51
359.838	5.47
360.207	5.28
360.576	5.26
360.945	5.6
361.314	5.68
361.682	5.45
362.051	5.43
362.42	5.34
362.788	5.37
363.157	5.26
363.525	5.49
363.894	5.41
364.262	5.49
364.631	5.54
364.999	5.61
365.367	5.42
365.735	5.96
366.104	5.35
366.472	5.76
366.84	5.16
367.208	5.81
367.576	5.46
367.944	5.69
368.312	5.83
368.68	5.7
369.048	5.57
369.416	5.88
369.783	5.84
370.151	5.75
370.519	6.2
370.886	5.8
371.254	6
371.621	5.9
371.989	5.67
372.356	6.15
372.724	6.18
373.091	5.96
373.458	5.94
373.826	6.13
374.193	5.82
374.56	5.89
374.927	6.26
375.294	6.04
375.661	6.43
376.028	6.06
376.395	6.1
376.762	6.45
377.129	6.37
377.496	6.25
377.863	6.15
378.229	6.02
378.596	6.47
378.963	6.26
379.329	6.26
379.696	6.22
380.062	6.52
380.429	6.31
380.795	6.45
381.161	6.39
381.528	6.44
381.894	6.18
382.26	6.59
382.626	6.38
382.993	6.74
383.359	6.44
383.725	6.58
384.091	6.49
384.457	6.54
384.823	6.87
385.188	6.71
385.554	6.53
385.92	6.63
386.286	6.73
386.651	6.71
387.017	6.5
387.383	6.78
387.748	6.65
388.114	6.78
388.479	7.2
388.845	6.79
389.21	6.99
389.575	7.16
389.94	6.87
390.306	6.87
390.671	7.1
391.036	6.99
391.401	7.27
391.766	6.73
392.131	7.32
392.496	7.29
392.861	7.22
393.226	7.19
393.591	7.22
393.956	7.25
394.32	7.04
394.685	7.24
395.05	7.48
395.414	7.06
395.779	6.97
396.143	7.17
396.508	7.23
396.872	7.34
397.236	7.3
397.601	7.21
397.965	7.21
398.329	7.28
398.694	7.6
399.058	7.29
399.422	7.35
399.786	7.37
400.15	7.44
400.514	7.43
400.878	7.42
401.242	7.61
401.605	7.37
401.969	7.59
402.333	7.72
402.697	7.54
403.06	7.7
403.424	7.78
403.787	7.82
404.151	7.86
404.514	7.84
404.878	7.72
405.241	7.71
405.604	7.91
405.968	7.61
406.331	7.54
406.694	7.68
407.057	7.76
407.42	7.96
407.783	7.67
408.146	7.88
408.509	7.8
408.872	7.99
409.235	7.93
409.598	8.02
409.961	8.26
410.323	7.96
410.686	7.87
411.049	8.02
411.411	7.78
411.774	8.16
412.136	8.15
412.499	8.26
412.861	8.26
413.223	7.98
413.586	8.1
413.948	8.2
414.31	8.2
414.672	8.19
415.035	8.5
415.397	8.09
415.759	8.31
416.121	8.21
416.483	8.52
416.845	8.36
417.206	8.21
417.568	8.42
417.93	8.43
418.292	8.28
418.653	8.23
419.015	8.33
419.377	8.28
419.738	8.26
420.1	8.4
420.461	8.34
420.822	8.19
421.184	8.4
421.545	8.28
421.906	8.28
422.267	8.22
422.629	8.44
422.99	8.29
423.351	8.21
423.712	8.41
424.073	8.43
424.434	8.46
424.795	8.59
425.155	8.59
425.516	8.5
425.877	8.52
426.238	8.41
426.598	8.61
426.959	8.59
427.32	8.62
427.68	8.65
428.041	8.63
428.401	8.83
428.761	8.78
429.122	8.89
429.482	8.97
429.842	8.68
430.202	8.98
430.563	8.82
430.923	9.09
431.283	9
431.643	9.14
432.003	9.26
432.363	9.24
432.722	9.14
433.082	9.23
433.442	8.97
433.802	9.11
434.161	9.2
434.521	9.1
434.881	9.15
435.24	9.09
435.6	9.2
435.959	9.12
436.319	9.25
436.678	9.29
437.037	9.33
437.396	9.44
437.756	9.44
438.115	9.36
438.474	9.42
438.833	9.45
439.192	9.41
439.551	9.46
439.91	9.5
440.269	9.44
440.628	9.48
440.987	9.59
441.345	9.42
441.704	9.4
442.063	9.39
442.421	9.38
442.78	9.5
443.138	9.52
443.497	9.54
443.855	9.52
444.214	9.68
444.572	9.73
444.93	9.62
445.288	9.75
445.647	9.75
446.005	9.82
446.363	9.7
446.721	9.83
447.079	9.72
447.437	9.61
447.795	9.7
448.153	9.52
448.51	9.63
448.868	9.65
449.226	9.55
449.584	9.81
449.941	9.57
450.299	9.85
450.656	9.88
451.014	10.04
451.371	10.04
451.729	10.11
452.086	10.02
452.443	10
452.801	10.18
453.158	10.12
453.515	10.29
453.872	10.25
454.229	10.32
454.586	10.22
454.943	10.16
455.3	10.11
455.657	10.28
456.014	10.29
456.371	10.34
456.727	10.46
457.084	10.51
457.441	10.33
457.797	10.23
458.154	10.41
458.51	10.54
458.867	10.48
459.223	10.53
459.58	10.63
459.936	10.4
460.292	10.4
460.648	10.61
461.005	10.38
461.361	10.39
461.717	10.36
462.073	10.43
462.429	10.53
462.785	10.55
463.141	10.6
463.496	10.5
463.852	10.88
464.208	10.75
464.564	10.69
464.919	11.02
465.275	10.85
465.631	10.81
465.986	10.95
466.342	10.99
466.697	10.97
467.052	10.88
467.408	10.92
467.763	10.88
468.118	10.97
468.473	11.02
468.829	10.78
469.184	11.25
469.539	11.06
469.894	11.22
470.249	11.19
470.603	11.23
470.958	11.09
471.313	10.94
471.668	11.12
472.023	10.94
472.377	11.41
472.732	11.39
473.086	11.26
473.441	11.33
473.795	11.31
474.15	11.24
474.504	11.41
474.859	11.23
475.213	11.45
475.567	11.38
475.921	11.48
476.275	11.73
476.63	11.56
476.984	11.48
477.338	11.58
477.692	11.6
478.045	11.55
478.399	11.48
478.753	11.58
479.107	11.53
479.461	11.76
479.814	11.7
480.168	11.54
480.521	11.51
480.875	11.64
481.228	11.63
481.582	11.86
481.935	11.69
482.289	11.71
482.642	11.76
482.995	11.76
483.348	11.81
483.701	11.76
484.055	11.65
484.408	11.62
484.761	11.51
485.114	11.31
485.466	11.24
485.819	11.12
486.172	11.16
486.525	11.26
486.878	11.37
487.23	11.51
487.583	11.57
487.936	11.67
488.288	11.66
488.641	11.63
488.993	11.47
489.345	11.48
489.698	11.5
490.05	11.55
490.402	11.59
490.754	11.66
491.107	11.86
491.459	11.93
491.811	12
492.163	12.02
492.515	12.07
492.866	11.94
493.218	11.81
493.57	11.75
493.922	11.81
494.274	11.83
494.625	11.99
494.977	12.21
495.328	12.24
495.68	12.3
496.031	12.4
496.383	12.63
496.734	12.52
497.086	12.78
497.437	12.71
497.788	12.61
498.139	12.48
498.49	12.46
498.842	12.58
499.193	12.49
499.544	12.65
499.894	12.63
500.245	12.73
500.596	12.73
500.947	12.75
501.298	12.76
501.648	12.93
501.999	12.92
502.35	12.88
502.7	12.83
503.051	12.92
503.401	12.92
503.752	13.05
504.102	13.08
504.452	13.26
504.803	13.17
505.153	13.09
505.503	13.17
505.853	13.14
506.203	13.2
506.553	13.24
506.903	13.05
507.253	13.17
507.603	13.31
507.953	13.23
508.303	13.37
508.652	13.28
509.002	13.45
509.352	13.49
509.701	13.33
510.051	13.34
510.4	13.19
510.75	13.29
511.099	13.34
511.449	13.34
511.798	13.32
512.147	13.47
512.496	13.32
512.846	13.43
513.195	13.57
513.544	13.5
513.893	13.63
514.242	13.51
514.591	13.42
514.939	13.58
515.288	13.63
515.637	13.71
515.986	13.67
516.334	13.75
516.683	13.69
517.032	13.85
517.38	13.98
517.729	13.84
518.077	13.92
518.426	13.76
518.774	13.98
519.122	13.88
519.47	13.77
519.819	13.81
520.167	13.65
520.515	13.6
520.863	13.6
521.211	13.69
521.559	13.79
521.907	13.77
522.255	14.01
522.602	14.04
522.95	14.01
523.298	14.11
523.645	14.15
523.993	14.24
524.341	14.15
524.688	14.19
525.036	14.3
525.383	14.32
525.73	14.35
526.078	14.32
526.425	14.36
526.772	14.08
527.119	14.12
527.466	13.98
527.814	13.92
528.161	13.87
528.508	14.11
528.854	13.99
529.201	14.04
529.548	14.07
529.895	13.85
530.242	13.68
530.588	13.77
530.935	13.75
531.282	13.82
531.628	13.99
531.975	14.02
532.321	14.13
532.667	14.27
533.014	14.37
533.36	14.53
533.706	14.51
534.052	14.4
534.399	14.48
534.745	14.36
535.091	14.24
535.437	14.21
535.783	14.2
536.129	14.38
536.474	14.45
536.82	14.56
537.166	14.79
537.512	14.83
537.857	14.65
538.203	14.66
538.549	14.66
538.894	14.73
539.239	14.85
539.585	14.81
539.93	14.95
540.276	15
540.621	15.01
540.966	15.21
541.311	15.13
541.656	15.04
542.001	15.13
542.346	14.99
542.691	14.77
543.036	14.67
543.381	14.58
543.726	14.6
544.071	14.77
544.415	14.81
544.76	14.94
545.105	14.95
545.449	15.03
545.794	15.17
546.138	15.14
546.483	15.26
546.827	15.28
547.171	15.31
547.516	15.34
547.86	15.45
548.204	15.64
548.548	15.38
548.892	15.41
549.236	15.42
549.58	15.56
549.924	15.64
550.268	15.86
550.612	15.67
550.956	15.72
551.3	15.89
551.643	16.1
551.987	15.81
552.33	16.09
552.674	16.12
553.017	16.12
553.361	16.06
553.704	16.14
554.048	16.24
554.391	16.02
554.734	16.11
555.077	15.98
555.42	15.94
555.764	16.31
556.107	16.24
556.45	16.31
556.793	16.18
557.135	16.42
557.478	16.33
557.821	16.44
558.164	16.36
558.507	16.18
558.849	16.43
559.192	16.47
559.534	16.57
559.877	16.6
560.219	16.41
560.562	16.68
560.904	16.68
561.246	16.31
561.589	16.61
561.931	16.61
562.273	16.54
562.615	16.62
562.957	16.77
563.299	16.62
563.641	16.47
563.983	16.59
564.325	16.64
564.667	16.65
565.008	16.59
565.35	16.74
565.692	16.92
566.033	16.96
566.375	16.96
566.716	16.96
567.058	16.91
567.399	17.02
567.741	16.92
568.082	16.93
568.423	16.78
568.764	16.96
569.105	17.03
569.447	17.17
569.788	16.95
570.129	17.09
570.47	17.24
570.811	17.24
571.151	17.1
571.492	17.29
571.833	17.12
572.174	17.32
572.514	17.29
572.855	17.16
573.195	17.17
573.536	17.19
573.876	17.11
574.217	17.1
574.557	17.06
574.898	17.3
575.238	17.22
575.578	17.49
575.918	17.34
576.258	17.43
576.598	17.52
576.938	17.39
577.278	17.5
577.618	17.42
577.958	17.38
578.298	17.75
578.638	17.67
578.977	17.51
579.317	17.79
579.657	17.7
579.996	17.75
580.336	17.71
580.675	17.75
581.014	17.79
581.354	17.79
581.693	18.02
582.032	17.82
582.372	18.01
582.711	18.08
583.05	18.24
583.389	17.94
583.728	17.96
584.067	18.08
584.406	17.96
584.745	18.18
585.083	18.06
585.422	18.25
585.761	18.27
586.1	18.39
586.438	18.01
586.777	18.32
587.115	18.22
587.454	18.22
587.792	18.37
588.13	18.25
588.469	18.41
588.807	18.59
589.145	18.49
589.483	18.38
589.821	18.5
590.159	18.46
590.497	18.72
590.835	18.31
591.173	18.19
591.511	18.42
591.849	18.55
592.187	18.5
592.524	18.67
592.862	18.5
593.2	18.8
593.537	18.43
593.875	18.83
594.212	18.65
594.55	18.5
594.887	18.8
595.224	18.63
595.561	18.48
595.899	18.62
596.236	18.96
596.573	18.86
596.91	18.71
597.247	18.74
597.584	18.69
597.921	18.94
598.258	18.93
598.594	18.47
598.931	18.68
599.268	18.93
599.604	18.65
599.941	18.83
600.277	18.81
600.614	18.91
600.95	19.04
601.287	18.87
601.623	18.89
601.959	19.03
602.296	19.15
602.632	19.23
602.968	19.13
603.304	19.05
603.64	19.31
603.976	18.89
604.312	19.11
604.648	19.18
604.984	19.19
605.319	19.07
605.655	19.2
605.991	19.02
606.326	19.07
606.662	18.99
606.998	19.18
607.333	19.11
607.668	19.21
608.004	19.27
608.339	19.14
608.674	19.62
609.01	19.67
609.345	19.42
609.68	19.61
610.015	19.68
610.35	19.44
610.685	19.61
611.02	19.37
611.355	19.34
611.689	19.57
612.024	19.4
612.359	19.32
612.694	19.55
613.028	19.7
613.363	19.82
613.697	19.89
614.032	19.57
614.366	19.78
614.7	19.94
615.035	20.08
615.369	19.91
615.703	20.33
616.037	19.81
616.371	19.96
616.705	19.78
617.039	20.13
617.373	20.11
617.707	20.23
618.041	20.27
618.375	20.2
618.709	20.15
619.042	20.48
619.376	19.9
619.71	20.23
620.043	20.22
620.377	20.15
620.71	20.3
621.043	20.35
621.377	20.41
621.71	20.38
622.043	20.54
622.376	20.3
622.709	20.41
623.043	20.89
623.376	20.55
623.709	20.23
624.041	20.25
624.374	20.2
624.707	20
625.04	20.29
625.373	20.7
625.705	20.78
626.038	20.47
626.37	20.49
626.703	20.54
627.035	20.33
627.368	20.69
627.7	20.34
628.032	20.53
628.365	20.55
628.697	20.44
629.029	20.5
629.361	20.54
629.693	20.59
630.025	20.84
630.357	20.7
630.689	20.74
631.021	20.78
631.353	20.74
631.684	21.14
632.016	21.07
632.348	20.87
632.679	20.76
633.011	20.95
633.342	20.63
633.674	20.37
634.005	21.14
634.336	21.41
634.668	21.19
634.999	21.4
635.33	20.94
635.661	21.19
635.992	21.26
636.323	21.09
636.654	20.97
636.985	21.05
637.316	20.89
637.647	20.89
637.977	21.27
638.308	21.48
638.639	21.1
638.969	21.14
639.3	21.56
639.63	21.33
639.961	21.27
640.291	21.51
640.622	21.6
640.952	21.47
641.282	21.46
641.612	21.33
641.943	21.46
642.273	21.17
642.603	21.55
642.933	21.15
643.263	21.42
643.592	21.34
643.922	21.83
644.252	21.91
644.582	21.84
644.911	21.67
645.241	21.64
645.571	21.61
645.9	21.66
646.23	21.62
646.559	21.79
646.888	21.71
647.218	21.93
647.547	21.97
647.876	22.05
648.205	21.38
648.534	21.7
648.863	22.31
649.192	21.93
649.521	21.77
649.85	22.26
650.179	21.96
650.508	22.01
650.837	22.31
651.165	22.09
651.494	21.62
651.822	21.93
652.151	21.95
652.479	22.35
652.808	21.83
653.136	22.18
653.465	21.88
653.793	22.29
654.121	21.88
654.449	21.43
654.777	22.08
655.105	21.98
655.433	22.41
655.761	21.95
656.089	21.99
656.417	22.24
656.745	22.26
657.073	22.28
657.4	22.05
657.728	22.04
658.056	21.97
658.383	22.5
658.711	22.59
659.038	22.4
659.365	22.97
659.693	22.54
660.02	22.39
660.347	22.27
660.674	22.56
661.001	22.48
661.329	22.56
661.656	22.46
661.982	21.82
662.309	22.66
662.636	22.35
662.963	22.06
663.29	22.33
663.616	23.07
663.943	22.82
664.27	23.01
664.596	22.42
664.923	22.5
665.249	22.86
665.576	22.86
665.902	22.17
666.228	22.19
666.554	23.3
666.881	22.3
667.207	22.94
667.533	22.84
667.859	23
668.185	22.9
668.511	22.6
668.837	22.48
669.162	23.1
669.488	22.75
669.814	22.99
670.139	22.81
670.465	23.38
670.791	22.71
671.116	22.77
671.442	23.3
671.767	23.21
672.092	22.81
672.418	22.7
672.743	22.99
673.068	23.07
673.393	22.86
673.718	23.71
674.043	22.87
674.368	22.56
674.693	23.58
675.018	22.84
675.343	23.38
675.667	23.33
675.992	23.72
676.317	22.99
676.641	23.07
676.966	23.2
