Data from 0049_chest_Reflection__4__200.txt Node

Date: Fri Nov 04 16:29:28 CDT 2022
User: ToomeyLab
Spectrometer: FLMS14357
Trigger mode: 0
Integration Time (sec): 1.000000E-2
Scans to average: 100
Electric dark correction enabled: true
Nonlinearity correction enabled: false
Boxcar width: 0
XAxis mode: Wavelengths
Number of Pixels in Spectrum: 2048
>>>>>Begin Spectral Data<<<<<
189.047	-149.76
189.435	-149.76
189.823	-149.76
190.211	17.97
190.599	-47.48
190.987	-134.85
191.375	-14.82
191.763	-12.31
192.151	-307.64
192.538	141.4
192.926	55.35
193.314	-5.31
193.702	-5.33
194.089	346.95
194.477	-46.7
194.864	-485.11
195.252	433.44
195.639	780.46
196.027	-43.5
196.414	-4.68
196.801	49.09
197.189	96.73
197.576	186.12
197.963	-18.73
198.351	-57.2
198.738	8.98
199.125	-17.37
199.512	-45.66
199.899	-0.46
200.286	-29.07
200.673	6.05
201.06	-24.4
201.447	-26.99
201.833	-9.44
202.22	25.8
202.607	22.47
202.994	46.39
203.38	27.35
203.767	6
204.154	17.68
204.54	-18.69
204.927	30.81
205.313	31.07
205.699	32.11
206.086	15.95
206.472	-1.57
206.858	6.74
207.245	3.54
207.631	44.98
208.017	-3.23
208.403	13.53
208.789	40.24
209.175	-11.34
209.561	-3.98
209.947	-41.95
210.333	17.79
210.719	1.79
211.105	2.64
211.491	28.16
211.876	-13.25
212.262	12.94
212.648	19.26
213.034	33.69
213.419	-4.73
213.805	-0.82
214.19	-11.76
214.576	-1.55
214.961	29.58
215.346	-2.95
215.732	7.2
216.117	-8.93
216.502	19.72
216.888	4.64
217.273	20.01
217.658	14.74
218.043	-0.33
218.428	31.23
218.813	-3.75
219.198	3.12
219.583	-33.9
219.968	15.5
220.353	-12.21
220.738	-31.26
221.122	-4.14
221.507	14.62
221.892	-16.07
222.276	-18.8
222.661	8.37
223.046	0.57
223.43	0.1
223.815	3.19
224.199	14.74
224.583	5.17
224.968	-2.85
225.352	0.62
225.736	-1.76
226.121	-10.48
226.505	4.49
226.889	-0.18
227.273	2.03
227.657	-0.33
228.041	5.66
228.425	8.14
228.809	5.87
229.193	5.54
229.577	3.83
229.961	6.6
230.344	5.24
230.728	4.39
231.112	4.29
231.495	4.94
231.879	5.34
232.263	3.28
232.646	3.43
233.03	4.13
233.413	3.02
233.797	2.67
234.18	4.86
234.563	6.27
234.946	2.25
235.33	6.01
235.713	3.23
236.096	5.51
236.479	3.47
236.862	3.66
237.245	4.61
237.628	4.52
238.011	3.44
238.394	6.26
238.777	5.11
239.16	4.82
239.543	5.8
239.925	3.96
240.308	4.82
240.691	4.08
241.073	3.96
241.456	5.08
241.838	5.04
242.221	5.39
242.603	4.19
242.986	4.34
243.368	5.64
243.75	4.92
244.133	5.43
244.515	4.95
244.897	5.18
245.279	5.24
245.661	4.99
246.043	5.93
246.425	4.38
246.807	5.16
247.189	5.23
247.571	4.87
247.953	5.43
248.335	4.84
248.717	5.02
249.098	5.1
249.48	5.12
249.862	5.33
250.243	5.3
250.625	5.19
251.006	5.45
251.388	5.12
251.769	5.95
252.151	5.63
252.532	5.32
252.913	3.95
253.295	5.41
253.676	4.33
254.057	5.22
254.438	5.24
254.819	4.94
255.2	4.9
255.581	6.04
255.962	6.07
256.343	5.22
256.724	4.82
257.105	4.43
257.486	5.65
257.867	6.58
258.247	5.04
258.628	5.26
259.009	4.49
259.389	5.6
259.77	5.29
260.15	5.44
260.531	5.51
260.911	5.03
261.292	5.28
261.672	4.95
262.052	5.06
262.432	5.11
262.813	4.97
263.193	4.59
263.573	5.21
263.953	4.57
264.333	4.71
264.713	4.98
265.093	5.27
265.473	5.35
265.853	4.1
266.233	5.09
266.612	4.83
266.992	5.77
267.372	4.23
267.752	4.83
268.131	4.89
268.511	4.97
268.89	5.15
269.27	4.53
269.649	4.86
270.029	4.65
270.408	4.91
270.787	5.27
271.167	4.74
271.546	5.7
271.925	4.49
272.304	4.75
272.683	4.73
273.062	5.05
273.441	5.06
273.82	4.6
274.199	5.15
274.578	4.65
274.957	4.78
275.336	4.41
275.715	4.76
276.093	4.64
276.472	4.82
276.851	4.39
277.229	4.7
277.608	4.85
277.986	4.74
278.365	5.25
278.743	5.1
279.122	5.09
279.5	5.06
279.878	4.79
280.257	4.42
280.635	4.22
281.013	4.32
281.391	5.1
281.769	4.74
282.147	4.26
282.525	4.73
282.903	4.71
283.281	5.44
283.659	4.49
284.037	4.76
284.415	4.69
284.792	4.87
285.17	4.71
285.548	5.38
285.925	4.96
286.303	4.86
286.68	5.26
287.058	4.66
287.435	4.65
287.813	4.74
288.19	5.2
288.567	4.62
288.945	5.31
289.322	4.5
289.699	5
290.076	5.03
290.453	4.94
290.83	4.76
291.207	4.45
291.584	5
291.961	5.08
292.338	5.27
292.715	4.84
293.092	5.29
293.469	5.23
293.845	4.88
294.222	4.56
294.599	4.75
294.975	5.29
295.352	4.76
295.728	5.49
296.105	5.15
296.481	5.06
296.858	5.07
297.234	5.55
297.61	5.49
297.986	4.94
298.363	4.9
298.739	5.28
299.115	5.32
299.491	5.35
299.867	5.26
300.243	5.24
300.619	5.35
300.995	5.32
301.371	5.39
301.746	5.21
302.122	5.21
302.498	5.47
302.874	5.2
303.249	5.06
303.625	5.3
304	5.64
304.376	4.95
304.751	5.33
305.127	4.71
305.502	5.6
305.878	5.36
306.253	5.73
306.628	5.13
307.003	5.52
307.378	5.53
307.754	5.16
308.129	4.86
308.504	5.3
308.879	5.8
309.254	6
309.629	5.58
310.003	5.49
310.378	5.14
310.753	5.41
311.128	5.7
311.502	5.33
311.877	5.61
312.252	5.47
312.626	5.23
313.001	5.28
313.375	5.49
313.75	5.48
314.124	5.56
314.498	5.64
314.873	5.64
315.247	5.7
315.621	5.44
315.995	6.07
316.369	5.7
316.743	5.93
317.117	5.92
317.491	5.99
317.865	5.95
318.239	6.03
318.613	6.41
318.987	5.77
319.361	5.69
319.734	5.72
320.108	5.9
320.482	5.28
320.855	5.78
321.229	5.79
321.602	5.54
321.976	5.8
322.349	6.75
322.723	5.94
323.096	6.05
323.469	5.45
323.843	5.54
324.216	6.05
324.589	5.98
324.962	6.51
325.335	5.91
325.708	5.23
326.081	5.86
326.454	5.62
326.827	5.98
327.2	5.78
327.573	5.9
327.945	6.06
328.318	5.8
328.691	6.07
329.063	5.7
329.436	5.68
329.809	6.04
330.181	5.76
330.553	5.77
330.926	6.07
331.298	5.97
331.671	5.66
332.043	5.92
332.415	5.55
332.787	5.57
333.159	5.82
333.532	5.41
333.904	6.04
334.276	5.75
334.648	6.2
335.02	5.65
335.391	6.16
335.763	6.02
336.135	5.95
336.507	5.96
336.879	6.06
337.25	6.12
337.622	6.26
337.993	6.21
338.365	5.89
338.736	6.17
339.108	6.05
339.479	6.07
339.851	5.49
340.222	5.85
340.593	6.4
340.964	6.41
341.336	5.64
341.707	5.24
342.078	6.27
342.449	5.9
342.82	5.86
343.191	5.75
343.562	5.85
343.933	6.09
344.303	6.07
344.674	5.81
345.045	5.83
345.416	5.78
345.786	6.06
346.157	5.99
346.527	6.1
346.898	5.99
347.268	6.03
347.639	6.2
348.009	6.11
348.38	5.86
348.75	5.46
349.12	5.79
349.49	5.83
349.861	6
350.231	6.26
350.601	6.05
350.971	6.01
351.341	5.79
351.711	5.71
352.081	5.95
352.45	6.07
352.82	5.81
353.19	6.08
353.56	5.92
353.929	5.91
354.299	6.18
354.669	5.94
355.038	6.04
355.408	5.78
355.777	5.92
356.147	5.88
356.516	6.06
356.885	6.24
357.254	6.1
357.624	5.89
357.993	5.8
358.362	5.55
358.731	5.94
359.1	6.21
359.469	6.18
359.838	5.95
360.207	5.47
360.576	5.91
360.945	6.32
361.314	6.01
361.682	5.93
362.051	5.93
362.42	6.14
362.788	5.82
363.157	5.98
363.525	5.95
363.894	5.72
364.262	6.12
364.631	6.07
364.999	5.94
365.367	5.76
365.735	6.08
366.104	5.97
366.472	5.78
366.84	5.81
367.208	6.11
367.576	5.64
367.944	6.03
368.312	6.2
368.68	6.07
369.048	5.91
369.416	5.96
369.783	5.62
370.151	5.76
370.519	6.22
370.886	6.07
371.254	6.15
371.621	6.03
371.989	6.03
372.356	6.05
372.724	6.12
373.091	6.02
373.458	6.05
373.826	6.01
374.193	5.7
374.56	5.88
374.927	6
375.294	5.79
375.661	6.34
376.028	5.88
376.395	6.15
376.762	6.31
377.129	6.21
377.496	6.23
377.863	6.17
378.229	6.01
378.596	5.82
378.963	6.05
379.329	5.74
379.696	6
380.062	6.38
380.429	6.1
380.795	5.93
381.161	6.11
381.528	5.92
381.894	5.79
382.26	6.12
382.626	5.96
382.993	6.13
383.359	6.08
383.725	5.94
384.091	5.89
384.457	6.14
384.823	6.01
385.188	6.09
385.554	6.05
385.92	5.72
386.286	5.9
386.651	5.98
387.017	5.81
387.383	6.03
387.748	5.95
388.114	5.94
388.479	6.58
388.845	6.14
389.21	6.44
389.575	6.46
389.94	6.12
390.306	6.12
390.671	6.02
391.036	5.96
391.401	6.26
391.766	5.84
392.131	5.88
392.496	6.14
392.861	6.14
393.226	5.91
393.591	6.14
393.956	6.38
394.32	6.26
394.685	6.04
395.05	6.25
395.414	6.29
395.779	5.87
396.143	6.09
396.508	6.13
396.872	5.98
397.236	6.11
397.601	5.89
397.965	5.85
398.329	6.08
398.694	6.17
399.058	6.27
399.422	6.22
399.786	5.94
400.15	5.99
400.514	6.1
400.878	5.97
401.242	6.16
401.605	6.26
401.969	6.17
402.333	6.21
402.697	6.29
403.06	6.32
403.424	6.23
403.787	5.85
404.151	6.2
404.514	6.21
404.878	6.1
405.241	6.32
405.604	6.41
405.968	6.1
406.331	6.22
406.694	6.07
407.057	6.29
407.42	6.19
407.783	6.16
408.146	6.27
408.509	6.24
408.872	6.28
409.235	6.3
409.598	6.23
409.961	6.28
410.323	6.06
410.686	6.09
411.049	6.01
411.411	6.1
411.774	6.17
412.136	6.52
412.499	6.27
412.861	6.07
413.223	6.26
413.586	6.11
413.948	6.35
414.31	6.09
414.672	6.21
415.035	6.21
415.397	6.29
415.759	6.48
416.121	6.12
416.483	6.19
416.845	6.28
417.206	6.06
417.568	6.31
417.93	6.4
418.292	6.33
418.653	6.22
419.015	6.12
419.377	6.04
419.738	6.22
420.1	6.14
420.461	6.17
420.822	6.12
421.184	6.27
421.545	6.13
421.906	6.22
422.267	6.01
422.629	6.15
422.99	5.98
423.351	5.94
423.712	6.12
424.073	6.14
424.434	6.03
424.795	6.12
425.155	6.23
425.516	6.15
425.877	6.16
426.238	6.08
426.598	6.14
426.959	6.11
427.32	6.09
427.68	6.24
428.041	6.08
428.401	6.15
428.761	6.27
429.122	6.32
429.482	6.36
429.842	6.05
430.202	6.45
430.563	6.23
430.923	6.38
431.283	6.17
431.643	6.44
432.003	6.51
432.363	6.31
432.722	6.37
433.082	6.29
433.442	6.21
433.802	6.23
434.161	6.37
434.521	6.26
434.881	6.31
435.24	6.28
435.6	6.36
435.959	6.31
436.319	6.36
436.678	6.34
437.037	6.35
437.396	6.47
437.756	6.45
438.115	6.19
438.474	6.3
438.833	6.39
439.192	6.29
439.551	6.43
439.91	6.42
440.269	6.36
440.628	6.45
440.987	6.27
441.345	6.41
441.704	6.34
442.063	6.24
442.421	6.25
442.78	6.38
443.138	6.44
443.497	6.32
443.855	6.23
444.214	6.44
444.572	6.47
444.93	6.44
445.288	6.31
445.647	6.31
446.005	6.37
446.363	6.5
446.721	6.32
447.079	6.34
447.437	6.21
447.795	6.27
448.153	6.27
448.51	6.34
448.868	6.28
449.226	6.22
449.584	6.25
449.941	6.19
450.299	6.42
450.656	6.43
451.014	6.49
451.371	6.41
451.729	6.52
452.086	6.39
452.443	6.41
452.801	6.57
453.158	6.35
453.515	6.57
453.872	6.49
454.229	6.58
454.586	6.53
454.943	6.61
455.3	6.42
455.657	6.41
456.014	6.48
456.371	6.43
456.727	6.49
457.084	6.71
457.441	6.57
457.797	6.55
458.154	6.63
458.51	6.6
458.867	6.33
459.223	6.69
459.58	6.65
459.936	6.54
460.292	6.46
460.648	6.66
461.005	6.4
461.361	6.47
461.717	6.5
462.073	6.52
462.429	6.51
462.785	6.4
463.141	6.47
463.496	6.47
463.852	6.55
464.208	6.55
464.564	6.42
464.919	6.75
465.275	6.53
465.631	6.55
465.986	6.62
466.342	6.58
466.697	6.6
467.052	6.55
467.408	6.57
467.763	6.38
468.118	6.73
468.473	6.7
468.829	6.44
469.184	6.52
469.539	6.51
469.894	6.61
470.249	6.47
470.603	6.7
470.958	6.55
471.313	6.56
471.668	6.42
472.023	6.56
472.377	6.57
472.732	6.6
473.086	6.68
473.441	6.69
473.795	6.78
474.15	6.72
474.504	6.71
474.859	6.57
475.213	6.69
475.567	6.62
475.921	6.6
476.275	6.53
476.63	6.64
476.984	6.63
477.338	6.68
477.692	6.7
478.045	6.74
478.399	6.62
478.753	6.71
479.107	6.67
479.461	6.73
479.814	6.7
480.168	6.59
480.521	6.61
480.875	6.73
481.228	6.9
481.582	6.76
481.935	6.6
482.289	6.68
482.642	6.73
482.995	6.74
483.348	6.8
483.701	6.7
484.055	6.62
484.408	6.71
484.761	6.59
485.114	6.5
485.466	6.4
485.819	6.41
486.172	6.43
486.525	6.42
486.878	6.44
487.23	6.52
487.583	6.53
487.936	6.64
488.288	6.65
488.641	6.61
488.993	6.61
489.345	6.52
489.698	6.54
490.05	6.57
490.402	6.54
490.754	6.61
491.107	6.59
491.459	6.69
491.811	6.7
492.163	6.79
492.515	6.75
492.866	6.69
493.218	6.64
493.57	6.61
493.922	6.68
494.274	6.59
494.625	6.68
494.977	6.74
495.328	6.8
495.68	6.8
496.031	6.94
496.383	6.93
496.734	6.92
497.086	7.13
497.437	7.08
497.788	7.08
498.139	6.87
498.49	6.85
498.842	6.87
499.193	6.93
499.544	7.03
499.894	6.89
500.245	6.96
500.596	6.91
500.947	6.99
501.298	6.91
501.648	6.98
501.999	7.08
502.35	7.07
502.7	7
503.051	7.16
503.401	7.19
503.752	7.16
504.102	7.07
504.452	7.28
504.803	7.23
505.153	7.14
505.503	7.08
505.853	7.09
506.203	7.11
506.553	7.25
506.903	7.14
507.253	7.05
507.603	7.09
507.953	7.13
508.303	7.28
508.652	7.16
509.002	7.35
509.352	7.2
509.701	7.21
510.051	7.18
510.4	7.07
510.75	7.22
511.099	7.24
511.449	7.16
511.798	7.19
512.147	7.11
512.496	7.11
512.846	7.18
513.195	7.24
513.544	7.13
513.893	7.18
514.242	7.27
514.591	7.13
514.939	7.34
515.288	7.17
515.637	7.26
515.986	7.37
516.334	7.36
516.683	7.36
517.032	7.39
517.38	7.35
517.729	7.39
518.077	7.41
518.426	7.31
518.774	7.5
519.122	7.43
519.47	7.4
519.819	7.37
520.167	7.34
520.515	7.28
520.863	7.3
521.211	7.29
521.559	7.36
521.907	7.38
522.255	7.45
522.602	7.44
522.95	7.38
523.298	7.5
523.645	7.54
523.993	7.56
524.341	7.52
524.688	7.6
525.036	7.54
525.383	7.63
525.73	7.58
526.078	7.59
526.425	7.72
526.772	7.42
527.119	7.66
527.466	7.55
527.814	7.54
528.161	7.41
528.508	7.51
528.854	7.53
529.201	7.49
529.548	7.49
529.895	7.4
530.242	7.4
530.588	7.35
530.935	7.41
531.282	7.4
531.628	7.35
531.975	7.46
532.321	7.51
532.667	7.56
533.014	7.68
533.36	7.61
533.706	7.8
534.052	7.7
534.399	7.74
534.745	7.72
535.091	7.68
535.437	7.67
535.783	7.72
536.129	7.7
536.474	7.7
536.82	7.78
537.166	7.79
537.512	7.93
537.857	7.87
538.203	7.87
538.549	7.87
538.894	7.96
539.239	7.97
539.585	7.91
539.93	7.96
540.276	8.02
540.621	7.98
540.966	8.07
541.311	8.05
541.656	8.17
542.001	8.15
542.346	8.09
542.691	8.08
543.036	7.92
543.381	8.01
543.726	8.02
544.071	7.99
544.415	8
544.76	7.99
545.105	7.99
545.449	8.19
545.794	8.21
546.138	8.24
546.483	8.29
546.827	8.3
547.171	8.35
547.516	8.32
547.86	8.44
548.204	8.39
548.548	8.32
548.892	8.42
549.236	8.45
549.58	8.44
549.924	8.45
550.268	8.52
550.612	8.48
550.956	8.65
551.3	8.57
551.643	8.65
551.987	8.75
552.33	8.63
552.674	8.7
553.017	8.77
553.361	8.96
553.704	8.86
554.048	8.95
554.391	8.81
554.734	8.88
555.077	8.98
555.42	8.93
555.764	9.07
556.107	8.95
556.45	8.87
556.793	8.96
557.135	8.87
557.478	8.89
557.821	9.08
558.164	9.14
558.507	8.91
558.849	9.26
559.192	9.09
559.534	9.09
559.877	9.21
560.219	9.19
560.562	9.35
560.904	9.42
561.246	9.25
561.589	9.25
561.931	9.33
562.273	9.48
562.615	9.25
562.957	9.26
563.299	9.35
563.641	9.48
563.983	9.32
564.325	9.37
564.667	9.42
565.008	9.39
565.35	9.43
565.692	9.76
566.033	9.56
566.375	9.59
566.716	9.48
567.058	9.7
567.399	9.5
567.741	9.65
568.082	9.7
568.423	9.67
568.764	9.64
569.105	9.83
569.447	9.78
569.788	9.92
570.129	9.79
570.47	9.97
570.811	9.96
571.151	10
571.492	10.05
571.833	9.93
572.174	9.96
572.514	10.02
572.855	9.8
573.195	9.93
573.536	9.97
573.876	10
574.217	9.98
574.557	9.88
574.898	10.22
575.238	9.99
575.578	10.21
575.918	10.15
576.258	10.11
576.598	10.27
576.938	10.34
577.278	10.25
577.618	10.18
577.958	10.23
578.298	10.37
578.638	10.47
578.977	10.48
579.317	10.53
579.657	10.28
579.996	10.57
580.336	10.6
580.675	10.37
581.014	10.63
581.354	10.57
581.693	10.81
582.032	10.58
582.372	10.82
582.711	10.79
583.05	10.85
583.389	10.79
583.728	10.91
584.067	11.17
584.406	10.94
584.745	11.09
585.083	10.84
585.422	11.06
585.761	11.05
586.1	10.86
586.438	10.9
586.777	11.03
587.115	11.23
587.454	11.13
587.792	11.3
588.13	11.33
588.469	11.38
588.807	11.35
589.145	11.5
589.483	11.03
589.821	11.43
590.159	11.34
590.497	11.56
590.835	11.47
591.173	11.22
591.511	11.47
591.849	11.63
592.187	11.54
592.524	11.69
592.862	11.48
593.2	11.79
593.537	11.73
593.875	11.59
594.212	11.66
594.55	11.7
594.887	11.81
595.224	12.02
595.561	11.65
595.899	11.88
596.236	12
596.573	12.07
596.91	11.93
597.247	11.99
597.584	12.09
597.921	12.25
598.258	12.23
598.594	11.76
598.931	12.32
599.268	12.25
599.604	12.17
599.941	12.22
600.277	12.11
600.614	12.1
600.95	12.16
601.287	12.29
601.623	12.44
601.959	12.44
602.296	12.43
602.632	12.51
602.968	12.48
603.304	12.54
603.64	12.58
603.976	12.37
604.312	12.77
604.648	12.62
604.984	12.64
605.319	12.73
605.655	12.7
605.991	12.87
606.326	12.84
606.662	12.6
606.998	12.48
607.333	12.76
607.668	12.97
608.004	12.8
608.339	12.88
608.674	13.04
609.01	13.35
609.345	12.97
609.68	13.22
610.015	13.26
610.35	13.18
610.685	13.52
611.02	13.22
611.355	13.41
611.689	13.32
612.024	13.3
612.359	13.19
612.694	13.28
613.028	13.72
613.363	13.59
613.697	13.69
614.032	13.4
614.366	13.66
614.7	13.66
615.035	13.65
615.369	13.56
615.703	13.92
616.037	13.6
616.371	13.62
616.705	13.99
617.039	13.95
617.373	14.09
617.707	14.38
618.041	14.03
618.375	13.95
618.709	14.35
619.042	14.05
619.376	14.44
619.71	14.14
620.043	14.45
620.377	14.36
620.71	14.41
621.043	14.06
621.377	14.34
621.71	14.37
622.043	14.88
622.376	14.37
622.709	14.59
623.043	14.82
623.376	14.57
623.709	14.29
624.041	14.51
624.374	14.36
624.707	14.4
625.04	14.88
625.373	14.83
625.705	14.58
626.038	14.76
626.37	14.74
626.703	15.31
627.035	14.69
627.368	15.04
627.7	14.94
628.032	14.84
628.365	15.38
628.697	15.12
629.029	14.86
629.361	14.98
629.693	15.02
630.025	15.01
630.357	15.19
630.689	15.46
631.021	15.18
631.353	15.22
631.684	15.44
632.016	15.6
632.348	15.58
632.679	15.59
633.011	15.82
633.342	15.49
633.674	15.47
634.005	15.68
634.336	16.05
634.668	16.06
634.999	15.94
635.33	15.62
635.661	15.86
635.992	16.09
636.323	16.01
636.654	15.46
636.985	15.78
637.316	15.96
637.647	15.88
637.977	16.48
638.308	16.56
638.639	16.11
638.969	16.21
639.3	16.43
639.63	16.22
639.961	16.48
640.291	16.69
640.622	16.58
640.952	16.56
641.282	16.29
641.612	16.75
641.943	16.41
642.273	16.25
642.603	16.82
642.933	16.62
643.263	16.31
643.592	16.71
643.922	17.04
644.252	16.74
644.582	16.8
644.911	17.09
645.241	16.72
645.571	16.71
645.9	16.64
646.23	16.74
646.559	17.05
646.888	16.72
647.218	17.01
647.547	16.72
647.876	16.95
648.205	16.42
648.534	17.37
648.863	17.54
649.192	17.24
649.521	17.4
649.85	17.53
650.179	17.54
650.508	17.54
650.837	17.93
651.165	17.25
651.494	17.57
651.822	17.63
652.151	17.51
652.479	17.5
652.808	17.3
653.136	17.66
653.465	17.85
653.793	17.97
654.121	17.58
654.449	17.68
654.777	17.51
655.105	18.01
655.433	18.09
655.761	17.63
656.089	17.99
656.417	18.25
656.745	18.21
657.073	18.04
657.4	18.39
657.728	18.24
658.056	17.92
658.383	18.67
658.711	18.17
659.038	18.1
659.365	18.7
659.693	18.75
660.02	18.7
660.347	18.23
660.674	19.07
661.001	18.8
661.329	18.85
661.656	18.74
661.982	18.4
662.309	18.94
662.636	18.88
662.963	18.69
663.29	18.35
663.616	18.83
663.943	18.87
664.27	19.16
664.596	18.58
664.923	19.23
665.249	19.61
665.576	19.4
665.902	19.17
666.228	18.8
666.554	19.88
666.881	19.41
667.207	19.68
667.533	19.53
667.859	19.71
668.185	19.41
668.511	19.19
668.837	19.43
669.162	19.93
669.488	19.77
669.814	20.04
670.139	19.56
670.465	20.03
670.791	20.11
671.116	19.77
671.442	20.3
671.767	20.23
672.092	20.12
672.418	20.59
672.743	20.4
673.068	19.89
673.393	20.65
673.718	19.99
674.043	20.15
674.368	19.97
674.693	19.74
675.018	20.18
675.343	20.8
675.667	19.82
675.992	20.4
676.317	20.19
676.641	20.54
676.966	20.46
677.29	20.68
677.615	20.81
677.939	20.95
678.264	21.01
678.588	21.35
678.912	21.33
679.236	20.99
679.56	20.71
679.885	21.08
680.209	21.06
680.532	20.83
680.856	20.7
681.18	21.16
681.504	21.63
681.828	21.13
682.152	21.65
682.475	21.2
682.799	21.19
683.122	21.07
683.446	21.41
683.769	21.5
684.093	21.71
684.416	21.19
684.739	21.1
