Data from 0049_chest_Reflection__3__199.txt Node

Date: Fri Nov 04 16:29:11 CDT 2022
User: ToomeyLab
Spectrometer: FLMS14357
Trigger mode: 0
Integration Time (sec): 1.000000E-2
Scans to average: 100
Electric dark correction enabled: true
Nonlinearity correction enabled: false
Boxcar width: 0
XAxis mode: Wavelengths
Number of Pixels in Spectrum: 2048
>>>>>Begin Spectral Data<<<<<
189.047	-41.45
189.435	-41.45
189.823	-41.45
190.211	50.05
190.599	70.53
190.987	-25.05
191.375	-97.57
191.763	-11.96
192.151	-1787.58
192.538	-0.21
192.926	8.19
193.314	-111.54
193.702	96.5
194.089	424.68
194.477	396.06
194.864	-271.36
195.252	427.54
195.639	184.48
196.027	41.35
196.414	-49.35
196.801	5.42
197.189	-541.43
197.576	66.72
197.963	69.71
198.351	-11.77
198.738	10.36
199.125	-13.67
199.512	-46.68
199.899	-31.44
200.286	-37.7
200.673	3.31
201.06	-12.92
201.447	0.39
201.833	13.23
202.22	-4.8
202.607	-0.02
202.994	28.34
203.38	26.37
203.767	44.62
204.154	30.87
204.54	6.91
204.927	-2.8
205.313	8.04
205.699	39.93
206.086	-12.36
206.472	30.14
206.858	-16.75
207.245	31.7
207.631	-36.42
208.017	-23.9
208.403	1.72
208.789	41.33
209.175	-6.74
209.561	-50.39
209.947	-20.3
210.333	5.08
210.719	10.85
211.105	-13.56
211.491	16.2
211.876	11.91
212.262	-2.35
212.648	-22.24
213.034	2.31
213.419	1.76
213.805	-12.5
214.19	-9.24
214.576	-16.51
214.961	16.92
215.346	2.97
215.732	6.25
216.117	-9.34
216.502	41.1
216.888	-3.91
217.273	4.32
217.658	10.8
218.043	13.66
218.428	35.54
218.813	-13.22
219.198	-2.8
219.583	-27.8
219.968	6.54
220.353	-1.74
220.738	-28.18
221.122	0.55
221.507	33.04
221.892	-9.06
222.276	-3.7
222.661	8.16
223.046	1.52
223.43	-4.58
223.815	7.23
224.199	5.67
224.583	3.64
224.968	-2.59
225.352	4.25
225.736	-2.49
226.121	-9.26
226.505	4.63
226.889	0.41
227.273	-1.46
227.657	-4.82
228.041	7.79
228.425	5.03
228.809	6.9
229.193	5.12
229.577	2.2
229.961	5.41
230.344	4.93
230.728	4.31
231.112	4.02
231.495	3.87
231.879	5.82
232.263	3.89
232.646	2.98
233.03	2.26
233.413	3.53
233.797	4.49
234.18	4.43
234.563	5.31
234.946	2.91
235.33	4.42
235.713	5.03
236.096	5.51
236.479	5.41
236.862	4.72
237.245	4.43
237.628	3.62
238.011	1.86
238.394	4.45
238.777	4.61
239.16	5.39
239.543	4.4
239.925	5.37
240.308	4.79
240.691	4.6
241.073	3.74
241.456	4.26
241.838	4.47
242.221	3.98
242.603	4.28
242.986	4.65
243.368	4.2
243.75	4.87
244.133	4.43
244.515	4.49
244.897	4.32
245.279	4.17
245.661	4.91
246.043	4.83
246.425	4.45
246.807	5.2
247.189	4.15
247.571	4.4
247.953	4.98
248.335	4.21
248.717	4.59
249.098	4.51
249.48	4.61
249.862	4.55
250.243	4.4
250.625	4.11
251.006	4.49
251.388	4.45
251.769	5.05
252.151	5.35
252.532	4.61
252.913	3.43
253.295	4.72
253.676	4.1
254.057	4.04
254.438	4.36
254.819	4.86
255.2	4.16
255.581	4.27
255.962	4.85
256.343	3.93
256.724	4.51
257.105	3.78
257.486	4.93
257.867	4.55
258.247	4.33
258.628	4.04
259.009	3.81
259.389	4.58
259.77	4.2
260.15	4.38
260.531	4.27
260.911	3.8
261.292	4.22
261.672	4.18
262.052	4.16
262.432	4.26
262.813	4.05
263.193	3.9
263.573	4.09
263.953	3.74
264.333	4.56
264.713	4.31
265.093	4.41
265.473	4.05
265.853	3.84
266.233	4.28
266.612	4.65
266.992	4.83
267.372	3.77
267.752	4.26
268.131	4.93
268.511	4.17
268.89	4.6
269.27	4.17
269.649	4.08
270.029	3.8
270.408	4.13
270.787	4.09
271.167	3.96
271.546	4.77
271.925	4.1
272.304	4.04
272.683	3.67
273.062	3.99
273.441	4.25
273.82	3.64
274.199	4
274.578	3.55
274.957	3.94
275.336	4.16
275.715	3.99
276.093	4.15
276.472	3.44
276.851	3.07
277.229	4.17
277.608	3.76
277.986	4.23
278.365	4.29
278.743	4.14
279.122	3.92
279.5	3.77
279.878	3.99
280.257	3.62
280.635	3.45
281.013	3.75
281.391	4.2
281.769	3.64
282.147	3.59
282.525	4.14
282.903	4.15
283.281	3.98
283.659	3.73
284.037	3.7
284.415	3.84
284.792	4.17
285.17	3.74
285.548	4.16
285.925	4.14
286.303	3.78
286.68	4.16
287.058	3.92
287.435	3.74
287.813	3.84
288.19	3.9
288.567	3.56
288.945	3.93
289.322	4.04
289.699	3.92
290.076	4.11
290.453	3.88
290.83	3.85
291.207	4.08
291.584	4.01
291.961	3.95
292.338	4.57
292.715	4.28
293.092	4.14
293.469	4.27
293.845	3.88
294.222	4.17
294.599	4.31
294.975	3.68
295.352	4.03
295.728	4.19
296.105	4.21
296.481	4.01
296.858	4.25
297.234	4.8
297.61	4.17
297.986	4.05
298.363	4.13
298.739	4.29
299.115	4.19
299.491	4.28
299.867	4.42
300.243	4.27
300.619	4.44
300.995	4.74
301.371	4.82
301.746	4.21
302.122	4.18
302.498	4.42
302.874	4.3
303.249	4.17
303.625	4.42
304	4.21
304.376	4.28
304.751	4.45
305.127	4.19
305.502	4.34
305.878	4.65
306.253	4.77
306.628	4.21
307.003	4.17
307.378	4.37
307.754	4.57
308.129	4.07
308.504	4.42
308.879	4.9
309.254	5.13
309.629	4.79
310.003	4.66
310.378	4.73
310.753	4.34
311.128	3.91
311.502	4.23
311.877	4.46
312.252	4.21
312.626	4.43
313.001	4.54
313.375	4.35
313.75	4.31
314.124	4.39
314.498	4.43
314.873	4.83
315.247	4.67
315.621	4.69
315.995	5.04
316.369	4.6
316.743	4.96
317.117	4.77
317.491	4.69
317.865	4.37
318.239	4.47
318.613	4.9
318.987	5
319.361	4.84
319.734	4.99
320.108	4.57
320.482	3.99
320.855	5.14
321.229	4.74
321.602	4.09
321.976	4.41
322.349	4.9
322.723	4.51
323.096	4.72
323.469	4.22
323.843	4.24
324.216	4.33
324.589	4.55
324.962	4.9
325.335	4.69
325.708	4.62
326.081	4.98
326.454	4.54
326.827	4.71
327.2	4.52
327.573	4.43
327.945	4.84
328.318	4.52
328.691	4.53
329.063	4.5
329.436	5.09
329.809	4.58
330.181	4.75
330.553	4.18
330.926	4.55
331.298	4.54
331.671	4.67
332.043	4.86
332.415	4.9
332.787	4.62
333.159	4.58
333.532	3.82
333.904	4.94
334.276	4.28
334.648	4.92
335.02	3.87
335.391	4.95
335.763	5.13
336.135	4.57
336.507	4.93
336.879	4.43
337.25	4.61
337.622	4.79
337.993	4.78
338.365	4.14
338.736	4.54
339.108	4.99
339.479	4.77
339.851	4.56
340.222	4.63
340.593	5.21
340.964	4.78
341.336	4.8
341.707	4.55
342.078	4.63
342.449	4.93
342.82	4.81
343.191	4.65
343.562	4.77
343.933	4.8
344.303	4.93
344.674	4.76
345.045	4.32
345.416	4.71
345.786	5.07
346.157	4.86
346.527	4.7
346.898	4.9
347.268	4.44
347.639	4.84
348.009	5.04
348.38	4.67
348.75	4.65
349.12	4.77
349.49	4.96
349.861	4.27
350.231	5.45
350.601	4.35
350.971	4.48
351.341	4.59
351.711	4.96
352.081	4.96
352.45	4.7
352.82	4.67
353.19	4.66
353.56	5
353.929	4.99
354.299	5.04
354.669	4.9
355.038	5.01
355.408	4.55
355.777	4.92
356.147	4.93
356.516	4.45
356.885	4.71
357.254	4.71
357.624	5
357.993	4.86
358.362	4.62
358.731	4.44
359.1	4.72
359.469	4.72
359.838	4.77
360.207	4.66
360.576	4.91
360.945	4.68
361.314	5.01
361.682	4.89
362.051	4.83
362.42	4.99
362.788	4.69
363.157	4.84
363.525	4.78
363.894	4.76
364.262	4.89
364.631	5.16
364.999	4.92
365.367	4.76
365.735	5.12
366.104	4.86
366.472	4.86
366.84	4.47
367.208	4.98
367.576	4.63
367.944	5.09
368.312	5.11
368.68	4.93
369.048	4.87
369.416	4.61
369.783	4.65
370.151	4.89
370.519	5.26
370.886	4.87
371.254	5.02
371.621	5.03
371.989	4.88
372.356	4.8
372.724	4.77
373.091	4.8
373.458	5.09
373.826	5.06
374.193	4.86
374.56	4.58
374.927	5.18
375.294	4.74
375.661	4.76
376.028	5.08
376.395	5.04
376.762	5.02
377.129	4.9
377.496	4.87
377.863	5.13
378.229	4.68
378.596	4.81
378.963	4.91
379.329	4.76
379.696	4.84
380.062	5.11
380.429	4.91
380.795	4.78
381.161	4.83
381.528	5.1
381.894	4.76
382.26	5.08
382.626	4.79
382.993	4.94
383.359	5.04
383.725	4.84
384.091	4.89
384.457	4.93
384.823	5.01
385.188	5.11
385.554	4.71
385.92	4.73
386.286	4.9
386.651	5.04
387.017	4.74
387.383	5.02
387.748	4.97
388.114	4.81
388.479	5.33
388.845	5.07
389.21	5.26
389.575	5.4
389.94	4.93
390.306	5.06
390.671	4.89
391.036	4.89
391.401	4.97
391.766	4.99
392.131	5
392.496	5.14
392.861	5.06
393.226	5.01
393.591	5.09
393.956	5.16
394.32	4.99
394.685	4.98
395.05	5.18
395.414	5.04
395.779	5.07
396.143	4.95
396.508	4.98
396.872	5.22
397.236	4.95
397.601	4.89
397.965	5
398.329	5.03
398.694	5.27
399.058	5.14
399.422	4.76
399.786	4.83
400.15	4.88
400.514	4.94
400.878	4.87
401.242	5.17
401.605	5.02
401.969	5.22
402.333	5.08
402.697	5.06
403.06	4.93
403.424	5.11
403.787	5.11
404.151	5.17
404.514	5.26
404.878	5.25
405.241	5.18
405.604	5.18
405.968	4.97
406.331	4.88
406.694	5.01
407.057	5.03
407.42	5.15
407.783	5.03
408.146	5.01
408.509	5.16
408.872	5.07
409.235	5.17
409.598	5.06
409.961	5.34
410.323	5.22
410.686	5.24
411.049	5.26
411.411	5.2
411.774	5.33
412.136	5.31
412.499	5.4
412.861	5.11
413.223	5.27
413.586	5.35
413.948	5.11
414.31	5.17
414.672	5.14
415.035	5.29
415.397	5.03
415.759	5.09
416.121	5.17
416.483	5.22
416.845	5.18
417.206	5.08
417.568	5.34
417.93	5.14
418.292	5.06
418.653	5.35
419.015	5.07
419.377	5.28
419.738	5.14
420.1	5.25
420.461	5.09
420.822	5.13
421.184	5.28
421.545	5.07
421.906	5.2
422.267	5.06
422.629	5.11
422.99	5.03
423.351	5.08
423.712	5.05
424.073	5.17
424.434	5.19
424.795	5.16
425.155	5.33
425.516	5.26
425.877	5.09
426.238	5.11
426.598	5.2
426.959	5.09
427.32	5.14
427.68	5.21
428.041	5.17
428.401	5.41
428.761	5.32
429.122	5.09
429.482	5.43
429.842	5.14
430.202	5.17
430.563	5.38
430.923	5.51
431.283	5.22
431.643	5.41
432.003	5.5
432.363	5.33
432.722	5.32
433.082	5.45
433.442	5.41
433.802	5.23
434.161	5.29
434.521	5.09
434.881	5.33
435.24	5.29
435.6	5.52
435.959	5.31
436.319	5.36
436.678	5.43
437.037	5.26
437.396	5.48
437.756	5.23
438.115	5.24
438.474	5.48
438.833	5.42
439.192	5.45
439.551	5.37
439.91	5.38
440.269	5.48
440.628	5.48
440.987	5.38
441.345	5.43
441.704	5.51
442.063	5.38
442.421	5.34
442.78	5.4
443.138	5.36
443.497	5.34
443.855	5.35
444.214	5.4
444.572	5.38
444.93	5.49
445.288	5.54
445.647	5.43
446.005	5.41
446.363	5.53
446.721	5.42
447.079	5.35
447.437	5.39
447.795	5.39
448.153	5.34
448.51	5.41
448.868	5.37
449.226	5.28
449.584	5.48
449.941	5.3
450.299	5.5
450.656	5.29
451.014	5.6
451.371	5.5
451.729	5.45
452.086	5.54
452.443	5.54
452.801	5.4
453.158	5.47
453.515	5.54
453.872	5.31
454.229	5.67
454.586	5.47
454.943	5.56
455.3	5.53
455.657	5.51
456.014	5.55
456.371	5.57
456.727	5.59
457.084	5.6
457.441	5.58
457.797	5.69
458.154	5.56
458.51	5.56
458.867	5.5
459.223	5.63
459.58	5.72
459.936	5.53
460.292	5.61
460.648	5.57
461.005	5.5
461.361	5.53
461.717	5.57
462.073	5.59
462.429	5.62
462.785	5.47
463.141	5.6
463.496	5.56
463.852	5.65
464.208	5.65
464.564	5.58
464.919	5.75
465.275	5.8
465.631	5.72
465.986	5.74
466.342	5.67
466.697	5.68
467.052	5.66
467.408	5.56
467.763	5.68
468.118	5.78
468.473	5.6
468.829	5.54
469.184	5.64
469.539	5.76
469.894	5.75
470.249	5.67
470.603	5.77
470.958	5.58
471.313	5.5
471.668	5.6
472.023	5.67
472.377	5.72
472.732	5.68
473.086	5.62
473.441	5.74
473.795	5.69
474.15	5.88
474.504	5.73
474.859	5.7
475.213	5.77
475.567	5.65
475.921	5.78
476.275	5.85
476.63	5.62
476.984	5.67
477.338	5.71
477.692	5.8
478.045	5.71
478.399	5.79
478.753	5.91
479.107	5.77
479.461	5.71
479.814	5.9
480.168	5.89
480.521	5.82
480.875	5.81
481.228	5.88
481.582	5.96
481.935	5.76
482.289	5.8
482.642	5.94
482.995	5.78
483.348	5.78
483.701	5.74
484.055	5.69
484.408	5.74
484.761	5.73
485.114	5.62
485.466	5.57
485.819	5.51
486.172	5.56
486.525	5.58
486.878	5.6
487.23	5.64
487.583	5.63
487.936	5.74
488.288	5.77
488.641	5.7
488.993	5.68
489.345	5.67
489.698	5.65
490.05	5.67
490.402	5.67
490.754	5.78
491.107	5.7
491.459	5.77
491.811	5.79
492.163	5.82
492.515	5.9
492.866	5.8
493.218	5.77
493.57	5.74
493.922	5.85
494.274	5.74
494.625	5.86
494.977	5.91
495.328	5.94
495.68	5.97
496.031	6.05
496.383	6.04
496.734	6.01
497.086	6.15
497.437	5.99
497.788	6.08
498.139	6.02
498.49	6.01
498.842	6.09
499.193	6.01
499.544	6.14
499.894	5.97
500.245	6.08
500.596	5.98
500.947	6.1
501.298	6.12
501.648	6.04
501.999	6.13
502.35	6.11
502.7	6.15
503.051	6.24
503.401	6.19
503.752	6.27
504.102	6.22
504.452	6.23
504.803	6.3
505.153	6.25
505.503	6.1
505.853	6.3
506.203	6.25
506.553	6.28
506.903	6.22
507.253	6.37
507.603	6.27
507.953	6.38
508.303	6.36
508.652	6.24
509.002	6.4
509.352	6.47
509.701	6.4
510.051	6.37
510.4	6.33
510.75	6.3
511.099	6.32
511.449	6.32
511.798	6.29
512.147	6.41
512.496	6.38
512.846	6.22
513.195	6.55
513.544	6.35
513.893	6.33
514.242	6.38
514.591	6.38
514.939	6.48
515.288	6.44
515.637	6.41
515.986	6.45
516.334	6.43
516.683	6.46
517.032	6.51
517.38	6.64
517.729	6.68
518.077	6.66
518.426	6.57
518.774	6.69
519.122	6.55
519.47	6.58
519.819	6.64
520.167	6.56
520.515	6.58
520.863	6.53
521.211	6.49
521.559	6.6
521.907	6.61
522.255	6.66
522.602	6.64
522.95	6.52
523.298	6.81
523.645	6.81
523.993	6.71
524.341	6.75
524.688	6.85
525.036	6.74
525.383	6.73
525.73	6.85
526.078	6.81
526.425	6.8
526.772	6.75
527.119	6.72
527.466	6.74
527.814	6.77
528.161	6.69
528.508	6.74
528.854	6.69
529.201	6.77
529.548	6.73
529.895	6.7
530.242	6.67
530.588	6.66
530.935	6.67
531.282	6.73
531.628	6.71
531.975	6.76
532.321	6.78
532.667	6.88
533.014	6.92
533.36	6.94
533.706	7.01
534.052	6.97
534.399	6.98
534.745	6.95
535.091	6.87
535.437	6.87
535.783	6.95
536.129	7.01
536.474	7
536.82	7.08
537.166	7.04
537.512	7.21
537.857	7.07
538.203	7.14
538.549	7.13
538.894	7.22
539.239	7.23
539.585	7.19
539.93	7.17
540.276	7.36
540.621	7.24
540.966	7.42
541.311	7.27
541.656	7.41
542.001	7.35
542.346	7.3
542.691	7.28
543.036	7.24
543.381	7.26
543.726	7.27
544.071	7.27
544.415	7.23
544.76	7.33
545.105	7.32
545.449	7.4
545.794	7.48
546.138	7.46
546.483	7.49
546.827	7.58
547.171	7.62
547.516	7.66
547.86	7.69
548.204	7.72
548.548	7.64
548.892	7.66
549.236	7.61
549.58	7.72
549.924	7.73
550.268	7.82
550.612	7.79
550.956	7.84
551.3	7.88
551.643	7.81
551.987	7.91
552.33	8.04
552.674	8.06
553.017	8.19
553.361	8.26
553.704	8.11
554.048	8.1
554.391	7.94
554.734	8.04
555.077	8.18
555.42	8.26
555.764	8.32
556.107	8.21
556.45	8.23
556.793	8.36
557.135	8.18
557.478	8.31
557.821	8.35
558.164	8.33
558.507	8.27
558.849	8.51
559.192	8.41
559.534	8.3
559.877	8.46
560.219	8.28
560.562	8.52
560.904	8.73
561.246	8.51
561.589	8.54
561.931	8.42
562.273	8.64
562.615	8.64
562.957	8.75
563.299	8.51
563.641	8.72
563.983	8.64
564.325	8.77
564.667	8.71
565.008	8.83
565.35	8.93
565.692	9.01
566.033	9.08
566.375	8.99
566.716	8.92
567.058	8.93
567.399	8.88
567.741	8.94
568.082	8.96
568.423	8.88
568.764	8.86
569.105	8.95
569.447	9.13
569.788	9.07
570.129	9.27
570.47	9.17
570.811	9.27
571.151	9.21
571.492	9.49
571.833	9.16
572.174	9.46
572.514	9.39
572.855	9.16
573.195	9.5
573.536	9.24
573.876	9.38
574.217	9.37
574.557	9.42
574.898	9.44
575.238	9.35
575.578	9.53
575.918	9.46
576.258	9.63
576.598	9.66
576.938	9.63
577.278	9.56
577.618	9.51
577.958	9.6
578.298	9.72
578.638	9.78
578.977	9.96
579.317	9.8
579.657	9.73
579.996	9.91
580.336	9.95
580.675	9.79
581.014	10.03
581.354	9.9
581.693	10.11
582.032	9.97
582.372	10.15
582.711	10.33
583.05	10.3
583.389	10
583.728	10.34
584.067	10.15
584.406	10.37
584.745	10.37
585.083	10.25
585.422	10.45
585.761	10.65
586.1	10.33
586.438	10.32
586.777	10.81
587.115	10.47
587.454	10.73
587.792	10.58
588.13	10.8
588.469	10.9
588.807	10.88
589.145	10.68
589.483	10.48
589.821	10.81
590.159	10.68
590.497	10.91
590.835	10.78
591.173	10.79
591.511	10.87
591.849	10.79
592.187	10.83
592.524	11
592.862	10.92
593.2	11.09
593.537	10.99
593.875	11.38
594.212	11.15
594.55	10.93
594.887	11.29
595.224	11.2
595.561	11.01
595.899	11.21
596.236	11.59
596.573	11.58
596.91	11.5
597.247	11.37
597.584	11.32
597.921	11.59
598.258	11.65
598.594	11.25
598.931	11.57
599.268	11.65
599.604	11.55
599.941	11.54
600.277	11.54
600.614	11.66
600.95	11.55
601.287	11.72
601.623	11.84
601.959	11.67
602.296	11.93
602.632	11.99
602.968	12.04
603.304	12.16
603.64	12.05
603.976	11.62
604.312	12.23
604.648	12.2
604.984	12.18
605.319	11.97
605.655	12.08
605.991	12.27
606.326	12.2
606.662	12.16
606.998	12.17
607.333	12.28
607.668	12.35
608.004	12.29
608.339	12.23
608.674	12.51
609.01	12.4
609.345	12.4
609.68	12.65
610.015	12.43
610.35	12.65
610.685	12.75
611.02	12.65
611.355	12.71
611.689	12.78
612.024	12.6
612.359	12.58
612.694	12.53
613.028	13.14
613.363	13.14
613.697	12.88
614.032	13.03
614.366	13.1
614.7	13.09
615.035	13.35
615.369	13.02
615.703	13.11
616.037	12.88
616.371	13.16
616.705	13.13
617.039	13.45
617.373	13.59
617.707	13.52
618.041	13.25
618.375	13.37
618.709	13.86
619.042	13.55
619.376	13.56
619.71	13.6
620.043	13.77
620.377	13.94
620.71	13.81
621.043	13.45
621.377	13.67
621.71	13.71
622.043	13.88
622.376	13.85
622.709	13.78
623.043	13.83
623.376	14.01
623.709	13.59
624.041	13.94
624.374	13.77
624.707	14.02
625.04	14.1
625.373	14.31
625.705	13.85
626.038	14.15
626.37	14.08
626.703	14.2
627.035	14.21
627.368	14.26
627.7	14.2
628.032	14.22
628.365	14.67
628.697	14.44
629.029	14.33
629.361	14.41
629.693	14.47
630.025	14.85
630.357	14.23
630.689	14.67
631.021	14.54
631.353	14.6
631.684	14.98
632.016	14.85
632.348	14.48
632.679	14.55
633.011	15.02
633.342	14.44
633.674	14.85
634.005	14.98
634.336	15.08
634.668	15.11
634.999	15.31
635.33	14.88
635.661	15.16
635.992	15.27
636.323	14.91
636.654	14.96
636.985	15.14
637.316	15.29
637.647	15.22
637.977	15.49
638.308	15.46
638.639	15.24
638.969	15.3
639.3	15.64
639.63	15.66
639.961	15.29
640.291	15.52
640.622	15.82
640.952	15.75
641.282	15.78
641.612	15.39
641.943	15.55
642.273	15.87
642.603	15.98
642.933	15.88
643.263	15.18
643.592	15.82
643.922	16.25
644.252	16.14
644.582	15.83
644.911	16.13
645.241	15.99
645.571	15.64
645.9	16.1
646.23	15.94
646.559	16.29
646.888	16.18
647.218	16.52
647.547	16.06
647.876	16.2
648.205	15.8
648.534	16.21
648.863	16.57
649.192	16.57
649.521	16.65
649.85	16.66
650.179	16.93
650.508	16.52
650.837	17.24
651.165	16.62
651.494	16.73
651.822	16.51
652.151	16.54
652.479	16.75
652.808	16.53
653.136	16.57
653.465	16.59
653.793	17.12
654.121	16.67
654.449	16.43
654.777	16.94
655.105	16.66
655.433	16.55
655.761	16.63
656.089	16.96
656.417	17.13
656.745	16.71
657.073	17.4
657.4	17.42
657.728	16.94
658.056	16.73
658.383	17.12
658.711	16.81
659.038	17.25
659.365	17.89
659.693	17.85
660.02	17.49
660.347	17.04
660.674	17.48
661.001	17.57
661.329	17.44
661.656	17.6
661.982	17.37
662.309	17.46
662.636	17.68
662.963	17.33
663.29	17.21
663.616	17.79
663.943	17.72
664.27	18.23
664.596	17.68
664.923	18
665.249	17.85
665.576	18
665.902	17.44
666.228	17.45
666.554	18.6
666.881	18.21
667.207	18.64
667.533	17.8
667.859	18.48
668.185	18.25
668.511	18.68
668.837	18.56
669.162	18.33
669.488	17.82
669.814	18.45
670.139	18.2
670.465	18.83
670.791	18.04
671.116	18.32
671.442	18.31
671.767	18.5
672.092	18.67
672.418	18.27
672.743	18.89
673.068	18.53
673.393	18.87
673.718	18.13
674.043	18.74
674.368	19.09
674.693	18.3
675.018	18.82
675.343	19.14
675.667	19.08
675.992	18.45
676.317	19.05
676.641	18.79
676.966	18.55
677.29	19.08
677.615	18.74
677.939	19.36
678.264	19.79
678.588	19.47
678.912	19.89
679.236	19.29
679.56	19.2
679.885	19.53
680.209	19.82
680.532	19.32
680.856	19.3
681.18	19.37
681.504	19.13
681.828	19.49
682.152	20.01
682.475	19.25
682.799	19.53
683.122	19.83
683.446	19.47
683.769	19.28
684.093	20.04
684.416	19.56
684.739	19.85
685.062	20.77
685.386	20.1
