Data from 0049_crown_Reflection__0__201.txt Node

Date: Fri Nov 04 16:30:53 CDT 2022
User: ToomeyLab
Spectrometer: FLMS14357
Trigger mode: 0
Integration Time (sec): 1.000000E-2
Scans to average: 100
Electric dark correction enabled: true
Nonlinearity correction enabled: false
Boxcar width: 0
XAxis mode: Wavelengths
Number of Pixels in Spectrum: 2048
>>>>>Begin Spectral Data<<<<<
189.047	-20.74
189.435	-20.74
189.823	-20.74
190.211	-1.92
190.599	21.92
190.987	-113.69
191.375	-100.59
191.763	-9.82
192.151	-1041.4
192.538	-93.57
192.926	105.12
193.314	9.91
193.702	31.76
194.089	292.24
194.477	-9.17
194.864	-1046.93
195.252	626.01
195.639	614.94
196.027	-25.38
196.414	-273.51
196.801	93.23
197.189	-131.84
197.576	100
197.963	302.43
198.351	-99.83
198.738	24.55
199.125	-23.99
199.512	-20.77
199.899	5.62
200.286	-32.76
200.673	-1.82
201.06	-7.34
201.447	-43.54
201.833	-6.64
202.22	7.22
202.607	8.16
202.994	23.58
203.38	29.06
203.767	33.55
204.154	28.89
204.54	23.23
204.927	15.15
205.313	33.2
205.699	50.26
206.086	-13.12
206.472	7.67
206.858	19.34
207.245	-18.17
207.631	9.65
208.017	33.27
208.403	23.87
208.789	14
209.175	11.64
209.561	-70.73
209.947	-28.86
210.333	33.72
210.719	14.14
211.105	-26.24
211.491	5.07
211.876	9.58
212.262	-19.18
212.648	29.71
213.034	40.57
213.419	-0.97
213.805	-53.58
214.19	17.18
214.576	0.61
214.961	32.27
215.346	14.54
215.732	-4.01
216.117	-7.53
216.502	12.78
216.888	-13.16
217.273	0.61
217.658	-0.8
218.043	-20.28
218.428	-1.6
218.813	-21.67
219.198	3.34
219.583	-46.91
219.968	9.09
220.353	0.55
220.738	-30.07
221.122	-8.15
221.507	17.4
221.892	-14.32
222.276	-11.69
222.661	20.79
223.046	-1.7
223.43	-4.6
223.815	-4.89
224.199	5.15
224.583	-2.36
224.968	0.23
225.352	3.96
225.736	2.47
226.121	-7.09
226.505	-1.85
226.889	1.96
227.273	3.61
227.657	-1.8
228.041	1.47
228.425	2.42
228.809	5.81
229.193	4.78
229.577	2.45
229.961	3.63
230.344	3.01
230.728	2.87
231.112	2.34
231.495	2.34
231.879	4.27
232.263	1.9
232.646	2.15
233.03	0.89
233.413	1.51
233.797	1.08
234.18	1.21
234.563	2.29
234.946	1.72
235.33	2.04
235.713	2.7
236.096	3.09
236.479	1.69
236.862	2.61
237.245	1.52
237.628	0.72
238.011	0.39
238.394	3.25
238.777	1.91
239.16	3.2
239.543	1.31
239.925	2.67
240.308	3.38
240.691	2.75
241.073	2.15
241.456	2.75
241.838	1.66
242.221	1.48
242.603	2.54
242.986	1.86
243.368	2.51
243.75	2.15
244.133	2.56
244.515	2.54
244.897	2.9
245.279	2.55
245.661	2.5
246.043	2.7
246.425	2.07
246.807	2.65
247.189	2.5
247.571	3.91
247.953	2.69
248.335	2.36
248.717	2.4
249.098	2.19
249.48	2.3
249.862	2.72
250.243	1.95
250.625	2.14
251.006	2.2
251.388	2.51
251.769	1.95
252.151	2.14
252.532	2.82
252.913	2.56
253.295	2.9
253.676	1.99
254.057	2.26
254.438	2.33
254.819	2.14
255.2	1.93
255.581	2.4
255.962	2.47
256.343	1.77
256.724	1.6
257.105	1.92
257.486	2.32
257.867	4.09
258.247	2.59
258.628	2.93
259.009	2.42
259.389	2.5
259.77	2.23
260.15	2.36
260.531	2.07
260.911	2.29
261.292	2.22
261.672	2.3
262.052	2.09
262.432	2.26
262.813	1.98
263.193	1.69
263.573	2.16
263.953	2.14
264.333	2.5
264.713	2.79
265.093	2.16
265.473	2.42
265.853	1.9
266.233	2.67
266.612	1.98
266.992	3.28
267.372	1.17
267.752	2
268.131	2.56
268.511	2.38
268.89	2.18
269.27	2.29
269.649	2.06
270.029	1.81
270.408	1.85
270.787	2.42
271.167	1.96
271.546	2.62
271.925	1.98
272.304	1.95
272.683	2.1
273.062	2.12
273.441	2.23
273.82	2.16
274.199	2.44
274.578	1.98
274.957	2.13
275.336	1.76
275.715	2.29
276.093	2.14
276.472	1.67
276.851	1.74
277.229	2.41
277.608	1.93
277.986	2.23
278.365	2.44
278.743	2.2
279.122	2.4
279.5	2.17
279.878	2.36
280.257	1.81
280.635	1.91
281.013	1.79
281.391	2.09
281.769	2.18
282.147	1.96
282.525	2.42
282.903	2.52
283.281	2.53
283.659	1.73
284.037	1.89
284.415	2.04
284.792	2.31
285.17	1.38
285.548	2.39
285.925	2.17
286.303	2.49
286.68	2.5
287.058	1.84
287.435	2
287.813	1.99
288.19	2.06
288.567	1.95
288.945	2.11
289.322	2.02
289.699	2.43
290.076	2.16
290.453	1.78
290.83	2.13
291.207	1.85
291.584	2.18
291.961	2.09
292.338	2.13
292.715	2.09
293.092	2.06
293.469	2.2
293.845	2.03
294.222	1.85
294.599	1.61
294.975	2.06
295.352	1.65
295.728	2.14
296.105	1.59
296.481	1.87
296.858	2.18
297.234	2.4
297.61	2.24
297.986	1.85
298.363	1.8
298.739	1.99
299.115	2.11
299.491	2.05
299.867	1.99
300.243	2.09
300.619	2.19
300.995	2.44
301.371	2.54
301.746	2.1
302.122	1.9
302.498	2.19
302.874	2.35
303.249	1.82
303.625	1.79
304	2.17
304.376	1.83
304.751	1.86
305.127	1.4
305.502	2.11
305.878	2.1
306.253	1.91
306.628	1.58
307.003	2.09
307.378	2.15
307.754	2.09
308.129	1.57
308.504	1.74
308.879	2.23
309.254	2.31
309.629	2.07
310.003	2.12
310.378	2.04
310.753	2.13
311.128	2.29
311.502	1.73
311.877	1.93
312.252	1.75
312.626	1.87
313.001	1.9
313.375	1.9
313.75	1.94
314.124	2.06
314.498	2.14
314.873	2.3
315.247	2.22
315.621	2.29
315.995	2.52
316.369	2.07
316.743	2.76
317.117	2.56
317.491	2.2
317.865	1.66
318.239	2.8
318.613	3.07
318.987	2.27
319.361	2.23
319.734	2.37
320.108	2.19
320.482	1.33
320.855	2.12
321.229	1.7
321.602	2.13
321.976	1.86
322.349	2.91
322.723	2.42
323.096	2.01
323.469	2.21
323.843	2.08
324.216	2.39
324.589	2.29
324.962	2.8
325.335	1.91
325.708	1.83
326.081	1.76
326.454	2.22
326.827	2.31
327.2	2.33
327.573	1.63
327.945	2.42
328.318	1.94
328.691	2.05
329.063	2.3
329.436	2.23
329.809	2.46
330.181	2.35
330.553	1.7
330.926	2.27
331.298	2.32
331.671	2.12
332.043	2.24
332.415	2.14
332.787	2.02
333.159	2.25
333.532	1.98
333.904	2.22
334.276	2.07
334.648	2.39
335.02	1.71
335.391	2.26
335.763	1.97
336.135	2.63
336.507	2.09
336.879	1.97
337.25	2.21
337.622	2.15
337.993	2.34
338.365	1.86
338.736	2.76
339.108	2.59
339.479	2.49
339.851	1.83
340.222	1.88
340.593	2.17
340.964	2.55
341.336	2.22
341.707	1.61
342.078	2.31
342.449	2.51
342.82	2.35
343.191	2.13
343.562	2.12
343.933	2.36
344.303	2.41
344.674	2.67
345.045	2.05
345.416	1.7
345.786	2.47
346.157	2.38
346.527	2.56
346.898	2.32
347.268	2.08
347.639	2.04
348.009	2.63
348.38	2.14
348.75	2.11
349.12	2.09
349.49	2.29
349.861	2.05
350.231	2.4
350.601	2.41
350.971	2.52
351.341	2.35
351.711	2.3
352.081	2.26
352.45	2.3
352.82	2.22
353.19	2.24
353.56	2.62
353.929	2.27
354.299	2.75
354.669	2.23
355.038	2.52
355.408	2.13
355.777	2.36
356.147	2.11
356.516	2
356.885	2.37
357.254	2.36
357.624	2.27
357.993	2.23
358.362	2.07
358.731	2.3
359.1	2.49
359.469	2.36
359.838	2.38
360.207	2.19
360.576	2.38
360.945	2.57
361.314	2.5
361.682	2.18
362.051	2.19
362.42	2.5
362.788	2.37
363.157	2.21
363.525	2.14
363.894	2.28
364.262	2.16
364.631	2.46
364.999	2.15
365.367	2.3
365.735	2.65
366.104	2.12
366.472	2.22
366.84	2.22
367.208	2.42
367.576	2.35
367.944	2.75
368.312	2.53
368.68	2.32
369.048	2.01
369.416	2.28
369.783	2.25
370.151	2.2
370.519	2.74
370.886	2.33
371.254	2.24
371.621	2.34
371.989	2.64
372.356	2.34
372.724	2.45
373.091	2.48
373.458	2.51
373.826	2.59
374.193	2.13
374.56	2.06
374.927	2.57
375.294	2.22
375.661	2.26
376.028	2.28
376.395	2.35
376.762	2.78
377.129	2.57
377.496	2.53
377.863	2.36
378.229	2.41
378.596	2.08
378.963	2.13
379.329	2.21
379.696	2.35
380.062	2.71
380.429	2.29
380.795	2.13
381.161	2.53
381.528	2.51
381.894	2.21
382.26	2.3
382.626	2.36
382.993	2.69
383.359	2.39
383.725	2.35
384.091	2.34
384.457	2.49
384.823	2.7
385.188	2.74
385.554	2.44
385.92	2.22
386.286	2.26
386.651	2.56
387.017	2.38
387.383	2.28
387.748	2.31
388.114	2.39
388.479	2.9
388.845	2.37
389.21	2.63
389.575	2.87
389.94	2.33
390.306	2.48
390.671	2.35
391.036	2.21
391.401	2.46
391.766	2.43
392.131	2.36
392.496	2.64
392.861	2.56
393.226	2.15
393.591	2.43
393.956	2.65
394.32	2.45
394.685	2.53
395.05	2.57
395.414	2.45
395.779	2.54
396.143	2.4
396.508	2.42
396.872	2.41
397.236	2.35
397.601	2.52
397.965	2.51
398.329	2.41
398.694	2.57
399.058	2.71
399.422	2.49
399.786	2.44
400.15	2.56
400.514	2.55
400.878	2.52
401.242	2.65
401.605	2.21
401.969	2.66
402.333	2.62
402.697	2.45
403.06	2.6
403.424	2.42
403.787	2.57
404.151	2.52
404.514	2.69
404.878	2.56
405.241	2.58
405.604	2.57
405.968	2.37
406.331	2.32
406.694	2.38
407.057	2.39
407.42	2.38
407.783	2.27
408.146	2.44
408.509	2.57
408.872	2.55
409.235	2.53
409.598	2.64
409.961	2.63
410.323	2.49
410.686	2.41
411.049	2.5
411.411	2.5
411.774	2.64
412.136	2.6
412.499	2.56
412.861	2.67
413.223	2.58
413.586	2.36
413.948	2.54
414.31	2.55
414.672	2.57
415.035	2.83
415.397	2.45
415.759	2.75
416.121	2.45
416.483	2.4
416.845	2.6
417.206	2.36
417.568	2.47
417.93	2.53
418.292	2.52
418.653	2.57
419.015	2.48
419.377	2.63
419.738	2.49
420.1	2.59
420.461	2.64
420.822	2.41
421.184	2.59
421.545	2.38
421.906	2.53
422.267	2.47
422.629	2.55
422.99	2.38
423.351	2.37
423.712	2.44
424.073	2.52
424.434	2.49
424.795	2.57
425.155	2.47
425.516	2.45
425.877	2.4
426.238	2.41
426.598	2.48
426.959	2.42
427.32	2.55
427.68	2.46
428.041	2.32
428.401	2.55
428.761	2.58
429.122	2.52
429.482	2.55
429.842	2.44
430.202	2.62
430.563	2.54
430.923	2.65
431.283	2.5
431.643	2.71
432.003	2.88
432.363	2.66
432.722	2.54
433.082	2.59
433.442	2.4
433.802	2.58
434.161	2.66
434.521	2.51
434.881	2.56
435.24	2.39
435.6	2.61
435.959	2.52
436.319	2.55
436.678	2.57
437.037	2.56
437.396	2.62
437.756	2.66
438.115	2.56
438.474	2.49
438.833	2.72
439.192	2.58
439.551	2.61
439.91	2.64
440.269	2.72
440.628	2.64
440.987	2.58
441.345	2.48
441.704	2.46
442.063	2.44
442.421	2.56
442.78	2.63
443.138	2.59
443.497	2.5
443.855	2.53
444.214	2.54
444.572	2.58
444.93	2.52
445.288	2.62
445.647	2.5
446.005	2.59
446.363	2.57
446.721	2.55
447.079	2.47
447.437	2.46
447.795	2.55
448.153	2.44
448.51	2.54
448.868	2.43
449.226	2.43
449.584	2.49
449.941	2.52
450.299	2.6
450.656	2.57
451.014	2.62
451.371	2.68
451.729	2.56
452.086	2.5
452.443	2.51
452.801	2.5
453.158	2.66
453.515	2.75
453.872	2.44
454.229	2.71
454.586	2.71
454.943	2.57
455.3	2.64
455.657	2.55
456.014	2.54
456.371	2.43
456.727	2.71
457.084	2.69
457.441	2.69
457.797	2.52
458.154	2.66
458.51	2.69
458.867	2.47
459.223	2.67
459.58	2.76
459.936	2.48
460.292	2.52
460.648	2.59
461.005	2.6
461.361	2.61
461.717	2.61
462.073	2.53
462.429	2.6
462.785	2.58
463.141	2.63
463.496	2.61
463.852	2.71
464.208	2.7
464.564	2.57
464.919	2.94
465.275	2.73
465.631	2.76
465.986	2.64
466.342	2.51
466.697	2.67
467.052	2.52
467.408	2.58
467.763	2.52
468.118	2.8
468.473	2.63
468.829	2.57
469.184	2.55
469.539	2.61
469.894	2.77
470.249	2.59
470.603	2.76
470.958	2.6
471.313	2.6
471.668	2.61
472.023	2.51
472.377	2.74
472.732	2.65
473.086	2.61
473.441	2.65
473.795	2.72
474.15	2.69
474.504	2.68
474.859	2.67
475.213	2.54
475.567	2.58
475.921	2.77
476.275	2.79
476.63	2.74
476.984	2.53
477.338	2.68
477.692	2.74
478.045	2.71
478.399	2.58
478.753	2.67
479.107	2.66
479.461	2.73
479.814	2.72
480.168	2.57
480.521	2.58
480.875	2.71
481.228	2.8
481.582	2.74
481.935	2.74
482.289	2.67
482.642	2.63
482.995	2.65
483.348	2.61
483.701	2.69
484.055	2.57
484.408	2.56
484.761	2.56
485.114	2.51
485.466	2.46
485.819	2.38
486.172	2.38
486.525	2.46
486.878	2.54
487.23	2.58
487.583	2.57
487.936	2.61
488.288	2.58
488.641	2.53
488.993	2.49
489.345	2.47
489.698	2.45
490.05	2.49
490.402	2.52
490.754	2.55
491.107	2.64
491.459	2.64
491.811	2.59
492.163	2.7
492.515	2.68
492.866	2.57
493.218	2.46
493.57	2.49
493.922	2.54
494.274	2.52
494.625	2.59
494.977	2.66
495.328	2.81
495.68	2.64
496.031	2.7
496.383	2.8
496.734	2.6
497.086	2.93
497.437	2.79
497.788	2.78
498.139	2.59
498.49	2.66
498.842	2.77
499.193	2.65
499.544	2.76
499.894	2.6
500.245	2.66
500.596	2.7
500.947	2.7
501.298	2.65
501.648	2.68
501.999	2.92
502.35	2.74
502.7	2.64
503.051	2.79
503.401	2.67
503.752	2.75
504.102	2.88
504.452	2.75
504.803	2.72
505.153	2.72
505.503	2.65
505.853	2.77
506.203	2.67
506.553	2.8
506.903	2.71
507.253	2.71
507.603	2.68
507.953	2.71
508.303	2.77
508.652	2.61
509.002	2.76
509.352	2.81
509.701	2.69
510.051	2.67
510.4	2.72
510.75	2.66
511.099	2.69
511.449	2.63
511.798	2.67
512.147	2.74
512.496	2.64
512.846	2.64
513.195	2.7
513.544	2.74
513.893	2.79
514.242	2.62
514.591	2.67
514.939	2.8
515.288	2.75
515.637	2.74
515.986	2.73
516.334	2.76
516.683	2.72
517.032	2.83
517.38	2.8
517.729	2.73
518.077	2.74
518.426	2.7
518.774	2.8
519.122	2.77
519.47	2.69
519.819	2.61
520.167	2.66
520.515	2.62
520.863	2.65
521.211	2.67
521.559	2.76
521.907	2.61
522.255	2.72
522.602	2.76
522.95	2.71
523.298	2.77
523.645	2.7
523.993	2.83
524.341	2.78
524.688	2.82
525.036	2.73
525.383	2.79
525.73	2.68
526.078	2.76
526.425	2.8
526.772	2.62
527.119	2.75
527.466	2.72
527.814	2.67
528.161	2.61
528.508	2.65
528.854	2.68
529.201	2.66
529.548	2.68
529.895	2.62
530.242	2.56
530.588	2.49
530.935	2.52
531.282	2.64
531.628	2.61
531.975	2.72
532.321	2.76
532.667	2.74
533.014	2.72
533.36	2.78
533.706	2.77
534.052	2.74
534.399	2.67
534.745	2.71
535.091	2.63
535.437	2.54
535.783	2.59
536.129	2.73
536.474	2.76
536.82	2.78
537.166	2.71
537.512	2.8
537.857	2.73
538.203	2.68
538.549	2.61
538.894	2.7
539.239	2.73
539.585	2.71
539.93	2.7
540.276	2.79
540.621	2.76
540.966	2.79
541.311	2.63
541.656	2.68
542.001	2.78
542.346	2.65
542.691	2.69
543.036	2.54
543.381	2.56
543.726	2.62
544.071	2.64
544.415	2.68
544.76	2.74
545.105	2.74
545.449	2.75
545.794	2.76
546.138	2.68
546.483	2.8
546.827	2.84
547.171	2.81
547.516	2.81
547.86	2.75
548.204	2.69
548.548	2.7
548.892	2.69
549.236	2.74
549.58	2.75
549.924	2.81
550.268	2.86
550.612	2.74
550.956	2.69
551.3	2.85
551.643	2.92
551.987	2.67
552.33	2.78
552.674	2.74
553.017	2.91
553.361	2.97
553.704	2.87
554.048	2.85
554.391	2.7
554.734	2.82
555.077	2.82
555.42	2.81
555.764	2.95
556.107	2.89
556.45	2.81
556.793	2.91
557.135	2.88
557.478	2.85
557.821	2.87
558.164	2.93
558.507	2.74
558.849	2.93
559.192	3.04
559.534	2.75
559.877	2.96
560.219	2.82
560.562	3
560.904	3
561.246	2.8
561.589	2.91
561.931	2.77
562.273	3.01
562.615	2.71
562.957	2.95
563.299	2.86
563.641	2.82
563.983	3.07
564.325	2.75
564.667	2.82
565.008	2.79
565.35	2.74
565.692	2.83
566.033	3.07
566.375	2.87
566.716	2.87
567.058	2.89
567.399	2.84
567.741	2.88
568.082	2.84
568.423	2.91
568.764	2.8
569.105	2.82
569.447	2.89
569.788	2.8
570.129	2.94
570.47	2.94
570.811	3.02
571.151	2.93
571.492	2.93
571.833	2.83
572.174	2.98
572.514	2.89
572.855	2.72
573.195	2.91
573.536	2.68
573.876	2.9
574.217	2.87
574.557	2.81
574.898	2.95
575.238	2.88
575.578	3.07
575.918	2.96
576.258	2.99
576.598	2.9
576.938	3.06
577.278	2.84
577.618	2.73
577.958	2.87
578.298	3.14
578.638	2.9
578.977	2.99
579.317	3.06
579.657	2.73
579.996	2.89
580.336	2.83
580.675	2.95
581.014	3.12
581.354	2.95
581.693	3.14
582.032	2.77
582.372	3.04
582.711	2.92
583.05	3.03
583.389	2.81
583.728	2.9
584.067	3.07
584.406	2.92
584.745	3.18
585.083	2.92
585.422	3.12
585.761	3.01
586.1	2.93
586.438	2.88
586.777	3.14
587.115	2.99
587.454	3.11
587.792	3.21
588.13	3.03
588.469	2.96
588.807	3.2
589.145	3.1
589.483	2.7
589.821	3.26
590.159	3
590.497	3.13
590.835	2.93
591.173	2.87
591.511	3.02
591.849	3.01
592.187	3.02
592.524	2.82
592.862	2.92
593.2	2.99
593.537	3.03
593.875	2.97
594.212	2.86
594.55	3.05
594.887	3.16
595.224	2.99
595.561	2.96
595.899	2.82
596.236	3.21
596.573	3.18
596.91	3.01
597.247	3.01
597.584	2.99
597.921	3.22
598.258	2.9
598.594	2.63
598.931	3.06
599.268	3.09
599.604	3.02
599.941	3.05
600.277	2.98
600.614	3.09
600.95	3.05
601.287	2.85
601.623	3.11
601.959	2.99
602.296	3.01
602.632	3.14
602.968	3.17
603.304	2.87
603.64	3.17
603.976	2.89
604.312	2.99
604.648	2.9
604.984	2.88
605.319	3.01
605.655	2.88
605.991	3.11
606.326	3.11
606.662	2.91
606.998	2.94
607.333	2.88
607.668	3.29
608.004	3.11
608.339	3.14
608.674	3.3
609.01	3.25
609.345	3.29
609.68	3.12
610.015	2.98
610.35	3
610.685	3.18
611.02	3.03
611.355	2.97
611.689	3.25
612.024	3.03
612.359	3.02
612.694	3
613.028	3.3
613.363	3.23
613.697	3.07
614.032	2.9
614.366	2.84
614.7	3.15
615.035	3.19
615.369	3
615.703	3.1
616.037	3.01
616.371	3.24
616.705	3.17
617.039	3.45
617.373	3.48
617.707	3.27
618.041	3.15
618.375	3.15
618.709	3.27
619.042	2.86
619.376	3.37
619.71	3.07
620.043	3.48
620.377	3.37
620.71	3.41
621.043	2.92
621.377	3.3
621.71	3.21
622.043	3.3
622.376	3.37
622.709	3.32
623.043	3.45
623.376	3.55
623.709	3.17
624.041	3.13
624.374	2.98
624.707	2.95
625.04	3.35
625.373	3.51
625.705	3.02
626.038	3.06
626.37	3.55
626.703	3.33
627.035	3.17
627.368	3.06
627.7	3.04
628.032	3.19
628.365	3.51
628.697	3.17
629.029	3.15
629.361	2.94
629.693	3.24
630.025	3.36
630.357	3.01
630.689	3.37
631.021	2.92
631.353	3.14
631.684	3.35
632.016	3.26
632.348	3.14
632.679	3.16
633.011	3.43
633.342	3.35
633.674	3.2
634.005	3.52
634.336	3.26
634.668	3.35
634.999	3.31
635.33	3.25
635.661	3.3
635.992	3.21
636.323	3.18
636.654	3.06
636.985	3.14
637.316	3.39
637.647	2.96
637.977	3.48
638.308	3.39
638.639	3.37
638.969	3
639.3	3.47
639.63	3.42
639.961	3.63
640.291	3.45
640.622	3.3
640.952	3.05
641.282	3.09
641.612	3.52
641.943	3.3
642.273	3.22
642.603	3.6
642.933	3.19
643.263	2.86
643.592	3.2
643.922	3.55
644.252	3.45
644.582	3.59
644.911	3.33
645.241	2.9
645.571	3.08
645.9	2.91
646.23	3.22
646.559	3.56
646.888	3.26
647.218	3.43
647.547	3.52
647.876	3.61
648.205	2.68
648.534	3.7
648.863	3.26
649.192	3.62
649.521	3.27
649.85	3.8
650.179	3.4
650.508	3.68
650.837	3.49
651.165	3.53
651.494	3.02
651.822	3.33
652.151	3.53
652.479	3.18
652.808	3.14
653.136	3.47
653.465	3.44
653.793	3.53
654.121	3.54
654.449	2.67
654.777	3.56
655.105	3.48
655.433	3.32
655.761	3.3
656.089	3.84
656.417	3.37
656.745	2.83
657.073	3.38
657.4	3.48
657.728	3.26
658.056	2.95
658.383	3.54
658.711	3.28
659.038	3.48
659.365	3.91
659.693	3.76
660.02	3.48
660.347	3.12
660.674	2.98
661.001	3.15
661.329	3.35
661.656	3.34
661.982	3.26
662.309	3.62
662.636	3.69
662.963	3.18
663.29	3.05
663.616	3.7
663.943	3.45
664.27	3.95
664.596	3.33
664.923	3.52
665.249	3.56
665.576	3.56
665.902	2.38
666.228	3.1
666.554	3.72
666.881	3.46
667.207	4.05
667.533	3.99
667.859	3.76
668.185	3.86
668.511	3.86
668.837	3.17
669.162	3.96
669.488	3.58
669.814	3.64
670.139	3.46
670.465	3.39
670.791	3.3
671.116	3.54
671.442	3.96
671.767	3.82
672.092	3.5
672.418	3.7
672.743	3.84
673.068	3.41
673.393	3.8
673.718	3.4
674.043	3.63
674.368	3.04
674.693	3.34
675.018	3.29
675.343	3.74
675.667	3.98
675.992	3.61
676.317	3.61
676.641	3.62
676.966	3.92
677.29	3.82
677.615	4.14
677.939	3.69
678.264	3.97
678.588	4.14
678.912	4.23
679.236	4.06
679.56	3.51
679.885	3.51
680.209	3.95
680.532	3.53
680.856	3.7
681.18	3.2
681.504	3.87
681.828	3.5
682.152	4.26
682.475	3.58
682.799	4.44
683.122	3.93
683.446	3.46
683.769	3.47
684.093	3.42
684.416	3.07
684.739	3.51
685.062	4.28
685.386	3.73
685.709	4.24
686.032	4.24
686.355	4.02
686.678	4.33
687.001	3.96
687.324	3.82
687.646	4.28
687.969	3.14
688.292	4.19
688.614	4.1
688.937	3.85
689.26	3.82
689.582	4.65
689.904	4.36
690.227	2.92
690.549	4.24
690.871	3.9
691.194	4.2
691.516	3.81
691.838	4.38
692.16	4.28
692.482	4.06
692.804	3.48
