Data from 0416_forehead_Reflection__0__56.txt Node

Date: Fri Dec 15 16:48:05 CST 2023
User: ToomeyLab
Spectrometer: FLMS14357
Trigger mode: 0
Integration Time (sec): 1.000000E-2
Scans to average: 100
Electric dark correction enabled: true
Nonlinearity correction enabled: false
Boxcar width: 0
XAxis mode: Wavelengths
Number of Pixels in Spectrum: 2048
>>>>>Begin Spectral Data<<<<<
189.047	-4.64
189.435	-4.64
189.823	-4.64
190.211	172.2
190.599	602.1
190.987	-15.67
191.375	-7.42
191.763	-70.4
192.151	126.9
192.538	90.86
192.926	-12.54
193.314	106.81
193.702	25.95
194.089	-566.73
194.477	-42.31
194.864	15.69
195.252	97.38
195.639	49.5
196.027	-129.81
196.414	-162.54
196.801	-51.76
197.189	425.84
197.576	40.89
197.963	-5.93
198.351	14.61
198.738	13.77
199.125	50.24
199.512	31.02
199.899	53.04
200.286	39.19
200.673	20.54
201.06	57.88
201.447	14.34
201.833	-0.15
202.22	-0.17
202.607	40.94
202.994	26.26
203.38	52.41
203.767	23.98
204.154	72.43
204.54	63.11
204.927	5.77
205.313	-29.56
205.699	31.81
206.086	32.71
206.472	53.92
206.858	78.8
207.245	-2.5
207.631	22.11
208.017	12.88
208.403	31.25
208.789	22.02
209.175	24.4
209.561	-11.88
209.947	-1.09
210.333	-56.52
210.719	9.05
211.105	45.6
211.491	-15.15
211.876	31.82
212.262	23.77
212.648	35.38
213.034	44.12
213.419	7.6
213.805	0.67
214.19	3.72
214.576	7.41
214.961	-3.1
215.346	4.68
215.732	35.47
216.117	42.91
216.502	14.57
216.888	22.5
217.273	47.33
217.658	12.51
218.043	26.65
218.428	-38.48
218.813	-2.87
219.198	22.14
219.583	10.6
219.968	9.96
220.353	25.3
220.738	35.79
221.122	6.75
221.507	11.4
221.892	17.18
222.276	-0.87
222.661	18.11
223.046	27.82
223.43	23.83
223.815	23.74
224.199	6.26
224.583	13.19
224.968	13.52
225.352	20.05
225.736	6.93
226.121	-1.86
226.505	0.63
226.889	16.21
227.273	1.54
227.657	10.48
228.041	10.1
228.425	7.25
228.809	10.83
229.193	7.13
229.577	4.3
229.961	7.12
230.344	3.41
230.728	3.96
231.112	4.45
231.495	4.35
231.879	4.01
232.263	5.68
232.646	5.37
233.03	5.51
233.413	5.4
233.797	4.4
234.18	4.48
234.563	4.44
234.946	4.85
235.33	9.42
235.713	5.48
236.096	5.32
236.479	4.78
236.862	5.94
237.245	5.69
237.628	3.12
238.011	6.63
238.394	8.02
238.777	5.33
239.16	2.81
239.543	4.43
239.925	6.39
240.308	4.73
240.691	7.61
241.073	5.04
241.456	3.65
241.838	3.6
242.221	5.05
242.603	5.43
242.986	4.58
243.368	4.35
243.75	4.84
244.133	3.82
244.515	4.24
244.897	4.32
245.279	4.02
245.661	4.63
246.043	3.88
246.425	3.35
246.807	5.16
247.189	5.3
247.571	3.77
247.953	4.17
248.335	4.36
248.717	3.87
249.098	3.62
249.48	4.23
249.862	3.85
250.243	4.17
250.625	4.1
251.006	4.55
251.388	3.65
251.769	3.58
252.151	5.48
252.532	4.45
252.913	4.47
253.295	3.94
253.676	4.18
254.057	3.87
254.438	4.17
254.819	3.83
255.2	4.21
255.581	4.78
255.962	5.02
256.343	4.4
256.724	3.69
257.105	3.66
257.486	3.34
257.867	4.25
258.247	5.56
258.628	3.74
259.009	4.31
259.389	3.87
259.77	3.98
260.15	3.48
260.531	3.48
260.911	4.91
261.292	3.71
261.672	4.22
262.052	3.73
262.432	4.19
262.813	4.12
263.193	4.17
263.573	4.24
263.953	3.99
264.333	5.13
264.713	4.39
265.093	3.98
265.473	4
265.853	3.59
266.233	4.1
266.612	1.73
266.992	3.36
267.372	4.64
267.752	4.1
268.131	4.5
268.511	4.37
268.89	4.2
269.27	4.13
269.649	3.74
270.029	3.74
270.408	4.99
270.787	4.01
271.167	5.08
271.546	4.49
271.925	3.66
272.304	4.16
272.683	4.59
273.062	4.24
273.441	3.98
273.82	3.39
274.199	3.99
274.578	3.89
274.957	3.69
275.336	4.45
275.715	3.96
276.093	3.87
276.472	3.78
276.851	4.06
277.229	4.24
277.608	3.77
277.986	4.42
278.365	4.64
278.743	3.96
279.122	3.89
279.5	3.82
279.878	4.59
280.257	3.97
280.635	3.87
281.013	4.2
281.391	4.55
281.769	4.28
282.147	4.06
282.525	4.77
282.903	3.04
283.281	3.95
283.659	4.16
284.037	4.29
284.415	4.47
284.792	4.49
285.17	2.92
285.548	3.75
285.925	4.33
286.303	4.05
286.68	3.75
287.058	3.51
287.435	3.47
287.813	4.02
288.19	3.67
288.567	3.66
288.945	4.22
289.322	4.54
289.699	4.11
290.076	4.1
290.453	3.96
290.83	3.59
291.207	3.36
291.584	4.54
291.961	4.3
292.338	3.71
292.715	4.44
293.092	4.01
293.469	4.52
293.845	4.52
294.222	3.64
294.599	4.7
294.975	3.89
295.352	3.96
295.728	4.48
296.105	4.05
296.481	4.58
296.858	4.57
297.234	4.1
297.61	4.2
297.986	4.28
298.363	4.48
298.739	4.11
299.115	3.99
299.491	4.34
299.867	4.41
300.243	4.44
300.619	3.89
300.995	4.13
301.371	4.54
301.746	4.09
302.122	4.91
302.498	4.58
302.874	4.47
303.249	4.29
303.625	4.72
304	4.35
304.376	4.14
304.751	4.35
305.127	5.36
305.502	3.99
305.878	4.22
306.253	4.52
306.628	5.17
307.003	4.53
307.378	5.41
307.754	4.98
308.129	4.6
308.504	4.86
308.879	4.71
309.254	5.72
309.629	5.44
310.003	5.03
310.378	5.71
310.753	5.65
311.128	5.08
311.502	4.79
311.877	5.03
312.252	4.71
312.626	5.05
313.001	5.03
313.375	5.22
313.75	4.56
314.124	5.2
314.498	4.79
314.873	4.95
315.247	5.12
315.621	5.15
315.995	4.53
316.369	5.37
316.743	5.26
317.117	5.3
317.491	5.78
317.865	5.47
318.239	5.56
318.613	5.49
318.987	5.72
319.361	4.96
319.734	5.61
320.108	5.46
320.482	5.86
320.855	6.37
321.229	5.74
321.602	5.14
321.976	6.19
322.349	5.38
322.723	5.69
323.096	5.86
323.469	4.68
323.843	5.3
324.216	6.04
324.589	5.85
324.962	6.44
325.335	5.34
325.708	5.63
326.081	5.74
326.454	5.81
326.827	5.78
327.2	5.94
327.573	6.81
327.945	6.47
328.318	5.64
328.691	5.45
329.063	6.04
329.436	5.88
329.809	6.77
330.181	6.03
330.553	6.09
330.926	6.36
331.298	6.09
331.671	5.91
332.043	6.45
332.415	6.76
332.787	6.25
333.159	6.97
333.532	6.21
333.904	6.58
334.276	6.19
334.648	6.81
335.02	6.84
335.391	5.92
335.763	6.37
336.135	6.58
336.507	6.59
336.879	6.49
337.25	5.76
337.622	6.49
337.993	6.58
338.365	6.9
338.736	6.32
339.108	6.74
339.479	6.4
339.851	6.31
340.222	6.61
340.593	6.46
340.964	6.72
341.336	7.13
341.707	6.59
342.078	7.26
342.449	6.63
342.82	7.02
343.191	7.02
343.562	7.15
343.933	6.7
344.303	7.17
344.674	6.84
345.045	6.95
345.416	7.83
345.786	6.87
346.157	6.96
346.527	6.62
346.898	6.45
347.268	7.9
347.639	7.17
348.009	7.39
348.38	6.87
348.75	7.17
349.12	7.09
349.49	7.51
349.861	7.59
350.231	7.35
350.601	7.33
350.971	7.62
351.341	7.82
351.711	7.63
352.081	7.38
352.45	7.15
352.82	7.74
353.19	7.55
353.56	7.29
353.929	7.66
354.299	7.99
354.669	7.55
355.038	8.25
355.408	7.78
355.777	7.39
356.147	7.72
356.516	7.68
356.885	8.18
357.254	8.12
357.624	8.26
357.993	8.33
358.362	7.74
358.731	7.63
359.1	8.14
359.469	8.23
359.838	8.35
360.207	7.87
360.576	7.47
360.945	7.84
361.314	8.29
361.682	8.15
362.051	8.02
362.42	8.15
362.788	8.11
363.157	8.38
363.525	8.45
363.894	8.27
364.262	8.42
364.631	8.17
364.999	8.81
365.367	8.01
365.735	9.07
366.104	8.62
366.472	8.82
366.84	8.2
367.208	8.56
367.576	9.14
367.944	8.84
368.312	8.42
368.68	8.91
369.048	9
369.416	8.83
369.783	8.6
370.151	9.22
370.519	9.38
370.886	9.25
371.254	8.95
371.621	9.03
371.989	8.97
372.356	8.76
372.724	9.28
373.091	9.14
373.458	9.16
373.826	9.43
374.193	9.2
374.56	9.46
374.927	9.33
375.294	9.4
375.661	9.48
376.028	9.37
376.395	9.14
376.762	9.57
377.129	9.67
377.496	9.15
377.863	9.69
378.229	9.56
378.596	9.64
378.963	9.38
379.329	9.58
379.696	9.76
380.062	9.65
380.429	9.59
380.795	9.68
381.161	9.75
381.528	9.67
381.894	10
382.26	9.73
382.626	10.28
382.993	9.74
383.359	10.43
383.725	9.97
384.091	10.35
384.457	10.55
384.823	10.02
385.188	10.05
385.554	10.07
385.92	10.36
386.286	10.54
386.651	10.56
387.017	10.51
387.383	10.63
387.748	10.12
388.114	10.38
388.479	10.28
388.845	10.8
389.21	10.7
389.575	10.69
389.94	10.52
390.306	10.61
390.671	10.65
391.036	10.7
391.401	10.37
391.766	10.89
392.131	10.7
392.496	11.07
392.861	10.87
393.226	10.84
393.591	10.85
393.956	10.54
394.32	11.1
394.685	10.85
395.05	10.79
395.414	10.9
395.779	10.73
396.143	10.79
396.508	11.09
396.872	11.23
397.236	11.34
397.601	11.21
397.965	11.13
398.329	11.76
398.694	11.62
399.058	11.45
399.422	11.18
399.786	11.68
400.15	11.92
400.514	11.37
400.878	11.72
401.242	12.1
401.605	11.7
401.969	11.93
402.333	11.94
402.697	11.78
403.06	11.57
403.424	11.84
403.787	11.92
404.151	12.23
404.514	11.92
404.878	11.83
405.241	12.04
405.604	12.15
405.968	12.2
406.331	11.88
406.694	12.47
407.057	12.07
407.42	12.39
407.783	12.07
408.146	12.15
408.509	12.32
408.872	12.34
409.235	12.29
409.598	12.59
409.961	12.47
410.323	12.39
410.686	12.65
411.049	12.59
411.411	12.41
411.774	12.37
412.136	12.66
412.499	12.49
412.861	12.55
413.223	12.78
413.586	12.71
413.948	12.75
414.31	12.83
414.672	12.67
415.035	12.93
415.397	13.38
415.759	12.93
416.121	13.16
416.483	12.86
416.845	13.04
417.206	12.89
417.568	13.19
417.93	12.96
418.292	13.09
418.653	13.24
419.015	13.08
419.377	13.18
419.738	13.05
420.1	13.05
420.461	13.16
420.822	13.26
421.184	13.22
421.545	13.43
421.906	13.2
422.267	13.25
422.629	13.24
422.99	13.29
423.351	13.31
423.712	13.47
424.073	13.52
424.434	13.47
424.795	13.64
425.155	13.65
425.516	13.42
425.877	13.6
426.238	13.58
426.598	13.73
426.959	13.73
427.32	13.79
427.68	13.84
428.041	14.05
428.401	13.99
428.761	14.04
429.122	14.32
429.482	14.34
429.842	14.52
430.202	14.53
430.563	14.78
430.923	14.54
431.283	14.56
431.643	14.58
432.003	14.68
432.363	14.58
432.722	14.7
433.082	14.85
433.442	14.73
433.802	14.8
434.161	14.7
434.521	15.01
434.881	14.62
435.24	14.76
435.6	14.96
435.959	14.86
436.319	15
436.678	14.93
437.037	14.93
437.396	15.27
437.756	15.12
438.115	15.23
438.474	15.43
438.833	15.02
439.192	15.34
439.551	15.53
439.91	15.28
440.269	15.19
440.628	15.3
440.987	15.25
441.345	15.25
441.704	15.61
442.063	15.38
442.421	15.54
442.78	15.32
443.138	15.49
443.497	15.54
443.855	15.69
444.214	15.98
444.572	15.99
444.93	15.88
445.288	15.97
445.647	16.03
446.005	15.91
446.363	15.87
446.721	15.91
447.079	15.74
447.437	15.78
447.795	15.85
448.153	15.73
448.51	15.75
448.868	15.89
449.226	16.02
449.584	16.09
449.941	16.44
450.299	16.46
450.656	16.49
451.014	16.48
451.371	16.53
451.729	16.69
452.086	16.88
452.443	16.82
452.801	17.02
453.158	16.99
453.515	16.83
453.872	16.89
454.229	17.07
454.586	16.89
454.943	16.93
455.3	17.19
455.657	17.18
456.014	17.07
456.371	17.22
456.727	17.15
457.084	17.32
457.441	17.23
457.797	17.37
458.154	17.78
458.51	17.53
458.867	17.58
459.223	17.7
459.58	17.71
459.936	17.8
460.292	17.69
460.648	17.65
461.005	17.49
461.361	17.42
461.717	17.28
462.073	17.43
462.429	17.73
462.785	17.83
463.141	17.91
463.496	18.07
463.852	17.98
464.208	18.22
464.564	18.5
464.919	18.19
465.275	18.43
465.631	18.55
465.986	18.36
466.342	18.53
466.697	18.13
467.052	18.66
467.408	18.61
467.763	18.65
468.118	18.61
468.473	18.64
468.829	18.46
469.184	18.64
469.539	18.66
469.894	18.82
470.249	18.94
470.603	19.07
470.958	19.1
471.313	19.13
471.668	19.13
472.023	19.11
472.377	19.03
472.732	19.22
473.086	19.27
473.441	19.29
473.795	19.59
474.15	19.27
474.504	19.27
474.859	19.42
475.213	19.43
475.567	19.64
475.921	19.7
476.275	19.72
476.63	19.92
476.984	19.85
477.338	19.88
477.692	19.78
478.045	19.78
478.399	19.89
478.753	19.89
479.107	20.07
479.461	19.85
479.814	19.97
480.168	20.23
480.521	20.04
480.875	19.99
481.228	20.21
481.582	20.22
481.935	20.25
482.289	20.26
482.642	20.38
482.995	20.19
483.348	20.13
483.701	20.34
484.055	20.24
484.408	20.22
484.761	19.94
485.114	19.57
485.466	19.15
485.819	19.24
486.172	19.46
486.525	19.69
486.878	19.83
487.23	20.08
487.583	20.36
487.936	20.37
488.288	20.38
488.641	20.27
488.993	20.09
489.345	20
489.698	20.05
490.05	20.11
490.402	20.34
490.754	20.53
491.107	20.83
491.459	21.01
491.811	21.08
492.163	21.32
492.515	21.23
492.866	21.06
493.218	20.69
493.57	20.57
493.922	20.7
494.274	20.99
494.625	21.29
494.977	21.53
495.328	21.98
495.68	21.76
496.031	22.08
496.383	21.92
496.734	22.18
497.086	22.13
497.437	22.17
497.788	22.24
498.139	22.14
498.49	22.27
498.842	22.06
499.193	22.17
499.544	22.41
499.894	22.38
500.245	22.4
500.596	22.55
500.947	22.46
501.298	22.62
501.648	22.89
501.999	23.04
502.35	22.94
502.7	23.03
503.051	23
503.401	23.06
503.752	23.3
504.102	23.38
504.452	23.32
504.803	23.33
505.153	23.24
505.503	23.16
505.853	23.4
506.203	23.25
506.553	23.45
506.903	23.67
507.253	23.57
507.603	23.73
507.953	23.64
508.303	23.75
508.652	23.77
509.002	23.82
509.352	23.78
509.701	23.69
510.051	23.83
510.4	23.68
510.75	23.75
511.099	23.85
511.449	24
511.798	23.88
512.147	23.82
512.496	24.08
512.846	24.2
513.195	24.2
513.544	24.24
513.893	24.25
514.242	24.24
514.591	24.37
514.939	24.51
515.288	24.54
515.637	24.66
515.986	24.87
516.334	24.93
516.683	24.66
517.032	24.97
517.38	25.11
517.729	25.36
518.077	25.07
518.426	25.21
518.774	25.2
519.122	25.02
519.47	25.06
519.819	24.86
520.167	24.85
520.515	24.8
520.863	24.84
521.211	25
521.559	25.16
521.907	25.28
522.255	25.32
522.602	25.41
522.95	25.62
523.298	25.81
523.645	25.98
523.993	25.87
524.341	25.92
524.688	25.97
525.036	25.94
525.383	25.99
525.73	26.16
526.078	26.09
526.425	25.89
526.772	25.97
527.119	25.87
527.466	25.6
527.814	25.77
528.161	25.88
528.508	26
528.854	26.05
529.201	26.03
529.548	25.74
529.895	25.49
530.242	25.13
530.588	25.25
530.935	25.53
531.282	25.65
531.628	25.78
531.975	26
532.321	26.4
532.667	26.48
533.014	26.73
533.36	26.85
533.706	26.75
534.052	26.83
534.399	26.77
534.745	26.35
535.091	26.37
535.437	26.44
535.783	26.63
536.129	26.83
536.474	26.98
536.82	27.26
537.166	27.47
537.512	27.6
537.857	27.39
538.203	27.38
538.549	27.19
538.894	27.42
539.239	27.52
539.585	27.6
539.93	27.94
540.276	28.05
540.621	28.27
540.966	28.21
541.311	28.41
541.656	28.41
542.001	28.23
542.346	28.01
542.691	27.78
543.036	27.32
543.381	27.35
543.726	27.6
544.071	27.83
544.415	27.97
544.76	28.05
545.105	28.25
545.449	28.36
545.794	28.63
546.138	28.75
546.483	28.88
546.827	28.93
547.171	28.84
547.516	29.1
547.86	29.13
548.204	28.99
548.548	28.95
548.892	29.14
549.236	29.13
549.58	29.26
549.924	29.55
550.268	29.8
550.612	30.04
550.956	30.13
551.3	29.89
551.643	30.09
551.987	30.32
552.33	30.05
552.674	30.32
553.017	30.5
553.361	30.39
553.704	30.73
554.048	30.24
554.391	30.35
554.734	30.4
555.077	30.56
555.42	30.31
555.764	30.54
556.107	30.46
556.45	30.77
556.793	31.04
557.135	31.08
557.478	31.08
557.821	31.12
558.164	31
558.507	31.23
558.849	31.15
559.192	31.44
559.534	31.43
559.877	31.55
560.219	31.15
560.562	31.85
560.904	31.4
561.246	31.83
561.589	31.91
561.931	31.84
562.273	31.87
562.615	31.8
562.957	31.82
563.299	31.66
563.641	32.03
563.983	32.27
564.325	32.06
564.667	32.05
565.008	32.12
565.35	32.15
565.692	32.37
566.033	32.34
566.375	32.63
566.716	32.75
567.058	32.65
567.399	32.32
567.741	32.23
568.082	32.38
568.423	32.4
568.764	32.61
569.105	32.67
569.447	32.65
569.788	32.96
570.129	33
570.47	33.17
570.811	33.09
571.151	33.23
571.492	33.03
571.833	33.12
572.174	33.19
572.514	33.26
572.855	33.39
573.195	33.25
573.536	33.2
573.876	33.07
574.217	33.23
574.557	33.32
574.898	33.48
575.238	33.42
575.578	33.56
575.918	33.75
576.258	33.86
576.598	33.74
576.938	33.62
577.278	33.63
577.618	33.86
577.958	34.04
578.298	34.21
578.638	34.24
578.977	34.3
579.317	34.39
579.657	34.68
579.996	34.59
580.336	34.89
580.675	35.07
581.014	35.13
581.354	35.1
581.693	35.14
582.032	35.47
582.372	35.25
582.711	35.46
583.05	35.15
583.389	35.46
583.728	35.13
584.067	35.62
584.406	35.58
584.745	35.75
585.083	35.85
585.422	35.77
585.761	35.78
586.1	35.75
586.438	36.06
586.777	36.08
587.115	36.01
587.454	35.94
587.792	36.18
588.13	36.46
588.469	36.29
588.807	36.11
589.145	36
589.483	36.38
589.821	36.55
590.159	36.22
590.497	36.61
590.835	36.94
591.173	36.59
591.511	36.9
591.849	36.57
592.187	36.62
592.524	36.47
592.862	36.97
593.2	36.83
593.537	37.07
593.875	36.85
594.212	37.19
594.55	37.03
594.887	37.09
595.224	37.3
595.561	37.49
595.899	37.07
596.236	37.4
596.573	37.57
596.91	37.22
597.247	37.36
597.584	37.76
597.921	37.53
598.258	37.31
598.594	37.21
598.931	37.15
599.268	37.34
599.604	37.17
599.941	37.67
600.277	37.64
600.614	37.81
600.95	37.43
601.287	38.18
601.623	38.36
601.959	38.45
602.296	38.24
602.632	38.18
602.968	38.39
603.304	38.55
603.64	38.14
603.976	38.71
604.312	38.35
604.648	38.64
604.984	38.66
605.319	38.52
605.655	38.66
605.991	38.34
606.326	38.25
606.662	38.86
606.998	38.29
607.333	38.67
607.668	38.78
608.004	39.22
608.339	39.41
608.674	39.06
609.01	38.98
609.345	39.44
609.68	39.8
610.015	39.69
610.35	39.26
610.685	39.21
611.02	39.62
611.355	39.22
611.689	39.57
612.024	39.87
612.359	39.87
612.694	39.47
613.028	39.57
613.363	40.26
613.697	40.54
614.032	40.62
614.366	40.09
614.7	40.42
615.035	40.2
615.369	40.4
615.703	40.28
616.037	40.97
616.371	40.36
616.705	40.47
617.039	40.77
617.373	40.61
617.707	40.6
618.041	40.71
618.375	41.25
618.709	41.17
619.042	40.99
619.376	41.1
619.71	41.13
620.043	41.22
620.377	41.23
620.71	41.44
621.043	41.42
621.377	41.57
621.71	41.43
622.043	41.42
622.376	41.52
622.709	41.87
623.043	41.92
623.376	41.39
623.709	41.34
624.041	42.15
624.374	41.47
624.707	41.86
625.04	42.26
625.373	41.74
625.705	42.26
626.038	42.28
626.37	41.3
626.703	42.3
627.035	42.1
627.368	42.63
627.7	42.37
628.032	42.24
628.365	42.09
628.697	42.27
629.029	41.99
629.361	42.65
629.693	42.52
630.025	42.74
630.357	42.64
630.689	42.63
631.021	43.13
631.353	43.34
631.684	43.08
632.016	42.32
632.348	43.22
632.679	43.46
633.011	43.41
633.342	43.85
633.674	43.46
634.005	43.64
634.336	43.22
634.668	43.67
634.999	43.16
635.33	43.38
635.661	43.62
635.992	43.72
636.323	43.92
636.654	44.15
636.985	43.75
637.316	44.11
637.647	44.02
637.977	43.86
638.308	44.13
638.639	43.94
638.969	43.97
639.3	44.44
639.63	43.87
639.961	44.33
640.291	44.21
640.622	45.07
640.952	44.18
641.282	45.19
641.612	44.86
641.943	45.22
642.273	44.3
642.603	45.13
642.933	44.51
643.263	44.95
643.592	45.04
643.922	45.18
644.252	44.99
644.582	45.53
644.911	44.84
645.241	45.22
645.571	45.55
645.9	44.65
646.23	45.32
646.559	45.51
646.888	45.87
647.218	45.49
647.547	45.4
647.876	45.79
648.205	46.1
648.534	45.72
648.863	45.49
649.192	46.3
649.521	46.02
649.85	45.63
650.179	45.91
650.508	46.29
650.837	46.28
651.165	45.67
651.494	46.48
651.822	45.96
652.151	46.48
652.479	46.57
652.808	45.91
653.136	46.88
653.465	46.36
653.793	46.36
654.121	46.73
654.449	46.75
654.777	46.34
655.105	47.44
655.433	46.04
655.761	47.58
656.089	47.41
656.417	47.24
656.745	46.99
657.073	47.09
657.4	47.51
657.728	47.6
658.056	47.45
658.383	47.29
658.711	47.74
659.038	47.17
659.365	47.61
659.693	47.05
660.02	47.52
660.347	47
660.674	47.31
661.001	47.29
661.329	46.95
661.656	47.65
661.982	47.42
662.309	47.91
662.636	47.67
662.963	47.92
663.29	48.45
663.616	48.14
663.943	47.98
664.27	47.97
664.596	47.62
664.923	48.59
665.249	48.35
665.576	49.24
665.902	48.76
666.228	48.79
666.554	49.09
666.881	48.03
667.207	48.74
667.533	48.74
667.859	48.59
668.185	48.28
668.511	47.81
668.837	48.25
669.162	48.07
669.488	48.58
669.814	49.4
670.139	48.94
670.465	49.16
670.791	49.26
671.116	49.37
671.442	49.04
671.767	49.33
672.092	50
672.418	49.73
672.743	48.95
673.068	49.43
