Data from 0416_crown_Reflection__0__51.txt Node

Date: Fri Dec 15 16:46:58 CST 2023
User: ToomeyLab
Spectrometer: FLMS14357
Trigger mode: 0
Integration Time (sec): 1.000000E-2
Scans to average: 100
Electric dark correction enabled: true
Nonlinearity correction enabled: false
Boxcar width: 0
XAxis mode: Wavelengths
Number of Pixels in Spectrum: 2048
>>>>>Begin Spectral Data<<<<<
189.047	-34.71
189.435	-34.71
189.823	-34.71
190.211	30.34
190.599	-179.34
190.987	44.55
191.375	99.39
191.763	-39.21
192.151	60.37
192.538	235.04
192.926	17.02
193.314	52.56
193.702	36.47
194.089	314.36
194.477	48.37
194.864	196.03
195.252	66.48
195.639	134.05
196.027	-51.9
196.414	-436.06
196.801	389.8
197.189	694.97
197.576	132.18
197.963	66.57
198.351	19.08
198.738	-21.1
199.125	6.63
199.512	20.36
199.899	37.49
200.286	7.22
200.673	-9.42
201.06	2.75
201.447	43.38
201.833	-46.82
202.22	12.92
202.607	64.29
202.994	-6.57
203.38	36.54
203.767	8.96
204.154	-4.71
204.54	9.85
204.927	-34.25
205.313	-50.97
205.699	45.96
206.086	17.3
206.472	25.94
206.858	4.49
207.245	-8.87
207.631	12.28
208.017	6.73
208.403	6.77
208.789	14.37
209.175	-11.73
209.561	1.43
209.947	8.26
210.333	-23.09
210.719	19.53
211.105	24.79
211.491	-21.38
211.876	33.29
212.262	-10.5
212.648	-1.44
213.034	28.14
213.419	-3.66
213.805	12.21
214.19	-36.66
214.576	18.65
214.961	-3.94
215.346	-20.2
215.732	2.21
216.117	17.64
216.502	-11.22
216.888	21.47
217.273	2.82
217.658	2.09
218.043	20.81
218.428	-19.51
218.813	-23.12
219.198	-27.16
219.583	16.95
219.968	5.68
220.353	-16.39
220.738	13.5
221.122	17.22
221.507	-5.39
221.892	-41.35
222.276	-9.86
222.661	2.23
223.046	8.74
223.43	7.39
223.815	15.72
224.199	-9.73
224.583	13.8
224.968	1.67
225.352	14.72
225.736	8.67
226.121	-10.27
226.505	1.4
226.889	1.68
227.273	1.48
227.657	8.63
228.041	4.82
228.425	4.5
228.809	7.12
229.193	3.01
229.577	4.35
229.961	3.95
230.344	4.12
230.728	4.08
231.112	3.63
231.495	4.49
231.879	3.15
232.263	5.18
232.646	3.25
233.03	3.37
233.413	3.03
233.797	4.93
234.18	4.19
234.563	5.9
234.946	4.05
235.33	4.88
235.713	4.73
236.096	5.18
236.479	5.28
236.862	3.83
237.245	6.55
237.628	2.06
238.011	4.58
238.394	4.46
238.777	5.43
239.16	1.34
239.543	3.91
239.925	4.07
240.308	3.98
240.691	6.51
241.073	3.95
241.456	4.07
241.838	3.5
242.221	3.2
242.603	3.63
242.986	3.72
243.368	4.74
243.75	3.93
244.133	3.31
244.515	3.65
244.897	3.94
245.279	4.06
245.661	3.82
246.043	2.9
246.425	2.77
246.807	5.09
247.189	4.8
247.571	3.62
247.953	3.63
248.335	3.41
248.717	3.74
249.098	3.36
249.48	3.7
249.862	3.71
250.243	3.74
250.625	3.62
251.006	3.91
251.388	2.26
251.769	2.94
252.151	4.42
252.532	2.9
252.913	3.16
253.295	2.51
253.676	2.94
254.057	3.52
254.438	3.21
254.819	3.52
255.2	3.18
255.581	3.87
255.962	3.17
256.343	2.94
256.724	3.05
257.105	2.86
257.486	4.16
257.867	3.36
258.247	3.96
258.628	2.49
259.009	2.72
259.389	3.86
259.77	3.4
260.15	3
260.531	2.39
260.911	3.41
261.292	3.17
261.672	3.49
262.052	3.34
262.432	3.45
262.813	3.07
263.193	3.57
263.573	2.86
263.953	2.78
264.333	4.08
264.713	2.95
265.093	2.02
265.473	3
265.853	2.38
266.233	2.96
266.612	2.48
266.992	1.84
267.372	3.83
267.752	3.08
268.131	2.69
268.511	3.97
268.89	3.8
269.27	2.9
269.649	2.13
270.029	2.31
270.408	4.7
270.787	3.13
271.167	3.21
271.546	3.19
271.925	3.05
272.304	3.18
272.683	3.66
273.062	2.63
273.441	3
273.82	2.72
274.199	3.13
274.578	3.41
274.957	3.31
275.336	3.48
275.715	2.56
276.093	2.74
276.472	2.95
276.851	3.15
277.229	3.08
277.608	2.73
277.986	3
278.365	2.86
278.743	3.2
279.122	2.78
279.5	3.08
279.878	3.32
280.257	2.92
280.635	2.35
281.013	3.49
281.391	3.7
281.769	2.92
282.147	3.28
282.525	3.95
282.903	2.74
283.281	3.36
283.659	3.34
284.037	3.3
284.415	3.15
284.792	2.98
285.17	1.86
285.548	2.85
285.925	3.29
286.303	3.02
286.68	2.67
287.058	2.87
287.435	2.76
287.813	2.78
288.19	3.12
288.567	2.64
288.945	3.32
289.322	2.9
289.699	3.28
290.076	3.12
290.453	3.07
290.83	2.9
291.207	2.33
291.584	2.87
291.961	3.02
292.338	2.44
292.715	3.17
293.092	2.98
293.469	3.01
293.845	3.6
294.222	2.77
294.599	3.27
294.975	2.73
295.352	2.55
295.728	2.5
296.105	2.6
296.481	3.16
296.858	2.84
297.234	2.12
297.61	2.82
297.986	2.75
298.363	2.86
298.739	2.66
299.115	2.76
299.491	2.64
299.867	2.66
300.243	2.7
300.619	2.13
300.995	2.17
301.371	3.14
301.746	2.52
302.122	3.32
302.498	2.38
302.874	2.73
303.249	3.03
303.625	2.81
304	2.76
304.376	2.52
304.751	1.85
305.127	3.05
305.502	2.34
305.878	1.69
306.253	2.33
306.628	3.11
307.003	2.97
307.378	2.86
307.754	2.64
308.129	1.94
308.504	2.54
308.879	2.34
309.254	3.82
309.629	3.43
310.003	2.2
310.378	2.77
310.753	3.1
311.128	2.77
311.502	2.39
311.877	2.67
312.252	2.05
312.626	2.52
313.001	2.25
313.375	2.82
313.75	2.38
314.124	3.2
314.498	2.49
314.873	3.12
315.247	2.53
315.621	2.79
315.995	1.99
316.369	3.19
316.743	2.57
317.117	3.04
317.491	2.33
317.865	2.38
318.239	2.6
318.613	2.48
318.987	2.74
319.361	1.94
319.734	2.5
320.108	2.8
320.482	2.26
320.855	2.49
321.229	3.03
321.602	2.23
321.976	3.41
322.349	1.69
322.723	2.57
323.096	2.83
323.469	1.8
323.843	2.36
324.216	2.42
324.589	2.52
324.962	2.36
325.335	2.31
325.708	2.34
326.081	2.36
326.454	2.39
326.827	2.28
327.2	2.47
327.573	2.79
327.945	2.43
328.318	2.21
328.691	1.56
329.063	2.6
329.436	1.97
329.809	2.86
330.181	2.61
330.553	2.25
330.926	2.36
331.298	3.15
331.671	1.8
332.043	3.24
332.415	2.84
332.787	2.9
333.159	2.53
333.532	2.2
333.904	2.14
334.276	2.38
334.648	2.34
335.02	2.15
335.391	2.4
335.763	2.35
336.135	2.67
336.507	2.95
336.879	2.38
337.25	1.83
337.622	1.94
337.993	2.21
338.365	3.28
338.736	2.28
339.108	2.81
339.479	2.21
339.851	2.25
340.222	2.58
340.593	2.55
340.964	2.15
341.336	3.3
341.707	2.12
342.078	2.54
342.449	2.26
342.82	2.49
343.191	2.03
343.562	2.25
343.933	2.82
344.303	2.37
344.674	2.47
345.045	2.56
345.416	2.78
345.786	2.37
346.157	2.46
346.527	2.07
346.898	1.98
347.268	2.31
347.639	2.66
348.009	2.42
348.38	2.22
348.75	2.3
349.12	2.3
349.49	2.99
349.861	2.7
350.231	2.56
350.601	2.9
350.971	2.52
351.341	2.46
351.711	2.25
352.081	2.62
352.45	2.63
352.82	2.68
353.19	2.08
353.56	2.26
353.929	2.4
354.299	2.23
354.669	2.32
355.038	2.53
355.408	2.43
355.777	2.09
356.147	2.71
356.516	2.52
356.885	2.71
357.254	2.68
357.624	2.76
357.993	2.32
358.362	1.96
358.731	2.2
359.1	2.29
359.469	2.73
359.838	2.65
360.207	2.3
360.576	2.27
360.945	2.33
361.314	3.01
361.682	1.87
362.051	2
362.42	2.72
362.788	2.31
363.157	2.67
363.525	2.56
363.894	2.6
364.262	2.33
364.631	2.52
364.999	2.65
365.367	1.96
365.735	2.87
366.104	2.79
366.472	2.65
366.84	2.25
367.208	2.44
367.576	2.8
367.944	2.6
368.312	2.23
368.68	2.19
369.048	2.63
369.416	2.62
369.783	2.49
370.151	2.53
370.519	2.85
370.886	2.72
371.254	2.25
371.621	2.76
371.989	3.07
372.356	2.46
372.724	2.66
373.091	2.46
373.458	2.41
373.826	2.77
374.193	2.35
374.56	2.55
374.927	2.8
375.294	2.7
375.661	2.54
376.028	2.45
376.395	2.4
376.762	2.62
377.129	2.64
377.496	2.22
377.863	2.38
378.229	2.03
378.596	2.61
378.963	2.39
379.329	2.22
379.696	2.55
380.062	2.89
380.429	2.84
380.795	2.37
381.161	2.5
381.528	2.86
381.894	2.86
382.26	2.52
382.626	3.05
382.993	2.41
383.359	2.91
383.725	2.57
384.091	2.62
384.457	2.65
384.823	2.62
385.188	2.6
385.554	2.68
385.92	2.92
386.286	2.67
386.651	2.74
387.017	3.08
387.383	2.87
387.748	2.46
388.114	2.87
388.479	2.41
388.845	2.78
389.21	2.98
389.575	2.74
389.94	2.75
390.306	2.77
390.671	2.77
391.036	2.35
391.401	2.34
391.766	2.64
392.131	2.47
392.496	3
392.861	2.54
393.226	2.77
393.591	2.73
393.956	2.8
394.32	2.87
394.685	2.26
395.05	2.6
395.414	2.82
395.779	2.41
396.143	2.68
396.508	2.67
396.872	2.76
397.236	2.62
397.601	2.45
397.965	2.81
398.329	2.81
398.694	2.87
399.058	2.74
399.422	2.77
399.786	2.93
400.15	2.64
400.514	2.98
400.878	2.74
401.242	2.91
401.605	2.88
401.969	2.85
402.333	2.84
402.697	2.86
403.06	2.91
403.424	2.6
403.787	2.69
404.151	2.98
404.514	2.8
404.878	2.79
405.241	3.12
405.604	2.76
405.968	2.76
406.331	2.74
406.694	3.07
407.057	2.85
407.42	2.8
407.783	2.88
408.146	2.79
408.509	2.64
408.872	2.73
409.235	2.6
409.598	3.15
409.961	2.94
410.323	3.05
410.686	2.89
411.049	2.7
411.411	2.75
411.774	2.73
412.136	2.7
412.499	2.66
412.861	2.77
413.223	2.83
413.586	2.91
413.948	2.86
414.31	3.1
414.672	2.77
415.035	2.79
415.397	3.21
415.759	2.74
416.121	2.89
416.483	2.62
416.845	2.84
417.206	2.77
417.568	2.93
417.93	2.59
418.292	3.01
418.653	2.89
419.015	3.01
419.377	2.82
419.738	2.89
420.1	2.88
420.461	2.94
420.822	2.9
421.184	2.83
421.545	2.89
421.906	2.68
422.267	2.76
422.629	2.71
422.99	2.74
423.351	2.77
423.712	2.83
424.073	2.77
424.434	2.84
424.795	2.73
425.155	2.84
425.516	2.68
425.877	2.79
426.238	2.65
426.598	2.85
426.959	2.77
427.32	2.77
427.68	2.77
428.041	2.83
428.401	3.06
428.761	2.91
429.122	2.94
429.482	2.85
429.842	3
430.202	3.02
430.563	3.12
430.923	2.8
431.283	2.9
431.643	2.88
432.003	2.93
432.363	2.94
432.722	2.72
433.082	3.06
433.442	2.98
433.802	2.74
434.161	2.8
434.521	3.07
434.881	3.04
435.24	2.86
435.6	2.86
435.959	2.82
436.319	2.87
436.678	2.86
437.037	2.9
437.396	3.01
437.756	2.85
438.115	2.86
438.474	3.16
438.833	2.77
439.192	2.88
439.551	3.02
439.91	2.94
440.269	2.88
440.628	2.81
440.987	2.98
441.345	2.75
441.704	2.93
442.063	2.8
442.421	2.91
442.78	2.76
443.138	2.84
443.497	2.98
443.855	2.87
444.214	3.02
444.572	3.04
444.93	3.03
445.288	2.94
445.647	3.16
446.005	2.94
446.363	2.84
446.721	3.07
447.079	2.84
447.437	2.91
447.795	2.98
448.153	2.8
448.51	2.8
448.868	2.92
449.226	2.87
449.584	2.91
449.941	3.02
450.299	3
450.656	3
451.014	3.15
451.371	2.98
451.729	2.7
452.086	3.18
452.443	3.08
452.801	3.1
453.158	2.91
453.515	2.85
453.872	3.08
454.229	2.98
454.586	2.92
454.943	3.08
455.3	3.09
455.657	2.89
456.014	2.91
456.371	3.09
456.727	3.09
457.084	3.2
457.441	3.12
457.797	3.01
458.154	3.22
458.51	2.93
458.867	3.18
459.223	3.18
459.58	3.12
459.936	2.94
460.292	3.11
460.648	2.91
461.005	2.9
461.361	3.02
461.717	2.89
462.073	2.9
462.429	2.95
462.785	3.01
463.141	3.11
463.496	2.98
463.852	3.17
464.208	3.16
464.564	3.22
464.919	3.05
465.275	3.02
465.631	3.15
465.986	3.23
466.342	3.04
466.697	2.88
467.052	3.21
467.408	3.19
467.763	3
468.118	2.99
468.473	2.99
468.829	3.2
469.184	3.01
469.539	2.97
469.894	3.06
470.249	3.47
470.603	3.32
470.958	3.25
471.313	3.23
471.668	3.28
472.023	3.2
472.377	3.03
472.732	3.22
473.086	2.95
473.441	2.96
473.795	3.29
474.15	3.2
474.504	3.07
474.859	3.24
475.213	3
475.567	3.15
475.921	2.99
476.275	3.14
476.63	3
476.984	3.08
477.338	3.27
477.692	3.18
478.045	2.97
478.399	3.18
478.753	3.19
479.107	3.12
479.461	3.09
479.814	3.19
480.168	3.09
480.521	3.02
480.875	3.08
481.228	3
481.582	3.03
481.935	3.12
482.289	3.26
482.642	3.17
482.995	3.03
483.348	2.98
483.701	3.03
484.055	3.18
484.408	3.16
484.761	3.07
485.114	2.94
485.466	2.8
485.819	2.81
486.172	2.87
486.525	2.93
486.878	3
487.23	3.03
487.583	3.05
487.936	2.96
488.288	3.01
488.641	2.99
488.993	2.92
489.345	2.94
489.698	2.92
490.05	2.95
490.402	3.02
490.754	3.07
491.107	3.09
491.459	3.14
491.811	3.12
492.163	3.09
492.515	3.05
492.866	3.01
493.218	3.01
493.57	2.95
493.922	2.94
494.274	3.03
494.625	3.2
494.977	3.14
495.328	3.18
495.68	3.2
496.031	3.24
496.383	3.07
496.734	3.41
497.086	3.18
497.437	3.19
497.788	3.11
498.139	3.15
498.49	3.14
498.842	3.03
499.193	3.1
499.544	3.12
499.894	3.12
500.245	3.04
500.596	3.09
500.947	3.25
501.298	3.14
501.648	3.11
501.999	3.2
502.35	3.22
502.7	3.19
503.051	2.99
503.401	3.07
503.752	3.27
504.102	3.1
504.452	3.22
504.803	3.16
505.153	3.05
505.503	3.19
505.853	3.08
506.203	3.11
506.553	3.13
506.903	3.08
507.253	3.16
507.603	3.03
507.953	3.27
508.303	3.31
508.652	3.07
509.002	3.18
509.352	3.12
509.701	3.02
510.051	3.18
510.4	3.25
510.75	3.11
511.099	3.12
511.449	3.04
511.798	3.08
512.147	3.16
512.496	3.19
512.846	3.22
513.195	3.12
513.544	3.13
513.893	3.17
514.242	3.12
514.591	3.1
514.939	3.15
515.288	3.05
515.637	3.29
515.986	3.19
516.334	3.17
516.683	3.1
517.032	3.06
517.38	3.27
517.729	3.24
518.077	3.02
518.426	3.3
518.774	3.26
519.122	3.12
519.47	3.07
519.819	2.94
520.167	3.04
520.515	2.96
520.863	3.21
521.211	3.15
521.559	3.16
521.907	3.04
522.255	3.1
522.602	3.17
522.95	3.21
523.298	3.24
523.645	3.26
523.993	3.17
524.341	3.22
524.688	3.25
525.036	3.16
525.383	3.18
525.73	3.3
526.078	3.12
526.425	3.13
526.772	3.21
527.119	3.06
527.466	3
527.814	3.14
528.161	3.07
528.508	3.16
528.854	3.13
529.201	3.05
529.548	2.95
529.895	2.93
530.242	2.88
530.588	2.85
530.935	3
531.282	3.02
531.628	3.03
531.975	3.13
532.321	3.09
532.667	3.2
533.014	3.12
533.36	3.18
533.706	3.12
534.052	3.11
534.399	2.98
534.745	2.98
535.091	3
535.437	3
535.783	3.03
536.129	3.09
536.474	3.09
536.82	3.1
537.166	3.12
537.512	3.18
537.857	3.16
538.203	3.05
538.549	3.05
538.894	3.02
539.239	3.16
539.585	3.1
539.93	3.04
540.276	3.26
540.621	3.21
540.966	3.2
541.311	3.03
541.656	3.1
542.001	3.14
542.346	3.13
542.691	2.95
543.036	2.94
543.381	2.84
543.726	2.98
544.071	3.02
544.415	3.13
544.76	3.05
545.105	3.11
545.449	3.08
545.794	3.24
546.138	3.13
546.483	3.21
546.827	3.16
547.171	3.16
547.516	3.15
547.86	3.09
548.204	3.07
548.548	3.03
548.892	3.15
549.236	3.07
549.58	3.04
549.924	3.23
550.268	3.18
550.612	3.19
550.956	3.21
551.3	3.24
551.643	3.43
551.987	3.34
552.33	3.07
552.674	3.29
553.017	2.99
553.361	3.01
553.704	3.22
554.048	3.02
554.391	3.12
554.734	2.99
555.077	3.15
555.42	3.19
555.764	3.19
556.107	3.1
556.45	3.09
556.793	3.23
557.135	3.3
557.478	3.28
557.821	3.19
558.164	3.12
558.507	3.14
558.849	3.13
559.192	3.17
559.534	3.13
559.877	3.16
560.219	2.97
560.562	3.47
560.904	3.11
561.246	3.28
561.589	3.12
561.931	3.17
562.273	3.03
562.615	3.17
562.957	3.22
563.299	3.07
563.641	3.15
563.983	3.08
564.325	2.96
564.667	3.05
565.008	3.06
565.35	3.15
565.692	2.83
566.033	3.22
566.375	3.22
566.716	3.35
567.058	3.26
567.399	3.03
567.741	2.96
568.082	3.02
568.423	3.08
568.764	3.03
569.105	3.09
569.447	3.27
569.788	2.96
570.129	3.12
570.47	3.2
570.811	3.26
571.151	3.16
571.492	3.1
571.833	3.09
572.174	3.26
572.514	3.23
572.855	3.07
573.195	3.11
573.536	2.99
573.876	2.98
574.217	2.97
574.557	3.14
574.898	3.23
575.238	3.06
575.578	2.97
575.918	3.26
576.258	3.17
576.598	3.08
576.938	3.04
577.278	3.2
577.618	3.05
577.958	3.12
578.298	3.14
578.638	2.94
578.977	3.08
579.317	2.95
579.657	3.05
579.996	3.19
580.336	3.4
580.675	3.05
581.014	3.13
581.354	3.3
581.693	3.1
582.032	2.97
582.372	3.05
582.711	3.12
583.05	2.96
583.389	3.14
583.728	3.07
584.067	3.37
584.406	3.23
584.745	3.23
585.083	3.21
585.422	3.13
585.761	3.18
586.1	3.07
586.438	3.12
586.777	3.53
587.115	3.18
587.454	2.92
587.792	3.03
588.13	3.23
588.469	2.9
588.807	3.06
589.145	2.84
589.483	3.08
589.821	3.09
590.159	3.18
590.497	3.32
590.835	3.29
591.173	2.82
591.511	3.43
591.849	3.08
592.187	3
592.524	3.08
592.862	3.19
593.2	3.16
593.537	2.99
593.875	2.88
594.212	3
594.55	3.13
594.887	3.05
595.224	2.98
595.561	3.22
595.899	2.93
596.236	3.03
596.573	3.16
596.91	2.77
597.247	2.79
597.584	3.36
597.921	2.86
598.258	2.82
598.594	2.89
598.931	3.06
599.268	3.22
599.604	3.06
599.941	3.08
600.277	3.01
600.614	3.05
600.95	3.15
601.287	3.17
601.623	2.83
601.959	3.06
602.296	3.2
602.632	2.91
602.968	3.06
603.304	2.97
603.64	2.94
603.976	3.03
604.312	3.18
604.648	3.1
604.984	3.11
605.319	3.17
605.655	3.07
605.991	3.13
606.326	3.28
606.662	3.03
606.998	2.83
607.333	2.95
607.668	3.15
608.004	3.12
608.339	3.29
608.674	3.28
609.01	3.06
609.345	2.77
609.68	3.24
610.015	3.21
610.35	2.88
610.685	3.03
611.02	2.95
611.355	3.09
611.689	2.97
612.024	3.11
612.359	3.02
612.694	3.01
613.028	2.92
613.363	3.14
613.697	3.02
614.032	3.17
614.366	2.77
614.7	3.18
615.035	2.86
615.369	2.83
615.703	3.21
616.037	2.95
616.371	2.91
616.705	3.06
617.039	3.36
617.373	2.62
617.707	2.59
618.041	3
618.375	3.19
618.709	3.1
619.042	2.81
619.376	3.33
619.71	3.31
620.043	3.1
620.377	3.1
620.71	2.98
621.043	2.77
621.377	2.84
621.71	2.89
622.043	3.05
622.376	2.65
622.709	3.08
623.043	3.18
623.376	3.31
623.709	2.69
624.041	3.51
624.374	3.18
624.707	2.54
625.04	3.56
625.373	2.48
625.705	3.04
626.038	2.92
626.37	2.77
626.703	2.99
627.035	3.33
627.368	3.06
627.7	3.07
628.032	3.05
628.365	3.19
628.697	3.09
629.029	3.07
629.361	3.05
629.693	3.41
630.025	2.86
630.357	3.23
630.689	3.15
631.021	2.61
631.353	2.86
631.684	2.84
632.016	2.84
632.348	3.44
632.679	2.85
633.011	3.08
633.342	3.49
633.674	3.17
634.005	3.25
634.336	2.58
634.668	3.44
634.999	2.82
635.33	3.37
635.661	3
635.992	3.08
636.323	2.77
636.654	3.09
636.985	3.19
637.316	2.96
637.647	2.81
637.977	3.47
638.308	3.05
638.639	3.11
638.969	2.96
639.3	2.64
639.63	2.73
639.961	3.08
640.291	2.98
640.622	3.39
640.952	2.93
641.282	3.64
641.612	2.91
641.943	2.86
642.273	2.98
642.603	3.12
642.933	3.04
643.263	2.8
643.592	2.79
643.922	2.6
644.252	2.41
644.582	3.35
644.911	2.37
645.241	2.9
645.571	3.12
645.9	2.42
646.23	2.96
646.559	2.88
646.888	3.01
647.218	2.68
647.547	3.13
647.876	2.82
648.205	2.96
648.534	2.97
648.863	2.69
649.192	3.8
649.521	3.48
649.85	2.79
650.179	3.36
650.508	2.5
650.837	2.66
651.165	2.98
651.494	3
651.822	2.79
652.151	2.85
652.479	2.92
652.808	2.65
653.136	3.01
653.465	2.37
653.793	2.89
654.121	2.69
654.449	2.97
654.777	2.94
655.105	3.09
655.433	2.67
655.761	2.92
656.089	3.23
656.417	3.05
656.745	2.9
657.073	2.8
657.4	3.21
657.728	3.07
658.056	2.84
658.383	3.19
658.711	3.14
659.038	3.1
659.365	4.03
659.693	3.15
660.02	2.74
660.347	2.82
660.674	3.02
661.001	3.19
661.329	2.46
661.656	2.86
661.982	3.11
662.309	3.02
662.636	2.71
662.963	3.14
663.29	3.28
663.616	3.13
663.943	2.75
664.27	3.36
664.596	3.55
664.923	3.23
665.249	2.86
665.576	2.74
665.902	3.5
666.228	3.22
666.554	3.1
666.881	2.73
667.207	3.44
667.533	3.1
667.859	3.87
668.185	3.31
668.511	2.32
668.837	1.85
669.162	3.25
669.488	2.08
669.814	2.87
670.139	3.14
670.465	3.29
670.791	3.4
671.116	3.77
671.442	2.63
671.767	2.75
672.092	3.16
672.418	3.08
672.743	3.46
673.068	3.18
673.393	3.15
673.718	3.23
674.043	3.3
674.368	3.19
674.693	3.51
675.018	2.77
675.343	3.26
675.667	3.54
675.992	3.06
676.317	3.65
676.641	2.97
676.966	3.04
677.29	2.94
677.615	2.91
677.939	3.71
678.264	3.87
678.588	3.73
678.912	2.72
679.236	3.65
679.56	2.38
679.885	3.7
680.209	3.38
680.532	2.96
680.856	3.56
681.18	3.15
681.504	3.34
681.828	3.48
682.152	2.58
682.475	3.16
682.799	3.42
683.122	3.19
683.446	2.74
683.769	3.48
684.093	3.1
684.416	4.02
684.739	3.4
685.062	2.82
685.386	3.7
685.709	2.62
686.032	2.88
686.355	3.79
686.678	3.05
687.001	2.83
687.324	3.25
687.646	3.15
687.969	2.95
688.292	2.88
688.614	3.08
688.937	3.77
689.26	2.97
689.582	3.75
689.904	3.39
690.227	3.8
690.549	3.15
690.871	4.07
691.194	3.3
691.516	2.94
691.838	3.18
692.16	2.37
692.482	2.59
692.804	2.99
693.126	2.93
693.448	2.95
693.769	3.45
