Data from 0416_forehead_Reflection__4__60.txt Node

Date: Fri Dec 15 16:48:49 CST 2023
User: ToomeyLab
Spectrometer: FLMS14357
Trigger mode: 0
Integration Time (sec): 1.000000E-2
Scans to average: 100
Electric dark correction enabled: true
Nonlinearity correction enabled: false
Boxcar width: 0
XAxis mode: Wavelengths
Number of Pixels in Spectrum: 2048
>>>>>Begin Spectral Data<<<<<
189.047	-78.82
189.435	-78.82
189.823	-78.82
190.211	-264.11
190.599	-578.89
190.987	95.13
191.375	214.42
191.763	122.55
192.151	105.29
192.538	244.11
192.926	-3.12
193.314	104.15
193.702	41.84
194.089	-31.55
194.477	63.11
194.864	169.56
195.252	106.81
195.639	103.1
196.027	303.76
196.414	-56.71
196.801	200.19
197.189	240.77
197.576	37.77
197.963	27.32
198.351	22.55
198.738	53.36
199.125	39.84
199.512	58.72
199.899	145.96
200.286	61.64
200.673	18.67
201.06	79.67
201.447	46.98
201.833	28.33
202.22	66.68
202.607	85.22
202.994	56.46
203.38	54.76
203.767	76.51
204.154	66.12
204.54	43.52
204.927	16.7
205.313	72.71
205.699	50.08
206.086	61.44
206.472	44.53
206.858	33.39
207.245	35.45
207.631	51.27
208.017	34.14
208.403	51.74
208.789	66.48
209.175	59.51
209.561	-0.32
209.947	46.53
210.333	40.19
210.719	18.15
211.105	37.96
211.491	5.99
211.876	24.27
212.262	76.06
212.648	38.18
213.034	55.88
213.419	28.12
213.805	10.04
214.19	-19.09
214.576	20
214.961	4.59
215.346	-16.44
215.732	18.74
216.117	38.25
216.502	44.29
216.888	16.45
217.273	42.87
217.658	33.14
218.043	20.59
218.428	20.24
218.813	-9.96
219.198	-7.26
219.583	19.82
219.968	32.01
220.353	15.5
220.738	29.76
221.122	24.2
221.507	-1.86
221.892	-0.05
222.276	-0.19
222.661	19.72
223.046	26.77
223.43	33.41
223.815	16.32
224.199	8.04
224.583	17.11
224.968	28.89
225.352	23.54
225.736	14.86
226.121	5.73
226.505	4.14
226.889	15.34
227.273	7.73
227.657	15.02
228.041	10.3
228.425	9.52
228.809	16.74
229.193	9.91
229.577	6.65
229.961	7.34
230.344	6.03
230.728	5.8
231.112	6.21
231.495	6.25
231.879	6.72
232.263	8.58
232.646	9.15
233.03	7.39
233.413	6.74
233.797	5.53
234.18	8.36
234.563	6.23
234.946	5.78
235.33	10.27
235.713	6.42
236.096	5.63
236.479	8.5
236.862	6.02
237.245	7.06
237.628	6.39
238.011	7.24
238.394	7.97
238.777	7.32
239.16	4.19
239.543	7.3
239.925	8.27
240.308	7.05
240.691	8.67
241.073	7.51
241.456	5.28
241.838	4.94
242.221	6.86
242.603	6.29
242.986	5.5
243.368	7.14
243.75	6.19
244.133	5.75
244.515	6.24
244.897	6.03
245.279	6.3
245.661	5.57
246.043	5.42
246.425	5.15
246.807	6.02
247.189	5.94
247.571	6.12
247.953	5.81
248.335	5.4
248.717	5.39
249.098	5.19
249.48	5.38
249.862	5.57
250.243	5.5
250.625	6.23
251.006	6.03
251.388	4.92
251.769	6.21
252.151	8.12
252.532	5.88
252.913	4.56
253.295	5.51
253.676	5.73
254.057	5.72
254.438	5.74
254.819	5.43
255.2	5.09
255.581	6.14
255.962	6.12
256.343	6.29
256.724	6.88
257.105	6.26
257.486	6.3
257.867	7.68
258.247	6.1
258.628	6.34
259.009	6
259.389	5.86
259.77	6.1
260.15	5.2
260.531	4.99
260.911	5.66
261.292	5.46
261.672	5.41
262.052	5.17
262.432	5.47
262.813	5.47
263.193	5.33
263.573	5.25
263.953	5.84
264.333	6.2
264.713	5.9
265.093	5.34
265.473	5.96
265.853	4.09
266.233	5.94
266.612	5.23
266.992	5.08
267.372	6.31
267.752	4.96
268.131	5.88
268.511	6.13
268.89	6.19
269.27	5.89
269.649	4.89
270.029	5.6
270.408	7.06
270.787	5.99
271.167	6.15
271.546	6.1
271.925	4.66
272.304	5.01
272.683	6.08
273.062	5.36
273.441	5.52
273.82	5.04
274.199	5.57
274.578	5.46
274.957	5.45
275.336	5.29
275.715	5.92
276.093	5.29
276.472	6.24
276.851	5.87
277.229	5.52
277.608	5.12
277.986	5.54
278.365	5.51
278.743	5.42
279.122	4.52
279.5	6.16
279.878	5.15
280.257	5.4
280.635	4.85
281.013	6.41
281.391	5.41
281.769	5.84
282.147	6.28
282.525	6.3
282.903	5.33
283.281	5.68
283.659	6.02
284.037	5.31
284.415	5.73
284.792	5.55
285.17	5.19
285.548	5.21
285.925	5.78
286.303	5.65
286.68	5.18
287.058	5.46
287.435	5.37
287.813	5.06
288.19	5.07
288.567	4.88
288.945	5.82
289.322	5.74
289.699	5.34
290.076	4.99
290.453	5.92
290.83	5.46
291.207	5.21
291.584	5.9
291.961	5.6
292.338	5.64
292.715	5.8
293.092	5.25
293.469	5.38
293.845	5.99
294.222	5.58
294.599	5.67
294.975	4.96
295.352	5.59
295.728	5.19
296.105	5.73
296.481	5.75
296.858	5.89
297.234	5.89
297.61	5.91
297.986	5.68
298.363	5.77
298.739	5.98
299.115	5.62
299.491	5.73
299.867	5.71
300.243	5.69
300.619	5.07
300.995	5.51
301.371	6.3
301.746	6.15
302.122	6.6
302.498	6.41
302.874	6.17
303.249	6.28
303.625	6.03
304	6.46
304.376	6.32
304.751	5.73
305.127	6.98
305.502	5.53
305.878	5.21
306.253	5.92
306.628	6.43
307.003	5.95
307.378	6.35
307.754	6.66
308.129	6.04
308.504	6.16
308.879	6.44
309.254	6.79
309.629	6.93
310.003	6.94
310.378	6.43
310.753	7.2
311.128	6.92
311.502	6.21
311.877	6.83
312.252	6.47
312.626	6.3
313.001	6.33
313.375	7
313.75	6.68
314.124	6.86
314.498	6.77
314.873	7.08
315.247	7.08
315.621	6.74
315.995	6.15
316.369	6.66
316.743	6.56
317.117	7.51
317.491	7.1
317.865	7.15
318.239	7.24
318.613	7.16
318.987	7.3
319.361	6.96
319.734	7.97
320.108	7.36
320.482	7.44
320.855	7.73
321.229	7.45
321.602	6.94
321.976	7.46
322.349	7.49
322.723	7.65
323.096	8.21
323.469	6.91
323.843	7.52
324.216	8.75
324.589	7.86
324.962	7.45
325.335	8.19
325.708	7.65
326.081	8.08
326.454	7.97
326.827	8.15
327.2	7.93
327.573	8.48
327.945	7.74
328.318	7.52
328.691	7.59
329.063	7.88
329.436	7.65
329.809	8.59
330.181	7.82
330.553	8.01
330.926	8.17
331.298	8.29
331.671	7.64
332.043	8.54
332.415	8.3
332.787	8.1
333.159	8.84
333.532	8.72
333.904	8.28
334.276	8.11
334.648	8.85
335.02	7.5
335.391	8.39
335.763	8.17
336.135	8.91
336.507	8.85
336.879	8.74
337.25	7.94
337.622	8.21
337.993	8.47
338.365	9.37
338.736	9.02
339.108	8.57
339.479	8.34
339.851	8.89
340.222	8.84
340.593	9.26
340.964	8.76
341.336	9.46
341.707	8.72
342.078	9.44
342.449	9.16
342.82	9.19
343.191	9.13
343.562	9
343.933	9.16
344.303	8.92
344.674	9.28
345.045	9.18
345.416	8.77
345.786	8.86
346.157	9.3
346.527	8.47
346.898	9.46
347.268	9.61
347.639	9.1
348.009	9.21
348.38	9.09
348.75	9.54
349.12	9.15
349.49	10.37
349.861	9.56
350.231	9.27
350.601	9.83
350.971	9.82
351.341	9.88
351.711	9.5
352.081	9.67
352.45	9.49
352.82	9.92
353.19	9.55
353.56	10.08
353.929	9.91
354.299	9.54
354.669	10
355.038	10.34
355.408	10
355.777	9.79
356.147	9.85
356.516	10.04
356.885	10.1
357.254	10.1
357.624	10.64
357.993	10.38
358.362	10.2
358.731	10.12
359.1	10.6
359.469	10.39
359.838	10.63
360.207	10.04
360.576	10.2
360.945	10.71
361.314	10.72
361.682	10.3
362.051	10.42
362.42	10.89
362.788	10.86
363.157	10.55
363.525	10.84
363.894	10.64
364.262	10.74
364.631	10.66
364.999	11.11
365.367	10.64
365.735	11.65
366.104	11.4
366.472	11.1
366.84	11.13
367.208	10.91
367.576	11.56
367.944	11.27
368.312	11.16
368.68	11.05
369.048	10.98
369.416	11.18
369.783	10.93
370.151	11.79
370.519	11.82
370.886	11.91
371.254	11.47
371.621	11.97
371.989	11.99
372.356	11.25
372.724	11.96
373.091	11.67
373.458	11.77
373.826	11.82
374.193	11.61
374.56	12.22
374.927	11.93
375.294	12.12
375.661	11.64
376.028	11.91
376.395	11.66
376.762	11.88
377.129	12.19
377.496	12.05
377.863	12.19
378.229	11.78
378.596	12.15
378.963	11.98
379.329	11.87
379.696	12.35
380.062	12.52
380.429	12.32
380.795	12.27
381.161	12.71
381.528	12.62
381.894	12.76
382.26	12.6
382.626	12.69
382.993	12.41
383.359	13.15
383.725	12.67
384.091	13.08
384.457	13.19
384.823	13
385.188	13.19
385.554	13.16
385.92	13.09
386.286	13.35
386.651	13.32
387.017	13.52
387.383	13.17
387.748	13.08
388.114	13.4
388.479	13.24
388.845	13.45
389.21	13.9
389.575	13.8
389.94	13.7
390.306	13.45
390.671	13.85
391.036	13.61
391.401	13.43
391.766	13.63
392.131	13.76
392.496	13.87
392.861	13.48
393.226	13.89
393.591	13.8
393.956	13.98
394.32	13.58
394.685	13.81
395.05	13.85
395.414	13.88
395.779	13.86
396.143	14.2
396.508	14.23
396.872	14.44
397.236	14.39
397.601	14.28
397.965	14.67
398.329	14.22
398.694	14.85
399.058	14.75
399.422	14.3
399.786	14.76
400.15	14.62
400.514	14.52
400.878	14.8
401.242	14.63
401.605	14.57
401.969	14.75
402.333	14.95
402.697	14.84
403.06	14.92
403.424	15.07
403.787	14.89
404.151	15.06
404.514	15.23
404.878	15.06
405.241	15.51
405.604	14.96
405.968	15.25
406.331	15.03
406.694	15.4
407.057	15.41
407.42	15.74
407.783	15.31
408.146	15.49
408.509	15.64
408.872	15.5
409.235	15.77
409.598	15.97
409.961	15.84
410.323	15.71
410.686	15.77
411.049	15.91
411.411	15.93
411.774	16
412.136	15.97
412.499	15.84
412.861	16.05
413.223	16.27
413.586	16.35
413.948	16.54
414.31	16.19
414.672	16.3
415.035	16.44
415.397	16.89
415.759	16.43
416.121	16.6
416.483	16.05
416.845	16.54
417.206	16.53
417.568	16.66
417.93	16.37
418.292	16.69
418.653	16.56
419.015	16.69
419.377	16.69
419.738	16.81
420.1	16.57
420.461	16.67
420.822	16.84
421.184	16.81
421.545	16.67
421.906	16.83
422.267	16.68
422.629	16.77
422.99	16.84
423.351	16.82
423.712	16.99
424.073	17.03
424.434	17.05
424.795	17.08
425.155	17.27
425.516	17.07
425.877	17.21
426.238	17.01
426.598	17.34
426.959	17.36
427.32	17.41
427.68	17.53
428.041	17.49
428.401	17.84
428.761	17.94
429.122	17.98
429.482	18.04
429.842	18.24
430.202	18.14
430.563	18.2
430.923	18.25
431.283	18.23
431.643	18.39
432.003	18.32
432.363	18.63
432.722	18.36
433.082	18.53
433.442	18.6
433.802	18.31
434.161	18.5
434.521	18.76
434.881	18.5
435.24	18.41
435.6	18.65
435.959	18.64
436.319	18.74
436.678	18.87
437.037	18.8
437.396	19.16
437.756	19.03
438.115	19.23
438.474	19.36
438.833	18.96
439.192	19.15
439.551	19.34
439.91	19.31
440.269	19.24
440.628	19.22
440.987	19.38
441.345	19.28
441.704	19.4
442.063	19.36
442.421	19.19
442.78	19.46
443.138	19.54
443.497	19.65
443.855	19.79
444.214	19.98
444.572	20
444.93	20.14
445.288	20.06
445.647	20.33
446.005	20.12
446.363	20.17
446.721	20.09
447.079	20.13
447.437	20.05
447.795	19.94
448.153	19.93
448.51	20.12
448.868	20.11
449.226	20.17
449.584	20.28
449.941	20.55
450.299	20.64
450.656	20.67
451.014	20.83
451.371	20.88
451.729	20.91
452.086	21.05
452.443	21.13
452.801	21.17
453.158	21.2
453.515	21.22
453.872	21.3
454.229	21.37
454.586	21.26
454.943	21.25
455.3	21.59
455.657	21.45
456.014	21.75
456.371	21.72
456.727	21.78
457.084	21.86
457.441	21.68
457.797	21.81
458.154	22.12
458.51	21.97
458.867	22.33
459.223	22.26
459.58	22.21
459.936	22.21
460.292	22.28
460.648	22.13
461.005	22.08
461.361	22.04
461.717	21.95
462.073	21.82
462.429	22.03
462.785	22.18
463.141	22.32
463.496	22.4
463.852	22.74
464.208	22.95
464.564	22.9
464.919	22.98
465.275	23.19
465.631	23.08
465.986	23.01
466.342	23.17
466.697	23.03
467.052	23.22
467.408	23.34
467.763	23.46
468.118	23.28
468.473	23.31
468.829	23.48
469.184	23.34
469.539	23.74
469.894	23.49
470.249	23.89
470.603	23.84
470.958	23.9
471.313	23.75
471.668	24.07
472.023	24.06
472.377	23.95
472.732	24.26
473.086	24.3
473.441	24.36
473.795	24.62
474.15	24.27
474.504	24.28
474.859	24.61
475.213	24.52
475.567	24.55
475.921	24.67
476.275	24.63
476.63	24.92
476.984	24.95
477.338	25.01
477.692	24.89
478.045	24.94
478.399	24.85
478.753	25.12
479.107	25.18
479.461	25.18
479.814	25.13
480.168	25.14
480.521	25.14
480.875	25.22
481.228	25.37
481.582	25.19
481.935	25.34
482.289	25.68
482.642	25.64
482.995	25.51
483.348	25.38
483.701	25.46
484.055	25.44
484.408	25.31
484.761	25.21
485.114	24.89
485.466	24.51
485.819	24.6
486.172	24.61
486.525	24.65
486.878	24.78
487.23	25.09
487.583	25.36
487.936	25.45
488.288	25.52
488.641	25.65
488.993	25.49
489.345	25.34
489.698	25.4
490.05	25.46
490.402	25.55
490.754	25.72
491.107	25.97
491.459	26.06
491.811	26.43
492.163	26.56
492.515	26.49
492.866	26.45
493.218	26.23
493.57	26.18
493.922	26.14
494.274	26.21
494.625	26.55
494.977	26.67
495.328	27.19
495.68	27.29
496.031	27.68
496.383	27.69
496.734	27.97
497.086	27.86
497.437	27.83
497.788	27.93
498.139	28.01
498.49	27.91
498.842	27.65
499.193	27.74
499.544	27.91
499.894	28
500.245	28.08
500.596	28.12
500.947	28.21
501.298	28.25
501.648	28.53
501.999	28.61
502.35	28.79
502.7	28.76
503.051	28.71
503.401	28.89
503.752	28.98
504.102	29.08
504.452	29.06
504.803	29.11
505.153	29.24
505.503	29.39
505.853	29.29
506.203	29.38
506.553	29.13
506.903	29.18
507.253	29.55
507.603	29.33
507.953	29.77
508.303	29.89
508.652	29.71
509.002	29.85
509.352	29.59
509.701	29.72
510.051	29.74
510.4	29.71
510.75	29.67
511.099	29.89
511.449	29.88
511.798	30
512.147	29.87
512.496	30.16
512.846	30.05
513.195	30.32
513.544	30.23
513.893	30.45
514.242	30.41
514.591	30.56
514.939	30.61
515.288	30.73
515.637	30.81
515.986	30.8
516.334	30.99
516.683	31.08
517.032	31.08
517.38	31.3
517.729	31.25
518.077	31.28
518.426	31.23
518.774	31.39
519.122	31.33
519.47	31.42
519.819	31.02
520.167	31.07
520.515	30.95
520.863	31.13
521.211	31.08
521.559	31.37
521.907	31.6
522.255	31.5
522.602	31.65
522.95	31.9
523.298	32.21
523.645	32.39
523.993	32.13
524.341	32.72
524.688	32.42
525.036	32.5
525.383	32.42
525.73	32.74
526.078	32.6
526.425	32.57
526.772	32.67
527.119	32.43
527.466	32.28
527.814	32.21
528.161	32.16
528.508	32.44
528.854	32.59
529.201	32.5
529.548	32.51
529.895	32.14
530.242	31.86
530.588	31.92
530.935	32.05
531.282	32.11
531.628	32.22
531.975	32.43
532.321	32.7
532.667	32.91
533.014	33.21
533.36	33.27
533.706	33.41
534.052	33.35
534.399	33.41
534.745	33.33
535.091	33.17
535.437	33.36
535.783	33.25
536.129	33.37
536.474	33.55
536.82	33.8
537.166	33.96
537.512	34.26
537.857	34.2
538.203	34.19
538.549	34.09
538.894	34.25
539.239	34.25
539.585	34.46
539.93	34.51
540.276	34.82
540.621	35.08
540.966	35.09
541.311	34.96
541.656	35.25
542.001	35.3
542.346	35.25
542.691	34.72
543.036	34.51
543.381	34.35
543.726	34.55
544.071	34.71
544.415	34.89
544.76	34.8
545.105	34.95
545.449	35.25
545.794	35.37
546.138	35.68
546.483	35.76
546.827	35.94
547.171	36.07
547.516	36.24
547.86	36.25
548.204	36.07
548.548	36.16
548.892	36.29
549.236	36.33
549.58	36.34
549.924	36.47
550.268	36.95
550.612	37.04
550.956	37.28
551.3	37.12
551.643	37.25
551.987	37.61
552.33	37.33
552.674	37.62
553.017	37.91
553.361	37.79
553.704	38
554.048	37.61
554.391	37.57
554.734	37.76
555.077	37.78
555.42	37.66
555.764	37.95
556.107	37.95
556.45	37.97
556.793	38.2
557.135	38.52
557.478	38.62
557.821	38.77
558.164	38.73
558.507	38.67
558.849	38.61
559.192	39.08
559.534	39.07
559.877	38.97
560.219	39.15
560.562	39.51
560.904	38.89
561.246	39.33
561.589	39.47
561.931	39.43
562.273	39.25
562.615	39.5
562.957	39.68
563.299	39.47
563.641	39.76
563.983	39.61
564.325	39.48
564.667	39.69
565.008	39.6
565.35	40.04
565.692	39.96
566.033	39.85
566.375	39.99
566.716	40.43
567.058	40.57
567.399	40.13
567.741	39.97
568.082	39.93
568.423	40.06
568.764	40.27
569.105	40.42
569.447	40.47
569.788	40.73
570.129	40.86
570.47	40.66
570.811	41.04
571.151	40.98
571.492	41.12
571.833	40.9
572.174	41.15
572.514	40.98
572.855	40.94
573.195	40.94
573.536	41.09
573.876	40.95
574.217	41.05
574.557	41.34
574.898	41.35
575.238	41.42
575.578	41.54
575.918	41.47
576.258	41.72
576.598	41.59
576.938	41.53
577.278	41.85
577.618	41.7
577.958	42.24
578.298	42.08
578.638	42.19
578.977	42.21
579.317	42.06
579.657	42.66
579.996	42.57
580.336	42.62
580.675	42.95
581.014	42.92
581.354	43.03
581.693	43.13
582.032	43.58
582.372	43.77
582.711	43.57
583.05	43.42
583.389	43.72
583.728	43.2
584.067	43.52
584.406	43.87
584.745	43.92
585.083	44
585.422	43.9
585.761	44.2
586.1	44.5
586.438	44.63
586.777	44.24
587.115	44.33
587.454	44.24
587.792	44.38
588.13	44.37
588.469	44.62
588.807	44.55
589.145	44.37
589.483	44.61
589.821	44.57
590.159	44.91
590.497	45.07
590.835	45.08
591.173	45.2
591.511	45.15
591.849	45.01
592.187	45.06
592.524	44.86
592.862	45.35
593.2	45.28
593.537	45.25
593.875	45.49
594.212	45.69
594.55	45.63
594.887	45.75
595.224	46.04
595.561	46.05
595.899	45.72
596.236	45.87
596.573	45.82
596.91	46.04
597.247	45.55
597.584	46.22
597.921	46.09
598.258	45.98
598.594	45.85
598.931	45.81
599.268	46
599.604	45.94
599.941	46.11
600.277	46.29
600.614	46.53
600.95	46.44
601.287	46.85
601.623	46.87
601.959	47.04
602.296	47.01
602.632	47.1
602.968	46.96
603.304	47.39
603.64	47.27
603.976	47.44
604.312	47.41
604.648	47.45
604.984	47.69
605.319	47.1
605.655	47.65
605.991	47.2
606.326	47.03
606.662	47.19
606.998	47.05
607.333	47.24
607.668	47
608.004	47.68
608.339	47.96
608.674	47.71
609.01	48.02
609.345	47.96
609.68	48.56
610.015	48.71
610.35	48.04
610.685	48.38
611.02	48.38
611.355	48.41
611.689	48.21
612.024	48.44
612.359	48.56
612.694	48.81
613.028	48.36
613.363	49.18
613.697	49.13
614.032	49.48
614.366	49.38
614.7	49.66
615.035	49.51
615.369	49.47
615.703	49.57
616.037	49.88
616.371	49.75
616.705	49.8
617.039	49.92
617.373	49.88
617.707	50.07
618.041	49.91
618.375	50.19
618.709	50.41
619.042	49.71
619.376	50.48
619.71	50.08
620.043	50.49
620.377	50.49
620.71	50.87
621.043	50.42
621.377	50.65
621.71	50.69
622.043	50.88
622.376	50.63
622.709	50.66
623.043	51.16
623.376	50.96
623.709	51.06
624.041	51.21
624.374	51.28
624.707	51.26
625.04	51.59
625.373	51.19
625.705	52
626.038	51.51
626.37	51.1
626.703	51.25
627.035	51.97
627.368	51.75
627.7	51.76
628.032	51.98
628.365	52.02
628.697	51.83
629.029	51.64
629.361	51.97
629.693	51.86
630.025	51.94
630.357	52.16
630.689	52.58
631.021	52.16
631.353	52.53
631.684	52.6
632.016	52.53
632.348	52.68
632.679	53.08
633.011	53.04
633.342	53.38
633.674	53.24
634.005	53.17
634.336	53.39
634.668	53.65
634.999	53.08
635.33	53.38
635.661	53.48
635.992	53.52
636.323	52.84
636.654	53.42
636.985	53.22
637.316	53.39
637.647	53.39
637.977	53.75
638.308	53.91
638.639	53.87
638.969	54.23
639.3	54.14
639.63	54.15
639.961	54.48
640.291	54.47
640.622	54.21
640.952	54.48
641.282	54.5
641.612	54.35
641.943	54.49
642.273	54.4
642.603	54.61
642.933	55.16
643.263	54.71
643.592	54.92
643.922	54.63
644.252	54.38
644.582	54.98
644.911	54.86
645.241	54.9
645.571	54.93
645.9	55.35
646.23	55.72
646.559	55.38
646.888	55.77
647.218	54.96
647.547	55.5
647.876	55.52
648.205	55.85
648.534	55.54
648.863	56.04
649.192	55.55
649.521	55.44
649.85	56.03
650.179	55.7
650.508	56.17
650.837	56.3
651.165	56.06
651.494	56.52
651.822	56.13
652.151	56.45
652.479	56.14
652.808	56.28
653.136	56.74
653.465	56.05
653.793	56.14
654.121	56.16
654.449	56.81
654.777	56.26
655.105	56.79
655.433	56.99
655.761	56.84
656.089	56.64
656.417	57.13
656.745	57.26
657.073	56.75
657.4	56.63
657.728	57.66
658.056	57.41
658.383	57.5
658.711	57.41
659.038	57.27
659.365	57.71
659.693	57.35
660.02	57.66
660.347	57.6
660.674	57.43
661.001	57.66
661.329	57.47
661.656	58.15
661.982	57.35
662.309	58.06
662.636	57.57
662.963	57.63
663.29	57.94
663.616	58.01
663.943	58.01
664.27	58.58
664.596	58.37
664.923	58.15
665.249	58.37
665.576	59.03
665.902	59.16
666.228	58.73
666.554	58.65
666.881	58.55
667.207	58.86
667.533	58.65
667.859	58.58
668.185	58.74
668.511	58.72
668.837	58.85
669.162	58.24
669.488	58.51
669.814	59.06
670.139	59.66
670.465	59.91
670.791	58.98
671.116	59.63
