Data from 0416_crown_Reflection__2__53.txt Node

Date: Fri Dec 15 16:47:16 CST 2023
User: ToomeyLab
Spectrometer: FLMS14357
Trigger mode: 0
Integration Time (sec): 1.000000E-2
Scans to average: 100
Electric dark correction enabled: true
Nonlinearity correction enabled: false
Boxcar width: 0
XAxis mode: Wavelengths
Number of Pixels in Spectrum: 2048
>>>>>Begin Spectral Data<<<<<
189.047	5.91
189.435	5.91
189.823	5.91
190.211	-41.01
190.599	-283.83
190.987	23.52
191.375	294.4
191.763	33.39
192.151	-6.92
192.538	214.08
192.926	52.72
193.314	18.99
193.702	84.35
194.089	0.73
194.477	-107.69
194.864	179.92
195.252	41.04
195.639	101.06
196.027	6.48
196.414	-331.01
196.801	396.47
197.189	-516.78
197.576	147.72
197.963	-56.71
198.351	-34.83
198.738	5.34
199.125	52.46
199.512	-3.87
199.899	65.62
200.286	20.95
200.673	-21.83
201.06	38.25
201.447	-36.51
201.833	-52.85
202.22	30.55
202.607	90.67
202.994	-5
203.38	14.67
203.767	11.02
204.154	28.92
204.54	38.31
204.927	0.57
205.313	-36.73
205.699	13.37
206.086	40.77
206.472	9.92
206.858	27.18
207.245	11.71
207.631	32.3
208.017	28.94
208.403	4.72
208.789	22.04
209.175	44.54
209.561	-26.16
209.947	-7.17
210.333	-11
210.719	-5.2
211.105	15.77
211.491	-10.76
211.876	31.14
212.262	17.51
212.648	12.49
213.034	46.52
213.419	3.83
213.805	-7.24
214.19	-23.48
214.576	16.64
214.961	10.58
215.346	-33.79
215.732	4.35
216.117	2.44
216.502	-5.52
216.888	17.63
217.273	29.71
217.658	1.37
218.043	5.38
218.428	-16.25
218.813	-3.37
219.198	-28.07
219.583	6.64
219.968	17.59
220.353	29.04
220.738	7.44
221.122	11.11
221.507	-4.05
221.892	-33.28
222.276	-15.08
222.661	10.18
223.046	18.59
223.43	17.08
223.815	-0.94
224.199	-4.37
224.583	0.31
224.968	-0.42
225.352	19.93
225.736	5.63
226.121	-10.64
226.505	7.98
226.889	5.76
227.273	10.55
227.657	16.43
228.041	3.01
228.425	4.71
228.809	5.73
229.193	3.96
229.577	4.03
229.961	5.09
230.344	6.05
230.728	5.05
231.112	5.97
231.495	6.46
231.879	4.96
232.263	6.27
232.646	5.79
233.03	6.03
233.413	5.77
233.797	7.47
234.18	7.48
234.563	6.38
234.946	5.39
235.33	8.48
235.713	6.18
236.096	6.35
236.479	8.43
236.862	5.07
237.245	7.01
237.628	3.11
238.011	7.04
238.394	6.71
238.777	6.09
239.16	4.12
239.543	4.67
239.925	7.18
240.308	7.33
240.691	7.51
241.073	6.28
241.456	4.72
241.838	3.94
242.221	3.63
242.603	6.66
242.986	5.46
243.368	5.13
243.75	5.12
244.133	4.7
244.515	5.75
244.897	5.83
245.279	5.33
245.661	4.3
246.043	3.75
246.425	4.25
246.807	7.15
247.189	5.13
247.571	5.03
247.953	5.22
248.335	4.68
248.717	5.26
249.098	4.81
249.48	5.11
249.862	4.8
250.243	5.3
250.625	5.27
251.006	4.87
251.388	3.31
251.769	4.43
252.151	5.68
252.532	5.44
252.913	4.42
253.295	4.64
253.676	5.05
254.057	5.3
254.438	5.17
254.819	4.96
255.2	4.35
255.581	5.53
255.962	4.93
256.343	5.07
256.724	4.34
257.105	5.97
257.486	4.76
257.867	5.8
258.247	4.58
258.628	5.77
259.009	4.3
259.389	5.03
259.77	5.32
260.15	4.56
260.531	4.57
260.911	5.8
261.292	4.59
261.672	4.85
262.052	4.76
262.432	5.12
262.813	5.1
263.193	5.08
263.573	4.9
263.953	4.83
264.333	4.92
264.713	5.3
265.093	4.47
265.473	4.51
265.853	3.87
266.233	4.63
266.612	3.23
266.992	2.74
267.372	6.3
267.752	4.14
268.131	4.2
268.511	4.98
268.89	5.29
269.27	4.98
269.649	4.34
270.029	4.62
270.408	5.74
270.787	4.55
271.167	4.82
271.546	4.95
271.925	3.64
272.304	4.65
272.683	4.44
273.062	4.54
273.441	4.64
273.82	3.78
274.199	4.14
274.578	4.29
274.957	4.18
275.336	4.39
275.715	4.47
276.093	4.3
276.472	4.73
276.851	4.17
277.229	4.29
277.608	4.53
277.986	4.75
278.365	4.82
278.743	4.66
279.122	4.61
279.5	4.59
279.878	4.94
280.257	4.7
280.635	3.51
281.013	4.31
281.391	4.26
281.769	4.52
282.147	4.86
282.525	5
282.903	4.05
283.281	4.6
283.659	4.54
284.037	4.55
284.415	4.7
284.792	4.3
285.17	3.75
285.548	3.76
285.925	4.26
286.303	4.58
286.68	4.36
287.058	4.45
287.435	4.06
287.813	4.19
288.19	4.37
288.567	4.09
288.945	4.88
289.322	4.19
289.699	4.06
290.076	4.51
290.453	4.47
290.83	4.09
291.207	3.71
291.584	4.57
291.961	4.12
292.338	4.26
292.715	4.12
293.092	3.67
293.469	4.26
293.845	4.87
294.222	3.73
294.599	4.2
294.975	3.58
295.352	4.1
295.728	3.62
296.105	3.6
296.481	4.5
296.858	4.47
297.234	3.72
297.61	3.78
297.986	4.06
298.363	4.29
298.739	4.09
299.115	4.04
299.491	3.71
299.867	4.08
300.243	3.85
300.619	3.57
300.995	3.69
301.371	3.88
301.746	3.77
302.122	4.3
302.498	3.64
302.874	4.24
303.249	3.81
303.625	3.69
304	4.34
304.376	3.65
304.751	3.12
305.127	4.28
305.502	3.35
305.878	3.02
306.253	4
306.628	3.91
307.003	3.44
307.378	4.1
307.754	3.93
308.129	3.35
308.504	4.02
308.879	3.82
309.254	4.36
309.629	3.82
310.003	3.52
310.378	4.42
310.753	3.96
311.128	3.9
311.502	3.66
311.877	3.84
312.252	3.53
312.626	3.75
313.001	3.82
313.375	4.04
313.75	3.29
314.124	3.64
314.498	3.67
314.873	3.93
315.247	3.82
315.621	3.79
315.995	3.4
316.369	3.65
316.743	3.12
317.117	3.67
317.491	3.79
317.865	3.7
318.239	3.37
318.613	4.41
318.987	3.76
319.361	3.36
319.734	3.98
320.108	3.64
320.482	3.3
320.855	3.88
321.229	3.64
321.602	3.75
321.976	3.44
322.349	3.94
322.723	3.27
323.096	4.22
323.469	3
323.843	3.51
324.216	3.78
324.589	3.16
324.962	3.73
325.335	3.32
325.708	3.47
326.081	3.39
326.454	3.53
326.827	3.61
327.2	3.5
327.573	3.6
327.945	3.2
328.318	3.9
328.691	3.42
329.063	3.33
329.436	3.44
329.809	3.71
330.181	3.57
330.553	3.52
330.926	3.52
331.298	4.27
331.671	3.09
332.043	3.69
332.415	3.68
332.787	3.57
333.159	3.96
333.532	3.39
333.904	2.95
334.276	4.04
334.648	3.67
335.02	3.24
335.391	3.16
335.763	3.45
336.135	3.82
336.507	3.66
336.879	2.98
337.25	3.3
337.622	3.83
337.993	3.54
338.365	3.37
338.736	3.38
339.108	3.16
339.479	3.27
339.851	3.36
340.222	3.55
340.593	3.3
340.964	3.49
341.336	3.82
341.707	3.21
342.078	3.14
342.449	3.53
342.82	2.89
343.191	3.74
343.562	3.28
343.933	3.58
344.303	3.44
344.674	3.43
345.045	3.55
345.416	3.9
345.786	3
346.157	3.55
346.527	3.01
346.898	3.63
347.268	3.51
347.639	3.45
348.009	3.89
348.38	3.29
348.75	3.31
349.12	3.47
349.49	3.89
349.861	3.6
350.231	3.11
350.601	3.49
350.971	3.75
351.341	3.64
351.711	3.8
352.081	3.58
352.45	3.3
352.82	3.59
353.19	3.66
353.56	3.68
353.929	3.71
354.299	3.51
354.669	3.15
355.038	4.02
355.408	3.36
355.777	3.44
356.147	3.38
356.516	3.46
356.885	3.75
357.254	3.48
357.624	3.67
357.993	3.55
358.362	3.27
358.731	3.12
359.1	3.5
359.469	3.54
359.838	3.46
360.207	3.36
360.576	3.25
360.945	3.21
361.314	3.58
361.682	3.06
362.051	3.41
362.42	3.49
362.788	3.48
363.157	3.47
363.525	3.75
363.894	3.53
364.262	3.26
364.631	3.39
364.999	3.4
365.367	3.18
365.735	3.93
366.104	3.5
366.472	3.76
366.84	3.27
367.208	3.28
367.576	3.82
367.944	3.83
368.312	3.57
368.68	3.24
369.048	3.92
369.416	3.61
369.783	3.33
370.151	4.06
370.519	4.36
370.886	4.18
371.254	3.46
371.621	3.58
371.989	3.91
372.356	3.46
372.724	3.33
373.091	3.42
373.458	3.74
373.826	3.65
374.193	3.21
374.56	3.79
374.927	3.76
375.294	3.29
375.661	3.55
376.028	3.37
376.395	3.34
376.762	3.37
377.129	3.9
377.496	3.59
377.863	3.55
378.229	3.32
378.596	3.69
378.963	3.76
379.329	3.58
379.696	3.66
380.062	3.75
380.429	3.21
380.795	3.7
381.161	3.45
381.528	3.99
381.894	3.54
382.26	3.67
382.626	3.88
382.993	3.41
383.359	3.77
383.725	3.7
384.091	3.68
384.457	3.76
384.823	3.46
385.188	3.75
385.554	3.43
385.92	3.7
386.286	3.94
386.651	3.74
387.017	4.16
387.383	3.52
387.748	3.66
388.114	3.76
388.479	3.57
388.845	3.93
389.21	3.76
389.575	3.74
389.94	3.94
390.306	3.64
390.671	3.89
391.036	3.46
391.401	3.43
391.766	3.52
392.131	3.32
392.496	3.71
392.861	3.58
393.226	3.76
393.591	3.71
393.956	3.52
394.32	3.84
394.685	3.56
395.05	3.73
395.414	3.92
395.779	3.51
396.143	3.76
396.508	3.55
396.872	3.89
397.236	3.8
397.601	3.52
397.965	3.82
398.329	3.92
398.694	3.95
399.058	3.75
399.422	3.53
399.786	4.05
400.15	3.77
400.514	3.9
400.878	3.97
401.242	3.92
401.605	3.91
401.969	3.92
402.333	4
402.697	3.48
403.06	4.02
403.424	4.12
403.787	3.61
404.151	3.98
404.514	3.83
404.878	3.61
405.241	4.18
405.604	3.83
405.968	3.73
406.331	3.73
406.694	4.11
407.057	4.03
407.42	3.85
407.783	3.69
408.146	3.91
408.509	3.9
408.872	3.44
409.235	4.1
409.598	3.96
409.961	4.1
410.323	4.26
410.686	3.99
411.049	3.69
411.411	3.83
411.774	3.99
412.136	3.94
412.499	3.76
412.861	3.85
413.223	3.9
413.586	4.23
413.948	4
414.31	4.02
414.672	3.91
415.035	3.74
415.397	4.21
415.759	3.68
416.121	3.94
416.483	3.75
416.845	3.91
417.206	4
417.568	4.1
417.93	3.76
418.292	3.9
418.653	3.91
419.015	3.88
419.377	4.1
419.738	4.06
420.1	3.87
420.461	3.87
420.822	3.84
421.184	3.79
421.545	3.87
421.906	3.87
422.267	3.76
422.629	3.89
422.99	3.85
423.351	3.89
423.712	3.92
424.073	3.9
424.434	3.93
424.795	3.82
425.155	3.93
425.516	3.76
425.877	3.73
426.238	3.74
426.598	3.89
426.959	3.92
427.32	3.89
427.68	3.76
428.041	4.01
428.401	4.01
428.761	3.81
429.122	4.05
429.482	3.93
429.842	4.13
430.202	3.81
430.563	3.99
430.923	3.81
431.283	4.1
431.643	4.01
432.003	4.08
432.363	4.07
432.722	3.99
433.082	3.97
433.442	4.08
433.802	3.81
434.161	4
434.521	4.2
434.881	4.15
435.24	3.9
435.6	4.03
435.959	4.16
436.319	4.11
436.678	4.1
437.037	4.12
437.396	4.11
437.756	4.08
438.115	4.12
438.474	4.08
438.833	4.04
439.192	4.02
439.551	3.96
439.91	4.11
440.269	4.24
440.628	3.99
440.987	3.92
441.345	3.92
441.704	3.99
442.063	4.09
442.421	4.06
442.78	4.08
443.138	4.03
443.497	4.09
443.855	4.12
444.214	4.24
444.572	4.23
444.93	3.99
445.288	4.13
445.647	4.3
446.005	4.07
446.363	4.13
446.721	4.1
447.079	3.91
447.437	4.08
447.795	4.1
448.153	3.92
448.51	4.11
448.868	4.08
449.226	4.14
449.584	4.05
449.941	4.25
450.299	4.14
450.656	4.32
451.014	4.18
451.371	4.17
451.729	4.06
452.086	4.4
452.443	4.4
452.801	4.46
453.158	4.21
453.515	3.96
453.872	4.16
454.229	4.07
454.586	4.25
454.943	4.34
455.3	4.32
455.657	4.27
456.014	4.2
456.371	4.28
456.727	4.41
457.084	4.25
457.441	4.17
457.797	4.39
458.154	4.37
458.51	4.34
458.867	4.37
459.223	4.26
459.58	4.14
459.936	4.11
460.292	4.24
460.648	4.2
461.005	4.2
461.361	4.22
461.717	4.19
462.073	4.06
462.429	4.26
462.785	4.21
463.141	4.35
463.496	4.33
463.852	4.53
464.208	4.19
464.564	4.52
464.919	4.47
465.275	4.54
465.631	4.38
465.986	4.23
466.342	4.22
466.697	4.32
467.052	4.3
467.408	4.34
467.763	4.32
468.118	4.34
468.473	4.28
468.829	4.24
469.184	4.2
469.539	4.28
469.894	4.23
470.249	4.57
470.603	4.51
470.958	4.47
471.313	4.46
471.668	4.65
472.023	4.45
472.377	4.34
472.732	4.58
473.086	4.24
473.441	4.26
473.795	4.46
474.15	4.28
474.504	4.44
474.859	4.5
475.213	4.16
475.567	4.22
475.921	4.29
476.275	4.27
476.63	4.48
476.984	4.53
477.338	4.43
477.692	4.26
478.045	4.24
478.399	4.38
478.753	4.35
479.107	4.37
479.461	4.3
479.814	4.42
480.168	4.42
480.521	4.46
480.875	4.32
481.228	4.33
481.582	4.44
481.935	4.38
482.289	4.46
482.642	4.38
482.995	4.19
483.348	4.15
483.701	4.34
484.055	4.3
484.408	4.34
484.761	4.13
485.114	4.12
485.466	3.94
485.819	3.95
486.172	4.02
486.525	4.2
486.878	4.23
487.23	4.3
487.583	4.32
487.936	4.31
488.288	4.26
488.641	4.26
488.993	4.07
489.345	4.09
489.698	4.14
490.05	4.13
490.402	4.27
490.754	4.25
491.107	4.36
491.459	4.39
491.811	4.37
492.163	4.3
492.515	4.24
492.866	4.28
493.218	4.15
493.57	4.1
493.922	4.2
494.274	4.31
494.625	4.46
494.977	4.51
495.328	4.48
495.68	4.51
496.031	4.5
496.383	4.48
496.734	4.53
497.086	4.46
497.437	4.43
497.788	4.38
498.139	4.37
498.49	4.43
498.842	4.32
499.193	4.48
499.544	4.41
499.894	4.37
500.245	4.29
500.596	4.37
500.947	4.51
501.298	4.45
501.648	4.51
501.999	4.54
502.35	4.52
502.7	4.51
503.051	4.26
503.401	4.42
503.752	4.5
504.102	4.43
504.452	4.44
504.803	4.44
505.153	4.38
505.503	4.48
505.853	4.45
506.203	4.36
506.553	4.45
506.903	4.3
507.253	4.38
507.603	4.31
507.953	4.49
508.303	4.57
508.652	4.37
509.002	4.47
509.352	4.53
509.701	4.35
510.051	4.45
510.4	4.28
510.75	4.35
511.099	4.43
511.449	4.4
511.798	4.51
512.147	4.43
512.496	4.5
512.846	4.48
513.195	4.33
513.544	4.42
513.893	4.45
514.242	4.49
514.591	4.58
514.939	4.37
515.288	4.26
515.637	4.45
515.986	4.43
516.334	4.49
516.683	4.48
517.032	4.47
517.38	4.6
517.729	4.42
518.077	4.19
518.426	4.49
518.774	4.49
519.122	4.34
519.47	4.32
519.819	4.2
520.167	4.34
520.515	4.24
520.863	4.37
521.211	4.43
521.559	4.39
521.907	4.31
522.255	4.4
522.602	4.46
522.95	4.39
523.298	4.52
523.645	4.56
523.993	4.48
524.341	4.5
524.688	4.45
525.036	4.47
525.383	4.46
525.73	4.54
526.078	4.52
526.425	4.32
526.772	4.37
527.119	4.33
527.466	4.21
527.814	4.31
528.161	4.28
528.508	4.37
528.854	4.3
529.201	4.23
529.548	4.28
529.895	4.24
530.242	4.01
530.588	4.01
530.935	4.15
531.282	4.27
531.628	4.32
531.975	4.35
532.321	4.31
532.667	4.39
533.014	4.43
533.36	4.41
533.706	4.36
534.052	4.35
534.399	4.32
534.745	4.14
535.091	4.19
535.437	4.23
535.783	4.25
536.129	4.37
536.474	4.41
536.82	4.49
537.166	4.46
537.512	4.4
537.857	4.34
538.203	4.41
538.549	4.33
538.894	4.33
539.239	4.34
539.585	4.44
539.93	4.29
540.276	4.42
540.621	4.52
540.966	4.51
541.311	4.35
541.656	4.3
542.001	4.27
542.346	4.38
542.691	4.14
543.036	4.04
543.381	4.07
543.726	4.13
544.071	4.3
544.415	4.43
544.76	4.29
545.105	4.33
545.449	4.33
545.794	4.34
546.138	4.37
546.483	4.48
546.827	4.41
547.171	4.36
547.516	4.54
547.86	4.23
548.204	4.35
548.548	4.28
548.892	4.34
549.236	4.37
549.58	4.37
549.924	4.44
550.268	4.53
550.612	4.57
550.956	4.6
551.3	4.5
551.643	4.61
551.987	4.57
552.33	4.31
552.674	4.54
553.017	4.42
553.361	4.25
553.704	4.52
554.048	4.44
554.391	4.33
554.734	4.29
555.077	4.4
555.42	4.28
555.764	4.19
556.107	4.28
556.45	4.17
556.793	4.42
557.135	4.54
557.478	4.45
557.821	4.64
558.164	4.32
558.507	4.36
558.849	4.24
559.192	4.36
559.534	4.28
559.877	4.39
560.219	4.46
560.562	4.72
560.904	4.51
561.246	4.52
561.589	4.52
561.931	4.38
562.273	4.32
562.615	4.4
562.957	4.46
563.299	4.27
563.641	4.46
563.983	4.41
564.325	4.43
564.667	4.43
565.008	4.43
565.35	4.42
565.692	4.01
566.033	4.17
566.375	4.64
566.716	4.62
567.058	4.31
567.399	4.18
567.741	4.12
568.082	4.11
568.423	4.36
568.764	4.21
569.105	4.45
569.447	4.39
569.788	4.46
570.129	4.51
570.47	4.57
570.811	4.51
571.151	4.37
571.492	4.49
571.833	4.28
572.174	4.34
572.514	4.48
572.855	4.32
573.195	4.26
573.536	4.3
573.876	4.06
574.217	4.21
574.557	4.37
574.898	4.52
575.238	4.33
575.578	4.32
575.918	4.56
576.258	4.48
576.598	4.47
576.938	4.29
577.278	4.38
577.618	4.3
577.958	4.41
578.298	4.47
578.638	4.36
578.977	4.11
579.317	4.26
579.657	4.47
579.996	4.4
580.336	4.35
580.675	4.46
581.014	4.34
581.354	4.42
581.693	4.3
582.032	4.28
582.372	4.3
582.711	4.26
583.05	4.14
583.389	4.46
583.728	4.13
584.067	4.38
584.406	4.5
584.745	4.39
585.083	4.49
585.422	4.37
585.761	4.2
586.1	4.52
586.438	4.22
586.777	4.54
587.115	4.51
587.454	4.27
587.792	4.29
588.13	4.53
588.469	4.16
588.807	4.35
589.145	4.18
589.483	4.57
589.821	4.28
590.159	4.23
590.497	4.3
590.835	4.52
591.173	4.32
591.511	4.4
591.849	4.22
592.187	4.21
592.524	4.28
592.862	4.33
593.2	4.37
593.537	4.32
593.875	4.34
594.212	4.24
594.55	4.34
594.887	4.45
595.224	4.23
595.561	4.36
595.899	4.11
596.236	4.28
596.573	4.4
596.91	3.91
597.247	4.08
597.584	4.48
597.921	4.11
598.258	4.17
598.594	4.36
598.931	4.14
599.268	4.27
599.604	4.39
599.941	4.42
600.277	4.28
600.614	4.29
600.95	4.19
601.287	4.38
601.623	4.12
601.959	4.05
602.296	4.17
602.632	4.25
602.968	4.57
603.304	4.32
603.64	4.33
603.976	4.29
604.312	4.22
604.648	4.18
604.984	4.23
605.319	4.15
605.655	4.15
605.991	4.15
606.326	4.17
606.662	4.31
606.998	4.04
607.333	4.28
607.668	4.21
608.004	4.3
608.339	4.56
608.674	4.33
609.01	4.27
609.345	3.88
609.68	4.37
610.015	4.22
610.35	4.29
610.685	4.32
611.02	4.21
611.355	4.12
611.689	3.98
612.024	4.19
612.359	4.13
612.694	4.33
613.028	3.98
613.363	4.34
613.697	4.22
614.032	4.43
614.366	4.41
614.7	4.45
615.035	4.34
615.369	4.37
615.703	4.28
616.037	4.32
616.371	3.97
616.705	4.27
617.039	4.25
617.373	4.19
617.707	4.31
618.041	4.14
618.375	4.31
618.709	4.17
619.042	4.04
619.376	4.35
619.71	4.79
620.043	4.53
620.377	3.93
620.71	4.26
621.043	4.31
621.377	4.61
621.71	4.26
622.043	3.75
622.376	3.55
622.709	4.45
623.043	4.61
623.376	4.18
623.709	3.86
624.041	4.2
624.374	4.26
624.707	4.38
625.04	4.08
625.373	4.06
625.705	4.44
626.038	3.94
626.37	3.86
626.703	3.75
627.035	4.13
627.368	4.08
627.7	4.32
628.032	4.1
628.365	4.36
628.697	4.26
629.029	3.9
629.361	4.3
629.693	4.37
630.025	4.08
630.357	4.28
630.689	4.22
631.021	4.2
631.353	4.27
631.684	4.18
632.016	3.86
632.348	4.63
632.679	4.07
633.011	4.55
633.342	4.74
633.674	3.73
634.005	4.81
634.336	4.47
634.668	4.71
634.999	4.16
635.33	4.23
635.661	4.02
635.992	4.02
636.323	4.45
636.654	4.1
636.985	4.09
637.316	4.07
637.647	4.17
637.977	4.73
638.308	4.32
638.639	3.86
638.969	3.92
639.3	3.99
639.63	4
639.961	4.18
640.291	4.07
640.622	4.43
640.952	4.11
641.282	4.62
641.612	4.66
641.943	3.99
642.273	4.31
642.603	4.38
642.933	3.96
643.263	4.36
643.592	4.12
643.922	3.94
644.252	4.04
644.582	4.04
644.911	3.4
645.241	3.7
645.571	4.07
645.9	3.5
646.23	4
646.559	4.54
646.888	3.82
647.218	4.49
647.547	4.37
647.876	3.61
648.205	3.74
648.534	3.96
648.863	3.81
649.192	4.44
649.521	4.17
649.85	3.77
650.179	3.7
650.508	3.55
650.837	4.19
651.165	4.02
651.494	4.34
651.822	4.22
652.151	4.17
652.479	4.42
652.808	3.9
653.136	4.3
653.465	3.27
653.793	3.48
654.121	3.87
654.449	4.26
654.777	4.2
655.105	4.13
655.433	3.7
655.761	3.69
656.089	4
656.417	4.31
656.745	4.3
657.073	3.9
657.4	4.85
657.728	4.07
658.056	4.06
658.383	3.92
658.711	4.6
659.038	3.95
659.365	4.34
659.693	4.65
660.02	4
660.347	3.98
660.674	4.34
661.001	4.3
661.329	3.38
661.656	4.08
661.982	4.38
662.309	4.13
662.636	4.11
662.963	4.18
663.29	4.78
663.616	4.12
663.943	3.8
664.27	3.67
664.596	4.48
664.923	4.21
665.249	3.99
665.576	4.53
665.902	4.83
666.228	4.69
666.554	4.2
666.881	3.16
667.207	4.06
667.533	4.69
667.859	4.11
668.185	4.21
668.511	3.45
668.837	3.37
669.162	3.95
669.488	4.27
669.814	4.37
670.139	4.74
670.465	4.58
670.791	4.29
671.116	5.24
671.442	4.06
671.767	4.26
672.092	4.78
672.418	3.83
672.743	4.42
673.068	3.76
673.393	3.92
673.718	3.81
674.043	4.09
674.368	3.62
674.693	4.85
675.018	4.4
675.343	3.97
675.667	3.68
675.992	4.23
676.317	3.37
676.641	4.65
676.966	4.74
677.29	4.02
677.615	4.52
677.939	4.63
678.264	4.99
678.588	4.5
678.912	4.28
679.236	4.15
679.56	3.6
679.885	4.56
680.209	4.24
680.532	4.33
680.856	4.72
681.18	3.43
681.504	4.08
681.828	4.61
682.152	4.08
682.475	4.2
682.799	4.44
683.122	4.56
683.446	4
683.769	4.86
684.093	3.86
684.416	4.85
684.739	3.5
685.062	4.16
685.386	4.5
685.709	3.87
686.032	4
686.355	4.72
686.678	4.24
687.001	3.94
687.324	4.88
687.646	4.07
687.969	4
688.292	4.02
688.614	4.03
688.937	5.07
689.26	3.89
689.582	4.5
689.904	3.84
690.227	4.63
690.549	4.49
690.871	4.9
691.194	4
691.516	4.51
691.838	3.91
692.16	3.49
692.482	4.47
692.804	3.59
693.126	4.6
693.448	4.49
