Data from 0416_chest_Reflection__2__48.txt Node

Date: Fri Dec 15 16:44:43 CST 2023
User: ToomeyLab
Spectrometer: FLMS14357
Trigger mode: 0
Integration Time (sec): 1.000000E-2
Scans to average: 100
Electric dark correction enabled: true
Nonlinearity correction enabled: false
Boxcar width: 0
XAxis mode: Wavelengths
Number of Pixels in Spectrum: 2048
>>>>>Begin Spectral Data<<<<<
189.047	107.44
189.435	107.44
189.823	107.44
190.211	-176.32
190.599	-250.3
190.987	36.46
191.375	332.36
191.763	111.64
192.151	130.84
192.538	264.52
192.926	-104.8
193.314	38.48
193.702	108.75
194.089	45.82
194.477	48.02
194.864	7.53
195.252	79.1
195.639	102.8
196.027	107.81
196.414	-712.89
196.801	384.38
197.189	951.68
197.576	268.91
197.963	-47.81
198.351	-96.8
198.738	-40.32
199.125	40.35
199.512	-17.72
199.899	22.5
200.286	3.06
200.673	-24.05
201.06	-6.33
201.447	-45.14
201.833	-7.42
202.22	12.96
202.607	22.38
202.994	27.33
203.38	31.88
203.767	9.76
204.154	-24.8
204.54	24.15
204.927	-30.6
205.313	27.58
205.699	17.89
206.086	24.04
206.472	17.75
206.858	12
207.245	60.97
207.631	23.94
208.017	14.9
208.403	-4.02
208.789	30.45
209.175	15.04
209.561	-27.81
209.947	58.76
210.333	-37.82
210.719	38.43
211.105	8.48
211.491	-4.31
211.876	-11.47
212.262	-0.08
212.648	-17.26
213.034	5.73
213.419	-23.17
213.805	5.32
214.19	-15.81
214.576	22.78
214.961	-45.51
215.346	-78.14
215.732	-11.17
216.117	-3.97
216.502	3.82
216.888	-0.5
217.273	31.26
217.658	-1.29
218.043	2.83
218.428	-6.49
218.813	-0.55
219.198	-14.53
219.583	-10.23
219.968	-4.3
220.353	-10.95
220.738	-0.09
221.122	0.57
221.507	-9.69
221.892	-9.3
222.276	-7.21
222.661	-2.64
223.046	16.34
223.43	3.44
223.815	8.98
224.199	-11.8
224.583	1.73
224.968	-1.6
225.352	17.86
225.736	10.16
226.121	-11.63
226.505	3.92
226.889	7.06
227.273	-5.61
227.657	12.5
228.041	0.91
228.425	3.99
228.809	7.94
229.193	2.88
229.577	1.96
229.961	4.01
230.344	3.7
230.728	2.73
231.112	4.55
231.495	3.9
231.879	3.54
232.263	4.79
232.646	3.86
233.03	4.56
233.413	0.79
233.797	4.05
234.18	5.11
234.563	5.23
234.946	2.12
235.33	3.71
235.713	5.31
236.096	3.09
236.479	3.34
236.862	2.84
237.245	3.55
237.628	1.57
238.011	4.05
238.394	5.58
238.777	4.79
239.16	0.61
239.543	3.05
239.925	4.46
240.308	1.73
240.691	3.53
241.073	4.15
241.456	3.42
241.838	1.83
242.221	3.99
242.603	3.42
242.986	2.7
243.368	3.41
243.75	3.93
244.133	3.45
244.515	3.67
244.897	3.71
245.279	3.49
245.661	2.7
246.043	3.62
246.425	3
246.807	3.75
247.189	3.87
247.571	3.65
247.953	3.07
248.335	3.37
248.717	3.59
249.098	3.37
249.48	3.56
249.862	3.54
250.243	3.09
250.625	3.25
251.006	3.88
251.388	1.71
251.769	2.67
252.151	3.07
252.532	3.55
252.913	1.75
253.295	3.26
253.676	3.62
254.057	3.04
254.438	3.49
254.819	3.43
255.2	1.93
255.581	3.29
255.962	2.76
256.343	2.74
256.724	2.66
257.105	1.57
257.486	2.11
257.867	4.06
258.247	3.03
258.628	2.32
259.009	2.51
259.389	3.26
259.77	3.55
260.15	2.57
260.531	2.44
260.911	3.83
261.292	3.01
261.672	3.41
262.052	3.21
262.432	3.23
262.813	3.16
263.193	3.3
263.573	2.33
263.953	2.46
264.333	3.81
264.713	2.72
265.093	2.7
265.473	2.44
265.853	1.12
266.233	2.41
266.612	1.51
266.992	1.26
267.372	3.92
267.752	2.96
268.131	2.24
268.511	3.2
268.89	3.19
269.27	2.46
269.649	2.59
270.029	2.53
270.408	3.67
270.787	2.95
271.167	3.48
271.546	3.13
271.925	2.33
272.304	2.75
272.683	3.63
273.062	2.41
273.441	2.81
273.82	2.06
274.199	3.2
274.578	3.25
274.957	3.13
275.336	2.9
275.715	2.44
276.093	2.29
276.472	2.93
276.851	2.44
277.229	2.04
277.608	2
277.986	2.75
278.365	2.86
278.743	2.12
279.122	3.09
279.5	3.18
279.878	2.66
280.257	2.62
280.635	2.59
281.013	3.32
281.391	2.82
281.769	3.01
282.147	3.24
282.525	3.15
282.903	2.54
283.281	2.41
283.659	3.24
284.037	2.97
284.415	3.72
284.792	3.02
285.17	2.36
285.548	2.4
285.925	2.55
286.303	3.17
286.68	2.95
287.058	2.97
287.435	2.58
287.813	2.89
288.19	2.73
288.567	2.58
288.945	3.19
289.322	2.53
289.699	2.58
290.076	2.92
290.453	2.76
290.83	2.46
291.207	2.54
291.584	2.76
291.961	2.96
292.338	2.75
292.715	3.5
293.092	3.39
293.469	2.44
293.845	2.6
294.222	2.1
294.599	2.32
294.975	2.09
295.352	2.74
295.728	2.16
296.105	2.57
296.481	3.32
296.858	2.81
297.234	2.38
297.61	2.56
297.986	2.36
298.363	3.27
298.739	2.64
299.115	2.77
299.491	2.66
299.867	2.65
300.243	2.32
300.619	1.93
300.995	2.58
301.371	3.07
301.746	2.82
302.122	2.83
302.498	2.67
302.874	3.36
303.249	2.73
303.625	3.08
304	3.16
304.376	2.5
304.751	2.42
305.127	3.57
305.502	2.14
305.878	1.63
306.253	2.85
306.628	3.06
307.003	2.4
307.378	2.81
307.754	2.38
308.129	1.98
308.504	2.81
308.879	2.31
309.254	2.73
309.629	3.01
310.003	2.55
310.378	3.36
310.753	2.79
311.128	2.83
311.502	2.68
311.877	2.78
312.252	2.09
312.626	2.4
313.001	2.67
313.375	3.13
313.75	2.69
314.124	2.78
314.498	2.74
314.873	2.49
315.247	2.33
315.621	2.06
315.995	1.6
316.369	2.6
316.743	2.39
317.117	2.67
317.491	2.52
317.865	3.06
318.239	2.87
318.613	2.26
318.987	2.64
319.361	2.01
319.734	2.79
320.108	2.77
320.482	2.54
320.855	2.87
321.229	2.33
321.602	2.19
321.976	2.86
322.349	2.79
322.723	2.33
323.096	2.48
323.469	1.77
323.843	3.04
324.216	3
324.589	2.57
324.962	2.85
325.335	2.48
325.708	2.29
326.081	2.49
326.454	2.53
326.827	2.24
327.2	2.75
327.573	2.72
327.945	2.55
328.318	2.31
328.691	2.48
329.063	2.53
329.436	2.34
329.809	2.91
330.181	2.18
330.553	2.25
330.926	2.3
331.298	2.75
331.671	2.64
332.043	2.72
332.415	3.02
332.787	2.27
333.159	2.52
333.532	2.71
333.904	2.63
334.276	2.59
334.648	3.05
335.02	2.49
335.391	2.39
335.763	2.6
336.135	2.79
336.507	2.66
336.879	2.52
337.25	2.35
337.622	2.68
337.993	2.76
338.365	2.41
338.736	3.12
339.108	2.58
339.479	2.43
339.851	2.67
340.222	2.09
340.593	2.48
340.964	2.36
341.336	3.24
341.707	2.1
342.078	2.73
342.449	2.83
342.82	2.74
343.191	2.58
343.562	3
343.933	2.91
344.303	2.48
344.674	2.35
345.045	2.94
345.416	2.97
345.786	2.36
346.157	2.89
346.527	1.92
346.898	2.03
347.268	2.62
347.639	2.33
348.009	2.93
348.38	2.52
348.75	2.22
349.12	2.52
349.49	3.04
349.861	2.99
350.231	2.3
350.601	2.67
350.971	2.79
351.341	2.72
351.711	2.62
352.081	3.16
352.45	2.92
352.82	2.94
353.19	2.41
353.56	2.54
353.929	2.55
354.299	2.27
354.669	2.69
355.038	3.09
355.408	2.67
355.777	2.33
356.147	2.81
356.516	2.61
356.885	3.19
357.254	2.79
357.624	2.79
357.993	2.39
358.362	2.61
358.731	2.38
359.1	2.73
359.469	2.38
359.838	3.06
360.207	2.38
360.576	2.16
360.945	2.55
361.314	2.97
361.682	2.71
362.051	2.55
362.42	2.76
362.788	2.73
363.157	2.53
363.525	2.84
363.894	2.86
364.262	2.61
364.631	2.6
364.999	2.94
365.367	2.31
365.735	3.42
366.104	2.8
366.472	2.83
366.84	2.33
367.208	2.26
367.576	2.98
367.944	3.09
368.312	2.6
368.68	2.61
369.048	2.99
369.416	2.9
369.783	2.53
370.151	2.55
370.519	3.23
370.886	2.68
371.254	2.76
371.621	3.17
371.989	3.11
372.356	2.52
372.724	2.69
373.091	2.66
373.458	2.51
373.826	2.6
374.193	2.75
374.56	2.95
374.927	3.01
375.294	2.56
375.661	2.67
376.028	2.44
376.395	2.46
376.762	2.59
377.129	2.79
377.496	2.5
377.863	2.55
378.229	2.21
378.596	2.51
378.963	2.57
379.329	2.51
379.696	3.03
380.062	2.93
380.429	2.87
380.795	2.61
381.161	2.93
381.528	3.17
381.894	3.09
382.26	2.34
382.626	2.99
382.993	2.5
383.359	3.02
383.725	2.78
384.091	2.98
384.457	2.9
384.823	2.83
385.188	2.62
385.554	2.81
385.92	2.75
386.286	2.97
386.651	2.79
387.017	3.15
387.383	2.62
387.748	2.66
388.114	3
388.479	2.55
388.845	2.9
389.21	3.07
389.575	2.71
389.94	3.06
390.306	2.67
390.671	3.11
391.036	2.52
391.401	2.6
391.766	2.95
392.131	2.88
392.496	2.91
392.861	2.61
393.226	2.89
393.591	2.73
393.956	2.67
394.32	2.9
394.685	2.84
395.05	2.82
395.414	2.8
395.779	2.62
396.143	2.88
396.508	2.68
396.872	2.89
397.236	2.87
397.601	2.73
397.965	3.01
398.329	2.81
398.694	2.67
399.058	2.91
399.422	2.38
399.786	3.05
400.15	2.96
400.514	2.79
400.878	2.94
401.242	3.05
401.605	2.94
401.969	2.9
402.333	2.75
402.697	2.76
403.06	2.92
403.424	2.91
403.787	2.88
404.151	2.88
404.514	2.9
404.878	2.78
405.241	3.03
405.604	2.69
405.968	2.99
406.331	2.88
406.694	2.9
407.057	2.99
407.42	2.94
407.783	2.69
408.146	2.88
408.509	2.85
408.872	2.59
409.235	2.88
409.598	3.03
409.961	2.96
410.323	3.1
410.686	2.92
411.049	2.72
411.411	2.88
411.774	2.82
412.136	2.9
412.499	2.72
412.861	2.84
413.223	2.95
413.586	3.07
413.948	2.93
414.31	2.75
414.672	2.93
415.035	2.72
415.397	3.01
415.759	2.69
416.121	3.18
416.483	2.73
416.845	2.85
417.206	2.73
417.568	3.1
417.93	2.78
418.292	3.01
418.653	2.87
419.015	2.89
419.377	2.88
419.738	2.82
420.1	2.93
420.461	3.12
420.822	2.94
421.184	2.86
421.545	2.75
421.906	2.93
422.267	2.79
422.629	2.86
422.99	2.91
423.351	2.74
423.712	2.85
424.073	2.82
424.434	2.82
424.795	2.77
425.155	2.93
425.516	2.79
425.877	2.88
426.238	2.83
426.598	2.89
426.959	2.83
427.32	2.8
427.68	2.77
428.041	2.84
428.401	3
428.761	2.98
429.122	2.89
429.482	2.76
429.842	2.84
430.202	3.08
430.563	2.89
430.923	2.74
431.283	2.97
431.643	3
432.003	2.98
432.363	3.09
432.722	2.82
433.082	2.93
433.442	2.77
433.802	2.85
434.161	2.79
434.521	3.13
434.881	3.01
435.24	2.67
435.6	2.87
435.959	2.9
436.319	2.93
436.678	2.9
437.037	2.93
437.396	3.06
437.756	3
438.115	2.82
438.474	3.19
438.833	2.9
439.192	2.88
439.551	3.02
439.91	2.91
440.269	2.81
440.628	2.75
440.987	2.89
441.345	2.71
441.704	2.9
442.063	2.87
442.421	3.02
442.78	2.85
443.138	2.96
443.497	2.79
443.855	2.72
444.214	2.86
444.572	2.87
444.93	3.01
445.288	2.96
445.647	2.99
446.005	2.87
446.363	2.98
446.721	2.93
447.079	2.82
447.437	2.98
447.795	2.86
448.153	2.83
448.51	2.79
448.868	2.81
449.226	2.93
449.584	2.84
449.941	2.99
450.299	2.88
450.656	2.89
451.014	2.87
451.371	2.92
451.729	2.79
452.086	3.06
452.443	2.83
452.801	2.92
453.158	3.15
453.515	2.88
453.872	2.96
454.229	2.92
454.586	2.84
454.943	2.85
455.3	3.05
455.657	2.89
456.014	2.88
456.371	3.02
456.727	3.05
457.084	3.06
457.441	2.81
457.797	2.91
458.154	3.04
458.51	3.05
458.867	2.98
459.223	3
459.58	3.09
459.936	2.94
460.292	2.87
460.648	2.79
461.005	2.98
461.361	2.99
461.717	2.89
462.073	2.84
462.429	2.91
462.785	2.97
463.141	2.83
463.496	2.83
463.852	3.12
464.208	3.05
464.564	3.05
464.919	2.9
465.275	2.98
465.631	3.21
465.986	3
466.342	2.86
466.697	2.86
467.052	2.87
467.408	3
467.763	3.09
468.118	2.98
468.473	3.08
468.829	2.93
469.184	2.76
469.539	2.99
469.894	2.76
470.249	3.17
470.603	3.09
470.958	2.82
471.313	3.02
471.668	3.07
472.023	2.81
472.377	2.92
472.732	2.92
473.086	2.91
473.441	2.89
473.795	3.17
474.15	3.13
474.504	3.08
474.859	2.84
475.213	2.92
475.567	2.97
475.921	2.71
476.275	2.98
476.63	2.99
476.984	3.1
477.338	3.14
477.692	2.74
478.045	2.9
478.399	3.01
478.753	3.08
479.107	3.01
479.461	2.94
479.814	2.83
480.168	2.82
480.521	2.82
480.875	2.96
481.228	2.93
481.582	3.03
481.935	2.91
482.289	2.99
482.642	2.98
482.995	2.91
483.348	2.89
483.701	2.98
484.055	3
484.408	2.97
484.761	2.82
485.114	2.86
485.466	2.7
485.819	2.74
486.172	2.77
486.525	2.78
486.878	2.86
487.23	2.84
487.583	2.97
487.936	2.97
488.288	2.82
488.641	2.94
488.993	2.79
489.345	2.79
489.698	2.81
490.05	2.8
490.402	2.84
490.754	2.91
491.107	2.89
491.459	3.02
491.811	2.98
492.163	2.96
492.515	2.96
492.866	2.91
493.218	2.91
493.57	2.86
493.922	2.83
494.274	2.93
494.625	2.96
494.977	2.99
495.328	3.08
495.68	3.04
496.031	3.2
496.383	3.08
496.734	3.23
497.086	3.17
497.437	3.09
497.788	2.98
498.139	3.06
498.49	2.98
498.842	2.96
499.193	3
499.544	2.95
499.894	2.96
500.245	2.94
500.596	3
500.947	3.11
501.298	2.86
501.648	3.05
501.999	3.06
502.35	3.09
502.7	3.08
503.051	2.94
503.401	3
503.752	3.14
504.102	3.05
504.452	2.98
504.803	3.16
505.153	3.08
505.503	3.05
505.853	3.05
506.203	3.04
506.553	3.03
506.903	3.11
507.253	3.03
507.603	2.95
507.953	3.1
508.303	3.18
508.652	2.95
509.002	3.07
509.352	3.14
509.701	2.99
510.051	3.01
510.4	3.03
510.75	3.06
511.099	3.02
511.449	3.01
511.798	3.07
512.147	3.15
512.496	3.06
512.846	3.05
513.195	3.09
513.544	3.09
513.893	3.16
514.242	3.15
514.591	3.16
514.939	3.08
515.288	3.09
515.637	3.15
515.986	3.12
516.334	3.16
516.683	3.15
517.032	3.08
517.38	3.23
517.729	3.13
518.077	3
518.426	3.15
518.774	3.16
519.122	3.1
519.47	3.06
519.819	2.97
520.167	3
520.515	2.99
520.863	3.11
521.211	3.13
521.559	3.2
521.907	3.06
522.255	3.18
522.602	3.12
522.95	3.14
523.298	3.19
523.645	3.21
523.993	3.04
524.341	3.18
524.688	3.22
525.036	3.11
525.383	3.19
525.73	3.3
526.078	3.04
526.425	3.15
526.772	3.3
527.119	3.13
527.466	3.09
527.814	3.09
528.161	3.04
528.508	3.24
528.854	3.14
529.201	3.07
529.548	3.09
529.895	3.02
530.242	2.95
530.588	2.99
530.935	3.04
531.282	3.11
531.628	3.03
531.975	3.13
532.321	3.14
532.667	3.17
533.014	3.28
533.36	3.21
533.706	3.3
534.052	3.28
534.399	3.16
534.745	3.11
535.091	3.1
535.437	3.14
535.783	3.17
536.129	3.26
536.474	3.26
536.82	3.24
537.166	3.26
537.512	3.18
537.857	3.33
538.203	3.31
538.549	3.15
538.894	3.18
539.239	3.26
539.585	3.32
539.93	3.24
540.276	3.3
540.621	3.46
540.966	3.52
541.311	3.2
541.656	3.32
542.001	3.27
542.346	3.3
542.691	3.21
543.036	3.17
543.381	3.19
543.726	3.21
544.071	3.27
544.415	3.29
544.76	3.3
545.105	3.35
545.449	3.41
545.794	3.39
546.138	3.24
546.483	3.45
546.827	3.46
547.171	3.43
547.516	3.51
547.86	3.31
548.204	3.33
548.548	3.27
548.892	3.46
549.236	3.38
549.58	3.41
549.924	3.4
550.268	3.61
550.612	3.56
550.956	3.63
551.3	3.54
551.643	3.72
551.987	3.56
552.33	3.42
552.674	3.68
553.017	3.46
553.361	3.53
553.704	3.79
554.048	3.49
554.391	3.41
554.734	3.55
555.077	3.66
555.42	3.53
555.764	3.42
556.107	3.44
556.45	3.54
556.793	3.46
557.135	3.56
557.478	3.81
557.821	3.7
558.164	3.58
558.507	3.54
558.849	3.59
559.192	3.87
559.534	3.63
559.877	3.73
560.219	3.64
560.562	3.68
560.904	3.73
561.246	3.75
561.589	3.72
561.931	3.56
562.273	3.54
562.615	3.8
562.957	3.77
563.299	3.63
563.641	3.8
563.983	3.84
564.325	3.67
564.667	3.86
565.008	3.67
565.35	3.76
565.692	3.58
566.033	3.83
566.375	3.93
566.716	3.98
567.058	3.7
567.399	3.94
567.741	3.79
568.082	3.87
568.423	3.78
568.764	3.74
569.105	3.97
569.447	3.82
569.788	3.77
570.129	4.06
570.47	4
570.811	3.96
571.151	3.95
571.492	3.94
571.833	3.92
572.174	3.91
572.514	3.91
572.855	3.85
573.195	4.01
573.536	3.93
573.876	3.85
574.217	3.93
574.557	4.26
574.898	4.22
575.238	4.16
575.578	3.98
575.918	4.26
576.258	4.13
576.598	4.11
576.938	4.04
577.278	4.24
577.618	4.05
577.958	4.2
578.298	4.17
578.638	4.1
578.977	4.22
579.317	4.06
579.657	4.23
579.996	4.25
580.336	4.24
580.675	4.16
581.014	4.3
581.354	4.31
581.693	4.3
582.032	4.01
582.372	4.24
582.711	4.28
583.05	4.18
583.389	4.39
583.728	4.15
584.067	4.45
584.406	4.43
584.745	4.65
585.083	4.36
585.422	4.41
585.761	4.71
586.1	4.14
586.438	4.65
586.777	4.58
587.115	4.89
587.454	4.65
587.792	4.59
588.13	4.83
588.469	4.25
588.807	4.6
589.145	4.37
589.483	4.75
589.821	4.51
590.159	4.69
590.497	4.89
590.835	4.99
591.173	4.57
591.511	4.87
591.849	4.53
592.187	4.93
592.524	4.76
592.862	4.66
593.2	4.52
593.537	4.63
593.875	4.75
594.212	4.66
594.55	4.71
594.887	5
595.224	4.72
595.561	4.93
595.899	4.71
596.236	4.8
596.573	5.04
596.91	4.55
597.247	4.73
597.584	4.97
597.921	4.88
598.258	4.78
598.594	4.87
598.931	4.81
599.268	5.02
599.604	4.93
599.941	5.11
600.277	4.96
600.614	4.88
600.95	4.94
601.287	5.01
601.623	4.94
601.959	4.85
602.296	5.05
602.632	5.28
602.968	5.18
603.304	5.09
603.64	5.08
603.976	5.48
604.312	5.2
604.648	5
604.984	5.34
605.319	5.27
605.655	5.36
605.991	5.3
606.326	5.2
606.662	5.31
606.998	5.07
607.333	5.42
607.668	5.24
608.004	5.62
608.339	5.31
608.674	5.55
609.01	5.38
609.345	5.48
609.68	5.62
610.015	5.32
610.35	5.26
610.685	5.55
611.02	5.55
611.355	5.51
611.689	5.36
612.024	5.71
612.359	5.54
612.694	5.57
613.028	5.35
613.363	5.59
613.697	5.89
614.032	5.79
614.366	5.47
614.7	5.99
615.035	5.65
615.369	5.59
615.703	5.92
616.037	5.7
616.371	5.27
616.705	5.62
617.039	5.49
617.373	5.68
617.707	5.45
618.041	5.86
618.375	6.06
618.709	6.26
619.042	5.86
619.376	6.28
619.71	6.2
620.043	6.01
620.377	5.68
620.71	6.05
621.043	5.93
621.377	5.91
621.71	5.99
622.043	6
622.376	5.88
622.709	6.06
623.043	6.35
623.376	6.28
623.709	6.04
624.041	6.55
624.374	6.19
624.707	5.97
625.04	6.29
625.373	5.77
625.705	6.2
626.038	6.2
626.37	6.11
626.703	6.26
627.035	6.3
627.368	6.73
627.7	6.18
628.032	6.1
628.365	6.41
628.697	6.22
629.029	6.38
629.361	6.39
629.693	6.47
630.025	6.61
630.357	6.84
630.689	6.5
631.021	6.44
631.353	6.63
631.684	6.46
632.016	6.48
632.348	6.93
632.679	6.84
633.011	6.63
633.342	7.15
633.674	7.05
634.005	7.23
634.336	6.41
634.668	7.14
634.999	6.68
635.33	6.93
635.661	7.3
635.992	6.78
636.323	6.91
636.654	7.3
636.985	6.79
637.316	6.74
637.647	6.84
637.977	6.98
638.308	7.19
638.639	6.52
638.969	6.93
639.3	6.78
639.63	6.63
639.961	7.1
640.291	7.09
640.622	7.2
640.952	6.99
641.282	7.45
641.612	7.81
641.943	7.21
642.273	7.24
642.603	7.44
642.933	7.28
643.263	6.91
643.592	7.15
643.922	7.42
644.252	6.97
644.582	7.47
644.911	6.78
645.241	7.78
645.571	7.49
645.9	7.28
646.23	7.44
646.559	7.72
646.888	7.81
647.218	7.22
647.547	8.13
647.876	7.2
648.205	7.54
648.534	7.55
648.863	7.24
649.192	8.08
649.521	7.38
649.85	7.31
650.179	7.74
650.508	7.82
650.837	7.72
651.165	7.8
651.494	7.79
651.822	7.62
652.151	7.61
652.479	7.43
652.808	7.72
653.136	7.63
653.465	7.66
653.793	7.55
654.121	7.94
654.449	8.12
654.777	7.92
655.105	7.6
655.433	7.55
655.761	7.7
656.089	8.23
656.417	8.09
656.745	7.7
657.073	7.68
657.4	8.11
657.728	8.07
658.056	8.01
658.383	8
658.711	8.11
659.038	8.54
659.365	8.46
659.693	8.18
660.02	8.42
660.347	8.11
660.674	8.16
661.001	8.22
661.329	7.68
661.656	8.28
661.982	8.26
662.309	8.42
662.636	8.36
662.963	8.71
663.29	8.82
663.616	8.28
663.943	8.27
664.27	8.53
664.596	8.68
664.923	8.42
665.249	8.91
665.576	8.79
665.902	9.73
666.228	8.49
666.554	8.98
666.881	8.52
667.207	8.35
667.533	9.43
667.859	9.63
668.185	8.62
668.511	8.56
668.837	8.26
669.162	9.22
669.488	9.05
669.814	9.06
670.139	9.3
670.465	9.47
670.791	9.09
671.116	9.93
671.442	9.51
671.767	9.67
672.092	9.33
672.418	9.23
672.743	9.54
673.068	8.66
673.393	9.13
673.718	9.25
674.043	9.87
674.368	8.92
674.693	9.94
675.018	9.22
675.343	9.43
675.667	9.4
675.992	9.41
676.317	10.33
676.641	9.86
676.966	9.95
677.29	9.37
677.615	9.6
677.939	10.21
678.264	10.05
678.588	9.63
678.912	9.75
679.236	9.92
679.56	9.1
679.885	9.71
680.209	9.35
680.532	9.7
680.856	10
681.18	9.07
681.504	9.86
681.828	9.63
682.152	10.05
682.475	9.7
682.799	9.66
683.122	9.96
683.446	9.45
683.769	10.17
684.093	9.52
684.416	10.09
684.739	10.04
685.062	9.5
685.386	10.69
685.709	10.06
686.032	10.49
686.355	10.49
686.678	9.59
687.001	10.9
687.324	9.81
687.646	9.5
687.969	9.27
688.292	10.11
688.614	9.92
688.937	10.79
689.26	10.69
689.582	9.99
689.904	10.01
690.227	10.51
690.549	10.23
690.871	10.95
691.194	9.78
691.516	10.27
691.838	10.65
692.16	9.6
692.482	10.35
