Data from 0416_forehead_Reflection__1__57.txt Node

Date: Fri Dec 15 16:48:14 CST 2023
User: ToomeyLab
Spectrometer: FLMS14357
Trigger mode: 0
Integration Time (sec): 1.000000E-2
Scans to average: 100
Electric dark correction enabled: true
Nonlinearity correction enabled: false
Boxcar width: 0
XAxis mode: Wavelengths
Number of Pixels in Spectrum: 2048
>>>>>Begin Spectral Data<<<<<
189.047	40.32
189.435	40.32
189.823	40.32
190.211	-225.9
190.599	-47.6
190.987	66.02
191.375	-197.45
191.763	-31.79
192.151	286.65
192.538	242.47
192.926	-53.84
193.314	65.77
193.702	47.44
194.089	-193.27
194.477	94.06
194.864	-39.96
195.252	77.63
195.639	137.79
196.027	99.71
196.414	-126.66
196.801	216.5
197.189	638.59
197.576	-15.94
197.963	-51.05
198.351	-24.98
198.738	-9.62
199.125	16.22
199.512	43.03
199.899	72.66
200.286	48.05
200.673	29.36
201.06	44.01
201.447	8.66
201.833	57.95
202.22	26.14
202.607	44
202.994	10.95
203.38	19.95
203.767	42.6
204.154	34.81
204.54	11.06
204.927	3.61
205.313	-14.1
205.699	19.83
206.086	35.85
206.472	17.91
206.858	15.88
207.245	-13.32
207.631	35.9
208.017	14.06
208.403	-0.33
208.789	29.72
209.175	14.41
209.561	-5.65
209.947	34.14
210.333	36.08
210.719	61.77
211.105	6.32
211.491	39.88
211.876	17.59
212.262	48.23
212.648	11.73
213.034	47.48
213.419	-4.63
213.805	13.94
214.19	-6.4
214.576	6.67
214.961	-5.96
215.346	-59.58
215.732	22.13
216.117	1.53
216.502	18.13
216.888	28.52
217.273	44.02
217.658	14.74
218.043	11.01
218.428	-25.43
218.813	-13.47
219.198	-2.82
219.583	3.53
219.968	33.68
220.353	11.94
220.738	8.79
221.122	20.02
221.507	-13.24
221.892	-6.19
222.276	-9.31
222.661	5
223.046	28.6
223.43	12.02
223.815	13.3
224.199	-3.67
224.583	-0.53
224.968	15.17
225.352	9.88
225.736	0.21
226.121	-12.56
226.505	7.45
226.889	10.25
227.273	3.53
227.657	4.04
228.041	1.35
228.425	0.4
228.809	4.45
229.193	8.04
229.577	-0.15
229.961	1.8
230.344	3.13
230.728	1.76
231.112	2.1
231.495	1.3
231.879	0.64
232.263	0.72
232.646	3.48
233.03	2.25
233.413	0.74
233.797	1.11
234.18	2.27
234.563	0.57
234.946	-1.07
235.33	4.37
235.713	2.66
236.096	1.99
236.479	3.97
236.862	2.71
237.245	3.06
237.628	1.84
238.011	2.58
238.394	3.87
238.777	2.72
239.16	1.08
239.543	1.24
239.925	4.91
240.308	2.77
240.691	3.26
241.073	4.12
241.456	2.79
241.838	0.88
242.221	2.57
242.603	2.94
242.986	2.59
243.368	1.93
243.75	2.22
244.133	1.26
244.515	1.96
244.897	1.64
245.279	2.64
245.661	1.86
246.043	1.21
246.425	0.64
246.807	2.8
247.189	2.48
247.571	1.76
247.953	1.65
248.335	1.68
248.717	1.98
249.098	1.35
249.48	1.5
249.862	1.31
250.243	1.71
250.625	1.46
251.006	2.02
251.388	-0.01
251.769	1.09
252.151	2.24
252.532	2.6
252.913	1.86
253.295	0.63
253.676	1.71
254.057	2.34
254.438	1.58
254.819	1.55
255.2	1.17
255.581	1.34
255.962	2.53
256.343	1.54
256.724	1.59
257.105	1.93
257.486	1.16
257.867	1.67
258.247	1.99
258.628	1.84
259.009	1.78
259.389	1.33
259.77	1.57
260.15	1.81
260.531	0.51
260.911	1.91
261.292	1.34
261.672	1.77
262.052	1.57
262.432	1.87
262.813	1.77
263.193	1.65
263.573	1.77
263.953	1.76
264.333	1.97
264.713	2.17
265.093	1.76
265.473	1.3
265.853	0.72
266.233	2.96
266.612	-0.57
266.992	1.02
267.372	1.72
267.752	1.19
268.131	1.12
268.511	1.99
268.89	2.16
269.27	1.26
269.649	1.17
270.029	1.06
270.408	2.77
270.787	1.63
271.167	1.65
271.546	2.36
271.925	1.77
272.304	1.86
272.683	1.51
273.062	1.4
273.441	2.04
273.82	0.93
274.199	1.91
274.578	1.61
274.957	1.83
275.336	1.78
275.715	1.2
276.093	1.54
276.472	1.73
276.851	1.96
277.229	1.46
277.608	0.84
277.986	1.93
278.365	2.14
278.743	1.66
279.122	1.62
279.5	1.74
279.878	1.3
280.257	1.56
280.635	0.96
281.013	1.41
281.391	2.3
281.769	2.1
282.147	1.58
282.525	1.59
282.903	1.61
283.281	2.42
283.659	1.67
284.037	2.3
284.415	2.15
284.792	1.88
285.17	1.1
285.548	1.47
285.925	1.57
286.303	2.05
286.68	1.27
287.058	1.39
287.435	1.84
287.813	1.96
288.19	1.4
288.567	1.72
288.945	1.79
289.322	1.48
289.699	1.58
290.076	1.64
290.453	1.86
290.83	1.93
291.207	1.78
291.584	1.91
291.961	1.96
292.338	1.96
292.715	2.12
293.092	1.79
293.469	1.79
293.845	2.05
294.222	1.42
294.599	1.66
294.975	2.11
295.352	2.24
295.728	1.27
296.105	1.7
296.481	1.93
296.858	2.31
297.234	1.7
297.61	1.75
297.986	2
298.363	2.35
298.739	1.79
299.115	1.87
299.491	1.59
299.867	1.98
300.243	2.06
300.619	1.62
300.995	1.74
301.371	1.87
301.746	2.21
302.122	2.3
302.498	2.28
302.874	2.16
303.249	2.52
303.625	2.11
304	3.12
304.376	2.22
304.751	1.59
305.127	3.31
305.502	1.73
305.878	1.7
306.253	2.32
306.628	2.48
307.003	2.34
307.378	2.83
307.754	2.71
308.129	1.75
308.504	2.52
308.879	2.02
309.254	3
309.629	2.72
310.003	2.53
310.378	2.57
310.753	2.44
311.128	2.62
311.502	2.61
311.877	2.97
312.252	1.84
312.626	2.15
313.001	2.39
313.375	2.82
313.75	1.93
314.124	2.32
314.498	1.9
314.873	2.71
315.247	2.37
315.621	2.26
315.995	1.93
316.369	2.56
316.743	2.07
317.117	2.69
317.491	2.33
317.865	2.86
318.239	2.25
318.613	2.67
318.987	2.65
319.361	2
319.734	3.29
320.108	2.89
320.482	2.89
320.855	2.93
321.229	2.51
321.602	2.97
321.976	2.97
322.349	2.25
322.723	3.17
323.096	2.32
323.469	2.6
323.843	2.82
324.216	3.09
324.589	2.75
324.962	2.58
325.335	2.85
325.708	2.45
326.081	2.9
326.454	2.87
326.827	2.62
327.2	2.99
327.573	3.12
327.945	3.12
328.318	2.86
328.691	2.37
329.063	3.02
329.436	2.98
329.809	3.25
330.181	2.78
330.553	3.11
330.926	3.28
331.298	3.34
331.671	2.87
332.043	3.54
332.415	3
332.787	2.78
333.159	3.29
333.532	3.6
333.904	3.17
334.276	2.94
334.648	3.32
335.02	2.68
335.391	2.92
335.763	3.21
336.135	2.91
336.507	3.79
336.879	3.59
337.25	3.27
337.622	3.24
337.993	2.66
338.365	3.26
338.736	3.41
339.108	3.18
339.479	3.33
339.851	3.49
340.222	3.36
340.593	3.47
340.964	3.67
341.336	3.95
341.707	2.41
342.078	3.31
342.449	3.87
342.82	3.62
343.191	3.75
343.562	3.13
343.933	3.57
344.303	3.25
344.674	3.17
345.045	3.85
345.416	3.94
345.786	3.02
346.157	3.54
346.527	3.08
346.898	3.32
347.268	3.97
347.639	3.57
348.009	3.6
348.38	3.19
348.75	3.22
349.12	3.66
349.49	3.92
349.861	3.83
350.231	3.54
350.601	3.65
350.971	3.52
351.341	3.65
351.711	3.69
352.081	3.47
352.45	3.86
352.82	3.75
353.19	3.82
353.56	4.17
353.929	3.98
354.299	4.24
354.669	3.34
355.038	4.04
355.408	3.76
355.777	3.77
356.147	3.63
356.516	4.24
356.885	4.23
357.254	3.94
357.624	4.25
357.993	3.94
358.362	3.63
358.731	3.68
359.1	3.89
359.469	4.04
359.838	4.16
360.207	3.87
360.576	3.83
360.945	3.95
361.314	3.99
361.682	3.94
362.051	3.83
362.42	4.08
362.788	3.93
363.157	4.32
363.525	4.4
363.894	4.2
364.262	4.01
364.631	4.09
364.999	4.23
365.367	3.91
365.735	4.67
366.104	4.41
366.472	4.43
366.84	3.89
367.208	4.24
367.576	4.57
367.944	4.96
368.312	4.46
368.68	4.03
369.048	4.39
369.416	4.25
369.783	4.25
370.151	4.68
370.519	4.75
370.886	4.88
371.254	4.44
371.621	5.18
371.989	4.8
372.356	4.4
372.724	4.21
373.091	4.31
373.458	4.57
373.826	4.39
374.193	4.44
374.56	5.01
374.927	5.05
375.294	4.84
375.661	4.6
376.028	4.85
376.395	4.76
376.762	5.02
377.129	4.7
377.496	4.94
377.863	5.07
378.229	4.47
378.596	5.42
378.963	4.83
379.329	4.57
379.696	5.07
380.062	4.96
380.429	5.2
380.795	5.04
381.161	5.26
381.528	5.27
381.894	5.11
382.26	4.82
382.626	5.04
382.993	4.71
383.359	5.44
383.725	4.89
384.091	5.1
384.457	5.55
384.823	5.29
385.188	5.23
385.554	4.95
385.92	5.53
386.286	5.34
386.651	5.61
387.017	5.68
387.383	5.54
387.748	4.98
388.114	5.51
388.479	5.42
388.845	5.59
389.21	5.48
389.575	5.49
389.94	5.39
390.306	5.49
390.671	5.78
391.036	5.13
391.401	5.21
391.766	5.44
392.131	5.39
392.496	5.81
392.861	5.51
393.226	5.89
393.591	5.6
393.956	5.56
394.32	5.63
394.685	5.4
395.05	5.69
395.414	5.74
395.779	5.67
396.143	5.75
396.508	5.89
396.872	5.97
397.236	6.03
397.601	5.51
397.965	5.77
398.329	6.39
398.694	6.1
399.058	6.12
399.422	5.73
399.786	5.86
400.15	6
400.514	6.22
400.878	5.98
401.242	6.24
401.605	5.9
401.969	5.85
402.333	6.02
402.697	5.83
403.06	6.2
403.424	6.13
403.787	6.34
404.151	6.54
404.514	6.28
404.878	6.14
405.241	6.59
405.604	6.44
405.968	6.18
406.331	6.37
406.694	6.45
407.057	6.22
407.42	6.33
407.783	6.32
408.146	6.51
408.509	6.34
408.872	6.4
409.235	6.53
409.598	6.52
409.961	6.6
410.323	6.71
410.686	6.63
411.049	6.53
411.411	6.53
411.774	6.6
412.136	6.5
412.499	6.45
412.861	6.58
413.223	6.6
413.586	6.78
413.948	6.91
414.31	6.83
414.672	6.62
415.035	6.8
415.397	7.1
415.759	6.58
416.121	6.89
416.483	6.85
416.845	7.03
417.206	7.11
417.568	6.97
417.93	6.67
418.292	6.69
418.653	6.75
419.015	7.02
419.377	6.77
419.738	7.05
420.1	6.98
420.461	6.99
420.822	7.13
421.184	6.89
421.545	6.95
421.906	6.9
422.267	6.92
422.629	6.95
422.99	6.95
423.351	6.86
423.712	6.92
424.073	6.99
424.434	6.94
424.795	7.13
425.155	7.05
425.516	7
425.877	7.03
426.238	7.05
426.598	7.26
426.959	7.14
427.32	7.14
427.68	7.25
428.041	7.26
428.401	7.38
428.761	7.25
429.122	7.49
429.482	7.27
429.842	7.59
430.202	7.35
430.563	7.66
430.923	7.68
431.283	7.76
431.643	7.66
432.003	7.66
432.363	7.73
432.722	7.59
433.082	7.59
433.442	7.8
433.802	7.68
434.161	7.61
434.521	8.11
434.881	7.78
435.24	7.76
435.6	7.88
435.959	7.82
436.319	7.78
436.678	7.95
437.037	7.83
437.396	7.91
437.756	8.12
438.115	7.98
438.474	8.1
438.833	7.93
439.192	8.1
439.551	8.26
439.91	8.16
440.269	8.07
440.628	8.08
440.987	8.2
441.345	7.89
441.704	7.98
442.063	8.08
442.421	8.08
442.78	8.16
443.138	8.17
443.497	8.27
443.855	8.32
444.214	8.33
444.572	8.43
444.93	8.39
445.288	8.42
445.647	8.53
446.005	8.24
446.363	8.46
446.721	8.53
447.079	8.23
447.437	8.45
447.795	8.42
448.153	8.38
448.51	8.4
448.868	8.43
449.226	8.36
449.584	8.4
449.941	8.63
450.299	8.63
450.656	8.68
451.014	8.74
451.371	8.73
451.729	8.6
452.086	9.07
452.443	8.8
452.801	9.04
453.158	8.75
453.515	8.95
453.872	9.23
454.229	8.78
454.586	8.85
454.943	9.02
455.3	9.17
455.657	8.95
456.014	9.06
456.371	9.15
456.727	9.31
457.084	9.38
457.441	9.05
457.797	9.29
458.154	9.53
458.51	9.5
458.867	9.4
459.223	9.5
459.58	9.4
459.936	9.41
460.292	9.49
460.648	9.34
461.005	9.39
461.361	9.45
461.717	9.3
462.073	9.21
462.429	9.32
462.785	9.34
463.141	9.54
463.496	9.61
463.852	9.62
464.208	9.67
464.564	9.82
464.919	9.72
465.275	9.64
465.631	9.98
465.986	9.8
466.342	9.98
466.697	9.64
467.052	10.23
467.408	9.96
467.763	9.94
468.118	10.04
468.473	10.03
468.829	9.96
469.184	9.92
469.539	10.09
469.894	10.06
470.249	10.13
470.603	10.29
470.958	10.4
471.313	10.38
471.668	10.4
472.023	10.39
472.377	10.28
472.732	10.38
473.086	10.37
473.441	10.07
473.795	10.55
474.15	10.45
474.504	10.47
474.859	10.51
475.213	10.3
475.567	10.41
475.921	10.39
476.275	10.69
476.63	10.49
476.984	10.54
477.338	10.7
477.692	10.71
478.045	10.62
478.399	10.87
478.753	10.72
479.107	10.65
479.461	10.72
479.814	10.85
480.168	10.8
480.521	10.77
480.875	10.87
481.228	10.9
481.582	10.85
481.935	10.91
482.289	10.87
482.642	10.98
482.995	10.83
483.348	10.94
483.701	10.88
484.055	11.06
484.408	10.99
484.761	10.8
485.114	10.67
485.466	10.5
485.819	10.45
486.172	10.39
486.525	10.41
486.878	10.5
487.23	10.62
487.583	10.78
487.936	10.86
488.288	10.91
488.641	10.99
488.993	10.91
489.345	10.81
489.698	10.89
490.05	10.77
490.402	10.96
490.754	10.95
491.107	11.08
491.459	11.17
491.811	11.34
492.163	11.44
492.515	11.47
492.866	11.55
493.218	11.43
493.57	11.26
493.922	11.26
494.274	11.23
494.625	11.35
494.977	11.56
495.328	11.7
495.68	11.78
496.031	11.96
496.383	11.91
496.734	12.18
497.086	12.13
497.437	12.15
497.788	12.2
498.139	12.04
498.49	12.09
498.842	11.91
499.193	12.12
499.544	12.08
499.894	12.19
500.245	12.16
500.596	12.22
500.947	12.35
501.298	12.29
501.648	12.47
501.999	12.54
502.35	12.46
502.7	12.45
503.051	12.42
503.401	12.6
503.752	12.64
504.102	12.81
504.452	12.71
504.803	12.82
505.153	12.96
505.503	12.67
505.853	12.81
506.203	12.81
506.553	12.86
506.903	12.65
507.253	12.89
507.603	12.83
507.953	13.08
508.303	13.05
508.652	12.94
509.002	13.16
509.352	12.99
509.701	12.92
510.051	13.02
510.4	13.05
510.75	13.04
511.099	13.1
511.449	13.14
511.798	13.22
512.147	13.16
512.496	13.19
512.846	13.34
513.195	13.3
513.544	13.25
513.893	13.3
514.242	13.26
514.591	13.47
514.939	13.44
515.288	13.53
515.637	13.72
515.986	13.62
516.334	13.68
516.683	13.74
517.032	13.8
517.38	13.9
517.729	13.85
518.077	13.73
518.426	13.89
518.774	13.99
519.122	13.84
519.47	13.77
519.819	13.63
520.167	13.71
520.515	13.77
520.863	13.78
521.211	13.75
521.559	13.81
521.907	13.87
522.255	13.78
522.602	13.96
522.95	14.01
523.298	14.25
523.645	14.3
523.993	14.33
524.341	14.26
524.688	14.44
525.036	14.34
525.383	14.3
525.73	14.74
526.078	14.42
526.425	14.4
526.772	14.54
527.119	14.4
527.466	14.42
527.814	14.43
528.161	14.23
528.508	14.48
528.854	14.43
529.201	14.34
529.548	14.3
529.895	14.35
530.242	14.11
530.588	14.05
530.935	13.99
531.282	13.99
531.628	14.12
531.975	14.22
532.321	14.4
532.667	14.5
533.014	14.63
533.36	14.95
533.706	14.76
534.052	14.92
534.399	14.8
534.745	14.87
535.091	14.75
535.437	14.79
535.783	14.71
536.129	14.71
536.474	14.89
536.82	15.2
537.166	15.12
537.512	15.3
537.857	15.33
538.203	15.37
538.549	15.28
538.894	15.23
539.239	15.3
539.585	15.28
539.93	15.4
540.276	15.62
540.621	15.64
540.966	15.75
541.311	15.84
541.656	15.86
542.001	15.85
542.346	15.93
542.691	15.61
543.036	15.48
543.381	15.37
543.726	15.36
544.071	15.49
544.415	15.49
544.76	15.56
545.105	15.64
545.449	15.86
545.794	16.03
546.138	15.94
546.483	16.07
546.827	16.22
547.171	16.14
547.516	16.39
547.86	16.24
548.204	16.24
548.548	16.3
548.892	16.56
549.236	16.3
549.58	16.43
549.924	16.65
550.268	16.81
550.612	16.77
550.956	17.03
551.3	16.85
551.643	17.01
551.987	17.13
552.33	16.97
552.674	17.09
553.017	17.06
553.361	17.18
553.704	17.16
554.048	17.13
554.391	17.16
554.734	17.13
555.077	17.13
555.42	17.05
555.764	17.26
556.107	17.26
556.45	17.29
556.793	17.61
557.135	17.6
557.478	17.64
557.821	17.61
558.164	17.61
558.507	17.67
558.849	17.72
559.192	17.83
559.534	17.95
559.877	18.03
560.219	17.79
560.562	18.26
560.904	18.28
561.246	18.1
561.589	17.97
561.931	18.2
562.273	18.01
562.615	18.13
562.957	17.87
563.299	17.89
563.641	18.11
563.983	18.18
564.325	18.02
564.667	18.16
565.008	18.25
565.35	18.48
565.692	18.32
566.033	18.29
566.375	18.52
566.716	18.72
567.058	18.68
567.399	18.53
567.741	18.46
568.082	18.57
568.423	18.48
568.764	18.37
569.105	18.53
569.447	18.63
569.788	18.9
570.129	18.81
570.47	18.82
570.811	19.05
571.151	18.96
571.492	18.92
571.833	19.05
572.174	19.03
572.514	19.04
572.855	19.06
573.195	18.98
573.536	19
573.876	19.14
574.217	19.21
574.557	19.23
574.898	19.36
575.238	19.29
575.578	19.02
575.918	19.28
576.258	19.51
576.598	19.65
576.938	19.36
577.278	19.37
577.618	19.61
577.958	19.53
578.298	19.54
578.638	19.57
578.977	19.81
579.317	19.76
579.657	19.94
579.996	19.89
580.336	20.3
580.675	19.72
581.014	20.12
581.354	20.22
581.693	19.92
582.032	20.27
582.372	19.99
582.711	20.3
583.05	20.33
583.389	20.5
583.728	20.22
584.067	20.55
584.406	20.2
584.745	20.4
585.083	20.66
585.422	20.56
585.761	20.67
586.1	20.91
586.438	21.05
586.777	20.77
587.115	21.01
587.454	20.77
587.792	20.84
588.13	21.05
588.469	21.1
588.807	21.01
589.145	21.13
589.483	20.93
589.821	21.01
590.159	20.87
590.497	21.19
590.835	21.44
591.173	21.3
591.511	21.23
591.849	21.27
592.187	21.28
592.524	21.23
592.862	21.47
593.2	21.32
593.537	21.45
593.875	21.35
594.212	21.36
594.55	21.4
594.887	21.61
595.224	21.56
595.561	21.7
595.899	21.79
596.236	21.73
596.573	21.81
596.91	21.51
597.247	21.79
597.584	22.01
597.921	21.68
598.258	21.67
598.594	21.51
598.931	21.57
599.268	21.93
599.604	21.5
599.941	21.83
600.277	21.83
600.614	21.96
600.95	21.84
601.287	22.36
601.623	22.24
601.959	22.39
602.296	22.24
602.632	22.36
602.968	22.56
603.304	22.63
603.64	22.46
603.976	22.55
604.312	22.45
604.648	22.44
604.984	22.65
605.319	22.52
605.655	22.53
605.991	22.52
606.326	22.32
606.662	22.71
606.998	22.47
607.333	22.64
607.668	22.52
608.004	22.83
608.339	23.12
608.674	22.78
609.01	23
609.345	22.66
609.68	23.02
610.015	23.03
610.35	23.23
610.685	23.02
611.02	23.13
611.355	23.06
611.689	23.22
612.024	23.22
612.359	23.33
612.694	23.24
613.028	23
613.363	23.41
613.697	23.6
614.032	23.73
614.366	23.98
614.7	24.05
615.035	23.37
615.369	23.69
615.703	23.87
616.037	23.91
616.371	23.43
616.705	23.88
617.039	24.25
617.373	23.83
617.707	23.7
618.041	23.97
618.375	24.05
618.709	24.21
619.042	24.26
619.376	24.34
619.71	24.61
620.043	24.38
620.377	24.23
620.71	24.11
621.043	24.19
621.377	24.52
621.71	24.49
622.043	24.18
622.376	23.89
622.709	24.09
623.043	24.6
623.376	24.53
623.709	24.47
624.041	24.57
624.374	24.48
624.707	24.57
625.04	25.14
625.373	24.52
625.705	24.75
626.038	24.74
626.37	24.92
626.703	24.56
627.035	25.08
627.368	25.49
627.7	25.32
628.032	25.01
628.365	24.96
628.697	25.16
629.029	25.11
629.361	25.02
629.693	25.13
630.025	25.44
630.357	25.19
630.689	25.26
631.021	25.43
631.353	25.51
631.684	25.38
632.016	25.4
632.348	25.78
632.679	25.69
633.011	25.83
633.342	26.06
633.674	25.93
634.005	26.12
634.336	25.61
634.668	26.07
634.999	25.54
635.33	26.09
635.661	26.31
635.992	25.7
636.323	26
636.654	26.42
636.985	26.02
637.316	25.91
637.647	25.66
637.977	26.38
638.308	26.33
638.639	25.69
638.969	26.06
639.3	26.16
639.63	26.21
639.961	26.58
640.291	26.19
640.622	26.64
640.952	26.32
641.282	27.13
641.612	26.62
641.943	26.39
642.273	26.5
642.603	26.93
642.933	26.92
643.263	27.08
643.592	27.05
643.922	26.75
644.252	26.74
644.582	27.02
644.911	26.52
645.241	26.93
645.571	27.35
645.9	27.08
646.23	26.73
646.559	27.31
646.888	27.05
647.218	26.97
647.547	27.11
647.876	26.67
648.205	27.44
648.534	27.47
648.863	26.9
649.192	27.73
649.521	27.43
649.85	26.75
650.179	27.54
650.508	27.35
650.837	27.42
651.165	27.74
651.494	28.39
651.822	27.55
652.151	27.42
652.479	27.65
652.808	27.25
653.136	28
653.465	27.23
653.793	27.43
654.121	27.69
654.449	27.65
654.777	27.35
655.105	27.56
655.433	27.62
655.761	28.05
656.089	28.19
656.417	27.8
656.745	27.6
657.073	28.26
657.4	28.67
657.728	28.5
658.056	28.24
658.383	28.11
658.711	28.77
659.038	28.22
659.365	28.12
659.693	28.39
660.02	28.41
660.347	28.18
660.674	28.31
661.001	28.29
661.329	27.68
661.656	28.53
661.982	28.17
662.309	28.77
662.636	28.26
662.963	28.66
663.29	28.96
663.616	28.53
663.943	28.45
664.27	28.58
664.596	28.92
664.923	28.66
665.249	28.66
665.576	29.42
665.902	29.37
666.228	29.41
666.554	29.42
666.881	29
667.207	28.75
667.533	28.86
667.859	29.49
668.185	29.36
668.511	29.02
668.837	28.24
669.162	28.69
669.488	29.12
669.814	29.45
670.139	29.45
670.465	29.98
670.791	29.59
671.116	29.29
671.442	29.33
671.767	29.95
672.092	29.44
672.418	29.74
672.743	29.49
673.068	29.12
673.393	29.5
673.718	29.85
674.043	29.41
674.368	29.66
674.693	30.49
675.018	29.92
675.343	30.6
675.667	29.82
675.992	29.56
676.317	30.77
676.641	29.17
676.966	29.83
677.29	29.9
677.615	30.13
677.939	31.03
678.264	30.72
