Data from 0416_forehead_Reflection__3__59.txt Node

Date: Fri Dec 15 16:48:33 CST 2023
User: ToomeyLab
Spectrometer: FLMS14357
Trigger mode: 0
Integration Time (sec): 1.000000E-2
Scans to average: 100
Electric dark correction enabled: true
Nonlinearity correction enabled: false
Boxcar width: 0
XAxis mode: Wavelengths
Number of Pixels in Spectrum: 2048
>>>>>Begin Spectral Data<<<<<
189.047	-73.06
189.435	-73.06
189.823	-73.06
190.211	67.49
190.599	-97.75
190.987	47.73
191.375	-36.8
191.763	-14.97
192.151	232.47
192.538	84.53
192.926	-41.92
193.314	89.24
193.702	6.08
194.089	-315.36
194.477	-180.13
194.864	279.81
195.252	61.09
195.639	123.07
196.027	-19.19
196.414	-378.83
196.801	244.65
197.189	587.42
197.576	270.74
197.963	-15.14
198.351	-72.73
198.738	-19.51
199.125	29.44
199.512	-32.17
199.899	74.35
200.286	25
200.673	24.94
201.06	-31.3
201.447	30.26
201.833	1.69
202.22	8.76
202.607	48.34
202.994	6.37
203.38	34.32
203.767	45.88
204.154	22.82
204.54	49.93
204.927	0.19
205.313	-14.92
205.699	25.9
206.086	36.72
206.472	34.26
206.858	11.41
207.245	19.01
207.631	45.8
208.017	34.13
208.403	3.05
208.789	17.65
209.175	49.14
209.561	11.48
209.947	5.3
210.333	-11.43
210.719	16.53
211.105	29.51
211.491	-1.44
211.876	16.71
212.262	39.45
212.648	-0.71
213.034	47.59
213.419	-7.97
213.805	12.12
214.19	-0.72
214.576	18.14
214.961	-8.99
215.346	-14.51
215.732	5.41
216.117	28.95
216.502	13.7
216.888	22.95
217.273	57.49
217.658	12.41
218.043	29.98
218.428	-19.41
218.813	15.46
219.198	-9.07
219.583	9.69
219.968	28.63
220.353	7.2
220.738	21.6
221.122	1.08
221.507	-10.29
221.892	-2.59
222.276	-4.06
222.661	12.05
223.046	12.89
223.43	22.11
223.815	17.93
224.199	-7.76
224.583	-8.52
224.968	12.13
225.352	12.33
225.736	-2.58
226.121	-7.79
226.505	4.46
226.889	9.08
227.273	-3.49
227.657	14.65
228.041	-1.52
228.425	-0.75
228.809	6.32
229.193	4.03
229.577	1.61
229.961	3.08
230.344	2.24
230.728	0.37
231.112	1.76
231.495	0.52
231.879	1.41
232.263	4
232.646	1.94
233.03	1.71
233.413	1.51
233.797	0.58
234.18	3.04
234.563	4.46
234.946	-0.26
235.33	3.36
235.713	0.91
236.096	1.62
236.479	3.64
236.862	-0.01
237.245	1.88
237.628	0.6
238.011	2.49
238.394	3.12
238.777	1.89
239.16	-1.42
239.543	-0.08
239.925	2.02
240.308	3.44
240.691	1.8
241.073	1.92
241.456	1.48
241.838	1.34
242.221	-0.79
242.603	2.01
242.986	3.06
243.368	1.87
243.75	1.78
244.133	1.1
244.515	2.17
244.897	1.76
245.279	1.48
245.661	0.72
246.043	1.03
246.425	2.41
246.807	3.05
247.189	2.57
247.571	1.56
247.953	1.9
248.335	1.17
248.717	1.53
249.098	1.34
249.48	1.42
249.862	1.11
250.243	1.25
250.625	1.48
251.006	1.84
251.388	1.1
251.769	1.69
252.151	2.12
252.532	0.69
252.913	1.42
253.295	0.36
253.676	1.96
254.057	1.87
254.438	1.53
254.819	1.43
255.2	1.08
255.581	1.13
255.962	0.69
256.343	0.79
256.724	1.42
257.105	0.57
257.486	2.07
257.867	2.27
258.247	1.63
258.628	0.69
259.009	0.61
259.389	1.44
259.77	1.12
260.15	1.14
260.531	1.35
260.911	1.98
261.292	1.52
261.672	1.39
262.052	1.33
262.432	1.86
262.813	1.68
263.193	1.44
263.573	0.81
263.953	1.11
264.333	2.34
264.713	1.18
265.093	0.92
265.473	1.02
265.853	-0.08
266.233	2.47
266.612	-0.54
266.992	0.38
267.372	1.94
267.752	1.76
268.131	1.67
268.511	1.97
268.89	1.97
269.27	1.07
269.649	0.89
270.029	1.3
270.408	2.89
270.787	1.44
271.167	2.35
271.546	1.41
271.925	1.08
272.304	1.47
272.683	1.36
273.062	1.48
273.441	1.11
273.82	0.89
274.199	1.06
274.578	1.27
274.957	1.62
275.336	1.38
275.715	0.99
276.093	1.31
276.472	1.56
276.851	1.15
277.229	1.1
277.608	0.9
277.986	1.39
278.365	1.64
278.743	0.95
279.122	1.87
279.5	1.59
279.878	1.71
280.257	1.14
280.635	0.98
281.013	1.52
281.391	2.05
281.769	1.66
282.147	1.38
282.525	2.35
282.903	1.02
283.281	1.81
283.659	1.84
284.037	1.42
284.415	1.82
284.792	1.39
285.17	0.64
285.548	0.63
285.925	1.87
286.303	2.05
286.68	1.09
287.058	1.71
287.435	1.4
287.813	1.61
288.19	1.08
288.567	1.53
288.945	1.91
289.322	1.77
289.699	1.7
290.076	1.65
290.453	1.34
290.83	1.03
291.207	1.36
291.584	2.02
291.961	1.82
292.338	1.5
292.715	2.28
293.092	1.46
293.469	1.38
293.845	2
294.222	1.36
294.599	1.53
294.975	2.43
295.352	1.58
295.728	1.78
296.105	1.79
296.481	2.03
296.858	1.9
297.234	1.87
297.61	1.94
297.986	1.57
298.363	1.99
298.739	1.99
299.115	1.67
299.491	1.46
299.867	1.64
300.243	2.05
300.619	1.33
300.995	1.6
301.371	2.16
301.746	1.79
302.122	2.14
302.498	1.8
302.874	1.72
303.249	2.02
303.625	2.05
304	2.15
304.376	1.96
304.751	1.15
305.127	2.54
305.502	1.48
305.878	1.5
306.253	2.08
306.628	2.71
307.003	1.58
307.378	2.85
307.754	1.77
308.129	1.97
308.504	2.01
308.879	2.21
309.254	3.2
309.629	2.02
310.003	2.28
310.378	2.3
310.753	2.49
311.128	2.83
311.502	2.7
311.877	2.71
312.252	2.28
312.626	2.32
313.001	2.05
313.375	2.49
313.75	2.11
314.124	2.66
314.498	2.39
314.873	2.55
315.247	2.26
315.621	2.28
315.995	2.31
316.369	2.36
316.743	2.14
317.117	2.63
317.491	2.51
317.865	3.19
318.239	2.79
318.613	2.44
318.987	2.65
319.361	2.37
319.734	3.1
320.108	2.95
320.482	2.76
320.855	2.95
321.229	3.08
321.602	3
321.976	2.72
322.349	2.92
322.723	2.75
323.096	2.57
323.469	1.94
323.843	2.09
324.216	3.29
324.589	2.46
324.962	2.97
325.335	2.57
325.708	2.66
326.081	2.58
326.454	2.6
326.827	2.61
327.2	2.96
327.573	3.08
327.945	2.92
328.318	2.81
328.691	2.37
329.063	2.76
329.436	2.31
329.809	3.37
330.181	2.36
330.553	3.09
330.926	3.56
331.298	3.13
331.671	2.81
332.043	3.18
332.415	2.72
332.787	2.62
333.159	3.74
333.532	3.95
333.904	3.12
334.276	3.21
334.648	3.15
335.02	2.77
335.391	2.62
335.763	3.24
336.135	3.59
336.507	3.45
336.879	2.9
337.25	2.69
337.622	3.2
337.993	3.13
338.365	2.96
338.736	2.98
339.108	3.4
339.479	3.23
339.851	3.32
340.222	2.81
340.593	2.99
340.964	3.07
341.336	3.8
341.707	2.66
342.078	3.4
342.449	3.39
342.82	2.98
343.191	3.24
343.562	3.25
343.933	3.21
344.303	3.1
344.674	3.2
345.045	2.94
345.416	3.59
345.786	2.93
346.157	3.97
346.527	2.65
346.898	3.08
347.268	3.38
347.639	3.71
348.009	3.3
348.38	3.13
348.75	3.19
349.12	3.37
349.49	3.44
349.861	3.24
350.231	3.4
350.601	3.87
350.971	3.36
351.341	3.48
351.711	3.75
352.081	3.52
352.45	3.34
352.82	3.81
353.19	3.36
353.56	3.21
353.929	3.65
354.299	3.66
354.669	3.21
355.038	3.94
355.408	3.44
355.777	3.37
356.147	3.22
356.516	3.13
356.885	3.63
357.254	3.44
357.624	3.73
357.993	3.76
358.362	3.23
358.731	3.09
359.1	3.67
359.469	3.53
359.838	3.72
360.207	3.1
360.576	3.42
360.945	3.98
361.314	4.35
361.682	3.29
362.051	3.43
362.42	3.75
362.788	3.64
363.157	3.71
363.525	3.89
363.894	3.68
364.262	3.63
364.631	3.71
364.999	3.79
365.367	3.54
365.735	4.31
366.104	4.01
366.472	3.87
366.84	3.32
367.208	3.66
367.576	4.36
367.944	3.83
368.312	3.26
368.68	3.76
369.048	3.97
369.416	3.7
369.783	3.71
370.151	4.13
370.519	4.18
370.886	4.14
371.254	4.25
371.621	4.28
371.989	4.54
372.356	3.72
372.724	4.22
373.091	4.05
373.458	3.78
373.826	4.23
374.193	3.91
374.56	4.13
374.927	4.27
375.294	4.08
375.661	3.93
376.028	3.8
376.395	4
376.762	4.43
377.129	4.27
377.496	4.17
377.863	4.17
378.229	3.84
378.596	4.08
378.963	4.07
379.329	4.08
379.696	4.33
380.062	4.24
380.429	4.44
380.795	4.16
381.161	4.21
381.528	4.62
381.894	4.6
382.26	4.32
382.626	4.45
382.993	4.07
383.359	4.72
383.725	4.23
384.091	4.43
384.457	4.78
384.823	4.45
385.188	4.6
385.554	4.4
385.92	4.82
386.286	4.82
386.651	4.65
387.017	4.51
387.383	4.4
387.748	4.47
388.114	4.87
388.479	4.58
388.845	4.75
389.21	4.78
389.575	4.71
389.94	4.46
390.306	4.57
390.671	4.74
391.036	4.56
391.401	4.81
391.766	4.7
392.131	4.57
392.496	4.87
392.861	4.8
393.226	4.82
393.591	4.68
393.956	5
394.32	4.79
394.685	4.91
395.05	4.87
395.414	4.77
395.779	4.7
396.143	4.71
396.508	4.87
396.872	4.78
397.236	4.75
397.601	4.7
397.965	4.92
398.329	4.94
398.694	5.03
399.058	5.1
399.422	4.86
399.786	5.09
400.15	4.99
400.514	5
400.878	5.06
401.242	5.3
401.605	5.22
401.969	4.91
402.333	5.15
402.697	5.27
403.06	5.28
403.424	5.05
403.787	5.14
404.151	5.13
404.514	4.93
404.878	5.06
405.241	5.49
405.604	5.33
405.968	5.35
406.331	4.99
406.694	5.45
407.057	5.36
407.42	5.31
407.783	5.35
408.146	5.4
408.509	5.27
408.872	5.2
409.235	5.39
409.598	5.45
409.961	5.21
410.323	5.54
410.686	5.32
411.049	5.08
411.411	5.46
411.774	5.44
412.136	5.18
412.499	5.21
412.861	5.4
413.223	5.46
413.586	5.39
413.948	5.61
414.31	5.63
414.672	5.58
415.035	5.33
415.397	5.83
415.759	5.32
416.121	5.85
416.483	5.62
416.845	5.86
417.206	5.56
417.568	5.77
417.93	5.34
418.292	5.54
418.653	5.72
419.015	5.8
419.377	5.64
419.738	5.72
420.1	5.5
420.461	5.89
420.822	5.76
421.184	5.67
421.545	5.66
421.906	5.52
422.267	5.61
422.629	5.55
422.99	5.64
423.351	5.62
423.712	5.65
424.073	5.78
424.434	5.75
424.795	5.91
425.155	5.89
425.516	5.76
425.877	5.7
426.238	5.69
426.598	5.89
426.959	5.8
427.32	5.72
427.68	5.87
428.041	5.93
428.401	6.1
428.761	6.05
429.122	6.01
429.482	6.08
429.842	6.26
430.202	6.27
430.563	6.28
430.923	6.06
431.283	6.18
431.643	6.28
432.003	6.13
432.363	6.32
432.722	6.21
433.082	6.27
433.442	6.32
433.802	6.34
434.161	6.13
434.521	6.44
434.881	6.39
435.24	6.32
435.6	6.23
435.959	6.38
436.319	6.27
436.678	6.32
437.037	6.37
437.396	6.53
437.756	6.44
438.115	6.44
438.474	6.63
438.833	6.37
439.192	6.53
439.551	6.75
439.91	6.4
440.269	6.48
440.628	6.43
440.987	6.66
441.345	6.42
441.704	6.45
442.063	6.58
442.421	6.43
442.78	6.47
443.138	6.56
443.497	6.7
443.855	6.62
444.214	6.64
444.572	6.85
444.93	6.85
445.288	6.72
445.647	6.98
446.005	6.7
446.363	6.63
446.721	6.87
447.079	6.6
447.437	6.62
447.795	6.72
448.153	6.63
448.51	6.74
448.868	6.69
449.226	6.87
449.584	6.87
449.941	6.92
450.299	7
450.656	6.96
451.014	6.99
451.371	6.99
451.729	6.98
452.086	7.24
452.443	7.1
452.801	7.15
453.158	7
453.515	7.15
453.872	7.15
454.229	6.9
454.586	7.07
454.943	7.17
455.3	7.31
455.657	7.23
456.014	7.15
456.371	7.29
456.727	7.26
457.084	7.54
457.441	7.47
457.797	7.47
458.154	7.52
458.51	7.49
458.867	7.61
459.223	7.66
459.58	7.36
459.936	7.61
460.292	7.55
460.648	7.3
461.005	7.43
461.361	7.36
461.717	7.27
462.073	7.29
462.429	7.39
462.785	7.53
463.141	7.62
463.496	7.69
463.852	7.9
464.208	7.67
464.564	7.86
464.919	7.76
465.275	7.92
465.631	7.88
465.986	7.78
466.342	7.83
466.697	7.6
467.052	7.66
467.408	7.96
467.763	8.01
468.118	7.94
468.473	7.65
468.829	7.83
469.184	7.96
469.539	8.02
469.894	8.01
470.249	8.3
470.603	8.07
470.958	8.16
471.313	8.12
471.668	8.1
472.023	8.09
472.377	8.16
472.732	8.05
473.086	8.06
473.441	8.26
473.795	8.44
474.15	8.28
474.504	8.22
474.859	8.25
475.213	8.12
475.567	8.42
475.921	8.21
476.275	8.38
476.63	8.41
476.984	8.67
477.338	8.45
477.692	8.42
478.045	8.29
478.399	8.31
478.753	8.44
479.107	8.35
479.461	8.46
479.814	8.49
480.168	8.57
480.521	8.31
480.875	8.43
481.228	8.59
481.582	8.66
481.935	8.65
482.289	8.56
482.642	8.71
482.995	8.5
483.348	8.55
483.701	8.57
484.055	8.54
484.408	8.63
484.761	8.38
485.114	8.23
485.466	7.99
485.819	7.99
486.172	8.1
486.525	8.28
486.878	8.38
487.23	8.52
487.583	8.69
487.936	8.69
488.288	8.61
488.641	8.56
488.993	8.45
489.345	8.41
489.698	8.46
490.05	8.47
490.402	8.61
490.754	8.73
491.107	8.85
491.459	8.96
491.811	8.98
492.163	9.06
492.515	8.95
492.866	8.97
493.218	8.73
493.57	8.69
493.922	8.74
494.274	8.96
494.625	9.1
494.977	9.21
495.328	9.36
495.68	9.41
496.031	9.49
496.383	9.43
496.734	9.69
497.086	9.48
497.437	9.55
497.788	9.57
498.139	9.35
498.49	9.47
498.842	9.39
499.193	9.41
499.544	9.55
499.894	9.47
500.245	9.54
500.596	9.46
500.947	9.67
501.298	9.69
501.648	9.71
501.999	9.86
502.35	9.87
502.7	9.93
503.051	9.85
503.401	9.86
503.752	9.99
504.102	9.96
504.452	9.81
504.803	9.98
505.153	10.03
505.503	9.95
505.853	9.87
506.203	10.09
506.553	10.04
506.903	10.06
507.253	10.13
507.603	10.19
507.953	10.3
508.303	10.19
508.652	10.17
509.002	10.23
509.352	10.23
509.701	10.18
510.051	10.27
510.4	10.15
510.75	10.11
511.099	10.27
511.449	10.26
511.798	10.21
512.147	10.3
512.496	10.17
512.846	10.48
513.195	10.39
513.544	10.42
513.893	10.39
514.242	10.39
514.591	10.62
514.939	10.51
515.288	10.49
515.637	10.73
515.986	10.75
516.334	10.82
516.683	10.91
517.032	10.68
517.38	10.85
517.729	10.88
518.077	10.86
518.426	10.83
518.774	10.88
519.122	10.65
519.47	10.73
519.819	10.63
520.167	10.65
520.515	10.64
520.863	10.77
521.211	10.78
521.559	10.9
521.907	10.98
522.255	10.84
522.602	10.99
522.95	10.97
523.298	11.08
523.645	11.22
523.993	11.04
524.341	11.38
524.688	11.37
525.036	11.24
525.383	11.31
525.73	11.44
526.078	11.26
526.425	11.23
526.772	11.23
527.119	11.2
527.466	11.09
527.814	11.09
528.161	11.06
528.508	11.3
528.854	11.15
529.201	11.19
529.548	11.1
529.895	10.94
530.242	10.7
530.588	10.68
530.935	10.86
531.282	10.97
531.628	11.07
531.975	11.23
532.321	11.39
532.667	11.41
533.014	11.61
533.36	11.55
533.706	11.56
534.052	11.69
534.399	11.47
534.745	11.38
535.091	11.35
535.437	11.33
535.783	11.48
536.129	11.62
536.474	11.7
536.82	11.85
537.166	11.94
537.512	11.99
537.857	11.9
538.203	11.85
538.549	11.75
538.894	11.79
539.239	11.98
539.585	12.05
539.93	12.24
540.276	12.26
540.621	12.35
540.966	12.43
541.311	12.3
541.656	12.31
542.001	12.16
542.346	12.08
542.691	12.07
543.036	11.83
543.381	11.74
543.726	11.92
544.071	12.12
544.415	12.2
544.76	12.2
545.105	12.24
545.449	12.3
545.794	12.38
546.138	12.49
546.483	12.6
546.827	12.61
547.171	12.56
547.516	12.72
547.86	12.63
548.204	12.59
548.548	12.66
548.892	12.75
549.236	12.74
549.58	12.64
549.924	13.12
550.268	13.17
550.612	13.08
550.956	13.3
551.3	13.16
551.643	13.21
551.987	13.52
552.33	13.2
552.674	13.48
553.017	13.35
553.361	13.46
553.704	13.44
554.048	13.16
554.391	13.32
554.734	13.43
555.077	13.48
555.42	13.39
555.764	13.39
556.107	13.47
556.45	13.47
556.793	13.53
557.135	13.75
557.478	13.91
557.821	13.85
558.164	13.69
558.507	13.75
558.849	13.68
559.192	13.8
559.534	13.92
559.877	14.08
560.219	13.84
560.562	14.13
560.904	14.04
561.246	14.04
561.589	13.99
561.931	14.09
562.273	14
562.615	14.23
562.957	14.06
563.299	13.83
563.641	14.34
563.983	14.35
564.325	14.06
564.667	14.1
565.008	14.43
565.35	14.42
565.692	14.21
566.033	14.44
566.375	14.53
566.716	14.66
567.058	14.39
567.399	14.19
567.741	14.09
568.082	14.33
568.423	14.38
568.764	14.5
569.105	14.66
569.447	14.53
569.788	14.6
570.129	14.78
570.47	14.73
570.811	14.89
571.151	14.78
571.492	14.73
571.833	14.76
572.174	14.71
572.514	14.83
572.855	14.9
573.195	14.68
573.536	14.7
573.876	14.73
574.217	14.71
574.557	14.95
574.898	15.12
575.238	14.99
575.578	14.89
575.918	15.01
576.258	15.13
576.598	15.21
576.938	14.95
577.278	15
577.618	15.17
577.958	15.18
578.298	15.24
578.638	15.12
578.977	15.48
579.317	15.14
579.657	15.48
579.996	15.35
580.336	15.63
580.675	15.4
581.014	15.75
581.354	15.63
581.693	15.72
582.032	15.54
582.372	15.76
582.711	15.57
583.05	15.6
583.389	15.98
583.728	15.83
584.067	16.04
584.406	15.92
584.745	16.02
585.083	16.22
585.422	15.97
585.761	16
586.1	16.22
586.438	16.2
586.777	16.08
587.115	16.27
587.454	16.31
587.792	15.99
588.13	16.21
588.469	16.19
588.807	16.31
589.145	16.34
589.483	16.35
589.821	16.35
590.159	16.42
590.497	16.69
590.835	16.48
591.173	16.43
591.511	16.5
591.849	16.38
592.187	16.65
592.524	16.42
592.862	16.63
593.2	16.28
593.537	16.56
593.875	16.44
594.212	16.54
594.55	16.95
594.887	16.8
595.224	16.58
595.561	16.74
595.899	16.82
596.236	16.83
596.573	16.92
596.91	16.5
597.247	16.58
597.584	17.06
597.921	16.72
598.258	16.71
598.594	16.55
598.931	16.66
599.268	16.88
599.604	16.72
599.941	16.91
600.277	16.88
600.614	17.08
600.95	16.86
601.287	17.3
601.623	17.1
601.959	17.21
602.296	17.27
602.632	17.38
602.968	17.69
603.304	17.61
603.64	17.28
603.976	17.23
604.312	17.13
604.648	17.49
604.984	17.46
605.319	17.36
605.655	17.45
605.991	17.4
606.326	17.34
606.662	17.36
606.998	17.13
607.333	17.32
607.668	17.24
608.004	17.58
608.339	18.07
608.674	17.88
609.01	17.59
609.345	17.68
609.68	17.82
610.015	17.83
610.35	17.74
610.685	17.86
611.02	17.8
611.355	17.65
611.689	17.82
612.024	17.78
612.359	17.86
612.694	18.25
613.028	17.91
613.363	18.23
613.697	18.31
614.032	18.43
614.366	18.07
614.7	18.81
615.035	18.22
615.369	18.15
615.703	18.33
616.037	18.47
616.371	18.39
616.705	18.38
617.039	18.63
617.373	18.39
617.707	18.1
618.041	18.41
618.375	18.96
618.709	18.98
619.042	18.28
619.376	18.94
619.71	18.55
620.043	18.74
620.377	18.67
620.71	18.78
621.043	18.67
621.377	18.8
621.71	18.91
622.043	18.56
622.376	18.61
622.709	19
623.043	19.19
623.376	18.99
623.709	19.04
624.041	19.2
624.374	18.95
624.707	18.84
625.04	19.65
625.373	18.74
625.705	19.42
626.038	18.91
626.37	18.7
626.703	19.18
627.035	19.06
627.368	19.41
627.7	18.95
628.032	18.81
628.365	19.23
628.697	19.05
629.029	19.03
629.361	19.26
629.693	19.44
630.025	18.95
630.357	19.12
630.689	19.58
631.021	19.17
631.353	19.4
631.684	19.34
632.016	18.86
632.348	19.57
632.679	19.52
633.011	19.62
633.342	20.22
633.674	19.58
634.005	19.89
634.336	19.66
634.668	20.38
634.999	19.59
635.33	19.77
635.661	20
635.992	19.8
636.323	19.88
636.654	19.98
636.985	19.81
637.316	19.75
637.647	19.64
637.977	20.21
638.308	20.34
638.639	19.84
638.969	19.76
639.3	20.01
639.63	20.02
639.961	20.51
640.291	19.79
640.622	20.67
640.952	20.2
641.282	20.93
641.612	20.15
641.943	20.24
642.273	20.23
642.603	20.36
642.933	20.3
643.263	20.1
643.592	20.37
643.922	20.27
644.252	20.52
644.582	20.27
644.911	21.01
645.241	20.64
645.571	20.55
645.9	20.11
646.23	20.86
646.559	21.17
646.888	20.48
647.218	20.07
647.547	20.79
647.876	20.54
648.205	20.41
648.534	20.78
648.863	20.86
649.192	21.43
649.521	20.73
649.85	20.72
650.179	21.03
650.508	20.73
650.837	20.62
651.165	20.45
651.494	21.01
651.822	21.63
652.151	21.39
652.479	20.95
652.808	20.62
653.136	21.15
653.465	20.93
653.793	20.4
654.121	20.78
654.449	21.46
654.777	21.15
655.105	21.39
655.433	20.75
655.761	21.25
656.089	21.04
656.417	21.34
656.745	20.89
657.073	21.01
657.4	21.82
657.728	21.66
658.056	21.54
658.383	21.82
658.711	21.33
659.038	20.98
659.365	21.75
659.693	21.35
660.02	21.33
660.347	22.03
660.674	21.35
661.001	21.16
661.329	20.67
661.656	21.66
661.982	21.65
662.309	21.79
662.636	21.78
662.963	21.48
663.29	21.64
663.616	21.58
663.943	21.33
664.27	21.73
664.596	21.87
664.923	21.94
665.249	21.92
665.576	22.29
665.902	22.02
666.228	21.81
666.554	22.5
666.881	21.82
667.207	22.2
667.533	22.03
667.859	21.91
668.185	22.81
668.511	21.46
668.837	21.33
669.162	22.09
669.488	21.52
669.814	22.49
670.139	22.97
670.465	22.33
670.791	22.09
671.116	22.61
671.442	21.9
671.767	22.61
672.092	22.46
672.418	22.06
672.743	22.29
673.068	22.19
673.393	22.56
673.718	22.95
674.043	22.64
674.368	22.07
674.693	23.1
675.018	22.33
675.343	21.93
675.667	21.68
675.992	22.99
676.317	22.98
676.641	22.73
676.966	23.12
677.29	22.08
677.615	22.57
677.939	23.17
678.264	23.18
678.588	22.73
678.912	22.27
679.236	23.26
679.56	22.27
679.885	23.23
680.209	22.82
