Data from 0416_chest_Reflection__4__50.txt Node

Date: Fri Dec 15 16:45:26 CST 2023
User: ToomeyLab
Spectrometer: FLMS14357
Trigger mode: 0
Integration Time (sec): 1.000000E-2
Scans to average: 100
Electric dark correction enabled: true
Nonlinearity correction enabled: false
Boxcar width: 0
XAxis mode: Wavelengths
Number of Pixels in Spectrum: 2048
>>>>>Begin Spectral Data<<<<<
189.047	10.37
189.435	10.37
189.823	10.37
190.211	-110.41
190.599	214.52
190.987	81.63
191.375	114.42
191.763	-131.24
192.151	1.42
192.538	154.67
192.926	-112.09
193.314	168.97
193.702	-1.22
194.089	-146.09
194.477	56.35
194.864	245.29
195.252	113.3
195.639	176.31
196.027	101.67
196.414	-266.81
196.801	104.22
197.189	1201.17
197.576	95.4
197.963	-23.43
198.351	-137.15
198.738	22.51
199.125	15.82
199.512	3.34
199.899	61.03
200.286	13.88
200.673	5.89
201.06	-11.18
201.447	-20.17
201.833	94.07
202.22	23.41
202.607	50.11
202.994	4.77
203.38	24.58
203.767	-1.82
204.154	5.52
204.54	20.74
204.927	-14.92
205.313	-4.83
205.699	-4.74
206.086	39.28
206.472	-11.94
206.858	28.68
207.245	-44.88
207.631	32.57
208.017	33.26
208.403	-0.05
208.789	16.79
209.175	15.25
209.561	6.8
209.947	-12.93
210.333	-18.2
210.719	-16.99
211.105	-7.5
211.491	-7.35
211.876	14.86
212.262	19.56
212.648	18.82
213.034	58.3
213.419	8.38
213.805	16.71
214.19	-11.5
214.576	33.95
214.961	3.9
215.346	-36.97
215.732	46.28
216.117	17.04
216.502	-13.54
216.888	13.37
217.273	30.2
217.658	13.11
218.043	7.06
218.428	-15.11
218.813	-18.64
219.198	-6.12
219.583	6.79
219.968	11.74
220.353	-0.51
220.738	20.99
221.122	8.85
221.507	-21.95
221.892	-15.81
222.276	-4.65
222.661	13.02
223.046	14.2
223.43	20.23
223.815	3.22
224.199	-12.21
224.583	-17.6
224.968	11.47
225.352	12.35
225.736	-2.57
226.121	-9.69
226.505	10.81
226.889	7.92
227.273	3.49
227.657	3.35
228.041	0.42
228.425	4.26
228.809	3.03
229.193	-0.01
229.577	0.68
229.961	0.69
230.344	1.22
230.728	0.81
231.112	1.57
231.495	1.33
231.879	1.39
232.263	2.21
232.646	1.89
233.03	0.22
233.413	0.82
233.797	4.07
234.18	2.08
234.563	3.17
234.946	-1.14
235.33	3.8
235.713	1.3
236.096	1.88
236.479	1.48
236.862	0.66
237.245	1.43
237.628	0.5
238.011	4
238.394	3.29
238.777	1.63
239.16	-1.26
239.543	-0.14
239.925	4.07
240.308	3.26
240.691	1.75
241.073	1.7
241.456	2.14
241.838	1.47
242.221	1.45
242.603	1.04
242.986	1.59
243.368	1.79
243.75	1.51
244.133	1.32
244.515	1.85
244.897	1.45
245.279	1.4
245.661	0.7
246.043	0.16
246.425	0.87
246.807	2.04
247.189	1.72
247.571	1.34
247.953	1.77
248.335	0.89
248.717	1.5
249.098	1.47
249.48	1.37
249.862	1.54
250.243	1.24
250.625	1.74
251.006	1.85
251.388	0.62
251.769	1.67
252.151	1.69
252.532	0.96
252.913	1.73
253.295	0.43
253.676	1.22
254.057	1.64
254.438	1.53
254.819	1.08
255.2	0.48
255.581	1.77
255.962	1.99
256.343	0.98
256.724	-0.23
257.105	0.84
257.486	0.74
257.867	1.94
258.247	1.96
258.628	1.54
259.009	0.78
259.389	1.52
259.77	0.84
260.15	1.3
260.531	0.99
260.911	1.85
261.292	1.45
261.672	1.51
262.052	1.45
262.432	1.63
262.813	2.06
263.193	1.54
263.573	1.45
263.953	1.05
264.333	1.45
264.713	1.61
265.093	0.64
265.473	1.51
265.853	-0.25
266.233	2.51
266.612	0.14
266.992	0.73
267.372	1.42
267.752	1.96
268.131	1.04
268.511	1.47
268.89	1.89
269.27	1.06
269.649	0.09
270.029	1.23
270.408	2.26
270.787	2.04
271.167	1.78
271.546	0.98
271.925	0.81
272.304	1.25
272.683	1.47
273.062	1.02
273.441	1.39
273.82	0.61
274.199	1.07
274.578	1.26
274.957	1.33
275.336	1.25
275.715	1.32
276.093	1.22
276.472	1.32
276.851	0.75
277.229	0.88
277.608	0.85
277.986	1.95
278.365	1.82
278.743	1.18
279.122	0.96
279.5	1.39
279.878	1.67
280.257	1.38
280.635	1.31
281.013	0.72
281.391	1.74
281.769	1.41
282.147	1.37
282.525	2.24
282.903	1.08
283.281	1.85
283.659	1.42
284.037	1.61
284.415	1.3
284.792	1.41
285.17	0.57
285.548	1.25
285.925	1.19
286.303	1.67
286.68	1.23
287.058	1.5
287.435	0.95
287.813	1.61
288.19	1.17
288.567	1.11
288.945	1.72
289.322	1.62
289.699	1.18
290.076	1.29
290.453	1.34
290.83	1.08
291.207	0.84
291.584	1.24
291.961	1.61
292.338	0.81
292.715	1.78
293.092	0.79
293.469	1.25
293.845	1.51
294.222	0.96
294.599	1.24
294.975	1.34
295.352	1.55
295.728	1.17
296.105	1.48
296.481	1.49
296.858	1.41
297.234	1.36
297.61	1.63
297.986	1.28
298.363	1.21
298.739	1.51
299.115	1.09
299.491	0.91
299.867	1.6
300.243	1.53
300.619	1.08
300.995	0.71
301.371	1.64
301.746	1.32
302.122	1.74
302.498	1.28
302.874	1.08
303.249	1.42
303.625	1.11
304	1.68
304.376	1.32
304.751	1.33
305.127	1.57
305.502	0.72
305.878	0.44
306.253	1.83
306.628	1.61
307.003	1.57
307.378	1.22
307.754	1.44
308.129	0.45
308.504	1.02
308.879	0.6
309.254	2.01
309.629	2.25
310.003	1.48
310.378	1.36
310.753	1.64
311.128	1.65
311.502	1.31
311.877	1.89
312.252	1.27
312.626	1.59
313.001	1.09
313.375	1.44
313.75	1.04
314.124	1.87
314.498	1.69
314.873	0.72
315.247	0.75
315.621	1.58
315.995	0.57
316.369	1.01
316.743	1.36
317.117	1.39
317.491	1.33
317.865	2.14
318.239	1.16
318.613	1.5
318.987	1.46
319.361	1.1
319.734	1.29
320.108	1.93
320.482	1.47
320.855	2.35
321.229	1.08
321.602	0.97
321.976	1.49
322.349	1.08
322.723	2.4
323.096	1.99
323.469	0.46
323.843	1.41
324.216	1.71
324.589	1.28
324.962	1.09
325.335	0.97
325.708	1.4
326.081	1.05
326.454	1.2
326.827	1.49
327.2	1.59
327.573	2.01
327.945	1.47
328.318	1.32
328.691	1.1
329.063	1.52
329.436	0.84
329.809	1.91
330.181	1.17
330.553	1.33
330.926	1.36
331.298	1.56
331.671	1.12
332.043	2.26
332.415	1.05
332.787	1.72
333.159	2.05
333.532	1.78
333.904	1.23
334.276	1.55
334.648	1.4
335.02	1.77
335.391	1.23
335.763	1.31
336.135	1.6
336.507	2.61
336.879	1.23
337.25	0.98
337.622	1.24
337.993	1.4
338.365	1.75
338.736	1.44
339.108	1.49
339.479	1.21
339.851	1.75
340.222	0.95
340.593	1.67
340.964	1.37
341.336	2.48
341.707	1.32
342.078	1.51
342.449	2.19
342.82	1.5
343.191	1.65
343.562	1.92
343.933	1.59
344.303	1.47
344.674	1.68
345.045	1.7
345.416	1.67
345.786	1.23
346.157	1.41
346.527	1.09
346.898	1.22
347.268	1.53
347.639	1.54
348.009	1.94
348.38	1.12
348.75	1.39
349.12	1.36
349.49	2.41
349.861	1.24
350.231	1.48
350.601	1.47
350.971	1.81
351.341	1.54
351.711	1.64
352.081	1.76
352.45	1.08
352.82	1.49
353.19	1.52
353.56	1.5
353.929	1.6
354.299	1.58
354.669	1.23
355.038	2.05
355.408	1.78
355.777	1.89
356.147	1.61
356.516	1.57
356.885	1.41
357.254	1.64
357.624	1.68
357.993	1.49
358.362	1.29
358.731	1.37
359.1	1.55
359.469	1.62
359.838	1.55
360.207	1.3
360.576	1.32
360.945	1.31
361.314	1.76
361.682	1.48
362.051	1.32
362.42	1.92
362.788	1.75
363.157	1.81
363.525	1.74
363.894	1.65
364.262	1.68
364.631	1.53
364.999	1.59
365.367	1.09
365.735	2.04
366.104	1.78
366.472	1.73
366.84	1.51
367.208	1.67
367.576	1.88
367.944	1.93
368.312	1.42
368.68	1.14
369.048	1.69
369.416	1.48
369.783	1.45
370.151	1.89
370.519	2.01
370.886	2.17
371.254	1.26
371.621	1.67
371.989	1.83
372.356	1.3
372.724	1.71
373.091	1.61
373.458	1.61
373.826	1.52
374.193	1.55
374.56	1.76
374.927	1.3
375.294	1.72
375.661	1.69
376.028	1.47
376.395	1.39
376.762	1.93
377.129	1.55
377.496	1.44
377.863	1.68
378.229	1.2
378.596	1.8
378.963	1.47
379.329	1.37
379.696	1.63
380.062	1.54
380.429	1.39
380.795	1.37
381.161	1.51
381.528	1.83
381.894	1.56
382.26	1.62
382.626	1.77
382.993	1.35
383.359	1.89
383.725	1.38
384.091	1.53
384.457	1.94
384.823	1.33
385.188	1.27
385.554	1.75
385.92	1.83
386.286	1.76
386.651	1.91
387.017	2.27
387.383	1.72
387.748	1.52
388.114	1.97
388.479	1.54
388.845	1.95
389.21	1.71
389.575	1.7
389.94	1.71
390.306	1.66
390.671	1.93
391.036	1.47
391.401	1.3
391.766	1.65
392.131	1.58
392.496	1.9
392.861	1.64
393.226	1.8
393.591	1.68
393.956	1.72
394.32	1.85
394.685	1.6
395.05	1.54
395.414	1.78
395.779	1.48
396.143	1.85
396.508	1.86
396.872	1.73
397.236	1.81
397.601	1.61
397.965	1.9
398.329	1.7
398.694	1.43
399.058	1.63
399.422	1.71
399.786	1.85
400.15	1.59
400.514	1.75
400.878	1.9
401.242	1.92
401.605	1.63
401.969	1.83
402.333	1.81
402.697	1.67
403.06	1.87
403.424	1.61
403.787	1.89
404.151	1.95
404.514	1.81
404.878	1.69
405.241	1.87
405.604	1.82
405.968	1.81
406.331	1.77
406.694	1.8
407.057	1.84
407.42	1.72
407.783	1.64
408.146	1.82
408.509	1.7
408.872	1.75
409.235	1.79
409.598	1.95
409.961	1.72
410.323	1.94
410.686	1.67
411.049	1.66
411.411	1.6
411.774	1.8
412.136	1.71
412.499	1.73
412.861	1.7
413.223	1.87
413.586	1.9
413.948	1.62
414.31	1.86
414.672	1.54
415.035	1.62
415.397	1.98
415.759	1.72
416.121	1.75
416.483	1.79
416.845	1.78
417.206	1.64
417.568	1.83
417.93	1.79
418.292	1.69
418.653	1.72
419.015	1.75
419.377	1.66
419.738	1.84
420.1	1.73
420.461	1.92
420.822	1.84
421.184	1.89
421.545	1.75
421.906	1.68
422.267	1.77
422.629	1.73
422.99	1.7
423.351	1.71
423.712	1.72
424.073	1.74
424.434	1.71
424.795	1.75
425.155	1.64
425.516	1.62
425.877	1.74
426.238	1.72
426.598	1.81
426.959	1.72
427.32	1.76
427.68	1.67
428.041	1.79
428.401	1.93
428.761	1.82
429.122	1.83
429.482	1.88
429.842	1.98
430.202	1.82
430.563	1.99
430.923	1.73
431.283	1.71
431.643	1.72
432.003	1.74
432.363	1.86
432.722	1.63
433.082	1.97
433.442	1.9
433.802	1.66
434.161	1.67
434.521	2.03
434.881	1.94
435.24	1.69
435.6	1.79
435.959	1.76
436.319	1.78
436.678	1.87
437.037	1.77
437.396	1.87
437.756	1.84
438.115	1.68
438.474	2.08
438.833	1.72
439.192	1.9
439.551	1.94
439.91	1.78
440.269	1.92
440.628	1.71
440.987	1.93
441.345	1.7
441.704	1.85
442.063	1.74
442.421	1.87
442.78	1.77
443.138	1.69
443.497	1.85
443.855	1.75
444.214	1.86
444.572	1.89
444.93	1.87
445.288	2.01
445.647	1.94
446.005	1.92
446.363	1.9
446.721	2.02
447.079	1.74
447.437	1.84
447.795	1.87
448.153	1.8
448.51	1.83
448.868	1.9
449.226	1.83
449.584	1.84
449.941	1.92
450.299	1.85
450.656	1.8
451.014	1.83
451.371	1.92
451.729	1.86
452.086	2.05
452.443	1.92
452.801	2.1
453.158	1.85
453.515	1.8
453.872	1.99
454.229	1.86
454.586	1.79
454.943	1.81
455.3	1.95
455.657	1.84
456.014	1.97
456.371	1.94
456.727	1.84
457.084	1.97
457.441	1.97
457.797	2.02
458.154	2.15
458.51	2.14
458.867	2.03
459.223	1.84
459.58	1.93
459.936	1.93
460.292	1.95
460.648	1.98
461.005	1.87
461.361	2.01
461.717	1.94
462.073	1.76
462.429	1.89
462.785	1.92
463.141	1.8
463.496	1.89
463.852	1.99
464.208	2
464.564	2.03
464.919	2.11
465.275	2.02
465.631	2.15
465.986	1.95
466.342	1.94
466.697	1.85
467.052	1.99
467.408	1.94
467.763	1.94
468.118	1.96
468.473	1.85
468.829	1.92
469.184	1.91
469.539	1.98
469.894	1.79
470.249	2.18
470.603	2.14
470.958	2.04
471.313	2.22
471.668	2.11
472.023	2.14
472.377	2.06
472.732	2.16
473.086	1.94
473.441	1.81
473.795	2.13
474.15	2.01
474.504	1.99
474.859	2.03
475.213	1.81
475.567	2.02
475.921	1.86
476.275	2.06
476.63	2.04
476.984	2.04
477.338	2
477.692	1.93
478.045	1.9
478.399	2.05
478.753	2.16
479.107	2
479.461	1.92
479.814	2.18
480.168	1.99
480.521	2.01
480.875	1.96
481.228	2.05
481.582	2
481.935	2.08
482.289	2.07
482.642	2.03
482.995	1.98
483.348	1.96
483.701	2.1
484.055	2.09
484.408	2.08
484.761	1.91
485.114	1.96
485.466	1.87
485.819	1.84
486.172	1.85
486.525	1.94
486.878	1.95
487.23	1.95
487.583	2.03
487.936	2.02
488.288	1.94
488.641	2.06
488.993	1.93
489.345	1.95
489.698	1.91
490.05	1.91
490.402	1.98
490.754	1.94
491.107	2.07
491.459	2.02
491.811	2.01
492.163	2.07
492.515	2.02
492.866	2.1
493.218	2.04
493.57	2.02
493.922	1.99
494.274	2.07
494.625	2.15
494.977	2.23
495.328	2.17
495.68	2.03
496.031	2.21
496.383	2.12
496.734	2.29
497.086	2.05
497.437	2.05
497.788	2.1
498.139	2.08
498.49	2.27
498.842	1.9
499.193	2.18
499.544	2.22
499.894	2.23
500.245	2.2
500.596	2.11
500.947	2.19
501.298	2.14
501.648	2.21
501.999	2.32
502.35	2.17
502.7	2.11
503.051	2.08
503.401	2.1
503.752	2.34
504.102	2.16
504.452	2.25
504.803	2.18
505.153	2.24
505.503	2.21
505.853	2.17
506.203	2.14
506.553	2.02
506.903	2.15
507.253	2.19
507.603	2.1
507.953	2.28
508.303	2.3
508.652	2.17
509.002	2.39
509.352	2.3
509.701	2.28
510.051	2.21
510.4	2.18
510.75	2.14
511.099	2.27
511.449	2.15
511.798	2.15
512.147	2.23
512.496	2.12
512.846	2.2
513.195	2.16
513.544	2.29
513.893	2.26
514.242	2.18
514.591	2.35
514.939	2.27
515.288	2.15
515.637	2.31
515.986	2.21
516.334	2.43
516.683	2.32
517.032	2.25
517.38	2.36
517.729	2.38
518.077	2.25
518.426	2.36
518.774	2.4
519.122	2.27
519.47	2.26
519.819	2.18
520.167	2.23
520.515	2.23
520.863	2.26
521.211	2.33
521.559	2.41
521.907	2.28
522.255	2.21
522.602	2.38
522.95	2.34
523.298	2.34
523.645	2.47
523.993	2.34
524.341	2.52
524.688	2.46
525.036	2.31
525.383	2.43
525.73	2.46
526.078	2.3
526.425	2.29
526.772	2.42
527.119	2.3
527.466	2.33
527.814	2.33
528.161	2.3
528.508	2.38
528.854	2.37
529.201	2.28
529.548	2.32
529.895	2.27
530.242	2.2
530.588	2.18
530.935	2.24
531.282	2.3
531.628	2.36
531.975	2.37
532.321	2.37
532.667	2.45
533.014	2.47
533.36	2.45
533.706	2.41
534.052	2.47
534.399	2.38
534.745	2.41
535.091	2.32
535.437	2.37
535.783	2.39
536.129	2.47
536.474	2.5
536.82	2.55
537.166	2.57
537.512	2.53
537.857	2.41
538.203	2.5
538.549	2.46
538.894	2.48
539.239	2.5
539.585	2.52
539.93	2.51
540.276	2.63
540.621	2.67
540.966	2.62
541.311	2.5
541.656	2.51
542.001	2.6
542.346	2.62
542.691	2.43
543.036	2.42
543.381	2.4
543.726	2.45
544.071	2.61
544.415	2.59
544.76	2.57
545.105	2.67
545.449	2.67
545.794	2.65
546.138	2.63
546.483	2.69
546.827	2.66
547.171	2.5
547.516	2.81
547.86	2.6
548.204	2.65
548.548	2.65
548.892	2.7
549.236	2.72
549.58	2.6
549.924	2.82
550.268	2.84
550.612	2.93
550.956	2.87
551.3	2.78
551.643	2.94
551.987	2.99
552.33	2.68
552.674	2.81
553.017	2.83
553.361	2.66
553.704	2.98
554.048	2.8
554.391	2.8
554.734	2.81
555.077	2.77
555.42	2.83
555.764	2.83
556.107	2.8
556.45	2.83
556.793	2.97
557.135	2.84
557.478	2.97
557.821	2.99
558.164	2.85
558.507	3.08
558.849	2.88
559.192	3.02
559.534	2.86
559.877	3.12
560.219	3.1
560.562	3.21
560.904	2.94
561.246	3.08
561.589	3.16
561.931	3.04
562.273	2.93
562.615	2.97
562.957	3.14
563.299	2.98
563.641	3.17
563.983	3.23
564.325	3.08
564.667	3.08
565.008	3.07
565.35	3.09
565.692	3.06
566.033	3.13
566.375	3.39
566.716	3.27
567.058	3.11
567.399	3.04
567.741	3
568.082	3.2
568.423	3.15
568.764	3.01
569.105	3.32
569.447	3.33
569.788	3.3
570.129	3.28
570.47	3.4
570.811	3.43
571.151	3.28
571.492	3.42
571.833	3.47
572.174	3.36
572.514	3.33
572.855	3.33
573.195	3.46
573.536	3.51
573.876	3.29
574.217	3.23
574.557	3.46
574.898	3.53
575.238	3.48
575.578	3.36
575.918	3.7
576.258	3.55
576.598	3.5
576.938	3.3
577.278	3.46
577.618	3.42
577.958	3.4
578.298	3.45
578.638	3.41
578.977	3.44
579.317	3.6
579.657	3.57
579.996	3.6
580.336	3.83
580.675	3.66
581.014	3.84
581.354	3.85
581.693	3.64
582.032	3.4
582.372	3.65
582.711	3.88
583.05	3.66
583.389	3.83
583.728	3.8
584.067	4
584.406	3.92
584.745	3.92
585.083	3.92
585.422	3.87
585.761	3.97
586.1	4.1
586.438	3.84
586.777	4.05
587.115	3.91
587.454	3.92
587.792	3.78
588.13	4.05
588.469	3.76
588.807	4.07
589.145	3.75
589.483	3.98
589.821	4.12
590.159	3.96
590.497	4.44
590.835	4.39
591.173	4.07
591.511	4.42
591.849	4.1
592.187	3.93
592.524	4.05
592.862	4.01
593.2	4.29
593.537	4.19
593.875	4.11
594.212	4.03
594.55	4.05
594.887	4.31
595.224	4.12
595.561	4.19
595.899	4.19
596.236	4.19
596.573	4.7
596.91	3.9
597.247	4.27
597.584	4.5
597.921	4.26
598.258	4.16
598.594	4.21
598.931	4.1
599.268	4.35
599.604	4.2
599.941	4.64
600.277	4.42
600.614	4.36
600.95	4.33
601.287	4.45
601.623	4.3
601.959	4.27
602.296	4.68
602.632	4.54
602.968	4.57
603.304	4.66
603.64	4.66
603.976	4.82
604.312	4.42
604.648	4.48
604.984	4.75
605.319	4.65
605.655	4.53
605.991	4.79
606.326	4.65
606.662	4.68
606.998	4.52
607.333	4.73
607.668	4.85
608.004	4.92
608.339	4.79
608.674	4.83
609.01	4.69
609.345	4.7
609.68	5.33
610.015	4.92
610.35	4.91
610.685	4.98
611.02	4.81
611.355	5.07
611.689	4.93
612.024	4.99
612.359	4.88
612.694	5.11
613.028	4.88
613.363	5.14
613.697	5.23
614.032	5.3
614.366	5
614.7	5.23
615.035	5.23
615.369	5.15
615.703	5.24
616.037	5.3
616.371	4.65
616.705	5.06
617.039	5.18
617.373	5.48
617.707	5.06
618.041	5.49
618.375	5.3
618.709	5.8
619.042	5.3
619.376	5.51
619.71	5.55
620.043	5.26
620.377	5.33
620.71	5.45
621.043	5.59
621.377	5.59
621.71	5.64
622.043	5.34
622.376	5.16
622.709	5.46
623.043	5.72
623.376	5.37
623.709	5.79
624.041	5.93
624.374	5.82
624.707	5.57
625.04	5.99
625.373	4.98
625.705	5.86
626.038	5.65
626.37	5.68
626.703	5.73
627.035	5.71
627.368	5.97
627.7	5.66
628.032	5.88
628.365	6
628.697	5.73
629.029	5.67
629.361	5.77
629.693	6.11
630.025	5.7
630.357	6.01
630.689	5.97
631.021	5.92
631.353	6.16
631.684	6.24
632.016	5.68
632.348	6.18
632.679	6.09
633.011	6.39
633.342	6.53
633.674	6.56
634.005	6.79
634.336	6.22
634.668	6.64
634.999	6.04
635.33	6.85
635.661	6.59
635.992	6.09
636.323	6.57
636.654	6.59
636.985	6.44
637.316	6.62
637.647	6.03
637.977	6.44
638.308	6.78
638.639	5.92
638.969	6.46
639.3	6.5
639.63	6.47
639.961	6.47
640.291	6.72
640.622	6.97
640.952	6.45
641.282	6.85
641.612	6.64
641.943	6.79
642.273	6.59
642.603	6.6
642.933	6.97
643.263	7.14
643.592	6.59
643.922	6.44
644.252	7.2
644.582	6.79
644.911	6.8
645.241	6.56
645.571	7.12
645.9	6.31
646.23	6.92
646.559	7.1
646.888	7.05
647.218	6.84
647.547	7.1
647.876	6.86
648.205	7.47
648.534	7.02
648.863	7.34
649.192	7.54
649.521	6.53
649.85	7.01
650.179	7.34
650.508	6.97
650.837	7.17
651.165	7.06
651.494	7.79
651.822	6.95
652.151	6.66
652.479	7.3
652.808	7.21
653.136	7.93
653.465	7.14
653.793	7.23
654.121	7.25
654.449	7.52
654.777	7.7
655.105	8.14
655.433	7.2
655.761	7.64
656.089	8.11
656.417	8.09
656.745	7.27
657.073	6.85
657.4	7.95
657.728	7.91
658.056	7.8
658.383	7.52
658.711	7.7
659.038	8.04
659.365	8.11
659.693	7.28
660.02	7.4
660.347	7.69
660.674	8.2
661.001	7.99
661.329	7.47
661.656	7.96
661.982	7.92
662.309	8.18
662.636	7.82
662.963	8.44
663.29	8.68
663.616	8.36
663.943	8.16
664.27	8.05
664.596	8.44
664.923	8.58
665.249	8.44
665.576	8.53
665.902	8.68
666.228	8.31
666.554	8.21
666.881	7.96
667.207	8.17
667.533	8.39
667.859	8.63
668.185	8.32
668.511	7.95
668.837	7.85
669.162	8.46
669.488	7.94
669.814	9.07
670.139	8.83
670.465	8.9
670.791	8.91
671.116	8.91
671.442	9
671.767	8.87
672.092	8.84
672.418	8.76
672.743	8.75
673.068	8.35
673.393	8.94
673.718	8.15
674.043	9.04
674.368	9.26
674.693	9.58
675.018	8.79
675.343	9.07
675.667	9.19
675.992	9.11
676.317	9.27
676.641	8.95
676.966	9.05
677.29	8.78
677.615	9.22
677.939	9.36
678.264	9.14
678.588	9.27
678.912	9.18
679.236	10.27
679.56	8.55
679.885	9.33
680.209	9.12
680.532	8.83
680.856	9.19
681.18	9.18
681.504	8.88
681.828	9.2
682.152	9.39
682.475	9.31
682.799	9.08
683.122	9.33
683.446	8.99
683.769	10.06
684.093	9.33
684.416	10.29
684.739	9.33
685.062	9.41
685.386	9.83
685.709	9.12
686.032	9.91
686.355	10.13
686.678	9.88
687.001	9.76
687.324	9.56
687.646	9.66
687.969	9.2
688.292	9.86
688.614	9.98
688.937	10.19
689.26	9.92
689.582	10.83
689.904	9.89
690.227	10.23
690.549	10.02
690.871	10.19
691.194	10.52
691.516	10
691.838	10.32
692.16	9.93
