Data from 0416_chest_Reflection__3__49.txt Node

Date: Fri Dec 15 16:44:58 CST 2023
User: ToomeyLab
Spectrometer: FLMS14357
Trigger mode: 0
Integration Time (sec): 1.000000E-2
Scans to average: 100
Electric dark correction enabled: true
Nonlinearity correction enabled: false
Boxcar width: 0
XAxis mode: Wavelengths
Number of Pixels in Spectrum: 2048
>>>>>Begin Spectral Data<<<<<
189.047	-28.29
189.435	-28.29
189.823	-28.29
190.211	26.74
190.599	-217.07
190.987	155.45
191.375	174.57
191.763	10.54
192.151	-72.27
192.538	167.5
192.926	4.54
193.314	45.71
193.702	56.37
194.089	-54.73
194.477	173.08
194.864	303.56
195.252	100.26
195.639	121.78
196.027	-32.29
196.414	-233.62
196.801	64.11
197.189	1094.3
197.576	28.22
197.963	-14.05
198.351	-37.99
198.738	21.69
199.125	33.25
199.512	38.03
199.899	76.27
200.286	49.52
200.673	-8.57
201.06	65.86
201.447	-25.83
201.833	59.89
202.22	16.25
202.607	53.33
202.994	-2.19
203.38	39.04
203.767	48.05
204.154	31.81
204.54	22.33
204.927	-12.83
205.313	5.09
205.699	20.62
206.086	33.42
206.472	19.48
206.858	-11.47
207.245	-0.45
207.631	13.12
208.017	9.87
208.403	12.5
208.789	32.92
209.175	26.47
209.561	5.83
209.947	51.98
210.333	-0.49
210.719	37.03
211.105	28.9
211.491	-0.68
211.876	39.17
212.262	27.07
212.648	24.71
213.034	18.39
213.419	-0.28
213.805	-5.52
214.19	-2.48
214.576	17.95
214.961	-12.52
215.346	-1.88
215.732	2.57
216.117	31.77
216.502	-32.8
216.888	23.97
217.273	54.6
217.658	-4.88
218.043	20.67
218.428	-7.11
218.813	-2.7
219.198	-28.68
219.583	-0.8
219.968	28.21
220.353	-13.39
220.738	26.55
221.122	15.33
221.507	4.37
221.892	-9.16
222.276	-2.46
222.661	18.28
223.046	9.25
223.43	17.66
223.815	17.86
224.199	0.13
224.583	0.38
224.968	11.26
225.352	16.7
225.736	-0.79
226.121	-3.66
226.505	6.87
226.889	13.94
227.273	6.02
227.657	13.33
228.041	2.56
228.425	4.58
228.809	7.84
229.193	7.3
229.577	1.08
229.961	3.53
230.344	2.15
230.728	0.99
231.112	2.53
231.495	2.38
231.879	2.45
232.263	2.05
232.646	3.67
233.03	3.16
233.413	2.81
233.797	5.13
234.18	0.93
234.563	4.86
234.946	1.55
235.33	2.99
235.713	3.04
236.096	4.03
236.479	4.15
236.862	1.3
237.245	1.47
237.628	0.67
238.011	2.56
238.394	2.95
238.777	2.75
239.16	3.27
239.543	2.86
239.925	4.87
240.308	4.02
240.691	3.51
241.073	4.15
241.456	2.94
241.838	2.01
242.221	0.55
242.603	2.85
242.986	2.49
243.368	3.32
243.75	3.05
244.133	1.48
244.515	2.46
244.897	2.59
245.279	1.57
245.661	2.04
246.043	2.03
246.425	1.32
246.807	3.36
247.189	2.5
247.571	2.68
247.953	2.04
248.335	1.95
248.717	2.01
249.098	1.81
249.48	2.19
249.862	2.12
250.243	2.1
250.625	2.09
251.006	2.3
251.388	0.96
251.769	1.92
252.151	3.19
252.532	2.21
252.913	0.6
253.295	2.03
253.676	1.7
254.057	2.05
254.438	2.08
254.819	1.94
255.2	2.05
255.581	2.79
255.962	1.79
256.343	2.16
256.724	1.51
257.105	3.37
257.486	1.22
257.867	2.01
258.247	2.43
258.628	1.74
259.009	1.74
259.389	2.47
259.77	1.6
260.15	1.98
260.531	1.33
260.911	2.54
261.292	1.85
261.672	2.09
262.052	2.05
262.432	2.43
262.813	1.96
263.193	2.28
263.573	1.92
263.953	1.76
264.333	2.57
264.713	2.11
265.093	1.2
265.473	2.42
265.853	0.32
266.233	2.42
266.612	0.91
266.992	1.97
267.372	1.94
267.752	2.28
268.131	2.53
268.511	2.84
268.89	2.86
269.27	1.8
269.649	2.36
270.029	1.86
270.408	2.97
270.787	1.97
271.167	2.88
271.546	2.43
271.925	0.8
272.304	2.41
272.683	2.12
273.062	1.83
273.441	2.23
273.82	1.82
274.199	2.48
274.578	2.43
274.957	2.03
275.336	1.49
275.715	1.59
276.093	2
276.472	2.19
276.851	2.36
277.229	1.95
277.608	1.54
277.986	1.98
278.365	2.12
278.743	1.32
279.122	1.83
279.5	3.11
279.878	2.17
280.257	1.47
280.635	1.38
281.013	2.15
281.391	2.31
281.769	2.42
282.147	1.72
282.525	2.4
282.903	2.04
283.281	1.64
283.659	2.11
284.037	2.03
284.415	2.4
284.792	1.78
285.17	1.67
285.548	1.25
285.925	1.86
286.303	1.97
286.68	1.72
287.058	1.76
287.435	1.59
287.813	2.04
288.19	1.8
288.567	1.63
288.945	1.66
289.322	2.15
289.699	1.68
290.076	1.93
290.453	2.11
290.83	1.82
291.207	1.56
291.584	2.29
291.961	1.91
292.338	1.78
292.715	2.42
293.092	1.8
293.469	1.93
293.845	1.86
294.222	2.03
294.599	2.51
294.975	1.27
295.352	2.63
295.728	1.62
296.105	2.44
296.481	2.35
296.858	2.22
297.234	2.23
297.61	2.12
297.986	1.61
298.363	2.11
298.739	2.21
299.115	2.05
299.491	1.84
299.867	1.52
300.243	1.91
300.619	1.78
300.995	1.93
301.371	2.04
301.746	1.67
302.122	2.83
302.498	1.8
302.874	2.19
303.249	2.11
303.625	2
304	2.35
304.376	2.13
304.751	2.01
305.127	2.87
305.502	1.33
305.878	1.28
306.253	1.91
306.628	2.23
307.003	1.76
307.378	2.41
307.754	1.88
308.129	1.09
308.504	1.92
308.879	2.11
309.254	2.91
309.629	2.4
310.003	1.59
310.378	2.87
310.753	2.35
311.128	2.18
311.502	2.31
311.877	2.53
312.252	1.79
312.626	2.22
313.001	2.1
313.375	2.78
313.75	1.72
314.124	1.89
314.498	2.06
314.873	1.95
315.247	2.03
315.621	1.74
315.995	1.86
316.369	1.74
316.743	1.44
317.117	1.87
317.491	2.07
317.865	1.91
318.239	1.89
318.613	1.84
318.987	1.95
319.361	1.69
319.734	2.71
320.108	2.49
320.482	2.17
320.855	2.33
321.229	1.64
321.602	1.96
321.976	2.43
322.349	1.95
322.723	2.78
323.096	3.15
323.469	0.86
323.843	1.97
324.216	2.92
324.589	1.88
324.962	2.24
325.335	2.06
325.708	2.26
326.081	1.68
326.454	2.58
326.827	2.22
327.2	2.12
327.573	2.41
327.945	2.09
328.318	1.64
328.691	1.55
329.063	1.87
329.436	1.82
329.809	2.5
330.181	2.71
330.553	1.86
330.926	2.68
331.298	2.46
331.671	2.18
332.043	2.77
332.415	2.49
332.787	2.37
333.159	2.66
333.532	2.25
333.904	1.94
334.276	2.32
334.648	2.34
335.02	2.26
335.391	2.07
335.763	1.68
336.135	2.05
336.507	2.34
336.879	2.47
337.25	2.35
337.622	1.99
337.993	2.09
338.365	2.52
338.736	2.17
339.108	2.09
339.479	2.17
339.851	1.6
340.222	1.88
340.593	1.92
340.964	2.38
341.336	3.04
341.707	1.74
342.078	2.09
342.449	2.66
342.82	2.5
343.191	2.4
343.562	2.6
343.933	2.52
344.303	2.2
344.674	2.81
345.045	2.42
345.416	2.34
345.786	1.97
346.157	2.33
346.527	2.05
346.898	1.84
347.268	2.53
347.639	2.28
348.009	2.52
348.38	2.28
348.75	2.24
349.12	2.05
349.49	2.6
349.861	2.19
350.231	2.21
350.601	2.52
350.971	2.35
351.341	2.46
351.711	2.44
352.081	2.08
352.45	1.65
352.82	2.33
353.19	2.1
353.56	2.36
353.929	2.69
354.299	1.94
354.669	1.79
355.038	2.57
355.408	2.64
355.777	1.71
356.147	2.02
356.516	2.63
356.885	2.43
357.254	2.53
357.624	3.07
357.993	2.35
358.362	1.83
358.731	2.24
359.1	2.35
359.469	2.39
359.838	2.43
360.207	2.15
360.576	2.35
360.945	2.26
361.314	2.68
361.682	2.17
362.051	2
362.42	2.45
362.788	2.04
363.157	2.73
363.525	2.51
363.894	2.23
364.262	2.44
364.631	2.46
364.999	2.27
365.367	1.91
365.735	3.05
366.104	2.46
366.472	2.5
366.84	2.11
367.208	2.38
367.576	2.63
367.944	2.33
368.312	2.25
368.68	2.02
369.048	2.69
369.416	2.25
369.783	2.15
370.151	2.41
370.519	2.58
370.886	2.86
371.254	2.16
371.621	2.67
371.989	2.42
372.356	2.28
372.724	2.42
373.091	2.27
373.458	2.3
373.826	2.06
374.193	2.14
374.56	2.62
374.927	2.46
375.294	2.63
375.661	2.42
376.028	2.23
376.395	2.22
376.762	2.42
377.129	2.49
377.496	2.13
377.863	2.28
378.229	1.83
378.596	2.48
378.963	2.28
379.329	2.35
379.696	2.5
380.062	2.38
380.429	2.14
380.795	2.25
381.161	2.31
381.528	2.96
381.894	2.63
382.26	2.32
382.626	2.52
382.993	2.23
383.359	2.59
383.725	2.13
384.091	1.96
384.457	2.58
384.823	2.57
385.188	2.54
385.554	2.41
385.92	2.69
386.286	2.83
386.651	2.28
387.017	2.58
387.383	2.68
387.748	2.39
388.114	2.75
388.479	2.26
388.845	2.58
389.21	2.65
389.575	2.38
389.94	2.52
390.306	2.72
390.671	2.43
391.036	2.17
391.401	1.94
391.766	2.64
392.131	2.32
392.496	2.54
392.861	2.38
393.226	2.52
393.591	2.32
393.956	2.51
394.32	2.59
394.685	2.31
395.05	2.36
395.414	2.36
395.779	2.11
396.143	2.47
396.508	2.42
396.872	2.65
397.236	2.75
397.601	2.43
397.965	2.21
398.329	2.31
398.694	2.45
399.058	2.71
399.422	2.22
399.786	2.75
400.15	2.67
400.514	2.82
400.878	2.55
401.242	2.63
401.605	2.67
401.969	2.54
402.333	2.56
402.697	2.63
403.06	2.54
403.424	2.64
403.787	2.4
404.151	2.59
404.514	2.51
404.878	2.63
405.241	2.61
405.604	2.57
405.968	2.54
406.331	2.37
406.694	2.74
407.057	2.56
407.42	2.97
407.783	2.64
408.146	2.75
408.509	2.49
408.872	2.43
409.235	2.59
409.598	2.67
409.961	2.47
410.323	2.55
410.686	2.53
411.049	2.37
411.411	2.38
411.774	2.64
412.136	2.49
412.499	2.38
412.861	2.55
413.223	2.39
413.586	2.92
413.948	2.32
414.31	2.59
414.672	2.56
415.035	2.55
415.397	2.91
415.759	2.66
416.121	2.96
416.483	2.5
416.845	2.78
417.206	2.39
417.568	2.7
417.93	2.21
418.292	2.8
418.653	2.77
419.015	2.59
419.377	2.49
419.738	2.63
420.1	2.63
420.461	2.63
420.822	2.48
421.184	2.47
421.545	2.6
421.906	2.51
422.267	2.58
422.629	2.63
422.99	2.51
423.351	2.45
423.712	2.54
424.073	2.52
424.434	2.66
424.795	2.63
425.155	2.54
425.516	2.35
425.877	2.62
426.238	2.51
426.598	2.66
426.959	2.5
427.32	2.47
427.68	2.54
428.041	2.6
428.401	2.72
428.761	2.62
429.122	2.62
429.482	2.48
429.842	2.65
430.202	2.83
430.563	2.72
430.923	2.73
431.283	2.62
431.643	2.69
432.003	2.61
432.363	2.75
432.722	2.76
433.082	2.61
433.442	2.72
433.802	2.65
434.161	2.52
434.521	2.85
434.881	2.69
435.24	2.47
435.6	2.67
435.959	2.63
436.319	2.67
436.678	2.68
437.037	2.61
437.396	2.82
437.756	2.54
438.115	2.55
438.474	2.95
438.833	2.57
439.192	2.53
439.551	2.79
439.91	2.65
440.269	2.72
440.628	2.47
440.987	2.66
441.345	2.58
441.704	2.61
442.063	2.61
442.421	2.56
442.78	2.64
443.138	2.54
443.497	2.62
443.855	2.73
444.214	2.77
444.572	2.79
444.93	2.63
445.288	2.81
445.647	2.74
446.005	2.79
446.363	2.65
446.721	2.84
447.079	2.56
447.437	2.69
447.795	2.63
448.153	2.64
448.51	2.7
448.868	2.62
449.226	2.67
449.584	2.56
449.941	2.81
450.299	2.78
450.656	2.71
451.014	2.76
451.371	2.66
451.729	2.7
452.086	3.04
452.443	2.67
452.801	2.82
453.158	2.8
453.515	2.57
453.872	2.88
454.229	2.64
454.586	2.63
454.943	2.73
455.3	2.77
455.657	2.66
456.014	2.81
456.371	2.87
456.727	2.71
457.084	2.88
457.441	2.79
457.797	2.89
458.154	3.02
458.51	2.94
458.867	3
459.223	2.91
459.58	2.8
459.936	2.8
460.292	2.84
460.648	2.79
461.005	2.83
461.361	2.88
461.717	2.78
462.073	2.69
462.429	2.74
462.785	2.73
463.141	2.79
463.496	2.83
463.852	3.06
464.208	2.95
464.564	2.83
464.919	3.05
465.275	2.95
465.631	3.1
465.986	2.85
466.342	2.91
466.697	2.92
467.052	2.81
467.408	3
467.763	2.84
468.118	3.05
468.473	2.77
468.829	2.93
469.184	2.91
469.539	3.08
469.894	2.88
470.249	2.91
470.603	3
470.958	2.96
471.313	3.23
471.668	2.9
472.023	3.14
472.377	2.73
472.732	2.85
473.086	2.86
473.441	2.82
473.795	3.11
474.15	2.98
474.504	2.86
474.859	3.04
475.213	3
475.567	2.83
475.921	2.6
476.275	3
476.63	3.12
476.984	3.18
477.338	3.26
477.692	2.95
478.045	2.88
478.399	3.02
478.753	3.13
479.107	3.05
479.461	3.13
479.814	2.9
480.168	2.89
480.521	2.87
480.875	2.91
481.228	2.88
481.582	3.03
481.935	2.99
482.289	3.15
482.642	3.12
482.995	2.86
483.348	2.88
483.701	2.84
484.055	2.95
484.408	3.01
484.761	2.89
485.114	2.82
485.466	2.76
485.819	2.78
486.172	2.75
486.525	2.79
486.878	2.82
487.23	2.87
487.583	2.9
487.936	2.98
488.288	2.91
488.641	2.94
488.993	2.89
489.345	2.82
489.698	2.85
490.05	2.83
490.402	2.9
490.754	2.86
491.107	2.96
491.459	3.03
491.811	3.08
492.163	2.99
492.515	2.97
492.866	3.08
493.218	2.99
493.57	2.95
493.922	2.94
494.274	3.01
494.625	3.03
494.977	3.03
495.328	3.18
495.68	3.1
496.031	3.19
496.383	3.09
496.734	3.25
497.086	3.22
497.437	3.16
497.788	3.12
498.139	3.1
498.49	3.11
498.842	3.09
499.193	3.08
499.544	3.1
499.894	3.15
500.245	3.16
500.596	3.02
500.947	3.27
501.298	3.03
501.648	3.28
501.999	3.24
502.35	3.16
502.7	3.12
503.051	3.21
503.401	3.2
503.752	3.28
504.102	3.19
504.452	3.15
504.803	3.31
505.153	3.23
505.503	3.28
505.853	3.18
506.203	3.21
506.553	3.23
506.903	3.16
507.253	3.12
507.603	3.18
507.953	3.28
508.303	3.31
508.652	3.15
509.002	3.4
509.352	3.37
509.701	3.17
510.051	3.28
510.4	3.28
510.75	3.21
511.099	3.35
511.449	3.23
511.798	3.31
512.147	3.22
512.496	3.25
512.846	3.35
513.195	3.38
513.544	3.31
513.893	3.31
514.242	3.33
514.591	3.42
514.939	3.33
515.288	3.24
515.637	3.41
515.986	3.49
516.334	3.44
516.683	3.32
517.032	3.36
517.38	3.52
517.729	3.48
518.077	3.36
518.426	3.44
518.774	3.45
519.122	3.4
519.47	3.46
519.819	3.32
520.167	3.43
520.515	3.41
520.863	3.42
521.211	3.41
521.559	3.44
521.907	3.41
522.255	3.4
522.602	3.46
522.95	3.4
523.298	3.37
523.645	3.66
523.993	3.45
524.341	3.6
524.688	3.64
525.036	3.49
525.383	3.62
525.73	3.62
526.078	3.48
526.425	3.47
526.772	3.53
527.119	3.5
527.466	3.54
527.814	3.51
528.161	3.5
528.508	3.53
528.854	3.55
529.201	3.48
529.548	3.43
529.895	3.41
530.242	3.38
530.588	3.33
530.935	3.41
531.282	3.44
531.628	3.41
531.975	3.46
532.321	3.56
532.667	3.53
533.014	3.59
533.36	3.6
533.706	3.6
534.052	3.49
534.399	3.5
534.745	3.56
535.091	3.52
535.437	3.54
535.783	3.54
536.129	3.58
536.474	3.56
536.82	3.69
537.166	3.78
537.512	3.78
537.857	3.67
538.203	3.72
538.549	3.65
538.894	3.63
539.239	3.68
539.585	3.65
539.93	3.67
540.276	3.89
540.621	3.95
540.966	3.82
541.311	3.78
541.656	3.75
542.001	3.94
542.346	3.88
542.691	3.85
543.036	3.7
543.381	3.63
543.726	3.68
544.071	3.77
544.415	3.81
544.76	3.84
545.105	3.82
545.449	3.83
545.794	4
546.138	3.8
546.483	3.9
546.827	3.82
547.171	3.94
547.516	4.16
547.86	3.95
548.204	3.91
548.548	3.91
548.892	4.06
549.236	4.01
549.58	4.02
549.924	3.87
550.268	4.08
550.612	4.19
550.956	4.34
551.3	4.08
551.643	4.34
551.987	4.24
552.33	4.31
552.674	4.21
553.017	4.25
553.361	4.25
553.704	4.36
554.048	4.14
554.391	4.19
554.734	4.11
555.077	4.13
555.42	4.07
555.764	4.3
556.107	4.15
556.45	4.09
556.793	4.31
557.135	4.24
557.478	4.39
557.821	4.43
558.164	4.32
558.507	4.32
558.849	4.35
559.192	4.36
559.534	4.5
559.877	4.67
560.219	4.34
560.562	4.67
560.904	4.42
561.246	4.64
561.589	4.54
561.931	4.56
562.273	4.48
562.615	4.51
562.957	4.33
563.299	4.28
563.641	4.55
563.983	4.53
564.325	4.38
564.667	4.57
565.008	4.63
565.35	4.5
565.692	4.48
566.033	4.71
566.375	4.65
566.716	4.94
567.058	4.71
567.399	4.62
567.741	4.59
568.082	4.65
568.423	4.63
568.764	4.67
569.105	4.88
569.447	4.71
569.788	4.75
570.129	4.85
570.47	4.83
570.811	5
571.151	4.88
571.492	4.87
571.833	4.99
572.174	4.75
572.514	4.84
572.855	4.98
573.195	4.73
573.536	4.87
573.876	4.85
574.217	4.86
574.557	4.97
574.898	5.01
575.238	5.07
575.578	4.92
575.918	5.16
576.258	5.07
576.598	4.99
576.938	4.98
577.278	5.05
577.618	5.03
577.958	5.28
578.298	5.22
578.638	5.08
578.977	5.19
579.317	5.05
579.657	5.19
579.996	5.22
580.336	5.39
580.675	5.27
581.014	5.1
581.354	5.07
581.693	5.34
582.032	5.2
582.372	5.43
582.711	5.25
583.05	5.22
583.389	5.4
583.728	5.22
584.067	5.43
584.406	5.57
584.745	5.6
585.083	5.5
585.422	5.63
585.761	5.64
586.1	5.85
586.438	5.61
586.777	5.91
587.115	5.62
587.454	5.41
587.792	5.79
588.13	5.81
588.469	5.47
588.807	5.76
589.145	5.57
589.483	5.6
589.821	5.83
590.159	5.73
590.497	5.86
590.835	5.89
591.173	5.86
591.511	5.95
591.849	5.72
592.187	5.9
592.524	5.91
592.862	5.79
593.2	5.87
593.537	5.91
593.875	5.77
594.212	5.99
594.55	5.96
594.887	6.1
595.224	5.97
595.561	6
595.899	5.72
596.236	6.04
596.573	6.28
596.91	5.64
597.247	5.94
597.584	6.29
597.921	6.13
598.258	5.8
598.594	6.17
598.931	6.19
599.268	6.29
599.604	6.15
599.941	6.27
600.277	6.21
600.614	6.01
600.95	6.06
601.287	6.29
601.623	6.19
601.959	6.33
602.296	6.47
602.632	6.22
602.968	6.44
603.304	6.39
603.64	6.43
603.976	6.58
604.312	6.41
604.648	6.47
604.984	6.58
605.319	6.4
605.655	6.62
605.991	6.5
606.326	6.7
606.662	6.46
606.998	6.35
607.333	6.69
607.668	6.63
608.004	6.55
608.339	6.9
608.674	6.73
609.01	6.37
609.345	6.52
609.68	6.92
610.015	6.88
610.35	6.65
610.685	6.8
611.02	6.84
611.355	6.97
611.689	6.69
612.024	6.88
612.359	6.79
612.694	7.03
613.028	6.94
613.363	7.18
613.697	6.95
614.032	7.41
614.366	7.16
614.7	7.43
615.035	7.13
615.369	7.09
615.703	7.12
616.037	7.33
616.371	7.2
616.705	7.06
617.039	7.16
617.373	7.25
617.707	7.17
618.041	7.36
618.375	7.35
618.709	7.59
619.042	7.32
619.376	7.82
619.71	7.82
620.043	7.61
620.377	7.28
620.71	7.8
621.043	7.03
621.377	7.82
621.71	7.48
622.043	7.45
622.376	7.21
622.709	7.56
623.043	7.68
623.376	7.57
623.709	7.39
624.041	7.82
624.374	7.7
624.707	7.31
625.04	8.16
625.373	7.3
625.705	8.06
626.038	7.95
626.37	8
626.703	7.72
627.035	7.85
627.368	8.34
627.7	7.82
628.032	7.81
628.365	7.87
628.697	8.03
629.029	7.91
629.361	7.95
629.693	7.92
630.025	8.07
630.357	8.05
630.689	8.03
631.021	8.16
631.353	8.26
631.684	8.02
632.016	8.09
632.348	8.63
632.679	8.24
633.011	8.33
633.342	8.6
633.674	8.46
634.005	9
634.336	8.27
634.668	8.88
634.999	8.17
635.33	8.77
635.661	8.49
635.992	8.25
636.323	8.67
636.654	8.82
636.985	8.62
637.316	8.44
637.647	8.4
637.977	8.71
638.308	9.18
638.639	8.2
638.969	8.41
639.3	8.49
639.63	8.37
639.961	8.71
640.291	8.87
640.622	9.02
640.952	8.87
641.282	9.36
641.612	9.03
641.943	9.08
642.273	9.06
642.603	9.42
642.933	8.8
643.263	8.99
643.592	8.87
643.922	8.63
644.252	8.98
644.582	9.18
644.911	8.67
645.241	9.21
645.571	8.98
645.9	8.69
646.23	9.17
646.559	9.4
646.888	9.03
647.218	9.11
647.547	9.9
647.876	8.94
648.205	9.11
648.534	9.3
648.863	9.12
649.192	9.28
649.521	9.69
649.85	8.81
650.179	9.34
650.508	9
650.837	8.98
651.165	9.08
651.494	9.24
651.822	9.87
652.151	9.28
652.479	9.34
652.808	9.08
653.136	9.75
653.465	9.28
653.793	9.2
654.121	9.66
654.449	9.78
654.777	10.02
655.105	10.35
655.433	9.12
655.761	9.75
656.089	9.9
656.417	9.8
656.745	9.29
657.073	9.35
657.4	10.54
657.728	10.13
658.056	9.7
658.383	9.9
658.711	10.2
659.038	10.14
659.365	10.14
659.693	9.69
660.02	9.86
660.347	9.97
660.674	10.17
661.001	10.18
661.329	9.66
661.656	10.19
661.982	10.16
662.309	10.08
662.636	10.44
662.963	10.56
663.29	10.39
663.616	10.29
663.943	9.94
664.27	9.9
664.596	10.66
664.923	10.44
665.249	10.24
665.576	10.25
665.902	11.19
666.228	10.6
666.554	10.84
666.881	10.33
667.207	9.98
667.533	11.08
667.859	11.03
668.185	11.07
668.511	10.36
668.837	9.49
669.162	10.25
669.488	10.57
669.814	10.43
670.139	11.21
670.465	11.21
670.791	10.91
671.116	11.32
671.442	10.21
671.767	10.82
672.092	11.45
672.418	11.06
672.743	11.39
673.068	10.42
673.393	10.97
673.718	10.56
674.043	10.95
674.368	10.94
674.693	11.84
675.018	11.49
675.343	10.7
675.667	11.32
675.992	11.58
676.317	11.32
676.641	11.78
676.966	11.95
677.29	10.89
677.615	11.8
677.939	11.76
678.264	11.76
678.588	11.49
678.912	11.22
679.236	11.73
679.56	11.52
679.885	12.02
680.209	11.72
680.532	11.07
680.856	12.12
681.18	11.49
681.504	12.22
681.828	11.57
682.152	11.25
682.475	11.48
682.799	11.57
683.122	11.86
683.446	11.13
683.769	11.54
684.093	11.46
684.416	12.52
684.739	11.82
685.062	11.46
685.386	11.85
685.709	11.95
686.032	11.9
686.355	12.91
686.678	11.53
687.001	11.97
687.324	12.26
687.646	11.95
687.969	12.09
688.292	12.59
688.614	12.64
688.937	12.61
689.26	11.93
689.582	12.56
689.904	12.79
690.227	12.18
