Data from 0416_chest_Reflection__1__47.txt Node

Date: Fri Dec 15 16:44:33 CST 2023
User: ToomeyLab
Spectrometer: FLMS14357
Trigger mode: 0
Integration Time (sec): 1.000000E-2
Scans to average: 100
Electric dark correction enabled: true
Nonlinearity correction enabled: false
Boxcar width: 0
XAxis mode: Wavelengths
Number of Pixels in Spectrum: 2048
>>>>>Begin Spectral Data<<<<<
189.047	-61.67
189.435	-61.67
189.823	-61.67
190.211	-229.39
190.599	-68.86
190.987	44.28
191.375	181.27
191.763	85.5
192.151	-48.55
192.538	198.73
192.926	11.42
193.314	87.94
193.702	-9.46
194.089	126.91
194.477	-87.88
194.864	288.28
195.252	99.52
195.639	107.35
196.027	-53.52
196.414	-329.97
196.801	72.29
197.189	482.55
197.576	-3.37
197.963	52.72
198.351	-16.13
198.738	-2.08
199.125	50.06
199.512	-1.21
199.899	56.36
200.286	74.72
200.673	13.77
201.06	39.37
201.447	9.06
201.833	84.81
202.22	40.87
202.607	49.59
202.994	-6.32
203.38	-4.8
203.767	46.27
204.154	38.22
204.54	36.58
204.927	-9.59
205.313	26.96
205.699	29.23
206.086	64.67
206.472	26.24
206.858	32.16
207.245	-0.98
207.631	28.28
208.017	51.39
208.403	7.37
208.789	35.88
209.175	33.86
209.561	-18.04
209.947	-24.35
210.333	14.1
210.719	23.29
211.105	54.56
211.491	-36.43
211.876	41.15
212.262	35.69
212.648	37.86
213.034	60.36
213.419	-6.89
213.805	33.33
214.19	-25.4
214.576	39.75
214.961	-16.38
215.346	-98.05
215.732	3.66
216.117	19.41
216.502	3.14
216.888	8.15
217.273	32.3
217.658	0.1
218.043	25.52
218.428	-8.17
218.813	-17.47
219.198	-21.41
219.583	50.55
219.968	30.68
220.353	10.37
220.738	37.51
221.122	14.37
221.507	8.93
221.892	-15.37
222.276	2.16
222.661	-11.7
223.046	11.29
223.43	19.73
223.815	16.65
224.199	-6.31
224.583	7.27
224.968	2.62
225.352	20.15
225.736	-6.14
226.121	-4.16
226.505	3.62
226.889	12.9
227.273	3.68
227.657	8.04
228.041	9.01
228.425	3.58
228.809	7.27
229.193	3.43
229.577	3.97
229.961	4.78
230.344	3.47
230.728	2.73
231.112	4.15
231.495	3.34
231.879	3.73
232.263	6
232.646	4.73
233.03	3.91
233.413	1.64
233.797	5.04
234.18	2.2
234.563	4.08
234.946	1.88
235.33	5.9
235.713	4.45
236.096	4.43
236.479	3.58
236.862	2.8
237.245	5.66
237.628	4.16
238.011	5.06
238.394	6.42
238.777	5.03
239.16	5.08
239.543	2.95
239.925	7.34
240.308	3.87
240.691	4.1
241.073	5.66
241.456	3.82
241.838	4.17
242.221	3.71
242.603	4.42
242.986	3.78
243.368	4.11
243.75	4.16
244.133	3.65
244.515	3.67
244.897	4.03
245.279	4.14
245.661	3.56
246.043	3.1
246.425	2.84
246.807	4.97
247.189	4.81
247.571	3.57
247.953	3.96
248.335	3.45
248.717	3.75
249.098	3.54
249.48	3.52
249.862	3.37
250.243	3.49
250.625	3.34
251.006	3.75
251.388	3.69
251.769	4.37
252.151	3.68
252.532	3.65
252.913	2.89
253.295	2.89
253.676	3.05
254.057	3.22
254.438	3.46
254.819	3.4
255.2	3.44
255.581	4.36
255.962	2.41
256.343	4.34
256.724	2.85
257.105	4.49
257.486	4.07
257.867	4.31
258.247	3.74
258.628	2.96
259.009	3.59
259.389	4.82
259.77	3.24
260.15	2.65
260.531	3.21
260.911	3.93
261.292	3.26
261.672	3.59
262.052	3.45
262.432	3.5
262.813	3.73
263.193	3.22
263.573	3.32
263.953	2.92
264.333	4.93
264.713	3.38
265.093	2.88
265.473	3.7
265.853	2.8
266.233	4.03
266.612	2.47
266.992	2.79
267.372	4.01
267.752	3.5
268.131	3.24
268.511	3.8
268.89	4.01
269.27	3.36
269.649	3.25
270.029	2.86
270.408	4.04
270.787	3.76
271.167	3.37
271.546	4.24
271.925	3.19
272.304	3.07
272.683	3.18
273.062	2.85
273.441	3.93
273.82	2.89
274.199	3.56
274.578	3.76
274.957	3.22
275.336	3.42
275.715	2.53
276.093	3.01
276.472	3.85
276.851	3.19
277.229	3.9
277.608	2.88
277.986	3.51
278.365	3.66
278.743	2.74
279.122	3.19
279.5	3.33
279.878	3.8
280.257	2.95
280.635	2.97
281.013	2.91
281.391	4.17
281.769	3.18
282.147	3.46
282.525	3.98
282.903	3.24
283.281	3.46
283.659	3.78
284.037	3.45
284.415	3.46
284.792	3.2
285.17	3.01
285.548	2.9
285.925	3.99
286.303	3.47
286.68	3.23
287.058	3.16
287.435	2.93
287.813	3.38
288.19	3.32
288.567	3.1
288.945	3.6
289.322	3.58
289.699	3.27
290.076	3.07
290.453	3.61
290.83	3.55
291.207	3.66
291.584	3.38
291.961	3.45
292.338	3.27
292.715	3.98
293.092	3.57
293.469	2.8
293.845	3.34
294.222	2.82
294.599	2.68
294.975	3.01
295.352	3.17
295.728	2.61
296.105	3.28
296.481	3.45
296.858	2.93
297.234	2.99
297.61	3.81
297.986	3.21
298.363	3.39
298.739	3.46
299.115	3.7
299.491	2.91
299.867	3.22
300.243	3.56
300.619	3.17
300.995	3.16
301.371	3.31
301.746	3.05
302.122	3.54
302.498	3.4
302.874	3.37
303.249	3.23
303.625	3.47
304	4.14
304.376	2.98
304.751	2.8
305.127	3.88
305.502	2.95
305.878	2.57
306.253	3.49
306.628	4.16
307.003	3.49
307.378	3.5
307.754	3.22
308.129	3.12
308.504	3.4
308.879	3.38
309.254	4.34
309.629	3.27
310.003	3.15
310.378	3.87
310.753	3.3
311.128	4.17
311.502	2.86
311.877	3.76
312.252	2.75
312.626	3.43
313.001	3.41
313.375	3.67
313.75	2.95
314.124	3.2
314.498	2.95
314.873	3.24
315.247	3.15
315.621	3.89
315.995	2.61
316.369	3.28
316.743	3.41
317.117	3.61
317.491	3.17
317.865	3.36
318.239	3.92
318.613	4.01
318.987	3.59
319.361	3.04
319.734	3.75
320.108	3.6
320.482	3.53
320.855	4.62
321.229	3.56
321.602	3.55
321.976	3.27
322.349	3.65
322.723	3.6
323.096	3.83
323.469	2.93
323.843	3.67
324.216	4.22
324.589	3.52
324.962	3.81
325.335	3.72
325.708	3.79
326.081	3.83
326.454	3.76
326.827	3.42
327.2	4.13
327.573	3.34
327.945	3.5
328.318	3.1
328.691	2.78
329.063	3.31
329.436	3.26
329.809	3.51
330.181	3.33
330.553	3.34
330.926	3.53
331.298	3.95
331.671	2.94
332.043	3.86
332.415	4.15
332.787	3.79
333.159	4.17
333.532	3.61
333.904	3.42
334.276	3.96
334.648	3.58
335.02	3.47
335.391	3.34
335.763	3.16
336.135	3.26
336.507	3.73
336.879	4.06
337.25	3.5
337.622	3.83
337.993	3.53
338.365	4.16
338.736	3.73
339.108	3.93
339.479	3.28
339.851	3.68
340.222	3.48
340.593	3.25
340.964	3.37
341.336	4.22
341.707	2.77
342.078	4.08
342.449	3.66
342.82	3.6
343.191	3.66
343.562	3.84
343.933	3.71
344.303	4.1
344.674	3.68
345.045	3.25
345.416	4.25
345.786	3.47
346.157	3.79
346.527	3.33
346.898	3.4
347.268	3.78
347.639	3.29
348.009	3.7
348.38	3.15
348.75	3.5
349.12	3.11
349.49	3.75
349.861	3.64
350.231	3.85
350.601	3.87
350.971	3.93
351.341	3.4
351.711	3.63
352.081	3.86
352.45	3.76
352.82	3.86
353.19	3.43
353.56	3.55
353.929	3.63
354.299	3.2
354.669	3.19
355.038	4.18
355.408	3.46
355.777	3.58
356.147	3.47
356.516	3.58
356.885	3.72
357.254	3.3
357.624	3.88
357.993	3.56
358.362	3.61
358.731	3.14
359.1	3.39
359.469	3.53
359.838	3.63
360.207	3.09
360.576	3.51
360.945	3.75
361.314	3.78
361.682	3.28
362.051	3.37
362.42	3.77
362.788	3.63
363.157	3.52
363.525	3.72
363.894	3.55
364.262	3.64
364.631	3.76
364.999	3.42
365.367	3.2
365.735	4.01
366.104	3.84
366.472	3.54
366.84	3.44
367.208	3.81
367.576	3.89
367.944	3.74
368.312	3.47
368.68	3.44
369.048	3.57
369.416	3.77
369.783	3.31
370.151	3.15
370.519	4.07
370.886	3.81
371.254	3.74
371.621	4.08
371.989	3.98
372.356	3.03
372.724	3.81
373.091	3.46
373.458	3.71
373.826	3.46
374.193	3.48
374.56	4.1
374.927	3.96
375.294	3.67
375.661	4.14
376.028	3.68
376.395	3.74
376.762	3.99
377.129	3.71
377.496	3.61
377.863	3.69
378.229	3.31
378.596	3.7
378.963	3.41
379.329	3.7
379.696	3.84
380.062	3.61
380.429	3.39
380.795	3.42
381.161	3.82
381.528	3.93
381.894	3.6
382.26	3.5
382.626	3.84
382.993	3.39
383.359	4.13
383.725	3.61
384.091	3.53
384.457	3.7
384.823	3.35
385.188	3.95
385.554	3.91
385.92	3.83
386.286	3.68
386.651	3.79
387.017	4.41
387.383	3.66
387.748	3.84
388.114	3.96
388.479	3.61
388.845	4.14
389.21	3.95
389.575	4.01
389.94	3.7
390.306	3.87
390.671	3.98
391.036	3.58
391.401	3.5
391.766	3.57
392.131	3.78
392.496	4.14
392.861	3.62
393.226	3.87
393.591	3.86
393.956	3.6
394.32	3.93
394.685	3.6
395.05	3.68
395.414	3.69
395.779	3.24
396.143	3.85
396.508	3.86
396.872	3.87
397.236	3.98
397.601	3.53
397.965	4.07
398.329	3.78
398.694	3.62
399.058	3.78
399.422	3.63
399.786	3.8
400.15	3.85
400.514	3.69
400.878	3.93
401.242	3.83
401.605	3.94
401.969	3.88
402.333	3.97
402.697	3.91
403.06	4.04
403.424	3.91
403.787	3.81
404.151	3.98
404.514	3.84
404.878	3.91
405.241	3.81
405.604	3.84
405.968	3.97
406.331	3.89
406.694	4.09
407.057	4.07
407.42	3.95
407.783	3.61
408.146	3.74
408.509	3.75
408.872	3.66
409.235	3.8
409.598	4.18
409.961	3.76
410.323	4.23
410.686	4.03
411.049	4.02
411.411	4.08
411.774	3.81
412.136	3.87
412.499	3.91
412.861	3.99
413.223	3.94
413.586	4.1
413.948	3.94
414.31	3.97
414.672	3.87
415.035	3.92
415.397	4.18
415.759	3.77
416.121	4.06
416.483	3.97
416.845	3.84
417.206	3.87
417.568	3.9
417.93	3.78
418.292	3.83
418.653	3.82
419.015	3.96
419.377	3.85
419.738	3.99
420.1	3.84
420.461	4.03
420.822	3.92
421.184	3.76
421.545	3.98
421.906	3.74
422.267	3.79
422.629	3.84
422.99	3.84
423.351	3.7
423.712	3.8
424.073	3.85
424.434	3.84
424.795	3.76
425.155	3.8
425.516	3.71
425.877	3.86
426.238	3.74
426.598	3.92
426.959	3.79
427.32	3.81
427.68	3.81
428.041	3.92
428.401	3.81
428.761	3.99
429.122	3.9
429.482	3.75
429.842	4.06
430.202	3.95
430.563	3.77
430.923	3.71
431.283	3.91
431.643	3.89
432.003	3.59
432.363	3.88
432.722	3.88
433.082	3.81
433.442	3.91
433.802	3.94
434.161	3.79
434.521	4.07
434.881	3.88
435.24	3.73
435.6	4
435.959	3.94
436.319	4.05
436.678	4.05
437.037	3.97
437.396	4.23
437.756	3.94
438.115	3.94
438.474	4.15
438.833	3.82
439.192	3.83
439.551	4.04
439.91	3.78
440.269	3.85
440.628	3.72
440.987	3.9
441.345	3.68
441.704	3.89
442.063	3.72
442.421	3.99
442.78	3.84
443.138	3.9
443.497	3.93
443.855	3.76
444.214	4.05
444.572	4.1
444.93	4.05
445.288	4.12
445.647	4.02
446.005	3.98
446.363	4.03
446.721	4.1
447.079	3.9
447.437	3.95
447.795	3.92
448.153	3.79
448.51	3.92
448.868	3.9
449.226	3.96
449.584	3.92
449.941	4.06
450.299	4.11
450.656	3.99
451.014	4.06
451.371	4.06
451.729	3.87
452.086	4.22
452.443	3.94
452.801	4.25
453.158	3.95
453.515	3.97
453.872	4.15
454.229	3.92
454.586	3.94
454.943	4
455.3	4
455.657	3.98
456.014	4.08
456.371	4.02
456.727	4.24
457.084	4.29
457.441	4.09
457.797	4.1
458.154	4.12
458.51	4.18
458.867	4.21
459.223	4.32
459.58	4.09
459.936	4.11
460.292	4.07
460.648	4.07
461.005	4.07
461.361	3.98
461.717	3.89
462.073	3.81
462.429	4.07
462.785	4.03
463.141	4.17
463.496	4.17
463.852	4.11
464.208	4.19
464.564	4.16
464.919	4.06
465.275	4.15
465.631	4.46
465.986	3.89
466.342	4.16
466.697	3.9
467.052	4.12
467.408	4.29
467.763	4.15
468.118	4.17
468.473	4
468.829	4.15
469.184	4.1
469.539	4.19
469.894	4.14
470.249	4.32
470.603	4.24
470.958	4.41
471.313	4.33
471.668	4.22
472.023	4.19
472.377	4.21
472.732	4.2
473.086	4.18
473.441	4.02
473.795	4.32
474.15	4.23
474.504	4.19
474.859	4.25
475.213	4.28
475.567	4.12
475.921	4
476.275	4.38
476.63	4.36
476.984	4.25
477.338	4.27
477.692	4.19
478.045	4.21
478.399	4.2
478.753	4.23
479.107	4.17
479.461	4.19
479.814	4.21
480.168	4.29
480.521	4.25
480.875	4.37
481.228	4.36
481.582	4.2
481.935	4.28
482.289	4.25
482.642	4.34
482.995	4.22
483.348	4.19
483.701	4.24
484.055	4.19
484.408	4.29
484.761	4.05
485.114	4.01
485.466	3.92
485.819	3.94
486.172	3.94
486.525	4.03
486.878	4.08
487.23	4.11
487.583	4.17
487.936	4.22
488.288	4.09
488.641	4.15
488.993	4.05
489.345	4
489.698	4
490.05	4.07
490.402	4.12
490.754	4.16
491.107	4.22
491.459	4.32
491.811	4.28
492.163	4.33
492.515	4.28
492.866	4.24
493.218	4.11
493.57	4.12
493.922	4.16
494.274	4.25
494.625	4.33
494.977	4.4
495.328	4.42
495.68	4.5
496.031	4.53
496.383	4.31
496.734	4.6
497.086	4.56
497.437	4.44
497.788	4.38
498.139	4.35
498.49	4.44
498.842	4.38
499.193	4.35
499.544	4.33
499.894	4.42
500.245	4.41
500.596	4.4
500.947	4.55
501.298	4.43
501.648	4.53
501.999	4.69
502.35	4.47
502.7	4.53
503.051	4.3
503.401	4.52
503.752	4.62
504.102	4.5
504.452	4.59
504.803	4.34
505.153	4.6
505.503	4.49
505.853	4.55
506.203	4.47
506.553	4.39
506.903	4.53
507.253	4.49
507.603	4.63
507.953	4.58
508.303	4.69
508.652	4.54
509.002	4.59
509.352	4.54
509.701	4.55
510.051	4.53
510.4	4.44
510.75	4.63
511.099	4.65
511.449	4.54
511.798	4.64
512.147	4.66
512.496	4.51
512.846	4.53
513.195	4.6
513.544	4.63
513.893	4.67
514.242	4.54
514.591	4.7
514.939	4.5
515.288	4.55
515.637	4.73
515.986	4.67
516.334	4.83
516.683	4.68
517.032	4.86
517.38	4.82
517.729	4.72
518.077	4.63
518.426	4.75
518.774	4.89
519.122	4.7
519.47	4.65
519.819	4.6
520.167	4.65
520.515	4.62
520.863	4.66
521.211	4.73
521.559	4.73
521.907	4.68
522.255	4.69
522.602	4.65
522.95	4.83
523.298	4.81
523.645	4.9
523.993	4.79
524.341	5
524.688	5
525.036	4.8
525.383	4.84
525.73	4.95
526.078	4.95
526.425	4.76
526.772	4.9
527.119	4.84
527.466	4.7
527.814	4.8
528.161	4.82
528.508	4.81
528.854	4.8
529.201	4.75
529.548	4.79
529.895	4.68
530.242	4.61
530.588	4.56
530.935	4.74
531.282	4.71
531.628	4.76
531.975	4.9
532.321	4.93
532.667	4.95
533.014	4.92
533.36	4.93
533.706	4.93
534.052	4.9
534.399	4.87
534.745	4.86
535.091	4.85
535.437	4.91
535.783	5
536.129	4.93
536.474	5.05
536.82	5.08
537.166	5.15
537.512	5.2
537.857	5.11
538.203	5.07
538.549	5.03
538.894	5.04
539.239	5.07
539.585	5.11
539.93	5.12
540.276	5.27
540.621	5.3
540.966	5.15
541.311	5.04
541.656	5.23
542.001	5.26
542.346	5.22
542.691	5.08
543.036	5.06
543.381	4.97
543.726	5.04
544.071	5.19
544.415	5.21
544.76	5.16
545.105	5.27
545.449	5.28
545.794	5.32
546.138	5.3
546.483	5.41
546.827	5.38
547.171	5.35
547.516	5.51
547.86	5.33
548.204	5.38
548.548	5.38
548.892	5.45
549.236	5.38
549.58	5.36
549.924	5.53
550.268	5.68
550.612	5.69
550.956	5.81
551.3	5.58
551.643	5.79
551.987	5.72
552.33	5.77
552.674	5.68
553.017	5.69
553.361	5.63
553.704	5.74
554.048	5.7
554.391	5.68
554.734	5.7
555.077	5.73
555.42	5.69
555.764	5.8
556.107	5.69
556.45	5.66
556.793	5.66
557.135	5.81
557.478	5.94
557.821	5.9
558.164	5.82
558.507	6.02
558.849	5.88
559.192	5.9
559.534	5.9
559.877	5.87
560.219	5.73
560.562	6.22
560.904	6.14
561.246	6.15
561.589	5.99
561.931	6.04
562.273	5.86
562.615	6.33
562.957	6.02
563.299	5.79
563.641	6.13
563.983	6.4
564.325	6.13
564.667	6.2
565.008	6.4
565.35	6.39
565.692	6.22
566.033	6.16
566.375	6.41
566.716	6.26
567.058	6.29
567.399	6.26
567.741	6.14
568.082	6.33
568.423	6.34
568.764	6.32
569.105	6.45
569.447	6.36
569.788	6.44
570.129	6.62
570.47	6.44
570.811	6.62
571.151	6.49
571.492	6.55
571.833	6.49
572.174	6.35
572.514	6.68
572.855	6.64
573.195	6.55
573.536	6.66
573.876	6.37
574.217	6.45
574.557	6.67
574.898	6.84
575.238	6.6
575.578	6.67
575.918	6.95
576.258	6.73
576.598	6.68
576.938	6.87
577.278	6.77
577.618	6.92
577.958	6.79
578.298	6.81
578.638	6.87
578.977	6.99
579.317	6.93
579.657	6.91
579.996	7.05
580.336	6.94
580.675	6.98
581.014	7.04
581.354	7.08
581.693	7.18
582.032	7.11
582.372	7.08
582.711	6.98
583.05	6.99
583.389	7.14
583.728	7.22
584.067	7.28
584.406	7.39
584.745	7.29
585.083	7.41
585.422	7.58
585.761	7.59
586.1	7.54
586.438	7.37
586.777	7.66
587.115	7.85
587.454	7.32
587.792	7.54
588.13	7.82
588.469	7.6
588.807	7.52
589.145	7.47
589.483	7.66
589.821	7.68
590.159	7.57
590.497	7.98
590.835	8.03
591.173	7.67
591.511	8.02
591.849	7.77
592.187	7.87
592.524	7.91
592.862	7.74
593.2	8.15
593.537	8.04
593.875	7.97
594.212	7.94
594.55	7.83
594.887	8.03
595.224	7.97
595.561	8.37
595.899	8.27
596.236	8.05
596.573	8.41
596.91	7.83
597.247	8.26
597.584	8.44
597.921	8.24
598.258	8.19
598.594	7.97
598.931	8.02
599.268	8.2
599.604	8.16
599.941	8.43
600.277	8.21
600.614	8.17
600.95	8.18
601.287	8.56
601.623	8.57
601.959	8.4
602.296	8.3
602.632	8.44
602.968	8.38
603.304	8.46
603.64	8.76
603.976	8.67
604.312	8.48
604.648	8.62
604.984	8.69
605.319	8.65
605.655	8.67
605.991	8.76
606.326	8.54
606.662	8.65
606.998	8.72
607.333	8.95
607.668	8.72
608.004	8.85
608.339	8.96
608.674	9
609.01	9.07
609.345	8.93
609.68	9.11
610.015	9.01
610.35	8.97
610.685	8.94
611.02	9.04
611.355	9.12
611.689	9.04
612.024	9.22
612.359	9.12
612.694	9.14
613.028	9.12
613.363	9.24
613.697	9.43
614.032	9.3
614.366	9.28
614.7	9.6
615.035	9.86
615.369	9.37
615.703	9.22
616.037	9.66
616.371	9.47
616.705	9.64
617.039	9.48
617.373	9.39
617.707	9.41
618.041	9.57
618.375	9.94
618.709	10.12
619.042	9.63
619.376	9.82
619.71	9.63
620.043	9.79
620.377	9.89
620.71	10.05
621.043	9.97
621.377	9.88
621.71	9.81
622.043	9.92
622.376	9.7
622.709	10.04
623.043	10.12
623.376	9.86
623.709	10.24
624.041	10.49
624.374	10.03
624.707	10.37
625.04	10.55
625.373	10.04
625.705	10.24
626.038	10.15
626.37	10.31
626.703	10.61
627.035	10.33
627.368	10.57
627.7	10.41
628.032	10.22
628.365	10.38
628.697	10.49
629.029	10.34
629.361	10.47
629.693	10.52
630.025	10.37
630.357	10.82
630.689	10.85
631.021	10.69
631.353	11.05
631.684	10.35
632.016	10.72
632.348	11.06
632.679	11.06
633.011	10.91
633.342	11.35
633.674	11.09
634.005	11.34
634.336	10.72
634.668	11.4
634.999	10.85
635.33	11.29
635.661	11.27
635.992	10.86
636.323	11.03
636.654	11.6
636.985	11.55
637.316	11.38
637.647	10.85
637.977	11.2
638.308	11.78
638.639	10.81
638.969	11.28
639.3	11.06
639.63	10.88
639.961	11.38
640.291	11.38
640.622	11.71
640.952	11.31
641.282	12.15
641.612	11.8
641.943	11.53
642.273	11.93
642.603	12.3
642.933	11.91
643.263	11.94
643.592	11.79
643.922	11.85
644.252	11.37
644.582	11.99
644.911	11.4
645.241	11.61
645.571	11.89
645.9	11.57
646.23	12.19
646.559	11.87
646.888	11.74
647.218	11.9
647.547	12.05
647.876	12.28
648.205	12.18
648.534	12.07
648.863	11.59
649.192	12.38
649.521	12.47
649.85	11.99
650.179	12.51
650.508	12.74
650.837	12.1
651.165	12.25
651.494	12.07
651.822	12.32
652.151	12.46
652.479	12.57
652.808	12.21
653.136	12.49
653.465	11.91
653.793	12.22
654.121	12.3
654.449	12.54
654.777	12.55
655.105	13.38
655.433	12.42
655.761	12.23
656.089	12.77
656.417	12.96
656.745	12.52
657.073	12.69
657.4	13.32
657.728	12.76
658.056	12.91
658.383	13.18
658.711	12.99
659.038	13.29
659.365	12.91
659.693	13.33
660.02	12.78
660.347	13.35
660.674	13.19
661.001	13.16
661.329	12.47
661.656	13.17
661.982	13.21
662.309	13.37
662.636	12.71
662.963	13.71
663.29	13.35
663.616	13.46
663.943	12.8
664.27	13.23
664.596	13.71
664.923	13.27
665.249	14.21
665.576	13.22
665.902	14.04
666.228	13.41
666.554	14.03
666.881	13.27
667.207	13.74
667.533	14.13
667.859	13.87
668.185	14.22
668.511	13.15
668.837	12.53
669.162	13.89
669.488	13.17
669.814	14.76
670.139	14.32
670.465	14.02
670.791	14.04
671.116	14.79
671.442	14.16
671.767	14.68
672.092	14.57
672.418	14.14
672.743	14.26
673.068	14.03
673.393	14.37
673.718	14.92
674.043	14.7
674.368	13.95
674.693	14.76
675.018	14.3
675.343	14.34
675.667	14.57
675.992	14.86
676.317	15.12
676.641	14.37
676.966	14.49
677.29	14.84
677.615	14.44
677.939	15.06
678.264	15.25
678.588	14.56
678.912	14.22
679.236	15.07
679.56	14.92
679.885	15.24
680.209	15
680.532	14.59
680.856	14.99
681.18	15.15
681.504	14.92
681.828	15.31
682.152	14.64
682.475	15.14
682.799	14.71
683.122	15.08
683.446	15.22
683.769	15.82
684.093	14.99
684.416	15.74
684.739	15.27
685.062	14.95
685.386	15.19
685.709	15.21
686.032	15.81
686.355	15.91
686.678	15.94
687.001	15.75
687.324	16.34
687.646	15.06
687.969	15.43
688.292	15.44
