Data from 0416_crown_Reflection__1__52.txt Node

Date: Fri Dec 15 16:47:07 CST 2023
User: ToomeyLab
Spectrometer: FLMS14357
Trigger mode: 0
Integration Time (sec): 1.000000E-2
Scans to average: 100
Electric dark correction enabled: true
Nonlinearity correction enabled: false
Boxcar width: 0
XAxis mode: Wavelengths
Number of Pixels in Spectrum: 2048
>>>>>Begin Spectral Data<<<<<
189.047	-59.68
189.435	-59.68
189.823	-59.68
190.211	-269.24
190.599	29.64
190.987	127.35
191.375	-86.25
191.763	1.1
192.151	-77.8
192.538	93.21
192.926	-104.32
193.314	14.99
193.702	39.74
194.089	44.18
194.477	-150.47
194.864	241.63
195.252	60.67
195.639	62.21
196.027	109.43
196.414	-20.38
196.801	428.84
197.189	651.34
197.576	125.64
197.963	11.62
198.351	-114.75
198.738	-12.09
199.125	56.06
199.512	18.6
199.899	32.52
200.286	36.55
200.673	6.56
201.06	-0.9
201.447	72.15
201.833	80.61
202.22	34.16
202.607	43.42
202.994	-0.66
203.38	52.29
203.767	10.38
204.154	80.19
204.54	42.82
204.927	24.38
205.313	21.17
205.699	33.26
206.086	37.13
206.472	21.7
206.858	19.98
207.245	-33.63
207.631	36.37
208.017	30.64
208.403	2.26
208.789	5.58
209.175	33.08
209.561	-29.48
209.947	7.31
210.333	-18.79
210.719	32.31
211.105	64.17
211.491	58.39
211.876	32.42
212.262	44.03
212.648	38.08
213.034	27.56
213.419	10.09
213.805	21.42
214.19	-14.36
214.576	12.84
214.961	-2.59
215.346	-21.22
215.732	13.58
216.117	9.01
216.502	-8.46
216.888	-10.66
217.273	31.83
217.658	16.84
218.043	19.72
218.428	-12.51
218.813	7.29
219.198	-0.05
219.583	23.57
219.968	29.45
220.353	-10.13
220.738	10.93
221.122	18.43
221.507	-4.71
221.892	-1.89
222.276	-3.7
222.661	21.83
223.046	14.89
223.43	20.77
223.815	11.73
224.199	6
224.583	3.77
224.968	5.56
225.352	17.41
225.736	6.66
226.121	5.52
226.505	17.01
226.889	10.79
227.273	5.22
227.657	15.6
228.041	10.74
228.425	14.08
228.809	12.01
229.193	10.38
229.577	8.1
229.961	7.97
230.344	8.63
230.728	9.04
231.112	9.36
231.495	8.16
231.879	7.71
232.263	9.35
232.646	10.22
233.03	7.42
233.413	8.1
233.797	8.94
234.18	8.82
234.563	8.1
234.946	7.51
235.33	7.73
235.713	9.02
236.096	8.07
236.479	8.97
236.862	7.52
237.245	9.71
237.628	8.04
238.011	10.87
238.394	10.79
238.777	9.21
239.16	5.44
239.543	8.42
239.925	8.85
240.308	7.52
240.691	9.75
241.073	9.54
241.456	6.78
241.838	8.65
242.221	8.25
242.603	9.59
242.986	8.13
243.368	8.47
243.75	7.83
244.133	8
244.515	8.2
244.897	7.81
245.279	8.7
245.661	7.54
246.043	7.04
246.425	6.81
246.807	8.56
247.189	8.77
247.571	8.47
247.953	8.24
248.335	7.44
248.717	7.84
249.098	7.83
249.48	7.87
249.862	7.69
250.243	7.98
250.625	7.52
251.006	7.36
251.388	6.63
251.769	8
252.151	7.95
252.532	7.56
252.913	7.99
253.295	7.85
253.676	7.87
254.057	7.56
254.438	7.37
254.819	7.3
255.2	6.63
255.581	7.66
255.962	7.87
256.343	6.96
256.724	7.17
257.105	8.93
257.486	6.97
257.867	7.66
258.247	7.98
258.628	6.96
259.009	7.48
259.389	7.79
259.77	6.93
260.15	7.22
260.531	6.57
260.911	7.88
261.292	7.19
261.672	7.59
262.052	7.17
262.432	7.34
262.813	7.34
263.193	6.8
263.573	7.47
263.953	6.73
264.333	7.63
264.713	7
265.093	7.46
265.473	7.25
265.853	6.02
266.233	7.86
266.612	6.14
266.992	6.1
267.372	7.6
267.752	6.99
268.131	7.58
268.511	7.24
268.89	7.24
269.27	6.85
269.649	6.43
270.029	6.55
270.408	7.6
270.787	7.41
271.167	7.58
271.546	6.83
271.925	6.29
272.304	7.38
272.683	6.98
273.062	7.1
273.441	6.88
273.82	6.29
274.199	7.16
274.578	6.5
274.957	6.76
275.336	6.88
275.715	5.94
276.093	6.56
276.472	6.9
276.851	6.38
277.229	6.89
277.608	6.43
277.986	6.97
278.365	6.89
278.743	6
279.122	6.85
279.5	6.87
279.878	7.33
280.257	6.66
280.635	5.91
281.013	6.58
281.391	6.78
281.769	6.82
282.147	6.79
282.525	7.7
282.903	6.48
283.281	6.81
283.659	6.81
284.037	7.17
284.415	6.5
284.792	6.92
285.17	5.96
285.548	6.02
285.925	6.62
286.303	6.46
286.68	6.05
287.058	6.52
287.435	6.41
287.813	6.19
288.19	6.25
288.567	6.03
288.945	6.91
289.322	6.14
289.699	6.71
290.076	5.99
290.453	6.22
290.83	5.94
291.207	5.93
291.584	6.5
291.961	6.07
292.338	6.33
292.715	6.39
293.092	6.06
293.469	5.65
293.845	5.95
294.222	5
294.599	6.3
294.975	5.78
295.352	6.52
295.728	5.91
296.105	6.17
296.481	6.43
296.858	5.73
297.234	5.43
297.61	5.89
297.986	6.17
298.363	6.11
298.739	5.98
299.115	5.6
299.491	5.51
299.867	5.87
300.243	6.12
300.619	5.28
300.995	5.88
301.371	5.79
301.746	5.71
302.122	5.89
302.498	5.78
302.874	5.73
303.249	5.63
303.625	5.95
304	5.77
304.376	5.64
304.751	4.92
305.127	5.79
305.502	5.04
305.878	4.9
306.253	5.73
306.628	6.26
307.003	5.74
307.378	5.66
307.754	5.63
308.129	5.27
308.504	5.4
308.879	5.22
309.254	6.64
309.629	6.16
310.003	5.25
310.378	5.77
310.753	5.5
311.128	5.63
311.502	5.42
311.877	5.71
312.252	5.36
312.626	5.47
313.001	5.26
313.375	5.77
313.75	4.71
314.124	5.47
314.498	5.43
314.873	5.53
315.247	5.07
315.621	5.14
315.995	4.42
316.369	4.8
316.743	4.99
317.117	5.63
317.491	4.99
317.865	4.98
318.239	5.37
318.613	4.98
318.987	5.79
319.361	4.57
319.734	5.41
320.108	5.08
320.482	4.85
320.855	5.15
321.229	5.5
321.602	5.15
321.976	5.39
322.349	4.88
322.723	4.86
323.096	5.62
323.469	4.66
323.843	5.17
324.216	5.13
324.589	4.88
324.962	5
325.335	5.11
325.708	4.65
326.081	4.75
326.454	5.5
326.827	4.79
327.2	4.7
327.573	5.14
327.945	5.32
328.318	4.85
328.691	4.36
329.063	4.79
329.436	4.72
329.809	5.26
330.181	5.18
330.553	4.13
330.926	4.84
331.298	4.99
331.671	5
332.043	5.62
332.415	5.38
332.787	5.25
333.159	5.72
333.532	5.81
333.904	5.26
334.276	4.87
334.648	5.58
335.02	4.52
335.391	4.91
335.763	5.35
336.135	5.29
336.507	5.54
336.879	4.78
337.25	4.36
337.622	4.99
337.993	5.22
338.365	5.45
338.736	5.12
339.108	5.05
339.479	5.41
339.851	4.68
340.222	5.31
340.593	4.93
340.964	4.28
341.336	5.56
341.707	4.83
342.078	5.71
342.449	4.75
342.82	4.9
343.191	4.92
343.562	4.99
343.933	4.82
344.303	4.84
344.674	4.88
345.045	4.6
345.416	5.3
345.786	4.53
346.157	4.91
346.527	4.54
346.898	4.65
347.268	5.33
347.639	5.24
348.009	4.9
348.38	4.52
348.75	4.9
349.12	4.96
349.49	5.39
349.861	4.71
350.231	4.86
350.601	5.27
350.971	5.11
351.341	4.97
351.711	4.87
352.081	4.89
352.45	4.86
352.82	5.27
353.19	4.49
353.56	4.82
353.929	4.98
354.299	5.35
354.669	4.72
355.038	5.41
355.408	4.93
355.777	5.17
356.147	4.93
356.516	5.31
356.885	5.07
357.254	4.61
357.624	5.44
357.993	5.1
358.362	4.76
358.731	4.92
359.1	4.97
359.469	5.09
359.838	5.04
360.207	4.83
360.576	5.11
360.945	4.87
361.314	5.69
361.682	4.79
362.051	5.14
362.42	5.07
362.788	5.23
363.157	5.05
363.525	5.38
363.894	5.13
364.262	5.19
364.631	5.06
364.999	5.26
365.367	4.94
365.735	5.97
366.104	5.24
366.472	5.47
366.84	4.9
367.208	4.89
367.576	5.22
367.944	5.53
368.312	5.05
368.68	4.97
369.048	5.25
369.416	5.21
369.783	5.04
370.151	5.41
370.519	5.7
370.886	5.41
371.254	5.13
371.621	5.27
371.989	5.77
372.356	4.66
372.724	5.24
373.091	5.3
373.458	5.28
373.826	5.43
374.193	4.92
374.56	5.35
374.927	5.27
375.294	5.19
375.661	5.13
376.028	5.23
376.395	5.11
376.762	5.53
377.129	5.5
377.496	5.21
377.863	5.55
378.229	4.85
378.596	5.45
378.963	4.96
379.329	5.09
379.696	5.35
380.062	5.13
380.429	5.26
380.795	5.27
381.161	5.18
381.528	5.42
381.894	5.58
382.26	5.17
382.626	5.33
382.993	5.04
383.359	5.51
383.725	5.1
384.091	5.16
384.457	5.3
384.823	5.59
385.188	5.33
385.554	5.32
385.92	5.41
386.286	5.74
386.651	5.46
387.017	5.62
387.383	5.74
387.748	5.34
388.114	5.52
388.479	5.34
388.845	5.77
389.21	5.55
389.575	5.47
389.94	5.65
390.306	5.72
390.671	5.67
391.036	5.21
391.401	5.18
391.766	5.52
392.131	5.27
392.496	5.83
392.861	5.35
393.226	5.64
393.591	5.66
393.956	5.38
394.32	5.43
394.685	5.2
395.05	5.21
395.414	5.54
395.779	5.23
396.143	5.49
396.508	5.45
396.872	5.67
397.236	5.68
397.601	5.46
397.965	5.52
398.329	5.93
398.694	5.72
399.058	5.63
399.422	5.3
399.786	5.85
400.15	5.79
400.514	5.56
400.878	5.79
401.242	5.84
401.605	5.73
401.969	5.64
402.333	5.65
402.697	5.86
403.06	5.58
403.424	5.77
403.787	5.59
404.151	5.97
404.514	5.62
404.878	5.6
405.241	5.94
405.604	5.64
405.968	5.88
406.331	5.76
406.694	5.95
407.057	5.64
407.42	5.91
407.783	5.63
408.146	5.88
408.509	5.66
408.872	5.63
409.235	5.83
409.598	6.06
409.961	5.88
410.323	6.01
410.686	5.82
411.049	5.65
411.411	5.79
411.774	5.78
412.136	5.79
412.499	5.82
412.861	5.84
413.223	5.84
413.586	5.54
413.948	5.82
414.31	5.87
414.672	5.79
415.035	5.87
415.397	6.17
415.759	5.9
416.121	6.05
416.483	5.91
416.845	5.8
417.206	5.87
417.568	5.84
417.93	5.67
418.292	5.83
418.653	5.84
419.015	5.93
419.377	5.78
419.738	5.93
420.1	5.8
420.461	5.97
420.822	5.92
421.184	5.82
421.545	5.84
421.906	5.78
422.267	5.83
422.629	5.77
422.99	5.77
423.351	5.86
423.712	5.94
424.073	5.91
424.434	5.73
424.795	5.82
425.155	5.86
425.516	5.72
425.877	5.89
426.238	5.89
426.598	5.84
426.959	5.87
427.32	5.86
427.68	5.88
428.041	5.94
428.401	5.96
428.761	5.94
429.122	6.01
429.482	6
429.842	6.11
430.202	6.07
430.563	6.13
430.923	5.88
431.283	6.08
431.643	5.95
432.003	6.06
432.363	6.02
432.722	6.24
433.082	6.15
433.442	5.86
433.802	5.98
434.161	6.12
434.521	6.24
434.881	6.15
435.24	5.93
435.6	6
435.959	6.03
436.319	6.08
436.678	6.03
437.037	5.88
437.396	6.25
437.756	6.12
438.115	6.11
438.474	6.41
438.833	5.92
439.192	6.02
439.551	6.34
439.91	6.28
440.269	6.28
440.628	6.1
440.987	6.2
441.345	5.99
441.704	6.1
442.063	6.06
442.421	5.99
442.78	6.07
443.138	6.11
443.497	6.05
443.855	6.14
444.214	6.21
444.572	6.12
444.93	6.25
445.288	6.3
445.647	6.31
446.005	6.15
446.363	6.28
446.721	6.21
447.079	6.01
447.437	6.14
447.795	6.22
448.153	6.11
448.51	6.13
448.868	6.18
449.226	6.14
449.584	6.12
449.941	6.29
450.299	6.22
450.656	6.28
451.014	6.36
451.371	6.27
451.729	6.16
452.086	6.48
452.443	6.21
452.801	6.27
453.158	6.26
453.515	6.17
453.872	6.27
454.229	6.08
454.586	6.29
454.943	6.22
455.3	6.27
455.657	6.23
456.014	6.29
456.371	6.26
456.727	6.3
457.084	6.39
457.441	6.24
457.797	6.47
458.154	6.52
458.51	6.3
458.867	6.6
459.223	6.5
459.58	6.36
459.936	6.36
460.292	6.47
460.648	6.31
461.005	6.48
461.361	6.42
461.717	6.2
462.073	6.26
462.429	6.28
462.785	6.36
463.141	6.35
463.496	6.31
463.852	6.45
464.208	6.46
464.564	6.72
464.919	6.45
465.275	6.5
465.631	6.54
465.986	6.33
466.342	6.54
466.697	6.4
467.052	6.55
467.408	6.44
467.763	6.56
468.118	6.55
468.473	6.48
468.829	6.41
469.184	6.36
469.539	6.54
469.894	6.32
470.249	6.64
470.603	6.61
470.958	6.44
471.313	6.78
471.668	6.62
472.023	6.59
472.377	6.48
472.732	6.48
473.086	6.41
473.441	6.56
473.795	6.67
474.15	6.46
474.504	6.59
474.859	6.57
475.213	6.39
475.567	6.5
475.921	6.47
476.275	6.6
476.63	6.58
476.984	6.65
477.338	6.68
477.692	6.46
478.045	6.47
478.399	6.53
478.753	6.61
479.107	6.38
479.461	6.66
479.814	6.47
480.168	6.63
480.521	6.47
480.875	6.44
481.228	6.68
481.582	6.6
481.935	6.44
482.289	6.58
482.642	6.54
482.995	6.53
483.348	6.29
483.701	6.48
484.055	6.59
484.408	6.56
484.761	6.41
485.114	6.35
485.466	6.19
485.819	6.2
486.172	6.14
486.525	6.19
486.878	6.21
487.23	6.24
487.583	6.37
487.936	6.42
488.288	6.46
488.641	6.45
488.993	6.3
489.345	6.24
489.698	6.28
490.05	6.2
490.402	6.25
490.754	6.32
491.107	6.4
491.459	6.44
491.811	6.5
492.163	6.56
492.515	6.43
492.866	6.5
493.218	6.41
493.57	6.36
493.922	6.25
494.274	6.39
494.625	6.43
494.977	6.46
495.328	6.42
495.68	6.58
496.031	6.69
496.383	6.64
496.734	6.66
497.086	6.75
497.437	6.63
497.788	6.64
498.139	6.56
498.49	6.65
498.842	6.44
499.193	6.63
499.544	6.42
499.894	6.51
500.245	6.61
500.596	6.58
500.947	6.66
501.298	6.57
501.648	6.59
501.999	6.71
502.35	6.61
502.7	6.62
503.051	6.59
503.401	6.65
503.752	6.66
504.102	6.52
504.452	6.78
504.803	6.6
505.153	6.67
505.503	6.61
505.853	6.65
506.203	6.66
506.553	6.51
506.903	6.54
507.253	6.56
507.603	6.52
507.953	6.66
508.303	6.64
508.652	6.41
509.002	6.63
509.352	6.57
509.701	6.65
510.051	6.67
510.4	6.53
510.75	6.52
511.099	6.56
511.449	6.53
511.798	6.56
512.147	6.62
512.496	6.44
512.846	6.65
513.195	6.53
513.544	6.48
513.893	6.62
514.242	6.51
514.591	6.75
514.939	6.6
515.288	6.47
515.637	6.67
515.986	6.55
516.334	6.71
516.683	6.59
517.032	6.58
517.38	6.59
517.729	6.54
518.077	6.43
518.426	6.69
518.774	6.68
519.122	6.51
519.47	6.51
519.819	6.34
520.167	6.47
520.515	6.49
520.863	6.47
521.211	6.43
521.559	6.54
521.907	6.45
522.255	6.47
522.602	6.42
522.95	6.61
523.298	6.6
523.645	6.72
523.993	6.52
524.341	6.63
524.688	6.63
525.036	6.48
525.383	6.51
525.73	6.64
526.078	6.52
526.425	6.3
526.772	6.51
527.119	6.44
527.466	6.55
527.814	6.5
528.161	6.45
528.508	6.37
528.854	6.46
529.201	6.38
529.548	6.35
529.895	6.25
530.242	6.24
530.588	6.19
530.935	6.17
531.282	6.16
531.628	6.17
531.975	6.24
532.321	6.38
532.667	6.35
533.014	6.4
533.36	6.34
533.706	6.43
534.052	6.47
534.399	6.34
534.745	6.32
535.091	6.29
535.437	6.29
535.783	6.23
536.129	6.21
536.474	6.29
536.82	6.28
537.166	6.37
537.512	6.41
537.857	6.42
538.203	6.45
538.549	6.25
538.894	6.31
539.239	6.4
539.585	6.29
539.93	6.27
540.276	6.4
540.621	6.47
540.966	6.32
541.311	6.38
541.656	6.37
542.001	6.45
542.346	6.52
542.691	6.26
543.036	6.25
543.381	6.16
543.726	6.12
544.071	6.3
544.415	6.24
544.76	6.23
545.105	6.29
545.449	6.25
545.794	6.41
546.138	6.31
546.483	6.32
546.827	6.38
547.171	6.4
547.516	6.55
547.86	6.33
548.204	6.26
548.548	6.29
548.892	6.45
549.236	6.35
549.58	6.3
549.924	6.28
550.268	6.36
550.612	6.33
550.956	6.59
551.3	6.41
551.643	6.41
551.987	6.64
552.33	6.45
552.674	6.47
553.017	6.55
553.361	6.26
553.704	6.65
554.048	6.38
554.391	6.33
554.734	6.37
555.077	6.41
555.42	6.15
555.764	6.3
556.107	6.05
556.45	6.31
556.793	6.25
557.135	6.47
557.478	6.41
557.821	6.48
558.164	6.24
558.507	6.38
558.849	6.38
559.192	6.38
559.534	6.3
559.877	6.44
560.219	6.32
560.562	6.63
560.904	6.48
561.246	6.43
561.589	6.19
561.931	6.34
562.273	6.26
562.615	6.54
562.957	6.18
563.299	6.29
563.641	6.25
563.983	6.29
564.325	6.24
564.667	6.17
565.008	6.37
565.35	6.32
565.692	6.15
566.033	6.22
566.375	6.34
566.716	6.56
567.058	6.25
567.399	6.33
567.741	6.07
568.082	6.41
568.423	6.31
568.764	6.19
569.105	6.29
569.447	6.35
569.788	6.15
570.129	6.35
570.47	6.27
570.811	6.28
571.151	6.33
571.492	6.39
571.833	6.1
572.174	6.17
572.514	6.23
572.855	6.24
573.195	6.27
573.536	6.32
573.876	6.16
574.217	6.13
574.557	6.32
574.898	6.43
575.238	6.2
575.578	6.03
575.918	6.27
576.258	6.37
576.598	6.2
576.938	6.25
577.278	6.23
577.618	6.09
577.958	5.93
578.298	6.19
578.638	6.05
578.977	6.12
579.317	6.07
579.657	6.24
579.996	6.05
580.336	6.23
580.675	6.33
581.014	6.29
581.354	6.21
581.693	6.32
582.032	6.06
582.372	6.21
582.711	6.44
583.05	6.03
583.389	6.36
583.728	5.88
584.067	6.27
584.406	6.1
584.745	6.09
585.083	6.27
585.422	6.32
585.761	6.25
586.1	6.07
586.438	6.08
586.777	6.29
587.115	6.37
587.454	6.16
587.792	6.08
588.13	6.24
588.469	5.93
588.807	6.04
589.145	5.88
589.483	6.09
589.821	6.05
590.159	6.22
590.497	6.18
590.835	6.15
591.173	5.82
591.511	6.22
591.849	6.15
592.187	6.16
592.524	5.91
592.862	6.07
593.2	6.07
593.537	6.07
593.875	6
594.212	6.03
594.55	5.92
594.887	6.19
595.224	5.8
595.561	6.06
595.899	6.09
596.236	6.02
596.573	6.33
596.91	5.83
597.247	5.74
597.584	5.94
597.921	6.17
598.258	5.8
598.594	5.93
598.931	6
599.268	6.08
599.604	5.87
599.941	5.87
600.277	6.02
600.614	5.83
600.95	5.92
601.287	6.06
601.623	6.11
601.959	6.14
602.296	6.21
602.632	5.88
602.968	5.72
603.304	6.25
603.64	5.94
603.976	5.98
604.312	5.92
604.648	5.82
604.984	6.04
605.319	5.92
605.655	6.05
605.991	6.02
606.326	5.83
606.662	5.77
606.998	5.84
607.333	5.85
607.668	5.84
608.004	6.08
608.339	6.42
608.674	5.95
609.01	5.87
609.345	5.86
609.68	6.05
610.015	5.69
610.35	5.76
610.685	5.94
611.02	5.99
611.355	5.89
611.689	5.84
612.024	5.98
612.359	5.68
612.694	5.74
613.028	5.74
613.363	5.87
613.697	5.78
614.032	6.13
614.366	5.85
614.7	6.13
615.035	5.95
615.369	6.06
615.703	5.5
616.037	6.16
616.371	5.62
616.705	5.54
617.039	5.73
617.373	6.02
617.707	5.7
618.041	5.84
618.375	5.67
618.709	5.92
619.042	5.56
619.376	5.73
619.71	6.16
620.043	6.15
620.377	6
620.71	6.07
621.043	5.68
621.377	5.98
621.71	5.95
622.043	5.82
622.376	5.72
622.709	6.18
623.043	6.16
623.376	6.05
623.709	5.85
624.041	6.23
624.374	6.03
624.707	5.82
625.04	5.85
625.373	5.7
625.705	6.02
626.038	5.5
626.37	5.69
626.703	5.73
627.035	5.89
627.368	6.12
627.7	5.51
628.032	5.64
628.365	6.14
628.697	5.62
629.029	5.78
629.361	5.93
629.693	5.88
630.025	5.73
630.357	5.99
630.689	5.75
631.021	5.39
631.353	5.7
631.684	5.82
632.016	5.59
632.348	5.85
632.679	5.75
633.011	5.93
633.342	6.13
633.674	5.67
634.005	6.04
634.336	5.82
634.668	6.14
634.999	5.64
635.33	6.12
635.661	5.93
635.992	5.47
636.323	5.64
636.654	6.09
636.985	5.6
637.316	5.62
637.647	5.52
637.977	6.17
638.308	5.98
638.639	5.41
638.969	5.63
639.3	5.53
639.63	5.43
639.961	5.82
640.291	5.47
640.622	5.89
640.952	5.9
641.282	6.17
641.612	6.13
641.943	5.47
642.273	5.36
642.603	5.91
642.933	6.09
643.263	5.93
643.592	5.5
643.922	5.88
644.252	6.03
644.582	5.62
644.911	5.47
645.241	5.21
645.571	5.27
645.9	5.42
646.23	5.28
646.559	5.49
646.888	5.14
647.218	5.21
647.547	5.93
647.876	5.47
648.205	5.61
648.534	5.59
648.863	5.07
649.192	5.88
649.521	5.66
649.85	5.5
650.179	6.15
650.508	5.22
650.837	5.6
651.165	5.61
651.494	5.89
651.822	5.61
652.151	5.84
652.479	5.6
652.808	4.94
653.136	5.61
653.465	5.15
653.793	5.27
654.121	5.62
654.449	5.98
654.777	5.89
655.105	5.99
655.433	5.63
655.761	5.7
656.089	6.1
656.417	6.02
656.745	5.56
657.073	5.69
657.4	6.77
657.728	6.05
658.056	5.6
658.383	5.64
658.711	5.68
659.038	6.11
659.365	5.66
659.693	5.61
660.02	5.71
660.347	5.7
660.674	5.72
661.001	5.47
661.329	4.99
661.656	5.59
661.982	6.01
662.309	5.73
662.636	5.32
662.963	5.81
663.29	5.58
663.616	6.12
663.943	5.27
664.27	5.89
664.596	5.45
664.923	5.73
665.249	5.94
665.576	5.28
665.902	5.98
666.228	6.23
666.554	6.05
666.881	5.48
667.207	5.67
667.533	5.58
667.859	6.05
668.185	5.75
668.511	5.2
668.837	5.1
669.162	5.36
669.488	5.05
669.814	5.91
670.139	5.77
670.465	6.32
670.791	5.89
671.116	6.16
671.442	5.37
671.767	5.91
672.092	6.35
672.418	5.68
672.743	6.22
673.068	5.51
673.393	5.51
673.718	6.14
674.043	6.02
674.368	5.94
674.693	6.61
675.018	5.32
675.343	5.63
675.667	5.5
675.992	6.21
676.317	5.72
676.641	6.12
676.966	6.07
677.29	5.71
677.615	5.74
677.939	6.24
678.264	6.6
678.588	6.27
678.912	5.7
679.236	6.52
679.56	4.97
679.885	6.01
680.209	5.81
680.532	5.86
680.856	6.24
681.18	5.23
681.504	5.74
681.828	5.52
682.152	5.46
682.475	5.87
682.799	6.1
683.122	5.74
683.446	5.34
683.769	6.3
684.093	5.36
684.416	6.06
684.739	6.02
685.062	5.75
685.386	5.8
685.709	5.38
686.032	5.66
686.355	6.56
686.678	5.17
687.001	5.43
687.324	5.76
687.646	5.5
687.969	5.59
688.292	6.1
688.614	5.2
688.937	6.82
689.26	6.26
689.582	5.88
689.904	5.54
690.227	5.5
690.549	6.11
690.871	6.09
691.194	5.47
691.516	5.54
691.838	6.12
692.16	6.11
692.482	5.06
