Data from 0416_forehead_Reflection__2__58.txt Node

Date: Fri Dec 15 16:48:24 CST 2023
User: ToomeyLab
Spectrometer: FLMS14357
Trigger mode: 0
Integration Time (sec): 1.000000E-2
Scans to average: 100
Electric dark correction enabled: true
Nonlinearity correction enabled: false
Boxcar width: 0
XAxis mode: Wavelengths
Number of Pixels in Spectrum: 2048
>>>>>Begin Spectral Data<<<<<
189.047	124.16
189.435	124.16
189.823	124.16
190.211	-74.84
190.599	267.07
190.987	120.76
191.375	183.45
191.763	94.1
192.151	-16.87
192.538	171.85
192.926	-45.04
193.314	84.72
193.702	80.46
194.089	-172.36
194.477	-12.59
194.864	12.55
195.252	38.92
195.639	127.23
196.027	141.33
196.414	-491.29
196.801	82.12
197.189	865.77
197.576	47.13
197.963	-36.02
198.351	-131.2
198.738	-7.19
199.125	38.46
199.512	-16.28
199.899	62.48
200.286	20.35
200.673	1.57
201.06	-8.66
201.447	-3.85
201.833	21.07
202.22	32.9
202.607	61.09
202.994	26.27
203.38	25.07
203.767	6.36
204.154	26.01
204.54	34.9
204.927	-29.62
205.313	-1.8
205.699	16.87
206.086	46.54
206.472	43
206.858	9.15
207.245	10.18
207.631	39.65
208.017	2.56
208.403	-1.69
208.789	29.46
209.175	34.97
209.561	-13.52
209.947	15.9
210.333	28.2
210.719	33.18
211.105	24.65
211.491	-2.13
211.876	25.68
212.262	50.02
212.648	4.09
213.034	49.81
213.419	12.15
213.805	7.05
214.19	-22.64
214.576	9.37
214.961	-18.88
215.346	-38.94
215.732	8.42
216.117	36.27
216.502	-14.3
216.888	25.45
217.273	42.4
217.658	-1.21
218.043	11.68
218.428	-25.66
218.813	-2.01
219.198	-14.36
219.583	31
219.968	15.64
220.353	-14.59
220.738	11.45
221.122	5.09
221.507	-21.63
221.892	-16.66
222.276	-4.38
222.661	13.51
223.046	19.94
223.43	15.78
223.815	5.45
224.199	-1
224.583	-0.02
224.968	9.13
225.352	13.83
225.736	-0.22
226.121	-4.11
226.505	9.64
226.889	3.06
227.273	-4.88
227.657	6.42
228.041	5.82
228.425	-3.46
228.809	6.12
229.193	1.47
229.577	-1.67
229.961	2.17
230.344	1.13
230.728	1.31
231.112	1.21
231.495	0.48
231.879	0.31
232.263	0.29
232.646	3.18
233.03	1.76
233.413	1.66
233.797	-0
234.18	0.73
234.563	1.76
234.946	-1.58
235.33	0.61
235.713	0.96
236.096	0.71
236.479	0.88
236.862	0.73
237.245	2.68
237.628	-1.24
238.011	1.8
238.394	2.3
238.777	2.05
239.16	-2.36
239.543	2.64
239.925	2.61
240.308	0.7
240.691	1.94
241.073	3.25
241.456	0.23
241.838	1.25
242.221	-0.26
242.603	1.15
242.986	1.41
243.368	1.83
243.75	1
244.133	0.72
244.515	1.08
244.897	0.94
245.279	1.12
245.661	0.85
246.043	-0.3
246.425	0.92
246.807	2.96
247.189	1.9
247.571	1.67
247.953	1.05
248.335	1.16
248.717	0.87
249.098	0.98
249.48	0.89
249.862	1.06
250.243	0.67
250.625	1.06
251.006	1.22
251.388	0.34
251.769	1.12
252.151	1.28
252.532	1.52
252.913	0.69
253.295	-0.25
253.676	1.1
254.057	1.09
254.438	0.78
254.819	0.14
255.2	0.06
255.581	0.5
255.962	1.38
256.343	1.57
256.724	0.61
257.105	0.29
257.486	1.56
257.867	0.68
258.247	0.11
258.628	1.03
259.009	1.5
259.389	1.07
259.77	0.07
260.15	0.72
260.531	0.66
260.911	1.55
261.292	0.84
261.672	1.19
262.052	1.08
262.432	1.33
262.813	1.24
263.193	0.46
263.573	1.57
263.953	1.17
264.333	2.41
264.713	1.92
265.093	1.19
265.473	2.2
265.853	-0.15
266.233	1.33
266.612	-0.68
266.992	0.1
267.372	1.93
267.752	0.76
268.131	0.93
268.511	1.72
268.89	1.44
269.27	0.75
269.649	0.35
270.029	0.06
270.408	1.73
270.787	1.42
271.167	1.92
271.546	1.68
271.925	0.16
272.304	0.46
272.683	1.86
273.062	0.81
273.441	1.41
273.82	0.91
274.199	0.45
274.578	1.14
274.957	1.45
275.336	0.55
275.715	0.56
276.093	0.85
276.472	0.99
276.851	1.45
277.229	0.58
277.608	0.29
277.986	1.01
278.365	1.19
278.743	1.16
279.122	1.11
279.5	1.18
279.878	0.95
280.257	0.28
280.635	0.64
281.013	1.21
281.391	1.16
281.769	1.12
282.147	1.17
282.525	2.02
282.903	1.14
283.281	1.14
283.659	1.38
284.037	1.28
284.415	1.41
284.792	1.28
285.17	0.34
285.548	0.19
285.925	1.36
286.303	1.75
286.68	0.73
287.058	1.14
287.435	1.09
287.813	1.04
288.19	1.06
288.567	1.25
288.945	1.28
289.322	1.35
289.699	0.51
290.076	1.27
290.453	1.09
290.83	1.45
291.207	0.99
291.584	1.7
291.961	1.36
292.338	1.09
292.715	1.63
293.092	0.97
293.469	1.17
293.845	1.81
294.222	0.64
294.599	1.73
294.975	0.86
295.352	1.78
295.728	1.08
296.105	1.18
296.481	1.24
296.858	1.38
297.234	0.69
297.61	1.3
297.986	0.88
298.363	1.17
298.739	1.58
299.115	1.08
299.491	1.25
299.867	1.36
300.243	1.63
300.619	1.46
300.995	1.22
301.371	1.4
301.746	1.22
302.122	1.62
302.498	1.42
302.874	1.44
303.249	1.46
303.625	0.99
304	1.7
304.376	1.47
304.751	0.81
305.127	1.47
305.502	1.04
305.878	1.04
306.253	1.64
306.628	1.92
307.003	1.44
307.378	2.25
307.754	1.86
308.129	0.66
308.504	2.03
308.879	1.38
309.254	2.36
309.629	2.26
310.003	1.51
310.378	2.34
310.753	2.15
311.128	1.71
311.502	1.46
311.877	1.91
312.252	1.45
312.626	1.62
313.001	1.7
313.375	2.07
313.75	1.52
314.124	1.7
314.498	1.67
314.873	1.86
315.247	1.04
315.621	1.26
315.995	0.88
316.369	1.75
316.743	1.8
317.117	1.63
317.491	1.4
317.865	2.17
318.239	1.59
318.613	2.29
318.987	2.05
319.361	1.48
319.734	1.55
320.108	1.96
320.482	1.95
320.855	1.95
321.229	1.31
321.602	1.61
321.976	2.07
322.349	2.11
322.723	1.49
323.096	1.97
323.469	0.91
323.843	1.71
324.216	2.76
324.589	2.2
324.962	2.4
325.335	1.67
325.708	1.76
326.081	1.8
326.454	1.71
326.827	2.19
327.2	1.81
327.573	2.28
327.945	1.95
328.318	1.75
328.691	1.8
329.063	1.85
329.436	1.75
329.809	2.62
330.181	1.74
330.553	2.31
330.926	2.65
331.298	2.51
331.671	1.81
332.043	2.36
332.415	2.29
332.787	2.23
333.159	2.41
333.532	2.61
333.904	2.03
334.276	2.3
334.648	1.85
335.02	1.84
335.391	2.16
335.763	1.89
336.135	2.15
336.507	2.38
336.879	1.93
337.25	1.86
337.622	2.31
337.993	2.19
338.365	2.05
338.736	2.03
339.108	2.63
339.479	2.14
339.851	2.33
340.222	2.07
340.593	2.14
340.964	2.07
341.336	2.97
341.707	2.26
342.078	2.73
342.449	2.75
342.82	2.23
343.191	2.81
343.562	2.32
343.933	2.25
344.303	2.5
344.674	2.56
345.045	2.16
345.416	2.54
345.786	2.02
346.157	2.79
346.527	2.12
346.898	2.31
347.268	2.26
347.639	2.31
348.009	2.53
348.38	2.42
348.75	2.45
349.12	2.58
349.49	3.21
349.861	2.76
350.231	2.57
350.601	2.52
350.971	2.68
351.341	2.56
351.711	2.63
352.081	2.53
352.45	2.03
352.82	2.56
353.19	2.42
353.56	2.29
353.929	2.75
354.299	2.45
354.669	1.85
355.038	2.94
355.408	2.25
355.777	2.82
356.147	2.55
356.516	2.41
356.885	2.55
357.254	2.73
357.624	2.96
357.993	2.8
358.362	2.37
358.731	2.47
359.1	2.59
359.469	3.14
359.838	2.8
360.207	2.97
360.576	2.39
360.945	2.78
361.314	2.94
361.682	2.64
362.051	2.57
362.42	3.03
362.788	2.74
363.157	2.62
363.525	2.89
363.894	2.86
364.262	2.87
364.631	2.83
364.999	3.02
365.367	2.19
365.735	3.49
366.104	3.1
366.472	2.82
366.84	2.89
367.208	2.98
367.576	3.08
367.944	3.17
368.312	3.06
368.68	2.57
369.048	3.35
369.416	3.28
369.783	2.64
370.151	3.1
370.519	3.64
370.886	3.18
371.254	2.9
371.621	3.25
371.989	3.22
372.356	2.81
372.724	3.01
373.091	3.21
373.458	3
373.826	3.18
374.193	2.95
374.56	3.1
374.927	3.38
375.294	3.29
375.661	3.27
376.028	3.06
376.395	2.99
376.762	3.12
377.129	3.44
377.496	3.13
377.863	3.63
378.229	2.97
378.596	3.5
378.963	3.26
379.329	3.16
379.696	3.36
380.062	3.28
380.429	3.51
380.795	3.2
381.161	3.42
381.528	3.61
381.894	3.42
382.26	3.5
382.626	3.51
382.993	3.11
383.359	3.5
383.725	3.19
384.091	3.28
384.457	3.76
384.823	3.35
385.188	3.63
385.554	3.36
385.92	3.64
386.286	3.46
386.651	3.74
387.017	3.9
387.383	3.46
387.748	3.49
388.114	3.85
388.479	3.51
388.845	3.72
389.21	3.65
389.575	3.6
389.94	3.63
390.306	3.73
390.671	3.64
391.036	3.23
391.401	3.41
391.766	3.71
392.131	3.55
392.496	3.65
392.861	3.75
393.226	3.89
393.591	3.56
393.956	3.66
394.32	3.65
394.685	3.99
395.05	3.78
395.414	3.84
395.779	3.61
396.143	3.78
396.508	3.74
396.872	3.87
397.236	3.98
397.601	3.79
397.965	4.02
398.329	3.97
398.694	3.98
399.058	3.83
399.422	4
399.786	3.98
400.15	3.89
400.514	4.11
400.878	4
401.242	4.05
401.605	4.14
401.969	4.01
402.333	3.93
402.697	4.13
403.06	3.82
403.424	4.08
403.787	4.38
404.151	4.25
404.514	3.94
404.878	4.08
405.241	4.12
405.604	3.85
405.968	4.14
406.331	3.91
406.694	4.38
407.057	4.17
407.42	4.44
407.783	3.82
408.146	4.15
408.509	4.25
408.872	4.17
409.235	4.34
409.598	4.64
409.961	4.35
410.323	4.72
410.686	4.29
411.049	4.16
411.411	4.37
411.774	4.39
412.136	4.36
412.499	4.42
412.861	4.33
413.223	4.18
413.586	4.42
413.948	4.4
414.31	4.63
414.672	4.25
415.035	4.49
415.397	4.73
415.759	4.15
416.121	4.54
416.483	4.39
416.845	4.49
417.206	4.42
417.568	4.51
417.93	4.17
418.292	4.44
418.653	4.47
419.015	4.49
419.377	4.52
419.738	4.58
420.1	4.57
420.461	4.55
420.822	4.67
421.184	4.5
421.545	4.65
421.906	4.52
422.267	4.57
422.629	4.52
422.99	4.53
423.351	4.45
423.712	4.48
424.073	4.72
424.434	4.58
424.795	4.62
425.155	4.64
425.516	4.52
425.877	4.54
426.238	4.58
426.598	4.64
426.959	4.7
427.32	4.7
427.68	4.75
428.041	4.78
428.401	4.91
428.761	4.86
429.122	5.06
429.482	4.75
429.842	4.9
430.202	5.01
430.563	4.83
430.923	4.85
431.283	5.2
431.643	4.9
432.003	4.92
432.363	4.93
432.722	4.9
433.082	5.05
433.442	4.95
433.802	4.92
434.161	5.05
434.521	5.15
434.881	5.23
435.24	5.08
435.6	5.1
435.959	5.06
436.319	5.1
436.678	5.07
437.037	5.11
437.396	5.17
437.756	5.18
438.115	5.24
438.474	5.44
438.833	5.13
439.192	5.28
439.551	5.39
439.91	5.38
440.269	5.33
440.628	5.22
440.987	5.32
441.345	5.13
441.704	5.33
442.063	5.35
442.421	5.23
442.78	5.16
443.138	5.32
443.497	5.38
443.855	5.4
444.214	5.5
444.572	5.53
444.93	5.6
445.288	5.62
445.647	5.67
446.005	5.48
446.363	5.68
446.721	5.66
447.079	5.5
447.437	5.33
447.795	5.44
448.153	5.4
448.51	5.45
448.868	5.59
449.226	5.51
449.584	5.64
449.941	5.7
450.299	5.69
450.656	5.73
451.014	5.76
451.371	5.74
451.729	5.79
452.086	6.05
452.443	5.86
452.801	5.84
453.158	5.91
453.515	5.75
453.872	5.96
454.229	5.76
454.586	5.91
454.943	5.93
455.3	6.07
455.657	6
456.014	5.94
456.371	6.02
456.727	5.97
457.084	6.18
457.441	6.02
457.797	6.14
458.154	6.32
458.51	6.09
458.867	6.28
459.223	6.16
459.58	5.97
459.936	6.17
460.292	6.06
460.648	5.97
461.005	6.01
461.361	6.11
461.717	5.99
462.073	6.02
462.429	6.11
462.785	6.28
463.141	6.24
463.496	6.36
463.852	6.5
464.208	6.45
464.564	6.47
464.919	6.49
465.275	6.36
465.631	6.65
465.986	6.5
466.342	6.46
466.697	6.24
467.052	6.43
467.408	6.79
467.763	6.51
468.118	6.53
468.473	6.35
468.829	6.53
469.184	6.33
469.539	6.53
469.894	6.55
470.249	6.73
470.603	7.1
470.958	6.78
471.313	6.62
471.668	6.76
472.023	6.68
472.377	6.68
472.732	6.85
473.086	6.68
473.441	6.66
473.795	7.12
474.15	6.95
474.504	6.85
474.859	6.93
475.213	6.74
475.567	6.96
475.921	6.86
476.275	7.08
476.63	7.02
476.984	7.2
477.338	6.97
477.692	6.99
478.045	7.11
478.399	6.99
478.753	7.2
479.107	7.13
479.461	6.91
479.814	7.03
480.168	7.15
480.521	7.13
480.875	7.24
481.228	7.16
481.582	7.32
481.935	7.3
482.289	7.28
482.642	7.33
482.995	7.26
483.348	7.02
483.701	7.18
484.055	7.21
484.408	7.21
484.761	6.92
485.114	6.84
485.466	6.58
485.819	6.61
486.172	6.74
486.525	6.91
486.878	7.12
487.23	7.2
487.583	7.3
487.936	7.3
488.288	7.2
488.641	7.17
488.993	7.05
489.345	6.92
489.698	7.02
490.05	7.08
490.402	7.25
490.754	7.33
491.107	7.55
491.459	7.48
491.811	7.59
492.163	7.55
492.515	7.56
492.866	7.43
493.218	7.3
493.57	7.22
493.922	7.43
494.274	7.51
494.625	7.77
494.977	7.77
495.328	7.92
495.68	7.96
496.031	8.01
496.383	8.08
496.734	8.29
497.086	8.08
497.437	8.09
497.788	8.04
498.139	8.04
498.49	8.08
498.842	7.91
499.193	8.07
499.544	8.08
499.894	8.15
500.245	8.22
500.596	8.18
500.947	8.2
501.298	8.05
501.648	8.34
501.999	8.45
502.35	8.41
502.7	8.37
503.051	8.29
503.401	8.36
503.752	8.57
504.102	8.51
504.452	8.58
504.803	8.55
505.153	8.47
505.503	8.46
505.853	8.62
506.203	8.43
506.553	8.59
506.903	8.53
507.253	8.59
507.603	8.66
507.953	8.8
508.303	8.82
508.652	8.75
509.002	8.87
509.352	8.66
509.701	8.61
510.051	8.79
510.4	8.67
510.75	8.78
511.099	8.72
511.449	8.77
511.798	8.78
512.147	8.88
512.496	8.87
512.846	8.97
513.195	8.89
513.544	8.87
513.893	8.95
514.242	8.94
514.591	9.03
514.939	9.11
515.288	8.95
515.637	9.28
515.986	9.2
516.334	9.32
516.683	9.26
517.032	9.25
517.38	9.51
517.729	9.37
518.077	9.29
518.426	9.51
518.774	9.37
519.122	9.24
519.47	9.31
519.819	9.1
520.167	9.11
520.515	9.19
520.863	9.19
521.211	9.39
521.559	9.42
521.907	9.49
522.255	9.48
522.602	9.49
522.95	9.62
523.298	9.77
523.645	9.84
523.993	9.67
524.341	9.95
524.688	9.8
525.036	9.71
525.383	9.78
525.73	9.96
526.078	9.79
526.425	9.82
526.772	9.83
527.119	9.73
527.466	9.5
527.814	9.65
528.161	9.7
528.508	9.84
528.854	9.81
529.201	9.83
529.548	9.71
529.895	9.4
530.242	9.22
530.588	9.27
530.935	9.43
531.282	9.67
531.628	9.81
531.975	9.92
532.321	10.04
532.667	10.13
533.014	10.18
533.36	10.23
533.706	10.2
534.052	10.1
534.399	10.05
534.745	9.89
535.091	9.83
535.437	9.89
535.783	10.06
536.129	10.24
536.474	10.33
536.82	10.55
537.166	10.58
537.512	10.71
537.857	10.53
538.203	10.52
538.549	10.23
538.894	10.43
539.239	10.61
539.585	10.63
539.93	10.76
540.276	10.93
540.621	10.89
540.966	11
541.311	10.86
541.656	10.85
542.001	10.79
542.346	10.76
542.691	10.53
543.036	10.3
543.381	10.24
543.726	10.47
544.071	10.82
544.415	10.88
544.76	10.88
545.105	10.84
545.449	11.07
545.794	11.2
546.138	11.12
546.483	11.36
546.827	11.24
547.171	11.29
547.516	11.41
547.86	11.3
548.204	11.17
548.548	11.19
548.892	11.26
549.236	11.3
549.58	11.33
549.924	11.61
550.268	11.81
550.612	11.91
550.956	12.06
551.3	11.96
551.643	12.12
551.987	11.99
552.33	11.99
552.674	12.03
553.017	11.89
553.361	11.91
553.704	12.12
554.048	12.02
554.391	12
554.734	11.99
555.077	12.18
555.42	12.01
555.764	12.12
556.107	12.09
556.45	12.13
556.793	12.29
557.135	12.37
557.478	12.64
557.821	12.65
558.164	12.34
558.507	12.47
558.849	12.41
559.192	12.69
559.534	12.57
559.877	12.71
560.219	12.57
560.562	12.87
560.904	12.88
561.246	12.6
561.589	12.75
561.931	12.73
562.273	12.91
562.615	12.91
562.957	12.84
563.299	12.65
563.641	13.05
563.983	13.1
564.325	12.82
564.667	12.9
565.008	12.96
565.35	13.13
565.692	13.17
566.033	13.11
566.375	13.16
566.716	13.37
567.058	13.02
567.399	13.06
567.741	13.08
568.082	13.16
568.423	13.06
568.764	13.2
569.105	13.31
569.447	13.32
569.788	13.46
570.129	13.55
570.47	13.67
570.811	13.51
571.151	13.51
571.492	13.81
571.833	13.55
572.174	13.68
572.514	13.48
572.855	13.68
573.195	13.46
573.536	13.57
573.876	13.34
574.217	13.48
574.557	13.82
574.898	13.9
575.238	13.82
575.578	13.66
575.918	14.22
576.258	13.96
576.598	14.01
576.938	13.89
577.278	13.65
577.618	13.97
577.958	14.12
578.298	14.25
578.638	14.18
578.977	14.25
579.317	14.17
579.657	14.47
579.996	14.35
580.336	14.59
580.675	14.53
581.014	14.56
581.354	14.69
581.693	14.54
582.032	14.71
582.372	14.8
582.711	14.9
583.05	14.38
583.389	14.86
583.728	14.57
584.067	14.98
584.406	15.12
584.745	14.96
585.083	14.97
585.422	15.02
585.761	15.07
586.1	14.94
586.438	15.11
586.777	15.27
587.115	15.06
587.454	15.3
587.792	15.15
588.13	15.08
588.469	15.12
588.807	15.13
589.145	15.3
589.483	15.15
589.821	15.22
590.159	15.36
590.497	15.6
590.835	15.73
591.173	15.24
591.511	15.54
591.849	15.61
592.187	15.56
592.524	15.43
592.862	15.61
593.2	15.75
593.537	15.51
593.875	15.89
594.212	15.89
594.55	15.89
594.887	15.87
595.224	15.86
595.561	15.69
595.899	15.79
596.236	15.73
596.573	16.06
596.91	15.89
597.247	15.77
597.584	16.15
597.921	16.07
598.258	15.64
598.594	15.86
598.931	15.57
599.268	15.84
599.604	15.85
599.941	16.31
600.277	16.24
600.614	16.21
600.95	16.15
601.287	16.41
601.623	16.42
601.959	16.08
602.296	16.83
602.632	16.52
602.968	16.46
603.304	16.8
603.64	16.43
603.976	16.65
604.312	16.41
604.648	16.54
604.984	16.28
605.319	16.35
605.655	16.63
605.991	16.57
606.326	16.35
606.662	16.2
606.998	16.27
607.333	16.82
607.668	16.72
608.004	17.23
608.339	17.07
608.674	17.21
609.01	16.97
609.345	17.02
609.68	17.5
610.015	17.15
610.35	16.84
610.685	17.06
611.02	17.19
611.355	17.1
611.689	17.02
612.024	17.22
612.359	17.09
612.694	17.51
613.028	17.09
613.363	17.56
613.697	17.89
614.032	17.62
614.366	17.7
614.7	17.94
615.035	17.79
615.369	17.55
615.703	17.89
616.037	17.77
616.371	17.54
616.705	18.11
617.039	18.01
617.373	17.77
617.707	17.66
618.041	17.51
618.375	18.1
618.709	18.24
619.042	17.94
619.376	18.3
619.71	18.02
620.043	18.49
620.377	18.25
620.71	18.39
621.043	18.03
621.377	18.25
621.71	18.12
622.043	18.47
622.376	17.72
622.709	18.54
623.043	18.82
623.376	18.68
623.709	18.45
624.041	18.75
624.374	18.34
624.707	18.62
625.04	18.77
625.373	18.63
625.705	18.81
626.038	18.44
626.37	18.5
626.703	18.58
627.035	18.98
627.368	19.15
627.7	18.8
628.032	18.45
628.365	18.94
628.697	18.89
629.029	18.42
629.361	18.68
629.693	18.79
630.025	18.85
630.357	19.25
630.689	19.11
631.021	19.19
631.353	19.15
631.684	19.21
632.016	19.19
632.348	19.41
632.679	19.14
633.011	19.48
633.342	19.4
633.674	19.56
634.005	19.92
634.336	19.44
634.668	19.72
634.999	19.74
635.33	19.89
635.661	19.68
635.992	19.63
636.323	19.55
636.654	19.81
636.985	19.5
637.316	19.24
637.647	19.15
637.977	19.88
638.308	20.05
638.639	19.38
638.969	19.52
639.3	19.84
639.63	19.97
639.961	20.15
640.291	20
640.622	19.91
640.952	20.4
641.282	20.18
641.612	20.28
641.943	20.06
642.273	20.31
642.603	20.87
642.933	20.59
643.263	20.15
643.592	20.4
643.922	20.22
644.252	20.23
644.582	20.83
644.911	20.09
645.241	20.19
645.571	20.75
645.9	20.14
646.23	20.72
646.559	20.29
646.888	21.19
647.218	20.37
647.547	20.89
647.876	20.78
648.205	20.81
648.534	20.98
648.863	20.68
649.192	21.33
649.521	20.31
649.85	21.05
650.179	20.99
650.508	20.76
650.837	21.37
651.165	20.71
651.494	21.41
651.822	20.88
652.151	21.04
652.479	21.16
652.808	20.88
653.136	21.46
653.465	20.7
653.793	20.85
654.121	20.75
654.449	21.28
654.777	21.51
655.105	21.18
655.433	21.71
655.761	21.35
656.089	21.25
656.417	21.61
656.745	21.37
657.073	21.4
657.4	21.55
657.728	21.38
658.056	21.79
658.383	21.93
658.711	21.34
659.038	21.72
659.365	22
659.693	21.2
660.02	21.42
660.347	22.05
660.674	21.86
661.001	21.73
661.329	20.84
661.656	21.43
661.982	21.91
662.309	21.94
662.636	22.11
662.963	21.73
663.29	21.97
663.616	22
663.943	21.7
664.27	22.42
664.596	22.36
664.923	22.45
665.249	22.33
665.576	22.48
665.902	23.06
666.228	22.2
666.554	22.63
666.881	22.08
667.207	22.28
667.533	22.2
667.859	22.84
668.185	22.26
668.511	22.15
668.837	21.65
669.162	22.53
669.488	22.13
669.814	23.13
670.139	22.56
670.465	22.68
670.791	23.21
671.116	22.87
671.442	22.26
671.767	23.17
672.092	23.35
672.418	22.85
672.743	23
673.068	22.78
673.393	23.24
673.718	23.25
674.043	22.95
674.368	22.82
674.693	23.81
675.018	23.26
675.343	23.14
675.667	23.56
675.992	22.72
676.317	23.17
676.641	23.26
676.966	24.09
677.29	22.76
677.615	23.5
677.939	23.85
678.264	23.7
678.588	23.45
678.912	23.08
679.236	24.34
679.56	22.98
679.885	23.18
680.209	23.16
680.532	23.4
680.856	23.13
681.18	23.44
681.504	23.64
681.828	23.52
682.152	23.3
