Data from 0416_crown_Reflection__3__54.txt Node

Date: Fri Dec 15 16:47:26 CST 2023
User: ToomeyLab
Spectrometer: FLMS14357
Trigger mode: 0
Integration Time (sec): 1.000000E-2
Scans to average: 100
Electric dark correction enabled: true
Nonlinearity correction enabled: false
Boxcar width: 0
XAxis mode: Wavelengths
Number of Pixels in Spectrum: 2048
>>>>>Begin Spectral Data<<<<<
189.047	-2.34
189.435	-2.34
189.823	-2.34
190.211	-319.45
190.599	40.12
190.987	107.89
191.375	189.54
191.763	73.02
192.151	132.09
192.538	113.69
192.926	64.14
193.314	159.45
193.702	-13.53
194.089	-78.91
194.477	-185.31
194.864	-343.51
195.252	53.68
195.639	72.34
196.027	92.38
196.414	-496.52
196.801	145.34
197.189	607.38
197.576	258.42
197.963	48.4
198.351	-92.47
198.738	2.74
199.125	40.23
199.512	-29.19
199.899	64
200.286	40.32
200.673	20.23
201.06	65.16
201.447	17.41
201.833	1.59
202.22	15.97
202.607	41.31
202.994	-2.26
203.38	20.77
203.767	30.46
204.154	30.28
204.54	32.61
204.927	-29.42
205.313	-0.35
205.699	37.9
206.086	57.06
206.472	26.09
206.858	8.37
207.245	-22.27
207.631	21.24
208.017	31.68
208.403	41.43
208.789	19.88
209.175	30.06
209.561	9.42
209.947	97.86
210.333	19.19
210.719	4.05
211.105	33.11
211.491	27.07
211.876	11.2
212.262	49.27
212.648	14.28
213.034	49.64
213.419	9.37
213.805	30.19
214.19	0.6
214.576	19.22
214.961	-13.59
215.346	-33.92
215.732	19.12
216.117	25.71
216.502	-11.82
216.888	8.43
217.273	29.05
217.658	-5.18
218.043	29.71
218.428	1.9
218.813	1.34
219.198	-3.19
219.583	21.87
219.968	23.01
220.353	-3.75
220.738	13.54
221.122	-0.25
221.507	2.92
221.892	5.8
222.276	1.85
222.661	5.26
223.046	28.33
223.43	12.46
223.815	17.69
224.199	4.5
224.583	17.05
224.968	14.76
225.352	10.71
225.736	-2.23
226.121	-2.27
226.505	11.27
226.889	9.58
227.273	11.31
227.657	12.57
228.041	4.48
228.425	9.96
228.809	7.99
229.193	9.22
229.577	6.2
229.961	7.64
230.344	7.45
230.728	6.96
231.112	5.71
231.495	6.1
231.879	5.93
232.263	7.3
232.646	7.65
233.03	7.46
233.413	5.49
233.797	6.32
234.18	6.99
234.563	7.02
234.946	6.87
235.33	10.64
235.713	7.95
236.096	7.23
236.479	7.1
236.862	5.68
237.245	8.1
237.628	4.6
238.011	6.37
238.394	7.51
238.777	8.63
239.16	6.2
239.543	7.52
239.925	8.13
240.308	8.8
240.691	8.65
241.073	6.94
241.456	7.67
241.838	6.07
242.221	6.86
242.603	6.8
242.986	6.47
243.368	7.28
243.75	7.11
244.133	5.93
244.515	6.42
244.897	6.31
245.279	6.81
245.661	6.35
246.043	6.62
246.425	5.01
246.807	6.31
247.189	6.08
247.571	6.45
247.953	6.17
248.335	5.95
248.717	5.99
249.098	5.86
249.48	6.29
249.862	6.42
250.243	5.96
250.625	6.33
251.006	6.43
251.388	5.31
251.769	6.77
252.151	6.92
252.532	5.77
252.913	4.54
253.295	5.96
253.676	5.68
254.057	5.84
254.438	6.18
254.819	5.9
255.2	6.29
255.581	6.11
255.962	5.4
256.343	5.97
256.724	5.76
257.105	5.77
257.486	6.04
257.867	7.48
258.247	7.05
258.628	5.21
259.009	5.71
259.389	5.81
259.77	5.51
260.15	5.44
260.531	5.17
260.911	6.16
261.292	5.37
261.672	5.9
262.052	5.77
262.432	6.2
262.813	5.75
263.193	5.89
263.573	5.88
263.953	5.7
264.333	6.5
264.713	5.73
265.093	5.32
265.473	5.32
265.853	5.81
266.233	5.99
266.612	4.59
266.992	4.78
267.372	6.63
267.752	5.45
268.131	5.46
268.511	6.39
268.89	5.88
269.27	5.61
269.649	5.36
270.029	4.83
270.408	6.15
270.787	6.13
271.167	6.72
271.546	6.29
271.925	4.78
272.304	5.86
272.683	5.73
273.062	5.48
273.441	5.44
273.82	4.91
274.199	5.71
274.578	5.4
274.957	5.43
275.336	5.4
275.715	5.21
276.093	5.29
276.472	5.46
276.851	5.18
277.229	4.98
277.608	4.47
277.986	5.16
278.365	5.96
278.743	5.43
279.122	5.44
279.5	5.44
279.878	5.77
280.257	5.47
280.635	5.25
281.013	4.91
281.391	5.61
281.769	5.65
282.147	5.57
282.525	6.06
282.903	5
283.281	5.34
283.659	5.5
284.037	5.87
284.415	5.19
284.792	5.02
285.17	4.43
285.548	5.74
285.925	5.42
286.303	4.95
286.68	4.98
287.058	5.4
287.435	4.97
287.813	5.03
288.19	4.6
288.567	4.55
288.945	5.5
289.322	4.94
289.699	5.26
290.076	4.66
290.453	4.99
290.83	5.01
291.207	4.81
291.584	5.49
291.961	5.32
292.338	4.96
292.715	5.32
293.092	4.85
293.469	4.87
293.845	5.2
294.222	4.29
294.599	4.52
294.975	4.5
295.352	5.18
295.728	5.02
296.105	4.22
296.481	5.03
296.858	4.53
297.234	4.83
297.61	4.82
297.986	4.33
298.363	4.7
298.739	5.01
299.115	4.41
299.491	4.39
299.867	4.4
300.243	4.98
300.619	4.67
300.995	4.89
301.371	4.62
301.746	3.97
302.122	4.77
302.498	4.86
302.874	4.65
303.249	4.64
303.625	4.47
304	5.22
304.376	4.76
304.751	3.78
305.127	5.38
305.502	3.89
305.878	4.11
306.253	4.18
306.628	5.34
307.003	4.07
307.378	4.99
307.754	4.21
308.129	3.81
308.504	4.18
308.879	3.9
309.254	5.16
309.629	4.71
310.003	4.69
310.378	4.38
310.753	4.7
311.128	4.57
311.502	4.72
311.877	4.84
312.252	4.06
312.626	3.77
313.001	3.95
313.375	4.59
313.75	4.48
314.124	4.75
314.498	4.08
314.873	3.89
315.247	4.31
315.621	3.73
315.995	3.58
316.369	4.24
316.743	4.29
317.117	3.96
317.491	4.13
317.865	4.61
318.239	4.37
318.613	4.52
318.987	4.26
319.361	3.5
319.734	4.61
320.108	4.31
320.482	4.19
320.855	4.92
321.229	4.37
321.602	3.49
321.976	4.68
322.349	3.78
322.723	4.09
323.096	4.31
323.469	3.92
323.843	3.85
324.216	4.28
324.589	3.84
324.962	4.39
325.335	3.96
325.708	3.86
326.081	3.06
326.454	4.24
326.827	3.79
327.2	4.53
327.573	4.42
327.945	4.1
328.318	3.75
328.691	3.25
329.063	3.65
329.436	3.92
329.809	4.27
330.181	4.26
330.553	3.83
330.926	4.28
331.298	4.3
331.671	4.06
332.043	4.46
332.415	4.17
332.787	3.81
333.159	4.8
333.532	4.36
333.904	4.2
334.276	3.83
334.648	4.15
335.02	4.31
335.391	3.89
335.763	4.09
336.135	4.44
336.507	4.81
336.879	3.84
337.25	3.43
337.622	4.09
337.993	3.62
338.365	4.35
338.736	4.27
339.108	3.97
339.479	4
339.851	3.97
340.222	3.75
340.593	4.01
340.964	4.26
341.336	4.22
341.707	3.12
342.078	4.41
342.449	4.67
342.82	3.8
343.191	4.12
343.562	3.83
343.933	4.14
344.303	4.26
344.674	3.9
345.045	4.13
345.416	4.37
345.786	3.69
346.157	4.78
346.527	3.67
346.898	3.22
347.268	4.47
347.639	3.93
348.009	3.84
348.38	3.53
348.75	3.8
349.12	3.2
349.49	4.18
349.861	3.81
350.231	3.47
350.601	3.89
350.971	4.41
351.341	4.2
351.711	4.07
352.081	4.09
352.45	4.09
352.82	4.5
353.19	3.72
353.56	3.43
353.929	4.23
354.299	4.21
354.669	3.46
355.038	4.42
355.408	4.04
355.777	3.96
356.147	3.71
356.516	3.7
356.885	4.01
357.254	4.05
357.624	4.26
357.993	3.81
358.362	3.9
358.731	3.9
359.1	4.04
359.469	3.85
359.838	4.31
360.207	3.86
360.576	3.82
360.945	3.92
361.314	4.12
361.682	3.88
362.051	4.02
362.42	4.22
362.788	3.72
363.157	4.09
363.525	4.35
363.894	3.94
364.262	4.07
364.631	3.86
364.999	4.42
365.367	3.82
365.735	4.77
366.104	4.13
366.472	4.29
366.84	3.86
367.208	3.84
367.576	4.57
367.944	4.56
368.312	3.49
368.68	3.75
369.048	4.33
369.416	4.06
369.783	3.62
370.151	4.34
370.519	4.3
370.886	4.35
371.254	4.07
371.621	3.91
371.989	4.34
372.356	3.7
372.724	4.73
373.091	3.96
373.458	3.84
373.826	4.21
374.193	3.9
374.56	4.48
374.927	4.3
375.294	4.21
375.661	3.93
376.028	4.01
376.395	3.82
376.762	4.19
377.129	3.95
377.496	3.74
377.863	4.07
378.229	3.79
378.596	4.38
378.963	4
379.329	3.87
379.696	4.35
380.062	4.2
380.429	4.18
380.795	3.92
381.161	4.27
381.528	4.4
381.894	3.95
382.26	4.11
382.626	4.32
382.993	4.35
383.359	4.58
383.725	4.25
384.091	4.48
384.457	4.78
384.823	4.66
385.188	4.54
385.554	4.43
385.92	4.42
386.286	4.39
386.651	4.79
387.017	4.73
387.383	4.32
387.748	4.32
388.114	4.58
388.479	4.25
388.845	4.56
389.21	4.23
389.575	4.71
389.94	4.12
390.306	4.06
390.671	4.42
391.036	4.06
391.401	4
391.766	4.38
392.131	4.17
392.496	4.45
392.861	4.29
393.226	4.71
393.591	4.56
393.956	4.42
394.32	4.43
394.685	4.29
395.05	4.14
395.414	4.52
395.779	4.05
396.143	4.28
396.508	4.36
396.872	4.55
397.236	4.47
397.601	4.2
397.965	4.54
398.329	4.57
398.694	4.57
399.058	4.35
399.422	4.08
399.786	4.69
400.15	4.56
400.514	4.59
400.878	4.24
401.242	4.68
401.605	4.49
401.969	4.47
402.333	4.64
402.697	4.77
403.06	4.46
403.424	4.54
403.787	4.32
404.151	4.53
404.514	4.45
404.878	4.67
405.241	4.64
405.604	4.54
405.968	4.48
406.331	4.56
406.694	4.67
407.057	4.36
407.42	4.55
407.783	4.31
408.146	4.57
408.509	4.47
408.872	4.44
409.235	4.47
409.598	4.88
409.961	4.34
410.323	4.65
410.686	4.32
411.049	4.56
411.411	4.51
411.774	4.6
412.136	4.42
412.499	4.45
412.861	4.46
413.223	4.42
413.586	4.53
413.948	4.72
414.31	4.52
414.672	4.44
415.035	4.37
415.397	4.89
415.759	4.25
416.121	4.81
416.483	4.54
416.845	4.64
417.206	4.47
417.568	4.61
417.93	4.47
418.292	4.56
418.653	4.69
419.015	4.45
419.377	4.48
419.738	4.73
420.1	4.6
420.461	4.52
420.822	4.68
421.184	4.59
421.545	4.6
421.906	4.45
422.267	4.5
422.629	4.54
422.99	4.55
423.351	4.49
423.712	4.58
424.073	4.69
424.434	4.48
424.795	4.53
425.155	4.5
425.516	4.48
425.877	4.49
426.238	4.46
426.598	4.62
426.959	4.51
427.32	4.44
427.68	4.51
428.041	4.69
428.401	4.69
428.761	4.69
429.122	4.8
429.482	4.69
429.842	4.86
430.202	4.84
430.563	4.73
430.923	4.71
431.283	4.77
431.643	4.63
432.003	4.76
432.363	4.79
432.722	4.75
433.082	4.82
433.442	4.84
433.802	4.46
434.161	4.67
434.521	4.92
434.881	4.78
435.24	4.55
435.6	4.67
435.959	4.7
436.319	4.75
436.678	4.77
437.037	4.82
437.396	4.82
437.756	4.76
438.115	4.81
438.474	4.91
438.833	4.7
439.192	4.66
439.551	4.85
439.91	4.73
440.269	5.07
440.628	4.83
440.987	4.84
441.345	4.68
441.704	4.78
442.063	4.79
442.421	4.8
442.78	4.72
443.138	4.74
443.497	4.77
443.855	4.79
444.214	5.01
444.572	4.83
444.93	4.91
445.288	4.97
445.647	4.9
446.005	4.81
446.363	4.86
446.721	5.03
447.079	4.63
447.437	4.8
447.795	4.75
448.153	4.72
448.51	4.81
448.868	4.81
449.226	4.78
449.584	4.74
449.941	5.04
450.299	4.93
450.656	4.93
451.014	4.9
451.371	4.84
451.729	4.77
452.086	4.94
452.443	4.74
452.801	4.99
453.158	4.89
453.515	4.79
453.872	5.09
454.229	4.92
454.586	4.93
454.943	4.88
455.3	5.16
455.657	4.92
456.014	5
456.371	5.11
456.727	4.95
457.084	5.08
457.441	4.91
457.797	4.9
458.154	5.17
458.51	5.13
458.867	5.24
459.223	5.13
459.58	4.99
459.936	5.05
460.292	4.92
460.648	4.85
461.005	4.93
461.361	4.88
461.717	4.93
462.073	4.83
462.429	4.84
462.785	4.92
463.141	4.97
463.496	5.06
463.852	5.05
464.208	5.07
464.564	5.12
464.919	5.04
465.275	5.09
465.631	5.17
465.986	5
466.342	4.98
466.697	5.04
467.052	5.07
467.408	5.12
467.763	5.16
468.118	5.02
468.473	4.99
468.829	5.05
469.184	5.03
469.539	5.16
469.894	4.82
470.249	5.2
470.603	5.12
470.958	5.14
471.313	5.17
471.668	5.15
472.023	4.95
472.377	5.09
472.732	5.17
473.086	4.97
473.441	4.87
473.795	5.15
474.15	5.16
474.504	5.05
474.859	5.11
475.213	4.91
475.567	4.95
475.921	5.15
476.275	5.04
476.63	5.11
476.984	5.12
477.338	5.11
477.692	4.93
478.045	4.93
478.399	5.05
478.753	5.21
479.107	5.13
479.461	5.23
479.814	5.15
480.168	4.96
480.521	5.03
480.875	5.01
481.228	5.14
481.582	5.04
481.935	5.08
482.289	5.03
482.642	5.08
482.995	4.96
483.348	4.84
483.701	4.96
484.055	5.05
484.408	5.12
484.761	4.92
485.114	4.82
485.466	4.68
485.819	4.67
486.172	4.7
486.525	4.8
486.878	4.87
487.23	4.92
487.583	4.94
487.936	5.05
488.288	4.93
488.641	5.05
488.993	4.9
489.345	4.81
489.698	4.82
490.05	4.8
490.402	4.93
490.754	4.9
491.107	5
491.459	5.05
491.811	5.08
492.163	5.03
492.515	5.06
492.866	5.04
493.218	4.92
493.57	4.87
493.922	4.89
494.274	4.92
494.625	5.07
494.977	5.08
495.328	5.09
495.68	5.14
496.031	5.17
496.383	5.15
496.734	5.19
497.086	5.15
497.437	5.11
497.788	5.08
498.139	5.02
498.49	5.12
498.842	5.03
499.193	4.99
499.544	5.04
499.894	5.09
500.245	5.02
500.596	5.15
500.947	5.15
501.298	5.03
501.648	5.25
501.999	5.38
502.35	5.11
502.7	5.3
503.051	5.06
503.401	5.15
503.752	5.33
504.102	5.37
504.452	5.17
504.803	5.14
505.153	5.06
505.503	5.12
505.853	5.16
506.203	5.24
506.553	5.1
506.903	5.1
507.253	5.13
507.603	5.02
507.953	5.27
508.303	5.4
508.652	5.02
509.002	5.19
509.352	5.15
509.701	5.14
510.051	5.06
510.4	4.91
510.75	4.97
511.099	5.17
511.449	5.12
511.798	5.13
512.147	5.18
512.496	5.06
512.846	5.16
513.195	5.12
513.544	5.05
513.893	5.17
514.242	5.06
514.591	5.36
514.939	5.08
515.288	5.14
515.637	5.17
515.986	5.07
516.334	5.13
516.683	5.18
517.032	5.12
517.38	5.15
517.729	5.13
518.077	5.01
518.426	5.17
518.774	5.18
519.122	5.17
519.47	5.06
519.819	4.84
520.167	5.03
520.515	5
520.863	5.11
521.211	5.01
521.559	5.1
521.907	4.96
522.255	5.08
522.602	5.16
522.95	5.07
523.298	5.14
523.645	5.18
523.993	5.09
524.341	5.14
524.688	5.18
525.036	5.07
525.383	5.08
525.73	5.23
526.078	5.15
526.425	5.13
526.772	5.18
527.119	5
527.466	4.98
527.814	4.99
528.161	5.05
528.508	4.96
528.854	4.94
529.201	4.89
529.548	4.89
529.895	4.85
530.242	4.77
530.588	4.74
530.935	4.78
531.282	4.86
531.628	4.86
531.975	4.97
532.321	5.07
532.667	5.09
533.014	5.1
533.36	5.1
533.706	5.04
534.052	4.94
534.399	4.95
534.745	4.93
535.091	4.87
535.437	4.92
535.783	4.93
536.129	4.92
536.474	4.95
536.82	5.09
537.166	5.02
537.512	5.02
537.857	5.02
538.203	4.98
538.549	5
538.894	5.03
539.239	5.02
539.585	5.04
539.93	4.93
540.276	5.1
540.621	5.15
540.966	5.03
541.311	4.93
541.656	5.01
542.001	4.87
542.346	5.16
542.691	4.89
543.036	4.85
543.381	4.75
543.726	4.81
544.071	4.91
544.415	4.9
544.76	4.88
545.105	4.99
545.449	4.94
545.794	4.95
546.138	4.95
546.483	5.09
546.827	5.1
547.171	5.03
547.516	5.21
547.86	4.96
548.204	4.98
548.548	4.96
548.892	4.97
549.236	4.96
549.58	4.91
549.924	4.93
550.268	5.15
550.612	5.18
550.956	5.31
551.3	5.12
551.643	5.21
551.987	5.12
552.33	5.02
552.674	5.25
553.017	5.04
553.361	4.93
553.704	5.19
554.048	5
554.391	5.02
554.734	4.92
555.077	4.93
555.42	4.96
555.764	5.09
556.107	4.98
556.45	4.83
556.793	5.09
557.135	5.04
557.478	5.26
557.821	5.25
558.164	4.98
558.507	5.04
558.849	5.11
559.192	5.02
559.534	5.03
559.877	5.11
560.219	4.98
560.562	5.23
560.904	5.01
561.246	5
561.589	5.09
561.931	5.05
562.273	4.95
562.615	5.19
562.957	4.95
563.299	4.78
563.641	4.78
563.983	4.92
564.325	4.94
564.667	4.83
565.008	4.95
565.35	4.92
565.692	4.68
566.033	4.95
566.375	5.19
566.716	5.15
567.058	4.99
567.399	4.72
567.741	4.79
568.082	4.91
568.423	4.97
568.764	4.89
569.105	5.01
569.447	5.05
569.788	4.9
570.129	5.06
570.47	4.86
570.811	5.04
571.151	5.15
571.492	4.83
571.833	5.01
572.174	4.87
572.514	4.89
572.855	4.98
573.195	4.91
573.536	4.98
573.876	4.71
574.217	4.82
574.557	4.94
574.898	4.92
575.238	4.88
575.578	4.75
575.918	5.06
576.258	4.85
576.598	4.96
576.938	4.89
577.278	4.81
577.618	4.64
577.958	4.81
578.298	4.89
578.638	4.86
578.977	4.84
579.317	4.68
579.657	4.94
579.996	4.82
580.336	4.89
580.675	4.79
581.014	4.98
581.354	4.88
581.693	4.95
582.032	4.81
582.372	4.74
582.711	4.98
583.05	4.57
583.389	4.95
583.728	4.87
584.067	4.87
584.406	4.82
584.745	5.04
585.083	4.95
585.422	4.72
585.761	4.94
586.1	4.97
586.438	4.55
586.777	5.01
587.115	4.74
587.454	4.88
587.792	4.8
588.13	5.18
588.469	4.84
588.807	5.01
589.145	4.8
589.483	4.79
589.821	4.81
590.159	4.68
590.497	5.12
590.835	5.2
591.173	4.78
591.511	5.08
591.849	4.88
592.187	5.11
592.524	5.01
592.862	4.76
593.2	5
593.537	4.67
593.875	4.91
594.212	4.82
594.55	4.72
594.887	5.08
595.224	4.71
595.561	4.88
595.899	4.81
596.236	4.67
596.573	4.69
596.91	4.46
597.247	4.62
597.584	5.09
597.921	4.57
598.258	4.53
598.594	4.73
598.931	4.7
599.268	4.99
599.604	4.7
599.941	4.81
600.277	4.62
600.614	4.73
600.95	4.62
601.287	4.79
601.623	4.9
601.959	4.93
602.296	4.65
602.632	4.84
602.968	4.89
603.304	4.81
603.64	4.66
603.976	4.75
604.312	4.79
604.648	4.74
604.984	4.84
605.319	4.77
605.655	4.66
605.991	4.82
606.326	4.77
606.662	4.62
606.998	4.48
607.333	4.74
607.668	4.68
608.004	4.6
608.339	4.93
608.674	4.68
609.01	4.64
609.345	4.7
609.68	4.98
610.015	5.01
610.35	4.77
610.685	4.8
611.02	4.55
611.355	4.78
611.689	4.63
612.024	4.72
612.359	4.51
612.694	4.77
613.028	4.49
613.363	4.94
613.697	4.78
614.032	4.59
614.366	4.64
614.7	4.9
615.035	4.57
615.369	4.75
615.703	4.72
616.037	4.61
616.371	4.36
616.705	4.65
617.039	4.76
617.373	4.63
617.707	4.67
618.041	4.41
618.375	4.69
618.709	5.11
619.042	4.77
619.376	5.01
619.71	4.73
620.043	4.97
620.377	4.67
620.71	4.84
621.043	4.7
621.377	4.66
621.71	4.56
622.043	4.23
622.376	4.74
622.709	5
623.043	5.01
623.376	4.76
623.709	4.43
624.041	4.87
624.374	4.75
624.707	4.12
625.04	4.72
625.373	4.43
625.705	4.46
626.038	4.6
626.37	4.6
626.703	4.52
627.035	4.39
627.368	4.96
627.7	4.69
628.032	4.52
628.365	4.84
628.697	4.53
629.029	4.28
629.361	4.33
629.693	4.81
630.025	4.27
630.357	5.01
630.689	4.86
631.021	4.69
631.353	4.98
631.684	4.69
632.016	4.36
632.348	4.81
632.679	4.67
633.011	4.98
633.342	5.1
633.674	4.6
634.005	4.85
634.336	4.75
634.668	4.86
634.999	4.41
635.33	4.92
635.661	4.87
635.992	4.47
636.323	4.78
636.654	5.09
636.985	4.5
637.316	4.41
637.647	4.73
637.977	4.47
638.308	4.89
638.639	4.47
638.969	4.34
639.3	4.63
639.63	4.13
639.961	4.94
640.291	4.37
640.622	4.81
640.952	4.02
641.282	4.99
641.612	4.81
641.943	4.24
642.273	4.45
642.603	4.93
642.933	5
643.263	4.92
643.592	4.22
643.922	4.49
644.252	4.52
644.582	4.72
644.911	4.45
645.241	4.75
645.571	4.72
645.9	4.02
646.23	4.8
646.559	4.75
646.888	4.33
647.218	4.28
647.547	4.98
647.876	4.96
648.205	4.78
648.534	4.94
648.863	4.55
649.192	4.84
649.521	5.04
649.85	4.26
650.179	4.53
650.508	4.88
650.837	4.7
651.165	4.11
651.494	4.81
651.822	4.49
652.151	4.73
652.479	4.53
652.808	4.49
653.136	4.9
653.465	3.99
653.793	4.12
654.121	4.6
654.449	4.93
654.777	4.21
655.105	4.62
655.433	4.6
655.761	4.37
656.089	4.56
656.417	4.6
656.745	4.26
657.073	4.22
657.4	4.77
657.728	5.03
658.056	4.37
658.383	4.6
658.711	4.75
659.038	5.16
659.365	5.08
659.693	4.7
660.02	4.02
660.347	4.15
660.674	4.38
661.001	4.73
661.329	3.59
661.656	4.62
661.982	4.56
662.309	4.43
662.636	4.24
662.963	4.78
663.29	4.76
663.616	4.7
663.943	4.47
664.27	4.17
664.596	4.74
664.923	4.89
665.249	4.45
665.576	4.61
665.902	5.2
666.228	4.45
666.554	4.63
666.881	4.79
667.207	4.54
667.533	4.9
667.859	4.69
668.185	4.89
668.511	4.32
668.837	3.66
669.162	4.31
669.488	4.37
669.814	4.86
670.139	5.14
670.465	5.48
670.791	4.84
671.116	4.82
671.442	4.44
671.767	4.99
672.092	4.74
672.418	4.91
672.743	5.01
673.068	4.11
673.393	4.8
673.718	4.84
674.043	4.44
674.368	4.4
674.693	5.71
675.018	4.92
675.343	4.39
675.667	4.2
675.992	5.17
676.317	4.98
676.641	5.17
676.966	4.96
677.29	4.37
677.615	4.56
677.939	5.32
678.264	5
678.588	4.69
678.912	4.8
679.236	5.45
679.56	3.96
679.885	4.96
680.209	4.22
680.532	4.81
680.856	5.33
681.18	4.69
681.504	4.7
681.828	4.05
682.152	4.45
682.475	4.8
682.799	5.22
683.122	4.79
683.446	4.68
683.769	4.83
684.093	4.34
684.416	5.11
684.739	3.98
685.062	4.58
685.386	5.3
685.709	4.21
686.032	4.46
686.355	5.37
686.678	4.42
687.001	4.66
687.324	5.04
687.646	4.06
687.969	4.17
688.292	3.99
688.614	5.2
688.937	5.82
689.26	4.63
689.582	4.47
689.904	5.07
690.227	5.18
690.549	4.58
690.871	4.98
691.194	4.38
691.516	4.51
691.838	5.29
692.16	4.16
692.482	4.8
692.804	4.81
693.126	5.51
