Data from 0416_crown_Reflection__4__55.txt Node

Date: Fri Dec 15 16:47:35 CST 2023
User: ToomeyLab
Spectrometer: FLMS14357
Trigger mode: 0
Integration Time (sec): 1.000000E-2
Scans to average: 100
Electric dark correction enabled: true
Nonlinearity correction enabled: false
Boxcar width: 0
XAxis mode: Wavelengths
Number of Pixels in Spectrum: 2048
>>>>>Begin Spectral Data<<<<<
189.047	1.71
189.435	1.71
189.823	1.71
190.211	12
190.599	447.46
190.987	93.39
191.375	137.04
191.763	-36.3
192.151	-3.98
192.538	155.94
192.926	-121.58
193.314	144.28
193.702	54.4
194.089	-475.91
194.477	-35.26
194.864	13.08
195.252	84.03
195.639	134.13
196.027	90.05
196.414	-78.31
196.801	328.65
197.189	-39.77
197.576	53.22
197.963	15.41
198.351	-82.5
198.738	-31.04
199.125	33.79
199.512	3.03
199.899	81.17
200.286	45.85
200.673	4.4
201.06	32.86
201.447	-36.07
201.833	21.85
202.22	43.49
202.607	84.99
202.994	48.64
203.38	13.22
203.767	60.32
204.154	45.69
204.54	48.09
204.927	-23.53
205.313	20.18
205.699	20.14
206.086	35.67
206.472	54.15
206.858	51.21
207.245	-32.35
207.631	36.05
208.017	48.14
208.403	16.51
208.789	21.17
209.175	25.23
209.561	-21.28
209.947	46.28
210.333	-5.58
210.719	40.51
211.105	21.84
211.491	-49.86
211.876	17.66
212.262	65.46
212.648	16.36
213.034	54.53
213.419	8.19
213.805	12.27
214.19	5.86
214.576	-1.76
214.961	7.07
215.346	-41.01
215.732	18.91
216.117	12.33
216.502	-5.77
216.888	30.82
217.273	38.17
217.658	0.73
218.043	38.32
218.428	-17.44
218.813	-11.88
219.198	-9.87
219.583	3.13
219.968	27.89
220.353	-3.28
220.738	13.77
221.122	24.95
221.507	2.27
221.892	17.91
222.276	-13.4
222.661	-1.68
223.046	19.95
223.43	18.9
223.815	15.64
224.199	-1.6
224.583	10.4
224.968	4.39
225.352	11.58
225.736	4.73
226.121	0.03
226.505	13.77
226.889	12.94
227.273	6.5
227.657	17.8
228.041	5.57
228.425	5.63
228.809	7.35
229.193	8.87
229.577	6.2
229.961	8.6
230.344	7.78
230.728	6.75
231.112	6.96
231.495	7.1
231.879	6.98
232.263	6.45
232.646	8.05
233.03	6.99
233.413	6.47
233.797	5
234.18	8.75
234.563	6.01
234.946	7.67
235.33	7.25
235.713	7.64
236.096	7.84
236.479	8.02
236.862	7.47
237.245	9.44
237.628	5.7
238.011	7.34
238.394	7.41
238.777	7.56
239.16	6.51
239.543	6.71
239.925	6.42
240.308	6.48
240.691	8.06
241.073	7.13
241.456	6.95
241.838	6.83
242.221	4.48
242.603	6.56
242.986	6.21
243.368	6.24
243.75	6.71
244.133	6.21
244.515	6.25
244.897	6.39
245.279	6.29
245.661	6.52
246.043	5.07
246.425	6.21
246.807	7.44
247.189	6.98
247.571	6.31
247.953	6.13
248.335	5.86
248.717	6.1
249.098	5.7
249.48	6.06
249.862	6.1
250.243	6.2
250.625	5.94
251.006	5.97
251.388	5.34
251.769	7.29
252.151	7.21
252.532	5.88
252.913	5.82
253.295	4.82
253.676	6.17
254.057	6.22
254.438	5.93
254.819	5.76
255.2	5.39
255.581	6.27
255.962	5.48
256.343	6.95
256.724	4.56
257.105	6.05
257.486	6.33
257.867	5.64
258.247	5.76
258.628	5.81
259.009	6.48
259.389	5.81
259.77	6.3
260.15	5.13
260.531	4.9
260.911	6.27
261.292	5.39
261.672	5.83
262.052	5.45
262.432	5.83
262.813	5.46
263.193	5.78
263.573	5.46
263.953	5.35
264.333	6.22
264.713	6.05
265.093	5.48
265.473	6.43
265.853	5
266.233	5.58
266.612	4.38
266.992	4.5
267.372	5.92
267.752	5.09
268.131	5.76
268.511	6.22
268.89	5.64
269.27	5.5
269.649	5.52
270.029	5.2
270.408	6.55
270.787	6.12
271.167	5.83
271.546	6.06
271.925	5.52
272.304	5.11
272.683	5.84
273.062	5.26
273.441	5.14
273.82	4.58
274.199	5.76
274.578	5.64
274.957	5.57
275.336	5.35
275.715	5.12
276.093	5.79
276.472	5.38
276.851	5.54
277.229	5.15
277.608	4.91
277.986	5.28
278.365	5.79
278.743	4.62
279.122	4.85
279.5	5.19
279.878	6.07
280.257	5.78
280.635	4.69
281.013	5.9
281.391	5.34
281.769	5.19
282.147	5.14
282.525	5.55
282.903	4.48
283.281	5.5
283.659	5.6
284.037	5.37
284.415	5.69
284.792	5.02
285.17	4.4
285.548	4.75
285.925	5.15
286.303	5.25
286.68	4.88
287.058	5.18
287.435	5.18
287.813	5.14
288.19	5.17
288.567	5.1
288.945	5.45
289.322	5.22
289.699	4.85
290.076	4.95
290.453	5.31
290.83	4.68
291.207	4.82
291.584	4.94
291.961	5.08
292.338	4.87
292.715	5.46
293.092	5.08
293.469	5.11
293.845	5.47
294.222	4.03
294.599	4.18
294.975	4.88
295.352	4.88
295.728	4.46
296.105	4.81
296.481	4.73
296.858	5.11
297.234	4.91
297.61	4.14
297.986	4.55
298.363	4.91
298.739	4.65
299.115	4.43
299.491	4.3
299.867	4.74
300.243	5.04
300.619	4.54
300.995	4.44
301.371	5.04
301.746	4.67
302.122	4.79
302.498	4.55
302.874	4.31
303.249	4.71
303.625	4.43
304	4.87
304.376	4.51
304.751	4.26
305.127	5.25
305.502	4.53
305.878	4.04
306.253	4.47
306.628	4.98
307.003	3.99
307.378	4.62
307.754	5.06
308.129	3.99
308.504	4
308.879	4.34
309.254	5.07
309.629	5.02
310.003	4.58
310.378	4.88
310.753	4.57
311.128	4.61
311.502	4.22
311.877	4.97
312.252	4.38
312.626	4.17
313.001	4.31
313.375	4.08
313.75	4.48
314.124	4.37
314.498	4.67
314.873	4.22
315.247	3.81
315.621	4.68
315.995	4.11
316.369	4.58
316.743	4.09
317.117	4.96
317.491	4.28
317.865	3.97
318.239	4.22
318.613	4.29
318.987	3.78
319.361	3.86
319.734	4.51
320.108	4.51
320.482	4.59
320.855	4.5
321.229	4.25
321.602	3.67
321.976	4.24
322.349	4.25
322.723	4.24
323.096	4.72
323.469	3.79
323.843	4.07
324.216	4.17
324.589	3.87
324.962	4.3
325.335	3.91
325.708	4.37
326.081	3.79
326.454	4.01
326.827	3.94
327.2	4.21
327.573	4.05
327.945	4.16
328.318	4.1
328.691	3.88
329.063	3.72
329.436	3.9
329.809	4.52
330.181	4.01
330.553	4.15
330.926	4.26
331.298	4.06
331.671	3.14
332.043	4.25
332.415	4.55
332.787	4.15
333.159	5.1
333.532	4.83
333.904	3.66
334.276	4.26
334.648	4.06
335.02	4.13
335.391	3.82
335.763	3.88
336.135	4
336.507	4.63
336.879	4.25
337.25	4.01
337.622	4.13
337.993	3.73
338.365	4.36
338.736	4.03
339.108	3.83
339.479	4.21
339.851	3.72
340.222	3.73
340.593	4.18
340.964	3.48
341.336	4.29
341.707	3.51
342.078	3.72
342.449	4.24
342.82	3.94
343.191	4
343.562	4.3
343.933	3.43
344.303	4.44
344.674	4.05
345.045	4.02
345.416	4.21
345.786	3.99
346.157	4.18
346.527	3.52
346.898	3.53
347.268	4.03
347.639	3.77
348.009	3.99
348.38	4
348.75	3.83
349.12	3.65
349.49	4.27
349.861	4.39
350.231	3.89
350.601	4.03
350.971	4.33
351.341	4.11
351.711	3.93
352.081	4.09
352.45	3.89
352.82	4.4
353.19	4.32
353.56	4.41
353.929	4.39
354.299	3.86
354.669	3.68
355.038	4.09
355.408	3.91
355.777	3.77
356.147	3.51
356.516	4.25
356.885	4.15
357.254	3.99
357.624	4.31
357.993	4.12
358.362	3.78
358.731	3.55
359.1	3.72
359.469	4.23
359.838	4.33
360.207	3.78
360.576	4.11
360.945	4.13
361.314	4.59
361.682	3.53
362.051	3.89
362.42	3.99
362.788	3.71
363.157	4.13
363.525	4.24
363.894	4.06
364.262	4.14
364.631	4.2
364.999	4.26
365.367	3.66
365.735	4.68
366.104	3.96
366.472	3.96
366.84	4.12
367.208	4.09
367.576	4.21
367.944	4.33
368.312	3.95
368.68	3.73
369.048	3.98
369.416	4.2
369.783	3.97
370.151	3.95
370.519	4.51
370.886	4.51
371.254	4.31
371.621	4.16
371.989	4.31
372.356	3.72
372.724	4.22
373.091	3.75
373.458	4.29
373.826	4.29
374.193	4.23
374.56	4.22
374.927	4.44
375.294	4.06
375.661	3.7
376.028	3.82
376.395	3.83
376.762	4.7
377.129	3.93
377.496	3.97
377.863	4.02
378.229	3.69
378.596	4.11
378.963	4.4
379.329	4.29
379.696	4.02
380.062	4.32
380.429	4.16
380.795	3.97
381.161	4.15
381.528	4.61
381.894	4.37
382.26	4.31
382.626	4.31
382.993	4.09
383.359	4.6
383.725	3.99
384.091	4.07
384.457	4.47
384.823	4.16
385.188	4.42
385.554	4.28
385.92	4.28
386.286	4.41
386.651	4.39
387.017	4.46
387.383	4.27
387.748	4.41
388.114	4.36
388.479	4.24
388.845	4.53
389.21	4.61
389.575	4.46
389.94	4.27
390.306	4.32
390.671	4.76
391.036	3.97
391.401	4.12
391.766	4.36
392.131	4.28
392.496	4.44
392.861	4.04
393.226	4.49
393.591	4.64
393.956	4.27
394.32	4.29
394.685	4.15
395.05	4.19
395.414	4.13
395.779	4.19
396.143	4.17
396.508	4.15
396.872	4.44
397.236	4.44
397.601	4.38
397.965	4.5
398.329	4.7
398.694	4.49
399.058	4.42
399.422	4.35
399.786	4.47
400.15	4.68
400.514	4.57
400.878	4.33
401.242	4.5
401.605	4.53
401.969	4.54
402.333	4.48
402.697	4.42
403.06	4.54
403.424	4.54
403.787	4.29
404.151	4.52
404.514	4.6
404.878	4.73
405.241	4.75
405.604	4.55
405.968	4.61
406.331	4.38
406.694	4.6
407.057	4.72
407.42	4.64
407.783	4.48
408.146	4.41
408.509	4.47
408.872	4.65
409.235	4.57
409.598	5.08
409.961	4.76
410.323	4.73
410.686	4.58
411.049	4.38
411.411	4.53
411.774	4.71
412.136	4.51
412.499	4.37
412.861	4.54
413.223	4.47
413.586	4.65
413.948	4.78
414.31	4.58
414.672	4.62
415.035	4.46
415.397	4.74
415.759	4.37
416.121	4.75
416.483	4.62
416.845	4.43
417.206	4.53
417.568	4.77
417.93	4.33
418.292	4.43
418.653	4.61
419.015	4.79
419.377	4.47
419.738	4.67
420.1	4.49
420.461	4.6
420.822	4.44
421.184	4.45
421.545	4.57
421.906	4.45
422.267	4.49
422.629	4.58
422.99	4.52
423.351	4.51
423.712	4.61
424.073	4.6
424.434	4.5
424.795	4.61
425.155	4.71
425.516	4.49
425.877	4.55
426.238	4.55
426.598	4.65
426.959	4.66
427.32	4.45
427.68	4.5
428.041	4.63
428.401	4.71
428.761	4.71
429.122	4.82
429.482	4.61
429.842	4.92
430.202	4.71
430.563	4.78
430.923	4.58
431.283	4.76
431.643	4.65
432.003	4.65
432.363	5.01
432.722	4.76
433.082	4.77
433.442	4.8
433.802	4.76
434.161	4.79
434.521	4.95
434.881	4.77
435.24	4.59
435.6	4.75
435.959	4.72
436.319	4.66
436.678	4.8
437.037	4.86
437.396	4.83
437.756	4.78
438.115	4.68
438.474	4.91
438.833	4.62
439.192	4.8
439.551	4.76
439.91	4.99
440.269	4.82
440.628	4.8
440.987	4.85
441.345	4.51
441.704	4.93
442.063	4.81
442.421	4.7
442.78	4.65
443.138	4.82
443.497	4.82
443.855	4.85
444.214	4.97
444.572	4.9
444.93	4.93
445.288	4.9
445.647	4.92
446.005	4.75
446.363	4.88
446.721	4.99
447.079	4.67
447.437	4.77
447.795	4.77
448.153	4.65
448.51	4.82
448.868	4.82
449.226	4.76
449.584	4.83
449.941	4.96
450.299	4.87
450.656	4.87
451.014	4.86
451.371	4.89
451.729	4.81
452.086	5.24
452.443	4.95
452.801	5.24
453.158	4.96
453.515	4.83
453.872	5
454.229	4.86
454.586	4.89
454.943	5.11
455.3	5.09
455.657	4.93
456.014	4.98
456.371	4.95
456.727	5.08
457.084	5.12
457.441	5.02
457.797	5.23
458.154	5.12
458.51	4.95
458.867	5.11
459.223	5.14
459.58	5.19
459.936	4.94
460.292	5.2
460.648	5.11
461.005	4.96
461.361	4.86
461.717	4.9
462.073	4.79
462.429	4.91
462.785	5.12
463.141	4.98
463.496	5.1
463.852	5.17
464.208	5.11
464.564	5.25
464.919	5.03
465.275	5.15
465.631	5.22
465.986	4.93
466.342	5.2
466.697	4.9
467.052	5.27
467.408	5.16
467.763	5.12
468.118	5.24
468.473	5.14
468.829	5.07
469.184	5.2
469.539	5.27
469.894	5
470.249	5.19
470.603	5.26
470.958	5.17
471.313	5.13
471.668	5.16
472.023	5.2
472.377	5.09
472.732	5.06
473.086	5.05
473.441	5.03
473.795	5.4
474.15	5.38
474.504	5.12
474.859	5.02
475.213	5.04
475.567	5.15
475.921	5.21
476.275	5.22
476.63	5.19
476.984	5.16
477.338	5.45
477.692	5.07
478.045	5.16
478.399	5.17
478.753	5.2
479.107	5.2
479.461	5.18
479.814	5.09
480.168	5.05
480.521	5.17
480.875	5.17
481.228	5.25
481.582	5.18
481.935	5.2
482.289	5.08
482.642	5.09
482.995	5.18
483.348	5.17
483.701	5.09
484.055	5.06
484.408	5.23
484.761	4.92
485.114	4.85
485.466	4.66
485.819	4.67
486.172	4.78
486.525	4.93
486.878	4.97
487.23	5.03
487.583	5.11
487.936	5.08
488.288	5.03
488.641	4.97
488.993	4.88
489.345	4.82
489.698	4.8
490.05	4.84
490.402	4.96
490.754	5.05
491.107	5.12
491.459	5.07
491.811	5.21
492.163	5.2
492.515	5.02
492.866	5.05
493.218	4.92
493.57	4.89
493.922	4.86
494.274	5.11
494.625	5.23
494.977	5.24
495.328	5.28
495.68	5.32
496.031	5.3
496.383	5.2
496.734	5.43
497.086	5.38
497.437	5.19
497.788	5.17
498.139	5.2
498.49	5.23
498.842	5.17
499.193	5.11
499.544	5.21
499.894	5.13
500.245	5.28
500.596	5.2
500.947	5.38
501.298	5.16
501.648	5.29
501.999	5.42
502.35	5.19
502.7	5.37
503.051	5.22
503.401	5.28
503.752	5.31
504.102	5.14
504.452	5.39
504.803	5.27
505.153	5.2
505.503	5.07
505.853	5.17
506.203	5.13
506.553	5.23
506.903	5.2
507.253	5.11
507.603	5.14
507.953	5.31
508.303	5.38
508.652	5.15
509.002	5.22
509.352	5.31
509.701	5.15
510.051	5.19
510.4	5.14
510.75	5.2
511.099	5.24
511.449	5.07
511.798	5.2
512.147	5.2
512.496	5.12
512.846	5.28
513.195	5.14
513.544	5.15
513.893	5.23
514.242	5.18
514.591	5.39
514.939	5.21
515.288	5.3
515.637	5.3
515.986	5.27
516.334	5.38
516.683	5.33
517.032	5.24
517.38	5.37
517.729	5.21
518.077	5.19
518.426	5.34
518.774	5.26
519.122	5.19
519.47	5.17
519.819	5.03
520.167	5.08
520.515	5.02
520.863	5.12
521.211	5.12
521.559	5.33
521.907	5.14
522.255	5.21
522.602	5.24
522.95	5.18
523.298	5.22
523.645	5.35
523.993	5.13
524.341	5.37
524.688	5.2
525.036	5.06
525.383	5.21
525.73	5.37
526.078	5.28
526.425	5.19
526.772	5.25
527.119	5.07
527.466	5.06
527.814	5.08
528.161	5.12
528.508	5.27
528.854	5.13
529.201	5
529.548	5.11
529.895	5
530.242	4.76
530.588	4.75
530.935	4.88
531.282	4.95
531.628	5.04
531.975	5.09
532.321	5.08
532.667	5.11
533.014	5.08
533.36	5.14
533.706	5.09
534.052	5.09
534.399	4.92
534.745	4.95
535.091	4.96
535.437	4.98
535.783	4.98
536.129	5.13
536.474	5.15
536.82	5.18
537.166	5.28
537.512	5.29
537.857	5.16
538.203	5.09
538.549	4.95
538.894	5.02
539.239	5.13
539.585	5.15
539.93	5.18
540.276	5.31
540.621	5.26
540.966	5.21
541.311	5.05
541.656	5.2
542.001	5.06
542.346	5.09
542.691	4.95
543.036	4.89
543.381	4.81
543.726	4.87
544.071	5.02
544.415	5.06
544.76	5
545.105	4.99
545.449	5.1
545.794	5.06
546.138	5.07
546.483	5.12
546.827	5.25
547.171	5.02
547.516	5.17
547.86	5.03
548.204	5.01
548.548	5.01
548.892	5.2
549.236	5.05
549.58	5.14
549.924	5.19
550.268	5.25
550.612	5.17
550.956	5.39
551.3	5.29
551.643	5.38
551.987	5.33
552.33	5.1
552.674	5.47
553.017	5.27
553.361	5.2
553.704	5.33
554.048	5.02
554.391	5.07
554.734	5.07
555.077	5.13
555.42	4.89
555.764	5.17
556.107	4.92
556.45	5.03
556.793	5.2
557.135	5.23
557.478	5.15
557.821	5.18
558.164	5.12
558.507	5.3
558.849	5.02
559.192	5.18
559.534	5.17
559.877	5.09
560.219	5.06
560.562	5.48
560.904	5.21
561.246	5.1
561.589	5.17
561.931	5.04
562.273	5.09
562.615	5.14
562.957	5.31
563.299	4.83
563.641	5.15
563.983	5.26
564.325	5.01
564.667	5
565.008	5.04
565.35	4.94
565.692	4.93
566.033	5.26
566.375	5.09
566.716	5.25
567.058	5.05
567.399	5.1
567.741	4.84
568.082	5.08
568.423	4.85
568.764	4.97
569.105	5.15
569.447	5.23
569.788	5.21
570.129	5.12
570.47	5.01
570.811	5.31
571.151	5.25
571.492	5.14
571.833	5.16
572.174	5.04
572.514	5.14
572.855	5.1
573.195	5.09
573.536	4.9
573.876	4.91
574.217	4.88
574.557	5.1
574.898	5.18
575.238	5.12
575.578	4.82
575.918	5.31
576.258	5.23
576.598	5.17
576.938	4.91
577.278	4.89
577.618	4.97
577.958	5.06
578.298	4.89
578.638	4.87
578.977	5.1
579.317	4.84
579.657	4.99
579.996	5.07
580.336	5.08
580.675	5.13
581.014	5.07
581.354	5.18
581.693	5.3
582.032	4.92
582.372	5.09
582.711	4.94
583.05	4.86
583.389	5.05
583.728	4.98
584.067	5.21
584.406	5.08
584.745	5.28
585.083	5.11
585.422	5.26
585.761	5.18
586.1	4.93
586.438	5.09
586.777	5.26
587.115	4.98
587.454	4.97
587.792	4.81
588.13	5.34
588.469	4.94
588.807	4.88
589.145	4.85
589.483	4.9
589.821	4.85
590.159	5.21
590.497	5.35
590.835	5.39
591.173	4.99
591.511	5.23
591.849	5.2
592.187	5.03
592.524	5.11
592.862	5.09
593.2	5.2
593.537	5.09
593.875	5.25
594.212	4.96
594.55	4.76
594.887	4.86
595.224	4.92
595.561	5.03
595.899	4.96
596.236	4.94
596.573	4.91
596.91	4.5
597.247	4.85
597.584	5.17
597.921	4.86
598.258	4.56
598.594	4.9
598.931	4.82
599.268	4.95
599.604	4.72
599.941	4.84
600.277	4.95
600.614	4.78
600.95	4.69
601.287	5.3
601.623	4.76
601.959	4.99
602.296	4.92
602.632	4.99
602.968	4.82
603.304	5.17
603.64	5.15
603.976	4.82
604.312	4.91
604.648	5.22
604.984	4.9
605.319	5
605.655	4.78
605.991	4.9
606.326	4.86
606.662	5.01
606.998	4.78
607.333	4.88
607.668	4.95
608.004	4.93
608.339	5.05
608.674	4.96
609.01	4.73
609.345	4.73
609.68	5.27
610.015	4.58
610.35	4.89
610.685	4.83
611.02	4.86
611.355	4.78
611.689	4.89
612.024	4.84
612.359	4.86
612.694	4.97
613.028	4.67
613.363	4.96
613.697	5.07
614.032	5
614.366	4.86
614.7	4.97
615.035	5.13
615.369	4.71
615.703	4.91
616.037	4.98
616.371	4.69
616.705	4.94
617.039	5.07
617.373	4.76
617.707	4.77
618.041	4.63
618.375	4.96
618.709	4.93
619.042	4.78
619.376	5.11
619.71	4.95
620.043	4.86
620.377	4.58
620.71	4.94
621.043	4.98
621.377	4.69
621.71	4.61
622.043	4.52
622.376	4.29
622.709	5.09
623.043	4.95
623.376	4.86
623.709	4.82
624.041	4.86
624.374	5.37
624.707	4.76
625.04	4.94
625.373	4.31
625.705	4.57
626.038	4.81
626.37	4.64
626.703	4.98
627.035	4.92
627.368	5.19
627.7	4.87
628.032	4.68
628.365	4.81
628.697	4.91
629.029	4.76
629.361	4.63
629.693	4.75
630.025	4.7
630.357	4.9
630.689	5.06
631.021	4.48
631.353	4.91
631.684	4.52
632.016	4.76
632.348	5.15
632.679	4.96
633.011	4.87
633.342	5.1
633.674	4.94
634.005	5.01
634.336	4.98
634.668	5.14
634.999	4.57
635.33	4.95
635.661	4.87
635.992	4.7
636.323	5.08
636.654	4.83
636.985	5.1
637.316	4.82
637.647	4.4
637.977	4.86
638.308	5.01
638.639	4.63
638.969	5.04
639.3	4.62
639.63	4.42
639.961	4.93
640.291	4.97
640.622	5.22
640.952	4.59
641.282	5.52
641.612	4.73
641.943	4.81
642.273	4.95
642.603	5.19
642.933	5.01
643.263	5.17
643.592	4.75
643.922	4.71
644.252	4.56
644.582	5.34
644.911	4.61
645.241	4.58
645.571	4.3
645.9	4.28
646.23	4.96
646.559	4.66
646.888	5.21
647.218	5.07
647.547	5.23
647.876	4.34
648.205	4.71
648.534	4.85
648.863	4.22
649.192	5.21
649.521	4.66
649.85	4.87
650.179	5.07
650.508	4.23
650.837	4.18
651.165	4.53
651.494	4.72
651.822	5.05
652.151	4.5
652.479	4.67
652.808	4.28
653.136	5
653.465	4.14
653.793	4.21
654.121	4.42
654.449	4.64
654.777	4.95
655.105	4.95
655.433	4.04
655.761	4.52
656.089	5.09
656.417	4.87
656.745	4.78
657.073	4.16
657.4	5.17
657.728	4.7
658.056	4.79
658.383	5.08
658.711	4.87
659.038	4.77
659.365	4.82
659.693	4.24
660.02	4.79
660.347	4.45
660.674	4.92
661.001	4.81
661.329	4.26
661.656	4.72
661.982	4.81
662.309	4.78
662.636	4.49
662.963	5.1
663.29	5.02
663.616	5.45
663.943	4.1
664.27	4.74
664.596	5.09
664.923	5.17
665.249	5.04
665.576	5.1
665.902	5.62
666.228	5.18
666.554	4.97
666.881	4.8
667.207	4.92
667.533	4.57
667.859	5.12
668.185	5.16
668.511	4.23
668.837	4.26
669.162	4.85
669.488	4.34
669.814	5.06
670.139	5.21
670.465	5.21
670.791	4.95
671.116	5.56
671.442	3.85
671.767	5.06
672.092	5.37
672.418	4.92
672.743	5.19
673.068	4.44
673.393	4.7
673.718	4.59
674.043	5.15
674.368	4.76
674.693	5.78
675.018	4.5
675.343	4.96
675.667	4.62
675.992	4.94
676.317	5.31
676.641	5.09
676.966	5.33
677.29	4.49
677.615	5.16
677.939	5.02
678.264	5.83
678.588	5.48
678.912	4.98
679.236	5.96
679.56	4.58
679.885	5.36
680.209	4.77
680.532	4.78
680.856	5.14
681.18	4.49
681.504	4.86
681.828	4.99
682.152	4.61
682.475	4.67
682.799	5.2
683.122	5.06
683.446	4.76
683.769	5.25
684.093	4.64
684.416	5.78
684.739	4.59
685.062	4.73
685.386	5.05
685.709	4.54
686.032	5.12
686.355	4.54
686.678	4.63
687.001	5.1
687.324	5.47
687.646	4.55
687.969	4.28
688.292	4.99
688.614	5.23
688.937	5.23
689.26	4.67
689.582	5.31
689.904	4.79
690.227	4.76
690.549	4.94
690.871	5.19
691.194	4.82
691.516	5.11
691.838	4.79
692.16	4.26
692.482	4.5
692.804	5.27
693.126	5.11
