Data from 0058_crown_Reflection__3__131.txt Node

Date: Fri Dec 16 14:56:27 CST 2022
User: ToomeyLab
Spectrometer: FLMS14357
Trigger mode: 0
Integration Time (sec): 1.000000E-2
Scans to average: 100
Electric dark correction enabled: true
Nonlinearity correction enabled: false
Boxcar width: 0
XAxis mode: Wavelengths
Number of Pixels in Spectrum: 2048
>>>>>Begin Spectral Data<<<<<
189.047	-39.76
189.435	-39.76
189.823	-39.76
190.211	13.87
190.599	286.03
190.987	-67.98
191.375	-169.18
191.763	45.57
192.151	113.03
192.538	112.97
192.926	17.19
193.314	125.81
193.702	1.32
194.089	77.28
194.477	-181.97
194.864	-22
195.252	60.08
195.639	325.76
196.027	-16.03
196.414	9.68
196.801	266.82
197.189	132.72
197.576	151.65
197.963	-267.35
198.351	-3.73
198.738	-29.96
199.125	45.47
199.512	45.36
199.899	-87.37
200.286	-49.48
200.673	8.04
201.06	22.21
201.447	20.47
201.833	13.63
202.22	-14.56
202.607	-46.42
202.994	-1.6
203.38	-42.91
203.767	-160.12
204.154	-85.86
204.54	-11.09
204.927	7.41
205.313	8.9
205.699	-24.6
206.086	14.92
206.472	-10.67
206.858	-33.86
207.245	38.75
207.631	-1.56
208.017	22.14
208.403	0.49
208.789	7.64
209.175	38.44
209.561	-13.4
209.947	12.07
210.333	-7.48
210.719	8.01
211.105	-26.61
211.491	27.04
211.876	23.39
212.262	-28.92
212.648	-62.31
213.034	-8.13
213.419	30.75
213.805	-7.64
214.19	30.88
214.576	-31.58
214.961	-30.89
215.346	10.8
215.732	-12.74
216.117	-22.78
216.502	-27.27
216.888	-16.54
217.273	5.23
217.658	0.55
218.043	4.76
218.428	-9.09
218.813	5.26
219.198	-32.89
219.583	9.43
219.968	-11.79
220.353	11.54
220.738	-4.52
221.122	-8.93
221.507	-14.02
221.892	3.47
222.276	-9.22
222.661	3.39
223.046	4.78
223.43	-3.5
223.815	8.25
224.199	15.31
224.583	-2.09
224.968	11.1
225.352	-5.47
225.736	5.87
226.121	-3.15
226.505	6.08
226.889	10.68
227.273	11.24
227.657	8.23
228.041	13.01
228.425	9.73
228.809	9.03
229.193	4.58
229.577	7.27
229.961	8.56
230.344	7.41
230.728	7.28
231.112	6.16
231.495	7.35
231.879	7.38
232.263	6.22
232.646	5.73
233.03	5.81
233.413	8.36
233.797	7.89
234.18	4.14
234.563	3.77
234.946	5.68
235.33	8.14
235.713	7.19
236.096	7.14
236.479	6.12
236.862	7.04
237.245	7.54
237.628	7.95
238.011	5.4
238.394	8.73
238.777	7.78
239.16	5
239.543	4.67
239.925	7.53
240.308	7.43
240.691	7.47
241.073	8.48
241.456	7.16
241.838	7.21
242.221	6.49
242.603	7.52
242.986	8.28
243.368	7.25
243.75	6.85
244.133	6.87
244.515	6.91
244.897	6.73
245.279	6.92
245.661	6.39
246.043	7.58
246.425	6.71
246.807	7.02
247.189	6.89
247.571	6.95
247.953	6.96
248.335	7.09
248.717	6.77
249.098	7.04
249.48	6.93
249.862	6.65
250.243	6.72
250.625	6.72
251.006	6.2
251.388	7.12
251.769	6.93
252.151	7.29
252.532	6.98
252.913	7
253.295	6.74
253.676	7.29
254.057	6.6
254.438	7.16
254.819	6.78
255.2	6.71
255.581	6.64
255.962	6.92
256.343	6.97
256.724	5.71
257.105	7.25
257.486	6.11
257.867	5.21
258.247	7.14
258.628	7.66
259.009	6.07
259.389	7.44
259.77	6.7
260.15	7.12
260.531	6.67
260.911	6.57
261.292	6.41
261.672	6.26
262.052	6.18
262.432	6.26
262.813	6.06
263.193	5.78
263.573	6.2
263.953	6.18
264.333	6.53
264.713	6.02
265.093	5.66
265.473	6.42
265.853	5.63
266.233	6.58
266.612	5.79
266.992	6.11
267.372	6.53
267.752	5.93
268.131	5.77
268.511	6.17
268.89	6.6
269.27	6.31
269.649	6.47
270.029	6.01
270.408	6.4
270.787	6.29
271.167	6.47
271.546	5.36
271.925	5.98
272.304	6.51
272.683	6.09
273.062	6.17
273.441	5.98
273.82	5.88
274.199	5.96
274.578	5.8
274.957	5.95
275.336	5.79
275.715	6.08
276.093	6.04
276.472	6.06
276.851	6.22
277.229	6.55
277.608	5.78
277.986	5.88
278.365	5.82
278.743	6.55
279.122	5.68
279.5	5.54
279.878	5.25
280.257	5.66
280.635	5.77
281.013	6.1
281.391	5.48
281.769	5.43
282.147	5.85
282.525	5.38
282.903	6.06
283.281	5.99
283.659	6.14
284.037	5.55
284.415	5.99
284.792	6.18
285.17	5.5
285.548	5.65
285.925	6.13
286.303	5.81
286.68	5.64
287.058	5.64
287.435	5.24
287.813	5.77
288.19	5.88
288.567	5.57
288.945	5.72
289.322	5.41
289.699	5.42
290.076	5.63
290.453	5.15
290.83	5.76
291.207	5.54
291.584	5.29
291.961	5.69
292.338	5.62
292.715	5.35
293.092	5.2
293.469	5.77
293.845	5.48
294.222	5.49
294.599	5.76
294.975	5.3
295.352	5.19
295.728	5.43
296.105	5.36
296.481	6.16
296.858	5.71
297.234	5.7
297.61	5.48
297.986	5.35
298.363	5.12
298.739	5.4
299.115	4.75
299.491	5.44
299.867	5.69
300.243	5.03
300.619	5.25
300.995	5.46
301.371	5.69
301.746	5.11
302.122	5.21
302.498	5.4
302.874	5.02
303.249	5.47
303.625	5.06
304	4.62
304.376	5.05
304.751	5.36
305.127	5
305.502	5.08
305.878	5.17
306.253	4.83
306.628	5.07
307.003	5.07
307.378	4.44
307.754	5.12
308.129	4.8
308.504	5.05
308.879	5.41
309.254	5.09
309.629	5.31
310.003	5.46
310.378	5.45
310.753	5.24
311.128	5.37
311.502	4.63
311.877	4.83
312.252	4.83
312.626	4.62
313.001	4.77
313.375	4.69
313.75	4.91
314.124	5.26
314.498	4.67
314.873	5.23
315.247	4.67
315.621	5.46
315.995	5.18
316.369	4.69
316.743	5.25
317.117	4.52
317.491	5.19
317.865	4.5
318.239	5.08
318.613	4.72
318.987	5.18
319.361	4.44
319.734	4.57
320.108	4.94
320.482	5.34
320.855	4.57
321.229	5.23
321.602	5.37
321.976	5.23
322.349	4.2
322.723	4.28
323.096	4.29
323.469	4.68
323.843	5.06
324.216	4.17
324.589	5.27
324.962	5.03
325.335	5.09
325.708	4.82
326.081	5.32
326.454	5.01
326.827	5.08
327.2	5.08
327.573	4.94
327.945	5.19
328.318	5.33
328.691	4.62
329.063	4.32
329.436	4.49
329.809	4.71
330.181	4.36
330.553	5.08
330.926	4.73
331.298	4.24
331.671	4.9
332.043	4.56
332.415	5.13
332.787	5.08
333.159	4.78
333.532	4.57
333.904	4.92
334.276	4.87
334.648	4.71
335.02	5.07
335.391	4.95
335.763	4.72
336.135	5.07
336.507	5.28
336.879	4.48
337.25	4.93
337.622	4.79
337.993	4.73
338.365	4.94
338.736	5.07
339.108	4.36
339.479	4.91
339.851	5.52
340.222	4.65
340.593	4.85
340.964	4.6
341.336	4.51
341.707	4.79
342.078	4.76
342.449	5.3
342.82	4.8
343.191	4.65
343.562	4.9
343.933	4.77
344.303	5.33
344.674	4.86
345.045	4.9
345.416	4.65
345.786	4.17
346.157	4.94
346.527	4.81
346.898	4.8
347.268	4.93
347.639	4.77
348.009	4.86
348.38	4.97
348.75	5.17
349.12	4.82
349.49	4.6
349.861	4.98
350.231	4.87
350.601	5.01
350.971	4.87
351.341	5.18
351.711	4.59
352.081	4.84
352.45	4.91
352.82	4.59
353.19	4.75
353.56	4.9
353.929	4.96
354.299	4.98
354.669	4.73
355.038	4.9
355.408	5.33
355.777	4.33
356.147	5.32
356.516	5.42
356.885	4.93
357.254	5.26
357.624	4.94
357.993	4.7
358.362	5.3
358.731	5.21
359.1	5.11
359.469	5.21
359.838	4.74
360.207	4.85
360.576	5.41
360.945	5.05
361.314	5.06
361.682	4.9
362.051	4.84
362.42	5.34
362.788	5.22
363.157	4.98
363.525	5.1
363.894	4.85
364.262	5.18
364.631	5.55
364.999	4.94
365.367	5.46
365.735	4.74
366.104	4.8
366.472	5.45
366.84	5.28
367.208	4.59
367.576	4.76
367.944	5.62
368.312	4.63
368.68	5.14
369.048	5.22
369.416	5.02
369.783	5.2
370.151	4.97
370.519	4.94
370.886	5.08
371.254	5.17
371.621	5.49
371.989	5.33
372.356	5.37
372.724	5.23
373.091	5.23
373.458	5.18
373.826	5.07
374.193	5.59
374.56	5.13
374.927	5.12
375.294	5.55
375.661	5.28
376.028	5.23
376.395	5.25
376.762	5.38
377.129	5.21
377.496	5.22
377.863	5.19
378.229	5.31
378.596	5.24
378.963	5.31
379.329	5.29
379.696	5.35
380.062	5.39
380.429	5.39
380.795	5.07
381.161	5.25
381.528	4.86
381.894	5.34
382.26	5.14
382.626	5.32
382.993	5.1
383.359	4.97
383.725	5.53
384.091	5.45
384.457	5.34
384.823	5.4
385.188	5.46
385.554	5.14
385.92	5.62
386.286	5.49
386.651	5.21
387.017	5.45
387.383	5.52
387.748	5.34
388.114	5.52
388.479	5.61
388.845	5.5
389.21	5.66
389.575	5.67
389.94	5.23
390.306	5.35
390.671	5.34
391.036	5.86
391.401	5.78
391.766	5.68
392.131	5.61
392.496	5.32
392.861	5.36
393.226	5.42
393.591	5.64
393.956	5.69
394.32	5.39
394.685	5.42
395.05	5.24
395.414	5.41
395.779	5.46
396.143	5.64
396.508	5.72
396.872	5.59
397.236	5.15
397.601	5.92
397.965	5.56
398.329	5.67
398.694	5.65
399.058	5.65
399.422	5.55
399.786	5.75
400.15	5.55
400.514	5.51
400.878	5.46
401.242	5.73
401.605	5.71
401.969	5.73
402.333	5.49
402.697	5.72
403.06	5.95
403.424	5.58
403.787	5.72
404.151	5.55
404.514	5.78
404.878	5.61
405.241	5.86
405.604	5.8
405.968	5.65
406.331	5.85
406.694	5.67
407.057	6.06
407.42	5.76
407.783	5.81
408.146	5.81
408.509	5.77
408.872	5.61
409.235	6.04
409.598	5.79
409.961	6.08
410.323	5.89
410.686	5.76
411.049	5.56
411.411	5.61
411.774	5.7
412.136	5.73
412.499	5.7
412.861	5.71
413.223	5.96
413.586	5.6
413.948	6.01
414.31	5.93
414.672	5.74
415.035	5.92
415.397	5.81
415.759	5.78
416.121	5.89
416.483	6.09
416.845	5.89
417.206	5.95
417.568	5.97
417.93	5.75
418.292	5.85
418.653	5.79
419.015	5.95
419.377	5.91
419.738	5.74
420.1	5.73
420.461	5.77
420.822	5.82
421.184	5.83
421.545	5.75
421.906	5.87
422.267	5.79
422.629	5.81
422.99	5.77
423.351	5.82
423.712	5.7
424.073	5.93
424.434	5.72
424.795	5.81
425.155	5.81
425.516	5.83
425.877	5.89
426.238	5.68
426.598	5.86
426.959	5.79
427.32	5.89
427.68	5.88
428.041	5.88
428.401	5.9
428.761	5.84
429.122	5.79
429.482	5.68
429.842	5.98
430.202	5.85
430.563	5.93
430.923	6.01
431.283	6.03
431.643	5.94
432.003	6.1
432.363	6.11
432.722	6.06
433.082	5.9
433.442	6.13
433.802	5.97
434.161	6.08
434.521	6.13
434.881	6.05
435.24	5.93
435.6	5.92
435.959	5.98
436.319	5.98
436.678	6.02
437.037	6
437.396	6.08
437.756	6.06
438.115	6.13
438.474	5.96
438.833	6.18
439.192	6.21
439.551	6.01
439.91	6.15
440.269	6.08
440.628	6.1
440.987	6.12
441.345	6.06
441.704	6.11
442.063	5.94
442.421	6.06
442.78	6
443.138	5.88
443.497	5.97
443.855	5.95
444.214	6.07
444.572	6.16
444.93	6.18
445.288	6.17
445.647	6.12
446.005	6.06
446.363	6.23
446.721	6.12
447.079	6.1
447.437	6.07
447.795	5.99
448.153	6.02
448.51	5.95
448.868	6.11
449.226	6.01
449.584	6.01
449.941	6.17
450.299	6.1
450.656	6.13
451.014	6.19
451.371	6.14
451.729	6.26
452.086	6.22
452.443	6.13
452.801	6.09
453.158	6.12
453.515	6.1
453.872	6.2
454.229	6.07
454.586	6.25
454.943	6.1
455.3	6.38
455.657	6.19
456.014	6.14
456.371	6.35
456.727	6.19
457.084	6.2
457.441	6.1
457.797	6.19
458.154	6.34
458.51	6.21
458.867	6.26
459.223	6.13
459.58	6.11
459.936	6.12
460.292	6.15
460.648	6.14
461.005	6.14
461.361	6.16
461.717	6.1
462.073	5.99
462.429	6.16
462.785	6.24
463.141	6.37
463.496	6.03
463.852	6.43
464.208	6.43
464.564	6.3
464.919	6.29
465.275	6.36
465.631	6.41
465.986	6.26
466.342	6.41
466.697	6.29
467.052	6.53
467.408	6.28
467.763	6.29
468.118	6.38
468.473	6.38
468.829	6.19
469.184	6.46
469.539	6.3
469.894	6.19
470.249	6.2
470.603	6.23
470.958	6.4
471.313	6.22
471.668	6.36
472.023	6.42
472.377	6.26
472.732	6.38
473.086	6.33
473.441	6.45
473.795	6.48
474.15	6.27
474.504	6.34
474.859	6.34
475.213	6.39
475.567	6.28
475.921	6.41
476.275	6.54
476.63	6.4
476.984	6.31
477.338	6.61
477.692	6.47
478.045	6.33
478.399	6.37
478.753	6.24
479.107	6.34
479.461	6.35
479.814	6.36
480.168	6.37
480.521	6.42
480.875	6.45
481.228	6.51
481.582	6.3
481.935	6.47
482.289	6.4
482.642	6.45
482.995	6.33
483.348	6.3
483.701	6.29
484.055	6.3
484.408	6.27
484.761	6.19
485.114	6.16
485.466	6.11
485.819	5.96
486.172	5.95
486.525	5.99
486.878	6.06
487.23	6.13
487.583	6.21
487.936	6.25
488.288	6.26
488.641	6.18
488.993	6.09
489.345	6.13
489.698	6.16
490.05	6.07
490.402	6.18
490.754	6.22
491.107	6.28
491.459	6.31
491.811	6.31
492.163	6.35
492.515	6.29
492.866	6.21
493.218	6.19
493.57	6.14
493.922	6.1
494.274	6.14
494.625	6.17
494.977	6.23
495.328	6.3
495.68	6.51
496.031	6.37
496.383	6.32
496.734	6.42
497.086	6.33
497.437	6.44
497.788	6.38
498.139	6.41
498.49	6.44
498.842	6.32
499.193	6.29
499.544	6.5
499.894	6.47
500.245	6.44
500.596	6.41
500.947	6.4
501.298	6.44
501.648	6.37
501.999	6.49
502.35	6.55
502.7	6.49
503.051	6.59
503.401	6.4
503.752	6.45
504.102	6.62
504.452	6.39
504.803	6.32
505.153	6.49
505.503	6.44
505.853	6.3
506.203	6.41
506.553	6.48
506.903	6.34
507.253	6.49
507.603	6.52
507.953	6.54
508.303	6.49
508.652	6.45
509.002	6.61
509.352	6.45
509.701	6.45
510.051	6.54
510.4	6.37
510.75	6.37
511.099	6.38
511.449	6.38
511.798	6.51
512.147	6.37
512.496	6.39
512.846	6.5
513.195	6.54
513.544	6.41
513.893	6.4
514.242	6.51
514.591	6.52
514.939	6.43
515.288	6.57
515.637	6.44
515.986	6.41
516.334	6.48
516.683	6.52
517.032	6.31
517.38	6.51
517.729	6.47
518.077	6.57
518.426	6.42
518.774	6.48
519.122	6.31
519.47	6.45
519.819	6.38
520.167	6.37
520.515	6.34
520.863	6.37
521.211	6.29
521.559	6.42
521.907	6.31
522.255	6.29
522.602	6.33
522.95	6.43
523.298	6.41
523.645	6.39
523.993	6.48
524.341	6.42
524.688	6.45
525.036	6.55
525.383	6.66
525.73	6.47
526.078	6.52
526.425	6.35
526.772	6.27
527.119	6.38
527.466	6.3
527.814	6.3
528.161	6.33
528.508	6.32
528.854	6.29
529.201	6.31
529.548	6.33
529.895	6.25
530.242	6.21
530.588	6.19
530.935	6.04
531.282	6.08
531.628	6.17
531.975	6.18
532.321	6.27
532.667	6.3
533.014	6.3
533.36	6.3
533.706	6.4
534.052	6.33
534.399	6.29
534.745	6.28
535.091	6.22
535.437	6.17
535.783	6.23
536.129	6.2
536.474	6.35
536.82	6.28
537.166	6.38
537.512	6.51
537.857	6.27
538.203	6.35
538.549	6.31
538.894	6.21
539.239	6.32
539.585	6.34
539.93	6.34
540.276	6.38
540.621	6.37
540.966	6.44
541.311	6.42
541.656	6.25
542.001	6.38
542.346	6.38
542.691	6.26
543.036	6.23
543.381	6.22
543.726	6.16
544.071	6.15
544.415	6.17
544.76	6.12
545.105	6.23
545.449	6.15
545.794	6.21
546.138	6.3
546.483	6.3
546.827	6.27
547.171	6.36
547.516	6.5
547.86	6.3
548.204	6.25
548.548	6.42
548.892	6.34
549.236	6.32
549.58	6.41
549.924	6.37
550.268	6.44
550.612	6.32
550.956	6.28
551.3	6.44
551.643	6.27
551.987	6.38
552.33	6.24
552.674	6.63
553.017	6.38
553.361	6.54
553.704	6.13
554.048	6.45
554.391	6.44
554.734	6.39
555.077	6.4
555.42	6.2
555.764	6.46
556.107	6.39
556.45	6.28
556.793	6.74
557.135	6.52
557.478	6.46
557.821	6.45
558.164	6.38
558.507	6.27
558.849	6.3
559.192	6.43
559.534	6.43
559.877	6.49
560.219	6.51
560.562	6.38
560.904	6.43
561.246	6.47
561.589	6.42
561.931	6.54
562.273	6.26
562.615	6.53
562.957	6.35
563.299	6.38
563.641	6.46
563.983	6.32
564.325	6.32
564.667	6.29
565.008	6.15
565.35	6.4
565.692	6.41
566.033	6.34
566.375	6.32
566.716	6.43
567.058	6.55
567.399	6.49
567.741	6.43
568.082	6.19
568.423	6.25
568.764	6.25
569.105	6.32
569.447	6.15
569.788	6.26
570.129	6.29
570.47	6.42
570.811	6.44
571.151	6.25
571.492	6.57
571.833	6.34
572.174	6.2
572.514	6.4
572.855	6.41
573.195	6.34
573.536	6.3
573.876	6.39
574.217	6.18
574.557	6.42
574.898	6.16
575.238	6.25
575.578	6.28
575.918	6.25
576.258	6.26
576.598	6.26
576.938	6.34
577.278	6.22
577.618	6.3
577.958	6.17
578.298	6.25
578.638	6.32
578.977	6.35
579.317	6.31
579.657	6.16
579.996	6.08
580.336	6.26
580.675	6.34
581.014	6.41
581.354	6.39
581.693	6.19
582.032	6.09
582.372	6.31
582.711	6.19
583.05	6.39
583.389	6.4
583.728	6.37
584.067	6.13
584.406	6.4
584.745	6.12
585.083	6.5
585.422	6.12
585.761	6.45
586.1	6.31
586.438	6.18
586.777	6.38
587.115	6.46
587.454	6.31
587.792	6.12
588.13	6.46
588.469	6.24
588.807	6.44
589.145	6.32
589.483	6.23
589.821	6.48
590.159	6.21
590.497	6.12
590.835	5.98
591.173	6.34
591.511	6.19
591.849	6.09
592.187	6.28
592.524	6.17
592.862	6.23
593.2	6.19
593.537	6.11
593.875	6.2
594.212	6.25
594.55	6.33
594.887	6.35
595.224	6.27
595.561	6.2
595.899	6.36
596.236	6.07
596.573	6.12
596.91	6.21
597.247	6.27
597.584	6.28
597.921	6.19
598.258	6.37
598.594	5.99
598.931	6.1
599.268	6.05
599.604	6.28
599.941	6.25
600.277	6.1
600.614	6.23
600.95	6.21
601.287	6.2
601.623	6.38
601.959	6
602.296	5.98
602.632	6.53
602.968	5.97
603.304	6.03
603.64	6.03
603.976	6.22
604.312	6.36
604.648	6.28
604.984	6.26
605.319	6
605.655	6.26
605.991	6.14
606.326	5.96
606.662	6.1
606.998	6.1
607.333	5.97
607.668	6.1
608.004	6.14
608.339	6.13
608.674	6.03
609.01	6.34
609.345	6.39
609.68	5.9
610.015	6.16
610.35	6.09
610.685	6.28
611.02	6.33
611.355	6.39
611.689	5.92
612.024	6.16
612.359	6.22
612.694	6.08
613.028	6.23
613.363	6.26
613.697	6.12
614.032	6.16
614.366	6.17
614.7	6.58
615.035	6.26
615.369	6.4
615.703	6.45
616.037	6.04
616.371	6.24
616.705	6.23
617.039	6.28
617.373	6.23
617.707	6.17
618.041	6.03
618.375	6.31
618.709	6.29
619.042	6.08
619.376	6
619.71	6.21
620.043	6.15
620.377	6.4
620.71	6.34
621.043	6.08
621.377	6.14
621.71	6.05
622.043	6.14
622.376	6.22
622.709	6.38
623.043	6.38
623.376	6.38
623.709	6.19
624.041	6.11
624.374	6.16
624.707	6.15
625.04	6.36
625.373	6.02
625.705	6.21
626.038	6.38
626.37	6.15
626.703	5.82
627.035	6.32
627.368	6.14
627.7	6.17
628.032	6.14
628.365	5.97
628.697	6
629.029	6.37
629.361	5.88
629.693	6.16
630.025	5.98
630.357	5.86
630.689	6.27
631.021	6.26
631.353	6.52
631.684	5.91
632.016	5.99
632.348	6.19
632.679	6.14
633.011	6.08
633.342	6.27
633.674	6.24
634.005	6.04
634.336	6.24
634.668	6.03
634.999	6.14
635.33	6.08
635.661	6.31
635.992	6.01
636.323	6.04
636.654	6.14
636.985	5.98
637.316	6.13
637.647	6.06
637.977	6.05
638.308	5.96
638.639	5.93
638.969	5.93
639.3	6.01
639.63	5.78
639.961	6.2
640.291	6.2
640.622	6.29
640.952	6.04
641.282	5.82
641.612	5.55
641.943	6.09
642.273	5.87
642.603	6.34
642.933	6.17
643.263	6.46
643.592	5.86
643.922	6.53
644.252	6.03
644.582	5.9
644.911	5.77
645.241	5.91
645.571	6.18
645.9	6.29
646.23	5.76
646.559	6.29
646.888	5.88
647.218	6.28
647.547	6.39
647.876	6.4
648.205	6.24
648.534	5.97
648.863	6.48
649.192	5.9
649.521	5.66
649.85	6.37
650.179	5.75
650.508	5.91
650.837	6.29
651.165	6.02
651.494	6.05
651.822	6.08
652.151	6.27
652.479	6.15
652.808	6.32
653.136	5.66
653.465	6.32
653.793	6.22
654.121	6.05
654.449	6.19
654.777	5.88
655.105	6.41
655.433	6.29
655.761	6.15
656.089	6.2
656.417	5.67
656.745	6.47
657.073	6.71
657.4	6.07
657.728	6.04
658.056	5.94
658.383	5.97
658.711	5.98
659.038	6.6
659.365	5.88
659.693	5.92
660.02	6.02
660.347	6.12
660.674	6.06
661.001	5.7
661.329	6.04
661.656	6.1
661.982	6.26
662.309	6.13
662.636	5.84
662.963	6.24
663.29	6.03
663.616	6.11
663.943	6.72
664.27	6.16
664.596	5.95
664.923	5.98
665.249	5.96
665.576	5.79
665.902	5.97
666.228	5.71
666.554	5.89
666.881	6.3
667.207	5.72
667.533	6.28
667.859	5.48
668.185	6.38
668.511	5.85
668.837	5.27
669.162	6.36
669.488	5.85
669.814	6.43
670.139	6.9
670.465	5.99
670.791	6.52
671.116	5.87
671.442	6.34
671.767	6.23
672.092	6.14
672.418	6.22
672.743	6.3
673.068	5.85
673.393	6.25
673.718	5.67
674.043	6.23
674.368	7.04
674.693	6.18
675.018	6.37
675.343	6.64
675.667	5.79
675.992	5.69
676.317	6.68
676.641	6.41
676.966	6.14
677.29	6.22
677.615	5.78
677.939	6.09
678.264	6.08
678.588	6.26
678.912	6.47
679.236	6.56
679.56	5.67
679.885	6.21
680.209	6.11
680.532	6.06
680.856	6.73
681.18	6.38
681.504	6.04
681.828	5.87
682.152	5.81
682.475	6.01
682.799	6.57
683.122	6.08
683.446	5.99
683.769	6.23
684.093	5.99
684.416	5.96
684.739	6.43
685.062	6.38
685.386	5.7
685.709	5.62
686.032	6.01
686.355	6.49
686.678	6.39
687.001	5.25
687.324	5.85
687.646	6.15
687.969	5.94
688.292	6.46
688.614	6.53
688.937	5.75
689.26	5.27
689.582	5.75
689.904	6.6
690.227	6.04
690.549	6.62
690.871	6.48
691.194	6.5
691.516	6.39
691.838	6.68
692.16	6.42
