Data from 0058_crown_Reflection__0__128.txt Node

Date: Fri Dec 16 14:55:53 CST 2022
User: ToomeyLab
Spectrometer: FLMS14357
Trigger mode: 0
Integration Time (sec): 1.000000E-2
Scans to average: 100
Electric dark correction enabled: true
Nonlinearity correction enabled: false
Boxcar width: 0
XAxis mode: Wavelengths
Number of Pixels in Spectrum: 2048
>>>>>Begin Spectral Data<<<<<
189.047	244.91
189.435	244.91
189.823	244.91
190.211	86.51
190.599	168.16
190.987	61.3
191.375	-219.18
191.763	108.06
192.151	-91.36
192.538	64.44
192.926	-13.65
193.314	58.32
193.702	5.35
194.089	72.95
194.477	-218.12
194.864	95.48
195.252	-118.85
195.639	750.79
196.027	-113.71
196.414	-13.16
196.801	26.76
197.189	142.15
197.576	574.56
197.963	-143.77
198.351	35.9
198.738	-22.43
199.125	54.45
199.512	10.86
199.899	27.88
200.286	-25.93
200.673	26.26
201.06	48.03
201.447	25.39
201.833	-12.6
202.22	20.86
202.607	-12.53
202.994	19.2
203.38	-65.4
203.767	45.22
204.154	-69.88
204.54	11.02
204.927	-2.66
205.313	41.65
205.699	-16.58
206.086	-13.25
206.472	-4.9
206.858	18.61
207.245	13.58
207.631	-1.92
208.017	33.83
208.403	42.69
208.789	71.85
209.175	31.21
209.561	24.2
209.947	-24.72
210.333	-8.77
210.719	2.11
211.105	-36.48
211.491	-13.26
211.876	32.31
212.262	-26.29
212.648	-31.58
213.034	-28.08
213.419	10.85
213.805	19.14
214.19	-13.66
214.576	-0.71
214.961	-9.01
215.346	-13.58
215.732	-18.68
216.117	6.11
216.502	-13.99
216.888	10.09
217.273	22.84
217.658	3.57
218.043	17.56
218.428	7.37
218.813	30.76
219.198	-58.82
219.583	21.8
219.968	21.57
220.353	22.16
220.738	-17.93
221.122	-11.41
221.507	-14.03
221.892	-1.96
222.276	1.5
222.661	-18.49
223.046	7.17
223.43	5.49
223.815	10.26
224.199	9.24
224.583	1.46
224.968	4.36
225.352	-3.15
225.736	14.12
226.121	-5.4
226.505	4.09
226.889	8.19
227.273	8.9
227.657	8.83
228.041	5.46
228.425	10.69
228.809	7.12
229.193	5.48
229.577	7.48
229.961	6.89
230.344	7.32
230.728	7.77
231.112	6.4
231.495	6.89
231.879	6.52
232.263	5.61
232.646	6.78
233.03	5.37
233.413	6.7
233.797	10.9
234.18	5.18
234.563	5.26
234.946	6.72
235.33	7.48
235.713	5.8
236.096	4.67
236.479	7.67
236.862	6.34
237.245	9.09
237.628	6.19
238.011	6.61
238.394	9.43
238.777	7.42
239.16	5.9
239.543	6.6
239.925	7.64
240.308	7.18
240.691	6.73
241.073	7.29
241.456	6.97
241.838	6.43
242.221	7.1
242.603	6.48
242.986	7.18
243.368	6.76
243.75	6.23
244.133	6.7
244.515	6.96
244.897	6.36
245.279	6.34
245.661	6.98
246.043	6.41
246.425	6.77
246.807	6.32
247.189	6.02
247.571	6.63
247.953	6.28
248.335	6.43
248.717	6.19
249.098	6.47
249.48	5.77
249.862	6.8
250.243	6.61
250.625	6.18
251.006	6.16
251.388	6.36
251.769	6.84
252.151	6.06
252.532	5.64
252.913	6.67
253.295	6.11
253.676	6.51
254.057	5.98
254.438	5.97
254.819	6.56
255.2	6.6
255.581	5.67
255.962	6.31
256.343	6.74
256.724	5.94
257.105	5.78
257.486	7.16
257.867	5.07
258.247	5.71
258.628	7.05
259.009	5.81
259.389	6.7
259.77	5.77
260.15	6.27
260.531	6.06
260.911	5.96
261.292	6.02
261.672	5.85
262.052	5.75
262.432	6
262.813	5.99
263.193	5.42
263.573	5.63
263.953	6.17
264.333	6.07
264.713	6.1
265.093	5.75
265.473	6.67
265.853	5.41
266.233	5.02
266.612	5.91
266.992	5.6
267.372	5.62
267.752	5.77
268.131	5.27
268.511	5.77
268.89	5.88
269.27	5.7
269.649	6.09
270.029	5.77
270.408	5.32
270.787	5.53
271.167	5.46
271.546	5.32
271.925	5.51
272.304	5.97
272.683	5.77
273.062	5.64
273.441	5.59
273.82	5.9
274.199	5.52
274.578	5.24
274.957	5.87
275.336	5.47
275.715	5.4
276.093	5.88
276.472	5.87
276.851	5.91
277.229	6.39
277.608	5.32
277.986	5.68
278.365	5.09
278.743	5.66
279.122	5.24
279.5	4.8
279.878	4.81
280.257	5.07
280.635	5.12
281.013	5.82
281.391	5.66
281.769	5.12
282.147	5.56
282.525	4.83
282.903	5.32
283.281	5.13
283.659	5.03
284.037	5.37
284.415	5.51
284.792	5.38
285.17	5.3
285.548	4.9
285.925	5.44
286.303	5.09
286.68	5.33
287.058	5.21
287.435	5
287.813	5.33
288.19	5.36
288.567	5.1
288.945	5.38
289.322	4.47
289.699	4.75
290.076	5.23
290.453	5.51
290.83	5.23
291.207	5.32
291.584	4.79
291.961	4.88
292.338	4.86
292.715	5.02
293.092	5.06
293.469	5.3
293.845	5.58
294.222	4.52
294.599	5.17
294.975	5.07
295.352	4.71
295.728	5.17
296.105	5.01
296.481	5.59
296.858	5.06
297.234	5.15
297.61	5.13
297.986	5.19
298.363	4.56
298.739	5
299.115	4.84
299.491	4.79
299.867	4.88
300.243	4.73
300.619	4.9
300.995	5.18
301.371	4.74
301.746	4.67
302.122	5.11
302.498	4.54
302.874	5.01
303.249	5.08
303.625	4.65
304	4.35
304.376	4.8
304.751	4.91
305.127	4.65
305.502	5.03
305.878	4.66
306.253	4.22
306.628	4.73
307.003	4.59
307.378	4.58
307.754	5.08
308.129	4
308.504	4.79
308.879	4.89
309.254	5.27
309.629	5.02
310.003	4.82
310.378	4.77
310.753	4.74
311.128	4.65
311.502	4.52
311.877	4.49
312.252	4.89
312.626	4.31
313.001	4.89
313.375	4.72
313.75	4.49
314.124	4.42
314.498	4.78
314.873	4.61
315.247	4.53
315.621	4.75
315.995	4.67
316.369	4.61
316.743	4.62
317.117	4.69
317.491	4.61
317.865	3.81
318.239	4.76
318.613	4.46
318.987	4.54
319.361	4.67
319.734	4.36
320.108	4.6
320.482	4.48
320.855	4.87
321.229	5.05
321.602	4.66
321.976	4.79
322.349	4.52
322.723	3.87
323.096	4.26
323.469	4.29
323.843	4.25
324.216	3.76
324.589	4.89
324.962	4.47
325.335	5.09
325.708	4.79
326.081	4.54
326.454	4.58
326.827	5.01
327.2	5.08
327.573	4.83
327.945	4.65
328.318	4.59
328.691	4.59
329.063	4.32
329.436	4.2
329.809	4.23
330.181	4.3
330.553	5.08
330.926	4.59
331.298	3.95
331.671	4.38
332.043	4.63
332.415	4.91
332.787	4.75
333.159	4.12
333.532	4.6
333.904	4.54
334.276	4.89
334.648	4.59
335.02	4.44
335.391	4.71
335.763	4.76
336.135	4.76
336.507	4.57
336.879	4.47
337.25	4.47
337.622	4.98
337.993	5.06
338.365	5.25
338.736	4.54
339.108	4.51
339.479	4.61
339.851	4.99
340.222	4.5
340.593	4.33
340.964	4.95
341.336	4.31
341.707	4.59
342.078	3.96
342.449	4.8
342.82	4.64
343.191	4.34
343.562	4.41
343.933	4.49
344.303	4.67
344.674	4.85
345.045	4.83
345.416	4.41
345.786	4.09
346.157	4.5
346.527	4.18
346.898	4.43
347.268	4.42
347.639	4.5
348.009	4.78
348.38	4.59
348.75	4.64
349.12	4.91
349.49	4.57
349.861	4.98
350.231	4.65
350.601	4.59
350.971	4.49
351.341	4.51
351.711	4.84
352.081	4.95
352.45	5.1
352.82	4.62
353.19	4.43
353.56	4.61
353.929	4.73
354.299	4.61
354.669	4.9
355.038	4.71
355.408	4.88
355.777	4.67
356.147	4.71
356.516	5.05
356.885	4.39
357.254	4.78
357.624	4.94
357.993	4.58
358.362	4.89
358.731	5.13
359.1	5.06
359.469	4.6
359.838	4.33
360.207	4.43
360.576	4.61
360.945	4.61
361.314	4.81
361.682	4.22
362.051	4.43
362.42	4.94
362.788	4.76
363.157	4.47
363.525	4.46
363.894	4.54
364.262	4.5
364.631	5.13
364.999	4.39
365.367	4.89
365.735	4.33
366.104	4.66
366.472	4.62
366.84	4.7
367.208	4.72
367.576	4.76
367.944	5.01
368.312	4.71
368.68	5.05
369.048	5.11
369.416	4.85
369.783	4.9
370.151	4.84
370.519	4.45
370.886	4.9
371.254	4.98
371.621	4.84
371.989	4.85
372.356	4.94
372.724	4.89
373.091	4.62
373.458	4.95
373.826	5.02
374.193	5.25
374.56	5.04
374.927	4.42
375.294	4.92
375.661	4.82
376.028	4.86
376.395	4.78
376.762	5.01
377.129	4.92
377.496	5.09
377.863	5.05
378.229	4.89
378.596	4.86
378.963	4.82
379.329	4.67
379.696	4.85
380.062	5.18
380.429	4.86
380.795	4.68
381.161	4.82
381.528	4.66
381.894	4.88
382.26	4.81
382.626	4.92
382.993	5.03
383.359	4.86
383.725	4.95
384.091	4.98
384.457	4.94
384.823	4.95
385.188	5.24
385.554	4.99
385.92	5.17
386.286	5.2
386.651	5.05
387.017	4.91
387.383	4.94
387.748	5.06
388.114	5.05
388.479	5.16
388.845	5.22
389.21	4.79
389.575	5.19
389.94	5.22
390.306	5.02
390.671	5.21
391.036	5.1
391.401	5.3
391.766	5.25
392.131	4.89
392.496	5.02
392.861	5.02
393.226	5.07
393.591	5.09
393.956	5.01
394.32	5.08
394.685	5.44
395.05	5.03
395.414	5.06
395.779	5.11
396.143	5.16
396.508	5.05
396.872	5.24
397.236	4.82
397.601	5.24
397.965	4.9
398.329	5.17
398.694	5.09
399.058	5.3
399.422	5.17
399.786	5.11
400.15	5.23
400.514	5.17
400.878	5.08
401.242	5.19
401.605	5.3
401.969	5.16
402.333	5.12
402.697	5.37
403.06	5.47
403.424	5.02
403.787	5.42
404.151	5.19
404.514	5.23
404.878	5.24
405.241	5.2
405.604	5.15
405.968	5.21
406.331	5.16
406.694	5.22
407.057	5.51
407.42	5.36
407.783	5.17
408.146	5.36
408.509	5.1
408.872	5.07
409.235	5.44
409.598	5.26
409.961	5.29
410.323	5.13
410.686	5.06
411.049	5.24
411.411	5.34
411.774	5.22
412.136	5.32
412.499	5.34
412.861	5.25
413.223	5.37
413.586	5.11
413.948	5.29
414.31	5.39
414.672	5.19
415.035	5.44
415.397	5.38
415.759	5.22
416.121	5.37
416.483	5.41
416.845	5.15
417.206	5.55
417.568	5.26
417.93	5.3
418.292	5.39
418.653	5.25
419.015	5.33
419.377	5.26
419.738	5.18
420.1	5.27
420.461	5.31
420.822	5.22
421.184	5.21
421.545	5.22
421.906	5.32
422.267	5.04
422.629	5.26
422.99	5.26
423.351	5.26
423.712	5.27
424.073	5.36
424.434	5.31
424.795	5.19
425.155	5.27
425.516	5.18
425.877	5.24
426.238	5.18
426.598	5.41
426.959	5.23
427.32	5.35
427.68	5.46
428.041	5.35
428.401	5.35
428.761	5.38
429.122	5.25
429.482	5.24
429.842	5.57
430.202	5.31
430.563	5.33
430.923	5.4
431.283	5.59
431.643	5.46
432.003	5.43
432.363	5.68
432.722	5.43
433.082	5.47
433.442	5.37
433.802	5.31
434.161	5.41
434.521	5.4
434.881	5.35
435.24	5.27
435.6	5.4
435.959	5.33
436.319	5.36
436.678	5.39
437.037	5.55
437.396	5.54
437.756	5.47
438.115	5.49
438.474	5.48
438.833	5.49
439.192	5.66
439.551	5.51
439.91	5.47
440.269	5.59
440.628	5.51
440.987	5.47
441.345	5.46
441.704	5.43
442.063	5.37
442.421	5.42
442.78	5.47
443.138	5.42
443.497	5.37
443.855	5.48
444.214	5.42
444.572	5.39
444.93	5.57
445.288	5.59
445.647	5.58
446.005	5.35
446.363	5.37
446.721	5.38
447.079	5.43
447.437	5.44
447.795	5.3
448.153	5.32
448.51	5.27
448.868	5.62
449.226	5.4
449.584	5.46
449.941	5.59
450.299	5.49
450.656	5.55
451.014	5.43
451.371	5.67
451.729	5.61
452.086	5.51
452.443	5.46
452.801	5.52
453.158	5.58
453.515	5.46
453.872	5.6
454.229	5.4
454.586	5.5
454.943	5.55
455.3	5.77
455.657	5.43
456.014	5.67
456.371	5.53
456.727	5.62
457.084	5.58
457.441	5.54
457.797	5.55
458.154	5.63
458.51	5.55
458.867	5.58
459.223	5.61
459.58	5.57
459.936	5.48
460.292	5.55
460.648	5.57
461.005	5.48
461.361	5.47
461.717	5.48
462.073	5.5
462.429	5.63
462.785	5.54
463.141	5.66
463.496	5.57
463.852	5.82
464.208	5.71
464.564	5.55
464.919	5.59
465.275	5.56
465.631	5.71
465.986	5.64
466.342	5.65
466.697	5.58
467.052	5.89
467.408	5.58
467.763	5.53
468.118	5.69
468.473	5.76
468.829	5.56
469.184	5.73
469.539	5.42
469.894	5.59
470.249	5.71
470.603	5.66
470.958	5.82
471.313	5.61
471.668	5.63
472.023	5.86
472.377	5.71
472.732	5.62
473.086	5.46
473.441	5.69
473.795	5.81
474.15	5.63
474.504	5.62
474.859	5.7
475.213	5.72
475.567	5.69
475.921	5.82
476.275	5.8
476.63	5.66
476.984	5.65
477.338	5.89
477.692	5.67
478.045	5.57
478.399	5.75
478.753	5.61
479.107	5.72
479.461	5.7
479.814	5.58
480.168	5.72
480.521	5.67
480.875	5.86
481.228	5.75
481.582	5.53
481.935	5.67
482.289	5.68
482.642	5.79
482.995	5.63
483.348	5.66
483.701	5.56
484.055	5.52
484.408	5.51
484.761	5.36
485.114	5.28
485.466	5.33
485.819	5.29
486.172	5.37
486.525	5.4
486.878	5.4
487.23	5.52
487.583	5.5
487.936	5.54
488.288	5.44
488.641	5.48
488.993	5.4
489.345	5.35
489.698	5.45
490.05	5.41
490.402	5.46
490.754	5.57
491.107	5.56
491.459	5.65
491.811	5.59
492.163	5.67
492.515	5.54
492.866	5.43
493.218	5.44
493.57	5.46
493.922	5.39
494.274	5.55
494.625	5.5
494.977	5.62
495.328	5.67
495.68	5.74
496.031	5.69
496.383	5.74
496.734	5.82
497.086	5.6
497.437	5.8
497.788	5.66
498.139	5.59
498.49	5.71
498.842	5.64
499.193	5.62
499.544	5.8
499.894	5.7
500.245	5.75
500.596	5.74
500.947	5.63
501.298	5.68
501.648	5.59
501.999	5.91
502.35	5.82
502.7	5.85
503.051	5.8
503.401	5.72
503.752	5.76
504.102	5.84
504.452	5.69
504.803	5.55
505.153	5.74
505.503	5.7
505.853	5.68
506.203	5.74
506.553	5.84
506.903	5.64
507.253	5.83
507.603	5.68
507.953	5.82
508.303	5.75
508.652	5.72
509.002	5.88
509.352	5.78
509.701	5.7
510.051	5.8
510.4	5.65
510.75	5.77
511.099	5.66
511.449	5.81
511.798	5.83
512.147	5.76
512.496	5.73
512.846	5.68
513.195	5.78
513.544	5.7
513.893	5.67
514.242	5.82
514.591	5.82
514.939	5.7
515.288	5.87
515.637	5.75
515.986	5.65
516.334	5.91
516.683	5.81
517.032	5.74
517.38	5.76
517.729	5.75
518.077	5.83
518.426	5.66
518.774	5.88
519.122	5.7
519.47	5.67
519.819	5.68
520.167	5.65
520.515	5.61
520.863	5.61
521.211	5.67
521.559	5.68
521.907	5.67
522.255	5.75
522.602	5.79
522.95	5.8
523.298	5.76
523.645	5.74
523.993	5.89
524.341	5.67
524.688	5.7
525.036	5.87
525.383	5.79
525.73	5.67
526.078	5.77
526.425	5.7
526.772	5.54
527.119	5.57
527.466	5.67
527.814	5.64
528.161	5.68
528.508	5.61
528.854	5.6
529.201	5.52
529.548	5.44
529.895	5.44
530.242	5.4
530.588	5.44
530.935	5.42
531.282	5.51
531.628	5.52
531.975	5.56
532.321	5.67
532.667	5.65
533.014	5.6
533.36	5.63
533.706	5.65
534.052	5.56
534.399	5.5
534.745	5.45
535.091	5.5
535.437	5.51
535.783	5.55
536.129	5.55
536.474	5.61
536.82	5.58
537.166	5.65
537.512	5.59
537.857	5.62
538.203	5.59
538.549	5.62
538.894	5.59
539.239	5.71
539.585	5.64
539.93	5.73
540.276	5.66
540.621	5.81
540.966	5.72
541.311	5.75
541.656	5.54
542.001	5.64
542.346	5.58
542.691	5.49
543.036	5.44
543.381	5.47
543.726	5.52
544.071	5.52
544.415	5.55
544.76	5.46
545.105	5.58
545.449	5.57
545.794	5.52
546.138	5.67
546.483	5.71
546.827	5.6
547.171	5.58
547.516	5.77
547.86	5.61
548.204	5.52
548.548	5.69
548.892	5.6
549.236	5.62
549.58	5.6
549.924	5.63
550.268	5.69
550.612	5.68
550.956	5.6
551.3	5.63
551.643	5.77
551.987	5.68
552.33	5.69
552.674	5.74
553.017	5.7
553.361	5.72
553.704	5.54
554.048	5.58
554.391	5.64
554.734	5.71
555.077	5.56
555.42	5.52
555.764	5.64
556.107	5.67
556.45	5.58
556.793	5.94
557.135	5.79
557.478	5.7
557.821	5.67
558.164	5.72
558.507	5.45
558.849	5.65
559.192	5.71
559.534	5.41
559.877	5.85
560.219	5.95
560.562	5.81
560.904	5.38
561.246	5.73
561.589	5.74
561.931	5.81
562.273	5.71
562.615	5.65
562.957	5.87
563.299	5.65
563.641	5.75
563.983	5.69
564.325	5.74
564.667	5.88
565.008	5.46
565.35	5.71
565.692	5.76
566.033	5.79
566.375	5.56
566.716	5.63
567.058	5.65
567.399	5.74
567.741	5.7
568.082	5.64
568.423	5.53
568.764	5.61
569.105	5.68
569.447	5.64
569.788	5.68
570.129	5.66
570.47	5.71
570.811	5.58
571.151	5.58
571.492	5.76
571.833	5.72
572.174	5.6
572.514	5.54
572.855	5.79
573.195	5.56
573.536	5.66
573.876	5.65
574.217	5.63
574.557	5.74
574.898	5.53
575.238	5.57
575.578	5.74
575.918	5.55
576.258	5.7
576.598	5.69
576.938	5.69
577.278	5.58
577.618	5.46
577.958	5.53
578.298	5.72
578.638	5.58
578.977	5.72
579.317	5.81
579.657	5.57
579.996	5.78
580.336	5.63
580.675	5.61
581.014	5.66
581.354	5.82
581.693	5.57
582.032	5.54
582.372	5.58
582.711	5.36
583.05	5.65
583.389	5.55
583.728	5.46
584.067	5.7
584.406	5.81
584.745	5.53
585.083	5.83
585.422	5.61
585.761	5.63
586.1	5.71
586.438	5.54
586.777	5.76
587.115	5.71
587.454	5.52
587.792	5.67
588.13	5.99
588.469	5.57
588.807	5.76
589.145	5.65
589.483	5.47
589.821	5.7
590.159	5.61
590.497	5.45
590.835	5.62
591.173	5.67
591.511	5.7
591.849	5.59
592.187	5.74
592.524	5.49
592.862	5.74
593.2	5.63
593.537	5.6
593.875	5.65
594.212	5.66
594.55	5.75
594.887	5.65
595.224	5.4
595.561	5.54
595.899	5.33
596.236	5.56
596.573	5.67
596.91	5.52
597.247	5.46
597.584	5.74
597.921	5.68
598.258	5.47
598.594	5.36
598.931	5.48
599.268	5.49
599.604	5.53
599.941	5.59
600.277	5.63
600.614	5.6
600.95	5.62
601.287	5.71
601.623	5.42
601.959	5.48
602.296	5.74
602.632	5.73
602.968	5.46
603.304	5.5
603.64	5.39
603.976	5.6
604.312	5.5
604.648	5.53
604.984	5.58
605.319	5.6
605.655	5.49
605.991	5.6
606.326	5.57
606.662	5.39
606.998	5.39
607.333	5.56
607.668	5.55
608.004	5.74
608.339	5.55
608.674	5.48
609.01	5.57
609.345	5.55
609.68	5.36
610.015	5.48
610.35	5.63
610.685	5.52
611.02	5.84
611.355	5.8
611.689	5.33
612.024	5.64
612.359	5.75
612.694	5.77
613.028	5.78
613.363	5.31
613.697	5.83
614.032	5.78
614.366	5.53
614.7	5.78
615.035	5.64
615.369	5.62
615.703	5.6
616.037	5.37
616.371	5.61
616.705	5.72
617.039	5.78
617.373	5.86
617.707	5.78
618.041	5.65
618.375	5.47
618.709	5.97
619.042	5.46
619.376	5.54
619.71	5.44
620.043	5.5
620.377	5.41
620.71	5.56
621.043	5.27
621.377	5.65
621.71	5.79
622.043	5.71
622.376	5.58
622.709	5.81
623.043	5.46
623.376	5.54
623.709	5.5
624.041	5.38
624.374	5.43
624.707	5.39
625.04	5.85
625.373	5.42
625.705	5.71
626.038	5.61
626.37	5.55
626.703	5.66
627.035	5.45
627.368	5.57
627.7	5.58
628.032	5.6
628.365	5.53
628.697	5.11
629.029	5.55
629.361	5.34
629.693	5.7
630.025	5.6
630.357	5.57
630.689	5.7
631.021	5.61
631.353	5.66
631.684	5.77
632.016	5.53
632.348	5.6
632.679	5.67
633.011	5.73
633.342	5.22
633.674	5.37
634.005	5.79
634.336	5.59
634.668	5.6
634.999	5.67
635.33	5.3
635.661	5.62
635.992	5.24
636.323	5.54
636.654	5.59
636.985	5.52
637.316	5.55
637.647	5.55
637.977	5.47
638.308	5.47
638.639	5.3
638.969	5.07
639.3	5.7
639.63	5.18
639.961	5.34
640.291	5.85
640.622	5.78
640.952	5.61
641.282	5.14
641.612	5.56
641.943	5.56
642.273	5.62
642.603	5.65
642.933	5.65
643.263	5.77
643.592	5.22
643.922	6.35
644.252	6.05
644.582	5.66
644.911	5.48
645.241	5.63
645.571	5.04
645.9	5.98
646.23	5.63
646.559	5.44
646.888	5.53
647.218	5.68
647.547	5.41
647.876	5.94
648.205	5.64
648.534	5.16
648.863	6.02
649.192	5.44
649.521	5.31
649.85	5.72
650.179	5.25
650.508	5.77
650.837	5.41
651.165	5.74
651.494	5.23
651.822	5.53
652.151	5.7
652.479	5.86
652.808	5.8
653.136	4.93
653.465	5.51
653.793	5.75
654.121	5.8
654.449	5.41
654.777	5.43
655.105	6.23
655.433	6.13
655.761	5.78
656.089	5.8
656.417	5.78
656.745	6.07
657.073	5.9
657.4	5.69
657.728	5.58
658.056	5.47
658.383	5.9
658.711	5.5
659.038	6.09
659.365	5.8
659.693	5.77
660.02	5.27
660.347	5.54
660.674	5.58
661.001	5.27
661.329	5.67
661.656	5.15
661.982	5.74
662.309	5.5
662.636	5.56
662.963	5.97
663.29	5.24
663.616	5.5
663.943	5.88
664.27	5.89
664.596	5.21
664.923	5.82
665.249	5.29
665.576	5.73
665.902	5.33
666.228	5.6
666.554	5.46
666.881	5.82
667.207	5.28
667.533	5.94
667.859	5.05
668.185	5.97
668.511	5.36
668.837	4.93
669.162	5.43
669.488	5.99
669.814	5.78
670.139	6.01
670.465	5.79
670.791	5.9
671.116	5.83
671.442	5.68
671.767	5.61
672.092	5.92
672.418	5.41
672.743	5.6
673.068	5.51
673.393	5.8
673.718	5.22
674.043	5.76
674.368	5.78
674.693	6.09
675.018	5.65
675.343	5.55
675.667	5.78
675.992	5.6
676.317	6.13
676.641	5.48
676.966	5.35
677.29	5.57
677.615	5.64
677.939	5.27
678.264	5.35
678.588	6
678.912	6.09
679.236	5.98
679.56	5.4
679.885	5.68
680.209	5.44
680.532	5.47
680.856	6.01
681.18	5.78
681.504	5.35
681.828	5.19
682.152	5.5
682.475	5.89
682.799	6.04
683.122	5.06
683.446	5.27
683.769	5.95
684.093	6.1
684.416	5.28
684.739	6.1
685.062	5.54
685.386	5.7
685.709	5.59
686.032	6.09
686.355	4.78
686.678	5.12
687.001	5.09
687.324	5.69
687.646	5.76
687.969	5.42
688.292	6.33
688.614	5.45
688.937	5.63
689.26	4.93
689.582	5.27
689.904	6.28
690.227	5.82
690.549	5.92
690.871	6.19
691.194	6.16
691.516	5.37
691.838	5.52
692.16	5.03
692.482	5.83
