Data from 0058_chest_Reflection__3__126.txt Node

Date: Fri Dec 16 14:54:53 CST 2022
User: ToomeyLab
Spectrometer: FLMS14357
Trigger mode: 0
Integration Time (sec): 1.000000E-2
Scans to average: 100
Electric dark correction enabled: true
Nonlinearity correction enabled: false
Boxcar width: 0
XAxis mode: Wavelengths
Number of Pixels in Spectrum: 2048
>>>>>Begin Spectral Data<<<<<
189.047	405.29
189.435	405.29
189.823	405.29
190.211	18.47
190.599	-130.04
190.987	223.63
191.375	-376.42
191.763	8.44
192.151	-52.47
192.538	126.29
192.926	102.19
193.314	152.08
193.702	100.94
194.089	12.6
194.477	162.57
194.864	155.21
195.252	16.05
195.639	732.03
196.027	170
196.414	162.39
196.801	3.33
197.189	137.81
197.576	158.86
197.963	-40.87
198.351	9.9
198.738	2.76
199.125	23.82
199.512	7.18
199.899	10.97
200.286	-6
200.673	52.01
201.06	34.12
201.447	26.54
201.833	14.82
202.22	27.91
202.607	5.53
202.994	51.43
203.38	28.61
203.767	16.09
204.154	-23.82
204.54	46.04
204.927	55.33
205.313	27.7
205.699	32.26
206.086	49.38
206.472	-11.07
206.858	-13.39
207.245	20.3
207.631	1.49
208.017	32.91
208.403	0.25
208.789	36.59
209.175	38.09
209.561	4.53
209.947	-7.25
210.333	-4.25
210.719	-8.73
211.105	-4.82
211.491	6.36
211.876	2.13
212.262	-25.06
212.648	-43.47
213.034	-13.38
213.419	30.63
213.805	-0.36
214.19	-7.35
214.576	-6.58
214.961	29.61
215.346	-29.04
215.732	3.93
216.117	-21.03
216.502	-20.47
216.888	-34.16
217.273	21.19
217.658	-47.84
218.043	37.87
218.428	-19.1
218.813	34.53
219.198	-3.25
219.583	28.91
219.968	11.16
220.353	12.28
220.738	2.86
221.122	-18.5
221.507	1.19
221.892	0.5
222.276	11.41
222.661	-11.57
223.046	6.44
223.43	5.52
223.815	4.72
224.199	8
224.583	8.61
224.968	6.68
225.352	1.48
225.736	6.63
226.121	4.72
226.505	7.54
226.889	8.77
227.273	2.5
227.657	-0.32
228.041	6.36
228.425	7.56
228.809	5.68
229.193	4.49
229.577	4.01
229.961	5.42
230.344	5.27
230.728	4.91
231.112	4.73
231.495	4.9
231.879	4.32
232.263	3.85
232.646	3.78
233.03	2.64
233.413	5.87
233.797	5.82
234.18	3.17
234.563	5.69
234.946	3.81
235.33	5.01
235.713	3.54
236.096	5.39
236.479	6.7
236.862	6.58
237.245	4.86
237.628	5.46
238.011	4.38
238.394	5.85
238.777	3
239.16	3.16
239.543	5.1
239.925	5.56
240.308	4.87
240.691	4.3
241.073	4.11
241.456	4.31
241.838	5.63
242.221	5.07
242.603	3.73
242.986	5.22
243.368	4.12
243.75	4.34
244.133	4.47
244.515	4.37
244.897	4.46
245.279	4.58
245.661	5.25
246.043	5.74
246.425	3.92
246.807	4.32
247.189	4.21
247.571	4.09
247.953	4.6
248.335	4.61
248.717	4.39
249.098	4.45
249.48	4.4
249.862	4.44
250.243	4.4
250.625	4.43
251.006	4.53
251.388	5.39
251.769	4.16
252.151	4.95
252.532	4.97
252.913	4.42
253.295	4.12
253.676	4.64
254.057	3.78
254.438	3.85
254.819	4.73
255.2	4.27
255.581	3.64
255.962	3.75
256.343	4.49
256.724	4.98
257.105	5.01
257.486	3.37
257.867	2.51
258.247	4.31
258.628	5.04
259.009	4.24
259.389	4.92
259.77	4.1
260.15	4.91
260.531	4.12
260.911	4.06
261.292	4.15
261.672	4.17
262.052	4
262.432	3.97
262.813	4.54
263.193	4.22
263.573	4.35
263.953	4.14
264.333	4.17
264.713	3.57
265.093	4.11
265.473	4.83
265.853	4.52
266.233	3.51
266.612	4.44
266.992	3.72
267.372	4.54
267.752	3.55
268.131	4.07
268.511	4.34
268.89	4.15
269.27	4.16
269.649	4.22
270.029	3.7
270.408	3.84
270.787	3.63
271.167	3.89
271.546	3.84
271.925	3.82
272.304	3.87
272.683	4.1
273.062	4.12
273.441	4.07
273.82	4.32
274.199	4.11
274.578	3.86
274.957	4.23
275.336	3.99
275.715	4.66
276.093	4.39
276.472	4.3
276.851	3.87
277.229	4.4
277.608	3.76
277.986	4.01
278.365	3.61
278.743	4.48
279.122	3.51
279.5	3.64
279.878	3.24
280.257	3.34
280.635	3.69
281.013	4.13
281.391	4.07
281.769	3.73
282.147	4.31
282.525	4.24
282.903	4.36
283.281	4.01
283.659	4.22
284.037	3.92
284.415	4.25
284.792	3.77
285.17	3.71
285.548	3.91
285.925	4.28
286.303	3.62
286.68	4.05
287.058	4.11
287.435	3.67
287.813	3.78
288.19	4.24
288.567	3.72
288.945	3.87
289.322	3.88
289.699	4.2
290.076	4.38
290.453	4.05
290.83	4.17
291.207	3.86
291.584	3.58
291.961	4.03
292.338	4.06
292.715	4.05
293.092	3.81
293.469	3.93
293.845	3.87
294.222	4.22
294.599	4.44
294.975	3.9
295.352	3.63
295.728	4.25
296.105	3.82
296.481	4.2
296.858	4.07
297.234	3.89
297.61	4
297.986	4.24
298.363	3.31
298.739	3.82
299.115	3.53
299.491	4
299.867	4.04
300.243	3.59
300.619	3.85
300.995	3.83
301.371	3.94
301.746	3.66
302.122	4.2
302.498	3.51
302.874	3.89
303.249	3.97
303.625	3.88
304	3.45
304.376	3.82
304.751	4.01
305.127	3.93
305.502	4.15
305.878	3.72
306.253	3.83
306.628	4.45
307.003	3.8
307.378	3.23
307.754	4.22
308.129	3.69
308.504	3.71
308.879	4.45
309.254	4.54
309.629	3.51
310.003	4.19
310.378	4.28
310.753	3.92
311.128	3.75
311.502	3.54
311.877	3.95
312.252	3.61
312.626	3.77
313.001	3.72
313.375	4.03
313.75	3.77
314.124	4.05
314.498	3.32
314.873	3.97
315.247	3.56
315.621	3.98
315.995	3.89
316.369	3.77
316.743	4.13
317.117	4
317.491	3.63
317.865	3.95
318.239	4.14
318.613	3.96
318.987	4.03
319.361	3.97
319.734	4.29
320.108	4.08
320.482	3.78
320.855	3.99
321.229	4.6
321.602	3.71
321.976	3.8
322.349	3.03
322.723	3.49
323.096	3.75
323.469	3.41
323.843	3.91
324.216	3.77
324.589	4.11
324.962	4.22
325.335	3.48
325.708	3.93
326.081	4.27
326.454	3.71
326.827	3.82
327.2	3.86
327.573	3.89
327.945	4.02
328.318	3.86
328.691	3.88
329.063	3.4
329.436	4.01
329.809	3.28
330.181	4.12
330.553	4.59
330.926	4.32
331.298	3.72
331.671	4.23
332.043	3.97
332.415	3.57
332.787	4.62
333.159	3.88
333.532	4.02
333.904	4.26
334.276	3.89
334.648	4.12
335.02	3.7
335.391	4.12
335.763	3.95
336.135	3.81
336.507	3.9
336.879	3.85
337.25	3.98
337.622	3.96
337.993	4.16
338.365	4.15
338.736	4.33
339.108	3.64
339.479	4.21
339.851	4
340.222	4.02
340.593	3.42
340.964	3.37
341.336	3.89
341.707	3.86
342.078	3.51
342.449	4.13
342.82	3.75
343.191	3.45
343.562	3.98
343.933	4.1
344.303	3.86
344.674	4.1
345.045	4.18
345.416	3.76
345.786	3.48
346.157	4.1
346.527	3.81
346.898	3.3
347.268	3.57
347.639	4
348.009	3.91
348.38	3.84
348.75	4.29
349.12	3.84
349.49	3.88
349.861	4.18
350.231	4.1
350.601	4.01
350.971	3.86
351.341	3.59
351.711	3.77
352.081	3.86
352.45	3.88
352.82	3.9
353.19	3.93
353.56	3.69
353.929	4.19
354.299	3.89
354.669	3.95
355.038	3.81
355.408	4.52
355.777	3.87
356.147	4.21
356.516	4.22
356.885	3.86
357.254	4.05
357.624	4.07
357.993	4.05
358.362	4.1
358.731	3.86
359.1	3.97
359.469	3.97
359.838	3.71
360.207	3.9
360.576	4.22
360.945	3.85
361.314	3.88
361.682	3.77
362.051	3.9
362.42	4.32
362.788	3.94
363.157	3.63
363.525	3.79
363.894	3.75
364.262	3.92
364.631	4.29
364.999	3.49
365.367	4.1
365.735	3.79
366.104	3.73
366.472	4.04
366.84	4.01
367.208	3.64
367.576	3.91
367.944	3.95
368.312	3.56
368.68	3.82
369.048	4.15
369.416	4.22
369.783	3.96
370.151	3.96
370.519	3.75
370.886	3.99
371.254	4.47
371.621	4.09
371.989	4.09
372.356	3.86
372.724	3.94
373.091	3.89
373.458	4.1
373.826	4.1
374.193	4.29
374.56	4.22
374.927	3.8
375.294	4.19
375.661	4.13
376.028	4.24
376.395	3.89
376.762	4.16
377.129	4.65
377.496	4.16
377.863	4.07
378.229	4.26
378.596	3.95
378.963	3.9
379.329	3.99
379.696	3.95
380.062	4.33
380.429	3.96
380.795	3.68
381.161	4.1
381.528	3.66
381.894	3.97
382.26	3.83
382.626	3.99
382.993	3.72
383.359	4.06
383.725	4.13
384.091	4.09
384.457	3.97
384.823	4.16
385.188	3.9
385.554	4.11
385.92	4.48
386.286	4.26
386.651	4.08
387.017	4.25
387.383	4.08
387.748	3.99
388.114	4.18
388.479	4.4
388.845	4.13
389.21	4.24
389.575	4.3
389.94	4.05
390.306	4.15
390.671	4.08
391.036	4.29
391.401	4.41
391.766	4.37
392.131	4.04
392.496	4.16
392.861	3.99
393.226	4.23
393.591	4.11
393.956	4.31
394.32	4.1
394.685	4.04
395.05	4.13
395.414	4.33
395.779	4.12
396.143	4.15
396.508	4.25
396.872	4.25
397.236	4.1
397.601	4.4
397.965	4.04
398.329	4.15
398.694	4.12
399.058	4.47
399.422	4.29
399.786	4.22
400.15	4.01
400.514	4.22
400.878	4.33
401.242	4.37
401.605	4.12
401.969	4.21
402.333	4.29
402.697	4.52
403.06	4.19
403.424	4.09
403.787	4.27
404.151	4.08
404.514	4.25
404.878	4.38
405.241	4.13
405.604	4.29
405.968	4.18
406.331	4.25
406.694	4.07
407.057	4.55
407.42	4.39
407.783	4.15
408.146	4.22
408.509	4.18
408.872	4.36
409.235	4.19
409.598	4.25
409.961	4.37
410.323	4.22
410.686	4.2
411.049	4.13
411.411	4.29
411.774	4.15
412.136	4.06
412.499	4.32
412.861	4.15
413.223	4.61
413.586	4.05
413.948	4.46
414.31	4.25
414.672	4.29
415.035	4.37
415.397	4.28
415.759	4.28
416.121	4.43
416.483	4.63
416.845	4.26
417.206	4.43
417.568	4.4
417.93	4.22
418.292	4.28
418.653	4.45
419.015	4.42
419.377	4.37
419.738	4.16
420.1	4.34
420.461	4.26
420.822	4.31
421.184	4.18
421.545	4.29
421.906	4.27
422.267	4.12
422.629	4.21
422.99	4.23
423.351	4.29
423.712	4.25
424.073	4.26
424.434	4.23
424.795	4.25
425.155	4.33
425.516	4.16
425.877	4.3
426.238	4.22
426.598	4.25
426.959	4.18
427.32	4.3
427.68	4.48
428.041	4.4
428.401	4.25
428.761	4.1
429.122	4.33
429.482	4.45
429.842	4.45
430.202	4.25
430.563	4.25
430.923	4.42
431.283	4.53
431.643	4.36
432.003	4.43
432.363	4.33
432.722	4.45
433.082	4.35
433.442	4.42
433.802	4.42
434.161	4.28
434.521	4.46
434.881	4.54
435.24	4.36
435.6	4.29
435.959	4.38
436.319	4.37
436.678	4.39
437.037	4.45
437.396	4.39
437.756	4.61
438.115	4.53
438.474	4.48
438.833	4.58
439.192	4.62
439.551	4.48
439.91	4.61
440.269	4.45
440.628	4.5
440.987	4.34
441.345	4.43
441.704	4.48
442.063	4.43
442.421	4.38
442.78	4.44
443.138	4.42
443.497	4.41
443.855	4.53
444.214	4.35
444.572	4.37
444.93	4.52
445.288	4.5
445.647	4.54
446.005	4.33
446.363	4.34
446.721	4.42
447.079	4.36
447.437	4.48
447.795	4.42
448.153	4.42
448.51	4.34
448.868	4.48
449.226	4.49
449.584	4.43
449.941	4.53
450.299	4.53
450.656	4.51
451.014	4.52
451.371	4.56
451.729	4.49
452.086	4.39
452.443	4.39
452.801	4.57
453.158	4.54
453.515	4.51
453.872	4.64
454.229	4.43
454.586	4.63
454.943	4.51
455.3	4.64
455.657	4.68
456.014	4.59
456.371	4.55
456.727	4.54
457.084	4.61
457.441	4.64
457.797	4.69
458.154	4.55
458.51	4.57
458.867	4.49
459.223	4.62
459.58	4.62
459.936	4.5
460.292	4.58
460.648	4.43
461.005	4.38
461.361	4.54
461.717	4.52
462.073	4.52
462.429	4.58
462.785	4.56
463.141	4.7
463.496	4.67
463.852	4.62
464.208	4.65
464.564	4.56
464.919	4.59
465.275	4.63
465.631	4.61
465.986	4.58
466.342	4.79
466.697	4.68
467.052	4.79
467.408	4.63
467.763	4.58
468.118	4.62
468.473	4.72
468.829	4.62
469.184	4.71
469.539	4.58
469.894	4.62
470.249	4.71
470.603	4.77
470.958	4.94
471.313	4.72
471.668	4.75
472.023	4.84
472.377	4.63
472.732	4.68
473.086	4.7
473.441	4.85
473.795	4.85
474.15	4.66
474.504	4.86
474.859	4.74
475.213	4.72
475.567	4.84
475.921	4.85
476.275	4.89
476.63	4.73
476.984	4.75
477.338	4.89
477.692	4.62
478.045	4.64
478.399	4.86
478.753	4.72
479.107	4.74
479.461	4.82
479.814	4.8
480.168	4.66
480.521	4.77
480.875	4.95
481.228	4.86
481.582	4.59
481.935	4.84
482.289	4.66
482.642	4.91
482.995	4.83
483.348	4.78
483.701	4.77
484.055	4.68
484.408	4.69
484.761	4.54
485.114	4.47
485.466	4.47
485.819	4.49
486.172	4.56
486.525	4.6
486.878	4.66
487.23	4.7
487.583	4.67
487.936	4.69
488.288	4.69
488.641	4.59
488.993	4.6
489.345	4.59
489.698	4.68
490.05	4.66
490.402	4.71
490.754	4.85
491.107	4.76
491.459	4.89
491.811	4.87
492.163	4.79
492.515	4.81
492.866	4.61
493.218	4.67
493.57	4.76
493.922	4.76
494.274	4.84
494.625	4.89
494.977	4.85
495.328	4.89
495.68	4.97
496.031	4.97
496.383	4.88
496.734	5.08
497.086	4.9
497.437	5.02
497.788	4.94
498.139	4.89
498.49	4.97
498.842	4.96
499.193	4.96
499.544	5
499.894	4.96
500.245	4.98
500.596	4.99
500.947	4.98
501.298	4.94
501.648	5.05
501.999	5.11
502.35	5.04
502.7	5.19
503.051	5.15
503.401	5.12
503.752	4.99
504.102	5.11
504.452	4.88
504.803	5
505.153	5.2
505.503	5.08
505.853	5.07
506.203	5.1
506.553	5.13
506.903	5.07
507.253	5.14
507.603	5.01
507.953	5.16
508.303	5.1
508.652	5.1
509.002	5.12
509.352	5.13
509.701	5.01
510.051	5.08
510.4	5.13
510.75	5.18
511.099	5.08
511.449	5.15
511.798	5.26
512.147	5.15
512.496	5.25
512.846	5.13
513.195	5.16
513.544	5.19
513.893	5.13
514.242	5.28
514.591	5.2
514.939	5.18
515.288	5.41
515.637	5.27
515.986	5.22
516.334	5.36
516.683	5.35
517.032	5.34
517.38	5.27
517.729	5.37
518.077	5.37
518.426	5.27
518.774	5.24
519.122	5.27
519.47	5.28
519.819	5.23
520.167	5.28
520.515	5.28
520.863	5.27
521.211	5.24
521.559	5.29
521.907	5.28
522.255	5.41
522.602	5.38
522.95	5.42
523.298	5.38
523.645	5.31
523.993	5.52
524.341	5.36
524.688	5.44
525.036	5.47
525.383	5.44
525.73	5.61
526.078	5.38
526.425	5.42
526.772	5.21
527.119	5.36
527.466	5.44
527.814	5.39
528.161	5.51
528.508	5.47
528.854	5.39
529.201	5.28
529.548	5.32
529.895	5.23
530.242	5.26
530.588	5.26
530.935	5.33
531.282	5.39
531.628	5.47
531.975	5.5
532.321	5.53
532.667	5.49
533.014	5.47
533.36	5.57
533.706	5.51
534.052	5.46
534.399	5.47
534.745	5.37
535.091	5.48
535.437	5.59
535.783	5.61
536.129	5.56
536.474	5.71
536.82	5.69
537.166	5.79
537.512	5.77
537.857	5.66
538.203	5.61
538.549	5.68
538.894	5.68
539.239	5.82
539.585	5.92
539.93	5.89
540.276	5.66
540.621	5.92
540.966	5.89
541.311	5.87
541.656	5.77
542.001	5.81
542.346	5.82
542.691	5.66
543.036	5.7
543.381	5.7
543.726	5.79
544.071	5.92
544.415	5.81
544.76	5.85
545.105	5.91
545.449	5.86
545.794	6.01
546.138	6.12
546.483	6.09
546.827	6.07
547.171	6.05
547.516	6.15
547.86	6.11
548.204	6.07
548.548	6.16
548.892	6.18
549.236	6.35
549.58	6.16
549.924	6.34
550.268	6.39
550.612	6.38
550.956	6.2
551.3	6.37
551.643	6.22
551.987	6.35
552.33	6.35
552.674	6.4
553.017	6.52
553.361	6.51
553.704	6.37
554.048	6.39
554.391	6.39
554.734	6.43
555.077	6.42
555.42	6.55
555.764	6.58
556.107	6.57
556.45	6.56
556.793	6.85
557.135	6.8
557.478	6.62
557.821	6.63
558.164	6.83
558.507	6.66
558.849	6.6
559.192	6.73
559.534	6.77
559.877	6.95
560.219	6.96
560.562	6.8
560.904	6.79
561.246	6.98
561.589	6.87
561.931	6.96
562.273	6.9
562.615	6.89
562.957	7.08
563.299	7.13
563.641	7.04
563.983	6.96
564.325	7
564.667	6.98
565.008	6.92
565.35	7.21
565.692	7.26
566.033	7.24
566.375	7.01
566.716	7.13
567.058	7.16
567.399	7.19
567.741	7.15
568.082	7.15
568.423	7.15
568.764	7.38
569.105	7.3
569.447	7.21
569.788	7.27
570.129	7.25
570.47	7.5
570.811	7.37
571.151	7.36
571.492	7.63
571.833	7.46
572.174	7.45
572.514	7.25
572.855	7.56
573.195	7.46
573.536	7.33
573.876	7.4
574.217	7.56
574.557	7.7
574.898	7.57
575.238	7.58
575.578	7.72
575.918	7.56
576.258	7.79
576.598	7.76
576.938	7.89
577.278	7.63
577.618	7.82
577.958	7.85
578.298	7.8
578.638	7.91
578.977	8.01
579.317	8
579.657	8.01
579.996	8
580.336	8
580.675	8.11
581.014	7.91
581.354	8.24
581.693	8.09
582.032	8.09
582.372	8.18
582.711	8.11
583.05	8.33
583.389	8.21
583.728	8.24
584.067	8.42
584.406	8.43
584.745	8.28
585.083	8.53
585.422	8.54
585.761	8.61
586.1	8.64
586.438	8.5
586.777	8.68
587.115	8.55
587.454	8.5
587.792	8.65
588.13	8.93
588.469	8.66
588.807	8.83
589.145	8.66
589.483	8.69
589.821	8.79
590.159	8.48
590.497	8.55
590.835	8.7
591.173	8.91
591.511	8.82
591.849	8.92
592.187	8.86
592.524	8.79
592.862	8.96
593.2	9.04
593.537	9.1
593.875	8.98
594.212	8.87
594.55	8.94
594.887	9.36
595.224	9.13
595.561	9.15
595.899	9.26
596.236	9.14
596.573	9.12
596.91	9.24
597.247	9.25
597.584	9.4
597.921	9.42
598.258	9.39
598.594	9.19
598.931	9.26
599.268	9.31
599.604	9.57
599.941	9.45
600.277	9.44
600.614	9.46
600.95	9.86
601.287	9.74
601.623	9.82
601.959	9.7
602.296	9.81
602.632	9.86
602.968	9.96
603.304	9.57
603.64	9.7
603.976	9.93
604.312	9.93
604.648	9.76
604.984	9.93
605.319	9.92
605.655	9.87
605.991	9.89
606.326	9.8
606.662	9.93
606.998	10.04
607.333	10.07
607.668	10.2
608.004	10.17
608.339	10.15
608.674	10.19
609.01	10.21
609.345	10.32
609.68	10.07
610.015	10.43
610.35	10.31
610.685	10.59
611.02	10.51
611.355	10.54
611.689	10.39
612.024	10.53
612.359	10.71
612.694	10.69
613.028	10.92
613.363	10.81
613.697	10.95
614.032	11.08
614.366	10.94
614.7	10.74
615.035	10.7
615.369	11.02
615.703	11.1
616.037	10.79
616.371	10.76
616.705	10.98
617.039	10.95
617.373	10.96
617.707	11.29
618.041	11.19
618.375	10.85
618.709	11.4
619.042	11.19
619.376	11.32
619.71	11.3
620.043	11.39
620.377	11.66
620.71	11.35
621.043	11
621.377	11.18
621.71	11.31
622.043	11.66
622.376	11.33
622.709	11.9
623.043	11.73
623.376	11.48
623.709	11.87
624.041	11.43
624.374	11.62
624.707	11.82
625.04	12.03
625.373	11.67
625.705	11.89
626.038	12.23
626.37	11.92
626.703	12.16
627.035	11.96
627.368	11.98
627.7	12.23
628.032	11.98
628.365	12.14
628.697	11.85
629.029	12.31
629.361	11.86
629.693	12.31
630.025	12.24
630.357	12.2
630.689	12.51
631.021	12.21
631.353	12.45
631.684	12.5
632.016	12.6
632.348	12.35
632.679	12.56
633.011	12.54
633.342	12.63
633.674	12.37
634.005	12.9
634.336	12.35
634.668	12.77
634.999	12.5
635.33	12.78
635.661	12.97
635.992	12.55
636.323	12.75
636.654	13
636.985	12.68
637.316	12.98
637.647	13.05
637.977	12.98
638.308	13.11
638.639	13.16
638.969	13.02
639.3	13.37
639.63	12.69
639.961	13.49
640.291	13.76
640.622	13.31
640.952	13.32
641.282	13.05
641.612	13.24
641.943	13.64
642.273	13.73
642.603	13.75
642.933	13.51
643.263	13.79
643.592	13.74
643.922	13.88
644.252	13.65
644.582	13.46
644.911	13.64
645.241	13.79
645.571	13.71
645.9	14.21
646.23	13.97
646.559	14.08
646.888	13.53
647.218	13.82
647.547	14.33
647.876	14.53
648.205	13.76
648.534	13.99
648.863	14.68
649.192	13.81
649.521	14.07
649.85	14.14
650.179	13.73
650.508	14.47
650.837	14.41
651.165	14.74
651.494	13.9
651.822	14.39
652.151	14.43
652.479	14.59
652.808	14.46
653.136	14.56
653.465	15.07
653.793	14.38
654.121	14.67
654.449	14.45
654.777	14.9
655.105	15.24
655.433	15.01
655.761	14.54
656.089	15.38
656.417	15
656.745	15.51
657.073	15.48
657.4	15.18
657.728	15.22
658.056	15.32
658.383	15.98
658.711	14.64
659.038	15.29
659.365	15.25
659.693	15.28
660.02	15.05
660.347	15.34
660.674	15.36
661.001	15.26
661.329	15.55
661.656	14.98
661.982	15.48
662.309	15.71
662.636	15.67
662.963	15.91
663.29	15.78
663.616	15.62
663.943	16.06
664.27	15.67
664.596	15.38
664.923	16.75
665.249	15.32
665.576	15.64
665.902	15.79
666.228	15.61
666.554	16.12
666.881	16.37
667.207	16.16
667.533	16.8
667.859	16.32
668.185	16.47
668.511	16.15
668.837	16
669.162	16.41
669.488	16.33
669.814	16.57
670.139	17.13
670.465	16.42
670.791	16.34
671.116	16.1
671.442	16.87
671.767	16.44
672.092	16.92
672.418	16.23
672.743	16.64
673.068	16.56
673.393	16.48
673.718	16.46
674.043	16.45
674.368	17.06
674.693	16.81
675.018	17.5
675.343	17.09
675.667	17.06
675.992	16.81
676.317	16.71
676.641	17.1
676.966	17.05
677.29	17.27
677.615	17.14
677.939	17.06
678.264	16.95
678.588	16.7
678.912	17.87
679.236	17.57
679.56	16.9
679.885	17.64
680.209	17.43
680.532	17.29
680.856	18.19
681.18	17.55
681.504	17.26
681.828	17.15
682.152	17.59
682.475	17.67
682.799	17.5
683.122	17.61
683.446	17.68
683.769	17.88
684.093	17.71
684.416	17.26
684.739	18.18
685.062	18.11
685.386	18.03
685.709	17.8
686.032	17.84
686.355	18.12
686.678	18.12
687.001	18.22
687.324	18.3
