Data from 0058_forehead_Reflection__2__135.txt Node

Date: Fri Dec 16 14:57:31 CST 2022
User: ToomeyLab
Spectrometer: FLMS14357
Trigger mode: 0
Integration Time (sec): 1.000000E-2
Scans to average: 100
Electric dark correction enabled: true
Nonlinearity correction enabled: false
Boxcar width: 0
XAxis mode: Wavelengths
Number of Pixels in Spectrum: 2048
>>>>>Begin Spectral Data<<<<<
189.047	-128.18
189.435	-128.18
189.823	-128.18
190.211	82.28
190.599	-342.22
190.987	-74.86
191.375	-392.98
191.763	21.19
192.151	158.49
192.538	58.36
192.926	-90.46
193.314	132.83
193.702	68.37
194.089	12.22
194.477	-87.89
194.864	-66.58
195.252	-1.18
195.639	571.94
196.027	57.55
196.414	108.23
196.801	137.44
197.189	189.96
197.576	103.92
197.963	-95.97
198.351	-19.45
198.738	0.18
199.125	62.47
199.512	2.31
199.899	-6.48
200.286	0.56
200.673	31.82
201.06	36.48
201.447	30.92
201.833	-6.07
202.22	37.92
202.607	25.86
202.994	-1.42
203.38	7.75
203.767	-30.7
204.154	-11.25
204.54	54.02
204.927	44.17
205.313	54.31
205.699	14.68
206.086	-27.52
206.472	-13.63
206.858	-2.7
207.245	7.11
207.631	-2.4
208.017	0.83
208.403	10.89
208.789	20.27
209.175	34.24
209.561	-13.19
209.947	36.49
210.333	41.03
210.719	1.75
211.105	2.41
211.491	22.84
211.876	35.15
212.262	-27.09
212.648	-48.96
213.034	-4.98
213.419	4.22
213.805	13.68
214.19	-17.11
214.576	12.89
214.961	-13.65
215.346	15.99
215.732	-13.76
216.117	3.1
216.502	-31.65
216.888	-1.48
217.273	27.86
217.658	-2.22
218.043	-2.89
218.428	23.71
218.813	-7.24
219.198	-63.36
219.583	17.6
219.968	12.54
220.353	15.74
220.738	6.72
221.122	3.11
221.507	-7.99
221.892	1.73
222.276	10.11
222.661	-5.81
223.046	8
223.43	-2.58
223.815	8.53
224.199	11.87
224.583	3.14
224.968	10.52
225.352	-2.13
225.736	6.99
226.121	-4.02
226.505	0.69
226.889	5.54
227.273	3.63
227.657	-0.74
228.041	6.77
228.425	4.79
228.809	0.18
229.193	0.2
229.577	1.75
229.961	2.66
230.344	2.72
230.728	2.78
231.112	2.03
231.495	0.93
231.879	3.05
232.263	0.34
232.646	1.99
233.03	-0.22
233.413	0.54
233.797	2.73
234.18	1.8
234.563	0.67
234.946	1.33
235.33	1.74
235.713	1.5
236.096	1.52
236.479	1.94
236.862	0.89
237.245	3.02
237.628	3.01
238.011	1.62
238.394	1.82
238.777	2.84
239.16	1.81
239.543	0.65
239.925	2.8
240.308	2.95
240.691	1.48
241.073	1.21
241.456	0.68
241.838	1.88
242.221	2.52
242.603	1.99
242.986	3.31
243.368	2.07
243.75	1.64
244.133	2.16
244.515	2.16
244.897	1.95
245.279	2.42
245.661	2.71
246.043	2.96
246.425	2.71
246.807	1.74
247.189	1.94
247.571	2.46
247.953	2
248.335	2.35
248.717	2.16
249.098	2.2
249.48	2.1
249.862	2.06
250.243	2.36
250.625	2.18
251.006	2.2
251.388	2.67
251.769	2.99
252.151	2.94
252.532	2.85
252.913	2.37
253.295	2.26
253.676	2.49
254.057	1.87
254.438	1.95
254.819	2.83
255.2	1.82
255.581	2.24
255.962	1.61
256.343	2.85
256.724	2.58
257.105	2.17
257.486	3.71
257.867	1.64
258.247	2.56
258.628	2.15
259.009	2.56
259.389	2.7
259.77	2
260.15	2.78
260.531	2.19
260.911	2.01
261.292	2.23
261.672	2.04
262.052	2.06
262.432	2.03
262.813	2.07
263.193	1.75
263.573	2.61
263.953	2.09
264.333	1.88
264.713	1.58
265.093	1.87
265.473	2.83
265.853	2.13
266.233	1.76
266.612	2.06
266.992	2.01
267.372	2.54
267.752	1.83
268.131	2.05
268.511	2.13
268.89	2.62
269.27	2.63
269.649	2.53
270.029	2.29
270.408	1.76
270.787	1.8
271.167	2.39
271.546	1.85
271.925	2.2
272.304	2.58
272.683	1.9
273.062	2.33
273.441	2.49
273.82	1.99
274.199	2.06
274.578	1.78
274.957	1.82
275.336	1.8
275.715	1.72
276.093	2.57
276.472	2.08
276.851	2.41
277.229	2.53
277.608	2.14
277.986	2.36
278.365	1.51
278.743	2.4
279.122	1.64
279.5	1.63
279.878	1.89
280.257	2.29
280.635	2.02
281.013	2.53
281.391	2.11
281.769	1.71
282.147	2.34
282.525	2
282.903	2.05
283.281	1.77
283.659	2.3
284.037	1.96
284.415	2.07
284.792	2.13
285.17	1.46
285.548	2.1
285.925	2.12
286.303	2.14
286.68	2.37
287.058	2.09
287.435	1.84
287.813	2.28
288.19	2.39
288.567	2.15
288.945	2.31
289.322	2.36
289.699	2.42
290.076	2.65
290.453	2.15
290.83	2.6
291.207	2.44
291.584	2.04
291.961	2.33
292.338	2.33
292.715	2.52
293.092	2.18
293.469	2.66
293.845	2.73
294.222	2.88
294.599	3.22
294.975	2.86
295.352	2.12
295.728	2.55
296.105	2.81
296.481	3.3
296.858	2.66
297.234	3.05
297.61	2.77
297.986	2.71
298.363	2.41
298.739	3.07
299.115	2.61
299.491	2.83
299.867	2.83
300.243	2.76
300.619	2.71
300.995	2.8
301.371	3.06
301.746	2.99
302.122	3.31
302.498	3.27
302.874	2.95
303.249	3.13
303.625	3.45
304	3.2
304.376	2.8
304.751	3.1
305.127	2.62
305.502	3.84
305.878	3.24
306.253	2.89
306.628	3.29
307.003	3.61
307.378	2.98
307.754	3.94
308.129	3.06
308.504	3.36
308.879	3.92
309.254	3.55
309.629	3.66
310.003	3.97
310.378	3.51
310.753	3.7
311.128	3.3
311.502	3.49
311.877	3.74
312.252	3.36
312.626	3.1
313.001	3.71
313.375	3.8
313.75	3.42
314.124	4.02
314.498	3.27
314.873	3.97
315.247	3.76
315.621	4.16
315.995	3.82
316.369	3.4
316.743	4.15
317.117	3.74
317.491	3.7
317.865	3.32
318.239	4.17
318.613	4.1
318.987	4.23
319.361	4.49
319.734	3.96
320.108	4.11
320.482	4.26
320.855	3.92
321.229	4.78
321.602	4.28
321.976	4.39
322.349	3.68
322.723	3.75
323.096	3.81
323.469	4.05
323.843	4.17
324.216	4.09
324.589	4.95
324.962	4.26
325.335	4.2
325.708	4.48
326.081	4.78
326.454	4.4
326.827	4.91
327.2	5.15
327.573	4.51
327.945	4.16
328.318	4.81
328.691	4.48
329.063	4.78
329.436	4.44
329.809	4.19
330.181	4.49
330.553	5.14
330.926	4.78
331.298	4.57
331.671	4.71
332.043	4.91
332.415	4.79
332.787	5.47
333.159	4.93
333.532	4.84
333.904	5.26
334.276	5
334.648	4.88
335.02	4.9
335.391	4.95
335.763	5.07
336.135	4.88
336.507	5.19
336.879	5.26
337.25	5.07
337.622	5.27
337.993	5.12
338.365	5.28
338.736	5.55
339.108	5.03
339.479	4.79
339.851	5.49
340.222	5.31
340.593	5.14
340.964	5.13
341.336	5.12
341.707	4.95
342.078	5.09
342.449	5.56
342.82	5.06
343.191	5.05
343.562	5.35
343.933	5.19
344.303	5.56
344.674	5.39
345.045	5.72
345.416	5.28
345.786	5.43
346.157	5.14
346.527	5.44
346.898	5.8
347.268	5.53
347.639	5.72
348.009	5.48
348.38	5.69
348.75	5.45
349.12	5.96
349.49	5.98
349.861	6.37
350.231	6.22
350.601	6.08
350.971	5.82
351.341	5.95
351.711	6.21
352.081	5.94
352.45	6.15
352.82	5.84
353.19	5.59
353.56	5.72
353.929	6.32
354.299	5.77
354.669	6.2
355.038	6.12
355.408	6.44
355.777	6.26
356.147	6.34
356.516	6.62
356.885	6.4
357.254	6.2
357.624	6.4
357.993	6.02
358.362	6.28
358.731	6.76
359.1	6.73
359.469	6.55
359.838	6.26
360.207	6.38
360.576	6.67
360.945	6.42
361.314	6.71
361.682	6.14
362.051	6.58
362.42	6.59
362.788	6.51
363.157	6.49
363.525	6.66
363.894	6.44
364.262	6.45
364.631	7.16
364.999	6.59
365.367	7.11
365.735	6.75
366.104	6.73
366.472	7.13
366.84	6.75
367.208	6.64
367.576	6.84
367.944	7.08
368.312	6.57
368.68	7.52
369.048	7.24
369.416	6.98
369.783	7.12
370.151	7.23
370.519	7.37
370.886	7.55
371.254	7.48
371.621	7.12
371.989	7.27
372.356	7.18
372.724	7.14
373.091	7.13
373.458	7.44
373.826	7.08
374.193	7.7
374.56	7.35
374.927	7.26
375.294	7.58
375.661	7.47
376.028	7.62
376.395	7.5
376.762	7.68
377.129	7.73
377.496	7.71
377.863	7.68
378.229	7.61
378.596	7.67
378.963	7.58
379.329	7.67
379.696	7.56
380.062	7.97
380.429	7.94
380.795	7.55
381.161	7.78
381.528	7.68
381.894	7.86
382.26	7.64
382.626	7.86
382.993	7.88
383.359	8.06
383.725	8.13
384.091	8.12
384.457	8.15
384.823	8.25
385.188	8.18
385.554	8.18
385.92	8.69
386.286	8.46
386.651	8.18
387.017	8.25
387.383	8.29
387.748	8.27
388.114	8.49
388.479	8.66
388.845	8.58
389.21	8.48
389.575	8.49
389.94	8.54
390.306	8.67
390.671	8.69
391.036	8.79
391.401	8.89
391.766	8.76
392.131	8.89
392.496	8.82
392.861	8.69
393.226	8.76
393.591	8.86
393.956	8.95
394.32	8.88
394.685	8.85
395.05	8.93
395.414	8.73
395.779	8.64
396.143	9.09
396.508	9.16
396.872	9.2
397.236	8.72
397.601	9.4
397.965	9
398.329	9.31
398.694	8.91
399.058	9.28
399.422	9.12
399.786	9.4
400.15	9.35
400.514	9.34
400.878	9.25
401.242	9.37
401.605	9.31
401.969	9.34
402.333	9.43
402.697	9.88
403.06	9.59
403.424	9.6
403.787	9.55
404.151	9.41
404.514	9.5
404.878	9.62
405.241	9.74
405.604	9.64
405.968	9.75
406.331	9.82
406.694	9.66
407.057	9.99
407.42	9.81
407.783	9.63
408.146	9.79
408.509	9.63
408.872	9.72
409.235	10.03
409.598	10.2
409.961	10.05
410.323	10.07
410.686	9.93
411.049	10
411.411	10.21
411.774	10.04
412.136	10.35
412.499	10.29
412.861	10.23
413.223	10.46
413.586	10.31
413.948	10.53
414.31	10.56
414.672	10.34
415.035	10.52
415.397	10.24
415.759	10.31
416.121	10.57
416.483	10.54
416.845	10.55
417.206	10.55
417.568	10.44
417.93	10.44
418.292	10.55
418.653	10.6
419.015	10.69
419.377	10.5
419.738	10.5
420.1	10.44
420.461	10.5
420.822	10.5
421.184	10.5
421.545	10.54
421.906	10.54
422.267	10.34
422.629	10.5
422.99	10.62
423.351	10.65
423.712	10.72
424.073	10.76
424.434	10.72
424.795	10.66
425.155	10.67
425.516	10.65
425.877	10.73
426.238	10.76
426.598	10.83
426.959	10.94
427.32	11.11
427.68	11.12
428.041	11.13
428.401	11.16
428.761	11.24
429.122	11.25
429.482	11.24
429.842	11.37
430.202	11.43
430.563	11.33
430.923	11.41
431.283	11.28
431.643	11.64
432.003	11.6
432.363	11.69
432.722	11.61
433.082	11.3
433.442	11.61
433.802	11.56
434.161	11.47
434.521	11.58
434.881	11.68
435.24	11.55
435.6	11.57
435.959	11.66
436.319	11.68
436.678	11.88
437.037	11.86
437.396	11.84
437.756	11.87
438.115	11.9
438.474	11.87
438.833	12
439.192	12.07
439.551	12.11
439.91	12.01
440.269	12.08
440.628	11.91
440.987	11.93
441.345	12.04
441.704	11.91
442.063	11.86
442.421	12.12
442.78	12.04
443.138	12.08
443.497	12.31
443.855	12.31
444.214	12.34
444.572	12.21
444.93	12.41
445.288	12.35
445.647	12.35
446.005	12.36
446.363	12.28
446.721	12.18
447.079	12.41
447.437	12.28
447.795	12.31
448.153	12.26
448.51	12.3
448.868	12.46
449.226	12.38
449.584	12.5
449.941	12.74
450.299	12.77
450.656	12.77
451.014	12.84
451.371	12.88
451.729	12.89
452.086	12.83
452.443	13
452.801	13.05
453.158	12.86
453.515	12.92
453.872	13.08
454.229	12.93
454.586	12.89
454.943	13.03
455.3	13.25
455.657	13.09
456.014	13.22
456.371	13.2
456.727	13.29
457.084	13.25
457.441	13.32
457.797	13.33
458.154	13.23
458.51	13.39
458.867	13.32
459.223	13.28
459.58	13.33
459.936	13.32
460.292	13.26
460.648	13.13
461.005	13.06
461.361	13.15
461.717	13.22
462.073	13.33
462.429	13.53
462.785	13.62
463.141	13.71
463.496	13.7
463.852	13.9
464.208	13.72
464.564	13.88
464.919	13.76
465.275	13.99
465.631	14.03
465.986	13.92
466.342	14.06
466.697	13.97
467.052	14.12
467.408	13.94
467.763	13.91
468.118	14.11
468.473	14.28
468.829	14.06
469.184	14.41
469.539	14.11
469.894	14.19
470.249	14.11
470.603	14.31
470.958	14.55
471.313	14.26
471.668	14.45
472.023	14.61
472.377	14.46
472.732	14.49
473.086	14.34
473.441	14.45
473.795	14.75
474.15	14.5
474.504	14.41
474.859	14.73
475.213	14.53
475.567	14.61
475.921	14.9
476.275	14.86
476.63	14.55
476.984	14.81
477.338	14.9
477.692	14.86
478.045	14.78
478.399	14.81
478.753	14.74
479.107	14.85
479.461	14.99
479.814	14.71
480.168	14.68
480.521	14.85
480.875	15.05
481.228	14.93
481.582	14.93
481.935	14.83
482.289	14.77
482.642	14.94
482.995	14.86
483.348	14.78
483.701	14.71
484.055	14.62
484.408	14.45
484.761	14.12
485.114	13.91
485.466	14.01
485.819	14.21
486.172	14.55
486.525	14.68
486.878	14.78
487.23	14.94
487.583	14.88
487.936	14.77
488.288	14.57
488.641	14.54
488.993	14.38
489.345	14.56
489.698	14.74
490.05	14.87
490.402	15.12
490.754	15.29
491.107	15.32
491.459	15.36
491.811	15.49
492.163	15.25
492.515	14.95
492.866	14.7
493.218	14.8
493.57	15.11
493.922	15.25
494.274	15.49
494.625	15.68
494.977	15.79
495.328	15.98
495.68	16.04
496.031	16.05
496.383	15.93
496.734	16.16
497.086	15.92
497.437	16
497.788	15.83
498.139	15.82
498.49	15.91
498.842	16.08
499.193	16.02
499.544	16.26
499.894	16.2
500.245	16.21
500.596	16.22
500.947	16.32
501.298	16.29
501.648	16.46
501.999	16.69
502.35	16.43
502.7	16.62
503.051	16.68
503.401	16.62
503.752	16.67
504.102	16.59
504.452	16.41
504.803	16.62
505.153	16.61
505.503	16.54
505.853	16.59
506.203	16.81
506.553	16.79
506.903	16.71
507.253	16.82
507.603	16.83
507.953	16.83
508.303	16.87
508.652	16.91
509.002	16.82
509.352	16.69
509.701	16.79
510.051	16.78
510.4	16.86
510.75	16.9
511.099	16.82
511.449	16.75
511.798	17.02
512.147	17.06
512.496	17.09
512.846	17.04
513.195	17.11
513.544	17.19
513.893	16.97
514.242	17.21
514.591	17.29
514.939	17.29
515.288	17.51
515.637	17.46
515.986	17.44
516.334	17.58
516.683	17.54
517.032	17.4
517.38	17.59
517.729	17.51
518.077	17.51
518.426	17.42
518.774	17.41
519.122	17.34
519.47	17.2
519.819	17.11
520.167	17.05
520.515	17.17
520.863	17.29
521.211	17.43
521.559	17.48
521.907	17.7
522.255	17.7
522.602	17.96
522.95	17.94
523.298	17.81
523.645	17.87
523.993	18.05
524.341	17.92
524.688	17.85
525.036	17.98
525.383	17.98
525.73	17.95
526.078	17.86
526.425	17.67
526.772	17.47
527.119	17.38
527.466	17.51
527.814	17.61
528.161	17.81
528.508	17.74
528.854	17.52
529.201	17.47
529.548	17.11
529.895	16.83
530.242	17.02
530.588	17.28
530.935	17.45
531.282	17.71
531.628	17.78
531.975	17.94
532.321	18.02
532.667	18.13
533.014	18.18
533.36	18.08
533.706	18.04
534.052	17.84
534.399	17.63
534.745	17.55
535.091	17.78
535.437	18.08
535.783	18.25
536.129	18.31
536.474	18.47
536.82	18.44
537.166	18.31
537.512	18.29
537.857	18.15
538.203	18.08
538.549	18.3
538.894	18.52
539.239	18.71
539.585	18.74
539.93	18.79
540.276	18.9
540.621	18.92
540.966	18.98
541.311	18.9
541.656	18.62
542.001	18.5
542.346	18.09
542.691	17.97
543.036	18.1
543.381	18.33
543.726	18.58
544.071	18.69
544.415	18.7
544.76	18.6
545.105	18.75
545.449	18.83
545.794	18.96
546.138	19.21
546.483	19.17
546.827	19.14
547.171	19.12
547.516	19.2
547.86	19.01
548.204	18.97
548.548	19.14
548.892	19.19
549.236	19.33
549.58	19.51
549.924	19.65
550.268	19.71
550.612	19.79
550.956	19.79
551.3	19.85
551.643	19.97
551.987	19.84
552.33	19.8
552.674	20.13
553.017	20.04
553.361	19.98
553.704	19.91
554.048	19.63
554.391	19.78
554.734	19.87
555.077	20.1
555.42	19.98
555.764	20.05
556.107	20.31
556.45	20.17
556.793	20.17
557.135	20.21
557.478	20.34
557.821	20.34
558.164	20.29
558.507	20.27
558.849	20.31
559.192	20.43
559.534	20.38
559.877	20.48
560.219	20.66
560.562	20.56
560.904	20.48
561.246	20.61
561.589	20.47
561.931	20.79
562.273	20.36
562.615	20.37
562.957	20.66
563.299	20.55
563.641	20.72
563.983	20.53
564.325	20.51
564.667	20.77
565.008	20.72
565.35	20.95
565.692	20.74
566.033	20.77
566.375	20.75
566.716	20.88
567.058	20.6
567.399	20.59
567.741	20.67
568.082	20.58
568.423	20.53
568.764	20.78
569.105	21.03
569.447	20.87
569.788	20.94
570.129	20.9
570.47	20.83
570.811	21.11
571.151	20.93
571.492	21.29
571.833	21.15
572.174	20.98
572.514	20.91
572.855	20.92
573.195	20.87
573.536	20.89
573.876	20.99
574.217	21.1
574.557	21.11
574.898	21.12
575.238	21.27
575.578	21.46
575.918	21.07
576.258	21.38
576.598	21.27
576.938	21.36
577.278	21.23
577.618	21.38
577.958	21.42
578.298	21.58
578.638	21.44
578.977	21.51
579.317	21.8
579.657	21.78
579.996	21.84
580.336	21.55
580.675	21.77
581.014	21.71
581.354	22.07
581.693	21.82
582.032	21.64
582.372	21.84
582.711	21.82
583.05	22
583.389	22.3
583.728	21.94
584.067	22.16
584.406	22.21
584.745	22.25
585.083	22.39
585.422	21.93
585.761	22.23
586.1	22.14
586.438	21.98
586.777	22.29
587.115	22.19
587.454	22.19
587.792	22.03
588.13	22.63
588.469	22.15
588.807	22.36
589.145	22.17
589.483	22.23
589.821	22.23
590.159	22.24
590.497	22.08
590.835	22.22
591.173	22.16
591.511	22.42
591.849	22.44
592.187	22.34
592.524	22.53
592.862	22.46
593.2	22.14
593.537	22.66
593.875	22.48
594.212	22.51
594.55	22.41
594.887	22.76
595.224	22.46
595.561	22.46
595.899	22.75
596.236	22.32
596.573	22.39
596.91	22.6
597.247	22.58
597.584	22.47
597.921	22.53
598.258	22.19
598.594	22.04
598.931	22.57
599.268	22.7
599.604	22.86
599.941	22.71
600.277	22.77
600.614	22.96
600.95	22.89
601.287	22.92
601.623	22.68
601.959	22.86
602.296	22.94
602.632	23.2
602.968	22.92
603.304	22.87
603.64	23.06
603.976	23.01
604.312	22.94
604.648	22.78
604.984	22.76
605.319	22.84
605.655	22.76
605.991	22.59
606.326	22.6
606.662	22.6
606.998	22.86
607.333	23.08
607.668	23.23
608.004	23.21
608.339	23.21
608.674	23.11
609.01	23.54
609.345	23.08
609.68	23.11
610.015	23.2
610.35	23.47
610.685	23.05
611.02	23.34
611.355	23.21
611.689	23.22
612.024	23.63
612.359	23.62
612.694	23.47
613.028	23.84
613.363	23.41
613.697	23.61
614.032	23.76
614.366	23.69
614.7	23.66
615.035	23.59
615.369	23.95
615.703	23.74
616.037	23.49
616.371	24.04
616.705	23.76
617.039	23.7
617.373	24.2
617.707	23.84
618.041	24.11
618.375	24.07
618.709	24.23
619.042	23.81
619.376	23.94
619.71	23.97
620.043	23.85
620.377	24.12
620.71	23.62
621.043	24.06
621.377	23.45
621.71	24.41
622.043	24.19
622.376	23.96
622.709	24.11
623.043	23.82
623.376	24.07
623.709	24.55
624.041	23.98
624.374	23.84
624.707	24.26
625.04	24.29
625.373	23.96
625.705	24.37
626.038	24.34
626.37	24.04
626.703	24
627.035	24.24
627.368	24.34
627.7	24.06
628.032	24.15
628.365	23.82
628.697	23.82
629.029	24.42
629.361	23.92
629.693	24.54
630.025	24.5
630.357	24.21
630.689	24.7
631.021	24.65
631.353	24.69
631.684	24.4
632.016	24.38
632.348	24.59
632.679	24.7
633.011	24.86
633.342	24.44
633.674	24.66
634.005	24.69
634.336	24.75
634.668	24.8
634.999	24.48
635.33	24.38
635.661	24.46
635.992	24.23
636.323	24.41
636.654	24.7
636.985	24.42
637.316	24.68
637.647	25.22
637.977	24.79
638.308	24.75
638.639	24.73
638.969	24.59
639.3	25.01
639.63	24.51
639.961	25.03
640.291	25.06
640.622	24.82
640.952	25.02
641.282	24.79
641.612	25.11
641.943	25.17
642.273	24.95
642.603	25.26
642.933	24.73
643.263	25.01
643.592	24.91
643.922	25.1
644.252	25.35
644.582	25.23
644.911	25.24
645.241	25.09
645.571	24.99
645.9	25.49
646.23	25.33
646.559	25.74
646.888	24.84
647.218	25.67
647.547	25.68
647.876	25.42
648.205	24.99
648.534	25.37
648.863	25.35
649.192	25.25
649.521	25.11
649.85	25.36
650.179	25.21
650.508	25.84
650.837	25.73
651.165	25.5
651.494	25.29
651.822	25.43
652.151	25.81
652.479	25.56
652.808	25.34
653.136	25.72
653.465	25.46
653.793	26.02
654.121	25.72
654.449	25.11
654.777	25.39
655.105	25.94
655.433	26.42
655.761	25.3
656.089	25.85
656.417	25.66
656.745	25.86
657.073	25.94
657.4	25.67
657.728	26.12
658.056	25.44
658.383	25.93
658.711	25.18
659.038	25.82
659.365	25.29
659.693	25.68
660.02	25.45
660.347	25.66
660.674	25.3
661.001	25.16
661.329	25.08
661.656	25.38
661.982	26.05
662.309	26.1
662.636	25.9
662.963	26.37
663.29	25.97
663.616	25.71
663.943	26.21
664.27	26.52
664.596	25.88
664.923	26.88
665.249	26.13
665.576	26.16
665.902	25.93
666.228	26.06
666.554	26.04
666.881	26.78
667.207	25.85
667.533	26.82
667.859	26.46
668.185	26.5
668.511	25.8
668.837	26.13
669.162	26.14
669.488	25.82
669.814	26.07
670.139	26.98
670.465	26.46
670.791	26.41
671.116	25.62
671.442	26.66
671.767	26.38
672.092	26.05
672.418	26.03
672.743	26.38
673.068	26
673.393	26.18
673.718	26.02
674.043	26.9
674.368	27.44
