Data from 0058_chest_Reflection__2__125.txt Node

Date: Fri Dec 16 14:54:40 CST 2022
User: ToomeyLab
Spectrometer: FLMS14357
Trigger mode: 0
Integration Time (sec): 1.000000E-2
Scans to average: 100
Electric dark correction enabled: true
Nonlinearity correction enabled: false
Boxcar width: 0
XAxis mode: Wavelengths
Number of Pixels in Spectrum: 2048
>>>>>Begin Spectral Data<<<<<
189.047	310.98
189.435	310.98
189.823	310.98
190.211	9.28
190.599	29.74
190.987	92.47
191.375	-299.16
191.763	0.13
192.151	-27.15
192.538	90.13
192.926	98.92
193.314	136.69
193.702	118.32
194.089	-6.34
194.477	139.34
194.864	13.28
195.252	92.88
195.639	298.41
196.027	-137.35
196.414	-105.09
196.801	-167.67
197.189	-0.61
197.576	-191.65
197.963	-52.95
198.351	9.73
198.738	-45.27
199.125	33.01
199.512	22.93
199.899	-40.42
200.286	-51.22
200.673	44.47
201.06	51.26
201.447	26.85
201.833	-38.69
202.22	68.47
202.607	15.75
202.994	-4.22
203.38	40.33
203.767	-8.37
204.154	-78.92
204.54	45.42
204.927	-2.56
205.313	23.59
205.699	24.35
206.086	2.23
206.472	20.54
206.858	1.79
207.245	17.46
207.631	-4.94
208.017	24.06
208.403	21.05
208.789	-6.3
209.175	21.61
209.561	-1.88
209.947	-32.88
210.333	-15.64
210.719	-10.98
211.105	0.4
211.491	16.18
211.876	14.92
212.262	-37.43
212.648	-47.91
213.034	9.95
213.419	4.85
213.805	-12.51
214.19	6.62
214.576	-4.35
214.961	23.03
215.346	25.13
215.732	18.06
216.117	-15.31
216.502	11.4
216.888	5.16
217.273	21.45
217.658	-4.35
218.043	10.2
218.428	-9.34
218.813	11.43
219.198	-7.08
219.583	-5.37
219.968	12.91
220.353	18.36
220.738	4.21
221.122	-2.86
221.507	0.13
221.892	-3.16
222.276	20.22
222.661	-6.46
223.046	11.03
223.43	3.71
223.815	6.77
224.199	8.77
224.583	-9.62
224.968	12.09
225.352	-2.52
225.736	1.51
226.121	0.07
226.505	6.88
226.889	4.52
227.273	6.76
227.657	3.66
228.041	5.66
228.425	8.49
228.809	5.34
229.193	4.42
229.577	4.61
229.961	5.7
230.344	5.29
230.728	5.11
231.112	5.25
231.495	4.74
231.879	6.13
232.263	3.87
232.646	4.7
233.03	2.71
233.413	4.71
233.797	6.52
234.18	3.07
234.563	4.91
234.946	4.14
235.33	5.6
235.713	4.88
236.096	4.94
236.479	4.95
236.862	5.75
237.245	5.82
237.628	5.86
238.011	4.19
238.394	6.59
238.777	5.48
239.16	3.39
239.543	3.35
239.925	6.54
240.308	6.47
240.691	4
241.073	4.53
241.456	4.85
241.838	4.93
242.221	5.07
242.603	4.92
242.986	5.36
243.368	4.93
243.75	4.57
244.133	4.65
244.515	5
244.897	4.49
245.279	4.39
245.661	4.6
246.043	5.5
246.425	4.24
246.807	4.65
247.189	4.73
247.571	4.65
247.953	4.6
248.335	4.73
248.717	4.69
249.098	4.57
249.48	4.54
249.862	4.58
250.243	4.9
250.625	5.35
251.006	4.86
251.388	6
251.769	5.19
252.151	4.92
252.532	4.13
252.913	4.69
253.295	4.79
253.676	4.53
254.057	4.54
254.438	4.55
254.819	4.65
255.2	4.14
255.581	4.35
255.962	4.97
256.343	5
256.724	4.94
257.105	4.5
257.486	4.38
257.867	3.06
258.247	5.1
258.628	4.96
259.009	4.23
259.389	4.79
259.77	4.75
260.15	4.83
260.531	4.72
260.911	4.37
261.292	4.37
261.672	4.13
262.052	4.31
262.432	4.22
262.813	4.35
263.193	3.59
263.573	4.63
263.953	4.53
264.333	4.38
264.713	3.79
265.093	3.8
265.473	4.71
265.853	4.08
266.233	4.06
266.612	4.35
266.992	3.9
267.372	4.05
267.752	4.31
268.131	4.64
268.511	4.58
268.89	4.56
269.27	4.82
269.649	4.14
270.029	3.74
270.408	4.2
270.787	4.69
271.167	4.73
271.546	3.54
271.925	4.01
272.304	4.44
272.683	4.37
273.062	4.31
273.441	4.3
273.82	4.62
274.199	4.49
274.578	4.01
274.957	4.26
275.336	4.44
275.715	4.67
276.093	4.81
276.472	4.64
276.851	4.69
277.229	4.89
277.608	3.96
277.986	4.32
278.365	4.45
278.743	4.43
279.122	4.27
279.5	4.14
279.878	3.68
280.257	3.96
280.635	3.94
281.013	4.95
281.391	4.25
281.769	4.27
282.147	4.37
282.525	4.25
282.903	4.02
283.281	4.1
283.659	4.4
284.037	4.23
284.415	4.18
284.792	3.61
285.17	3.75
285.548	4.04
285.925	3.96
286.303	3.69
286.68	4.34
287.058	3.79
287.435	3.59
287.813	3.92
288.19	4.23
288.567	3.75
288.945	4.18
289.322	3.69
289.699	4.31
290.076	4.33
290.453	4
290.83	4.15
291.207	3.97
291.584	3.97
291.961	4.07
292.338	3.88
292.715	4.24
293.092	4.3
293.469	4.27
293.845	3.77
294.222	4.32
294.599	4.33
294.975	3.86
295.352	4.09
295.728	3.75
296.105	4.04
296.481	4.34
296.858	4.07
297.234	3.89
297.61	3.98
297.986	3.86
298.363	3.68
298.739	4.03
299.115	3.56
299.491	4.03
299.867	4.04
300.243	3.9
300.619	3.78
300.995	4.02
301.371	4.14
301.746	3.93
302.122	4.12
302.498	3.92
302.874	3.93
303.249	4.21
303.625	3.83
304	3.58
304.376	3.85
304.751	3.95
305.127	4.09
305.502	4.39
305.878	3.59
306.253	3.85
306.628	4.01
307.003	4.02
307.378	3.91
307.754	3.94
308.129	3.39
308.504	3.49
308.879	3.9
309.254	4.17
309.629	4
310.003	3.95
310.378	3.77
310.753	3.8
311.128	4.07
311.502	4.03
311.877	4.01
312.252	3.49
312.626	4
313.001	3.61
313.375	3.74
313.75	3.65
314.124	4.05
314.498	3.79
314.873	3.57
315.247	3.87
315.621	4.23
315.995	4.04
316.369	4.25
316.743	3.83
317.117	3.87
317.491	3.76
317.865	4.1
318.239	4.46
318.613	3.73
318.987	3.77
319.361	4.4
319.734	4.2
320.108	4.14
320.482	3.87
320.855	3.37
321.229	4.16
321.602	3.72
321.976	3.97
322.349	3.14
322.723	3.64
323.096	3.77
323.469	3.6
323.843	4.12
324.216	3.45
324.589	4.4
324.962	4.09
325.335	3.76
325.708	3.84
326.081	4.26
326.454	3.75
326.827	4.08
327.2	3.87
327.573	4.06
327.945	3.79
328.318	4.18
328.691	3.68
329.063	3.88
329.436	3.68
329.809	3.18
330.181	4.31
330.553	4.03
330.926	4.26
331.298	3.69
331.671	3.63
332.043	4.53
332.415	3.92
332.787	4.22
333.159	3.97
333.532	3.82
333.904	3.81
334.276	3.98
334.648	3.5
335.02	3.57
335.391	3.88
335.763	3.63
336.135	3.72
336.507	4.02
336.879	4.15
337.25	3.95
337.622	4.18
337.993	3.91
338.365	4.6
338.736	3.7
339.108	3.51
339.479	3.81
339.851	4.35
340.222	4.12
340.593	3.5
340.964	3.86
341.336	3.68
341.707	3.73
342.078	3.52
342.449	3.93
342.82	3.72
343.191	3.69
343.562	3.8
343.933	3.66
344.303	3.74
344.674	3.56
345.045	3.61
345.416	3.71
345.786	3.75
346.157	3.69
346.527	4
346.898	3.67
347.268	3.96
347.639	3.73
348.009	4.15
348.38	3.79
348.75	4.01
349.12	3.71
349.49	3.32
349.861	4.39
350.231	4.16
350.601	3.98
350.971	4.16
351.341	3.7
351.711	3.49
352.081	4.16
352.45	4.17
352.82	4.23
353.19	3.5
353.56	3.94
353.929	4.2
354.299	3.72
354.669	3.82
355.038	4.07
355.408	4.26
355.777	3.63
356.147	4.09
356.516	4.2
356.885	3.95
357.254	3.87
357.624	3.96
357.993	4.15
358.362	4.12
358.731	3.95
359.1	4.1
359.469	4.03
359.838	3.72
360.207	3.66
360.576	3.77
360.945	3.68
361.314	4.25
361.682	3.74
362.051	3.81
362.42	4.07
362.788	4.09
363.157	3.95
363.525	4.17
363.894	3.78
364.262	4
364.631	4.11
364.999	3.66
365.367	4.04
365.735	3.76
366.104	3.72
366.472	4.09
366.84	4.03
367.208	4.17
367.576	4.07
367.944	4.21
368.312	3.66
368.68	4.28
369.048	4.02
369.416	3.86
369.783	3.92
370.151	3.87
370.519	3.81
370.886	4.05
371.254	4.03
371.621	4.05
371.989	3.93
372.356	4.05
372.724	3.81
373.091	4.07
373.458	3.72
373.826	3.79
374.193	4.37
374.56	3.84
374.927	3.98
375.294	4.15
375.661	4.04
376.028	4.15
376.395	3.77
376.762	4.57
377.129	4.14
377.496	4
377.863	4.05
378.229	4.18
378.596	3.9
378.963	4.02
379.329	4.01
379.696	4.13
380.062	4.11
380.429	3.87
380.795	3.91
381.161	3.98
381.528	3.93
381.894	4.19
382.26	3.76
382.626	3.96
382.993	3.86
383.359	4
383.725	4.41
384.091	4.05
384.457	4.41
384.823	4.16
385.188	4.3
385.554	4.06
385.92	4
386.286	4.05
386.651	4.29
387.017	3.99
387.383	4.21
387.748	4.2
388.114	4.25
388.479	4.01
388.845	4.22
389.21	4.11
389.575	4.25
389.94	3.88
390.306	4.22
390.671	4.36
391.036	4.24
391.401	4.3
391.766	4.09
392.131	4.09
392.496	4.26
392.861	4.15
393.226	4.15
393.591	4.05
393.956	4.05
394.32	4.18
394.685	4.06
395.05	3.92
395.414	4.22
395.779	4.14
396.143	4.16
396.508	4.31
396.872	4.16
397.236	3.86
397.601	4.35
397.965	3.83
398.329	4.37
398.694	4.13
399.058	4.05
399.422	4.26
399.786	4.06
400.15	4.22
400.514	4.36
400.878	4.04
401.242	4.25
401.605	3.93
401.969	4.23
402.333	4.08
402.697	4.42
403.06	4.38
403.424	4.2
403.787	4.41
404.151	4.14
404.514	4.17
404.878	4.09
405.241	4.46
405.604	4.23
405.968	4.18
406.331	4.37
406.694	4.34
407.057	4.44
407.42	4.26
407.783	4.02
408.146	4.24
408.509	4.1
408.872	4.08
409.235	4.14
409.598	3.95
409.961	4.31
410.323	4.19
410.686	4.2
411.049	4.28
411.411	4.08
411.774	4.37
412.136	4.38
412.499	4.07
412.861	3.92
413.223	4.1
413.586	4.1
413.948	4.16
414.31	4.31
414.672	4.13
415.035	4.28
415.397	4.19
415.759	4.2
416.121	4.46
416.483	4.21
416.845	4.21
417.206	4.52
417.568	4.34
417.93	4
418.292	4.3
418.653	4.31
419.015	4.32
419.377	4.15
419.738	4.2
420.1	4.23
420.461	4.21
420.822	4.24
421.184	4.27
421.545	4.24
421.906	4.18
422.267	4.19
422.629	4.23
422.99	4.15
423.351	4.2
423.712	4.24
424.073	4.34
424.434	4.21
424.795	4.06
425.155	4.04
425.516	4.17
425.877	4.21
426.238	4.12
426.598	4.26
426.959	4.08
427.32	4.29
427.68	4.28
428.041	4.22
428.401	4.21
428.761	4.19
429.122	4.23
429.482	4.35
429.842	4.19
430.202	4.33
430.563	4.18
430.923	4.29
431.283	4.46
431.643	4.33
432.003	4.45
432.363	4.29
432.722	4.27
433.082	4.46
433.442	4.26
433.802	4.27
434.161	4.35
434.521	4.27
434.881	4.4
435.24	4.18
435.6	4.31
435.959	4.32
436.319	4.42
436.678	4.4
437.037	4.45
437.396	4.16
437.756	4.22
438.115	4.42
438.474	4.31
438.833	4.44
439.192	4.49
439.551	4.39
439.91	4.42
440.269	4.54
440.628	4.19
440.987	4.29
441.345	4.22
441.704	4.28
442.063	4.36
442.421	4.34
442.78	4.32
443.138	4.26
443.497	4.28
443.855	4.39
444.214	4.4
444.572	4.26
444.93	4.47
445.288	4.42
445.647	4.48
446.005	4.35
446.363	4.39
446.721	4.24
447.079	4.43
447.437	4.29
447.795	4.43
448.153	4.29
448.51	4.34
448.868	4.43
449.226	4.42
449.584	4.4
449.941	4.36
450.299	4.38
450.656	4.38
451.014	4.36
451.371	4.37
451.729	4.43
452.086	4.25
452.443	4.23
452.801	4.46
453.158	4.42
453.515	4.31
453.872	4.54
454.229	4.44
454.586	4.48
454.943	4.45
455.3	4.43
455.657	4.3
456.014	4.43
456.371	4.48
456.727	4.44
457.084	4.52
457.441	4.33
457.797	4.37
458.154	4.57
458.51	4.4
458.867	4.31
459.223	4.41
459.58	4.49
459.936	4.42
460.292	4.46
460.648	4.42
461.005	4.42
461.361	4.37
461.717	4.46
462.073	4.42
462.429	4.49
462.785	4.38
463.141	4.52
463.496	4.35
463.852	4.66
464.208	4.62
464.564	4.5
464.919	4.4
465.275	4.55
465.631	4.55
465.986	4.38
466.342	4.57
466.697	4.48
467.052	4.52
467.408	4.47
467.763	4.44
468.118	4.54
468.473	4.67
468.829	4.44
469.184	4.45
469.539	4.39
469.894	4.47
470.249	4.55
470.603	4.44
470.958	4.98
471.313	4.48
471.668	4.54
472.023	4.67
472.377	4.53
472.732	4.68
473.086	4.48
473.441	4.57
473.795	4.84
474.15	4.48
474.504	4.42
474.859	4.6
475.213	4.59
475.567	4.41
475.921	4.61
476.275	4.56
476.63	4.5
476.984	4.62
477.338	4.79
477.692	4.51
478.045	4.58
478.399	4.58
478.753	4.52
479.107	4.57
479.461	4.46
479.814	4.61
480.168	4.55
480.521	4.68
480.875	4.74
481.228	4.63
481.582	4.53
481.935	4.61
482.289	4.55
482.642	4.64
482.995	4.66
483.348	4.47
483.701	4.46
484.055	4.52
484.408	4.49
484.761	4.44
485.114	4.36
485.466	4.37
485.819	4.32
486.172	4.33
486.525	4.36
486.878	4.44
487.23	4.49
487.583	4.44
487.936	4.51
488.288	4.49
488.641	4.5
488.993	4.37
489.345	4.38
489.698	4.49
490.05	4.42
490.402	4.52
490.754	4.57
491.107	4.58
491.459	4.66
491.811	4.73
492.163	4.73
492.515	4.59
492.866	4.38
493.218	4.46
493.57	4.48
493.922	4.48
494.274	4.55
494.625	4.55
494.977	4.63
495.328	4.66
495.68	4.8
496.031	4.73
496.383	4.67
496.734	4.89
497.086	4.64
497.437	4.79
497.788	4.7
498.139	4.77
498.49	4.72
498.842	4.69
499.193	4.63
499.544	4.8
499.894	4.72
500.245	4.75
500.596	4.72
500.947	4.75
501.298	4.71
501.648	4.72
501.999	4.87
502.35	5.01
502.7	4.85
503.051	4.91
503.401	4.75
503.752	4.8
504.102	4.66
504.452	4.82
504.803	4.69
505.153	4.81
505.503	4.88
505.853	4.75
506.203	4.78
506.553	4.83
506.903	4.79
507.253	4.88
507.603	4.81
507.953	4.91
508.303	4.96
508.652	4.8
509.002	4.82
509.352	4.83
509.701	4.82
510.051	5
510.4	4.94
510.75	4.76
511.099	4.79
511.449	4.88
511.798	5.05
512.147	4.87
512.496	4.93
512.846	4.9
513.195	4.95
513.544	4.9
513.893	4.77
514.242	5.05
514.591	5
514.939	4.86
515.288	4.95
515.637	5.02
515.986	4.9
516.334	5.1
516.683	4.99
517.032	4.95
517.38	4.98
517.729	5.04
518.077	5.05
518.426	4.92
518.774	5.03
519.122	4.98
519.47	5.08
519.819	5
520.167	4.95
520.515	4.91
520.863	4.89
521.211	4.9
521.559	4.97
521.907	4.92
522.255	5.04
522.602	5.09
522.95	5.13
523.298	4.96
523.645	5.17
523.993	5.2
524.341	5.06
524.688	5.22
525.036	5.08
525.383	5.18
525.73	5.11
526.078	5.11
526.425	5.09
526.772	5.02
527.119	5.05
527.466	5.06
527.814	5.08
528.161	5.07
528.508	5.17
528.854	5.08
529.201	5.06
529.548	5.01
529.895	4.97
530.242	4.98
530.588	5.04
530.935	4.99
531.282	5.05
531.628	5.02
531.975	5.11
532.321	5.16
532.667	5.24
533.014	5.23
533.36	5.26
533.706	5.18
534.052	5.19
534.399	5.15
534.745	5.13
535.091	5.16
535.437	5.23
535.783	5.27
536.129	5.22
536.474	5.27
536.82	5.33
537.166	5.36
537.512	5.33
537.857	5.36
538.203	5.28
538.549	5.31
538.894	5.27
539.239	5.39
539.585	5.42
539.93	5.34
540.276	5.41
540.621	5.54
540.966	5.53
541.311	5.57
541.656	5.46
542.001	5.5
542.346	5.4
542.691	5.34
543.036	5.35
543.381	5.35
543.726	5.4
544.071	5.44
544.415	5.44
544.76	5.38
545.105	5.51
545.449	5.41
545.794	5.51
546.138	5.63
546.483	5.6
546.827	5.59
547.171	5.71
547.516	5.79
547.86	5.63
548.204	5.61
548.548	5.72
548.892	5.6
549.236	5.69
549.58	5.78
549.924	5.71
550.268	5.82
550.612	5.97
550.956	5.79
551.3	5.77
551.643	6.01
551.987	5.88
552.33	5.86
552.674	6
553.017	5.97
553.361	5.86
553.704	5.86
554.048	6.12
554.391	5.94
554.734	5.91
555.077	5.92
555.42	6.05
555.764	6.04
556.107	6.07
556.45	6.04
556.793	6.19
557.135	6.23
557.478	6.19
557.821	6.03
558.164	6.2
558.507	6.03
558.849	6.01
559.192	6.13
559.534	6.04
559.877	6.42
560.219	6.29
560.562	6.3
560.904	6.26
561.246	6.47
561.589	6.33
561.931	6.48
562.273	6.17
562.615	6.39
562.957	6.44
563.299	6.55
563.641	6.37
563.983	6.51
564.325	6.26
564.667	6.4
565.008	6.31
565.35	6.65
565.692	6.55
566.033	6.66
566.375	6.59
566.716	6.61
567.058	6.56
567.399	6.56
567.741	6.63
568.082	6.59
568.423	6.62
568.764	6.64
569.105	6.72
569.447	6.56
569.788	6.58
570.129	6.71
570.47	6.91
570.811	6.86
571.151	6.75
571.492	6.94
571.833	6.7
572.174	6.75
572.514	6.66
572.855	6.92
573.195	6.88
573.536	6.94
573.876	6.91
574.217	6.87
574.557	6.83
574.898	6.93
575.238	7
575.578	7.12
575.918	7.07
576.258	7
576.598	6.99
576.938	7.31
577.278	6.94
577.618	6.98
577.958	7.14
578.298	7.24
578.638	7.13
578.977	7.23
579.317	7.28
579.657	7.22
579.996	7.16
580.336	7.4
580.675	7.48
581.014	7.48
581.354	7.44
581.693	7.44
582.032	7.35
582.372	7.57
582.711	7.77
583.05	7.73
583.389	7.44
583.728	7.61
584.067	7.57
584.406	7.72
584.745	7.6
585.083	7.98
585.422	7.46
585.761	7.91
586.1	7.89
586.438	7.81
586.777	7.83
587.115	7.91
587.454	7.93
587.792	7.9
588.13	7.96
588.469	7.97
588.807	8.22
589.145	8.12
589.483	7.79
589.821	8.11
590.159	7.93
590.497	7.9
590.835	8.01
591.173	8.13
591.511	8.21
591.849	7.98
592.187	8.05
592.524	8.1
592.862	8.2
593.2	8.16
593.537	8.31
593.875	8.3
594.212	8.25
594.55	8.23
594.887	8.64
595.224	8.23
595.561	8.57
595.899	8.17
596.236	8.68
596.573	8.29
596.91	8.52
597.247	8.38
597.584	8.61
597.921	8.6
598.258	8.58
598.594	8.47
598.931	8.57
599.268	8.64
599.604	8.75
599.941	8.69
600.277	8.72
600.614	8.72
600.95	9
601.287	8.8
601.623	8.84
601.959	8.78
602.296	8.93
602.632	9.24
602.968	8.78
603.304	8.87
603.64	9.06
603.976	9.29
604.312	9.28
604.648	9.14
604.984	9.19
605.319	9.03
605.655	9.15
605.991	9.2
606.326	9.13
606.662	8.99
606.998	9.2
607.333	9.17
607.668	9.3
608.004	9.46
608.339	9.61
608.674	9.33
609.01	9.49
609.345	9.56
609.68	9.67
610.015	9.6
610.35	9.49
610.685	9.73
611.02	9.97
611.355	9.75
611.689	9.53
612.024	9.89
612.359	9.76
612.694	9.86
613.028	10.19
613.363	9.9
613.697	9.79
614.032	9.87
614.366	9.8
614.7	10.41
615.035	10.22
615.369	10.13
615.703	10.14
616.037	9.78
616.371	10.13
616.705	10.26
617.039	10.54
617.373	10.3
617.707	10.31
618.041	10.61
618.375	10.28
618.709	10.45
619.042	10.45
619.376	10.29
619.71	10.58
620.043	10.39
620.377	10.48
620.71	10.6
621.043	10.26
621.377	10.45
621.71	10.92
622.043	10.82
622.376	10.63
622.709	10.88
623.043	10.35
623.376	10.97
623.709	10.91
624.041	10.73
624.374	10.61
624.707	10.84
625.04	10.84
625.373	10.84
625.705	11.35
626.038	11.09
626.37	10.97
626.703	11.11
627.035	11.13
627.368	11.04
627.7	11.33
628.032	11.16
628.365	11
628.697	11.18
629.029	11.47
629.361	11.2
629.693	11.67
630.025	11.39
630.357	11.14
630.689	11.47
631.021	11.68
631.353	11.72
631.684	11.49
632.016	11.61
632.348	11.41
632.679	11.41
633.011	11.97
633.342	11.84
633.674	11.51
634.005	11.77
634.336	12.05
634.668	11.76
634.999	11.67
635.33	11.99
635.661	12.36
635.992	12.13
636.323	11.97
636.654	12.09
636.985	12.27
637.316	12.15
637.647	12.4
637.977	12.08
638.308	12.04
638.639	12.12
638.969	12.18
639.3	12.47
639.63	12.4
639.961	12.28
640.291	12.92
640.622	12.79
640.952	12.19
641.282	12.24
641.612	12.34
641.943	12.94
642.273	12.87
642.603	12.8
642.933	12.67
643.263	12.95
643.592	13.03
643.922	13.34
644.252	12.58
644.582	13.04
644.911	12.64
645.241	13.26
645.571	12.89
645.9	13.47
646.23	12.81
646.559	13.13
646.888	12.83
647.218	13.34
647.547	13.71
647.876	13.67
648.205	13.53
648.534	13.57
648.863	13.48
649.192	13.23
649.521	13.3
649.85	13.59
650.179	13.05
650.508	13.62
650.837	13.62
651.165	13.65
651.494	13.88
651.822	14.32
652.151	14.4
652.479	14.52
652.808	13.61
653.136	13.54
653.465	14.14
653.793	14.41
654.121	13.95
654.449	13.75
654.777	13.98
655.105	14.61
655.433	14.64
655.761	13.77
656.089	14.3
656.417	14.26
656.745	14.5
657.073	14.73
657.4	14.37
657.728	14.81
658.056	14.35
658.383	14.6
658.711	13.85
659.038	14.78
659.365	14.63
659.693	14.23
660.02	14.69
660.347	14.78
660.674	14.26
661.001	14.17
661.329	14.95
661.656	14.49
661.982	14.73
662.309	14.9
662.636	14.63
662.963	15.47
663.29	15.02
663.616	14.87
663.943	15.28
664.27	15.35
664.596	15.19
664.923	15.88
665.249	15.2
665.576	15.45
665.902	14.93
666.228	15.39
666.554	14.96
666.881	14.95
667.207	15.6
667.533	15.58
667.859	15.64
668.185	15.49
668.511	15.53
668.837	15.47
669.162	15.49
669.488	15.82
669.814	16.16
670.139	16.29
670.465	15.86
670.791	15.93
671.116	15.44
671.442	15.81
671.767	16.03
672.092	16.29
672.418	15.78
672.743	15.9
673.068	15.34
673.393	15.95
673.718	16.1
674.043	16.53
674.368	16.7
674.693	16.3
675.018	16.19
675.343	16.68
675.667	16.16
675.992	16.11
676.317	16.88
676.641	16.57
676.966	16.6
677.29	16.4
677.615	16.5
677.939	16.37
678.264	17.06
678.588	16.89
678.912	16.77
679.236	17.27
679.56	16.9
679.885	17
680.209	16.51
680.532	17.07
680.856	17.34
681.18	17.42
681.504	16.86
681.828	16.18
682.152	16.73
682.475	16.79
682.799	17.62
683.122	16.48
683.446	17.2
683.769	17.4
684.093	17.42
684.416	17.7
684.739	17.42
685.062	17.25
685.386	17.8
685.709	17.01
686.032	17.47
686.355	17.75
686.678	18.09
687.001	16.8
687.324	16.27
687.646	17.27
687.969	18.02
688.292	18.32
