Data from 0058_forehead_Reflection__0__133.txt Node

Date: Fri Dec 16 14:57:10 CST 2022
User: ToomeyLab
Spectrometer: FLMS14357
Trigger mode: 0
Integration Time (sec): 1.000000E-2
Scans to average: 100
Electric dark correction enabled: true
Nonlinearity correction enabled: false
Boxcar width: 0
XAxis mode: Wavelengths
Number of Pixels in Spectrum: 2048
>>>>>Begin Spectral Data<<<<<
189.047	49.8
189.435	49.8
189.823	49.8
190.211	70.01
190.599	-64.67
190.987	428.63
191.375	-106.5
191.763	16.07
192.151	-1.97
192.538	132.85
192.926	-24.01
193.314	130.35
193.702	64.34
194.089	9.05
194.477	206.19
194.864	-4.68
195.252	37.89
195.639	354.21
196.027	51.39
196.414	-136.5
196.801	-55.86
197.189	74.12
197.576	156.96
197.963	3.01
198.351	26.03
198.738	-14.63
199.125	65.71
199.512	36.28
199.899	-12.42
200.286	2.13
200.673	24.91
201.06	72.6
201.447	50.57
201.833	60.17
202.22	39.41
202.607	26
202.994	50.83
203.38	24.98
203.767	33.47
204.154	14.41
204.54	70.04
204.927	8.46
205.313	70.31
205.699	11.34
206.086	44.03
206.472	19.98
206.858	33.34
207.245	22.05
207.631	14.45
208.017	40.6
208.403	10.1
208.789	-20.62
209.175	46.89
209.561	-13.76
209.947	12.65
210.333	-2.34
210.719	4.23
211.105	10.39
211.491	8.79
211.876	31.87
212.262	7.13
212.648	-45.81
213.034	33.91
213.419	39.37
213.805	31.46
214.19	-1.82
214.576	-12.23
214.961	29.4
215.346	-4.88
215.732	9.32
216.117	28.86
216.502	-0.53
216.888	4.36
217.273	20.93
217.658	21.81
218.043	32.39
218.428	35.57
218.813	29.16
219.198	-43.74
219.583	-10.05
219.968	9.18
220.353	16.52
220.738	-5.7
221.122	16.91
221.507	3.2
221.892	2.09
222.276	11.28
222.661	7.01
223.046	5.49
223.43	2.49
223.815	19.87
224.199	7.96
224.583	10.59
224.968	12.95
225.352	0.32
225.736	9.37
226.121	4.58
226.505	3.75
226.889	11.05
227.273	7.57
227.657	3.26
228.041	6.82
228.425	7.3
228.809	5
229.193	1.26
229.577	3.77
229.961	4.6
230.344	4.57
230.728	4.76
231.112	4.2
231.495	4.47
231.879	3.98
232.263	2.13
232.646	3.93
233.03	1.9
233.413	4.28
233.797	7.04
234.18	4.08
234.563	4.4
234.946	4.7
235.33	5.18
235.713	5.11
236.096	5.03
236.479	5.49
236.862	5.16
237.245	4.31
237.628	4.1
238.011	5.29
238.394	7.04
238.777	4.86
239.16	2.06
239.543	2.15
239.925	5.34
240.308	5.08
240.691	4.53
241.073	4.98
241.456	3.99
241.838	4.85
242.221	4.93
242.603	4.34
242.986	5.66
243.368	4.64
243.75	4.23
244.133	4.37
244.515	4.67
244.897	4.13
245.279	3.91
245.661	3.82
246.043	4.84
246.425	3.81
246.807	4.25
247.189	4.66
247.571	4.83
247.953	4.39
248.335	4.59
248.717	4.46
249.098	4.29
249.48	3.89
249.862	4.21
250.243	4.68
250.625	4.52
251.006	4.45
251.388	5.62
251.769	4.96
252.151	4.53
252.532	4.71
252.913	4.78
253.295	4.44
253.676	4.76
254.057	4.46
254.438	4.64
254.819	5.12
255.2	4.61
255.581	4.31
255.962	4.45
256.343	5.08
256.724	4.78
257.105	4.81
257.486	4.06
257.867	3.85
258.247	4.6
258.628	5.12
259.009	4.77
259.389	4.86
259.77	4.51
260.15	5.43
260.531	4.49
260.911	4.52
261.292	4.51
261.672	4.24
262.052	4.37
262.432	4.76
262.813	5.01
263.193	4.26
263.573	4.46
263.953	4.29
264.333	4.69
264.713	4.23
265.093	4.34
265.473	5.84
265.853	4.76
266.233	4.43
266.612	5.21
266.992	4.77
267.372	4.59
267.752	3.99
268.131	4.65
268.511	4.78
268.89	4.39
269.27	4.36
269.649	5.18
270.029	4.55
270.408	4.89
270.787	4.26
271.167	4.51
271.546	3.84
271.925	4.53
272.304	4.56
272.683	4.4
273.062	4.87
273.441	4.5
273.82	4.96
274.199	4.62
274.578	4.12
274.957	4.71
275.336	4.44
275.715	5.15
276.093	4.85
276.472	4.3
276.851	4.5
277.229	4.86
277.608	4.02
277.986	4.69
278.365	4.53
278.743	4.39
279.122	4.53
279.5	3.96
279.878	3.58
280.257	4.53
280.635	4.71
281.013	4.47
281.391	4.23
281.769	4.27
282.147	5.04
282.525	4.52
282.903	4.67
283.281	4.34
283.659	4.77
284.037	4.69
284.415	4.72
284.792	4.36
285.17	4.22
285.548	4.32
285.925	4.59
286.303	4.16
286.68	4.93
287.058	4.33
287.435	4.67
287.813	4.55
288.19	5.06
288.567	4.11
288.945	4.58
289.322	4.15
289.699	4.9
290.076	5.36
290.453	4.72
290.83	4.96
291.207	4.89
291.584	4.44
291.961	4.91
292.338	5.16
292.715	4.85
293.092	5.04
293.469	4.88
293.845	5.38
294.222	5.05
294.599	5.65
294.975	5.28
295.352	5.07
295.728	5.33
296.105	5.58
296.481	5.79
296.858	5.28
297.234	5.1
297.61	5.36
297.986	5.28
298.363	5
298.739	5.62
299.115	5.11
299.491	5.66
299.867	5.58
300.243	5.72
300.619	5.67
300.995	5.79
301.371	6.17
301.746	5.52
302.122	5.57
302.498	5.77
302.874	5.93
303.249	6.08
303.625	6.07
304	5.98
304.376	6.31
304.751	6.08
305.127	6.41
305.502	6.57
305.878	6.49
306.253	5.85
306.628	6.78
307.003	6.3
307.378	6.31
307.754	6.49
308.129	6.12
308.504	6.55
308.879	6.74
309.254	6.86
309.629	6.69
310.003	6.77
310.378	7.21
310.753	6.45
311.128	6.77
311.502	6.62
311.877	7.03
312.252	6.75
312.626	7
313.001	6.84
313.375	6.83
313.75	6.78
314.124	7.1
314.498	6.91
314.873	7.01
315.247	6.59
315.621	8
315.995	7.31
316.369	7.27
316.743	7.87
317.117	7.74
317.491	7.79
317.865	7.41
318.239	7.92
318.613	7.45
318.987	8.14
319.361	7.88
319.734	7.94
320.108	7.86
320.482	7.83
320.855	8.2
321.229	8.82
321.602	7.66
321.976	7.77
322.349	7.46
322.723	7.93
323.096	8.01
323.469	8.33
323.843	8.58
324.216	8.08
324.589	8.9
324.962	8.71
325.335	8.35
325.708	8.51
326.081	9.02
326.454	8.81
326.827	8.69
327.2	9.17
327.573	8.82
327.945	8.73
328.318	8.74
328.691	9.55
329.063	8.95
329.436	9.49
329.809	9.2
330.181	9.26
330.553	9.61
330.926	9.42
331.298	9.39
331.671	9.36
332.043	9.29
332.415	9.23
332.787	9.91
333.159	9.28
333.532	9.31
333.904	9.59
334.276	9.54
334.648	9.37
335.02	9.24
335.391	9.74
335.763	9.71
336.135	10.17
336.507	9.91
336.879	9.89
337.25	9.93
337.622	9.84
337.993	9.47
338.365	9.64
338.736	9.97
339.108	9.68
339.479	9.88
339.851	10.17
340.222	10.46
340.593	9.83
340.964	10.39
341.336	9.73
341.707	10.19
342.078	9.82
342.449	10.71
342.82	10.19
343.191	9.75
343.562	10.36
343.933	10.75
344.303	9.91
344.674	10.3
345.045	11.03
345.416	10.66
345.786	10.39
346.157	10.43
346.527	10.51
346.898	10.91
347.268	10.62
347.639	10.68
348.009	10.72
348.38	10.72
348.75	10.96
349.12	10.79
349.49	10.98
349.861	11.16
350.231	11.14
350.601	11.13
350.971	10.56
351.341	11.17
351.711	11.24
352.081	11.08
352.45	11.22
352.82	11.17
353.19	10.98
353.56	11.13
353.929	11.8
354.299	11.07
354.669	11.44
355.038	11.55
355.408	12.05
355.777	11.3
356.147	11.7
356.516	12.04
356.885	11.19
357.254	11.95
357.624	11.84
357.993	11.78
358.362	11.81
358.731	12.03
359.1	12.23
359.469	11.87
359.838	11.83
360.207	11.81
360.576	11.94
360.945	11.75
361.314	12.31
361.682	11.73
362.051	11.9
362.42	12.1
362.788	12.21
363.157	11.94
363.525	12.39
363.894	12.01
364.262	11.96
364.631	12.68
364.999	12.15
365.367	12.64
365.735	12.2
366.104	12.36
366.472	12.6
366.84	12.82
367.208	12.34
367.576	12.69
367.944	13.2
368.312	12.37
368.68	12.85
369.048	12.77
369.416	12.69
369.783	12.93
370.151	12.88
370.519	12.87
370.886	13.05
371.254	12.73
371.621	12.92
371.989	13.08
372.356	13.36
372.724	12.97
373.091	13.3
373.458	13.23
373.826	13.11
374.193	13.78
374.56	13.27
374.927	12.88
375.294	13.62
375.661	13.48
376.028	13.43
376.395	13.49
376.762	13.68
377.129	13.79
377.496	13.88
377.863	13.69
378.229	13.69
378.596	14.03
378.963	13.97
379.329	13.84
379.696	13.79
380.062	14.03
380.429	13.98
380.795	14.02
381.161	13.94
381.528	13.76
381.894	14.34
382.26	14.08
382.626	14.06
382.993	14.28
383.359	14.05
383.725	14.62
384.091	14.12
384.457	14.5
384.823	14.24
385.188	14.48
385.554	14.41
385.92	14.75
386.286	14.5
386.651	14.67
387.017	14.67
387.383	14.64
387.748	14.36
388.114	14.65
388.479	14.72
388.845	14.78
389.21	15.1
389.575	14.93
389.94	14.85
390.306	14.92
390.671	14.82
391.036	15.17
391.401	15.51
391.766	15.22
392.131	15.19
392.496	15.13
392.861	15.12
393.226	15.36
393.591	15.19
393.956	15.24
394.32	15.19
394.685	15.42
395.05	15.3
395.414	15.57
395.779	15.29
396.143	15.61
396.508	15.77
396.872	15.48
397.236	15.4
397.601	15.61
397.965	15.4
398.329	15.94
398.694	15.51
399.058	15.76
399.422	15.93
399.786	16.1
400.15	15.92
400.514	15.88
400.878	16.17
401.242	15.91
401.605	15.99
401.969	16.31
402.333	16.17
402.697	16.34
403.06	16.25
403.424	16.24
403.787	16.4
404.151	16.3
404.514	16.25
404.878	16.41
405.241	16.53
405.604	16.55
405.968	16.46
406.331	16.49
406.694	16.48
407.057	16.44
407.42	16.42
407.783	16.46
408.146	16.59
408.509	16.84
408.872	16.46
409.235	16.68
409.598	16.89
409.961	16.92
410.323	16.9
410.686	16.84
411.049	16.92
411.411	17.09
411.774	16.93
412.136	16.97
412.499	17.02
412.861	16.91
413.223	17.21
413.586	16.97
413.948	17.42
414.31	17.33
414.672	17.18
415.035	17.51
415.397	17.36
415.759	17.33
416.121	17.65
416.483	17.56
416.845	17.43
417.206	17.4
417.568	17.6
417.93	17.31
418.292	17.5
418.653	17.52
419.015	17.61
419.377	17.6
419.738	17.39
420.1	17.34
420.461	17.56
420.822	17.37
421.184	17.52
421.545	17.57
421.906	17.55
422.267	17.42
422.629	17.47
422.99	17.5
423.351	17.61
423.712	17.61
424.073	17.82
424.434	17.78
424.795	17.78
425.155	17.89
425.516	17.66
425.877	17.72
426.238	17.69
426.598	17.96
426.959	17.9
427.32	18.19
427.68	18.29
428.041	18.24
428.401	18.26
428.761	18.46
429.122	18.34
429.482	18.46
429.842	18.59
430.202	18.54
430.563	18.58
430.923	18.65
431.283	18.73
431.643	18.62
432.003	18.68
432.363	18.86
432.722	18.76
433.082	18.84
433.442	18.88
433.802	18.84
434.161	18.91
434.521	18.81
434.881	18.86
435.24	18.79
435.6	18.89
435.959	18.91
436.319	18.9
436.678	19.06
437.037	19.13
437.396	19.08
437.756	19.15
438.115	19.14
438.474	19.26
438.833	19.33
439.192	19.31
439.551	19.44
439.91	19.34
440.269	19.55
440.628	19.52
440.987	19.33
441.345	19.22
441.704	19.24
442.063	19.32
442.421	19.55
442.78	19.24
443.138	19.41
443.497	19.36
443.855	19.7
444.214	19.64
444.572	19.62
444.93	19.87
445.288	19.89
445.647	19.89
446.005	19.74
446.363	19.8
446.721	19.7
447.079	19.83
447.437	19.6
447.795	19.57
448.153	19.57
448.51	19.56
448.868	19.74
449.226	19.77
449.584	20
449.941	20.01
450.299	20.08
450.656	20.17
451.014	20.3
451.371	20.53
451.729	20.36
452.086	20.42
452.443	20.39
452.801	20.49
453.158	20.45
453.515	20.33
453.872	20.64
454.229	20.45
454.586	20.52
454.943	20.58
455.3	20.77
455.657	20.62
456.014	20.88
456.371	20.89
456.727	20.72
457.084	20.76
457.441	20.81
457.797	21.04
458.154	21.01
458.51	20.98
458.867	20.97
459.223	21.03
459.58	21.13
459.936	20.96
460.292	20.99
460.648	20.81
461.005	20.88
461.361	20.72
461.717	20.75
462.073	20.85
462.429	21.04
462.785	21.14
463.141	21.31
463.496	21.21
463.852	21.5
464.208	21.5
464.564	21.4
464.919	21.41
465.275	21.67
465.631	21.83
465.986	21.48
466.342	21.76
466.697	21.49
467.052	21.59
467.408	21.67
467.763	21.72
468.118	21.77
468.473	21.82
468.829	21.85
469.184	21.79
469.539	21.63
469.894	21.77
470.249	22.02
470.603	22.05
470.958	22.13
471.313	21.93
471.668	22.19
472.023	22.1
472.377	22.01
472.732	22.43
473.086	22.23
473.441	22.32
473.795	22.58
474.15	22.31
474.504	22.23
474.859	22.41
475.213	22.34
475.567	22.4
475.921	22.65
476.275	22.63
476.63	22.51
476.984	22.61
477.338	22.89
477.692	22.71
478.045	22.42
478.399	22.67
478.753	22.66
479.107	22.66
479.461	22.86
479.814	22.64
480.168	22.75
480.521	22.84
480.875	22.91
481.228	22.78
481.582	22.75
481.935	22.78
482.289	22.67
482.642	22.85
482.995	22.64
483.348	22.62
483.701	22.62
484.055	22.56
484.408	22.45
484.761	22.08
485.114	22.02
485.466	22.04
485.819	22.02
486.172	22.07
486.525	22.14
486.878	22.27
487.23	22.41
487.583	22.77
487.936	22.55
488.288	22.53
488.641	22.44
488.993	22.38
489.345	22.33
489.698	22.4
490.05	22.49
490.402	22.78
490.754	22.93
491.107	23.12
491.459	23.25
491.811	23.35
492.163	23.27
492.515	23.04
492.866	22.82
493.218	22.8
493.57	22.87
493.922	22.86
494.274	23.14
494.625	23.42
494.977	23.56
495.328	23.75
495.68	23.97
496.031	24.12
496.383	23.85
496.734	24.13
497.086	24.09
497.437	24.14
497.788	23.99
498.139	23.97
498.49	23.93
498.842	23.93
499.193	23.96
499.544	24.16
499.894	24.09
500.245	24.16
500.596	24.3
500.947	24.21
501.298	24.36
501.648	24.53
501.999	24.48
502.35	24.53
502.7	24.58
503.051	24.8
503.401	24.66
503.752	24.64
504.102	24.52
504.452	24.6
504.803	24.79
505.153	24.68
505.503	24.65
505.853	24.68
506.203	24.8
506.553	24.76
506.903	24.88
507.253	25
507.603	25.06
507.953	25.08
508.303	25.03
508.652	24.99
509.002	25.19
509.352	24.98
509.701	24.92
510.051	24.85
510.4	24.93
510.75	24.95
511.099	24.74
511.449	24.91
511.798	25.04
512.147	24.97
512.496	25.2
512.846	25.09
513.195	25.16
513.544	25.26
513.893	25.04
514.242	25.22
514.591	25.42
514.939	25.27
515.288	25.49
515.637	25.53
515.986	25.55
516.334	25.65
516.683	25.73
517.032	25.63
517.38	25.64
517.729	25.81
518.077	25.74
518.426	25.73
518.774	25.66
519.122	25.49
519.47	25.41
519.819	25.34
520.167	25.43
520.515	25.33
520.863	25.53
521.211	25.66
521.559	25.7
521.907	25.85
522.255	25.76
522.602	25.89
522.95	26.03
523.298	26.03
523.645	26.12
523.993	26.14
524.341	26.12
524.688	26.11
525.036	26.23
525.383	26.24
525.73	26.25
526.078	26.18
526.425	26.04
526.772	25.93
527.119	25.75
527.466	25.94
527.814	25.9
528.161	26.08
528.508	25.9
528.854	25.93
529.201	25.77
529.548	25.58
529.895	25.44
530.242	25.55
530.588	25.51
530.935	25.53
531.282	25.72
531.628	25.77
531.975	26
532.321	26.15
532.667	26.28
533.014	26.41
533.36	26.35
533.706	26.37
534.052	26.22
534.399	26.06
534.745	25.99
535.091	26.16
535.437	26.16
535.783	26.37
536.129	26.38
536.474	26.7
536.82	26.76
537.166	26.74
537.512	26.67
537.857	26.76
538.203	26.65
538.549	26.64
538.894	26.77
539.239	26.95
539.585	27.07
539.93	27.14
540.276	27.15
540.621	27.41
540.966	27.43
541.311	27.31
541.656	27.19
542.001	27
542.346	26.72
542.691	26.68
543.036	26.57
543.381	26.6
543.726	26.75
544.071	26.85
544.415	27.07
544.76	27.05
545.105	27.15
545.449	27.34
545.794	27.37
546.138	27.45
546.483	27.53
546.827	27.68
547.171	27.63
547.516	27.85
547.86	27.58
548.204	27.57
548.548	27.54
548.892	27.62
549.236	27.75
549.58	28.11
549.924	28.01
550.268	28.18
550.612	28.16
550.956	28.03
551.3	28.15
551.643	28.2
551.987	28.27
552.33	28.3
552.674	28.51
553.017	28.32
553.361	28.46
553.704	28.38
554.048	28.52
554.391	28.51
554.734	28.54
555.077	28.54
555.42	28.65
555.764	28.65
556.107	28.62
556.45	28.6
556.793	28.82
557.135	28.78
557.478	28.91
557.821	28.95
558.164	29.15
558.507	28.91
558.849	28.91
559.192	29.01
559.534	28.95
559.877	28.96
560.219	29.19
560.562	29.22
560.904	29.17
561.246	29.42
561.589	29.26
561.931	29.51
562.273	29.21
562.615	29.31
562.957	29.37
563.299	29.45
563.641	29.35
563.983	29.3
564.325	29.24
564.667	29.6
565.008	29.54
565.35	29.51
565.692	29.72
566.033	29.6
566.375	29.33
566.716	29.48
567.058	29.54
567.399	29.56
567.741	29.33
568.082	29.56
568.423	29.45
568.764	29.37
569.105	29.64
569.447	29.71
569.788	29.72
570.129	29.77
570.47	29.79
570.811	30.03
571.151	29.95
571.492	30.1
571.833	30.07
572.174	29.75
572.514	29.82
572.855	29.83
573.195	29.62
573.536	29.76
573.876	30.13
574.217	29.85
574.557	29.97
574.898	29.86
575.238	29.87
575.578	30.24
575.918	30.05
576.258	30.08
576.598	30.09
576.938	29.96
577.278	30.13
577.618	30.1
577.958	30.31
578.298	30.34
578.638	30.18
578.977	30.33
579.317	30.5
579.657	30.52
579.996	30.46
580.336	30.65
580.675	30.57
581.014	30.76
581.354	30.97
581.693	30.94
582.032	30.65
582.372	30.86
582.711	30.81
583.05	30.85
583.389	31.19
583.728	31.1
584.067	30.97
584.406	30.92
584.745	31.06
585.083	30.99
585.422	31.27
585.761	31.17
586.1	31.51
586.438	30.81
586.777	31.38
587.115	31.18
587.454	31.28
587.792	31.31
588.13	31.28
588.469	31.41
588.807	31.23
589.145	31.37
589.483	31.49
589.821	31.5
590.159	31.16
590.497	31.25
590.835	31.47
591.173	31.31
591.511	31.52
591.849	31.48
592.187	31.35
592.524	31.39
592.862	31.49
593.2	31.42
593.537	31.21
593.875	31.12
594.212	31.61
594.55	31.87
594.887	31.71
595.224	31.61
595.561	31.59
595.899	31.63
596.236	31.95
596.573	31.71
596.91	31.72
597.247	31.75
597.584	31.83
597.921	31.54
598.258	31.53
598.594	31.39
598.931	31.74
599.268	31.6
599.604	31.69
599.941	31.98
600.277	31.85
600.614	32.15
600.95	32.12
601.287	31.92
601.623	32.13
601.959	32.13
602.296	32.29
602.632	32.3
602.968	32.29
603.304	32.13
603.64	32.2
603.976	32.41
604.312	32.13
604.648	32.22
604.984	31.97
605.319	32.09
605.655	32.1
605.991	31.88
606.326	31.99
606.662	31.94
606.998	32.27
607.333	32.14
607.668	32.15
608.004	32.7
608.339	32.84
608.674	32.44
609.01	32.59
609.345	32.4
609.68	32.59
610.015	32.59
610.35	32.52
610.685	32.65
611.02	32.55
611.355	32.6
611.689	32.23
612.024	32.68
612.359	32.83
612.694	32.75
613.028	32.94
613.363	32.69
613.697	33.21
614.032	33.15
614.366	33.01
614.7	33
615.035	32.97
615.369	33.08
615.703	33.37
616.037	32.86
616.371	33.11
616.705	33.16
617.039	33.15
617.373	33.24
617.707	33.14
618.041	33.53
618.375	33.41
618.709	33.6
619.042	33.46
619.376	33.38
619.71	33.41
620.043	33.33
620.377	33.02
620.71	33.37
621.043	33.31
621.377	33.19
621.71	33.29
622.043	33.87
622.376	33.75
622.709	33.61
623.043	33.47
623.376	33.66
623.709	33.65
624.041	33.5
624.374	33.89
624.707	33.43
625.04	33.45
625.373	33.56
625.705	33.88
626.038	34.12
626.37	33.5
626.703	33.73
627.035	33.75
627.368	33.81
627.7	33.79
628.032	33.78
628.365	33.87
628.697	33.6
629.029	33.89
629.361	33.8
629.693	34.07
630.025	34.24
630.357	33.5
630.689	34.43
631.021	33.96
631.353	33.84
631.684	34.09
632.016	34.37
632.348	34.27
632.679	34.4
633.011	34.28
633.342	34.22
633.674	34.3
634.005	34.31
634.336	34.42
634.668	34.63
634.999	34.07
635.33	34.11
635.661	34.12
635.992	34.06
636.323	34.37
636.654	34.16
636.985	34.7
637.316	34.62
637.647	34.8
637.977	34.54
638.308	34.65
638.639	34.42
638.969	34.26
639.3	34.51
639.63	34.28
639.961	34.62
640.291	34.97
640.622	34.91
640.952	34.73
641.282	34.45
641.612	34.46
641.943	34.81
642.273	34.76
642.603	34.58
642.933	34.48
643.263	35.41
643.592	35.17
643.922	35.67
644.252	34.78
644.582	35.09
644.911	34.89
645.241	35.68
645.571	35.07
645.9	35.48
646.23	35.19
646.559	35.52
646.888	34.6
647.218	35.11
647.547	35.12
647.876	35.51
648.205	35.22
648.534	35.49
648.863	35.28
649.192	35.08
649.521	35.09
649.85	35.55
650.179	35.27
650.508	35.35
650.837	35.38
651.165	35.79
651.494	35.54
651.822	35.83
652.151	35.86
652.479	35.91
652.808	35.22
653.136	35.47
653.465	35.32
653.793	35.83
654.121	35.9
654.449	35.72
654.777	35.49
655.105	36.38
655.433	36.04
655.761	35.54
656.089	36.2
656.417	35.74
656.745	36.51
657.073	36.48
657.4	35.67
657.728	36.19
658.056	36
658.383	36.11
658.711	35.89
659.038	35.96
659.365	36.1
659.693	35.58
660.02	35.87
660.347	36.18
660.674	35.79
661.001	35.72
661.329	35.56
661.656	35.97
661.982	36.07
662.309	35.75
662.636	36.16
662.963	35.84
663.29	36.2
663.616	36.04
663.943	36.73
664.27	36.31
664.596	36
664.923	37.13
665.249	36.28
665.576	36.24
665.902	36.42
666.228	36.15
666.554	36.27
666.881	37
667.207	36.25
667.533	36.95
667.859	36.46
668.185	36.8
668.511	36.19
668.837	36.05
669.162	36.04
669.488	36.19
669.814	36.18
670.139	37.1
670.465	36.98
670.791	37.13
