Data from 0058_crown_Reflection__2__130.txt Node

Date: Fri Dec 16 14:56:18 CST 2022
User: ToomeyLab
Spectrometer: FLMS14357
Trigger mode: 0
Integration Time (sec): 1.000000E-2
Scans to average: 100
Electric dark correction enabled: true
Nonlinearity correction enabled: false
Boxcar width: 0
XAxis mode: Wavelengths
Number of Pixels in Spectrum: 2048
>>>>>Begin Spectral Data<<<<<
189.047	388.69
189.435	388.69
189.823	388.69
190.211	102.39
190.599	-73.35
190.987	-260.73
191.375	-274.95
191.763	78.42
192.151	162.73
192.538	10.26
192.926	-42.11
193.314	115.6
193.702	93.39
194.089	-34.83
194.477	262.39
194.864	42.56
195.252	79.37
195.639	419.79
196.027	235.17
196.414	-17.57
196.801	16.45
197.189	105.54
197.576	575.06
197.963	48.07
198.351	9.82
198.738	10.38
199.125	48.41
199.512	0.16
199.899	75.9
200.286	-6.58
200.673	43.71
201.06	24.59
201.447	30.56
201.833	10.5
202.22	33.72
202.607	-37.01
202.994	2.79
203.38	1.61
203.767	-125.03
204.154	-52.96
204.54	11.98
204.927	27.35
205.313	46.49
205.699	39.06
206.086	30.02
206.472	20.15
206.858	42.23
207.245	7.29
207.631	19.59
208.017	2.32
208.403	26.08
208.789	36.84
209.175	42.05
209.561	9.21
209.947	1.9
210.333	14.16
210.719	-25.05
211.105	4.03
211.491	-17.23
211.876	31.1
212.262	-7.08
212.648	-41.32
213.034	-2.81
213.419	10.7
213.805	-5.63
214.19	-5.76
214.576	-2.93
214.961	16.63
215.346	-7.67
215.732	21.56
216.117	-13.88
216.502	-18.3
216.888	-30.96
217.273	13.69
217.658	-14.88
218.043	-6.1
218.428	-5.73
218.813	-10.97
219.198	-32.22
219.583	16.71
219.968	-1.32
220.353	14.94
220.738	-8.76
221.122	0.89
221.507	-4.23
221.892	6.95
222.276	7.34
222.661	-0.66
223.046	9.66
223.43	4.79
223.815	7.09
224.199	3.91
224.583	9.31
224.968	10.54
225.352	0.06
225.736	3.73
226.121	5.5
226.505	12.39
226.889	13.77
227.273	11.74
227.657	8.76
228.041	10.95
228.425	8.62
228.809	6.82
229.193	5.69
229.577	7.45
229.961	8.3
230.344	7.18
230.728	6.85
231.112	7.7
231.495	6.28
231.879	7.8
232.263	6.38
232.646	5.77
233.03	4.25
233.413	5.55
233.797	8.38
234.18	4.58
234.563	8.53
234.946	6.38
235.33	9.12
235.713	7.68
236.096	7.89
236.479	7.74
236.862	8.22
237.245	8.77
237.628	6.66
238.011	6.83
238.394	8.96
238.777	7.86
239.16	6.04
239.543	6.49
239.925	7.69
240.308	8.47
240.691	6.7
241.073	6.8
241.456	6.52
241.838	6.2
242.221	5.95
242.603	7.13
242.986	7.89
243.368	6.45
243.75	6.2
244.133	6.89
244.515	6.31
244.897	6.88
245.279	6.44
245.661	7.23
246.043	6.48
246.425	5.69
246.807	7.53
247.189	6.63
247.571	6.69
247.953	6.55
248.335	6.45
248.717	6.46
249.098	6.49
249.48	6.09
249.862	6.43
250.243	6.43
250.625	6.53
251.006	6.64
251.388	7.47
251.769	6.38
252.151	7.48
252.532	6.25
252.913	6.82
253.295	6.35
253.676	6.75
254.057	5.97
254.438	5.42
254.819	6.14
255.2	6.7
255.581	5.94
255.962	6.38
256.343	6.68
256.724	5.44
257.105	6.54
257.486	6.11
257.867	4.7
258.247	6.72
258.628	6.72
259.009	6.13
259.389	5.81
259.77	6.04
260.15	6.98
260.531	5.97
260.911	6.18
261.292	5.92
261.672	6.04
262.052	5.82
262.432	5.67
262.813	5.92
263.193	5.84
263.573	5.98
263.953	5.76
264.333	6.33
264.713	6.03
265.093	5.86
265.473	6.5
265.853	5.63
266.233	5.76
266.612	6.37
266.992	5.46
267.372	5.83
267.752	5.79
268.131	6.1
268.511	5.5
268.89	5.96
269.27	5.74
269.649	6.19
270.029	5.89
270.408	5.74
270.787	5.56
271.167	5.54
271.546	5.34
271.925	6.05
272.304	6.13
272.683	5.79
273.062	5.93
273.441	5.65
273.82	6.08
274.199	5.84
274.578	5.59
274.957	6.02
275.336	5.59
275.715	6.06
276.093	5.8
276.472	6.21
276.851	6.56
277.229	5.93
277.608	5.72
277.986	5.79
278.365	5.43
278.743	5.59
279.122	5.26
279.5	5.58
279.878	5.49
280.257	6.08
280.635	5.65
281.013	6.09
281.391	5.52
281.769	5.36
282.147	5.13
282.525	5.55
282.903	5.91
283.281	5.45
283.659	5.41
284.037	5.3
284.415	5.23
284.792	5.73
285.17	5.34
285.548	5.27
285.925	5.62
286.303	5.3
286.68	5.48
287.058	5.46
287.435	5.18
287.813	5.34
288.19	5.99
288.567	4.92
288.945	5.39
289.322	5.31
289.699	5.2
290.076	5.59
290.453	5.35
290.83	5.41
291.207	5.38
291.584	4.91
291.961	5.57
292.338	5.2
292.715	5.32
293.092	5.37
293.469	5.57
293.845	5.24
294.222	5.13
294.599	5.35
294.975	5.63
295.352	4.81
295.728	5.21
296.105	4.9
296.481	5.68
296.858	5.29
297.234	5.04
297.61	5.1
297.986	5.32
298.363	4.71
298.739	5.51
299.115	4.89
299.491	5.21
299.867	5.42
300.243	5.22
300.619	5.08
300.995	5.18
301.371	5.61
301.746	5.47
302.122	5.08
302.498	4.8
302.874	5.09
303.249	4.86
303.625	5.28
304	4.82
304.376	4.78
304.751	4.47
305.127	4.9
305.502	4.89
305.878	5.17
306.253	4.69
306.628	5.03
307.003	4.97
307.378	4.89
307.754	5.38
308.129	4.57
308.504	4.93
308.879	5.37
309.254	5.19
309.629	4.99
310.003	5.48
310.378	4.92
310.753	5.18
311.128	5.43
311.502	5.04
311.877	4.84
312.252	4.76
312.626	4.84
313.001	4.67
313.375	5.05
313.75	4.74
314.124	5.07
314.498	5.07
314.873	4.54
315.247	4.67
315.621	5.49
315.995	4.72
316.369	5.03
316.743	5.25
317.117	4.59
317.491	4.79
317.865	5.04
318.239	5.21
318.613	4.91
318.987	4.79
319.361	5.04
319.734	5.52
320.108	4.84
320.482	4.97
320.855	5.12
321.229	5.32
321.602	4.98
321.976	4.65
322.349	4.21
322.723	4.2
323.096	4.55
323.469	4.6
323.843	4.62
324.216	4.49
324.589	5.21
324.962	4.86
325.335	4.92
325.708	4.98
326.081	5.17
326.454	5.11
326.827	5.04
327.2	5.57
327.573	5.22
327.945	4.88
328.318	4.6
328.691	4.56
329.063	4.78
329.436	4.69
329.809	4.82
330.181	5.08
330.553	5.14
330.926	5.25
331.298	4.17
331.671	5.07
332.043	5.03
332.415	4.9
332.787	5.84
333.159	4.75
333.532	4.9
333.904	4.75
334.276	4.72
334.648	4.84
335.02	4.47
335.391	4.77
335.763	4.95
336.135	5.17
336.507	4.98
336.879	5.21
337.25	4.46
337.622	4.77
337.993	5.01
338.365	5.25
338.736	4.82
339.108	4.72
339.479	4.58
339.851	5.09
340.222	5.21
340.593	4.74
340.964	4.55
341.336	4.32
341.707	4.27
342.078	4.54
342.449	5.06
342.82	4.83
343.191	4.62
343.562	4.84
343.933	4.39
344.303	4.95
344.674	4.77
345.045	4.85
345.416	4.59
345.786	4.47
346.157	4.98
346.527	4.55
346.898	4.71
347.268	4.59
347.639	4.71
348.009	5.04
348.38	4.76
348.75	4.7
349.12	5.19
349.49	4.57
349.861	5.12
350.231	5.26
350.601	5.31
350.971	4.85
351.341	4.49
351.711	4.56
352.081	4.71
352.45	4.88
352.82	4.71
353.19	4.68
353.56	4.56
353.929	4.99
354.299	4.82
354.669	5.22
355.038	4.96
355.408	5.61
355.777	4.6
356.147	5.41
356.516	5.53
356.885	4.83
357.254	4.97
357.624	5.06
357.993	4.83
358.362	5.08
358.731	4.71
359.1	5.21
359.469	5.02
359.838	4.95
360.207	4.88
360.576	4.81
360.945	4.92
361.314	4.96
361.682	4.76
362.051	4.84
362.42	5.41
362.788	4.99
363.157	4.89
363.525	4.84
363.894	4.8
364.262	4.86
364.631	5.68
364.999	4.77
365.367	5.18
365.735	4.62
366.104	4.82
366.472	4.83
366.84	4.97
367.208	4.69
367.576	5
367.944	5.31
368.312	4.63
368.68	4.98
369.048	5.21
369.416	5.01
369.783	5.01
370.151	5.05
370.519	4.73
370.886	4.92
371.254	4.73
371.621	4.84
371.989	5.37
372.356	4.82
372.724	5.08
373.091	4.88
373.458	4.72
373.826	4.97
374.193	5.29
374.56	4.84
374.927	4.93
375.294	5.19
375.661	4.85
376.028	5.07
376.395	4.93
376.762	5.34
377.129	5.46
377.496	4.97
377.863	5.24
378.229	4.71
378.596	5.32
378.963	4.92
379.329	5.03
379.696	5.15
380.062	5.54
380.429	5.15
380.795	4.92
381.161	5.2
381.528	4.48
381.894	5.08
382.26	5
382.626	4.94
382.993	5.05
383.359	5.21
383.725	5.32
384.091	5.01
384.457	5.41
384.823	5.22
385.188	5.39
385.554	5.18
385.92	5.63
386.286	5.23
386.651	5.27
387.017	4.97
387.383	5.35
387.748	5.32
388.114	5.27
388.479	5.53
388.845	5.29
389.21	5.47
389.575	5.25
389.94	5.11
390.306	5.11
390.671	5.15
391.036	5.42
391.401	5.41
391.766	5.4
392.131	5.29
392.496	5.37
392.861	5.23
393.226	5.32
393.591	5.28
393.956	5.35
394.32	5.28
394.685	5.32
395.05	5.13
395.414	5.24
395.779	5.1
396.143	5.5
396.508	5.47
396.872	5.35
397.236	4.88
397.601	5.43
397.965	5.11
398.329	5.3
398.694	5.31
399.058	5.5
399.422	5.37
399.786	5.35
400.15	5.12
400.514	5.29
400.878	5.21
401.242	5.44
401.605	5.37
401.969	5.39
402.333	5.43
402.697	5.65
403.06	5.47
403.424	5.42
403.787	5.5
404.151	5.31
404.514	5.37
404.878	5.29
405.241	5.56
405.604	5.4
405.968	5.42
406.331	5.5
406.694	5.35
407.057	5.73
407.42	5.19
407.783	5.27
408.146	5.33
408.509	5.25
408.872	5.34
409.235	5.44
409.598	5.52
409.961	5.6
410.323	5.19
410.686	5.35
411.049	5.2
411.411	5.53
411.774	5.39
412.136	5.43
412.499	5.37
412.861	5.39
413.223	5.75
413.586	5.24
413.948	5.48
414.31	5.58
414.672	5.46
415.035	5.44
415.397	5.6
415.759	5.41
416.121	5.64
416.483	5.55
416.845	5.48
417.206	5.52
417.568	5.42
417.93	5.41
418.292	5.45
418.653	5.47
419.015	5.49
419.377	5.46
419.738	5.47
420.1	5.42
420.461	5.38
420.822	5.44
421.184	5.51
421.545	5.41
421.906	5.45
422.267	5.34
422.629	5.44
422.99	5.3
423.351	5.41
423.712	5.43
424.073	5.44
424.434	5.49
424.795	5.41
425.155	5.34
425.516	5.41
425.877	5.39
426.238	5.37
426.598	5.41
426.959	5.4
427.32	5.55
427.68	5.65
428.041	5.55
428.401	5.41
428.761	5.51
429.122	5.61
429.482	5.59
429.842	5.67
430.202	5.56
430.563	5.53
430.923	5.51
431.283	5.66
431.643	5.61
432.003	5.5
432.363	5.75
432.722	5.64
433.082	5.56
433.442	5.6
433.802	5.61
434.161	5.58
434.521	5.61
434.881	5.61
435.24	5.5
435.6	5.55
435.959	5.52
436.319	5.4
436.678	5.64
437.037	5.82
437.396	5.73
437.756	5.64
438.115	5.62
438.474	5.8
438.833	5.64
439.192	5.75
439.551	5.61
439.91	5.76
440.269	5.66
440.628	5.59
440.987	5.54
441.345	5.54
441.704	5.67
442.063	5.61
442.421	5.57
442.78	5.53
443.138	5.5
443.497	5.58
443.855	5.65
444.214	5.75
444.572	5.6
444.93	5.58
445.288	5.71
445.647	5.59
446.005	5.5
446.363	5.65
446.721	5.5
447.079	5.6
447.437	5.46
447.795	5.6
448.153	5.62
448.51	5.47
448.868	5.68
449.226	5.64
449.584	5.56
449.941	5.67
450.299	5.64
450.656	5.66
451.014	5.7
451.371	5.7
451.729	5.62
452.086	5.61
452.443	5.55
452.801	5.8
453.158	5.81
453.515	5.69
453.872	5.85
454.229	5.74
454.586	5.72
454.943	5.6
455.3	5.71
455.657	5.46
456.014	5.86
456.371	5.79
456.727	5.8
457.084	5.77
457.441	5.64
457.797	5.64
458.154	5.77
458.51	5.72
458.867	5.78
459.223	5.88
459.58	5.72
459.936	5.63
460.292	5.87
460.648	5.68
461.005	5.66
461.361	5.65
461.717	5.67
462.073	5.71
462.429	5.71
462.785	5.69
463.141	5.75
463.496	5.61
463.852	5.86
464.208	5.75
464.564	5.79
464.919	5.68
465.275	5.75
465.631	5.82
465.986	5.75
466.342	5.68
466.697	5.71
467.052	5.7
467.408	5.8
467.763	5.73
468.118	5.9
468.473	5.79
468.829	5.78
469.184	5.9
469.539	5.58
469.894	5.83
470.249	5.7
470.603	5.67
470.958	5.97
471.313	5.81
471.668	5.81
472.023	5.96
472.377	5.78
472.732	5.7
473.086	5.71
473.441	5.87
473.795	6
474.15	5.91
474.504	5.82
474.859	5.86
475.213	5.92
475.567	5.74
475.921	5.94
476.275	6.07
476.63	5.98
476.984	5.8
477.338	6.18
477.692	5.83
478.045	5.84
478.399	5.91
478.753	5.77
479.107	5.89
479.461	5.93
479.814	5.78
480.168	5.85
480.521	5.76
480.875	5.81
481.228	5.85
481.582	5.78
481.935	5.78
482.289	5.76
482.642	5.77
482.995	5.8
483.348	5.87
483.701	5.75
484.055	5.68
484.408	5.71
484.761	5.56
485.114	5.49
485.466	5.47
485.819	5.49
486.172	5.52
486.525	5.56
486.878	5.56
487.23	5.69
487.583	5.66
487.936	5.74
488.288	5.63
488.641	5.65
488.993	5.55
489.345	5.57
489.698	5.65
490.05	5.64
490.402	5.68
490.754	5.79
491.107	5.75
491.459	5.78
491.811	5.82
492.163	5.84
492.515	5.74
492.866	5.59
493.218	5.61
493.57	5.65
493.922	5.65
494.274	5.71
494.625	5.7
494.977	5.8
495.328	5.82
495.68	5.87
496.031	5.9
496.383	5.8
496.734	6.02
497.086	5.77
497.437	6
497.788	5.85
498.139	5.9
498.49	5.82
498.842	5.82
499.193	5.83
499.544	5.95
499.894	5.88
500.245	5.87
500.596	5.91
500.947	5.87
501.298	5.81
501.648	5.92
501.999	6.04
502.35	5.9
502.7	5.98
503.051	6.19
503.401	5.89
503.752	5.97
504.102	5.91
504.452	5.7
504.803	5.68
505.153	5.94
505.503	5.88
505.853	5.93
506.203	6.03
506.553	5.98
506.903	5.81
507.253	5.85
507.603	5.89
507.953	6.01
508.303	6
508.652	5.99
509.002	6.01
509.352	5.93
509.701	5.88
510.051	5.94
510.4	5.92
510.75	5.9
511.099	5.82
511.449	5.91
511.798	5.9
512.147	5.88
512.496	5.92
512.846	5.86
513.195	5.82
513.544	5.88
513.893	5.8
514.242	6.02
514.591	5.9
514.939	5.78
515.288	5.94
515.637	6
515.986	5.93
516.334	5.99
516.683	5.91
517.032	5.98
517.38	5.99
517.729	5.86
518.077	5.99
518.426	5.82
518.774	5.81
519.122	5.91
519.47	5.85
519.819	5.91
520.167	5.84
520.515	5.78
520.863	5.83
521.211	5.77
521.559	5.81
521.907	5.9
522.255	5.93
522.602	5.94
522.95	6.02
523.298	5.81
523.645	5.84
523.993	6.01
524.341	5.92
524.688	5.92
525.036	6.02
525.383	5.96
525.73	5.8
526.078	5.78
526.425	5.91
526.772	5.8
527.119	5.69
527.466	5.77
527.814	5.76
528.161	5.87
528.508	5.8
528.854	5.77
529.201	5.69
529.548	5.66
529.895	5.6
530.242	5.54
530.588	5.58
530.935	5.58
531.282	5.7
531.628	5.72
531.975	5.74
532.321	5.78
532.667	5.81
533.014	5.8
533.36	5.76
533.706	5.74
534.052	5.76
534.399	5.66
534.745	5.66
535.091	5.65
535.437	5.72
535.783	5.73
536.129	5.72
536.474	5.83
536.82	5.74
537.166	5.86
537.512	5.83
537.857	5.79
538.203	5.69
538.549	5.83
538.894	5.69
539.239	5.89
539.585	5.85
539.93	5.86
540.276	5.73
540.621	5.86
540.966	5.93
541.311	5.93
541.656	5.79
542.001	5.88
542.346	5.76
542.691	5.63
543.036	5.61
543.381	5.7
543.726	5.66
544.071	5.71
544.415	5.67
544.76	5.65
545.105	5.77
545.449	5.7
545.794	5.75
546.138	5.81
546.483	5.8
546.827	5.87
547.171	5.77
547.516	5.96
547.86	5.71
548.204	5.75
548.548	5.86
548.892	5.95
549.236	5.85
549.58	5.84
549.924	5.93
550.268	5.96
550.612	5.91
550.956	5.87
551.3	5.96
551.643	5.96
551.987	5.87
552.33	5.73
552.674	5.85
553.017	5.97
553.361	5.87
553.704	5.8
554.048	5.99
554.391	5.8
554.734	5.76
555.077	5.81
555.42	5.72
555.764	5.87
556.107	5.79
556.45	5.78
556.793	5.99
557.135	6.1
557.478	5.93
557.821	5.94
558.164	5.9
558.507	5.84
558.849	5.72
559.192	5.86
559.534	5.78
559.877	5.99
560.219	5.97
560.562	5.76
560.904	5.73
561.246	5.83
561.589	5.94
561.931	6.09
562.273	5.72
562.615	5.85
562.957	5.87
563.299	6.05
563.641	5.9
563.983	5.81
564.325	5.63
564.667	5.74
565.008	5.57
565.35	5.86
565.692	6.09
566.033	5.88
566.375	5.71
566.716	5.8
567.058	5.87
567.399	5.71
567.741	5.85
568.082	5.73
568.423	5.68
568.764	5.83
569.105	5.97
569.447	5.72
569.788	5.73
570.129	5.75
570.47	6.01
570.811	5.79
571.151	5.86
571.492	5.88
571.833	5.75
572.174	5.63
572.514	5.64
572.855	5.84
573.195	5.75
573.536	5.72
573.876	5.71
574.217	5.94
574.557	5.72
574.898	5.74
575.238	5.54
575.578	5.92
575.918	5.74
576.258	5.81
576.598	5.68
576.938	5.71
577.278	5.7
577.618	5.56
577.958	5.78
578.298	5.9
578.638	5.73
578.977	6
579.317	5.8
579.657	5.69
579.996	5.72
580.336	5.62
580.675	5.65
581.014	5.71
581.354	5.8
581.693	5.73
582.032	5.68
582.372	5.82
582.711	5.82
583.05	6.07
583.389	5.81
583.728	5.75
584.067	5.77
584.406	5.89
584.745	5.66
585.083	6.06
585.422	5.93
585.761	5.82
586.1	5.86
586.438	5.72
586.777	5.74
587.115	5.77
587.454	6.01
587.792	5.86
588.13	5.78
588.469	5.79
588.807	5.76
589.145	5.74
589.483	5.73
589.821	5.84
590.159	5.73
590.497	5.61
590.835	5.7
591.173	5.87
591.511	5.57
591.849	5.84
592.187	5.75
592.524	5.7
592.862	5.78
593.2	5.51
593.537	5.55
593.875	5.75
594.212	5.91
594.55	5.59
594.887	5.82
595.224	5.69
595.561	5.79
595.899	5.76
596.236	5.83
596.573	5.75
596.91	5.74
597.247	5.71
597.584	5.93
597.921	5.66
598.258	5.95
598.594	5.61
598.931	5.63
599.268	5.69
599.604	5.75
599.941	5.73
600.277	5.7
600.614	5.71
600.95	5.97
601.287	5.78
601.623	5.64
601.959	5.73
602.296	5.66
602.632	5.81
602.968	5.6
603.304	5.68
603.64	5.52
603.976	5.6
604.312	5.99
604.648	5.69
604.984	5.81
605.319	5.68
605.655	5.73
605.991	5.69
606.326	5.64
606.662	5.43
606.998	5.58
607.333	5.49
607.668	5.71
608.004	5.68
608.339	5.52
608.674	5.59
609.01	5.95
609.345	5.8
609.68	5.34
610.015	5.78
610.35	5.48
610.685	5.61
611.02	5.74
611.355	5.69
611.689	5.42
612.024	5.7
612.359	5.83
612.694	5.78
613.028	5.98
613.363	5.65
613.697	5.68
614.032	5.83
614.366	5.67
614.7	5.88
615.035	5.69
615.369	5.76
615.703	5.99
616.037	5.34
616.371	5.4
616.705	5.81
617.039	5.99
617.373	5.83
617.707	5.28
618.041	5.66
618.375	5.49
618.709	5.68
619.042	5.63
619.376	5.42
619.71	5.63
620.043	5.51
620.377	5.61
620.71	5.72
621.043	5.67
621.377	5.56
621.71	5.93
622.043	6.14
622.376	5.47
622.709	5.52
623.043	5.69
623.376	5.84
623.709	5.83
624.041	5.61
624.374	5.7
624.707	5.5
625.04	5.93
625.373	5.83
625.705	5.95
626.038	5.62
626.37	5.63
626.703	5.34
627.035	5.62
627.368	5.71
627.7	5.74
628.032	5.46
628.365	5.43
628.697	5.51
629.029	6.01
629.361	5.55
629.693	5.67
630.025	5.76
630.357	5.47
630.689	5.67
631.021	5.88
631.353	5.79
631.684	5.71
632.016	5.43
632.348	5.73
632.679	5.42
633.011	5.56
633.342	5.74
633.674	5.44
634.005	5.82
634.336	5.52
634.668	5.6
634.999	5.44
635.33	5.73
635.661	5.77
635.992	5.55
636.323	5.5
636.654	5.55
636.985	5.56
637.316	5.92
637.647	5.64
637.977	5.78
638.308	5.34
638.639	5.57
638.969	5.48
639.3	5.75
639.63	5.11
639.961	5.58
640.291	5.88
640.622	5.88
640.952	5.63
641.282	5.39
641.612	5.57
641.943	5.74
642.273	5.51
642.603	5.7
642.933	5.25
643.263	5.88
643.592	5.89
643.922	5.83
644.252	5.52
644.582	5.47
644.911	5.48
645.241	5.24
645.571	5.32
645.9	6.03
646.23	5.37
646.559	5.61
646.888	5.69
647.218	5.95
647.547	5.85
647.876	5.54
648.205	5.67
648.534	5.4
648.863	5.86
649.192	5.35
649.521	5.34
649.85	5.97
650.179	5.73
650.508	5.43
650.837	5.26
651.165	6.09
651.494	5.52
651.822	6.03
652.151	6.04
652.479	5.68
652.808	5.7
653.136	5.42
653.465	5.91
653.793	5.88
654.121	5.91
654.449	5.82
654.777	5.75
655.105	6.1
655.433	5.77
655.761	5.38
656.089	5.81
656.417	5.48
656.745	6.37
657.073	6.07
657.4	5.74
657.728	6.11
658.056	5.66
658.383	5.94
658.711	5.33
659.038	6.56
659.365	5.77
659.693	5.46
660.02	5.68
660.347	5.79
660.674	5.44
661.001	5.55
661.329	5.52
661.656	5.8
661.982	5.64
662.309	5.89
662.636	5.32
662.963	6.07
663.29	5.42
663.616	5.64
663.943	6.23
664.27	5.91
664.596	5.39
664.923	5.57
665.249	5.63
665.576	5.46
665.902	5.57
666.228	5.2
666.554	5.67
666.881	5.88
667.207	5.82
667.533	5.78
667.859	5.64
668.185	6.01
668.511	4.74
668.837	4.94
669.162	5.89
669.488	5.65
669.814	5.97
670.139	6.46
670.465	5.88
670.791	6.16
671.116	5.49
671.442	5.84
671.767	5.54
672.092	6
672.418	5.59
672.743	6.17
673.068	5.5
673.393	5.4
673.718	5.26
674.043	5.62
674.368	6.11
674.693	5.55
675.018	5.91
675.343	6.06
675.667	5.3
675.992	4.98
676.317	5.62
676.641	5.81
676.966	5.89
677.29	5.46
677.615	5.59
677.939	5.93
678.264	6.11
678.588	5.88
678.912	6.01
679.236	5.98
679.56	5.51
679.885	5.79
680.209	5.02
680.532	5.72
680.856	6.17
681.18	5.24
681.504	5.27
681.828	5.34
682.152	6.06
682.475	5.49
682.799	5.94
683.122	5.25
683.446	5.28
683.769	5.46
684.093	5.85
684.416	5.38
684.739	6.09
685.062	6.02
685.386	5.86
685.709	5.73
686.032	5.32
686.355	6.02
686.678	5.79
687.001	4.92
687.324	4.72
687.646	5.76
687.969	6.06
688.292	6.64
688.614	6.1
688.937	5.46
689.26	4.4
689.582	6.18
689.904	5.55
690.227	5.14
690.549	6.07
690.871	5.89
691.194	5.72
691.516	5.26
691.838	5.99
692.16	5.27
692.482	6.16
