Data from 0058_chest_Reflection__1__124.txt Node

Date: Fri Dec 16 14:54:25 CST 2022
User: ToomeyLab
Spectrometer: FLMS14357
Trigger mode: 0
Integration Time (sec): 1.000000E-2
Scans to average: 100
Electric dark correction enabled: true
Nonlinearity correction enabled: false
Boxcar width: 0
XAxis mode: Wavelengths
Number of Pixels in Spectrum: 2048
>>>>>Begin Spectral Data<<<<<
189.047	75.44
189.435	75.44
189.823	75.44
190.211	7.72
190.599	-147.6
190.987	210.08
191.375	161.95
191.763	89.65
192.151	-83.27
192.538	-36.34
192.926	39.08
193.314	184.51
193.702	40.5
194.089	17.9
194.477	203.37
194.864	167.11
195.252	-25.65
195.639	450.95
196.027	-98.08
196.414	427.25
196.801	-9.42
197.189	22.06
197.576	341.14
197.963	-65.79
198.351	47.94
198.738	28.52
199.125	24.58
199.512	46.15
199.899	7.55
200.286	-47.09
200.673	20.12
201.06	61.08
201.447	61.4
201.833	23.29
202.22	25.96
202.607	11.24
202.994	18.19
203.38	-32.28
203.767	-16.14
204.154	3.08
204.54	54.96
204.927	12.98
205.313	38.66
205.699	2.11
206.086	-5.16
206.472	2.48
206.858	32.17
207.245	20.3
207.631	8.35
208.017	-1.93
208.403	-1.17
208.789	2.68
209.175	43.66
209.561	3.04
209.947	-23.64
210.333	-37.65
210.719	18.24
211.105	12.04
211.491	10.97
211.876	-27.61
212.262	13.81
212.648	-49.2
213.034	9.66
213.419	22.78
213.805	-0.36
214.19	-1.83
214.576	-1.03
214.961	20.3
215.346	-63.06
215.732	8.44
216.117	-4.51
216.502	-14.5
216.888	1.8
217.273	15.62
217.658	-22.15
218.043	12.5
218.428	-12
218.813	12.17
219.198	-14.37
219.583	33.09
219.968	-17.61
220.353	40.24
220.738	3.31
221.122	7.23
221.507	6.25
221.892	6.68
222.276	4.96
222.661	-11.67
223.046	9.8
223.43	-9.18
223.815	0.15
224.199	8.81
224.583	10.19
224.968	4.76
225.352	-2.64
225.736	1.14
226.121	-3.7
226.505	5.43
226.889	8.05
227.273	5.57
227.657	3.19
228.041	2.26
228.425	1.83
228.809	3.65
229.193	0.45
229.577	0.83
229.961	1.43
230.344	2.22
230.728	1.83
231.112	2.52
231.495	2.73
231.879	3.1
232.263	1.29
232.646	1.99
233.03	0.19
233.413	1.82
233.797	4
234.18	-0.11
234.563	0.57
234.946	0.47
235.33	2.73
235.713	2.1
236.096	0.59
236.479	3.32
236.862	2.02
237.245	2.96
237.628	2.66
238.011	1.45
238.394	3.11
238.777	1.82
239.16	0.43
239.543	2.07
239.925	1.14
240.308	-0.03
240.691	1.53
241.073	1.98
241.456	1.61
241.838	1.79
242.221	1.95
242.603	1.91
242.986	2.52
243.368	2.2
243.75	1.98
244.133	2.45
244.515	2.19
244.897	2.18
245.279	2.24
245.661	1.03
246.043	2.89
246.425	1.93
246.807	1.56
247.189	1.96
247.571	1.95
247.953	1.65
248.335	1.98
248.717	1.93
249.098	2.16
249.48	1.89
249.862	2.05
250.243	1.81
250.625	1.79
251.006	1.92
251.388	2.36
251.769	2.29
252.151	2.1
252.532	1.67
252.913	2.01
253.295	1.79
253.676	2.07
254.057	1.56
254.438	1.94
254.819	0.88
255.2	1.04
255.581	1.63
255.962	2.93
256.343	2.22
256.724	1.43
257.105	2.54
257.486	2.17
257.867	0.3
258.247	2.11
258.628	2.69
259.009	1.34
259.389	3.11
259.77	2.19
260.15	2.31
260.531	1.77
260.911	2
261.292	1.88
261.672	1.9
262.052	1.86
262.432	1.49
262.813	1.97
263.193	1.54
263.573	1.5
263.953	1.4
264.333	1.94
264.713	1.53
265.093	1.17
265.473	2.54
265.853	1.84
266.233	1.02
266.612	2.3
266.992	1.42
267.372	2.33
267.752	1.16
268.131	1.81
268.511	2.05
268.89	2.53
269.27	1.96
269.649	2.26
270.029	2.16
270.408	1.54
270.787	2.07
271.167	1.63
271.546	0.95
271.925	2.13
272.304	2.11
272.683	1.91
273.062	1.88
273.441	1.9
273.82	2.2
274.199	2
274.578	2.07
274.957	1.59
275.336	1.5
275.715	1.93
276.093	2.25
276.472	2.08
276.851	1.82
277.229	1.87
277.608	1.53
277.986	1.68
278.365	1.61
278.743	1.86
279.122	1.44
279.5	1.81
279.878	1.1
280.257	2.18
280.635	1.82
281.013	2.2
281.391	2.2
281.769	1.5
282.147	1.95
282.525	1.96
282.903	2.05
283.281	1.66
283.659	2.07
284.037	1.97
284.415	1.86
284.792	2
285.17	1.45
285.548	1.87
285.925	1.85
286.303	1.37
286.68	2.1
287.058	1.74
287.435	1.82
287.813	1.48
288.19	2.2
288.567	1.52
288.945	1.67
289.322	1.61
289.699	1.81
290.076	2.01
290.453	1.84
290.83	1.97
291.207	1.87
291.584	1.76
291.961	2.28
292.338	1.84
292.715	2.05
293.092	1.84
293.469	1.86
293.845	2.25
294.222	1.8
294.599	2.07
294.975	2
295.352	1.57
295.728	1.57
296.105	1.6
296.481	2.47
296.858	1.75
297.234	2.19
297.61	1.67
297.986	1.88
298.363	1.39
298.739	1.96
299.115	1.42
299.491	1.74
299.867	1.59
300.243	1.72
300.619	1.68
300.995	1.84
301.371	1.88
301.746	1.73
302.122	1.94
302.498	1.69
302.874	2.11
303.249	2.06
303.625	1.63
304	1.41
304.376	2.03
304.751	1.8
305.127	1.82
305.502	1.98
305.878	1.51
306.253	1.73
306.628	1.74
307.003	1.73
307.378	1.43
307.754	2.1
308.129	1.4
308.504	1.66
308.879	1.91
309.254	1.96
309.629	1.62
310.003	2.1
310.378	1.85
310.753	1.89
311.128	1.68
311.502	1.58
311.877	1.91
312.252	1.8
312.626	1.32
313.001	1.92
313.375	1.49
313.75	1.49
314.124	1.99
314.498	1.38
314.873	1.69
315.247	1.96
315.621	2.03
315.995	1.94
316.369	1.88
316.743	2.56
317.117	1.82
317.491	1.77
317.865	1.23
318.239	2.08
318.613	2.05
318.987	2.02
319.361	1.85
319.734	1.78
320.108	1.87
320.482	1.66
320.855	2.07
321.229	2.23
321.602	1.87
321.976	1.44
322.349	1.49
322.723	1.29
323.096	1.28
323.469	1.41
323.843	1.61
324.216	1.59
324.589	1.83
324.962	1.64
325.335	1.47
325.708	1.95
326.081	2.31
326.454	2.31
326.827	2.08
327.2	2
327.573	1.84
327.945	1.51
328.318	2.06
328.691	1.9
329.063	1.68
329.436	1.92
329.809	1.38
330.181	1.84
330.553	1.91
330.926	2.17
331.298	1.12
331.671	1.77
332.043	2.2
332.415	2.15
332.787	1.99
333.159	1.51
333.532	2.21
333.904	2.25
334.276	2.13
334.648	1.94
335.02	1.8
335.391	1.84
335.763	1.98
336.135	2.07
336.507	1.98
336.879	1.92
337.25	2.1
337.622	1.94
337.993	2.2
338.365	2.67
338.736	1.89
339.108	1.49
339.479	1.82
339.851	1.85
340.222	1.88
340.593	1.73
340.964	1.72
341.336	1.73
341.707	2.09
342.078	1.34
342.449	2.07
342.82	2.14
343.191	1.29
343.562	1.89
343.933	1.83
344.303	1.7
344.674	2
345.045	2.01
345.416	2.07
345.786	1.47
346.157	2.05
346.527	1.95
346.898	1.84
347.268	1.57
347.639	1.45
348.009	1.87
348.38	1.69
348.75	2.13
349.12	1.96
349.49	1.35
349.861	1.94
350.231	2.09
350.601	1.87
350.971	1.98
351.341	1.92
351.711	1.71
352.081	1.82
352.45	1.87
352.82	2.01
353.19	1.84
353.56	1.79
353.929	1.99
354.299	1.57
354.669	2.06
355.038	1.73
355.408	2.13
355.777	1.76
356.147	1.97
356.516	2.43
356.885	1.83
357.254	2.05
357.624	1.65
357.993	1.7
358.362	1.83
358.731	1.79
359.1	2.21
359.469	1.75
359.838	1.82
360.207	1.86
360.576	2.04
360.945	1.94
361.314	1.86
361.682	1.69
362.051	1.75
362.42	2.05
362.788	2.06
363.157	1.77
363.525	1.8
363.894	1.59
364.262	1.77
364.631	2.29
364.999	1.5
365.367	2.22
365.735	1.73
366.104	1.57
366.472	2.06
366.84	2.07
367.208	1.54
367.576	1.92
367.944	1.97
368.312	1.69
368.68	1.91
369.048	2.1
369.416	1.98
369.783	2.21
370.151	2.1
370.519	1.47
370.886	1.88
371.254	1.88
371.621	1.59
371.989	1.88
372.356	1.88
372.724	2.01
373.091	1.73
373.458	1.74
373.826	1.71
374.193	2.56
374.56	1.95
374.927	2.15
375.294	2.59
375.661	2.05
376.028	2.04
376.395	1.84
376.762	2.18
377.129	2.46
377.496	2.02
377.863	1.97
378.229	2.03
378.596	1.64
378.963	1.82
379.329	1.8
379.696	1.78
380.062	2
380.429	1.72
380.795	1.71
381.161	2.03
381.528	1.65
381.894	1.85
382.26	1.95
382.626	1.55
382.993	1.83
383.359	1.85
383.725	2.26
384.091	1.77
384.457	1.92
384.823	1.81
385.188	2.14
385.554	1.92
385.92	2.1
386.286	2.14
386.651	2
387.017	2.16
387.383	2.22
387.748	1.75
388.114	2.23
388.479	1.83
388.845	2.2
389.21	2.08
389.575	1.99
389.94	2.08
390.306	1.9
390.671	1.77
391.036	2.08
391.401	2.15
391.766	2.03
392.131	2.05
392.496	2.27
392.861	1.98
393.226	2.11
393.591	2.05
393.956	2.1
394.32	2
394.685	2.1
395.05	2.05
395.414	1.91
395.779	2.04
396.143	2.08
396.508	1.99
396.872	2.34
397.236	1.79
397.601	2.35
397.965	1.7
398.329	2.21
398.694	1.61
399.058	2.07
399.422	2.13
399.786	2.06
400.15	2.05
400.514	2.22
400.878	2.11
401.242	2.3
401.605	2.2
401.969	2.15
402.333	1.99
402.697	2.11
403.06	2.14
403.424	2.24
403.787	2.3
404.151	2.04
404.514	2.29
404.878	1.86
405.241	1.98
405.604	2.1
405.968	1.96
406.331	2.07
406.694	2.18
407.057	2.43
407.42	2.2
407.783	2.26
408.146	2.15
408.509	1.73
408.872	1.92
409.235	2.32
409.598	2.4
409.961	2.33
410.323	2.27
410.686	2.06
411.049	2.05
411.411	1.99
411.774	2.14
412.136	2.18
412.499	1.93
412.861	2.06
413.223	2.34
413.586	2.05
413.948	2.04
414.31	2.41
414.672	2.15
415.035	2.14
415.397	2.3
415.759	2.13
416.121	2.21
416.483	2.24
416.845	2.22
417.206	2.27
417.568	2.07
417.93	2.08
418.292	2.14
418.653	2.15
419.015	2.21
419.377	2.14
419.738	1.95
420.1	2.25
420.461	2.08
420.822	2.1
421.184	2.09
421.545	2.21
421.906	2.05
422.267	2
422.629	2.06
422.99	2.12
423.351	2.06
423.712	2.07
424.073	2.18
424.434	2.02
424.795	2.11
425.155	2.03
425.516	2.06
425.877	2.04
426.238	2.01
426.598	2.11
426.959	2.06
427.32	2.1
427.68	2.15
428.041	2.1
428.401	2.09
428.761	1.98
429.122	2.14
429.482	2.25
429.842	2.22
430.202	2.17
430.563	2.05
430.923	2.22
431.283	2.24
431.643	2.14
432.003	2.11
432.363	2.18
432.722	2.16
433.082	2.18
433.442	2.16
433.802	2.16
434.161	2.11
434.521	2.25
434.881	2.27
435.24	2.02
435.6	2
435.959	2.13
436.319	2.04
436.678	2.15
437.037	2.08
437.396	2.29
437.756	2.19
438.115	2.16
438.474	2.18
438.833	2.35
439.192	2.38
439.551	2.18
439.91	2.18
440.269	2.13
440.628	2.15
440.987	2.08
441.345	2.2
441.704	2.3
442.063	2.19
442.421	2.16
442.78	2.17
443.138	2.1
443.497	2.07
443.855	2.21
444.214	2.27
444.572	2.2
444.93	2.22
445.288	2.27
445.647	2.26
446.005	2.09
446.363	2.3
446.721	2.05
447.079	2.11
447.437	2.16
447.795	2.09
448.153	2.16
448.51	2.18
448.868	2.21
449.226	2.23
449.584	2.16
449.941	2.22
450.299	2.22
450.656	2.33
451.014	2.18
451.371	2.24
451.729	2.19
452.086	2.17
452.443	2.27
452.801	2.23
453.158	2.19
453.515	2.29
453.872	2.31
454.229	2.21
454.586	2.25
454.943	2.22
455.3	2.4
455.657	2.18
456.014	2.21
456.371	2.33
456.727	2.22
457.084	2.19
457.441	2.14
457.797	2.3
458.154	2.29
458.51	2.28
458.867	2.25
459.223	2.4
459.58	2.05
459.936	2.24
460.292	2.14
460.648	2.16
461.005	2.2
461.361	2.16
461.717	2.22
462.073	2.21
462.429	2.3
462.785	2.14
463.141	2.23
463.496	2.26
463.852	2.41
464.208	2.24
464.564	2.42
464.919	2.27
465.275	2.33
465.631	2.23
465.986	2.21
466.342	2.24
466.697	2.27
467.052	2.29
467.408	2.39
467.763	2.16
468.118	2.31
468.473	2.45
468.829	2.33
469.184	2.43
469.539	2.12
469.894	2.39
470.249	2.39
470.603	2.28
470.958	2.43
471.313	2.26
471.668	2.48
472.023	2.48
472.377	2.32
472.732	2.36
473.086	2.38
473.441	2.31
473.795	2.54
474.15	2.39
474.504	2.25
474.859	2.41
475.213	2.33
475.567	2.45
475.921	2.42
476.275	2.32
476.63	2.26
476.984	2.32
477.338	2.57
477.692	2.46
478.045	2.45
478.399	2.27
478.753	2.22
479.107	2.33
479.461	2.43
479.814	2.32
480.168	2.29
480.521	2.25
480.875	2.46
481.228	2.41
481.582	2.19
481.935	2.32
482.289	2.37
482.642	2.44
482.995	2.32
483.348	2.3
483.701	2.29
484.055	2.33
484.408	2.3
484.761	2.19
485.114	2.15
485.466	2.17
485.819	2.2
486.172	2.26
486.525	2.26
486.878	2.33
487.23	2.3
487.583	2.3
487.936	2.27
488.288	2.26
488.641	2.28
488.993	2.17
489.345	2.25
489.698	2.3
490.05	2.23
490.402	2.38
490.754	2.4
491.107	2.34
491.459	2.39
491.811	2.49
492.163	2.43
492.515	2.36
492.866	2.22
493.218	2.24
493.57	2.33
493.922	2.33
494.274	2.36
494.625	2.34
494.977	2.31
495.328	2.44
495.68	2.6
496.031	2.36
496.383	2.39
496.734	2.44
497.086	2.39
497.437	2.52
497.788	2.51
498.139	2.38
498.49	2.49
498.842	2.43
499.193	2.41
499.544	2.54
499.894	2.47
500.245	2.47
500.596	2.35
500.947	2.51
501.298	2.49
501.648	2.46
501.999	2.57
502.35	2.49
502.7	2.53
503.051	2.59
503.401	2.51
503.752	2.42
504.102	2.45
504.452	2.38
504.803	2.4
505.153	2.48
505.503	2.43
505.853	2.32
506.203	2.51
506.553	2.6
506.903	2.61
507.253	2.5
507.603	2.54
507.953	2.64
508.303	2.5
508.652	2.5
509.002	2.59
509.352	2.6
509.701	2.46
510.051	2.53
510.4	2.5
510.75	2.47
511.099	2.49
511.449	2.56
511.798	2.66
512.147	2.53
512.496	2.52
512.846	2.51
513.195	2.56
513.544	2.48
513.893	2.44
514.242	2.49
514.591	2.56
514.939	2.65
515.288	2.51
515.637	2.57
515.986	2.55
516.334	2.59
516.683	2.69
517.032	2.62
517.38	2.6
517.729	2.54
518.077	2.63
518.426	2.56
518.774	2.57
519.122	2.52
519.47	2.56
519.819	2.6
520.167	2.59
520.515	2.51
520.863	2.58
521.211	2.59
521.559	2.66
521.907	2.6
522.255	2.66
522.602	2.64
522.95	2.79
523.298	2.55
523.645	2.57
523.993	2.76
524.341	2.74
524.688	2.68
525.036	2.74
525.383	2.68
525.73	2.68
526.078	2.67
526.425	2.55
526.772	2.61
527.119	2.56
527.466	2.61
527.814	2.61
528.161	2.62
528.508	2.65
528.854	2.5
529.201	2.65
529.548	2.57
529.895	2.5
530.242	2.54
530.588	2.59
530.935	2.6
531.282	2.66
531.628	2.64
531.975	2.7
532.321	2.67
532.667	2.67
533.014	2.68
533.36	2.73
533.706	2.71
534.052	2.61
534.399	2.63
534.745	2.62
535.091	2.7
535.437	2.7
535.783	2.8
536.129	2.73
536.474	2.9
536.82	2.73
537.166	2.77
537.512	2.73
537.857	2.73
538.203	2.76
538.549	2.86
538.894	2.83
539.239	2.95
539.585	2.85
539.93	2.92
540.276	2.85
540.621	2.83
540.966	2.83
541.311	2.92
541.656	2.76
542.001	2.93
542.346	2.78
542.691	2.76
543.036	2.74
543.381	2.81
543.726	2.87
544.071	2.85
544.415	2.86
544.76	2.77
545.105	2.9
545.449	2.85
545.794	2.91
546.138	2.98
546.483	2.95
546.827	3.03
547.171	2.95
547.516	3.04
547.86	2.94
548.204	2.93
548.548	3.04
548.892	2.97
549.236	3.06
549.58	3.12
549.924	3.02
550.268	3.28
550.612	3.14
550.956	2.99
551.3	3.02
551.643	3.11
551.987	3.1
552.33	3.12
552.674	3.22
553.017	3.05
553.361	3.15
553.704	2.99
554.048	3.28
554.391	3.12
554.734	3.12
555.077	3.21
555.42	3.21
555.764	3.32
556.107	3.19
556.45	3.15
556.793	3.46
557.135	3.39
557.478	3.39
557.821	3.2
558.164	3.3
558.507	3.26
558.849	3.29
559.192	3.38
559.534	3.24
559.877	3.47
560.219	3.59
560.562	3.35
560.904	3.34
561.246	3.45
561.589	3.48
561.931	3.56
562.273	3.25
562.615	3.38
562.957	3.45
563.299	3.53
563.641	3.49
563.983	3.35
564.325	3.39
564.667	3.44
565.008	3.42
565.35	3.65
565.692	3.54
566.033	3.38
566.375	3.33
566.716	3.61
567.058	3.68
567.399	3.58
567.741	3.65
568.082	3.54
568.423	3.5
568.764	3.53
569.105	3.79
569.447	3.51
569.788	3.67
570.129	3.73
570.47	3.59
570.811	3.75
571.151	3.66
571.492	3.78
571.833	3.6
572.174	3.66
572.514	3.54
572.855	3.76
573.195	3.64
573.536	3.66
573.876	3.71
574.217	3.71
574.557	3.91
574.898	3.68
575.238	3.7
575.578	3.81
575.918	3.64
576.258	3.92
576.598	3.82
576.938	3.85
577.278	3.64
577.618	3.78
577.958	3.99
578.298	3.94
578.638	3.79
578.977	3.94
579.317	4.03
579.657	3.95
579.996	4.01
580.336	3.93
580.675	4.07
581.014	4.23
581.354	4
581.693	4.06
582.032	3.69
582.372	4.25
582.711	3.87
583.05	4.21
583.389	4.19
583.728	4.23
584.067	4.09
584.406	4.3
584.745	3.97
585.083	4.41
585.422	4.08
585.761	4.45
586.1	4.32
586.438	4.3
586.777	4.41
587.115	4.47
587.454	4.46
587.792	4.12
588.13	4.46
588.469	4.49
588.807	4.65
589.145	4.58
589.483	4.42
589.821	4.4
590.159	4.4
590.497	4.26
590.835	4.46
591.173	4.53
591.511	4.4
591.849	4.55
592.187	4.49
592.524	4.61
592.862	4.55
593.2	4.38
593.537	4.53
593.875	4.51
594.212	4.42
594.55	4.5
594.887	4.84
595.224	4.41
595.561	4.57
595.899	4.47
596.236	4.75
596.573	4.47
596.91	4.87
597.247	4.56
597.584	4.61
597.921	4.52
598.258	4.84
598.594	4.46
598.931	4.68
599.268	4.71
599.604	4.94
599.941	4.69
600.277	4.85
600.614	4.75
600.95	5.07
601.287	4.99
601.623	4.76
601.959	4.87
602.296	5.14
602.632	5.15
602.968	5.01
603.304	5.01
603.64	5.14
603.976	5.15
604.312	5.01
604.648	5.06
604.984	4.98
605.319	4.97
605.655	5.12
605.991	5.13
606.326	4.99
606.662	4.8
606.998	4.93
607.333	5.13
607.668	5.11
608.004	5.1
608.339	5.3
608.674	5.13
609.01	5.07
609.345	5.29
609.68	5.01
610.015	5.28
610.35	5.33
610.685	5.41
611.02	5.43
611.355	5.45
611.689	5.1
612.024	5.64
612.359	5.63
612.694	5.55
613.028	5.63
613.363	5.28
613.697	5.59
614.032	5.56
614.366	5.38
614.7	5.75
615.035	5.43
615.369	5.99
615.703	5.75
616.037	5.46
616.371	5.65
616.705	5.66
617.039	6.03
617.373	5.74
617.707	5.61
618.041	5.74
618.375	5.57
618.709	6.03
619.042	5.64
619.376	5.64
619.71	5.74
620.043	5.76
620.377	6.22
620.71	5.72
621.043	5.92
621.377	5.9
621.71	6.19
622.043	6.14
622.376	6.09
622.709	6
623.043	6.08
623.376	6.31
623.709	6.15
624.041	6.14
624.374	6.12
624.707	5.9
625.04	6.11
625.373	6.09
625.705	6.24
626.038	6.34
626.37	6.29
626.703	6.47
627.035	6.22
627.368	6.61
627.7	6.49
628.032	6.41
628.365	6.03
628.697	6.14
629.029	6.68
629.361	6.24
629.693	6.68
630.025	6.42
630.357	6.46
630.689	6.48
631.021	6.5
631.353	6.66
631.684	6.71
632.016	6.29
632.348	6.58
632.679	6.31
633.011	6.48
633.342	6.58
633.674	6.45
634.005	6.62
634.336	6.84
634.668	6.25
634.999	6.56
635.33	6.52
635.661	7.17
635.992	6.97
636.323	6.95
636.654	6.98
636.985	6.6
637.316	6.97
637.647	7.23
637.977	6.77
638.308	6.96
638.639	6.91
638.969	6.94
639.3	7.06
639.63	6.77
639.961	7.04
640.291	7.47
640.622	7.24
640.952	7.16
641.282	6.47
641.612	6.75
641.943	7.46
642.273	7.28
642.603	7.07
642.933	7.07
643.263	7.72
643.592	7.31
643.922	7.34
644.252	7.4
644.582	7.31
644.911	7.36
645.241	7.39
645.571	7.08
645.9	7.78
646.23	7.24
646.559	7.55
646.888	7.59
647.218	7.68
647.547	7.69
647.876	7.98
648.205	7.64
648.534	7.81
648.863	7.79
649.192	7.28
649.521	7.46
649.85	7.85
650.179	7.45
650.508	7.81
650.837	7.67
651.165	7.77
651.494	7.83
651.822	7.66
652.151	8.21
652.479	8.31
652.808	7.6
653.136	7.55
653.465	8.2
653.793	8.23
654.121	8.49
654.449	8.26
654.777	7.85
655.105	8.49
655.433	8.37
655.761	7.87
656.089	8.35
656.417	8.1
656.745	8.45
657.073	8.24
657.4	8.25
657.728	8.26
658.056	8.01
658.383	8.48
658.711	8.14
659.038	8.35
659.365	8.26
659.693	8.06
660.02	8.35
660.347	8.47
660.674	8.04
661.001	7.98
661.329	8.25
661.656	8.43
661.982	8.63
662.309	8.47
662.636	8.21
662.963	8.9
663.29	8.8
663.616	8.77
663.943	8.52
664.27	8.38
664.596	8.41
664.923	8.69
665.249	8.88
665.576	8.74
665.902	8.94
666.228	8.48
666.554	8.34
666.881	9.11
667.207	8.5
667.533	9.07
667.859	8.22
668.185	9.16
668.511	8.2
668.837	8.07
669.162	9.7
669.488	8.85
669.814	9.22
670.139	9.34
670.465	9.12
670.791	9.17
671.116	8.7
671.442	8.8
671.767	9.58
672.092	9.78
672.418	8.91
672.743	9.48
673.068	9.51
673.393	9.43
673.718	9.48
674.043	9.02
674.368	9.74
674.693	9.68
675.018	9.63
675.343	9.65
675.667	9.3
675.992	8.95
676.317	9.75
676.641	9.31
676.966	9.55
677.29	9.21
677.615	10.08
677.939	9.57
678.264	8.95
678.588	9.52
678.912	10.21
679.236	9.93
679.56	9.31
679.885	9.51
680.209	9.06
680.532	9.76
680.856	10.54
681.18	9.84
681.504	9.51
681.828	9.69
682.152	9.77
682.475	9.77
682.799	10.41
683.122	9.89
683.446	9.79
683.769	9.97
684.093	9.97
684.416	9.82
684.739	10.12
685.062	9.68
685.386	10.26
685.709	10.43
686.032	10.47
686.355	10.07
686.678	10.43
687.001	9.85
687.324	9.65
687.646	9.91
687.969	10.16
688.292	11.07
688.614	10.8
688.937	9.62
689.26	10.33
689.582	10.25
689.904	10.58
690.227	10.93
690.549	11.15
690.871	10.57
691.194	11.51
691.516	11.23
691.838	11.11
692.16	11
692.482	11.03
692.804	10.12
