Data from 0058_chest_Reflection__4__127.txt Node

Date: Fri Dec 16 14:55:03 CST 2022
User: ToomeyLab
Spectrometer: FLMS14357
Trigger mode: 0
Integration Time (sec): 1.000000E-2
Scans to average: 100
Electric dark correction enabled: true
Nonlinearity correction enabled: false
Boxcar width: 0
XAxis mode: Wavelengths
Number of Pixels in Spectrum: 2048
>>>>>Begin Spectral Data<<<<<
189.047	157.43
189.435	157.43
189.823	157.43
190.211	41.09
190.599	287.43
190.987	-134.09
191.375	-275.05
191.763	115.42
192.151	137.41
192.538	73.46
192.926	21.04
193.314	192.43
193.702	-10.99
194.089	175.62
194.477	-40.8
194.864	-77.36
195.252	-49.33
195.639	682.99
196.027	-188.61
196.414	-43.46
196.801	273.66
197.189	169.17
197.576	-253.16
197.963	-101.4
198.351	-3.55
198.738	0.81
199.125	13.17
199.512	-11.43
199.899	-40.81
200.286	-68.39
200.673	-9.99
201.06	15.57
201.447	13.3
201.833	5.02
202.22	22.24
202.607	-3.81
202.994	16.31
203.38	-49.36
203.767	19.12
204.154	-76.43
204.54	-24.91
204.927	12.37
205.313	11.16
205.699	10.39
206.086	-38.3
206.472	-11.81
206.858	15.19
207.245	-18.95
207.631	-24.13
208.017	30.82
208.403	18.47
208.789	33.1
209.175	36.49
209.561	13.39
209.947	3.5
210.333	-1.14
210.719	26.65
211.105	-5.1
211.491	-27.29
211.876	-5.64
212.262	27.89
212.648	-16.03
213.034	16.13
213.419	42
213.805	3.21
214.19	-19.5
214.576	-0.1
214.961	-24.96
215.346	-2.42
215.732	-8.04
216.117	-7.94
216.502	-15.31
216.888	9.43
217.273	22.54
217.658	-18.59
218.043	-28.73
218.428	-7.3
218.813	-26.26
219.198	-36.19
219.583	-3.31
219.968	5.64
220.353	27.03
220.738	-16.3
221.122	-15.03
221.507	-15.51
221.892	-0.65
222.276	9.88
222.661	5.06
223.046	5.31
223.43	4.99
223.815	4.04
224.199	6.87
224.583	-1.58
224.968	7.14
225.352	-3.51
225.736	-2.32
226.121	-3.94
226.505	10.66
226.889	6.95
227.273	-0.98
227.657	3.73
228.041	6.46
228.425	3.42
228.809	5.79
229.193	2.28
229.577	3.41
229.961	3.55
230.344	3.72
230.728	3.03
231.112	3.64
231.495	3.33
231.879	3.17
232.263	1.1
232.646	4.3
233.03	2.22
233.413	2.92
233.797	4.67
234.18	0.53
234.563	1.64
234.946	1.5
235.33	4.18
235.713	3.49
236.096	2.09
236.479	1.83
236.862	4.07
237.245	3.92
237.628	4.22
238.011	4.39
238.394	3.92
238.777	2.11
239.16	1.39
239.543	2.91
239.925	2.98
240.308	3.36
240.691	3.14
241.073	2.33
241.456	2.44
241.838	3.9
242.221	3.67
242.603	2.97
242.986	4.04
243.368	3.15
243.75	3
244.133	3.36
244.515	3.42
244.897	3.01
245.279	3.09
245.661	2.81
246.043	4.25
246.425	2.53
246.807	2.53
247.189	2.97
247.571	3.46
247.953	3.12
248.335	3.52
248.717	3.45
249.098	3.24
249.48	2.8
249.862	3.54
250.243	2.8
250.625	3.26
251.006	3.93
251.388	2.99
251.769	2.56
252.151	2.86
252.532	2.79
252.913	3.33
253.295	3.39
253.676	3.68
254.057	2.63
254.438	3.04
254.819	3.02
255.2	2.15
255.581	3.19
255.962	2.59
256.343	2.94
256.724	1.7
257.105	2.23
257.486	3.02
257.867	2.59
258.247	3.03
258.628	3.06
259.009	3.66
259.389	3.65
259.77	3.55
260.15	3.46
260.531	3.39
260.911	3.12
261.292	3.18
261.672	3.09
262.052	3.23
262.432	2.94
262.813	3.18
263.193	2.6
263.573	3.14
263.953	2.84
264.333	3.25
264.713	2.65
265.093	3.03
265.473	3.66
265.853	2.46
266.233	2.97
266.612	3.53
266.992	3.05
267.372	3.24
267.752	2.73
268.131	2.72
268.511	3.3
268.89	3.54
269.27	3.01
269.649	3.27
270.029	2.77
270.408	2.81
270.787	3.28
271.167	3.1
271.546	2.54
271.925	3.04
272.304	3.04
272.683	2.89
273.062	3.38
273.441	3.12
273.82	3.56
274.199	3.17
274.578	3.05
274.957	3.44
275.336	3.14
275.715	3.54
276.093	3.35
276.472	3.15
276.851	3.36
277.229	3.43
277.608	2.79
277.986	3.04
278.365	2.85
278.743	2.49
279.122	3.21
279.5	2.68
279.878	2.16
280.257	3.24
280.635	2.6
281.013	3.41
281.391	2.97
281.769	2.54
282.147	2.96
282.525	2.98
282.903	3.07
283.281	3.04
283.659	3.03
284.037	2.98
284.415	2.66
284.792	3.01
285.17	2.8
285.548	2.48
285.925	2.87
286.303	2.73
286.68	2.81
287.058	2.75
287.435	2.71
287.813	2.99
288.19	3.35
288.567	2.77
288.945	2.92
289.322	2.95
289.699	2.75
290.076	3.01
290.453	2.54
290.83	2.85
291.207	2.85
291.584	2.59
291.961	2.88
292.338	2.85
292.715	3.2
293.092	2.93
293.469	2.82
293.845	3.2
294.222	3.1
294.599	3.02
294.975	2.88
295.352	2.58
295.728	3.04
296.105	2.78
296.481	3.25
296.858	2.89
297.234	2.75
297.61	2.68
297.986	2.82
298.363	2.54
298.739	2.92
299.115	2.4
299.491	2.74
299.867	2.76
300.243	2.96
300.619	2.7
300.995	2.72
301.371	3.08
301.746	2.72
302.122	2.92
302.498	3
302.874	2.8
303.249	2.99
303.625	2.93
304	2.9
304.376	2.5
304.751	2.86
305.127	2.73
305.502	3.18
305.878	2.68
306.253	2.88
306.628	2.5
307.003	2.5
307.378	2.4
307.754	3.08
308.129	2.11
308.504	2.47
308.879	2.62
309.254	2.91
309.629	2.6
310.003	2.92
310.378	2.71
310.753	2.79
311.128	3.06
311.502	2.69
311.877	2.83
312.252	2.54
312.626	2.53
313.001	2.6
313.375	2.59
313.75	2.87
314.124	3.3
314.498	2.39
314.873	2.46
315.247	2.65
315.621	3.07
315.995	2.58
316.369	2.56
316.743	3.19
317.117	3.15
317.491	2.66
317.865	2.36
318.239	3.2
318.613	2.8
318.987	3.08
319.361	2.85
319.734	2.88
320.108	2.69
320.482	2.53
320.855	2.87
321.229	2.97
321.602	2.79
321.976	2.62
322.349	2.12
322.723	2.13
323.096	2.87
323.469	2.64
323.843	2.95
324.216	1.87
324.589	3.3
324.962	2.72
325.335	2.89
325.708	2.76
326.081	3.19
326.454	2.68
326.827	2.58
327.2	3.19
327.573	2.53
327.945	2.64
328.318	3.14
328.691	3.37
329.063	2.68
329.436	2.82
329.809	2.76
330.181	2.9
330.553	2.93
330.926	2.38
331.298	2.26
331.671	2.69
332.043	2.69
332.415	2.56
332.787	3
333.159	2.47
333.532	2.77
333.904	2.97
334.276	2.85
334.648	2.76
335.02	2.62
335.391	2.62
335.763	2.76
336.135	2.76
336.507	3.11
336.879	2.59
337.25	2.51
337.622	2.85
337.993	2.47
338.365	3.01
338.736	2.79
339.108	2.78
339.479	2.9
339.851	2.79
340.222	3.07
340.593	2.79
340.964	2.94
341.336	2.32
341.707	2.48
342.078	2.48
342.449	2.91
342.82	2.92
343.191	2.23
343.562	2.86
343.933	2.79
344.303	2.91
344.674	3.11
345.045	2.68
345.416	2.6
345.786	2.21
346.157	2.5
346.527	2.75
346.898	2.61
347.268	2.75
347.639	2.53
348.009	2.69
348.38	2.69
348.75	3.44
349.12	2.87
349.49	2.56
349.861	2.92
350.231	2.89
350.601	2.64
350.971	2.84
351.341	2.9
351.711	2.71
352.081	2.97
352.45	2.9
352.82	2.69
353.19	2.86
353.56	2.67
353.929	3.04
354.299	2.91
354.669	2.93
355.038	2.6
355.408	2.95
355.777	2.46
356.147	2.86
356.516	2.89
356.885	2.61
357.254	3.05
357.624	2.84
357.993	2.72
358.362	2.91
358.731	2.79
359.1	3.12
359.469	2.97
359.838	2.51
360.207	2.46
360.576	2.84
360.945	2.75
361.314	2.79
361.682	2.56
362.051	2.77
362.42	2.96
362.788	2.72
363.157	2.72
363.525	2.77
363.894	2.58
364.262	3.05
364.631	3.62
364.999	2.39
365.367	3.04
365.735	2.48
366.104	2.62
366.472	2.99
366.84	2.69
367.208	2.45
367.576	2.84
367.944	3.18
368.312	2.42
368.68	2.71
369.048	2.8
369.416	2.93
369.783	2.83
370.151	2.82
370.519	2.93
370.886	2.71
371.254	2.97
371.621	2.65
371.989	2.86
372.356	2.9
372.724	3.14
373.091	2.9
373.458	2.89
373.826	2.49
374.193	3.3
374.56	2.38
374.927	2.72
375.294	2.98
375.661	2.91
376.028	3.1
376.395	2.79
376.762	2.78
377.129	2.91
377.496	2.66
377.863	3.12
378.229	2.9
378.596	2.87
378.963	2.64
379.329	2.74
379.696	2.76
380.062	2.92
380.429	2.97
380.795	2.53
381.161	2.57
381.528	2.67
381.894	2.9
382.26	2.37
382.626	2.83
382.993	2.93
383.359	2.7
383.725	3
384.091	2.64
384.457	2.81
384.823	3.07
385.188	3.11
385.554	2.74
385.92	3.1
386.286	3.09
386.651	2.82
387.017	2.84
387.383	2.65
387.748	2.72
388.114	2.97
388.479	2.97
388.845	3
389.21	2.95
389.575	2.99
389.94	3.2
390.306	2.96
390.671	2.55
391.036	3.06
391.401	3.09
391.766	2.9
392.131	3.03
392.496	2.99
392.861	2.77
393.226	2.75
393.591	2.91
393.956	3.05
394.32	2.98
394.685	3.01
395.05	2.9
395.414	2.96
395.779	2.74
396.143	2.89
396.508	3.14
396.872	3.04
397.236	2.69
397.601	3.06
397.965	2.49
398.329	3.11
398.694	2.72
399.058	2.98
399.422	3.05
399.786	2.74
400.15	2.87
400.514	3.07
400.878	2.79
401.242	3.21
401.605	2.85
401.969	2.94
402.333	2.72
402.697	3.17
403.06	3.18
403.424	2.88
403.787	3.29
404.151	3.06
404.514	3.13
404.878	3.1
405.241	3
405.604	3.04
405.968	3.02
406.331	3.04
406.694	3.15
407.057	3.39
407.42	2.98
407.783	3
408.146	3.05
408.509	2.99
408.872	3.02
409.235	3.14
409.598	3.24
409.961	3.28
410.323	3.06
410.686	3.03
411.049	2.83
411.411	2.93
411.774	3.03
412.136	2.91
412.499	2.86
412.861	2.99
413.223	3.15
413.586	2.9
413.948	2.91
414.31	2.97
414.672	2.96
415.035	3.09
415.397	3.18
415.759	3.08
416.121	3.34
416.483	3.09
416.845	2.93
417.206	3.12
417.568	3.29
417.93	3.06
418.292	3.04
418.653	3.14
419.015	3.11
419.377	3.09
419.738	3
420.1	3
420.461	2.95
420.822	3.1
421.184	2.96
421.545	3.03
421.906	3.02
422.267	2.93
422.629	3.06
422.99	3.01
423.351	3.09
423.712	3.04
424.073	3.19
424.434	3.11
424.795	3.09
425.155	3.01
425.516	2.98
425.877	3.04
426.238	2.96
426.598	3.01
426.959	3.02
427.32	3.09
427.68	3.15
428.041	3.19
428.401	3.07
428.761	3.17
429.122	3.06
429.482	2.94
429.842	3.03
430.202	3.04
430.563	3.22
430.923	2.98
431.283	3.21
431.643	3.07
432.003	3.17
432.363	3.19
432.722	3.15
433.082	3.03
433.442	3.09
433.802	3.18
434.161	3.07
434.521	3.16
434.881	3.24
435.24	3.05
435.6	3.17
435.959	3.25
436.319	3.04
436.678	3.2
437.037	3.31
437.396	3.16
437.756	3.22
438.115	3.1
438.474	3.13
438.833	3.24
439.192	3.15
439.551	3.17
439.91	3.24
440.269	3.33
440.628	3.19
440.987	3.03
441.345	3.07
441.704	3.19
442.063	3.17
442.421	3.23
442.78	3.25
443.138	3.18
443.497	3.19
443.855	3.16
444.214	3.29
444.572	3.28
444.93	3.29
445.288	3.27
445.647	3.31
446.005	3.1
446.363	3.26
446.721	3.07
447.079	3.18
447.437	3.2
447.795	3.15
448.153	3.13
448.51	3.1
448.868	3.35
449.226	3.19
449.584	3.24
449.941	3.23
450.299	3.21
450.656	3.36
451.014	3.17
451.371	3.19
451.729	3.38
452.086	3.01
452.443	3.16
452.801	3.32
453.158	3.21
453.515	3.17
453.872	3.26
454.229	3.19
454.586	3.09
454.943	3.21
455.3	3.35
455.657	3.11
456.014	3.27
456.371	3.37
456.727	3.24
457.084	3.13
457.441	3.22
457.797	3.21
458.154	3.31
458.51	3.22
458.867	3.23
459.223	3.29
459.58	3.12
459.936	3.11
460.292	3.24
460.648	3.2
461.005	3.18
461.361	3.27
461.717	3.12
462.073	3.32
462.429	3.3
462.785	3.22
463.141	3.51
463.496	3.33
463.852	3.42
464.208	3.44
464.564	3.12
464.919	3.31
465.275	3.24
465.631	3.37
465.986	3.25
466.342	3.48
466.697	3.34
467.052	3.5
467.408	3.28
467.763	3.3
468.118	3.21
468.473	3.41
468.829	3.29
469.184	3.53
469.539	3.31
469.894	3.33
470.249	3.36
470.603	3.4
470.958	3.35
471.313	3.3
471.668	3.44
472.023	3.47
472.377	3.4
472.732	3.33
473.086	3.38
473.441	3.49
473.795	3.4
474.15	3.18
474.504	3.4
474.859	3.37
475.213	3.36
475.567	3.37
475.921	3.4
476.275	3.4
476.63	3.36
476.984	3.37
477.338	3.53
477.692	3.44
478.045	3.31
478.399	3.36
478.753	3.36
479.107	3.45
479.461	3.43
479.814	3.42
480.168	3.38
480.521	3.31
480.875	3.57
481.228	3.39
481.582	3.26
481.935	3.28
482.289	3.26
482.642	3.38
482.995	3.34
483.348	3.36
483.701	3.39
484.055	3.4
484.408	3.25
484.761	3.19
485.114	3.09
485.466	3.17
485.819	3.21
486.172	3.25
486.525	3.32
486.878	3.33
487.23	3.38
487.583	3.35
487.936	3.39
488.288	3.33
488.641	3.25
488.993	3.19
489.345	3.27
489.698	3.33
490.05	3.35
490.402	3.39
490.754	3.47
491.107	3.46
491.459	3.46
491.811	3.54
492.163	3.46
492.515	3.41
492.866	3.25
493.218	3.32
493.57	3.33
493.922	3.36
494.274	3.42
494.625	3.42
494.977	3.43
495.328	3.55
495.68	3.61
496.031	3.59
496.383	3.58
496.734	3.54
497.086	3.41
497.437	3.52
497.788	3.47
498.139	3.44
498.49	3.58
498.842	3.48
499.193	3.48
499.544	3.6
499.894	3.57
500.245	3.6
500.596	3.56
500.947	3.53
501.298	3.41
501.648	3.48
501.999	3.69
502.35	3.66
502.7	3.51
503.051	3.65
503.401	3.63
503.752	3.48
504.102	3.6
504.452	3.5
504.803	3.54
505.153	3.56
505.503	3.68
505.853	3.52
506.203	3.69
506.553	3.62
506.903	3.64
507.253	3.63
507.603	3.7
507.953	3.77
508.303	3.7
508.652	3.68
509.002	3.71
509.352	3.63
509.701	3.61
510.051	3.63
510.4	3.63
510.75	3.62
511.099	3.65
511.449	3.64
511.798	3.73
512.147	3.69
512.496	3.71
512.846	3.73
513.195	3.62
513.544	3.62
513.893	3.64
514.242	3.77
514.591	3.73
514.939	3.69
515.288	3.73
515.637	3.75
515.986	3.73
516.334	3.82
516.683	3.81
517.032	3.68
517.38	3.74
517.729	3.77
518.077	3.75
518.426	3.72
518.774	3.68
519.122	3.67
519.47	3.64
519.819	3.69
520.167	3.69
520.515	3.68
520.863	3.68
521.211	3.79
521.559	3.81
521.907	3.75
522.255	3.92
522.602	3.93
522.95	3.93
523.298	3.83
523.645	3.81
523.993	4.09
524.341	3.89
524.688	3.81
525.036	3.94
525.383	3.97
525.73	3.97
526.078	3.92
526.425	3.86
526.772	3.62
527.119	3.75
527.466	3.82
527.814	3.77
528.161	3.94
528.508	3.91
528.854	3.81
529.201	3.77
529.548	3.68
529.895	3.71
530.242	3.69
530.588	3.78
530.935	3.78
531.282	3.87
531.628	3.89
531.975	3.87
532.321	3.93
532.667	3.98
533.014	3.92
533.36	3.85
533.706	4
534.052	3.87
534.399	3.88
534.745	3.78
535.091	3.77
535.437	3.96
535.783	3.98
536.129	3.96
536.474	4.09
536.82	4
537.166	4.02
537.512	4
537.857	3.93
538.203	4.02
538.549	4.05
538.894	4.05
539.239	4.26
539.585	4.12
539.93	4.23
540.276	4.09
540.621	4.1
540.966	4.13
541.311	4.22
541.656	4.13
542.001	4.17
542.346	4.01
542.691	3.96
543.036	3.98
543.381	4.08
543.726	4.16
544.071	4.14
544.415	4.17
544.76	4.11
545.105	4.17
545.449	4.09
545.794	4.28
546.138	4.21
546.483	4.31
546.827	4.24
547.171	4.14
547.516	4.34
547.86	4.19
548.204	4.18
548.548	4.37
548.892	4.26
549.236	4.54
549.58	4.41
549.924	4.34
550.268	4.43
550.612	4.55
550.956	4.32
551.3	4.43
551.643	4.42
551.987	4.39
552.33	4.31
552.674	4.56
553.017	4.6
553.361	4.47
553.704	4.45
554.048	4.54
554.391	4.6
554.734	4.6
555.077	4.57
555.42	4.65
555.764	4.63
556.107	4.61
556.45	4.55
556.793	4.77
557.135	4.78
557.478	4.64
557.821	4.58
558.164	4.67
558.507	4.54
558.849	4.54
559.192	4.77
559.534	4.65
559.877	4.93
560.219	4.82
560.562	4.88
560.904	4.77
561.246	5.02
561.589	4.85
561.931	4.98
562.273	4.82
562.615	5.03
562.957	4.91
563.299	4.86
563.641	4.93
563.983	4.89
564.325	4.74
564.667	4.88
565.008	4.85
565.35	5.26
565.692	5.12
566.033	5.02
566.375	4.86
566.716	4.99
567.058	4.94
567.399	5.02
567.741	5.09
568.082	4.99
568.423	5.04
568.764	5.15
569.105	5.11
569.447	5.12
569.788	5.12
570.129	5.09
570.47	5.26
570.811	5.14
571.151	5.2
571.492	5.31
571.833	5.24
572.174	5.28
572.514	5.21
572.855	5.34
573.195	5.09
573.536	5.27
573.876	5.31
574.217	5.41
574.557	5.34
574.898	5.24
575.238	5.35
575.578	5.54
575.918	5.58
576.258	5.48
576.598	5.46
576.938	5.6
577.278	5.27
577.618	5.29
577.958	5.5
578.298	5.53
578.638	5.46
578.977	5.6
579.317	5.68
579.657	5.61
579.996	5.46
580.336	5.65
580.675	5.62
581.014	5.64
581.354	5.75
581.693	5.8
582.032	5.46
582.372	5.72
582.711	5.66
583.05	5.88
583.389	5.92
583.728	6.08
584.067	5.93
584.406	5.92
584.745	5.98
585.083	6.18
585.422	5.9
585.761	5.9
586.1	6.33
586.438	6.19
586.777	6.04
587.115	6.13
587.454	6.16
587.792	6.32
588.13	6.18
588.469	6.12
588.807	6.36
589.145	6.24
589.483	6.09
589.821	6.46
590.159	6.22
590.497	5.98
590.835	6.15
591.173	6.22
591.511	6.26
591.849	6.54
592.187	6.39
592.524	6.28
592.862	6.27
593.2	6.49
593.537	6.36
593.875	6.46
594.212	6.49
594.55	6.35
594.887	6.6
595.224	6.63
595.561	6.6
595.899	6.55
596.236	6.59
596.573	6.4
596.91	6.52
597.247	6.61
597.584	6.64
597.921	6.71
598.258	6.62
598.594	6.44
598.931	6.73
599.268	6.78
599.604	7.05
599.941	6.64
600.277	6.8
600.614	6.98
600.95	6.94
601.287	6.94
601.623	7.04
601.959	6.91
602.296	6.89
602.632	7.23
602.968	6.98
603.304	7.15
603.64	7.07
603.976	7.07
604.312	7.23
604.648	7.12
604.984	6.99
605.319	7.04
605.655	7.11
605.991	7.06
606.326	6.98
606.662	7.1
606.998	7.25
607.333	7.19
607.668	7.42
608.004	7.49
608.339	7.32
608.674	7.42
609.01	7.59
609.345	7.5
609.68	7.2
610.015	7.53
610.35	7.37
610.685	7.57
611.02	7.66
611.355	7.57
611.689	7.37
612.024	7.72
612.359	7.6
612.694	7.73
613.028	7.87
613.363	7.68
613.697	7.87
614.032	7.83
614.366	7.87
614.7	7.96
615.035	7.68
615.369	8.01
615.703	8.16
616.037	7.88
616.371	7.85
616.705	7.74
617.039	8.25
617.373	7.83
617.707	8.03
618.041	8.28
618.375	8.01
618.709	8.28
619.042	8.25
619.376	7.9
619.71	8.03
620.043	7.94
620.377	8.21
620.71	8.27
621.043	8.29
621.377	8.08
621.71	8.39
622.043	8.63
622.376	8.4
622.709	8.73
623.043	8.3
623.376	8.55
623.709	8.72
624.041	8.37
624.374	8.63
624.707	8.76
625.04	8.53
625.373	8.54
625.705	8.53
626.038	8.77
626.37	8.64
626.703	8.66
627.035	8.71
627.368	8.76
627.7	8.78
628.032	8.85
628.365	8.66
628.697	8.83
629.029	8.98
629.361	8.77
629.693	9.05
630.025	9.15
630.357	8.79
630.689	9.1
631.021	9.05
631.353	9.14
631.684	9.12
632.016	9.02
632.348	9.32
632.679	9.18
633.011	9.24
633.342	9.44
633.674	9.35
634.005	9.54
634.336	9.29
634.668	9.02
634.999	9.52
635.33	9.57
635.661	9.56
635.992	9.59
636.323	9.6
636.654	9.6
636.985	9.88
637.316	9.55
637.647	9.9
637.977	9.59
638.308	9.56
638.639	9.75
638.969	9.63
639.3	10.05
639.63	9.55
639.961	9.58
640.291	10.61
640.622	9.98
640.952	9.73
641.282	9.68
641.612	10.02
641.943	10.1
642.273	9.94
642.603	10.34
642.933	10.27
643.263	10.45
643.592	10.21
643.922	10.59
644.252	10.62
644.582	10.21
644.911	10.21
645.241	9.86
645.571	10.15
645.9	10.74
646.23	9.95
646.559	10.27
646.888	10.09
647.218	10.45
647.547	10.41
647.876	10.68
648.205	10.51
648.534	10.3
648.863	10.67
649.192	10.56
649.521	10.54
649.85	11.2
650.179	10.38
650.508	10.81
650.837	10.77
651.165	10.66
651.494	10.83
651.822	10.88
652.151	11.36
652.479	11.35
652.808	10.76
653.136	10.63
653.465	11.53
653.793	11.36
654.121	11.02
654.449	11.12
654.777	10.98
655.105	11.66
655.433	11.34
655.761	10.98
656.089	11.5
656.417	10.85
656.745	11.51
657.073	11.91
657.4	11.26
657.728	11.48
658.056	11.35
658.383	11.77
658.711	11.36
659.038	11.73
659.365	11.66
659.693	11.5
660.02	11.69
660.347	11.67
660.674	11.5
661.001	11.38
661.329	11.57
661.656	11.74
661.982	11.61
662.309	11.89
662.636	11.74
662.963	12.4
663.29	11.97
663.616	11.73
663.943	12.2
664.27	11.61
664.596	11.86
664.923	12.45
665.249	11.98
665.576	12.06
665.902	11.87
666.228	12.02
666.554	12.21
666.881	12.83
667.207	12.08
667.533	12.45
667.859	11.89
668.185	12.27
668.511	11.9
668.837	11.34
669.162	12.03
669.488	12.34
669.814	12.97
670.139	12.38
670.465	13.05
670.791	13.16
671.116	12.34
671.442	12.66
671.767	12.6
672.092	12.33
672.418	13.07
672.743	12.59
673.068	12.22
673.393	12.8
673.718	12.61
674.043	12.33
674.368	13.5
674.693	13.37
675.018	12.96
675.343	13.16
675.667	13.54
675.992	12.81
676.317	13.17
676.641	12.82
676.966	12.66
677.29	13.35
677.615	13.02
677.939	12.96
678.264	13.41
678.588	13.17
678.912	13.5
679.236	13.59
679.56	12.95
679.885	13.63
680.209	13.18
680.532	13
680.856	13.86
681.18	13.32
681.504	13.25
681.828	13.14
682.152	13.58
682.475	13.93
682.799	13.83
683.122	13.48
683.446	13.7
683.769	14.01
684.093	13.92
684.416	13.59
684.739	14.45
685.062	13.64
685.386	14.34
685.709	14.07
686.032	14.42
686.355	14.43
686.678	14.7
687.001	13.7
687.324	13.72
687.646	13.94
687.969	14.36
688.292	14.62
688.614	15.26
688.937	14.07
