Data from 0058_chest_Reflection__0__123.txt Node

Date: Fri Dec 16 14:54:14 CST 2022
User: ToomeyLab
Spectrometer: FLMS14357
Trigger mode: 0
Integration Time (sec): 1.000000E-2
Scans to average: 100
Electric dark correction enabled: true
Nonlinearity correction enabled: false
Boxcar width: 0
XAxis mode: Wavelengths
Number of Pixels in Spectrum: 2048
>>>>>Begin Spectral Data<<<<<
189.047	164.26
189.435	164.26
189.823	164.26
190.211	95.57
190.599	135.13
190.987	241.62
191.375	413.63
191.763	66.48
192.151	-107.7
192.538	66.38
192.926	85.43
193.314	124.75
193.702	91.76
194.089	55.87
194.477	-64.66
194.864	183.32
195.252	88.3
195.639	640.54
196.027	134.97
196.414	33.45
196.801	120.24
197.189	118.7
197.576	-51.9
197.963	206.55
198.351	-10.74
198.738	25.14
199.125	35.57
199.512	45.79
199.899	21.8
200.286	-39.11
200.673	-13.11
201.06	44.04
201.447	39.19
201.833	-14.85
202.22	27.78
202.607	-2.57
202.994	33.77
203.38	-13.88
203.767	-147.19
204.154	-68.45
204.54	25.27
204.927	8.03
205.313	39.27
205.699	0.2
206.086	21.81
206.472	-14.43
206.858	23.34
207.245	11.47
207.631	-5.49
208.017	-10.87
208.403	28.56
208.789	39.19
209.175	35.81
209.561	8.24
209.947	-45.14
210.333	-2.86
210.719	8.17
211.105	-4.23
211.491	-5.17
211.876	-20.19
212.262	-36.68
212.648	12.69
213.034	-10.58
213.419	55.06
213.805	-12.51
214.19	-3.71
214.576	-23.44
214.961	-28.1
215.346	1.19
215.732	-16.94
216.117	10.21
216.502	-27.12
216.888	-40.57
217.273	-1.35
217.658	-51.91
218.043	20.8
218.428	-0.46
218.813	-8.4
219.198	-30.48
219.583	-3.5
219.968	19.86
220.353	29.76
220.738	-3.58
221.122	-6.22
221.507	-0.2
221.892	12.69
222.276	-3.41
222.661	-34.46
223.046	-0.42
223.43	-1.2
223.815	7.3
224.199	7.46
224.583	2.17
224.968	-1.69
225.352	5.02
225.736	5.32
226.121	-6
226.505	-0.37
226.889	6
227.273	2.71
227.657	-3.85
228.041	4.05
228.425	5.01
228.809	1.85
229.193	1.04
229.577	2.44
229.961	2.85
230.344	2.64
230.728	2.66
231.112	2.22
231.495	1.8
231.879	3.28
232.263	0.87
232.646	0.88
233.03	0.58
233.413	1.16
233.797	3.95
234.18	-0.09
234.563	3.36
234.946	2.19
235.33	3.02
235.713	2.7
236.096	2.21
236.479	3
236.862	3.01
237.245	3.45
237.628	2.87
238.011	2.45
238.394	4.97
238.777	2.57
239.16	-0.15
239.543	1.33
239.925	2.12
240.308	2.66
240.691	2.46
241.073	2.01
241.456	1.96
241.838	3.02
242.221	3.16
242.603	2.98
242.986	2.91
243.368	2.33
243.75	2.3
244.133	2.28
244.515	2.49
244.897	2.14
245.279	1.91
245.661	1.79
246.043	2.08
246.425	2.06
246.807	2.62
247.189	1.49
247.571	2.57
247.953	2.33
248.335	2.54
248.717	2.43
249.098	2.38
249.48	2.07
249.862	2.89
250.243	2.37
250.625	2.63
251.006	2.31
251.388	2.44
251.769	2.89
252.151	2.3
252.532	1.73
252.913	2.31
253.295	2.5
253.676	3.01
254.057	2.39
254.438	2.08
254.819	2.8
255.2	1.87
255.581	1.11
255.962	2.21
256.343	2.87
256.724	2.08
257.105	1.8
257.486	2.78
257.867	1.86
258.247	2.77
258.628	2.93
259.009	2.37
259.389	3.04
259.77	2.13
260.15	3.31
260.531	2.27
260.911	2.39
261.292	2.34
261.672	2.23
262.052	2.17
262.432	2.24
262.813	2.25
263.193	1.79
263.573	2.39
263.953	1.88
264.333	2.11
264.713	2.68
265.093	2.33
265.473	3.22
265.853	1.73
266.233	1.53
266.612	1.85
266.992	2.53
267.372	2.07
267.752	2.11
268.131	2.1
268.511	2.38
268.89	2.74
269.27	2.49
269.649	2.62
270.029	2.11
270.408	1.99
270.787	2.29
271.167	2.41
271.546	1.94
271.925	2.45
272.304	2.62
272.683	2.26
273.062	2.63
273.441	2.62
273.82	2.48
274.199	2.27
274.578	2
274.957	2.52
275.336	2.31
275.715	2.44
276.093	2.43
276.472	2.82
276.851	2.66
277.229	2.58
277.608	2.2
277.986	2.18
278.365	2.06
278.743	2.6
279.122	2.19
279.5	1.95
279.878	1.38
280.257	2.26
280.635	1.79
281.013	2.61
281.391	2.18
281.769	1.74
282.147	2.61
282.525	1.98
282.903	2.42
283.281	2.2
283.659	2.13
284.037	2.4
284.415	2.51
284.792	2.23
285.17	2.33
285.548	1.67
285.925	2.17
286.303	1.89
286.68	2.62
287.058	2.28
287.435	1.95
287.813	2.22
288.19	2.7
288.567	1.98
288.945	2.31
289.322	2.36
289.699	2.22
290.076	2.48
290.453	1.92
290.83	2.53
291.207	2.13
291.584	1.59
291.961	2.56
292.338	2.16
292.715	2.35
293.092	2.52
293.469	2.44
293.845	2.3
294.222	2.2
294.599	2.71
294.975	2.23
295.352	2.14
295.728	2.18
296.105	2.1
296.481	2.56
296.858	2.1
297.234	2.4
297.61	2.18
297.986	2.15
298.363	1.82
298.739	2.37
299.115	2.02
299.491	2.08
299.867	2.32
300.243	2.21
300.619	1.97
300.995	2.45
301.371	2.25
301.746	1.62
302.122	2.15
302.498	2.3
302.874	2.26
303.249	2.65
303.625	2.44
304	1.82
304.376	2.03
304.751	2.53
305.127	1.86
305.502	2.38
305.878	2.13
306.253	2.01
306.628	2.39
307.003	2.44
307.378	1.92
307.754	2.35
308.129	1.5
308.504	2.08
308.879	2.3
309.254	2.16
309.629	2.53
310.003	2.25
310.378	2.67
310.753	2.5
311.128	2.12
311.502	2.29
311.877	2
312.252	2.06
312.626	1.79
313.001	2.17
313.375	2.06
313.75	2.03
314.124	2.43
314.498	1.92
314.873	2.18
315.247	2.32
315.621	2.16
315.995	1.89
316.369	2.08
316.743	2.27
317.117	1.74
317.491	2.69
317.865	1.51
318.239	2.13
318.613	2.51
318.987	2.64
319.361	1.97
319.734	2.44
320.108	2.11
320.482	1.96
320.855	2.02
321.229	2.83
321.602	2.45
321.976	2.56
322.349	1.89
322.723	1.88
323.096	1.86
323.469	2.15
323.843	2.37
324.216	1.93
324.589	2.61
324.962	2.07
325.335	2.07
325.708	2.34
326.081	2.6
326.454	2.24
326.827	2.5
327.2	2.49
327.573	2.22
327.945	2.02
328.318	2.36
328.691	2.28
329.063	1.97
329.436	2.47
329.809	1.97
330.181	2.4
330.553	2.61
330.926	2.37
331.298	1.78
331.671	2.63
332.043	2.2
332.415	2.6
332.787	2.38
333.159	2.74
333.532	2.57
333.904	2.55
334.276	2.29
334.648	2.43
335.02	2.17
335.391	2.72
335.763	1.84
336.135	2.23
336.507	2.81
336.879	2.3
337.25	2.45
337.622	2.62
337.993	3.12
338.365	2.33
338.736	2.06
339.108	2.1
339.479	1.94
339.851	2.73
340.222	2.33
340.593	1.99
340.964	2.06
341.336	2.02
341.707	2.07
342.078	2.01
342.449	2.48
342.82	2.07
343.191	2.32
343.562	2.52
343.933	2.49
344.303	2.33
344.674	2.38
345.045	2.51
345.416	2.25
345.786	1.92
346.157	2.33
346.527	2
346.898	2.25
347.268	1.99
347.639	2.17
348.009	2.15
348.38	2.42
348.75	2.23
349.12	2.42
349.49	2
349.861	2.83
350.231	2.27
350.601	2
350.971	2.28
351.341	2.27
351.711	2.39
352.081	2.96
352.45	2.18
352.82	2.35
353.19	2.09
353.56	1.98
353.929	2.55
354.299	2.2
354.669	2.25
355.038	2.49
355.408	2.83
355.777	2.44
356.147	2.72
356.516	2.54
356.885	2.31
357.254	2.72
357.624	2.55
357.993	2.2
358.362	2.06
358.731	2.26
359.1	2.4
359.469	2.39
359.838	2.36
360.207	1.96
360.576	2.45
360.945	2.03
361.314	2.57
361.682	2.1
362.051	2.31
362.42	2.71
362.788	2.49
363.157	2.26
363.525	2.26
363.894	2.17
364.262	2.25
364.631	2.86
364.999	2.24
365.367	2.72
365.735	2.01
366.104	2.34
366.472	2.59
366.84	2.49
367.208	2.29
367.576	2.42
367.944	2.89
368.312	1.88
368.68	2.28
369.048	2.47
369.416	2.43
369.783	2.28
370.151	2.54
370.519	2.08
370.886	2.55
371.254	2.29
371.621	2.23
371.989	2.36
372.356	2.32
372.724	2.38
373.091	2.5
373.458	2.33
373.826	2.35
374.193	2.86
374.56	2.24
374.927	2.32
375.294	2.54
375.661	2.3
376.028	2.45
376.395	2.22
376.762	2.53
377.129	2.53
377.496	2.74
377.863	2.53
378.229	2.47
378.596	2.24
378.963	2.26
379.329	2.46
379.696	2.48
380.062	2.53
380.429	2.33
380.795	2.12
381.161	2
381.528	1.96
381.894	2.26
382.26	1.93
382.626	2.27
382.993	2.21
383.359	2.22
383.725	2.63
384.091	2.39
384.457	2.27
384.823	2.51
385.188	2.63
385.554	2.3
385.92	2.64
386.286	2.74
386.651	2.58
387.017	2.36
387.383	2.61
387.748	2.48
388.114	2.4
388.479	2.74
388.845	2.65
389.21	2.41
389.575	2.37
389.94	2.58
390.306	2.51
390.671	2.53
391.036	2.69
391.401	2.55
391.766	2.61
392.131	2.27
392.496	2.49
392.861	2.3
393.226	2.71
393.591	2.45
393.956	2.65
394.32	2.38
394.685	2.55
395.05	2.19
395.414	2.59
395.779	2.34
396.143	2.52
396.508	2.75
396.872	2.73
397.236	2.31
397.601	2.69
397.965	2.08
398.329	2.61
398.694	2.3
399.058	2.45
399.422	2.46
399.786	2.41
400.15	2.29
400.514	2.59
400.878	2.53
401.242	2.84
401.605	2.52
401.969	2.36
402.333	2.41
402.697	2.7
403.06	2.61
403.424	2.57
403.787	2.62
404.151	2.44
404.514	2.53
404.878	2.63
405.241	2.72
405.604	2.5
405.968	2.35
406.331	2.65
406.694	2.55
407.057	2.73
407.42	2.54
407.783	2.63
408.146	2.58
408.509	2.44
408.872	2.55
409.235	2.66
409.598	2.74
409.961	2.69
410.323	2.4
410.686	2.49
411.049	2.43
411.411	2.58
411.774	2.53
412.136	2.76
412.499	2.56
412.861	2.32
413.223	2.71
413.586	2.5
413.948	2.66
414.31	2.73
414.672	2.33
415.035	2.61
415.397	2.69
415.759	2.71
416.121	2.7
416.483	2.76
416.845	2.72
417.206	2.6
417.568	2.58
417.93	2.41
418.292	2.52
418.653	2.69
419.015	2.75
419.377	2.6
419.738	2.46
420.1	2.64
420.461	2.61
420.822	2.57
421.184	2.55
421.545	2.61
421.906	2.56
422.267	2.5
422.629	2.55
422.99	2.53
423.351	2.55
423.712	2.59
424.073	2.66
424.434	2.56
424.795	2.53
425.155	2.57
425.516	2.52
425.877	2.68
426.238	2.52
426.598	2.62
426.959	2.52
427.32	2.5
427.68	2.6
428.041	2.72
428.401	2.49
428.761	2.58
429.122	2.6
429.482	2.59
429.842	2.55
430.202	2.57
430.563	2.92
430.923	2.55
431.283	2.75
431.643	2.62
432.003	2.67
432.363	2.7
432.722	2.67
433.082	2.63
433.442	2.67
433.802	2.72
434.161	2.58
434.521	2.68
434.881	2.68
435.24	2.67
435.6	2.62
435.959	2.7
436.319	2.64
436.678	2.77
437.037	2.84
437.396	2.85
437.756	2.56
438.115	2.85
438.474	2.81
438.833	2.71
439.192	2.92
439.551	2.84
439.91	2.65
440.269	2.83
440.628	2.73
440.987	2.61
441.345	2.57
441.704	2.7
442.063	2.65
442.421	2.75
442.78	2.7
443.138	2.67
443.497	2.61
443.855	2.76
444.214	2.71
444.572	2.72
444.93	2.76
445.288	2.8
445.647	2.84
446.005	2.69
446.363	2.77
446.721	2.62
447.079	2.67
447.437	2.71
447.795	2.67
448.153	2.65
448.51	2.63
448.868	2.75
449.226	2.68
449.584	2.64
449.941	2.89
450.299	2.72
450.656	2.83
451.014	2.71
451.371	2.82
451.729	2.93
452.086	2.71
452.443	2.81
452.801	2.87
453.158	2.69
453.515	2.56
453.872	2.93
454.229	2.79
454.586	2.8
454.943	2.67
455.3	2.94
455.657	2.69
456.014	2.85
456.371	2.81
456.727	2.62
457.084	2.74
457.441	2.68
457.797	2.85
458.154	2.97
458.51	2.99
458.867	2.71
459.223	2.9
459.58	2.73
459.936	2.77
460.292	2.81
460.648	2.7
461.005	2.74
461.361	2.68
461.717	2.78
462.073	2.79
462.429	2.82
462.785	2.68
463.141	2.83
463.496	2.79
463.852	2.99
464.208	2.98
464.564	2.81
464.919	2.79
465.275	2.91
465.631	3.01
465.986	2.63
466.342	2.9
466.697	2.79
467.052	2.94
467.408	2.84
467.763	2.65
468.118	2.96
468.473	3.05
468.829	2.83
469.184	2.95
469.539	2.76
469.894	2.93
470.249	3
470.603	2.93
470.958	3.13
471.313	2.76
471.668	2.96
472.023	3.11
472.377	2.94
472.732	2.95
473.086	2.69
473.441	3.03
473.795	3.04
474.15	2.88
474.504	2.88
474.859	3
475.213	2.91
475.567	2.84
475.921	3.13
476.275	2.99
476.63	2.95
476.984	2.73
477.338	3.22
477.692	2.87
478.045	2.89
478.399	2.96
478.753	2.88
479.107	2.81
479.461	3
479.814	2.97
480.168	2.95
480.521	2.98
480.875	3.04
481.228	3.08
481.582	2.94
481.935	2.86
482.289	2.86
482.642	2.94
482.995	2.91
483.348	2.88
483.701	2.9
484.055	2.91
484.408	2.84
484.761	2.76
485.114	2.75
485.466	2.76
485.819	2.75
486.172	2.85
486.525	2.88
486.878	2.88
487.23	2.97
487.583	2.89
487.936	2.96
488.288	2.88
488.641	2.89
488.993	2.79
489.345	2.82
489.698	2.9
490.05	2.91
490.402	2.96
490.754	3.03
491.107	2.94
491.459	3.06
491.811	3
492.163	3.05
492.515	2.97
492.866	2.84
493.218	2.88
493.57	2.97
493.922	2.93
494.274	3.01
494.625	3
494.977	3
495.328	3.23
495.68	3.21
496.031	3.07
496.383	3.1
496.734	3.17
497.086	3.01
497.437	3.16
497.788	3
498.139	3.01
498.49	3.09
498.842	3.09
499.193	3.15
499.544	3.25
499.894	3.07
500.245	3.17
500.596	3.24
500.947	2.98
501.298	3.19
501.648	3.14
501.999	3.27
502.35	3.33
502.7	3.29
503.051	3.29
503.401	3.26
503.752	3.13
504.102	3.15
504.452	3.08
504.803	3.16
505.153	3.2
505.503	3.03
505.853	3.21
506.203	3.31
506.553	3.2
506.903	3.25
507.253	3.22
507.603	3.17
507.953	3.36
508.303	3.14
508.652	3.29
509.002	3.25
509.352	3.3
509.701	3.13
510.051	3.17
510.4	3.24
510.75	3.27
511.099	3.25
511.449	3.24
511.798	3.36
512.147	3.22
512.496	3.34
512.846	3.21
513.195	3.31
513.544	3.27
513.893	3.12
514.242	3.29
514.591	3.28
514.939	3.24
515.288	3.34
515.637	3.36
515.986	3.27
516.334	3.42
516.683	3.33
517.032	3.32
517.38	3.32
517.729	3.41
518.077	3.37
518.426	3.25
518.774	3.34
519.122	3.32
519.47	3.3
519.819	3.32
520.167	3.31
520.515	3.21
520.863	3.3
521.211	3.33
521.559	3.4
521.907	3.43
522.255	3.41
522.602	3.51
522.95	3.53
523.298	3.37
523.645	3.5
523.993	3.61
524.341	3.45
524.688	3.44
525.036	3.55
525.383	3.45
525.73	3.47
526.078	3.33
526.425	3.32
526.772	3.25
527.119	3.36
527.466	3.39
527.814	3.36
528.161	3.44
528.508	3.4
528.854	3.37
529.201	3.36
529.548	3.28
529.895	3.25
530.242	3.25
530.588	3.29
530.935	3.38
531.282	3.4
531.628	3.44
531.975	3.46
532.321	3.45
532.667	3.48
533.014	3.62
533.36	3.55
533.706	3.46
534.052	3.44
534.399	3.41
534.745	3.45
535.091	3.45
535.437	3.51
535.783	3.57
536.129	3.52
536.474	3.59
536.82	3.65
537.166	3.63
537.512	3.61
537.857	3.62
538.203	3.57
538.549	3.64
538.894	3.49
539.239	3.74
539.585	3.73
539.93	3.73
540.276	3.66
540.621	3.73
540.966	3.7
541.311	3.7
541.656	3.65
542.001	3.72
542.346	3.65
542.691	3.54
543.036	3.56
543.381	3.64
543.726	3.71
544.071	3.73
544.415	3.78
544.76	3.62
545.105	3.74
545.449	3.85
545.794	3.86
546.138	3.88
546.483	3.9
546.827	3.92
547.171	3.79
547.516	3.85
547.86	3.77
548.204	3.8
548.548	3.9
548.892	3.99
549.236	3.99
549.58	3.95
549.924	3.9
550.268	3.99
550.612	4.15
550.956	3.92
551.3	4.04
551.643	4.08
551.987	3.9
552.33	3.88
552.674	4.19
553.017	4.12
553.361	4.04
553.704	4.13
554.048	4.14
554.391	4.06
554.734	3.97
555.077	4.23
555.42	4.2
555.764	4.18
556.107	4.21
556.45	4.09
556.793	4.42
557.135	4.37
557.478	4.15
557.821	4.19
558.164	4.34
558.507	4.18
558.849	4.16
559.192	4.37
559.534	4.16
559.877	4.39
560.219	4.46
560.562	4.31
560.904	4.33
561.246	4.53
561.589	4.37
561.931	4.55
562.273	4.4
562.615	4.43
562.957	4.44
563.299	4.53
563.641	4.34
563.983	4.43
564.325	4.46
564.667	4.4
565.008	4.4
565.35	4.55
565.692	4.67
566.033	4.45
566.375	4.46
566.716	4.62
567.058	4.61
567.399	4.55
567.741	4.56
568.082	4.52
568.423	4.6
568.764	4.68
569.105	4.74
569.447	4.6
569.788	4.66
570.129	4.68
570.47	4.79
570.811	4.8
571.151	4.58
571.492	4.86
571.833	4.64
572.174	4.7
572.514	4.65
572.855	4.76
573.195	4.65
573.536	4.7
573.876	4.78
574.217	4.86
574.557	4.76
574.898	4.71
575.238	4.76
575.578	4.9
575.918	4.69
576.258	4.94
576.598	4.88
576.938	5.15
577.278	4.9
577.618	4.91
577.958	5.02
578.298	4.97
578.638	4.96
578.977	5.06
579.317	5.06
579.657	5.04
579.996	4.9
580.336	4.95
580.675	5.31
581.014	5.22
581.354	5.27
581.693	5.1
582.032	5.12
582.372	5.26
582.711	5.13
583.05	5.43
583.389	5.27
583.728	5.24
584.067	5.12
584.406	5.22
584.745	5.14
585.083	5.65
585.422	5.25
585.761	5.5
586.1	5.51
586.438	5.51
586.777	5.45
587.115	5.37
587.454	5.42
587.792	5.35
588.13	5.81
588.469	5.67
588.807	5.76
589.145	5.67
589.483	5.49
589.821	5.5
590.159	5.59
590.497	5.44
590.835	5.58
591.173	5.79
591.511	5.64
591.849	6.01
592.187	5.61
592.524	5.63
592.862	5.76
593.2	5.74
593.537	5.7
593.875	5.59
594.212	5.83
594.55	5.78
594.887	5.95
595.224	5.79
595.561	5.82
595.899	5.73
596.236	5.79
596.573	5.88
596.91	5.91
597.247	5.79
597.584	5.92
597.921	6.01
598.258	5.97
598.594	5.74
598.931	5.87
599.268	5.82
599.604	6.12
599.941	6.09
600.277	6.04
600.614	6.11
600.95	6.29
601.287	6.17
601.623	6.35
601.959	6.1
602.296	6.31
602.632	6.39
602.968	6.13
603.304	6.18
603.64	6.14
603.976	6.29
604.312	6.47
604.648	6.27
604.984	6.4
605.319	6.44
605.655	6.39
605.991	6.37
606.326	6.29
606.662	6.34
606.998	6.48
607.333	6.41
607.668	6.42
608.004	6.41
608.339	6.37
608.674	6.57
609.01	6.62
609.345	6.62
609.68	6.53
610.015	6.71
610.35	6.62
610.685	6.77
611.02	6.62
611.355	6.84
611.689	6.47
612.024	6.87
612.359	6.89
612.694	6.73
613.028	7.21
613.363	6.72
613.697	6.93
614.032	7.16
614.366	6.65
614.7	7.33
615.035	6.74
615.369	7.14
615.703	7.3
616.037	6.89
616.371	6.75
616.705	6.86
617.039	7.19
617.373	7.23
617.707	6.88
618.041	6.93
618.375	6.95
618.709	7.17
619.042	7.17
619.376	6.96
619.71	7.42
620.043	7.4
620.377	7.4
620.71	7.54
621.043	7.11
621.377	7.19
621.71	7.48
622.043	7.6
622.376	7.57
622.709	7.64
623.043	7.38
623.376	7.61
623.709	7.76
624.041	7.52
624.374	7.63
624.707	7.42
625.04	7.51
625.373	7.41
625.705	7.72
626.038	7.76
626.37	7.9
626.703	7.62
627.035	7.66
627.368	7.61
627.7	8.11
628.032	7.94
628.365	7.92
628.697	7.65
629.029	8.16
629.361	7.5
629.693	8.17
630.025	7.98
630.357	7.86
630.689	8.07
631.021	7.88
631.353	8.05
631.684	8.19
632.016	8.12
632.348	8.31
632.679	7.88
633.011	7.99
633.342	8.19
633.674	8.04
634.005	8.14
634.336	8.06
634.668	8.07
634.999	8.36
635.33	8.23
635.661	8.36
635.992	8.48
636.323	8.43
636.654	8.41
636.985	8.47
637.316	8.34
637.647	8.54
637.977	8.41
638.308	8.38
638.639	8.41
638.969	8.41
639.3	8.54
639.63	8.52
639.961	8.65
640.291	9.17
640.622	8.81
640.952	8.75
641.282	8.38
641.612	8.52
641.943	8.66
642.273	9.18
642.603	8.97
642.933	9.07
643.263	9.27
643.592	8.46
643.922	9.26
644.252	9.03
644.582	8.92
644.911	8.89
645.241	9.07
645.571	8.9
645.9	9.29
646.23	9.2
646.559	8.85
646.888	8.93
647.218	9.58
647.547	9.35
647.876	9.12
648.205	8.81
648.534	9.42
648.863	9.57
649.192	8.86
649.521	9.2
649.85	9.54
650.179	9.11
650.508	9.54
650.837	9.39
651.165	9.43
651.494	9.09
651.822	9.36
652.151	9.84
652.479	10.29
652.808	9.03
653.136	9.52
653.465	9.69
653.793	9.75
654.121	9.92
654.449	9.65
654.777	9.83
655.105	10.29
655.433	9.68
655.761	9.66
656.089	10.04
656.417	9.61
656.745	10.43
657.073	10
657.4	10.1
657.728	10.2
658.056	9.84
658.383	10.32
658.711	9.96
659.038	10.44
659.365	10
659.693	9.97
660.02	9.94
660.347	10.27
660.674	9.7
661.001	9.43
661.329	10.26
661.656	10.31
661.982	10.28
662.309	10.62
662.636	10.23
662.963	10.29
663.29	10.25
663.616	10.34
663.943	10.49
664.27	10.6
664.596	10.35
664.923	11.1
665.249	10.66
665.576	10.6
665.902	10.7
666.228	10.47
666.554	10.33
666.881	10.62
667.207	10.57
667.533	10.56
667.859	10.7
668.185	10.69
668.511	10.31
668.837	10.26
669.162	11.08
669.488	10.94
669.814	11.01
670.139	11.16
670.465	10.75
670.791	10.95
671.116	10.95
671.442	10.93
671.767	10.86
672.092	11.43
672.418	11.03
672.743	10.73
673.068	11.12
673.393	10.98
673.718	10.81
674.043	10.98
674.368	11.52
674.693	11.55
675.018	11.21
675.343	11.67
675.667	11.82
675.992	10.89
676.317	11.21
676.641	10.8
676.966	11.18
677.29	11.49
677.615	11.26
677.939	11.15
678.264	11.65
678.588	11.31
678.912	11.97
679.236	11.6
679.56	11.47
679.885	11.19
680.209	11.4
680.532	11.92
680.856	12.56
681.18	11.38
681.504	11.22
681.828	11.91
682.152	11.93
682.475	11.74
682.799	11.97
683.122	11.64
683.446	11.25
683.769	12.02
684.093	11.84
684.416	12.17
684.739	12.06
685.062	12.27
685.386	11.94
685.709	11.88
686.032	12.46
686.355	11.52
686.678	12.41
687.001	11.56
687.324	11.13
687.646	12.18
687.969	12.25
688.292	12.42
688.614	12.98
688.937	12.55
689.26	11.32
689.582	12.63
689.904	12.55
690.227	12.17
690.549	12.38
