Data from 0175_chest_Reflection__3__064.txt Node

Date: Mon Aug 28 19:09:12 CDT 2023
User: ToomeyLab
Spectrometer: FLMS14357
Trigger mode: 0
Integration Time (sec): 1.000000E-2
Scans to average: 100
Electric dark correction enabled: true
Nonlinearity correction enabled: false
Boxcar width: 0
XAxis mode: Wavelengths
Number of Pixels in Spectrum: 2048
>>>>>Begin Spectral Data<<<<<
189.047	-6.74
189.435	-6.74
189.823	-6.74
190.211	-3332.56
190.599	36.87
190.987	479.3
191.375	8.9
191.763	75.28
192.151	-45.54
192.538	-6.94
192.926	113.28
193.314	-337.92
193.702	258.64
194.089	44.23
194.477	-1043.53
194.864	56.69
195.252	-22.71
195.639	-2248.72
196.027	94.79
196.414	397.24
196.801	17.35
197.189	85.35
197.576	60.46
197.963	73.93
198.351	10.82
198.738	56.26
199.125	-1.28
199.512	44.31
199.899	11.15
200.286	69.41
200.673	5.86
201.06	6.11
201.447	-15
201.833	-15.17
202.22	-9.05
202.607	-0.45
202.994	18.48
203.38	16.87
203.767	-11.16
204.154	-35.83
204.54	3.12
204.927	-19.97
205.313	49.24
205.699	-40.74
206.086	39.02
206.472	-4.29
206.858	13.04
207.245	-0.39
207.631	40.95
208.017	-18.92
208.403	6.45
208.789	7.4
209.175	-48.87
209.561	18.77
209.947	-3.16
210.333	-5.61
210.719	16.43
211.105	27.54
211.491	-2.13
211.876	37.39
212.262	-61.8
212.648	32.11
213.034	-21.83
213.419	-18.14
213.805	2.41
214.19	-26.06
214.576	-15.16
214.961	-60.27
215.346	-11.83
215.732	19.45
216.117	-19.71
216.502	12.19
216.888	-22.37
217.273	-8.61
217.658	21.73
218.043	22.02
218.428	17.6
218.813	-1.35
219.198	4.14
219.583	16.95
219.968	19.51
220.353	-0.41
220.738	11.17
221.122	10.15
221.507	21.26
221.892	-10.4
222.276	8.88
222.661	7.54
223.046	-5.15
223.43	2.92
223.815	8.08
224.199	7.83
224.583	2.42
224.968	3.77
225.352	6.19
225.736	14.13
226.121	10.71
226.505	3.48
226.889	5.66
227.273	6
227.657	6.96
228.041	7.83
228.425	6.39
228.809	6.46
229.193	-0.55
229.577	6.17
229.961	4.26
230.344	3.57
230.728	3.58
231.112	4.39
231.495	4.31
231.879	3.75
232.263	3.35
232.646	3.18
233.03	6.2
233.413	7.77
233.797	5.16
234.18	5.29
234.563	2.34
234.946	7.04
235.33	2.28
235.713	3.35
236.096	5.45
236.479	4.62
236.862	5.77
237.245	5.2
237.628	5.03
238.011	4.66
238.394	6.14
238.777	5.39
239.16	2.97
239.543	4.64
239.925	5.23
240.308	2.5
240.691	4.96
241.073	2.31
241.456	4.4
241.838	3.19
242.221	5.14
242.603	5.65
242.986	4.6
243.368	4.18
243.75	4.54
244.133	3.86
244.515	4.05
244.897	4.69
245.279	4.32
245.661	3.59
246.043	4.69
246.425	3.8
246.807	5.66
247.189	4.76
247.571	4.43
247.953	4.61
248.335	4.34
248.717	4.09
249.098	4.04
249.48	4.02
249.862	3.95
250.243	4.41
250.625	4.45
251.006	4.53
251.388	4.37
251.769	4.17
252.151	4.52
252.532	4.04
252.913	4.59
253.295	3.7
253.676	3.67
254.057	4.24
254.438	3.42
254.819	3.67
255.2	4.5
255.581	3.85
255.962	3.55
256.343	6.68
256.724	2.64
257.105	3.55
257.486	4.35
257.867	4.89
258.247	3.38
258.628	3.95
259.009	3.54
259.389	3.94
259.77	4.26
260.15	3.35
260.531	3.44
260.911	4.03
261.292	4.11
261.672	3.87
262.052	3.75
262.432	3.79
262.813	3.91
263.193	3.82
263.573	3.85
263.953	4.28
264.333	3.73
264.713	3.19
265.093	4.62
265.473	4.11
265.853	3.09
266.233	3.39
266.612	4.01
266.992	3.91
267.372	3.98
267.752	4.45
268.131	3.92
268.511	3.75
268.89	4.01
269.27	3.03
269.649	4.02
270.029	3.93
270.408	3.51
270.787	4.41
271.167	3.47
271.546	3.49
271.925	3.93
272.304	3.57
272.683	3.82
273.062	3.92
273.441	3.63
273.82	3.45
274.199	3.51
274.578	3.77
274.957	3.86
275.336	3.89
275.715	4.09
276.093	3.92
276.472	4.01
276.851	3.32
277.229	4.11
277.608	3.88
277.986	3.6
278.365	3.96
278.743	3.79
279.122	3.61
279.5	3.23
279.878	3.17
280.257	3.5
280.635	3.41
281.013	4.1
281.391	3.3
281.769	3.35
282.147	3.46
282.525	3.64
282.903	3.43
283.281	3.52
283.659	4.35
284.037	4.04
284.415	3.44
284.792	3.47
285.17	3.41
285.548	3.58
285.925	4.3
286.303	3.59
286.68	3.82
287.058	3.84
287.435	3.54
287.813	3.1
288.19	4.05
288.567	3.67
288.945	3.66
289.322	3.65
289.699	3.86
290.076	4.15
290.453	3.68
290.83	3.1
291.207	3.43
291.584	4.03
291.961	3.89
292.338	4.18
292.715	3.17
293.092	3.95
293.469	3.8
293.845	3.4
294.222	3.51
294.599	3.88
294.975	4.01
295.352	3.59
295.728	3.42
296.105	3.86
296.481	3.99
296.858	4.14
297.234	3.6
297.61	3.76
297.986	3.6
298.363	4.07
298.739	3.88
299.115	3.74
299.491	4.31
299.867	3.66
300.243	3.59
300.619	4
300.995	4.21
301.371	3.61
301.746	4.28
302.122	3.8
302.498	3.77
302.874	3.74
303.249	4.02
303.625	3.47
304	4.02
304.376	3.78
304.751	3.65
305.127	3.9
305.502	4.07
305.878	3.44
306.253	3.54
306.628	3.77
307.003	4.15
307.378	4.18
307.754	4.23
308.129	3.97
308.504	4.27
308.879	3.71
309.254	4.5
309.629	3.73
310.003	4.16
310.378	3.76
310.753	3.91
311.128	4.05
311.502	4.3
311.877	3.87
312.252	4.23
312.626	3.77
313.001	3.95
313.375	4.19
313.75	4.11
314.124	3.77
314.498	4.27
314.873	4.04
315.247	4.43
315.621	3.62
315.995	4.45
316.369	4.06
316.743	3.73
317.117	4.38
317.491	3.59
317.865	3.21
318.239	4.04
318.613	3.89
318.987	3.5
319.361	4.48
319.734	4.34
320.108	4.16
320.482	4.42
320.855	3.92
321.229	4.04
321.602	3.55
321.976	3.43
322.349	4.54
322.723	4.15
323.096	4.74
323.469	3.42
323.843	3.71
324.216	3.98
324.589	4.59
324.962	3.96
325.335	4.21
325.708	3.62
326.081	4.04
326.454	4.22
326.827	4.32
327.2	4.05
327.573	3.89
327.945	4.39
328.318	4.42
328.691	4.02
329.063	4
329.436	3.8
329.809	4.4
330.181	3.83
330.553	4.04
330.926	4.28
331.298	3.87
331.671	4.08
332.043	4.23
332.415	4.71
332.787	3.47
333.159	3.75
333.532	4.45
333.904	3.77
334.276	4.15
334.648	4.12
335.02	4.43
335.391	3.86
335.763	3.9
336.135	4.73
336.507	3.4
336.879	3.52
337.25	4.38
337.622	3.59
337.993	4.35
338.365	4.03
338.736	4.31
339.108	3.67
339.479	3.61
339.851	4
340.222	4.12
340.593	4.16
340.964	4.28
341.336	3.63
341.707	3.58
342.078	3.98
342.449	3.87
342.82	4.15
343.191	3.68
343.562	4.21
343.933	3.75
344.303	3.98
344.674	3.91
345.045	4.3
345.416	4.2
345.786	4.45
346.157	4.24
346.527	3.72
346.898	4.23
347.268	3.65
347.639	3.97
348.009	3.78
348.38	4.39
348.75	3.71
349.12	4.18
349.49	3.85
349.861	3.8
350.231	3.66
350.601	4.06
350.971	4.09
351.341	3.91
351.711	4.06
352.081	4.19
352.45	3.92
352.82	4.21
353.19	4.36
353.56	3.97
353.929	4.39
354.299	4.01
354.669	4.15
355.038	4.19
355.408	3.69
355.777	3.81
356.147	3.96
356.516	4.15
356.885	4.08
357.254	4.09
357.624	3.95
357.993	4.17
358.362	4.06
358.731	4.25
359.1	4.2
359.469	4.23
359.838	4
360.207	3.83
360.576	4.01
360.945	3.8
361.314	3.94
361.682	3.92
362.051	4.18
362.42	3.96
362.788	4.07
363.157	4.32
363.525	3.99
363.894	4.16
364.262	4.07
364.631	3.91
364.999	4.02
365.367	4.03
365.735	4.13
366.104	4.01
366.472	3.8
366.84	3.99
367.208	4.42
367.576	3.89
367.944	3.75
368.312	3.95
368.68	4.06
369.048	4.17
369.416	4.01
369.783	3.92
370.151	4.5
370.519	4.02
370.886	4.07
371.254	4.24
371.621	3.35
371.989	3.63
372.356	4.11
372.724	4.39
373.091	4.24
373.458	4.04
373.826	4.12
374.193	4
374.56	4.29
374.927	4.11
375.294	4.27
375.661	4.53
376.028	4.05
376.395	3.93
376.762	4.3
377.129	4.03
377.496	3.97
377.863	4.25
378.229	4.23
378.596	4.21
378.963	4.54
379.329	4.11
379.696	3.73
380.062	3.99
380.429	4.33
380.795	4.07
381.161	4.2
381.528	4.45
381.894	4.04
382.26	3.99
382.626	4.43
382.993	4.45
383.359	4.42
383.725	4.32
384.091	4.07
384.457	3.89
384.823	4.18
385.188	4.38
385.554	4.45
385.92	4.3
386.286	4.08
386.651	4.07
387.017	4.42
387.383	4.37
387.748	4.09
388.114	3.99
388.479	4.16
388.845	4.26
389.21	4.14
389.575	4.44
389.94	4.29
390.306	4.4
390.671	4.16
391.036	4.09
391.401	4.23
391.766	4.51
392.131	4.37
392.496	3.99
392.861	4.15
393.226	4.43
393.591	3.99
393.956	4.13
394.32	4.29
394.685	4.19
395.05	4.27
395.414	4.11
395.779	4.16
396.143	4.23
396.508	3.98
396.872	4.39
397.236	4.13
397.601	4.19
397.965	4.27
398.329	4.46
398.694	4.48
399.058	4.24
399.422	4.04
399.786	4.58
400.15	4.52
400.514	4.58
400.878	4.11
401.242	4.34
401.605	4.34
401.969	4.33
402.333	4.24
402.697	4.16
403.06	4.33
403.424	4.18
403.787	4.21
404.151	4.02
404.514	4.3
404.878	4.23
405.241	4.25
405.604	4.39
405.968	4.16
406.331	4.51
406.694	4.39
407.057	4.57
407.42	4.19
407.783	4.17
408.146	4.25
408.509	4.46
408.872	4.16
409.235	4.1
409.598	4.35
409.961	4.37
410.323	4.48
410.686	4.36
411.049	4.58
411.411	4.4
411.774	4.24
412.136	4.12
412.499	4.37
412.861	4.19
413.223	4.27
413.586	4.09
413.948	4.57
414.31	4.41
414.672	4.3
415.035	4.36
415.397	4.27
415.759	4.34
416.121	4.37
416.483	4.42
416.845	4.56
417.206	4.57
417.568	4.32
417.93	4.15
418.292	4.26
418.653	4.3
419.015	4.22
419.377	4.27
419.738	4.49
420.1	4.31
420.461	4.42
420.822	4.4
421.184	4.34
421.545	4.46
421.906	4.27
422.267	4.38
422.629	4.21
422.99	4.21
423.351	4.25
423.712	4.19
424.073	4.3
424.434	4.35
424.795	4.28
425.155	4.2
425.516	4.24
425.877	4.25
426.238	4.21
426.598	4.23
426.959	4.29
427.32	4.26
427.68	4.26
428.041	4.33
428.401	4.38
428.761	4.3
429.122	4.26
429.482	4.29
429.842	4.57
430.202	4.53
430.563	4.29
430.923	4.42
431.283	4.35
431.643	4.21
432.003	4.46
432.363	4.47
432.722	4.42
433.082	4.19
433.442	4.31
433.802	4.37
434.161	4.39
434.521	4.47
434.881	4.38
435.24	4.44
435.6	4.45
435.959	4.53
436.319	4.54
436.678	4.44
437.037	4.42
437.396	4.59
437.756	4.44
438.115	4.43
438.474	4.61
438.833	4.5
439.192	4.62
439.551	4.48
439.91	4.54
440.269	4.37
440.628	4.42
440.987	4.65
441.345	4.34
441.704	4.4
442.063	4.48
442.421	4.38
442.78	4.52
443.138	4.43
443.497	4.41
443.855	4.45
444.214	4.54
444.572	4.56
444.93	4.63
445.288	4.43
445.647	4.59
446.005	4.61
446.363	4.49
446.721	4.65
447.079	4.52
447.437	4.33
447.795	4.31
448.153	4.52
448.51	4.39
448.868	4.49
449.226	4.45
449.584	4.42
449.941	4.43
450.299	4.43
450.656	4.52
451.014	4.52
451.371	4.39
451.729	4.34
452.086	4.4
452.443	4.58
452.801	4.72
453.158	4.68
453.515	4.51
453.872	4.51
454.229	4.58
454.586	4.64
454.943	4.62
455.3	4.59
455.657	4.66
456.014	4.64
456.371	4.53
456.727	4.62
457.084	4.59
457.441	4.7
457.797	4.63
458.154	4.69
458.51	4.65
458.867	4.55
459.223	4.73
459.58	4.54
459.936	4.61
460.292	4.7
460.648	4.52
461.005	4.51
461.361	4.59
461.717	4.55
462.073	4.51
462.429	4.48
462.785	4.51
463.141	4.57
463.496	4.7
463.852	4.64
464.208	4.59
464.564	4.68
464.919	4.68
465.275	4.59
465.631	4.59
465.986	4.79
466.342	4.91
466.697	4.65
467.052	4.57
467.408	4.52
467.763	4.55
468.118	4.49
468.473	4.59
468.829	4.61
469.184	4.67
469.539	4.74
469.894	4.59
470.249	4.54
470.603	4.59
470.958	4.6
471.313	4.9
471.668	4.56
472.023	4.68
472.377	4.68
472.732	4.78
473.086	4.73
473.441	4.64
473.795	4.78
474.15	4.65
474.504	4.7
474.859	4.75
475.213	4.69
475.567	4.68
475.921	4.95
476.275	4.81
476.63	4.96
476.984	4.63
477.338	4.67
477.692	4.82
478.045	4.72
478.399	4.79
478.753	4.78
479.107	4.75
479.461	4.83
479.814	5.01
480.168	4.9
480.521	4.78
480.875	4.78
481.228	4.81
481.582	4.82
481.935	4.7
482.289	4.79
482.642	5.02
482.995	4.86
483.348	4.79
483.701	4.72
484.055	4.74
484.408	4.68
484.761	4.72
485.114	4.7
485.466	4.62
485.819	4.49
486.172	4.43
486.525	4.48
486.878	4.52
487.23	4.56
487.583	4.67
487.936	4.78
488.288	4.75
488.641	4.7
488.993	4.71
489.345	4.7
489.698	4.67
490.05	4.56
490.402	4.62
490.754	4.72
491.107	4.64
491.459	4.75
491.811	4.77
492.163	4.86
492.515	4.83
492.866	4.93
493.218	4.76
493.57	4.73
493.922	4.66
494.274	4.67
494.625	4.68
494.977	4.86
495.328	4.93
495.68	4.94
496.031	5.02
496.383	4.88
496.734	4.9
497.086	5.11
497.437	5.05
497.788	5.03
498.139	4.96
498.49	4.86
498.842	4.92
499.193	4.91
499.544	5.03
499.894	4.94
500.245	4.91
500.596	5.04
500.947	5.08
501.298	5.15
501.648	4.91
501.999	5.07
502.35	4.94
502.7	5.09
503.051	5.17
503.401	5.15
503.752	4.99
504.102	5.06
504.452	5.07
504.803	5.18
505.153	5.22
505.503	5.19
505.853	4.99
506.203	5.14
506.553	5.21
506.903	5.19
507.253	5.2
507.603	5.13
507.953	5.28
508.303	5.24
508.652	5.22
509.002	5.26
509.352	5.08
509.701	5.18
510.051	5.05
510.4	5.14
510.75	5.19
511.099	5.16
511.449	5.13
511.798	5.09
512.147	5.19
512.496	5.17
512.846	5.12
513.195	5.28
513.544	5.07
513.893	5.26
514.242	5.22
514.591	5.22
514.939	5.12
515.288	5.19
515.637	5.33
515.986	5.26
516.334	5.35
516.683	5.33
517.032	5.37
517.38	5.41
517.729	5.48
518.077	5.22
518.426	5.38
518.774	5.32
519.122	5.44
519.47	5.29
519.819	5.27
520.167	5.19
520.515	5.36
520.863	5.21
521.211	5.23
521.559	5.32
521.907	5.22
522.255	5.22
522.602	5.33
522.95	5.44
523.298	5.53
523.645	5.39
523.993	5.37
524.341	5.42
524.688	5.47
525.036	5.53
525.383	5.56
525.73	5.45
526.078	5.59
526.425	5.53
526.772	5.49
527.119	5.47
527.466	5.4
527.814	5.38
528.161	5.32
528.508	5.4
528.854	5.43
529.201	5.55
529.548	5.45
529.895	5.49
530.242	5.39
530.588	5.27
530.935	5.23
531.282	5.23
531.628	5.26
531.975	5.35
532.321	5.39
532.667	5.42
533.014	5.53
533.36	5.6
533.706	5.62
534.052	5.57
534.399	5.67
534.745	5.69
535.091	5.49
535.437	5.41
535.783	5.48
536.129	5.47
536.474	5.51
536.82	5.66
537.166	5.59
537.512	5.72
537.857	5.76
538.203	5.73
538.549	5.66
538.894	5.62
539.239	5.63
539.585	5.68
539.93	5.7
540.276	5.82
540.621	5.76
540.966	5.85
541.311	6.05
541.656	6.03
542.001	6
542.346	5.96
542.691	5.96
543.036	5.83
543.381	5.7
543.726	5.67
544.071	5.73
544.415	5.75
544.76	5.87
545.105	5.93
545.449	5.82
545.794	5.91
546.138	6
546.483	5.98
546.827	6.01
547.171	6.09
547.516	6.07
547.86	6.09
548.204	6.11
548.548	6.07
548.892	5.95
549.236	5.99
549.58	6.08
549.924	6.04
550.268	6.17
550.612	6.17
550.956	6.39
551.3	6.31
551.643	6.52
551.987	6.16
552.33	6.41
552.674	6.27
553.017	6.25
553.361	6.47
553.704	6.32
554.048	6.48
554.391	6.36
554.734	6.48
555.077	6.33
555.42	6.33
555.764	6.46
556.107	6.46
556.45	6.57
556.793	6.31
557.135	6.48
557.478	6.58
557.821	6.62
558.164	6.74
558.507	6.54
558.849	6.67
559.192	6.59
559.534	6.47
559.877	6.81
560.219	6.76
560.562	6.69
560.904	6.85
561.246	6.62
561.589	6.72
561.931	6.76
562.273	6.74
562.615	6.73
562.957	6.98
563.299	6.97
563.641	6.71
563.983	6.9
564.325	6.86
564.667	6.74
565.008	6.82
565.35	7.15
565.692	7.04
566.033	6.96
566.375	6.86
566.716	6.96
567.058	6.95
567.399	6.89
567.741	7.03
568.082	6.92
568.423	6.95
568.764	6.9
569.105	7.08
569.447	7.13
569.788	7.08
570.129	6.96
570.47	7.11
570.811	7.29
571.151	7.02
571.492	7.19
571.833	7.03
572.174	7.28
572.514	7.15
572.855	7.01
573.195	7.28
573.536	7.37
573.876	7.07
574.217	7.19
574.557	7.23
574.898	7.3
575.238	7.17
575.578	7.34
575.918	7.29
576.258	7.32
576.598	7.46
576.938	7.27
577.278	7.47
577.618	7.44
577.958	7.56
578.298	7.61
578.638	7.45
578.977	7.7
579.317	7.36
579.657	7.54
579.996	7.53
580.336	7.45
580.675	7.84
581.014	7.75
581.354	7.77
581.693	7.78
582.032	8.05
582.372	7.77
582.711	8.07
583.05	7.81
583.389	7.88
583.728	8.05
584.067	8.03
584.406	8.07
584.745	7.99
585.083	7.84
585.422	7.9
585.761	8.11
586.1	8.33
586.438	7.83
586.777	7.88
587.115	8.27
587.454	8
587.792	8.31
588.13	8.4
588.469	8.36
588.807	8.15
589.145	8.38
589.483	7.96
589.821	8.13
590.159	8.42
590.497	8.36
590.835	8.3
591.173	8.42
591.511	8.21
591.849	8.4
592.187	8.47
592.524	8.43
592.862	8.54
593.2	8.16
593.537	8.33
593.875	8.77
594.212	8.83
594.55	8.74
594.887	8.56
595.224	8.8
595.561	8.7
595.899	8.5
596.236	8.76
596.573	8.85
596.91	8.7
597.247	8.82
597.584	8.76
597.921	8.82
598.258	8.73
598.594	8.83
598.931	8.71
599.268	8.71
599.604	8.72
599.941	8.93
600.277	8.77
600.614	9.11
600.95	9.05
601.287	9.19
601.623	9.33
601.959	9.06
602.296	9.16
602.632	9.25
602.968	9.33
603.304	9.22
603.64	9.09
603.976	9.24
604.312	9.34
604.648	9.38
604.984	9.37
605.319	9.49
605.655	9.21
605.991	9.58
606.326	9.34
606.662	9.19
606.998	9.49
607.333	9.15
607.668	9.42
608.004	9.33
608.339	9.5
608.674	9.39
609.01	9.58
609.345	9.79
609.68	9.7
610.015	9.73
610.35	9.97
610.685	9.96
611.02	9.81
611.355	9.86
611.689	9.67
612.024	9.67
612.359	9.76
612.694	9.96
613.028	9.78
613.363	10
613.697	9.96
614.032	9.98
614.366	9.8
614.7	10.22
615.035	9.96
615.369	10.09
615.703	10.08
616.037	9.73
616.371	9.88
616.705	10.27
617.039	10.17
617.373	10.24
617.707	10.09
618.041	10.17
618.375	10.43
618.709	10.38
619.042	10.33
619.376	10.23
619.71	10.36
620.043	10.5
620.377	10.64
620.71	10.54
621.043	10.63
621.377	10.6
621.71	10.92
622.043	10.41
622.376	10.81
622.709	10.38
623.043	10.45
623.376	10.62
623.709	10.69
624.041	10.89
624.374	10.89
624.707	10.69
625.04	10.6
625.373	10.86
625.705	11.35
626.038	10.78
626.37	10.86
626.703	11.46
627.035	11.05
627.368	11.2
627.7	11.5
628.032	11.24
628.365	11.13
628.697	11.35
629.029	11.17
629.361	11.32
629.693	10.98
630.025	11.26
630.357	11.15
630.689	11.33
631.021	11.71
631.353	11.47
631.684	11.44
632.016	11.43
632.348	11.44
632.679	11.73
633.011	11.31
633.342	11.31
633.674	11.52
634.005	11.54
634.336	11.63
634.668	11.71
634.999	11.78
635.33	11.73
635.661	12.11
635.992	11.69
636.323	11.95
636.654	11.76
636.985	11.7
637.316	11.93
637.647	12.42
637.977	12.18
638.308	12.09
638.639	11.87
638.969	12.43
639.3	12.64
639.63	12.23
639.961	12.33
640.291	12.03
640.622	12.48
640.952	11.69
641.282	12.5
641.612	12.16
641.943	12.28
642.273	12.83
642.603	11.88
642.933	12.15
643.263	12.95
643.592	12.57
643.922	13
644.252	12.53
644.582	12.73
644.911	13.24
645.241	12.86
645.571	12.45
645.9	12.93
646.23	12.34
646.559	12.56
646.888	13.16
647.218	12.82
647.547	12.99
647.876	13
648.205	12.72
648.534	13.27
648.863	12.59
649.192	13.19
649.521	12.76
649.85	13.32
650.179	13.21
650.508	13.22
650.837	12.69
651.165	13.31
651.494	13.07
651.822	13.18
652.151	13.62
652.479	13.38
652.808	13.4
653.136	13.31
653.465	13.59
653.793	13.94
654.121	13.82
654.449	13.88
654.777	13.77
655.105	13.5
655.433	13.73
655.761	13.32
656.089	13.48
656.417	13.1
656.745	13.96
657.073	13.4
657.4	13.81
657.728	14.11
658.056	13.93
658.383	13.76
658.711	14.14
659.038	13.94
659.365	13.93
659.693	14.1
660.02	14.09
660.347	14.58
660.674	14.03
661.001	14.35
661.329	14.5
661.656	14.26
661.982	14.01
662.309	14.32
662.636	14.06
662.963	14.54
663.29	14.53
663.616	14.32
663.943	14.76
664.27	14.94
664.596	14.78
664.923	14.68
665.249	15
665.576	14.56
665.902	14.68
666.228	14.35
666.554	14.81
666.881	14.46
667.207	14.22
667.533	15.02
667.859	14.63
668.185	14.96
668.511	14.82
668.837	14.12
669.162	14.83
669.488	15
669.814	15.52
670.139	15.28
670.465	15.59
670.791	15.22
671.116	14.94
671.442	14.76
671.767	14.17
672.092	15.18
672.418	15.11
672.743	15.96
673.068	15.16
673.393	15.64
673.718	15.25
674.043	14.95
674.368	15.29
674.693	15.49
675.018	16.31
675.343	15.24
675.667	15.96
675.992	16.04
676.317	14.88
676.641	15.55
676.966	16.24
677.29	14.99
677.615	16.81
677.939	16.31
678.264	15.56
678.588	15.89
678.912	16.33
679.236	15.9
679.56	15.68
679.885	16.19
680.209	15.74
680.532	16.69
680.856	16.23
681.18	16.4
681.504	15.64
681.828	16.5
682.152	16.49
682.475	16.17
682.799	15.94
683.122	16.4
683.446	16.31
683.769	16.65
684.093	16.77
684.416	16.53
684.739	16.12
685.062	17.59
685.386	16.68
685.709	16.72
686.032	16.17
686.355	17.41
686.678	16.34
687.001	16.16
687.324	16.08
