Data from 0175_chest_Reflection__0__061.txt Node

Date: Mon Aug 28 19:08:18 CDT 2023
User: ToomeyLab
Spectrometer: FLMS14357
Trigger mode: 0
Integration Time (sec): 1.000000E-2
Scans to average: 100
Electric dark correction enabled: true
Nonlinearity correction enabled: false
Boxcar width: 0
XAxis mode: Wavelengths
Number of Pixels in Spectrum: 2048
>>>>>Begin Spectral Data<<<<<
189.047	-88.24
189.435	-88.24
189.823	-88.24
190.211	-1455.81
190.599	75.6
190.987	333.51
191.375	3.86
191.763	169.79
192.151	-35.8
192.538	-109.02
192.926	141.28
193.314	-358.01
193.702	157.35
194.089	-23.68
194.477	585.88
194.864	193.48
195.252	124.14
195.639	83.76
196.027	115.54
196.414	357.13
196.801	87.12
197.189	18.47
197.576	40.82
197.963	5.83
198.351	14.92
198.738	70.71
199.125	13.75
199.512	72.55
199.899	27.07
200.286	-17.86
200.673	9.86
201.06	12.9
201.447	6.84
201.833	8.25
202.22	50.97
202.607	16.65
202.994	50.59
203.38	12.99
203.767	43.63
204.154	14.98
204.54	-41.5
204.927	1.84
205.313	11.68
205.699	4.4
206.086	9.08
206.472	19.19
206.858	43.53
207.245	32.69
207.631	23.41
208.017	30.02
208.403	23.81
208.789	-0.25
209.175	14.38
209.561	23.97
209.947	-25.47
210.333	-23.31
210.719	3.01
211.105	22.69
211.491	2.09
211.876	55.88
212.262	48.14
212.648	23.72
213.034	58.58
213.419	-4.95
213.805	36.86
214.19	-14.24
214.576	34.16
214.961	-3.81
215.346	23.44
215.732	44.73
216.117	-24.22
216.502	19.41
216.888	19.63
217.273	7.04
217.658	39.64
218.043	7.44
218.428	5.33
218.813	-13.97
219.198	49.01
219.583	-11.75
219.968	22.92
220.353	1.49
220.738	13.63
221.122	23.92
221.507	18.98
221.892	7.59
222.276	21.19
222.661	7.33
223.046	10.53
223.43	18.79
223.815	13.6
224.199	20.37
224.583	0.94
224.968	4.44
225.352	13.51
225.736	11.54
226.121	6.17
226.505	10.69
226.889	2.46
227.273	14.48
227.657	4.53
228.041	6.32
228.425	8.72
228.809	3.99
229.193	1.92
229.577	5.53
229.961	4.04
230.344	4.51
230.728	3.78
231.112	4.25
231.495	3.81
231.879	2.31
232.263	4.14
232.646	3.56
233.03	3.34
233.413	5.51
233.797	4.08
234.18	5.13
234.563	3.08
234.946	6.9
235.33	4.3
235.713	3.18
236.096	5.57
236.479	2.79
236.862	4.77
237.245	4.48
237.628	5.18
238.011	4.63
238.394	5.5
238.777	6.79
239.16	3.89
239.543	2.01
239.925	5.28
240.308	3.54
240.691	2.38
241.073	2.56
241.456	3.85
241.838	4.61
242.221	5.17
242.603	4.47
242.986	4.62
243.368	3.76
243.75	3.5
244.133	2.98
244.515	3.33
244.897	3.89
245.279	3.33
245.661	3.05
246.043	3.51
246.425	3.36
246.807	4.77
247.189	3.05
247.571	3.38
247.953	3.47
248.335	3.54
248.717	3.74
249.098	3.56
249.48	3.31
249.862	3.46
250.243	3.52
250.625	4.02
251.006	3.52
251.388	3.57
251.769	4.27
252.151	3.3
252.532	2.71
252.913	4.34
253.295	2.79
253.676	2.3
254.057	3.84
254.438	3.2
254.819	3.45
255.2	3.62
255.581	3.59
255.962	4.24
256.343	4.37
256.724	2.47
257.105	2.63
257.486	4.19
257.867	3.93
258.247	3.59
258.628	3.9
259.009	2.07
259.389	3.04
259.77	4.55
260.15	3.12
260.531	2.3
260.911	3.32
261.292	3.21
261.672	3.22
262.052	3.1
262.432	3.15
262.813	3.26
263.193	2.91
263.573	2.74
263.953	3.28
264.333	3.06
264.713	2.92
265.093	4
265.473	3.8
265.853	2.85
266.233	3.02
266.612	4.1
266.992	3.5
267.372	3.79
267.752	3.62
268.131	3.22
268.511	2.82
268.89	3.53
269.27	2.83
269.649	2.65
270.029	3.68
270.408	3.69
270.787	3.62
271.167	3.29
271.546	3.52
271.925	3.16
272.304	3.33
272.683	3.38
273.062	2.66
273.441	3.19
273.82	2.81
274.199	2.33
274.578	3.16
274.957	3.58
275.336	3.31
275.715	3.31
276.093	2.55
276.472	3
276.851	3.15
277.229	3.5
277.608	3.02
277.986	2.7
278.365	3.33
278.743	3.1
279.122	2.7
279.5	2.82
279.878	2.54
280.257	3.11
280.635	3.37
281.013	2.97
281.391	3.15
281.769	2.56
282.147	3.15
282.525	3.51
282.903	3.13
283.281	2.74
283.659	3.39
284.037	3.27
284.415	3.09
284.792	3.39
285.17	2.78
285.548	2.88
285.925	3.3
286.303	3.08
286.68	3.08
287.058	3.4
287.435	2.95
287.813	3.04
288.19	3.35
288.567	2.95
288.945	3.27
289.322	3.03
289.699	3.51
290.076	3.32
290.453	3.26
290.83	2.56
291.207	2.67
291.584	3.07
291.961	3.24
292.338	3.08
292.715	2.88
293.092	3.18
293.469	3.16
293.845	3.29
294.222	3.41
294.599	3.54
294.975	3.51
295.352	3.38
295.728	3.53
296.105	3.44
296.481	3.42
296.858	3.73
297.234	3.69
297.61	3.47
297.986	3.45
298.363	3.64
298.739	3.28
299.115	2.98
299.491	3.35
299.867	3.29
300.243	3.5
300.619	3.26
300.995	3.48
301.371	3.41
301.746	3.17
302.122	3.33
302.498	3.44
302.874	3.67
303.249	3.22
303.625	3.49
304	3.09
304.376	3.29
304.751	3.22
305.127	3.98
305.502	3.49
305.878	3.27
306.253	3.25
306.628	3.28
307.003	3.53
307.378	3.34
307.754	3.2
308.129	3.42
308.504	4.07
308.879	3.46
309.254	3.38
309.629	3.73
310.003	3.22
310.378	3.02
310.753	3.66
311.128	3.63
311.502	4.07
311.877	3.44
312.252	3.52
312.626	3.4
313.001	3.28
313.375	3.44
313.75	3.71
314.124	3.71
314.498	3.72
314.873	3.77
315.247	3.97
315.621	3.05
315.995	4.32
316.369	4.25
316.743	3.44
317.117	3.97
317.491	2.93
317.865	3.59
318.239	3.4
318.613	4.18
318.987	3.92
319.361	3.91
319.734	4.01
320.108	4.11
320.482	3.64
320.855	3.86
321.229	3.37
321.602	3.62
321.976	3.46
322.349	3.71
322.723	3.61
323.096	4.03
323.469	3.19
323.843	3.42
324.216	3.59
324.589	3.73
324.962	4.3
325.335	3.64
325.708	3.61
326.081	3.23
326.454	4.13
326.827	3.98
327.2	3.41
327.573	3.38
327.945	4.11
328.318	4.36
328.691	3.5
329.063	3.7
329.436	3.38
329.809	4.49
330.181	3.6
330.553	3.79
330.926	3.83
331.298	4.02
331.671	3.94
332.043	3.55
332.415	4.5
332.787	3.33
333.159	3.75
333.532	4.29
333.904	4.06
334.276	3.96
334.648	3.64
335.02	4.4
335.391	3.78
335.763	3.43
336.135	4.37
336.507	3.24
336.879	3.29
337.25	4.03
337.622	3.99
337.993	3.79
338.365	4.04
338.736	4.06
339.108	3.56
339.479	3.34
339.851	3.98
340.222	3.72
340.593	3.67
340.964	3.94
341.336	3.59
341.707	3.72
342.078	3.79
342.449	4.11
342.82	3.86
343.191	3.75
343.562	3.74
343.933	3.76
344.303	3.91
344.674	3.91
345.045	4
345.416	4.35
345.786	4.18
346.157	3.95
346.527	3.8
346.898	3.97
347.268	3.7
347.639	3.23
348.009	3.92
348.38	3.93
348.75	4.15
349.12	4.26
349.49	3.82
349.861	3.55
350.231	3.48
350.601	4.74
350.971	4.26
351.341	3.93
351.711	3.75
352.081	4.05
352.45	4.12
352.82	3.99
353.19	4.32
353.56	4.32
353.929	4.14
354.299	3.72
354.669	4.42
355.038	4.21
355.408	4.12
355.777	3.9
356.147	3.86
356.516	4.25
356.885	4.06
357.254	3.84
357.624	3.98
357.993	4.61
358.362	3.95
358.731	4.11
359.1	4.15
359.469	4.03
359.838	3.87
360.207	3.92
360.576	4.28
360.945	4.14
361.314	3.71
361.682	3.7
362.051	4.3
362.42	4.03
362.788	3.84
363.157	3.88
363.525	3.92
363.894	4.06
364.262	4.17
364.631	4.08
364.999	3.96
365.367	3.89
365.735	4.14
366.104	3.96
366.472	3.95
366.84	4.03
367.208	3.93
367.576	3.68
367.944	4.2
368.312	4.21
368.68	3.72
369.048	4.03
369.416	4.08
369.783	4.11
370.151	4.04
370.519	3.92
370.886	3.99
371.254	3.69
371.621	4.03
371.989	4.01
372.356	4.07
372.724	4.58
373.091	3.92
373.458	4.03
373.826	4.21
374.193	4.37
374.56	4.37
374.927	3.49
375.294	4.14
375.661	4.61
376.028	3.78
376.395	3.92
376.762	4.29
377.129	4.01
377.496	4.03
377.863	4.36
378.229	3.92
378.596	4.34
378.963	4.44
379.329	4.33
379.696	4.07
380.062	4.05
380.429	4.1
380.795	4.08
381.161	4.19
381.528	4.19
381.894	4.06
382.26	4.29
382.626	4.35
382.993	4.09
383.359	4.41
383.725	4.37
384.091	4.12
384.457	4.47
384.823	4.12
385.188	4.11
385.554	4.11
385.92	4.11
386.286	4.65
386.651	4.15
387.017	4.37
387.383	4.46
387.748	4.28
388.114	3.89
388.479	4.05
388.845	4.37
389.21	4.19
389.575	4.32
389.94	4.26
390.306	4.68
390.671	4.13
391.036	4.13
391.401	4.54
391.766	4.34
392.131	4.35
392.496	4.11
392.861	4.36
393.226	4.57
393.591	4.2
393.956	4.3
394.32	4.33
394.685	4.36
395.05	4.31
395.414	4.19
395.779	4.21
396.143	4.19
396.508	4.05
396.872	4.44
397.236	4.29
397.601	4.21
397.965	4.32
398.329	4.33
398.694	4.22
399.058	4.23
399.422	4.38
399.786	4.59
400.15	4.43
400.514	4.45
400.878	4.32
401.242	4.32
401.605	4.37
401.969	4.31
402.333	4.48
402.697	4.24
403.06	4.61
403.424	4.63
403.787	4.32
404.151	4.37
404.514	4.65
404.878	4.22
405.241	4.57
405.604	4.46
405.968	4.26
406.331	4.77
406.694	4.36
407.057	4.49
407.42	4.35
407.783	4.35
408.146	4.36
408.509	4.3
408.872	4.29
409.235	4.39
409.598	4.42
409.961	4.38
410.323	4.5
410.686	4.47
411.049	4.61
411.411	4.71
411.774	4.66
412.136	4.52
412.499	4.49
412.861	4.42
413.223	4.4
413.586	4.22
413.948	4.29
414.31	4.6
414.672	4.42
415.035	4.31
415.397	4.23
415.759	4.53
416.121	4.61
416.483	4.37
416.845	4.7
417.206	4.82
417.568	4.46
417.93	4.47
418.292	4.58
418.653	4.52
419.015	4.54
419.377	4.39
419.738	4.65
420.1	4.64
420.461	4.55
420.822	4.35
421.184	4.37
421.545	4.48
421.906	4.5
422.267	4.41
422.629	4.43
422.99	4.37
423.351	4.48
423.712	4.41
424.073	4.43
424.434	4.46
424.795	4.42
425.155	4.4
425.516	4.43
425.877	4.45
426.238	4.41
426.598	4.42
426.959	4.41
427.32	4.38
427.68	4.44
428.041	4.35
428.401	4.63
428.761	4.61
429.122	4.49
429.482	4.53
429.842	4.86
430.202	4.61
430.563	4.77
430.923	4.76
431.283	4.6
431.643	4.63
432.003	4.63
432.363	4.64
432.722	4.7
433.082	4.6
433.442	4.68
433.802	4.46
434.161	4.69
434.521	4.68
434.881	4.63
435.24	4.67
435.6	4.6
435.959	4.67
436.319	4.7
436.678	4.59
437.037	4.54
437.396	4.75
437.756	4.73
438.115	4.86
438.474	4.82
438.833	4.77
439.192	4.81
439.551	4.62
439.91	4.79
440.269	4.66
440.628	4.74
440.987	4.57
441.345	4.65
441.704	4.73
442.063	4.67
442.421	4.7
442.78	4.72
443.138	4.73
443.497	4.62
443.855	4.72
444.214	4.9
444.572	4.63
444.93	4.76
445.288	4.66
445.647	4.8
446.005	4.8
446.363	4.77
446.721	4.73
447.079	4.8
447.437	4.66
447.795	4.6
448.153	4.7
448.51	4.65
448.868	4.74
449.226	4.66
449.584	4.68
449.941	4.72
450.299	4.79
450.656	4.74
451.014	4.64
451.371	4.73
451.729	4.59
452.086	4.79
452.443	4.89
452.801	4.98
453.158	4.88
453.515	4.95
453.872	4.68
454.229	4.98
454.586	4.95
454.943	4.85
455.3	4.88
455.657	5.02
456.014	4.94
456.371	5
456.727	4.9
457.084	5
457.441	4.89
457.797	4.95
458.154	4.99
458.51	5.11
458.867	4.96
459.223	4.97
459.58	4.84
459.936	5.07
460.292	5.05
460.648	5
461.005	4.83
461.361	4.85
461.717	4.9
462.073	4.92
462.429	4.81
462.785	4.91
463.141	4.77
463.496	4.98
463.852	4.9
464.208	5.01
464.564	4.91
464.919	4.99
465.275	5.22
465.631	4.93
465.986	4.97
466.342	5.03
466.697	4.81
467.052	5.02
467.408	5.13
467.763	5.02
468.118	4.99
468.473	4.91
468.829	5.1
469.184	4.87
469.539	5.19
469.894	4.91
470.249	5.03
470.603	4.98
470.958	5.17
471.313	5.11
471.668	4.97
472.023	5.11
472.377	5.06
472.732	5.28
473.086	5.1
473.441	5.18
473.795	5.22
474.15	5.14
474.504	5.09
474.859	4.95
475.213	5.19
475.567	5.13
475.921	5.32
476.275	5.16
476.63	5.38
476.984	5.21
477.338	5.31
477.692	5.17
478.045	5.33
478.399	5.08
478.753	5.14
479.107	5.04
479.461	5.27
479.814	5.27
480.168	5.2
480.521	5.26
480.875	5.21
481.228	5.27
481.582	5.23
481.935	4.99
482.289	5.24
482.642	5.32
482.995	5.23
483.348	5.22
483.701	5.25
484.055	5.12
484.408	5.11
484.761	5.25
485.114	5.11
485.466	5
485.819	4.94
486.172	4.89
486.525	4.88
486.878	4.9
487.23	4.88
487.583	4.97
487.936	5.07
488.288	5.08
488.641	5.04
488.993	5.17
489.345	5.08
489.698	5.04
490.05	5.02
490.402	4.97
490.754	5.01
491.107	5.09
491.459	5.14
491.811	5.15
492.163	5.17
492.515	5.34
492.866	5.27
493.218	5.23
493.57	5.2
493.922	5.1
494.274	5.16
494.625	5.1
494.977	5.13
495.328	5.29
495.68	5.37
496.031	5.39
496.383	5.37
496.734	5.39
497.086	5.52
497.437	5.52
497.788	5.51
498.139	5.44
498.49	5.46
498.842	5.43
499.193	5.36
499.544	5.45
499.894	5.31
500.245	5.36
500.596	5.46
500.947	5.48
501.298	5.58
501.648	5.4
501.999	5.56
502.35	5.5
502.7	5.54
503.051	5.52
503.401	5.57
503.752	5.61
504.102	5.62
504.452	5.53
504.803	5.57
505.153	5.55
505.503	5.51
505.853	5.5
506.203	5.68
506.553	5.54
506.903	5.64
507.253	5.69
507.603	5.56
507.953	5.76
508.303	5.79
508.652	5.69
509.002	5.75
509.352	5.7
509.701	5.66
510.051	5.69
510.4	5.72
510.75	5.69
511.099	5.72
511.449	5.62
511.798	5.7
512.147	5.65
512.496	5.77
512.846	5.69
513.195	5.82
513.544	5.77
513.893	5.74
514.242	5.77
514.591	5.72
514.939	5.59
515.288	5.82
515.637	5.82
515.986	5.76
516.334	5.84
516.683	5.94
517.032	5.87
517.38	5.99
517.729	5.99
518.077	5.92
518.426	5.89
518.774	5.94
519.122	5.95
519.47	5.84
519.819	5.81
520.167	5.84
520.515	5.84
520.863	5.69
521.211	5.72
521.559	5.74
521.907	5.79
522.255	5.74
522.602	5.83
522.95	5.97
523.298	5.95
523.645	5.91
523.993	5.96
524.341	6.01
524.688	6.1
525.036	6.09
525.383	6.1
525.73	5.99
526.078	6.18
526.425	6.04
526.772	6.06
527.119	5.99
527.466	5.97
527.814	5.93
528.161	5.84
528.508	5.87
528.854	5.84
529.201	6.05
529.548	6
529.895	5.97
530.242	5.91
530.588	5.83
530.935	5.77
531.282	5.74
531.628	5.75
531.975	5.76
532.321	5.83
532.667	5.88
533.014	6.01
533.36	5.96
533.706	6.14
534.052	6.07
534.399	6.11
534.745	6.18
535.091	6.09
535.437	6.03
535.783	5.99
536.129	6.02
536.474	5.98
536.82	6.06
537.166	6.11
537.512	6.26
537.857	6.37
538.203	6.19
538.549	6.27
538.894	6.21
539.239	6.12
539.585	6.21
539.93	6.19
540.276	6.29
540.621	6.3
540.966	6.29
541.311	6.59
541.656	6.52
542.001	6.44
542.346	6.43
542.691	6.39
543.036	6.4
543.381	6.24
543.726	6.18
544.071	6.29
544.415	6.21
544.76	6.18
545.105	6.3
545.449	6.26
545.794	6.37
546.138	6.32
546.483	6.46
546.827	6.47
547.171	6.51
547.516	6.59
547.86	6.57
548.204	6.62
548.548	6.63
548.892	6.45
549.236	6.55
549.58	6.62
549.924	6.54
550.268	6.73
550.612	6.69
550.956	6.73
551.3	6.82
551.643	6.87
551.987	6.72
552.33	6.91
552.674	6.73
553.017	6.87
553.361	7.04
553.704	6.93
554.048	7
554.391	7
554.734	6.94
555.077	7.03
555.42	6.86
555.764	6.98
556.107	6.96
556.45	6.9
556.793	6.86
557.135	7.06
557.478	6.88
557.821	7.17
558.164	7.31
558.507	7.15
558.849	7.16
559.192	7.06
559.534	6.97
559.877	7.29
560.219	7.29
560.562	7.16
560.904	7.23
561.246	7.13
561.589	7.32
561.931	7.26
562.273	7.13
562.615	7.36
562.957	7.23
563.299	7.47
563.641	7.14
563.983	7.2
564.325	7.34
564.667	7.43
565.008	7.23
565.35	7.57
565.692	7.45
566.033	7.39
566.375	7.32
566.716	7.27
567.058	7.64
567.399	7.24
567.741	7.43
568.082	7.35
568.423	7.38
568.764	7.3
569.105	7.38
569.447	7.38
569.788	7.4
570.129	7.53
570.47	7.49
570.811	7.72
571.151	7.32
571.492	7.7
571.833	7.64
572.174	7.71
572.514	7.64
572.855	7.45
573.195	7.67
573.536	7.73
573.876	7.63
574.217	7.66
574.557	7.8
574.898	7.71
575.238	7.76
575.578	7.47
575.918	7.77
576.258	7.85
576.598	7.84
576.938	7.81
577.278	7.8
577.618	7.73
577.958	7.87
578.298	8.05
578.638	7.82
578.977	7.81
579.317	7.77
579.657	7.88
579.996	8.17
580.336	7.99
580.675	8.06
581.014	8.36
581.354	8.06
581.693	8.11
582.032	8.17
582.372	8.19
582.711	8.38
583.05	8.05
583.389	8.3
583.728	8.21
584.067	8.4
584.406	8.42
584.745	8.39
585.083	8.35
585.422	8.14
585.761	8.56
586.1	8.54
586.438	8.39
586.777	8.19
587.115	8.78
587.454	8.43
587.792	8.37
588.13	8.52
588.469	8.49
588.807	8.56
589.145	8.59
589.483	8.53
589.821	8.41
590.159	8.81
590.497	8.73
590.835	8.6
591.173	8.32
591.511	8.48
591.849	8.6
592.187	8.5
592.524	8.79
592.862	8.65
593.2	8.66
593.537	8.6
593.875	8.86
594.212	8.95
594.55	8.88
594.887	8.73
595.224	8.87
595.561	8.85
595.899	8.68
596.236	9.22
596.573	9.01
596.91	8.95
597.247	9.03
597.584	9.05
597.921	8.92
598.258	8.85
598.594	8.91
598.931	8.94
599.268	8.94
599.604	8.91
599.941	8.85
600.277	8.8
600.614	9.29
600.95	9.21
601.287	9.22
601.623	9.22
601.959	9.21
602.296	9.12
602.632	9.42
602.968	9.15
603.304	9.56
603.64	9.11
603.976	9.34
604.312	9.46
604.648	9.38
604.984	9.33
605.319	9.5
605.655	9.4
605.991	9.44
606.326	9.58
606.662	9.37
606.998	9.2
607.333	9.07
607.668	9.29
608.004	9.41
608.339	9.43
608.674	9.2
609.01	9.62
609.345	9.73
609.68	9.52
610.015	9.8
610.35	9.76
610.685	9.66
611.02	9.62
611.355	9.75
611.689	9.61
612.024	9.62
612.359	9.74
612.694	9.75
613.028	9.62
613.363	9.58
613.697	9.66
614.032	9.93
614.366	9.69
614.7	9.88
615.035	9.9
615.369	9.75
615.703	9.86
616.037	9.97
616.371	9.92
616.705	9.88
617.039	10.17
617.373	10.31
617.707	10.15
618.041	9.95
618.375	10.3
618.709	10.15
619.042	10.18
619.376	10.01
619.71	10.23
620.043	10.4
620.377	10.48
620.71	10.41
621.043	10.52
621.377	10.37
621.71	10.19
622.043	10.07
622.376	10.39
622.709	10.13
623.043	11
623.376	10.44
623.709	10.74
624.041	10.84
624.374	10.3
624.707	10.22
625.04	10.45
625.373	10.56
625.705	10.92
626.038	10.73
626.37	10.78
626.703	10.62
627.035	10.71
627.368	11.03
627.7	10.77
628.032	10.78
628.365	10.29
628.697	10.86
629.029	10.95
629.361	10.74
629.693	10.56
630.025	10.75
630.357	10.59
630.689	11.05
631.021	10.84
631.353	10.9
631.684	10.95
632.016	10.84
632.348	11.01
632.679	11.29
633.011	11.34
633.342	10.66
633.674	11.07
634.005	11
634.336	10.78
634.668	11.12
634.999	11.34
635.33	11.51
635.661	11.37
635.992	11.11
636.323	11.2
636.654	11.2
636.985	10.95
637.316	11.54
637.647	11.19
637.977	11.17
638.308	11.46
638.639	11.3
638.969	11.54
639.3	11.55
639.63	11.33
639.961	11.57
640.291	11.43
640.622	11.64
640.952	11.07
641.282	11.57
641.612	11.5
641.943	11.77
642.273	12.25
642.603	11.7
642.933	11.23
643.263	12.18
643.592	11.41
643.922	11.76
644.252	11.79
644.582	11.76
644.911	12.22
645.241	11.81
645.571	12.04
645.9	11.83
646.23	11.65
646.559	11.61
646.888	12.31
647.218	12.09
647.547	12.12
647.876	12.17
648.205	12
648.534	12.45
648.863	12.05
649.192	12.2
649.521	12.4
649.85	12.52
650.179	12.58
650.508	12.45
650.837	11.94
651.165	12.27
651.494	12.41
651.822	11.98
652.151	11.79
652.479	12.97
652.808	12.11
653.136	12.58
653.465	12.4
653.793	12.91
654.121	12.98
654.449	12.36
654.777	12.36
655.105	12.57
655.433	12.44
655.761	12.13
656.089	12.42
656.417	12.22
656.745	13.1
657.073	12.33
657.4	12.78
657.728	13.04
658.056	13.02
658.383	12.54
658.711	13.3
659.038	12.84
659.365	13.08
659.693	13.25
660.02	12.96
660.347	13.45
660.674	12.92
661.001	13.34
661.329	12.75
661.656	12.88
661.982	13.02
662.309	13
662.636	13.03
662.963	13.01
663.29	12.99
663.616	13.23
663.943	13.51
664.27	13.58
664.596	13.15
664.923	13.34
665.249	13.75
665.576	13.16
665.902	13.13
666.228	13.02
666.554	13.12
666.881	13.23
667.207	13.11
667.533	13.58
667.859	13.21
668.185	13.83
668.511	13.96
668.837	13.16
669.162	13.39
669.488	13.39
669.814	13.27
670.139	13.46
670.465	14.12
670.791	14.02
671.116	13.63
671.442	13.83
671.767	13
672.092	13.9
672.418	13.74
672.743	13.74
673.068	13.28
673.393	13.69
673.718	13.09
674.043	13.82
674.368	14.2
674.693	14.16
675.018	14.57
675.343	13.97
675.667	14.42
675.992	14.05
676.317	13.35
676.641	14.19
676.966	14.24
677.29	13.82
677.615	14.35
677.939	14.62
678.264	14.07
678.588	14.81
678.912	14.27
679.236	13.57
679.56	14.32
679.885	14.6
680.209	13.79
680.532	14.51
680.856	14.09
681.18	14.75
681.504	14.01
681.828	14.02
682.152	14.6
682.475	14.58
682.799	14.79
683.122	14.63
683.446	14.6
683.769	14.84
684.093	14.62
684.416	14.96
684.739	14.45
685.062	14.8
685.386	14.65
685.709	14.57
686.032	14.37
686.355	14.43
686.678	14.48
687.001	13.81
687.324	14.38
687.646	14.56
687.969	15.39
