Data from 0175_forehead_Reflection__4__070.txt Node

Date: Mon Aug 28 19:14:28 CDT 2023
User: ToomeyLab
Spectrometer: FLMS14357
Trigger mode: 0
Integration Time (sec): 1.000000E-2
Scans to average: 100
Electric dark correction enabled: true
Nonlinearity correction enabled: false
Boxcar width: 0
XAxis mode: Wavelengths
Number of Pixels in Spectrum: 2048
>>>>>Begin Spectral Data<<<<<
189.047	147.51
189.435	147.51
189.823	147.51
190.211	4093.02
190.599	143.51
190.987	281.5
191.375	12.19
191.763	110.61
192.151	85.42
192.538	-16.63
192.926	233.38
193.314	-195.03
193.702	260.11
194.089	107.73
194.477	-1185.88
194.864	167.64
195.252	95.19
195.639	-3309.4
196.027	119.32
196.414	125.47
196.801	62.28
197.189	3.51
197.576	-149.94
197.963	-24.85
198.351	68.69
198.738	64.01
199.125	35.81
199.512	104.89
199.899	32.88
200.286	43.01
200.673	25.92
201.06	14.89
201.447	-2.52
201.833	-1.37
202.22	46.09
202.607	9.3
202.994	74.02
203.38	62.22
203.767	6.72
204.154	47.06
204.54	12.58
204.927	2.58
205.313	57.94
205.699	57.56
206.086	59.05
206.472	22.28
206.858	42.56
207.245	42.85
207.631	44.23
208.017	13.12
208.403	19.54
208.789	32.48
209.175	-21.84
209.561	59.87
209.947	2.98
210.333	2.66
210.719	47.18
211.105	31.19
211.491	-1.61
211.876	61.61
212.262	75.24
212.648	35.86
213.034	32.61
213.419	14.79
213.805	3.23
214.19	-5.45
214.576	28.6
214.961	4.42
215.346	43.13
215.732	18.57
216.117	8.92
216.502	24.75
216.888	-9.33
217.273	16.16
217.658	67.25
218.043	6
218.428	12.59
218.813	11.97
219.198	63.89
219.583	18.06
219.968	15.92
220.353	-14.48
220.738	34.89
221.122	16.17
221.507	10.84
221.892	25.79
222.276	21.18
222.661	18.07
223.046	17.58
223.43	17.2
223.815	3.14
224.199	18.54
224.583	16.63
224.968	21.03
225.352	21.17
225.736	18.48
226.121	18.46
226.505	17.1
226.889	10.8
227.273	16.67
227.657	9.71
228.041	15.69
228.425	13.97
228.809	10.43
229.193	6.49
229.577	12.33
229.961	5.14
230.344	8.29
230.728	7.33
231.112	6.13
231.495	6.2
231.879	6.26
232.263	5.86
232.646	5.43
233.03	7.63
233.413	9.01
233.797	5.6
234.18	7.11
234.563	6.2
234.946	9.31
235.33	7.68
235.713	7.18
236.096	7.57
236.479	5.83
236.862	8.14
237.245	6.42
237.628	8.44
238.011	7.25
238.394	8.33
238.777	8.57
239.16	7.57
239.543	5.58
239.925	9.21
240.308	7.24
240.691	6.98
241.073	5.23
241.456	6.69
241.838	5.9
242.221	7.95
242.603	7.62
242.986	7.57
243.368	7
243.75	5.72
244.133	5.98
244.515	5.86
244.897	6.14
245.279	6.44
245.661	6.02
246.043	6.7
246.425	5.98
246.807	8.39
247.189	6.48
247.571	6.93
247.953	6.41
248.335	6.75
248.717	6.01
249.098	5.84
249.48	6.15
249.862	6.09
250.243	5.96
250.625	7.13
251.006	6.18
251.388	6.68
251.769	7.15
252.151	6.65
252.532	6.22
252.913	6.41
253.295	5.44
253.676	6.26
254.057	6.77
254.438	5.83
254.819	6.12
255.2	6.32
255.581	7.78
255.962	7.03
256.343	8.8
256.724	6.29
257.105	6.62
257.486	7.04
257.867	6.5
258.247	6.17
258.628	7.24
259.009	5.64
259.389	5.54
259.77	6.39
260.15	5.77
260.531	5.8
260.911	6.8
261.292	6.31
261.672	5.96
262.052	5.61
262.432	5.79
262.813	6.25
263.193	5.79
263.573	5.28
263.953	6.47
264.333	5.56
264.713	5.68
265.093	6.31
265.473	6.55
265.853	6.51
266.233	5.51
266.612	6.48
266.992	5.97
267.372	6.01
267.752	6.95
268.131	6.12
268.511	5.72
268.89	6.14
269.27	5.62
269.649	5.78
270.029	6.39
270.408	6.45
270.787	6.74
271.167	6.28
271.546	5.44
271.925	5.66
272.304	6.26
272.683	6.47
273.062	6.12
273.441	5.9
273.82	5.89
274.199	5.85
274.578	5.83
274.957	6.19
275.336	6.14
275.715	6.18
276.093	5.47
276.472	5.58
276.851	5.34
277.229	6.33
277.608	5.65
277.986	5.61
278.365	6.09
278.743	5.45
279.122	5.83
279.5	5.75
279.878	5.72
280.257	6.5
280.635	6
281.013	5.98
281.391	5.54
281.769	5.82
282.147	5.97
282.525	6.26
282.903	5.95
283.281	5.84
283.659	6.63
284.037	6.42
284.415	5.53
284.792	5.83
285.17	5.57
285.548	5.92
285.925	6.5
286.303	6.2
286.68	6.37
287.058	6
287.435	5.63
287.813	5.89
288.19	6.18
288.567	6.12
288.945	5.92
289.322	5.93
289.699	6.41
290.076	6.65
290.453	6.06
290.83	5.69
291.207	6.24
291.584	6.35
291.961	6.49
292.338	5.93
292.715	5.98
293.092	6.14
293.469	6.17
293.845	6.1
294.222	6.73
294.599	6.51
294.975	7.22
295.352	6.31
295.728	6.58
296.105	6.79
296.481	6.79
296.858	7.02
297.234	6.86
297.61	6.96
297.986	6.62
298.363	7.19
298.739	6.77
299.115	6.49
299.491	6.77
299.867	6.88
300.243	7.16
300.619	7.06
300.995	6.9
301.371	7.25
301.746	7.29
302.122	7.48
302.498	7.48
302.874	7.6
303.249	7.44
303.625	7.27
304	7.58
304.376	7.26
304.751	7.44
305.127	7.99
305.502	8.02
305.878	8.07
306.253	7.62
306.628	7.79
307.003	8.03
307.378	7.93
307.754	8.33
308.129	7.88
308.504	8.62
308.879	8.63
309.254	8.89
309.629	7.67
310.003	8.63
310.378	8.37
310.753	8.39
311.128	8.56
311.502	8.7
311.877	8.89
312.252	9.02
312.626	8.89
313.001	9.07
313.375	8.96
313.75	8.99
314.124	8.98
314.498	9.07
314.873	9.59
315.247	9.24
315.621	8.95
315.995	9.98
316.369	9.71
316.743	9.14
317.117	10.24
317.491	8.97
317.865	9.67
318.239	9.77
318.613	10
318.987	10.32
319.361	10.91
319.734	10.34
320.108	10.54
320.482	10.74
320.855	10.31
321.229	10.49
321.602	10.6
321.976	10.51
322.349	11
322.723	10.62
323.096	11.36
323.469	10.65
323.843	11.47
324.216	11.37
324.589	11.2
324.962	11.46
325.335	11.62
325.708	10.97
326.081	11.39
326.454	11.71
326.827	11.63
327.2	11.36
327.573	11.81
327.945	12.19
328.318	12.24
328.691	11.27
329.063	11.78
329.436	11.62
329.809	12.5
330.181	12.15
330.553	11.56
330.926	12.24
331.298	12.46
331.671	12.46
332.043	12.27
332.415	13.16
332.787	12.46
333.159	12.31
333.532	13.34
333.904	12.98
334.276	13.1
334.648	12.73
335.02	13.11
335.391	13.4
335.763	12.98
336.135	13.5
336.507	13.21
336.879	13.05
337.25	13.54
337.622	13.28
337.993	13.42
338.365	13.35
338.736	13.8
339.108	13.71
339.479	13.16
339.851	14.15
340.222	14.52
340.593	13.93
340.964	14.44
341.336	14.09
341.707	13.79
342.078	13.92
342.449	14.15
342.82	14.45
343.191	14.17
343.562	14.31
343.933	14.81
344.303	14.06
344.674	15.09
345.045	14.95
345.416	15.4
345.786	14.99
346.157	14.93
346.527	14.66
346.898	15.21
347.268	14.88
347.639	15.02
348.009	15.13
348.38	15.45
348.75	15.48
349.12	15.7
349.49	15.22
349.861	15.22
350.231	15.33
350.601	16.11
350.971	16.01
351.341	15.63
351.711	16.05
352.081	16.03
352.45	16.27
352.82	15.94
353.19	16.79
353.56	16.35
353.929	16.52
354.299	15.92
354.669	16.37
355.038	16.67
355.408	16.63
355.777	16.52
356.147	16.74
356.516	16.61
356.885	16.84
357.254	16.78
357.624	16.85
357.993	16.98
358.362	16.81
358.731	17.4
359.1	17.23
359.469	17.18
359.838	16.66
360.207	17.14
360.576	17.46
360.945	17.58
361.314	17.25
361.682	17.6
362.051	17.64
362.42	17.44
362.788	17.76
363.157	17.81
363.525	17.45
363.894	17.57
364.262	18.02
364.631	17.48
364.999	17.99
365.367	18.21
365.735	18.21
366.104	18.07
366.472	18.47
366.84	18.4
367.208	18.44
367.576	18.15
367.944	18.58
368.312	18.67
368.68	18.76
369.048	18.97
369.416	18.61
369.783	18.85
370.151	19.24
370.519	19.21
370.886	19.18
371.254	18.74
371.621	18.92
371.989	19.2
372.356	19.34
372.724	19.72
373.091	19.79
373.458	19.37
373.826	19.65
374.193	20.03
374.56	19.75
374.927	19.91
375.294	20.1
375.661	20.44
376.028	19.86
376.395	20.05
376.762	20.61
377.129	20.36
377.496	20.7
377.863	20.64
378.229	20.56
378.596	20.6
378.963	20.86
379.329	20.95
379.696	20.59
380.062	20.7
380.429	20.82
380.795	21.43
381.161	20.96
381.528	21.41
381.894	21.34
382.26	21.37
382.626	21.78
382.993	21.61
383.359	21.83
383.725	21.9
384.091	21.52
384.457	21.69
384.823	21.82
385.188	22.02
385.554	21.69
385.92	22.07
386.286	22.32
386.651	21.97
387.017	22.02
387.383	22.28
387.748	22.44
388.114	21.97
388.479	22.45
388.845	22.84
389.21	22.52
389.575	22.69
389.94	22.57
390.306	22.66
390.671	22.79
391.036	22.93
391.401	23.32
391.766	23.47
392.131	23.07
392.496	23.08
392.861	23.24
393.226	23.32
393.591	23.14
393.956	23.28
394.32	23.32
394.685	23.48
395.05	23.54
395.414	23.66
395.779	23.55
396.143	23.63
396.508	23.49
396.872	23.85
397.236	23.65
397.601	23.94
397.965	24.16
398.329	24.25
398.694	24.2
399.058	24.49
399.422	24.32
399.786	24.24
400.15	24.52
400.514	24.5
400.878	24.67
401.242	24.67
401.605	24.6
401.969	24.61
402.333	24.63
402.697	24.93
403.06	24.73
403.424	24.83
403.787	24.84
404.151	24.92
404.514	25.1
404.878	25.05
405.241	25.24
405.604	24.97
405.968	24.96
406.331	25.18
406.694	25.04
407.057	25.37
407.42	25.17
407.783	25.56
408.146	25.45
408.509	25.75
408.872	25.52
409.235	25.65
409.598	25.73
409.961	25.94
410.323	25.78
410.686	26.3
411.049	26.4
411.411	26.23
411.774	25.95
412.136	25.84
412.499	26.05
412.861	26.54
413.223	26.34
413.586	26.2
413.948	26.72
414.31	26.3
414.672	26.45
415.035	26.81
415.397	26.68
415.759	26.92
416.121	27.21
416.483	26.79
416.845	27.12
417.206	27.25
417.568	26.96
417.93	26.9
418.292	27.22
418.653	27.12
419.015	27.22
419.377	27.19
419.738	27.16
420.1	27.07
420.461	27.12
420.822	27.19
421.184	27.01
421.545	27.31
421.906	27.37
422.267	27.45
422.629	27.31
422.99	27.16
423.351	27.21
423.712	27.19
424.073	27.23
424.434	27.79
424.795	28.04
425.155	27.98
425.516	27.9
425.877	27.79
426.238	27.81
426.598	27.78
426.959	28.01
427.32	28.05
427.68	28.35
428.041	28.55
428.401	28.69
428.761	28.91
429.122	28.95
429.482	29.12
429.842	29.49
430.202	29.48
430.563	29.6
430.923	29.53
431.283	29.7
431.643	29.62
432.003	29.81
432.363	29.91
432.722	29.99
433.082	29.93
433.442	30.27
433.802	30.07
434.161	30.26
434.521	30.24
434.881	30.23
435.24	30.09
435.6	30.12
435.959	30.06
436.319	30.34
436.678	30.49
437.037	30.65
437.396	30.85
437.756	31.02
438.115	31
438.474	31.03
438.833	31.13
439.192	31.14
439.551	31.14
439.91	31.1
440.269	31.35
440.628	31.34
440.987	31.31
441.345	31.16
441.704	31.25
442.063	31.17
442.421	31.02
442.78	31.34
443.138	31.49
443.497	31.42
443.855	31.53
444.214	31.82
444.572	32
444.93	32.06
445.288	32.04
445.647	32.33
446.005	32.27
446.363	32.39
446.721	32.43
447.079	32.18
447.437	32.31
447.795	32.05
448.153	32.01
448.51	31.81
448.868	32.02
449.226	32.15
449.584	32.24
449.941	32.54
450.299	32.83
450.656	32.88
451.014	33.02
451.371	33.11
451.729	33.26
452.086	33.37
452.443	33.4
452.801	33.91
453.158	33.87
453.515	33.79
453.872	33.94
454.229	33.94
454.586	33.83
454.943	33.8
455.3	33.76
455.657	34.16
456.014	34.13
456.371	34.04
456.727	33.99
457.084	34.03
457.441	34.63
457.797	34.6
458.154	34.65
458.51	34.89
458.867	34.7
459.223	34.74
459.58	34.93
459.936	34.89
460.292	34.84
460.648	34.65
461.005	34.78
461.361	34.69
461.717	34.35
462.073	34.23
462.429	34.19
462.785	34.39
463.141	34.85
463.496	34.99
463.852	35.25
464.208	35.61
464.564	35.62
464.919	35.71
465.275	36.1
465.631	35.97
465.986	36.14
466.342	36.27
466.697	35.97
467.052	36.1
467.408	36.11
467.763	36.52
468.118	36.61
468.473	36.27
468.829	36.34
469.184	36.24
469.539	36.45
469.894	36.37
470.249	36.65
470.603	36.66
470.958	36.63
471.313	36.99
471.668	36.83
472.023	36.9
472.377	37.02
472.732	37
473.086	37.09
473.441	37.4
473.795	37.32
474.15	37.33
474.504	37.57
474.859	37.21
475.213	37.39
475.567	37.7
475.921	37.85
476.275	37.58
476.63	38.06
476.984	38.18
477.338	38.06
477.692	37.97
478.045	38.12
478.399	37.9
478.753	38.03
479.107	37.89
479.461	37.9
479.814	38.2
480.168	38.17
480.521	38.16
480.875	38.22
481.228	38.25
481.582	38.54
481.935	38.38
482.289	38.63
482.642	38.5
482.995	38.74
483.348	38.62
483.701	38.58
484.055	38.35
484.408	38.21
484.761	38.2
485.114	38.34
485.466	37.83
485.819	37.42
486.172	37.14
486.525	37.05
486.878	37.17
487.23	37.25
487.583	37.59
487.936	38.05
488.288	38.35
488.641	38.43
488.993	38.33
489.345	38.04
489.698	37.94
490.05	37.81
490.402	37.87
490.754	38.06
491.107	38.1
491.459	38.56
491.811	39.04
492.163	39.24
492.515	39.45
492.866	39.55
493.218	39.4
493.57	38.72
493.922	38.44
494.274	38.46
494.625	38.61
494.977	38.96
495.328	39.45
495.68	39.71
496.031	40.09
496.383	40.34
496.734	40.56
497.086	40.59
497.437	40.95
497.788	40.77
498.139	40.87
498.49	40.76
498.842	40.53
499.193	40.28
499.544	40.22
499.894	40.4
500.245	40.75
500.596	40.84
500.947	40.79
501.298	40.67
501.648	41.08
501.999	41.27
502.35	41.19
502.7	41.49
503.051	41.59
503.401	41.53
503.752	41.51
504.102	41.62
504.452	41.86
504.803	41.72
505.153	41.76
505.503	41.87
505.853	41.67
506.203	42
506.553	41.75
506.903	42.06
507.253	42.02
507.603	41.68
507.953	42.21
508.303	42
508.652	42.2
509.002	42.26
509.352	42.2
509.701	42.37
510.051	42.21
510.4	42.09
510.75	42.08
511.099	42.02
511.449	41.91
511.798	42.04
512.147	42.27
512.496	42.38
512.846	42.58
513.195	42.4
513.544	42.65
513.893	42.43
514.242	42.57
514.591	42.39
514.939	42.65
515.288	42.75
515.637	42.97
515.986	43.07
516.334	42.96
516.683	43.04
517.032	43.12
517.38	43.29
517.729	43.3
518.077	43.32
518.426	43.42
518.774	43.44
519.122	43.38
519.47	43.29
519.819	43.16
520.167	43.11
520.515	42.9
520.863	42.59
521.211	42.59
521.559	42.65
521.907	42.76
522.255	42.95
522.602	42.99
522.95	43.54
523.298	43.61
523.645	43.74
523.993	43.89
524.341	43.92
524.688	44.15
525.036	44.06
525.383	44.12
525.73	44.31
526.078	44.37
526.425	44.17
526.772	44.27
527.119	44.04
527.466	43.77
527.814	43.36
528.161	43.49
528.508	43.38
528.854	43.61
529.201	43.81
529.548	43.87
529.895	43.95
530.242	43.44
530.588	42.97
530.935	42.69
531.282	42.65
531.628	42.81
531.975	42.79
532.321	43.09
532.667	43.36
533.014	43.7
533.36	44.02
533.706	44.17
534.052	44.17
534.399	44.4
534.745	44.33
535.091	44.01
535.437	43.51
535.783	43.43
536.129	43.6
536.474	43.74
536.82	44.06
537.166	44.47
537.512	44.56
537.857	44.93
538.203	44.88
538.549	44.68
538.894	44.37
539.239	44.41
539.585	44.54
539.93	44.67
540.276	44.99
540.621	45.11
540.966	45.56
541.311	45.65
541.656	45.95
542.001	45.59
542.346	45.97
542.691	45.66
543.036	45.11
543.381	44.44
543.726	44
544.071	44.14
544.415	44.19
544.76	44.6
545.105	44.76
545.449	44.99
545.794	45.09
546.138	45.21
546.483	45.53
546.827	45.63
547.171	45.89
547.516	45.96
547.86	45.79
548.204	46.06
548.548	46.02
548.892	45.57
549.236	45.41
549.58	45.68
549.924	45.97
550.268	46.22
550.612	46.4
550.956	46.67
551.3	46.81
551.643	47.05
551.987	47.26
552.33	47.18
552.674	47.23
553.017	47.28
553.361	47.39
553.704	47.31
554.048	47.47
554.391	47.35
554.734	46.92
555.077	46.82
555.42	46.88
555.764	46.95
556.107	47.33
556.45	47.41
556.793	47.6
557.135	47.65
557.478	47.57
557.821	47.75
558.164	47.85
558.507	47.98
558.849	48.02
559.192	47.78
559.534	47.66
559.877	48.02
560.219	48.12
560.562	48.39
560.904	48.08
561.246	48.28
561.589	48.12
561.931	48.04
562.273	48.2
562.615	48.02
562.957	48.5
563.299	48.35
563.641	48.1
563.983	48.25
564.325	48.46
564.667	48.14
565.008	48.45
565.35	48.68
565.692	48.51
566.033	48.64
566.375	48.81
566.716	48.61
567.058	48.64
567.399	48.57
567.741	48.51
568.082	48.29
568.423	48
568.764	48.16
569.105	48.18
569.447	48.37
569.788	48.28
570.129	48.46
570.47	48.82
570.811	49.04
571.151	48.82
571.492	48.57
571.833	48.77
572.174	48.98
572.514	48.92
572.855	49.25
573.195	48.89
573.536	48.97
573.876	49.02
574.217	48.78
574.557	48.66
574.898	48.79
575.238	48.55
575.578	49.17
575.918	49.02
576.258	49.08
576.598	49.27
576.938	49.09
577.278	49.15
577.618	49.23
577.958	49.19
578.298	49.29
578.638	49.29
578.977	49.54
579.317	49.42
579.657	49.67
579.996	49.7
580.336	49.59
580.675	49.66
581.014	50.34
581.354	49.87
581.693	50.29
582.032	50.22
582.372	50.21
582.711	50.17
583.05	50.24
583.389	50.38
583.728	50.17
584.067	50.34
584.406	50.57
584.745	50.24
585.083	50.6
585.422	50.42
585.761	50.82
586.1	50.63
586.438	50.6
586.777	50.54
587.115	50.47
587.454	51.11
587.792	51.09
588.13	50.63
588.469	50.49
588.807	50.88
589.145	50.7
589.483	50.68
589.821	50.85
590.159	50.84
590.497	50.83
590.835	50.89
591.173	50.83
591.511	50.88
591.849	50.53
592.187	50.92
592.524	50.7
592.862	50.81
593.2	50.74
593.537	50.97
593.875	51.04
594.212	51.25
594.55	50.96
594.887	51.05
595.224	51.48
595.561	51.32
595.899	50.9
596.236	51.23
596.573	51.06
596.91	51.17
597.247	51.68
597.584	51.38
597.921	51.16
598.258	51.43
598.594	51.39
598.931	51.1
599.268	50.75
599.604	50.56
599.941	50.79
600.277	50.84
600.614	51.24
600.95	51.47
601.287	51.56
601.623	51.88
601.959	51.93
602.296	51.7
602.632	51.97
602.968	52.1
603.304	51.87
603.64	51.76
603.976	51.86
604.312	51.78
604.648	51.7
604.984	51.8
605.319	51.8
605.655	51.83
605.991	51.62
606.326	51.65
606.662	51.09
606.998	50.76
607.333	51.21
607.668	51.51
608.004	51.33
608.339	51.82
608.674	51.7
609.01	52.24
609.345	52.24
609.68	52.23
610.015	52.08
610.35	52.26
610.685	52.75
611.02	52.43
611.355	52.34
611.689	51.39
612.024	51.79
612.359	52.24
612.694	52.17
613.028	52.16
613.363	52.5
613.697	52.37
614.032	52.7
614.366	52.35
614.7	52.61
615.035	52.62
615.369	52.94
615.703	52.83
616.037	52.81
616.371	53.03
616.705	53.21
617.039	53.03
617.373	53.2
617.707	53.11
618.041	53.01
618.375	53.1
618.709	52.44
619.042	52.98
619.376	53.66
619.71	53.12
620.043	53.33
620.377	53.36
620.71	53
621.043	53.65
621.377	53.28
621.71	53.3
622.043	52.9
622.376	53.68
622.709	53.67
623.043	53.75
623.376	53.43
623.709	53.88
624.041	54.03
624.374	53.3
624.707	53.54
625.04	54.11
625.373	54.11
625.705	54.07
626.038	54.03
626.37	54.19
626.703	53.75
627.035	53.98
627.368	54.18
627.7	53.84
628.032	54.13
628.365	53.95
628.697	53.76
629.029	53.25
629.361	53.46
629.693	53.41
630.025	53.68
630.357	53.34
630.689	53.24
631.021	54.05
631.353	54.32
631.684	54.12
632.016	54.11
632.348	54.25
632.679	54.33
633.011	54.49
633.342	54.38
633.674	54.34
634.005	54.19
634.336	54.53
634.668	54.6
634.999	54.24
635.33	54.05
635.661	54.59
635.992	54.31
636.323	54.53
636.654	54.16
636.985	54.37
637.316	54.21
637.647	54.59
637.977	54.48
638.308	54.42
638.639	54.17
638.969	54.54
639.3	54.53
639.63	55.36
639.961	54.73
640.291	54.32
640.622	54.91
640.952	54.98
641.282	54.74
641.612	55.12
641.943	54.83
642.273	55.36
642.603	54.31
642.933	54.52
643.263	54.92
643.592	55.1
643.922	56.16
644.252	55.33
644.582	55.85
644.911	55.72
645.241	55.28
645.571	55.81
645.9	56.09
646.23	55.53
646.559	55.38
646.888	55.49
647.218	55.3
647.547	55.77
647.876	55.88
648.205	55.4
648.534	55.88
648.863	55.82
649.192	55.84
649.521	55.92
649.85	55.83
650.179	55.65
650.508	55.9
650.837	55.34
651.165	55.14
651.494	55.27
651.822	55.9
652.151	55.44
652.479	55.89
652.808	55.71
653.136	55.39
653.465	56.02
653.793	55.69
654.121	56.27
654.449	56.53
654.777	55.45
655.105	56.35
655.433	56.02
655.761	55.96
656.089	55.71
656.417	55.55
656.745	55.47
657.073	56.82
657.4	56.3
657.728	56.52
658.056	56.04
658.383	56.32
658.711	56.37
659.038	56.24
659.365	56.66
659.693	56.23
660.02	56.4
660.347	56.41
660.674	56.07
661.001	56.36
661.329	56.4
661.656	55.91
661.982	55.8
662.309	55.62
662.636	56.22
662.963	56.28
663.29	56.89
663.616	56.02
663.943	56.72
664.27	56.75
664.596	56.51
664.923	56.61
665.249	56.93
665.576	57.19
665.902	56.95
666.228	56.54
666.554	56.32
666.881	56.45
667.207	56.63
667.533	57.48
667.859	56.68
668.185	57.08
668.511	57.4
668.837	57.12
669.162	56.85
