Data from 0175_forehead_Reflection__3__069.txt Node

Date: Mon Aug 28 19:14:17 CDT 2023
User: ToomeyLab
Spectrometer: FLMS14357
Trigger mode: 0
Integration Time (sec): 1.000000E-2
Scans to average: 100
Electric dark correction enabled: true
Nonlinearity correction enabled: false
Boxcar width: 0
XAxis mode: Wavelengths
Number of Pixels in Spectrum: 2048
>>>>>Begin Spectral Data<<<<<
189.047	-13.36
189.435	-13.36
189.823	-13.36
190.211	-4516.28
190.599	100.06
190.987	187.06
191.375	28.14
191.763	56.1
192.151	-37.77
192.538	56.13
192.926	153.81
193.314	226.19
193.702	52.25
194.089	188.09
194.477	-1348.24
194.864	-200
195.252	115.75
195.639	-2237.61
196.027	129.89
196.414	115.46
196.801	-7.98
197.189	151.55
197.576	545.57
197.963	-78.83
198.351	-19.01
198.738	48.18
199.125	46.78
199.512	49.22
199.899	3.33
200.286	93.89
200.673	13.76
201.06	10.78
201.447	-28.67
201.833	43.38
202.22	5.52
202.607	4.63
202.994	22.52
203.38	9.04
203.767	19.51
204.154	44.43
204.54	9.46
204.927	21.02
205.313	70.03
205.699	8.04
206.086	63.5
206.472	26.56
206.858	19.01
207.245	6.87
207.631	20.48
208.017	-9.7
208.403	10.62
208.789	4.44
209.175	-13.87
209.561	43.81
209.947	29.89
210.333	1.98
210.719	32.24
211.105	41.32
211.491	-12.87
211.876	44.88
212.262	12.76
212.648	30.34
213.034	-4.89
213.419	8.21
213.805	-6.95
214.19	3.55
214.576	28.64
214.961	30.53
215.346	2.74
215.732	35.79
216.117	-18.64
216.502	6.92
216.888	4.17
217.273	-19.01
217.658	32.12
218.043	26.07
218.428	3.76
218.813	4.93
219.198	7.14
219.583	7.94
219.968	22.87
220.353	-6.7
220.738	8.81
221.122	6.51
221.507	8.72
221.892	-3.96
222.276	23.87
222.661	14.43
223.046	6.74
223.43	11.39
223.815	15.48
224.199	22.09
224.583	16.4
224.968	15.83
225.352	13.49
225.736	1.1
226.121	15.44
226.505	10.99
226.889	8.38
227.273	10.16
227.657	4.75
228.041	11.27
228.425	6.8
228.809	5.86
229.193	6.15
229.577	7.61
229.961	5.74
230.344	6.16
230.728	4.91
231.112	4.93
231.495	5.24
231.879	5.08
232.263	7.05
232.646	5.07
233.03	6.01
233.413	8.02
233.797	4.46
234.18	6.32
234.563	4.89
234.946	9.09
235.33	7
235.713	4.13
236.096	7.15
236.479	4.87
236.862	7.5
237.245	7.25
237.628	6.38
238.011	7.48
238.394	6.69
238.777	8.34
239.16	5.73
239.543	3.48
239.925	8.01
240.308	4.44
240.691	5.37
241.073	3.46
241.456	5.92
241.838	5.36
242.221	6.68
242.603	6.44
242.986	5.85
243.368	6.48
243.75	5.6
244.133	5.75
244.515	5.4
244.897	6.2
245.279	5.58
245.661	5.05
246.043	6.2
246.425	5.67
246.807	6.21
247.189	5.71
247.571	6.29
247.953	6.01
248.335	5.95
248.717	5.52
249.098	5.38
249.48	5.52
249.862	5.48
250.243	5.43
250.625	5.88
251.006	5.6
251.388	6.28
251.769	5.87
252.151	5.85
252.532	4.6
252.913	6.38
253.295	5.27
253.676	5.08
254.057	5.75
254.438	5.67
254.819	5.63
255.2	6.69
255.581	5.82
255.962	6.85
256.343	7.42
256.724	4.91
257.105	5.36
257.486	6.58
257.867	5.92
258.247	5.8
258.628	7.19
259.009	5.38
259.389	5.2
259.77	6.48
260.15	5.17
260.531	5.18
260.911	5.58
261.292	5.42
261.672	5.49
262.052	5.11
262.432	5.4
262.813	5.59
263.193	5.44
263.573	5.16
263.953	6
264.333	5.37
264.713	5.07
265.093	6.3
265.473	5.86
265.853	4.61
266.233	5.11
266.612	6.49
266.992	4.81
267.372	5.64
267.752	6.13
268.131	5.48
268.511	5.14
268.89	5.8
269.27	4.94
269.649	5.21
270.029	5.66
270.408	5.77
270.787	5.9
271.167	5.47
271.546	4.79
271.925	5.5
272.304	5.65
272.683	5.85
273.062	5.4
273.441	5.62
273.82	5.25
274.199	4.8
274.578	5.34
274.957	5.73
275.336	5.61
275.715	5.83
276.093	5.2
276.472	4.89
276.851	4.71
277.229	5.57
277.608	5.53
277.986	5.39
278.365	5.19
278.743	5.62
279.122	5.2
279.5	4.82
279.878	4.77
280.257	5.53
280.635	5.15
281.013	5.7
281.391	5.25
281.769	4.87
282.147	5.37
282.525	5.75
282.903	5.13
283.281	5.34
283.659	5.72
284.037	5.58
284.415	5.25
284.792	5.13
285.17	4.94
285.548	4.87
285.925	5.42
286.303	5.3
286.68	5.82
287.058	5.3
287.435	4.99
287.813	5.28
288.19	5.53
288.567	5.29
288.945	5.46
289.322	5.45
289.699	5.83
290.076	5.82
290.453	5.38
290.83	4.69
291.207	5.53
291.584	5.5
291.961	5.6
292.338	5.37
292.715	5.07
293.092	5.34
293.469	5.32
293.845	5.27
294.222	5.34
294.599	6.06
294.975	5.7
295.352	5.65
295.728	5.8
296.105	5.63
296.481	6.31
296.858	6.2
297.234	5.76
297.61	6.41
297.986	6.09
298.363	6.13
298.739	5.85
299.115	5.64
299.491	6.18
299.867	6.27
300.243	6.5
300.619	6.26
300.995	6.41
301.371	6.2
301.746	6.63
302.122	6.04
302.498	6.37
302.874	6.93
303.249	6.73
303.625	6.54
304	6.4
304.376	6.31
304.751	6.44
305.127	7.24
305.502	6.86
305.878	6.98
306.253	6.53
306.628	6.95
307.003	7.07
307.378	7.13
307.754	7.66
308.129	7.06
308.504	6.8
308.879	7.29
309.254	7.41
309.629	7.21
310.003	7.34
310.378	7.13
310.753	7.35
311.128	7.58
311.502	7.76
311.877	7.63
312.252	7.72
312.626	7.18
313.001	7.25
313.375	8.01
313.75	7.52
314.124	7.44
314.498	7.51
314.873	8
315.247	8.15
315.621	7.88
315.995	8.59
316.369	8.53
316.743	8.03
317.117	8.26
317.491	7.93
317.865	7.79
318.239	8.19
318.613	8.47
318.987	8.38
319.361	8.46
319.734	8.69
320.108	9.07
320.482	8.9
320.855	8.14
321.229	9.1
321.602	8.58
321.976	8.27
322.349	9.32
322.723	8.74
323.096	9.4
323.469	8.98
323.843	8.51
324.216	9.63
324.589	9.16
324.962	9.51
325.335	9.62
325.708	9.25
326.081	9.58
326.454	9.85
326.827	9.34
327.2	9.31
327.573	9.24
327.945	10.07
328.318	10.13
328.691	9.34
329.063	9.1
329.436	9.86
329.809	10.25
330.181	10.2
330.553	9.55
330.926	10.03
331.298	10.22
331.671	10.47
332.043	9.72
332.415	10.65
332.787	10.31
333.159	10.21
333.532	10.73
333.904	10.34
334.276	10.31
334.648	10.7
335.02	10.94
335.391	10.62
335.763	10.53
336.135	10.71
336.507	10.53
336.879	10.37
337.25	11.01
337.622	10.39
337.993	11.17
338.365	10.89
338.736	11.3
339.108	10.87
339.479	10.8
339.851	10.96
340.222	11.66
340.593	11.01
340.964	11.31
341.336	11.08
341.707	10.71
342.078	11.09
342.449	11.7
342.82	11.75
343.191	11.64
343.562	11.71
343.933	11.29
344.303	11.68
344.674	12.05
345.045	11.38
345.416	11.76
345.786	12.35
346.157	11.87
346.527	11.52
346.898	12.15
347.268	11.78
347.639	11.81
348.009	11.57
348.38	12.55
348.75	12.3
349.12	11.75
349.49	12.15
349.861	12.06
350.231	12.22
350.601	12.68
350.971	12.69
351.341	12.82
351.711	12.65
352.081	12.35
352.45	12.98
352.82	12.91
353.19	13.12
353.56	13.45
353.929	13.06
354.299	12.6
354.669	13.23
355.038	13.64
355.408	13.38
355.777	13.08
356.147	12.97
356.516	13.26
356.885	13.16
357.254	13.09
357.624	13.32
357.993	13.69
358.362	13.33
358.731	13.68
359.1	13.5
359.469	13.77
359.838	13.56
360.207	13.6
360.576	14.05
360.945	13.84
361.314	13.7
361.682	13.55
362.051	14.05
362.42	13.85
362.788	13.88
363.157	13.94
363.525	13.98
363.894	14.1
364.262	14.09
364.631	14.07
364.999	13.99
365.367	14.31
365.735	14.41
366.104	14.24
366.472	14.54
366.84	14.38
367.208	14.67
367.576	14.26
367.944	14.53
368.312	14.94
368.68	14.57
369.048	14.84
369.416	14.69
369.783	14.92
370.151	14.96
370.519	15.01
370.886	15.03
371.254	15.16
371.621	15.19
371.989	15.33
372.356	15.31
372.724	15.98
373.091	15.49
373.458	15.55
373.826	15.53
374.193	15.82
374.56	15.48
374.927	15.77
375.294	15.81
375.661	15.87
376.028	15.79
376.395	15.83
376.762	16.2
377.129	15.97
377.496	16.04
377.863	15.95
378.229	16.06
378.596	16.3
378.963	16.42
379.329	16.53
379.696	16.42
380.062	16.09
380.429	16.14
380.795	16.57
381.161	16.52
381.528	16.68
381.894	16.6
382.26	16.69
382.626	16.97
382.993	16.75
383.359	16.85
383.725	16.87
384.091	16.95
384.457	16.94
384.823	17.11
385.188	17.04
385.554	16.94
385.92	16.99
386.286	17.33
386.651	17.04
387.017	17.19
387.383	17.45
387.748	17.6
388.114	17.38
388.479	17.38
388.845	17.44
389.21	17.31
389.575	17.94
389.94	17.67
390.306	17.78
390.671	18.04
391.036	18.07
391.401	18.15
391.766	18.05
392.131	18.28
392.496	17.92
392.861	17.94
393.226	18.21
393.591	18.15
393.956	18.2
394.32	18.23
394.685	18.31
395.05	18.29
395.414	18.57
395.779	18.43
396.143	18.42
396.508	18.41
396.872	18.81
397.236	18.71
397.601	18.52
397.965	18.87
398.329	18.86
398.694	19.01
399.058	18.86
399.422	19.01
399.786	18.91
400.15	19.17
400.514	19.21
400.878	19.14
401.242	19.23
401.605	19.44
401.969	19.14
402.333	19.59
402.697	19.41
403.06	19.85
403.424	19.54
403.787	19.45
404.151	19.55
404.514	19.64
404.878	19.61
405.241	19.65
405.604	19.71
405.968	19.59
406.331	19.96
406.694	19.84
407.057	19.64
407.42	19.92
407.783	19.76
408.146	19.83
408.509	19.91
408.872	19.76
409.235	19.93
409.598	20.26
409.961	20.07
410.323	20.41
410.686	20.59
411.049	20.61
411.411	20.33
411.774	20.27
412.136	20.31
412.499	20.43
412.861	20.36
413.223	20.48
413.586	20.38
413.948	20.64
414.31	20.88
414.672	20.77
415.035	20.92
415.397	20.75
415.759	20.92
416.121	21.02
416.483	20.95
416.845	21.09
417.206	21.11
417.568	21.12
417.93	21.06
418.292	20.93
418.653	21.16
419.015	21.26
419.377	21.08
419.738	21.15
420.1	21.34
420.461	21.13
420.822	21.43
421.184	21.23
421.545	21.29
421.906	21.43
422.267	21.48
422.629	21.34
422.99	21.38
423.351	21.35
423.712	21.29
424.073	21.51
424.434	21.6
424.795	21.83
425.155	21.7
425.516	21.81
425.877	21.83
426.238	21.68
426.598	21.74
426.959	21.83
427.32	22.04
427.68	22.25
428.041	22.32
428.401	22.4
428.761	22.57
429.122	22.77
429.482	22.91
429.842	22.88
430.202	23.14
430.563	23.27
430.923	23.29
431.283	23.26
431.643	23.22
432.003	23.29
432.363	23.6
432.722	23.63
433.082	23.67
433.442	23.6
433.802	23.74
434.161	23.69
434.521	23.61
434.881	23.69
435.24	23.46
435.6	23.71
435.959	23.64
436.319	23.76
436.678	23.91
437.037	24.16
437.396	24.2
437.756	24.43
438.115	24.29
438.474	24.42
438.833	24.45
439.192	24.69
439.551	24.6
439.91	24.7
440.269	24.44
440.628	24.5
440.987	24.67
441.345	24.58
441.704	24.56
442.063	24.49
442.421	24.5
442.78	24.75
443.138	24.66
443.497	24.6
443.855	24.83
444.214	25.09
444.572	25.09
444.93	25.28
445.288	25.28
445.647	25.43
446.005	25.48
446.363	25.56
446.721	25.41
447.079	25.42
447.437	25.28
447.795	25.07
448.153	25.29
448.51	25.06
448.868	25.14
449.226	25.19
449.584	25.33
449.941	25.5
450.299	25.81
450.656	25.82
451.014	26.02
451.371	26
451.729	26.12
452.086	26.14
452.443	26.56
452.801	26.62
453.158	26.54
453.515	26.78
453.872	26.67
454.229	26.86
454.586	26.82
454.943	26.73
455.3	26.63
455.657	26.76
456.014	26.69
456.371	26.74
456.727	26.98
457.084	27.01
457.441	27.04
457.797	27.18
458.154	27.25
458.51	27.63
458.867	27.38
459.223	27.29
459.58	27.37
459.936	27.57
460.292	27.67
460.648	27.35
461.005	27.36
461.361	27.35
461.717	27.1
462.073	26.95
462.429	26.94
462.785	27.07
463.141	27.32
463.496	27.6
463.852	27.67
464.208	27.97
464.564	28.23
464.919	28.12
465.275	28.57
465.631	28.21
465.986	28.47
466.342	28.44
466.697	28.51
467.052	28.36
467.408	28.58
467.763	28.6
468.118	28.74
468.473	28.55
468.829	28.67
469.184	28.6
469.539	28.58
469.894	28.47
470.249	28.77
470.603	28.62
470.958	28.88
471.313	28.95
471.668	28.99
472.023	29.3
472.377	29.12
472.732	29.15
473.086	29.23
473.441	29.41
473.795	29.27
474.15	29.62
474.504	29.67
474.859	29.67
475.213	29.66
475.567	29.47
475.921	29.78
476.275	29.61
476.63	29.82
476.984	29.67
477.338	30.14
477.692	29.95
478.045	30.16
478.399	30.02
478.753	29.91
479.107	29.93
479.461	29.88
479.814	30.15
480.168	30.23
480.521	30.05
480.875	30.18
481.228	29.98
481.582	30.25
481.935	30.32
482.289	30.35
482.642	30.45
482.995	30.48
483.348	30.42
483.701	30.32
484.055	30.17
484.408	30.15
484.761	30.15
485.114	30.05
485.466	29.72
485.819	29.41
486.172	29.21
486.525	29.2
486.878	29.08
487.23	29.23
487.583	29.59
487.936	29.89
488.288	30.12
488.641	30.24
488.993	30.3
489.345	29.96
489.698	29.88
490.05	29.82
490.402	29.79
490.754	29.94
491.107	30.14
491.459	30.35
491.811	30.55
492.163	30.93
492.515	31.15
492.866	31.21
493.218	31.05
493.57	30.63
493.922	30.35
494.274	30.37
494.625	30.38
494.977	30.59
495.328	31.04
495.68	31.22
496.031	31.66
496.383	31.9
496.734	31.95
497.086	32.29
497.437	32.19
497.788	32.18
498.139	32.16
498.49	32.13
498.842	32.17
499.193	31.84
499.544	31.87
499.894	31.98
500.245	32.13
500.596	32.28
500.947	32.22
501.298	32.35
501.648	32.44
501.999	32.48
502.35	32.58
502.7	32.78
503.051	32.8
503.401	32.79
503.752	32.73
504.102	33.2
504.452	32.79
504.803	32.96
505.153	33.13
505.503	32.94
505.853	33.12
506.203	33.1
506.553	33
506.903	33.17
507.253	33.1
507.603	33
507.953	33.27
508.303	33.21
508.652	33.48
509.002	33.61
509.352	33.23
509.701	33.35
510.051	33.35
510.4	33.35
510.75	33.16
511.099	33.22
511.449	33.19
511.798	33.26
512.147	33.35
512.496	33.58
512.846	33.51
513.195	33.64
513.544	33.71
513.893	33.54
514.242	33.7
514.591	33.63
514.939	33.48
515.288	33.82
515.637	34
515.986	33.88
516.334	33.94
516.683	34.09
517.032	33.96
517.38	34.15
517.729	34.13
518.077	34.19
518.426	34.29
518.774	34.37
519.122	34.36
519.47	34.22
519.819	34.12
520.167	33.97
520.515	33.83
520.863	33.48
521.211	33.67
521.559	33.47
521.907	33.74
522.255	33.81
522.602	33.99
522.95	34.49
523.298	34.54
523.645	34.65
523.993	34.57
524.341	34.8
524.688	34.81
525.036	34.89
525.383	34.74
525.73	35.02
526.078	35.07
526.425	35.01
526.772	34.87
527.119	34.79
527.466	34.45
527.814	34.13
528.161	34.15
528.508	34.15
528.854	34.34
529.201	34.58
529.548	34.54
529.895	34.66
530.242	34.37
530.588	33.82
530.935	33.6
531.282	33.52
531.628	33.64
531.975	33.66
532.321	33.93
532.667	34.1
533.014	34.45
533.36	34.58
533.706	34.69
534.052	34.98
534.399	34.94
534.745	34.95
535.091	34.79
535.437	34.38
535.783	34.38
536.129	34.3
536.474	34.58
536.82	34.79
537.166	34.97
537.512	35.12
537.857	35.52
538.203	35.48
538.549	35.16
538.894	35.1
539.239	34.95
539.585	35.06
539.93	35.21
540.276	35.38
540.621	35.73
540.966	35.9
541.311	36.11
541.656	36.2
542.001	36.08
542.346	36.21
542.691	35.89
543.036	35.65
543.381	35.04
543.726	34.67
544.071	34.84
544.415	34.95
544.76	35.11
545.105	35.3
545.449	35.37
545.794	35.5
546.138	35.58
546.483	36.01
546.827	36.09
547.171	36.2
547.516	36.18
547.86	36.27
548.204	36.35
548.548	36.28
548.892	36.04
549.236	36.15
549.58	36.02
549.924	36.46
550.268	36.55
550.612	36.7
550.956	36.99
551.3	36.93
551.643	37.11
551.987	37.26
552.33	37.15
552.674	37.34
553.017	37.4
553.361	37.31
553.704	37.27
554.048	37.45
554.391	37.31
554.734	37.4
555.077	37.14
555.42	37.11
555.764	37.09
556.107	37.26
556.45	37.42
556.793	37.56
557.135	37.61
557.478	37.58
557.821	37.94
558.164	37.84
558.507	37.85
558.849	38.05
559.192	37.97
559.534	37.89
559.877	38.05
560.219	38.04
560.562	38.05
560.904	37.68
561.246	38.03
561.589	38.17
561.931	38.11
562.273	37.99
562.615	37.99
562.957	38.15
563.299	38.26
563.641	38.04
563.983	38.25
564.325	38.27
564.667	38.38
565.008	38.29
565.35	38.69
565.692	38.41
566.033	38.58
566.375	38.28
566.716	38.39
567.058	38.79
567.399	38.5
567.741	38.52
568.082	38.43
568.423	38.14
568.764	37.95
569.105	38.2
569.447	38.16
569.788	38.33
570.129	38.48
570.47	38.52
570.811	38.85
571.151	38.61
571.492	38.58
571.833	38.71
572.174	38.62
572.514	38.76
572.855	38.78
573.195	38.71
573.536	38.78
573.876	38.5
574.217	38.47
574.557	38.48
574.898	38.77
575.238	38.67
575.578	38.95
575.918	38.9
576.258	38.71
576.598	38.93
576.938	38.82
577.278	39.1
577.618	38.9
577.958	38.87
578.298	39
578.638	39.14
578.977	38.9
579.317	39.27
579.657	39
579.996	39.35
580.336	39.41
580.675	39.54
581.014	39.76
581.354	39.79
581.693	40.07
582.032	39.69
582.372	40.03
582.711	39.92
583.05	39.9
583.389	39.97
583.728	39.88
584.067	40.18
584.406	39.99
584.745	39.9
585.083	39.97
585.422	40.01
585.761	40.07
586.1	40.34
586.438	40.16
586.777	40.19
587.115	40.06
587.454	40.1
587.792	40.46
588.13	40.27
588.469	39.99
588.807	40.14
589.145	40.37
589.483	40.48
589.821	40.28
590.159	40.38
590.497	40.44
590.835	40.35
591.173	40.28
591.511	40.28
591.849	40.34
592.187	40.32
592.524	40.15
592.862	40.23
593.2	40.25
593.537	40.51
593.875	40.57
594.212	40.57
594.55	40.59
594.887	40.71
595.224	40.82
595.561	40.58
595.899	40.65
596.236	40.63
596.573	40.92
596.91	40.89
597.247	40.96
597.584	40.88
597.921	40.74
598.258	40.64
598.594	40.8
598.931	40.7
599.268	40.08
599.604	40.14
599.941	40.32
600.277	40.29
600.614	40.68
600.95	40.89
601.287	41.1
601.623	41.13
601.959	40.91
602.296	41.18
602.632	41.05
602.968	41.21
603.304	41.02
603.64	40.88
603.976	41.16
604.312	41.39
604.648	41.24
604.984	41.22
605.319	41.32
605.655	40.98
605.991	41.2
606.326	40.93
606.662	40.82
606.998	40.61
607.333	40.57
607.668	40.88
608.004	40.95
608.339	41.32
608.674	41.1
609.01	41.77
609.345	41.91
609.68	41.81
610.015	41.88
610.35	41.72
610.685	41.66
611.02	41.5
611.355	41.47
611.689	40.89
612.024	41.28
612.359	41.37
612.694	41.34
613.028	41.03
613.363	41.51
613.697	41.63
614.032	42.09
614.366	41.51
614.7	42.22
615.035	41.69
615.369	41.93
615.703	42.24
616.037	42.08
616.371	42.14
616.705	41.74
617.039	42.3
617.373	42.35
617.707	41.93
618.041	42.37
618.375	42.11
618.709	42.05
619.042	42.3
619.376	42.27
619.71	42.48
620.043	42.41
620.377	42.5
620.71	42.32
621.043	42.42
621.377	42.18
621.71	41.91
622.043	42.38
622.376	42.45
622.709	42.27
623.043	42.41
623.376	42.63
623.709	42.44
624.041	43
624.374	42.28
624.707	42.16
625.04	42.97
625.373	42.83
625.705	42.8
626.038	43.05
626.37	42.89
626.703	42.86
627.035	42.8
627.368	42.86
627.7	42.97
628.032	42.93
628.365	42.84
628.697	42.88
629.029	42.47
629.361	42.76
629.693	42.58
630.025	42.65
630.357	42.25
630.689	42.9
631.021	42.96
631.353	43.04
631.684	43.08
632.016	43.18
632.348	43.37
632.679	43.03
633.011	42.91
633.342	42.91
633.674	43.31
634.005	43.47
634.336	43.22
634.668	43.52
634.999	43.39
635.33	43.43
635.661	43.26
635.992	42.76
636.323	43.36
636.654	42.79
636.985	43.52
637.316	43.18
637.647	43.44
637.977	43.09
638.308	43.33
638.639	43.64
638.969	43.63
639.3	43.48
639.63	43.41
639.961	43.88
640.291	43.54
640.622	43.83
640.952	43.57
641.282	43.98
641.612	43.91
641.943	44.02
642.273	44.32
642.603	43.3
642.933	43.52
643.263	43.88
643.592	43.57
643.922	43.74
644.252	43.93
644.582	43.98
644.911	44.08
645.241	44.17
645.571	43.92
645.9	43.65
646.23	43.63
646.559	44.2
646.888	44.6
647.218	44.36
647.547	43.64
647.876	44.24
648.205	43.96
648.534	44.6
648.863	44.36
649.192	44.58
649.521	43.81
649.85	44.18
650.179	44.17
650.508	44
650.837	44.07
651.165	44.31
651.494	43.61
651.822	43.71
652.151	43.85
652.479	44.5
652.808	44.53
653.136	44.54
653.465	44.5
653.793	44.54
654.121	45
654.449	44.81
654.777	44.27
655.105	45.05
655.433	44.63
655.761	44.2
656.089	44.4
656.417	44.49
656.745	44.53
657.073	44.16
657.4	44.38
657.728	44.89
658.056	45.28
658.383	44.76
658.711	45.2
659.038	45.15
659.365	45.19
659.693	44.9
660.02	44.84
660.347	45.4
660.674	44.43
661.001	45.08
661.329	44.59
661.656	44.29
661.982	44.46
662.309	44.89
662.636	44.9
662.963	45.09
663.29	45.22
663.616	44.69
663.943	44.23
664.27	45.29
664.596	45.57
664.923	45.25
665.249	45.28
665.576	45.29
665.902	44.75
666.228	45.02
666.554	45.21
666.881	44.62
667.207	44.72
667.533	45.37
667.859	44.63
668.185	45.19
668.511	45.4
668.837	45.64
669.162	45.5
669.488	45.14
669.814	44.78
670.139	45.52
670.465	45.71
