Data from 0175_forehead_Reflection__1__067.txt Node

Date: Mon Aug 28 19:13:55 CDT 2023
User: ToomeyLab
Spectrometer: FLMS14357
Trigger mode: 0
Integration Time (sec): 1.000000E-2
Scans to average: 100
Electric dark correction enabled: true
Nonlinearity correction enabled: false
Boxcar width: 0
XAxis mode: Wavelengths
Number of Pixels in Spectrum: 2048
>>>>>Begin Spectral Data<<<<<
189.047	-54.88
189.435	-54.88
189.823	-54.88
190.211	3548.84
190.599	276.41
190.987	94.44
191.375	-49.03
191.763	69.85
192.151	-97.89
192.538	105.53
192.926	200.75
193.314	-316.48
193.702	62.68
194.089	67.83
194.477	-854.12
194.864	-228.41
195.252	98.01
195.639	-1331.62
196.027	69.82
196.414	-18.67
196.801	162.63
197.189	161.44
197.576	-235.43
197.963	-141.75
198.351	72.25
198.738	46.66
199.125	-25.19
199.512	2.04
199.899	9.87
200.286	56.64
200.673	20.97
201.06	18.47
201.447	-3.63
201.833	-0.07
202.22	49.45
202.607	-2.54
202.994	-3.27
203.38	31.73
203.767	18.47
204.154	14.52
204.54	-25.95
204.927	-16.92
205.313	28.55
205.699	13.71
206.086	35.11
206.472	8.12
206.858	34.81
207.245	18.1
207.631	20.21
208.017	10.2
208.403	11.46
208.789	4.48
209.175	-42.12
209.561	-3.25
209.947	7.04
210.333	-18.9
210.719	13.54
211.105	25.79
211.491	-3.85
211.876	42.58
212.262	105.65
212.648	33.25
213.034	6.79
213.419	5.8
213.805	0.84
214.19	4
214.576	27.71
214.961	-62.18
215.346	14.8
215.732	13.45
216.117	3.81
216.502	2.16
216.888	-3.06
217.273	6.7
217.658	40.54
218.043	3.83
218.428	-15.19
218.813	11.94
219.198	34.98
219.583	9.19
219.968	24.76
220.353	-19.68
220.738	9.2
221.122	2.48
221.507	8.75
221.892	26.7
222.276	1.06
222.661	7.24
223.046	6.07
223.43	11.82
223.815	11.88
224.199	11.37
224.583	9.38
224.968	10.5
225.352	18.27
225.736	13.52
226.121	2.59
226.505	-3.02
226.889	13.44
227.273	10.53
227.657	7
228.041	5.07
228.425	6.19
228.809	6.94
229.193	7.39
229.577	4.72
229.961	4.35
230.344	5.26
230.728	3.99
231.112	3.4
231.495	4.49
231.879	3.91
232.263	3.28
232.646	3.28
233.03	3.91
233.413	7.17
233.797	3.7
234.18	5.03
234.563	2.49
234.946	9.72
235.33	5.24
235.713	2.17
236.096	4.86
236.479	5.65
236.862	4.08
237.245	4.28
237.628	4.96
238.011	5.57
238.394	4.6
238.777	8.29
239.16	4.03
239.543	1.43
239.925	7.11
240.308	3.76
240.691	3.86
241.073	3.56
241.456	4.51
241.838	4.27
242.221	5.3
242.603	4.98
242.986	5.28
243.368	3.67
243.75	4.11
244.133	4.09
244.515	4.07
244.897	4.85
245.279	4.34
245.661	4.11
246.043	4.91
246.425	5
246.807	5.84
247.189	4.03
247.571	4.48
247.953	4.58
248.335	4.35
248.717	4.28
249.098	3.96
249.48	4.15
249.862	4.02
250.243	4.5
250.625	4.99
251.006	4.64
251.388	4.75
251.769	4.76
252.151	3.42
252.532	4.3
252.913	5.6
253.295	3.38
253.676	4.24
254.057	4.64
254.438	3.94
254.819	4.35
255.2	4.73
255.581	5.09
255.962	5.3
256.343	6.26
256.724	4.13
257.105	3.49
257.486	4.72
257.867	4.42
258.247	4.89
258.628	5.38
259.009	4.17
259.389	3.55
259.77	4.4
260.15	4.14
260.531	4.22
260.911	3.98
261.292	4.32
261.672	4.31
262.052	3.86
262.432	4.17
262.813	4.19
263.193	4.3
263.573	4.15
263.953	4.67
264.333	3.7
264.713	3.94
265.093	4.82
265.473	4.29
265.853	4.05
266.233	3.88
266.612	4.82
266.992	4.72
267.372	4.4
267.752	4.82
268.131	4.04
268.511	4.42
268.89	4.73
269.27	3.81
269.649	3.81
270.029	4.65
270.408	4.24
270.787	4.95
271.167	4.87
271.546	4.12
271.925	4.4
272.304	3.98
272.683	4.54
273.062	4.34
273.441	4.06
273.82	4.05
274.199	3.7
274.578	4.2
274.957	4.14
275.336	4.49
275.715	4.33
276.093	3.74
276.472	3.99
276.851	3.93
277.229	4.26
277.608	4.24
277.986	3.79
278.365	4.37
278.743	3.85
279.122	4.44
279.5	3.78
279.878	3.52
280.257	3.92
280.635	4.16
281.013	4.12
281.391	4.82
281.769	3.61
282.147	4.1
282.525	4.3
282.903	4.2
283.281	3.41
283.659	4.72
284.037	4.26
284.415	4.18
284.792	4.34
285.17	3.68
285.548	3.61
285.925	4.55
286.303	4.08
286.68	4.02
287.058	4.25
287.435	4.03
287.813	3.98
288.19	4.51
288.567	4.36
288.945	4.28
289.322	4.13
289.699	4.76
290.076	4.82
290.453	4.34
290.83	4.16
291.207	4.25
291.584	4.7
291.961	4.57
292.338	4.25
292.715	3.9
293.092	4.82
293.469	4.51
293.845	4.65
294.222	4.5
294.599	4.67
294.975	4.81
295.352	4.47
295.728	4.67
296.105	4.77
296.481	5.34
296.858	5.17
297.234	5.12
297.61	4.58
297.986	4.9
298.363	5.17
298.739	5.11
299.115	4.85
299.491	5.33
299.867	5.07
300.243	5.39
300.619	5.18
300.995	5.56
301.371	5.16
301.746	5.43
302.122	5.43
302.498	5.6
302.874	5.75
303.249	5.4
303.625	5.83
304	5.83
304.376	5.7
304.751	5.33
305.127	5.96
305.502	5.62
305.878	5.64
306.253	5.67
306.628	6.08
307.003	6.04
307.378	6.07
307.754	6.56
308.129	6.72
308.504	6.68
308.879	6.33
309.254	6.39
309.629	6.41
310.003	6.6
310.378	6.17
310.753	6.98
311.128	6.73
311.502	6.82
311.877	6.69
312.252	6.98
312.626	6.62
313.001	6.98
313.375	7.01
313.75	7.24
314.124	6.85
314.498	6.86
314.873	7.34
315.247	7.71
315.621	7.22
315.995	7.95
316.369	7.59
316.743	7.57
317.117	7.62
317.491	7
317.865	7.37
318.239	7.73
318.613	8.23
318.987	8.31
319.361	7.98
319.734	7.85
320.108	8.01
320.482	8.79
320.855	8.19
321.229	8.62
321.602	8.62
321.976	8.18
322.349	8.55
322.723	9.09
323.096	8.88
323.469	8.53
323.843	8.42
324.216	9.06
324.589	9.31
324.962	9.06
325.335	9.3
325.708	8.84
326.081	9.16
326.454	9.19
326.827	9.53
327.2	9.5
327.573	9.34
327.945	9.61
328.318	9.74
328.691	9.3
329.063	8.92
329.436	9.32
329.809	10.15
330.181	9.83
330.553	9.63
330.926	9.97
331.298	10.06
331.671	9.36
332.043	9.66
332.415	10.58
332.787	9.97
333.159	9.79
333.532	10.85
333.904	9.99
334.276	10.32
334.648	10.43
335.02	10.62
335.391	10.3
335.763	10.54
336.135	11
336.507	10.48
336.879	10.28
337.25	10.86
337.622	10.83
337.993	11.24
338.365	11.01
338.736	11.13
339.108	10.85
339.479	10.47
339.851	11.03
340.222	11.36
340.593	11.01
340.964	11.22
341.336	11.56
341.707	11.39
342.078	11.21
342.449	11.11
342.82	11.48
343.191	11.33
343.562	11.11
343.933	11.59
344.303	11.66
344.674	11.47
345.045	11.61
345.416	12.03
345.786	11.96
346.157	11.86
346.527	11.74
346.898	11.95
347.268	11.73
347.639	11.35
348.009	12.12
348.38	12.39
348.75	12.28
349.12	12.44
349.49	12.12
349.861	12.24
350.231	12.46
350.601	12.95
350.971	12.68
351.341	12.57
351.711	12.8
352.081	12.91
352.45	12.63
352.82	12.87
353.19	13.38
353.56	13.36
353.929	13.13
354.299	13.32
354.669	13.51
355.038	13.06
355.408	13.32
355.777	13.35
356.147	13.54
356.516	13.54
356.885	13.49
357.254	13.75
357.624	13.47
357.993	13.83
358.362	13.62
358.731	13.73
359.1	14
359.469	13.8
359.838	13.71
360.207	13.98
360.576	14.13
360.945	14.3
361.314	13.76
361.682	13.99
362.051	14.36
362.42	14.24
362.788	14.22
363.157	14.44
363.525	14.36
363.894	14.29
364.262	14.45
364.631	14.2
364.999	14.61
365.367	14.76
365.735	15.08
366.104	14.71
366.472	14.56
366.84	15.12
367.208	15.15
367.576	14.75
367.944	14.99
368.312	15.69
368.68	15.34
369.048	15.23
369.416	15.29
369.783	15.47
370.151	15.54
370.519	15.57
370.886	15.66
371.254	15.61
371.621	15.67
371.989	16.07
372.356	15.78
372.724	16.13
373.091	15.98
373.458	15.59
373.826	16.3
374.193	15.87
374.56	16.09
374.927	16.12
375.294	16.36
375.661	16.74
376.028	16.53
376.395	16.17
376.762	16.81
377.129	16.63
377.496	16.42
377.863	16.61
378.229	16.52
378.596	17.28
378.963	16.99
379.329	17
379.696	16.77
380.062	16.84
380.429	16.87
380.795	17.17
381.161	17.05
381.528	17.46
381.894	17.2
382.26	17.45
382.626	17.38
382.993	17.27
383.359	17.46
383.725	17.67
384.091	17.61
384.457	17.58
384.823	17.65
385.188	18.08
385.554	17.65
385.92	17.81
386.286	17.96
386.651	18.1
387.017	18.18
387.383	18.21
387.748	17.98
388.114	18.24
388.479	18.13
388.845	18.54
389.21	18.31
389.575	18.5
389.94	18.4
390.306	18.64
390.671	18.75
391.036	18.51
391.401	18.9
391.766	19.11
392.131	18.95
392.496	18.75
392.861	18.95
393.226	19.23
393.591	18.68
393.956	19.25
394.32	18.91
394.685	19.22
395.05	19.44
395.414	19.24
395.779	19.16
396.143	19.09
396.508	19.19
396.872	19.6
397.236	19.21
397.601	19.65
397.965	19.85
398.329	19.64
398.694	19.83
399.058	19.79
399.422	19.98
399.786	19.77
400.15	20.07
400.514	20.02
400.878	20.04
401.242	20.34
401.605	20.02
401.969	19.99
402.333	20.42
402.697	20.31
403.06	20.41
403.424	20.49
403.787	20.4
404.151	20.4
404.514	20.63
404.878	20.56
405.241	20.97
405.604	20.7
405.968	20.37
406.331	20.93
406.694	20.63
407.057	20.69
407.42	20.61
407.783	20.84
408.146	20.8
408.509	20.96
408.872	21.03
409.235	21.03
409.598	21.19
409.961	21.18
410.323	21.2
410.686	21.4
411.049	21.5
411.411	21.37
411.774	21.51
412.136	21.07
412.499	21.27
412.861	21.6
413.223	21.68
413.586	21.73
413.948	21.67
414.31	21.86
414.672	21.93
415.035	21.92
415.397	22
415.759	22.16
416.121	22.3
416.483	22.17
416.845	22.27
417.206	22.61
417.568	22.33
417.93	21.84
418.292	22.04
418.653	22.11
419.015	22.34
419.377	21.98
419.738	22.37
420.1	22.11
420.461	22.21
420.822	22.27
421.184	22.43
421.545	22.43
421.906	22.33
422.267	22.28
422.629	22.35
422.99	22.3
423.351	22.31
423.712	22.19
424.073	22.4
424.434	22.74
424.795	22.79
425.155	22.86
425.516	22.85
425.877	22.69
426.238	22.62
426.598	22.56
426.959	22.89
427.32	22.92
427.68	23.12
428.041	23.4
428.401	23.49
428.761	23.72
429.122	23.78
429.482	23.94
429.842	24.14
430.202	24.08
430.563	23.97
430.923	24.22
431.283	24.2
431.643	24.12
432.003	24.32
432.363	24.28
432.722	24.59
433.082	24.41
433.442	24.87
433.802	24.49
434.161	24.83
434.521	24.63
434.881	24.55
435.24	24.44
435.6	24.56
435.959	24.47
436.319	24.79
436.678	24.89
437.037	25.07
437.396	25.16
437.756	25.27
438.115	25.5
438.474	25.51
438.833	25.42
439.192	25.55
439.551	25.38
439.91	25.64
440.269	25.37
440.628	25.53
440.987	25.45
441.345	25.53
441.704	25.23
442.063	25.46
442.421	25.49
442.78	25.72
443.138	25.46
443.497	25.56
443.855	25.7
444.214	25.9
444.572	26.07
444.93	26.43
445.288	26.05
445.647	26.22
446.005	26.45
446.363	26.34
446.721	26.41
447.079	26.32
447.437	25.96
447.795	25.9
448.153	25.97
448.51	25.94
448.868	26.01
449.226	25.97
449.584	26.25
449.941	26.47
450.299	26.7
450.656	26.6
451.014	26.8
451.371	26.87
451.729	27
452.086	27.24
452.443	27.39
452.801	27.57
453.158	27.58
453.515	27.47
453.872	27.49
454.229	27.48
454.586	27.6
454.943	27.4
455.3	27.54
455.657	27.49
456.014	27.65
456.371	27.6
456.727	27.74
457.084	27.83
457.441	27.84
457.797	27.96
458.154	27.95
458.51	28.4
458.867	28.24
459.223	28.4
459.58	28.42
459.936	28.34
460.292	28.36
460.648	28.3
461.005	28.12
461.361	28.09
461.717	27.77
462.073	27.68
462.429	27.73
462.785	27.95
463.141	28.21
463.496	28.3
463.852	28.57
464.208	28.77
464.564	28.99
464.919	28.92
465.275	29.1
465.631	29.02
465.986	29.26
466.342	29.56
466.697	29.09
467.052	29.17
467.408	29.05
467.763	29.23
468.118	29.24
468.473	29.65
468.829	29.48
469.184	29.44
469.539	29.6
469.894	29.27
470.249	29.72
470.603	29.65
470.958	29.73
471.313	29.81
471.668	29.73
472.023	29.72
472.377	29.96
472.732	29.85
473.086	29.87
473.441	30.21
473.795	30.28
474.15	30.25
474.504	30.31
474.859	30.28
475.213	30.29
475.567	30.25
475.921	30.66
476.275	30.53
476.63	30.57
476.984	30.48
477.338	30.75
477.692	30.89
478.045	30.9
478.399	30.68
478.753	30.45
479.107	30.58
479.461	30.85
479.814	30.92
480.168	30.81
480.521	30.68
480.875	30.73
481.228	30.73
481.582	30.93
481.935	31.06
482.289	30.94
482.642	31.1
482.995	31.12
483.348	31.12
483.701	30.97
484.055	30.73
484.408	30.76
484.761	30.64
485.114	30.47
485.466	30.08
485.819	29.68
486.172	29.5
486.525	29.56
486.878	29.79
487.23	30.08
487.583	30.52
487.936	30.82
488.288	30.92
488.641	30.95
488.993	30.71
489.345	30.46
489.698	30.33
490.05	30.27
490.402	30.31
490.754	30.46
491.107	30.78
491.459	31.1
491.811	31.36
492.163	31.68
492.515	31.88
492.866	31.7
493.218	31.38
493.57	30.96
493.922	30.67
494.274	30.84
494.625	31.1
494.977	31.47
495.328	31.86
495.68	32.25
496.031	32.54
496.383	32.47
496.734	32.78
497.086	33.01
497.437	32.88
497.788	32.85
498.139	32.82
498.49	32.77
498.842	32.7
499.193	32.48
499.544	32.38
499.894	32.61
500.245	32.64
500.596	32.68
500.947	32.83
501.298	32.96
501.648	33
501.999	33.26
502.35	33.06
502.7	33.39
503.051	33.65
503.401	33.58
503.752	33.57
504.102	33.67
504.452	33.42
504.803	33.58
505.153	33.62
505.503	33.59
505.853	33.65
506.203	33.86
506.553	33.54
506.903	33.6
507.253	33.82
507.603	33.42
507.953	33.81
508.303	33.94
508.652	34.14
509.002	34.12
509.352	34.07
509.701	33.92
510.051	33.78
510.4	33.82
510.75	33.8
511.099	33.75
511.449	33.59
511.798	33.74
512.147	33.97
512.496	34.04
512.846	34.16
513.195	34.31
513.544	34.18
513.893	34.13
514.242	34.15
514.591	34.08
514.939	34.19
515.288	34.43
515.637	34.57
515.986	34.58
516.334	34.74
516.683	34.79
517.032	34.66
517.38	34.95
517.729	34.74
518.077	34.84
518.426	34.78
518.774	34.81
519.122	34.85
519.47	34.55
519.819	34.58
520.167	34.43
520.515	34.13
520.863	33.94
521.211	34.24
521.559	34.31
521.907	34.3
522.255	34.47
522.602	34.77
522.95	35.07
523.298	35.08
523.645	35.1
523.993	35.27
524.341	35.45
524.688	35.51
525.036	35.45
525.383	35.47
525.73	35.6
526.078	35.58
526.425	35.46
526.772	35.45
527.119	35.12
527.466	34.92
527.814	34.61
528.161	34.49
528.508	34.68
528.854	34.82
529.201	35.2
529.548	35.22
529.895	35.09
530.242	34.57
530.588	34.09
530.935	33.76
531.282	33.88
531.628	34.18
531.975	34.38
532.321	34.75
532.667	34.87
533.014	35.24
533.36	35.44
533.706	35.31
534.052	35.46
534.399	35.49
534.745	35.5
535.091	35.21
535.437	34.72
535.783	34.71
536.129	34.93
536.474	35.15
536.82	35.52
537.166	35.75
537.512	36.09
537.857	36.15
538.203	35.93
538.549	35.71
538.894	35.37
539.239	35.44
539.585	35.76
539.93	35.81
540.276	36.11
540.621	36.43
540.966	36.66
541.311	36.67
541.656	36.8
542.001	36.56
542.346	36.73
542.691	36.37
543.036	36.02
543.381	35.3
543.726	34.98
544.071	35.36
544.415	35.65
544.76	35.82
545.105	36.12
545.449	36.2
545.794	36.34
546.138	36.44
546.483	36.62
546.827	36.69
547.171	36.89
547.516	36.94
547.86	36.93
548.204	36.73
548.548	36.93
548.892	36.59
549.236	36.5
549.58	36.74
549.924	37.11
550.268	37.38
550.612	37.41
550.956	37.77
551.3	37.7
551.643	37.73
551.987	37.7
552.33	37.9
552.674	38.07
553.017	37.99
553.361	38.13
553.704	37.97
554.048	37.96
554.391	37.75
554.734	37.86
555.077	37.73
555.42	37.59
555.764	37.97
556.107	37.93
556.45	38.32
556.793	37.86
557.135	38.35
557.478	38.3
557.821	38.62
558.164	38.61
558.507	38.6
558.849	38.79
559.192	38.61
559.534	38.58
559.877	38.77
560.219	38.91
560.562	38.88
560.904	38.85
561.246	38.82
561.589	38.61
561.931	38.92
562.273	38.59
562.615	38.79
562.957	38.87
563.299	38.7
563.641	38.58
563.983	38.87
564.325	38.96
564.667	38.78
565.008	38.8
565.35	39.35
565.692	39.13
566.033	39.12
566.375	38.9
566.716	38.93
567.058	39.26
567.399	39.01
567.741	38.96
568.082	38.67
568.423	38.51
568.764	38.63
569.105	38.67
569.447	38.83
569.788	38.96
570.129	38.98
570.47	39.32
570.811	39.45
571.151	39.16
571.492	39.08
571.833	39.06
572.174	39.12
572.514	39.38
572.855	39.41
573.195	39.36
573.536	39.17
573.876	39.15
574.217	38.86
574.557	39.03
574.898	39.39
575.238	39.29
575.578	39.55
575.918	39.6
576.258	39.82
576.598	39.32
576.938	39.53
577.278	39.6
577.618	39.46
577.958	39.53
578.298	39.68
578.638	39.64
578.977	39.71
579.317	39.73
579.657	39.93
579.996	39.97
580.336	39.82
580.675	40.21
581.014	40.37
581.354	40.24
581.693	40.3
582.032	40.25
582.372	40.46
582.711	40.38
583.05	40.64
583.389	40.69
583.728	40.73
584.067	40.99
584.406	40.75
584.745	40.64
585.083	40.74
585.422	40.68
585.761	41.08
586.1	41.09
586.438	40.79
586.777	40.84
587.115	40.97
587.454	41.14
587.792	40.91
588.13	40.43
588.469	40.94
588.807	40.9
589.145	40.85
589.483	41.06
589.821	41.04
590.159	40.81
590.497	41.09
590.835	40.96
591.173	40.97
591.511	40.93
591.849	41.27
592.187	40.94
592.524	40.81
592.862	41.05
593.2	40.78
593.537	40.9
593.875	41.41
594.212	41.21
594.55	41.39
594.887	41.16
595.224	41.61
595.561	40.99
595.899	41.29
596.236	41.3
596.573	41.58
596.91	41.35
597.247	41.34
597.584	41.17
597.921	41.44
598.258	41.27
598.594	41.33
598.931	40.96
599.268	40.65
599.604	40.63
599.941	40.88
600.277	40.76
600.614	41.67
600.95	41.5
601.287	41.69
601.623	41.89
601.959	41.8
602.296	41.79
602.632	41.65
602.968	41.99
603.304	41.84
603.64	41.72
603.976	41.87
604.312	41.97
604.648	41.53
604.984	41.85
605.319	41.59
605.655	41.26
605.991	41.6
606.326	41.43
606.662	41.15
606.998	40.77
607.333	41.07
607.668	41.54
608.004	41.53
608.339	41.99
608.674	41.97
609.01	42.53
609.345	42.44
609.68	42.17
610.015	42.27
610.35	42.27
610.685	42.23
611.02	42.15
611.355	42.1
611.689	41.39
612.024	41.62
612.359	41.82
612.694	41.96
613.028	42.2
613.363	42.15
613.697	42.42
614.032	42.77
614.366	42.26
614.7	42.71
615.035	42.45
615.369	42.81
615.703	42.51
616.037	42.69
616.371	42.34
616.705	42.63
617.039	42.8
617.373	43.05
617.707	42.68
618.041	42.81
618.375	42.71
618.709	42.89
619.042	42.75
619.376	43.05
619.71	42.89
620.043	42.84
620.377	43.21
620.71	42.66
621.043	43.18
621.377	43.13
621.71	42.91
622.043	42.72
622.376	43.2
622.709	43.04
623.043	43.22
623.376	43.38
623.709	43.03
624.041	43.65
624.374	43.35
624.707	42.89
625.04	43.34
625.373	43.72
625.705	43.45
626.038	43.48
626.37	43.61
626.703	43.83
627.035	43.52
627.368	43.82
627.7	43.4
628.032	43.67
628.365	43.24
628.697	43.4
629.029	43.25
629.361	43.34
629.693	43.08
630.025	43.07
630.357	43.4
630.689	43.37
631.021	43.82
631.353	43.6
631.684	43.6
632.016	43.55
632.348	43.99
632.679	43.73
633.011	43.48
633.342	43.66
633.674	43.83
634.005	43.84
634.336	43.81
634.668	44.09
634.999	43.89
635.33	44.07
635.661	44.29
635.992	43.44
636.323	44.03
636.654	43.43
636.985	43.96
637.316	43.82
637.647	43.73
637.977	43.55
638.308	44.07
638.639	44.12
638.969	44.09
639.3	44.02
639.63	44.03
639.961	44.45
640.291	43.78
640.622	44.35
640.952	43.99
641.282	43.99
641.612	44.24
641.943	44.48
642.273	44.71
642.603	44.4
642.933	43.72
643.263	44.46
643.592	44.6
643.922	44.46
644.252	44.57
644.582	44.51
644.911	44.35
645.241	44.57
645.571	44.21
645.9	45.08
646.23	44.24
646.559	44.18
646.888	44.51
647.218	45.06
647.547	44.49
647.876	44.86
648.205	44.59
648.534	45.1
648.863	44.92
649.192	44.52
649.521	44.95
649.85	44.95
650.179	45.21
650.508	44.41
650.837	44.48
651.165	44.34
651.494	44.49
651.822	45.17
652.151	45.24
652.479	44.86
652.808	45.06
653.136	44.81
653.465	45.35
653.793	45.22
654.121	45.82
654.449	44.98
654.777	44.55
655.105	44.96
655.433	44.69
655.761	44.86
656.089	45.22
656.417	43.84
656.745	45.07
657.073	44.72
657.4	45.35
657.728	45.09
658.056	45.3
658.383	44.68
658.711	45.48
659.038	45.37
659.365	45.73
659.693	45.63
660.02	45.44
660.347	45.79
660.674	45.29
661.001	45.29
661.329	44.78
661.656	44.87
661.982	44.64
662.309	45.02
662.636	44.93
662.963	45.4
663.29	45.92
663.616	45.23
663.943	45.43
664.27	46.05
664.596	45.53
664.923	45.94
665.249	45.03
665.576	45.45
665.902	45.38
666.228	45.42
666.554	45.37
666.881	45.42
667.207	45.61
667.533	45.73
667.859	45.7
668.185	45.65
668.511	45.78
668.837	45.32
669.162	45.63
669.488	45.4
669.814	45.63
670.139	46.2
