Data from 0175_crown_Reflection__0__071.txt Node

Date: Mon Aug 28 19:15:18 CDT 2023
User: ToomeyLab
Spectrometer: FLMS14357
Trigger mode: 0
Integration Time (sec): 1.000000E-2
Scans to average: 100
Electric dark correction enabled: true
Nonlinearity correction enabled: false
Boxcar width: 0
XAxis mode: Wavelengths
Number of Pixels in Spectrum: 2048
>>>>>Begin Spectral Data<<<<<
189.047	126.09
189.435	126.09
189.823	126.09
190.211	-2690.7
190.599	-2.5
190.987	536.74
191.375	44.71
191.763	149.6
192.151	109.33
192.538	-192.72
192.926	215.19
193.314	-221.44
193.702	93.35
194.089	138.05
194.477	834.12
194.864	-432.71
195.252	5.23
195.639	72.65
196.027	108.51
196.414	84.47
196.801	-37.53
197.189	-111.33
197.576	-331.32
197.963	72.04
198.351	47.12
198.738	32.46
199.125	-14.43
199.512	11.41
199.899	10.67
200.286	-158.05
200.673	0.43
201.06	-6.53
201.447	15.72
201.833	-42.07
202.22	8.79
202.607	-33.63
202.994	41.05
203.38	-18.78
203.767	22.41
204.154	-14.42
204.54	-8.2
204.927	0.5
205.313	32.77
205.699	3.96
206.086	9.35
206.472	4.84
206.858	-59.01
207.245	14.92
207.631	21.07
208.017	3.31
208.403	27.77
208.789	14.82
209.175	-14.76
209.561	-2.19
209.947	-6.05
210.333	9.47
210.719	15.66
211.105	26.6
211.491	-20.26
211.876	38.94
212.262	66.08
212.648	5.8
213.034	-34.84
213.419	-0.67
213.805	-11.85
214.19	-0.24
214.576	5.29
214.961	7.55
215.346	-5.85
215.732	8.53
216.117	-26.01
216.502	-11.82
216.888	-28.73
217.273	-5.07
217.658	29.35
218.043	-14.61
218.428	28.03
218.813	7.98
219.198	20.17
219.583	6.63
219.968	23.45
220.353	5.65
220.738	14.33
221.122	12.43
221.507	-7.35
221.892	0.55
222.276	12.36
222.661	-14.32
223.046	10.77
223.43	9.38
223.815	10.12
224.199	17.42
224.583	-1.96
224.968	5.16
225.352	2.65
225.736	12.23
226.121	6.57
226.505	1.76
226.889	9.29
227.273	3.99
227.657	11.81
228.041	3.51
228.425	0.46
228.809	5.79
229.193	3.58
229.577	8.91
229.961	5.38
230.344	5.18
230.728	4.47
231.112	5.47
231.495	5.7
231.879	5.09
232.263	5
232.646	5.1
233.03	5.01
233.413	8.24
233.797	6.12
234.18	5.19
234.563	2.82
234.946	8.22
235.33	7.11
235.713	3.18
236.096	5.95
236.479	5.6
236.862	7.17
237.245	5.62
237.628	5.67
238.011	6.17
238.394	7.01
238.777	7.17
239.16	4.78
239.543	4.28
239.925	6.41
240.308	5.52
240.691	4.1
241.073	2.73
241.456	5.68
241.838	4.35
242.221	6.44
242.603	5.94
242.986	5.83
243.368	5
243.75	4.82
244.133	4.51
244.515	4.83
244.897	5.49
245.279	5.39
245.661	4.87
246.043	5.18
246.425	4.61
246.807	5.16
247.189	4.9
247.571	4.66
247.953	4.83
248.335	4.75
248.717	4.82
249.098	4.67
249.48	4.99
249.862	5.16
250.243	4.34
250.625	4.72
251.006	5.18
251.388	4.63
251.769	4.92
252.151	4.33
252.532	3.58
252.913	6
253.295	3.7
253.676	5.11
254.057	4.62
254.438	4.37
254.819	4.51
255.2	5.02
255.581	3.95
255.962	5.31
256.343	5.19
256.724	2.62
257.105	5.62
257.486	5.72
257.867	5.08
258.247	3.34
258.628	5.47
259.009	3.08
259.389	4.05
259.77	5.54
260.15	4.06
260.531	4.05
260.911	3.67
261.292	4.38
261.672	4.32
262.052	4.03
262.432	4.37
262.813	4.6
263.193	4.6
263.573	4.43
263.953	4.25
264.333	3.89
264.713	3.72
265.093	4.38
265.473	4.34
265.853	3.91
266.233	3.84
266.612	4.17
266.992	3.78
267.372	4.24
267.752	4.56
268.131	4.16
268.511	3.82
268.89	4.49
269.27	4
269.649	4.06
270.029	4.28
270.408	3.88
270.787	4.4
271.167	4.03
271.546	3.89
271.925	4.26
272.304	4.51
272.683	4.82
273.062	3.87
273.441	4.1
273.82	4.21
274.199	3.77
274.578	4.01
274.957	4.33
275.336	4.33
275.715	4.23
276.093	3.76
276.472	3.93
276.851	4.02
277.229	4.19
277.608	4.13
277.986	3.78
278.365	4.22
278.743	3.74
279.122	4.32
279.5	3.61
279.878	3.53
280.257	4.17
280.635	3.63
281.013	4.44
281.391	3.99
281.769	3.71
282.147	4.12
282.525	3.91
282.903	4.27
283.281	4.26
283.659	4
284.037	4.35
284.415	3.51
284.792	4.3
285.17	3.78
285.548	3.59
285.925	4.81
286.303	3.85
286.68	3.82
287.058	4.1
287.435	3.79
287.813	3.56
288.19	4.32
288.567	3.96
288.945	3.92
289.322	4.44
289.699	4.32
290.076	4.46
290.453	4.17
290.83	3.13
291.207	3.57
291.584	4.15
291.961	4.12
292.338	3.42
292.715	3.79
293.092	3.62
293.469	4.14
293.845	3.61
294.222	3.72
294.599	4.01
294.975	3.96
295.352	3.51
295.728	3.94
296.105	3.75
296.481	3.93
296.858	4
297.234	4.21
297.61	4.22
297.986	3.53
298.363	4.15
298.739	3.64
299.115	3.65
299.491	3.93
299.867	3.63
300.243	4.01
300.619	3.85
300.995	3.66
301.371	3.74
301.746	3.99
302.122	3.91
302.498	3.71
302.874	4.02
303.249	3.76
303.625	3.98
304	3.81
304.376	3.55
304.751	3.69
305.127	3.87
305.502	3.42
305.878	3.97
306.253	4
306.628	4.21
307.003	3.46
307.378	3.31
307.754	3.85
308.129	4.03
308.504	4.08
308.879	3.9
309.254	4
309.629	3.87
310.003	3.46
310.378	3.75
310.753	3.79
311.128	4.07
311.502	4.03
311.877	3.78
312.252	3.99
312.626	3.93
313.001	3.9
313.375	3.88
313.75	3.66
314.124	3.55
314.498	4.21
314.873	4.05
315.247	3.95
315.621	3.5
315.995	4.12
316.369	3.84
316.743	3.26
317.117	3.76
317.491	3.25
317.865	3.59
318.239	3.66
318.613	3.73
318.987	3.85
319.361	3.57
319.734	4.27
320.108	3.81
320.482	3.92
320.855	3.39
321.229	3.47
321.602	4.27
321.976	3.27
322.349	3.78
322.723	3.78
323.096	4.45
323.469	3.32
323.843	3.34
324.216	3.7
324.589	3.9
324.962	4.54
325.335	4.01
325.708	3.41
326.081	3.35
326.454	3.69
326.827	3.75
327.2	3.47
327.573	3.91
327.945	4.06
328.318	3.72
328.691	3.66
329.063	3.25
329.436	3.36
329.809	3.8
330.181	3.24
330.553	3.55
330.926	3.69
331.298	3.41
331.671	3.47
332.043	3.72
332.415	4.7
332.787	3.52
333.159	3.77
333.532	4.5
333.904	3.61
334.276	3.31
334.648	3.71
335.02	4.37
335.391	3.82
335.763	3.82
336.135	3.9
336.507	3.56
336.879	3.57
337.25	3.91
337.622	3.67
337.993	3.71
338.365	3.62
338.736	4.39
339.108	3.39
339.479	3.11
339.851	4
340.222	4.09
340.593	3.78
340.964	3.64
341.336	3.86
341.707	3.48
342.078	3.26
342.449	4.04
342.82	4.23
343.191	3.77
343.562	3.44
343.933	3.67
344.303	3.86
344.674	3.72
345.045	3.56
345.416	4.12
345.786	3.48
346.157	4.04
346.527	3.53
346.898	3.82
347.268	3.53
347.639	3.48
348.009	3.41
348.38	3.95
348.75	4.22
349.12	4.2
349.49	3.28
349.861	3.45
350.231	3.35
350.601	4.33
350.971	4.13
351.341	3.9
351.711	3.76
352.081	3.72
352.45	3.81
352.82	4
353.19	3.95
353.56	3.75
353.929	4.05
354.299	3.6
354.669	4.04
355.038	3.85
355.408	4.09
355.777	3.46
356.147	3.52
356.516	3.49
356.885	3.93
357.254	4.04
357.624	3.64
357.993	4.12
358.362	3.41
358.731	3.63
359.1	3.98
359.469	3.65
359.838	3.52
360.207	3.84
360.576	3.89
360.945	4.01
361.314	3.52
361.682	3.44
362.051	3.89
362.42	3.71
362.788	3.69
363.157	3.76
363.525	3.66
363.894	3.78
364.262	3.96
364.631	3.83
364.999	3.85
365.367	3.94
365.735	3.61
366.104	3.54
366.472	3.29
366.84	3.87
367.208	3.78
367.576	3.55
367.944	3.86
368.312	4.13
368.68	3.91
369.048	3.76
369.416	3.61
369.783	3.82
370.151	3.69
370.519	3.75
370.886	3.74
371.254	3.64
371.621	3.77
371.989	3.83
372.356	3.58
372.724	4.39
373.091	3.8
373.458	3.7
373.826	4.08
374.193	3.77
374.56	3.72
374.927	3.8
375.294	3.75
375.661	4.04
376.028	3.36
376.395	3.28
376.762	4
377.129	3.69
377.496	3.61
377.863	3.92
378.229	3.77
378.596	4.24
378.963	4.08
379.329	3.83
379.696	3.54
380.062	3.78
380.429	3.76
380.795	3.56
381.161	3.66
381.528	3.88
381.894	3.98
382.26	4.19
382.626	3.83
382.993	3.89
383.359	3.98
383.725	4.08
384.091	3.85
384.457	3.67
384.823	3.86
385.188	3.94
385.554	3.85
385.92	3.92
386.286	3.99
386.651	4.04
387.017	4.12
387.383	3.97
387.748	3.86
388.114	3.69
388.479	3.94
388.845	3.93
389.21	3.64
389.575	4.19
389.94	3.93
390.306	3.85
390.671	3.82
391.036	3.84
391.401	3.99
391.766	4.04
392.131	4.13
392.496	3.7
392.861	3.92
393.226	3.87
393.591	3.81
393.956	3.84
394.32	3.81
394.685	3.96
395.05	4.13
395.414	3.88
395.779	3.85
396.143	3.83
396.508	3.58
396.872	3.99
397.236	3.92
397.601	3.91
397.965	3.96
398.329	3.86
398.694	4.01
399.058	4.08
399.422	3.85
399.786	4.12
400.15	4.21
400.514	4.1
400.878	3.92
401.242	3.8
401.605	3.93
401.969	3.98
402.333	4.07
402.697	3.97
403.06	4.1
403.424	4.1
403.787	3.74
404.151	3.85
404.514	3.96
404.878	4.08
405.241	4.23
405.604	3.94
405.968	3.77
406.331	3.99
406.694	4.19
407.057	4.05
407.42	3.82
407.783	3.84
408.146	3.8
408.509	4.12
408.872	3.93
409.235	3.91
409.598	4.01
409.961	3.77
410.323	4.09
410.686	4.25
411.049	4.48
411.411	4.04
411.774	4.08
412.136	3.93
412.499	4.12
412.861	4.01
413.223	3.98
413.586	3.79
413.948	4.14
414.31	4.23
414.672	3.95
415.035	4.06
415.397	3.68
415.759	4.11
416.121	4.19
416.483	3.89
416.845	4.1
417.206	4.08
417.568	4.04
417.93	3.79
418.292	4.03
418.653	3.81
419.015	3.97
419.377	3.82
419.738	4.03
420.1	4.01
420.461	4
420.822	3.99
421.184	4.06
421.545	4.02
421.906	3.92
422.267	3.94
422.629	3.84
422.99	3.79
423.351	3.84
423.712	3.88
424.073	3.97
424.434	4.01
424.795	3.91
425.155	3.92
425.516	3.97
425.877	3.98
426.238	3.76
426.598	3.86
426.959	4.04
427.32	3.92
427.68	4.04
428.041	3.95
428.401	4.15
428.761	3.97
429.122	4.14
429.482	4.17
429.842	4.24
430.202	4.15
430.563	4.05
430.923	4.07
431.283	4.06
431.643	3.87
432.003	4.06
432.363	4.14
432.722	3.98
433.082	4.04
433.442	4.11
433.802	4.03
434.161	4.11
434.521	3.95
434.881	3.91
435.24	4
435.6	3.98
435.959	4.01
436.319	4.05
436.678	3.97
437.037	4.01
437.396	4.16
437.756	3.94
438.115	4.23
438.474	4.15
438.833	3.99
439.192	4.09
439.551	3.98
439.91	4.08
440.269	4
440.628	3.97
440.987	4.03
441.345	3.94
441.704	3.95
442.063	3.93
442.421	3.96
442.78	3.99
443.138	3.88
443.497	4.03
443.855	4.05
444.214	4.14
444.572	4.06
444.93	4.17
445.288	4.04
445.647	4.11
446.005	4.14
446.363	4.03
446.721	3.98
447.079	4.13
447.437	3.86
447.795	3.9
448.153	3.99
448.51	3.96
448.868	3.94
449.226	3.88
449.584	3.99
449.941	4.02
450.299	4.1
450.656	4.04
451.014	4.09
451.371	4.1
451.729	3.93
452.086	3.99
452.443	4.24
452.801	4.32
453.158	4.26
453.515	4.09
453.872	4.07
454.229	4.25
454.586	4.19
454.943	4.1
455.3	4.07
455.657	4.25
456.014	4.19
456.371	4.11
456.727	4.05
457.084	3.93
457.441	4.24
457.797	4.08
458.154	4.14
458.51	4.25
458.867	3.97
459.223	4.21
459.58	4.05
459.936	4.21
460.292	4.25
460.648	4.11
461.005	4.01
461.361	4.02
461.717	3.91
462.073	4.02
462.429	3.91
462.785	4.05
463.141	4.13
463.496	4.3
463.852	4.09
464.208	4.3
464.564	4.27
464.919	4.18
465.275	4.31
465.631	4.16
465.986	4.35
466.342	4.38
466.697	4.07
467.052	4.17
467.408	4.11
467.763	3.93
468.118	3.99
468.473	4.11
468.829	4.19
469.184	3.92
469.539	4.07
469.894	4.2
470.249	4.14
470.603	4.26
470.958	4.03
471.313	4.21
471.668	3.97
472.023	4.15
472.377	4.14
472.732	4.25
473.086	4.29
473.441	4.14
473.795	4.14
474.15	4.19
474.504	4.25
474.859	4.05
475.213	4.08
475.567	4.03
475.921	4.41
476.275	4.2
476.63	4.41
476.984	4.2
477.338	4.26
477.692	4.27
478.045	4.18
478.399	4.11
478.753	4.05
479.107	4.1
479.461	4.13
479.814	4.33
480.168	4.18
480.521	4.29
480.875	4.18
481.228	4.17
481.582	4.07
481.935	4.2
482.289	4.22
482.642	4.18
482.995	4.22
483.348	4.11
483.701	4.1
484.055	4.14
484.408	4.05
484.761	4.04
485.114	4
485.466	3.85
485.819	3.74
486.172	3.68
486.525	3.76
486.878	3.94
487.23	4.15
487.583	4.22
487.936	4.19
488.288	4.17
488.641	4.1
488.993	3.99
489.345	3.92
489.698	3.88
490.05	3.85
490.402	3.92
490.754	4.01
491.107	4.11
491.459	4.2
491.811	4.19
492.163	4.22
492.515	4.24
492.866	4.11
493.218	3.99
493.57	3.93
493.922	3.8
494.274	3.93
494.625	4.02
494.977	4.2
495.328	4.4
495.68	4.31
496.031	4.37
496.383	4.19
496.734	4.23
497.086	4.36
497.437	4.28
497.788	4.07
498.139	4.14
498.49	4.15
498.842	4.13
499.193	4.08
499.544	4.13
499.894	4.19
500.245	4.14
500.596	4.17
500.947	4.23
501.298	4.28
501.648	4.17
501.999	4.24
502.35	4.19
502.7	4.28
503.051	4.39
503.401	4.22
503.752	4.15
504.102	4.23
504.452	4.27
504.803	4.28
505.153	4.28
505.503	4.02
505.853	4.22
506.203	4.14
506.553	4.16
506.903	4.28
507.253	4.19
507.603	4.29
507.953	4.35
508.303	4.44
508.652	4.28
509.002	4.38
509.352	4.33
509.701	4.2
510.051	4.16
510.4	4.08
510.75	4.28
511.099	4.25
511.449	4.21
511.798	4.22
512.147	4.23
512.496	4.21
512.846	4.14
513.195	4.26
513.544	4.23
513.893	4.15
514.242	4.14
514.591	4.22
514.939	4.03
515.288	4.28
515.637	4.29
515.986	4.19
516.334	4.28
516.683	4.44
517.032	4.34
517.38	4.42
517.729	4.34
518.077	4.27
518.426	4.16
518.774	4.16
519.122	4.35
519.47	4.17
519.819	4.21
520.167	4.11
520.515	4.15
520.863	4.1
521.211	4.14
521.559	4.2
521.907	4.28
522.255	4.21
522.602	4.27
522.95	4.34
523.298	4.31
523.645	4.35
523.993	4.22
524.341	4.26
524.688	4.41
525.036	4.22
525.383	4.31
525.73	4.3
526.078	4.41
526.425	4.3
526.772	4.27
527.119	4.26
527.466	4.05
527.814	4.03
528.161	4.1
528.508	4.11
528.854	4.17
529.201	4.29
529.548	4.18
529.895	4.19
530.242	3.99
530.588	3.87
530.935	3.83
531.282	3.93
531.628	4.01
531.975	4.15
532.321	4.26
532.667	4.22
533.014	4.38
533.36	4.28
533.706	4.26
534.052	4.16
534.399	4.16
534.745	4.2
535.091	4.06
535.437	4.06
535.783	4.01
536.129	4.13
536.474	4.27
536.82	4.34
537.166	4.29
537.512	4.3
537.857	4.46
538.203	4.28
538.549	4.16
538.894	4.13
539.239	4.08
539.585	4.21
539.93	4.33
540.276	4.38
540.621	4.33
540.966	4.44
541.311	4.39
541.656	4.31
542.001	4.21
542.346	4.25
542.691	4.15
543.036	4.07
543.381	3.9
543.726	3.93
544.071	4.04
544.415	4.12
544.76	4.23
545.105	4.23
545.449	4.22
545.794	4.22
546.138	4.3
546.483	4.25
546.827	4.37
547.171	4.27
547.516	4.26
547.86	4.21
548.204	4.37
548.548	4.27
548.892	4.13
549.236	4.18
549.58	4.25
549.924	4.2
550.268	4.33
550.612	4.33
550.956	4.38
551.3	4.47
551.643	4.47
551.987	4.29
552.33	4.45
552.674	4.39
553.017	4.27
553.361	4.49
553.704	4.37
554.048	4.4
554.391	4.22
554.734	4.26
555.077	4.22
555.42	4.32
555.764	4.41
556.107	4.23
556.45	4.3
556.793	4.26
557.135	4.47
557.478	4.4
557.821	4.32
558.164	4.53
558.507	4.34
558.849	4.57
559.192	4.26
559.534	4.17
559.877	4.47
560.219	4.27
560.562	4.38
560.904	4.42
561.246	4.28
561.589	4.39
561.931	4.41
562.273	4.31
562.615	4.38
562.957	4.39
563.299	4.39
563.641	4.25
563.983	4.27
564.325	4.49
564.667	4.27
565.008	4.43
565.35	4.5
565.692	4.62
566.033	4.24
566.375	4.28
566.716	4.41
567.058	4.2
567.399	4.23
567.741	4.31
568.082	4.2
568.423	4.27
568.764	4.28
569.105	4.47
569.447	4.45
569.788	4.36
570.129	4.39
570.47	4.53
570.811	4.46
571.151	4.14
571.492	4.22
571.833	4.2
572.174	4.46
572.514	4.46
572.855	4.29
573.195	4.4
573.536	4.51
573.876	4.25
574.217	4.27
574.557	4.31
574.898	4.43
575.238	4.37
575.578	4.28
575.918	4.29
576.258	4.5
576.598	4.3
576.938	4.12
577.278	4.26
577.618	4.34
577.958	4.22
578.298	4.43
578.638	4.4
578.977	4.56
579.317	4.34
579.657	4.42
579.996	4.34
580.336	4.23
580.675	4.46
581.014	4.7
581.354	4.42
581.693	4.48
582.032	4.53
582.372	4.63
582.711	4.6
583.05	4.43
583.389	4.45
583.728	4.43
584.067	4.33
584.406	4.44
584.745	4.39
585.083	4.46
585.422	4.46
585.761	4.53
586.1	4.67
586.438	4.37
586.777	4.4
587.115	4.58
587.454	4.55
587.792	4.42
588.13	4.5
588.469	4.43
588.807	4.33
589.145	4.46
589.483	4.33
589.821	4.31
590.159	4.5
590.497	4.45
590.835	4.31
591.173	4.26
591.511	4.42
591.849	4.37
592.187	4.3
592.524	4.46
592.862	4.52
593.2	4.26
593.537	4.43
593.875	4.54
594.212	4.58
594.55	4.54
594.887	4.34
595.224	4.38
595.561	4.24
595.899	4.27
596.236	4.32
596.573	4.51
596.91	4.3
597.247	4.58
597.584	4.46
597.921	4.23
598.258	4.34
598.594	4.43
598.931	4.36
599.268	4.19
599.604	4.44
599.941	4.54
600.277	4.28
600.614	4.72
600.95	4.6
601.287	4.37
601.623	4.85
601.959	4.51
602.296	4.48
602.632	4.59
602.968	4.69
603.304	4.55
603.64	4.35
603.976	4.48
604.312	4.71
604.648	4.24
604.984	4.25
605.319	4.55
605.655	4.55
605.991	4.62
606.326	4.5
606.662	4.49
606.998	4.48
607.333	4.33
607.668	4.49
608.004	4.46
608.339	4.62
608.674	4.28
609.01	4.62
609.345	4.49
609.68	4.22
610.015	4.75
610.35	4.81
610.685	4.51
611.02	4.4
611.355	4.64
611.689	4.27
612.024	4.42
612.359	4.51
612.694	4.56
613.028	4.34
613.363	4.59
613.697	4.46
614.032	4.7
614.366	4.47
614.7	4.51
615.035	4.36
615.369	4.62
615.703	4.37
616.037	4.37
616.371	4.49
616.705	4.51
617.039	4.5
617.373	4.27
617.707	4.39
618.041	4.56
618.375	4.47
618.709	4.57
619.042	4.51
619.376	4.41
619.71	4.55
620.043	4.42
620.377	4.93
620.71	4.53
621.043	4.91
621.377	4.44
621.71	4.68
622.043	4.24
622.376	4.51
622.709	4.48
623.043	4.76
623.376	4.67
623.709	4.69
624.041	4.84
624.374	4.69
624.707	4.51
625.04	4.48
625.373	4.68
625.705	4.52
626.038	4.59
626.37	4.49
626.703	4.65
627.035	4.74
627.368	5.05
627.7	4.96
628.032	4.55
628.365	4.32
628.697	4.71
629.029	4.71
629.361	4.48
629.693	4.62
630.025	4.61
630.357	4.56
630.689	4.67
631.021	4.81
631.353	4.59
631.684	5
632.016	4.68
632.348	4.7
632.679	4.89
633.011	4.44
633.342	4.24
633.674	5.11
634.005	4.57
634.336	4.42
634.668	4.55
634.999	4.74
635.33	4.68
635.661	4.67
635.992	4.48
636.323	4.8
636.654	4.54
636.985	4.55
637.316	4.62
637.647	4.99
637.977	4.4
638.308	4.65
638.639	4.54
638.969	5.04
639.3	4.6
639.63	4.89
639.961	4.73
640.291	4.92
640.622	5.21
640.952	4.32
641.282	4.92
641.612	4.77
641.943	4.51
642.273	4.99
642.603	4.68
642.933	4.2
643.263	5.12
643.592	4.92
643.922	4.67
644.252	4.44
644.582	4.76
644.911	4.65
645.241	5.11
645.571	4.55
645.9	4.54
646.23	4.62
646.559	4.57
646.888	4.91
647.218	4.6
647.547	4.24
647.876	5.04
648.205	4.51
648.534	5.25
648.863	4.56
649.192	4.93
649.521	4.81
649.85	5.09
650.179	5.19
650.508	4.77
650.837	4.31
651.165	4.85
651.494	5.07
651.822	4.82
652.151	4.89
652.479	5.09
652.808	5
653.136	4.83
653.465	4.97
653.793	4.9
654.121	4.79
654.449	4.47
654.777	4.74
655.105	4.91
655.433	4.63
655.761	4.55
656.089	4.6
656.417	4.19
656.745	4.93
657.073	4.45
657.4	4.65
657.728	5.58
658.056	4.96
658.383	4.96
658.711	4.83
659.038	5.19
659.365	5.35
659.693	4.99
660.02	4.95
660.347	4.84
660.674	4.8
661.001	5.24
661.329	4.87
661.656	5.08
661.982	4.68
662.309	5.01
662.636	4.77
662.963	4.92
663.29	5.14
663.616	4.74
663.943	5.01
664.27	5.17
664.596	5.15
664.923	5.59
665.249	5.03
665.576	4.82
665.902	5.1
666.228	4.81
666.554	4.4
666.881	5.18
667.207	4.96
667.533	5.17
667.859	4.25
668.185	4.69
668.511	5.16
668.837	4.73
669.162	5.48
669.488	4.73
669.814	5.13
670.139	5.11
670.465	5.48
670.791	4.91
671.116	5.12
671.442	5.15
671.767	4.26
672.092	4.95
672.418	4.9
672.743	5.67
673.068	4.94
673.393	5.22
673.718	4.18
674.043	4.3
674.368	5.4
674.693	5.51
675.018	5.43
675.343	4.99
675.667	5.12
675.992	4.71
676.317	4.61
676.641	5.46
676.966	4.92
677.29	4.6
677.615	6.12
677.939	4.54
678.264	5.05
678.588	5.07
678.912	5.15
679.236	4.82
679.56	4.69
679.885	5.53
680.209	4.74
680.532	5.44
680.856	4.85
681.18	4.77
681.504	4.92
681.828	5.01
682.152	5.06
682.475	5.13
682.799	5.07
683.122	4.76
683.446	4.79
683.769	5.7
684.093	5.44
684.416	5.77
684.739	4.77
685.062	5.51
685.386	4.56
685.709	5.87
686.032	4.2
686.355	4.88
686.678	5.09
687.001	4.25
687.324	5.13
687.646	5.06
687.969	5.44
688.292	6.13
688.614	5.68
688.937	4.9
689.26	4.75
689.582	4.73
689.904	5.17
690.227	5.41
690.549	4.34
690.871	5.45
691.194	5.44
691.516	4.9
691.838	5.6
692.16	5.17
692.482	4.57
692.804	4.8
