Data from 0175_chest_Reflection__2__063.txt Node

Date: Mon Aug 28 19:08:51 CDT 2023
User: ToomeyLab
Spectrometer: FLMS14357
Trigger mode: 0
Integration Time (sec): 1.000000E-2
Scans to average: 100
Electric dark correction enabled: true
Nonlinearity correction enabled: false
Boxcar width: 0
XAxis mode: Wavelengths
Number of Pixels in Spectrum: 2048
>>>>>Begin Spectral Data<<<<<
189.047	11.13
189.435	11.13
189.823	11.13
190.211	-3802.33
190.599	46.77
190.987	493.01
191.375	-41.44
191.763	136.71
192.151	-0.58
192.538	29.4
192.926	150.21
193.314	1422.35
193.702	32.78
194.089	84.83
194.477	963.53
194.864	-387.78
195.252	90.6
195.639	-489.74
196.027	122.43
196.414	352.28
196.801	-6.33
197.189	49.98
197.576	-320.8
197.963	-118.86
198.351	-27.95
198.738	41.47
199.125	29.09
199.512	19.89
199.899	32.92
200.286	138.34
200.673	14.39
201.06	-27.61
201.447	15.94
201.833	-53.66
202.22	24.47
202.607	16.79
202.994	44.74
203.38	5.46
203.767	-21.41
204.154	14.99
204.54	8.27
204.927	-32.33
205.313	40.79
205.699	-26.41
206.086	47.55
206.472	27.24
206.858	18.97
207.245	10.88
207.631	16.93
208.017	21.78
208.403	9.54
208.789	42.35
209.175	-34.41
209.561	-38.45
209.947	-22.11
210.333	2.08
210.719	12
211.105	25.94
211.491	-30.53
211.876	18.64
212.262	44.77
212.648	28.36
213.034	-45.17
213.419	15.5
213.805	32.85
214.19	27.29
214.576	18.39
214.961	-49.88
215.346	-18.02
215.732	8.43
216.117	19.56
216.502	-28.94
216.888	-39.03
217.273	-0.66
217.658	2.68
218.043	4.09
218.428	10.92
218.813	20.03
219.198	-6.26
219.583	-10.36
219.968	7.45
220.353	-2.01
220.738	18.63
221.122	-0.47
221.507	0.86
221.892	-5.31
222.276	2.43
222.661	-23.73
223.046	-9.95
223.43	8.31
223.815	15.74
224.199	13.14
224.583	-4.37
224.968	3.63
225.352	-0.17
225.736	4.34
226.121	0.33
226.505	4.73
226.889	9.18
227.273	2.77
227.657	10.4
228.041	2.73
228.425	4.84
228.809	-0.01
229.193	-0.21
229.577	5.12
229.961	1.35
230.344	2.62
230.728	2.3
231.112	2.33
231.495	2.58
231.879	1.79
232.263	1.45
232.646	1.22
233.03	4.19
233.413	4.29
233.797	3.49
234.18	2.76
234.563	2.81
234.946	5.66
235.33	4.78
235.713	-1.17
236.096	2.76
236.479	1.97
236.862	2.22
237.245	3.16
237.628	2.55
238.011	4.27
238.394	5.12
238.777	4.86
239.16	2.09
239.543	-0.28
239.925	2.51
240.308	1.62
240.691	0.66
241.073	2.44
241.456	2.53
241.838	0.86
242.221	3.91
242.603	3.61
242.986	3.19
243.368	2.2
243.75	2.95
244.133	2.45
244.515	2.32
244.897	2.52
245.279	2.66
245.661	2.02
246.043	2.14
246.425	3.22
246.807	3.63
247.189	2.15
247.571	3.24
247.953	2.59
248.335	2.32
248.717	2.45
249.098	2.24
249.48	2.35
249.862	2.56
250.243	2.23
250.625	2.87
251.006	2.35
251.388	2.44
251.769	2.56
252.151	2.48
252.532	1.82
252.913	2.92
253.295	1.48
253.676	2.14
254.057	2.41
254.438	2.22
254.819	2.34
255.2	2.73
255.581	2.27
255.962	2.87
256.343	2.88
256.724	2.06
257.105	2.31
257.486	2.18
257.867	2.11
258.247	2.28
258.628	3.7
259.009	1.26
259.389	1.68
259.77	3.13
260.15	2.32
260.531	1.59
260.911	2.62
261.292	2.3
261.672	2.19
262.052	2.11
262.432	2.34
262.813	2.44
263.193	2.27
263.573	1.9
263.953	2.23
264.333	2.21
264.713	2.34
265.093	2.4
265.473	2.43
265.853	2.27
266.233	2.45
266.612	2.57
266.992	2.24
267.372	2.02
267.752	2.94
268.131	2.41
268.511	1.14
268.89	2.49
269.27	2.02
269.649	1.94
270.029	2.18
270.408	2.61
270.787	2.85
271.167	2.57
271.546	2.54
271.925	2.08
272.304	2.48
272.683	2.28
273.062	2.38
273.441	2.18
273.82	2.2
274.199	2.03
274.578	2.16
274.957	2.74
275.336	2.52
275.715	2.56
276.093	1.69
276.472	2.23
276.851	2.18
277.229	2.05
277.608	2.37
277.986	1.8
278.365	2.66
278.743	2.33
279.122	2.41
279.5	1.65
279.878	1.85
280.257	1.91
280.635	1.82
281.013	2.45
281.391	2.1
281.769	1.83
282.147	2.2
282.525	2.39
282.903	2.19
283.281	2.56
283.659	2.47
284.037	2.52
284.415	1.82
284.792	2.32
285.17	2.14
285.548	2.33
285.925	1.88
286.303	2.71
286.68	2.65
287.058	2.23
287.435	1.75
287.813	2.17
288.19	2.61
288.567	2.33
288.945	2.56
289.322	1.97
289.699	2.26
290.076	2.43
290.453	2.37
290.83	1.82
291.207	2.13
291.584	2.22
291.961	2.67
292.338	2.16
292.715	1.88
293.092	2.39
293.469	2.37
293.845	2.19
294.222	2.09
294.599	2.6
294.975	2.74
295.352	2.3
295.728	2.54
296.105	2.58
296.481	2.38
296.858	2.84
297.234	2.6
297.61	2.72
297.986	2.22
298.363	2.89
298.739	2.61
299.115	2.5
299.491	2.44
299.867	2.75
300.243	2.66
300.619	2.96
300.995	2.75
301.371	2.67
301.746	3.04
302.122	2.79
302.498	2.55
302.874	2.75
303.249	2.77
303.625	3.1
304	2.86
304.376	2.8
304.751	2.46
305.127	2.52
305.502	2.65
305.878	2.66
306.253	2.6
306.628	2.78
307.003	2.75
307.378	2.6
307.754	2.41
308.129	2.67
308.504	3.21
308.879	2.73
309.254	3.15
309.629	2.9
310.003	2.99
310.378	2.34
310.753	2.63
311.128	2.75
311.502	3.29
311.877	2.49
312.252	3.06
312.626	2.8
313.001	2.62
313.375	2.96
313.75	2.85
314.124	2.56
314.498	2.62
314.873	3.18
315.247	2.92
315.621	2.45
315.995	3.22
316.369	3.09
316.743	2.56
317.117	3
317.491	2.33
317.865	2.3
318.239	2.93
318.613	2.91
318.987	3.01
319.361	3.2
319.734	2.92
320.108	3.17
320.482	2.95
320.855	2.43
321.229	2.64
321.602	3.02
321.976	3.02
322.349	3.19
322.723	3
323.096	3.17
323.469	3.17
323.843	2.79
324.216	3.09
324.589	3.2
324.962	3.03
325.335	2.75
325.708	3.14
326.081	3.21
326.454	3.15
326.827	3.13
327.2	2.44
327.573	2.93
327.945	3.2
328.318	3.25
328.691	2.43
329.063	2.62
329.436	2.18
329.809	3.55
330.181	2.94
330.553	2.96
330.926	3.13
331.298	3.28
331.671	2.99
332.043	3.03
332.415	3.56
332.787	2.56
333.159	2.95
333.532	3.66
333.904	3.2
334.276	2.91
334.648	2.87
335.02	3.15
335.391	3.26
335.763	2.84
336.135	3.44
336.507	2.72
336.879	2.73
337.25	3.21
337.622	2.75
337.993	3.27
338.365	3.27
338.736	3.18
339.108	3.03
339.479	2.7
339.851	3.02
340.222	3.01
340.593	3.07
340.964	3.18
341.336	2.8
341.707	2.82
342.078	3.17
342.449	3.08
342.82	3.2
343.191	3.05
343.562	2.68
343.933	3.19
344.303	2.95
344.674	3.24
345.045	3.2
345.416	2.85
345.786	3.18
346.157	3.1
346.527	2.34
346.898	2.83
347.268	3.09
347.639	3
348.009	3.01
348.38	3.08
348.75	3.07
349.12	3.36
349.49	2.99
349.861	2.81
350.231	2.8
350.601	3.45
350.971	3.54
351.341	3.36
351.711	3.17
352.081	3.01
352.45	3
352.82	3.35
353.19	3.71
353.56	3.46
353.929	3.38
354.299	2.64
354.669	3.18
355.038	3.16
355.408	3.21
355.777	2.66
356.147	2.9
356.516	3.18
356.885	3.18
357.254	3.31
357.624	3.32
357.993	3.57
358.362	3.03
358.731	3.54
359.1	3.29
359.469	3.18
359.838	2.97
360.207	3.33
360.576	3.13
360.945	3.03
361.314	2.82
361.682	3.05
362.051	3.23
362.42	3.23
362.788	3.3
363.157	3.4
363.525	2.94
363.894	3.18
364.262	3.27
364.631	2.99
364.999	3.54
365.367	3.47
365.735	3.26
366.104	3.1
366.472	2.91
366.84	3.24
367.208	3.24
367.576	3.33
367.944	3.21
368.312	3.44
368.68	3.21
369.048	3.23
369.416	3.27
369.783	3.14
370.151	3.18
370.519	3.57
370.886	3.11
371.254	3.01
371.621	2.9
371.989	3.26
372.356	3.2
372.724	3.66
373.091	3.45
373.458	3.17
373.826	3.4
374.193	3.11
374.56	3.34
374.927	3.12
375.294	3.45
375.661	3.47
376.028	3.3
376.395	3.13
376.762	3.57
377.129	3.13
377.496	3.28
377.863	3.34
378.229	2.98
378.596	3.46
378.963	3.29
379.329	3.44
379.696	3.33
380.062	3.15
380.429	3.17
380.795	3.36
381.161	3.27
381.528	3.45
381.894	3.39
382.26	3.26
382.626	3.54
382.993	3.49
383.359	3.4
383.725	3.57
384.091	3.51
384.457	3.38
384.823	3.35
385.188	3.49
385.554	3.09
385.92	3.33
386.286	3.4
386.651	3.31
387.017	3.56
387.383	3.25
387.748	3.33
388.114	3.37
388.479	3.12
388.845	3.15
389.21	3.28
389.575	3.42
389.94	3.52
390.306	3.57
390.671	3.46
391.036	3.1
391.401	3.45
391.766	3.73
392.131	3.65
392.496	3.25
392.861	3.41
393.226	3.54
393.591	3.41
393.956	3.33
394.32	3.39
394.685	3.43
395.05	3.67
395.414	3.42
395.779	3.46
396.143	3.54
396.508	2.95
396.872	3.54
397.236	3.57
397.601	3.44
397.965	3.62
398.329	3.73
398.694	3.45
399.058	3.45
399.422	3.67
399.786	3.72
400.15	3.55
400.514	3.74
400.878	3.45
401.242	3.55
401.605	3.59
401.969	3.21
402.333	3.58
402.697	3.47
403.06	3.63
403.424	3.85
403.787	3.4
404.151	3.24
404.514	3.54
404.878	3.42
405.241	3.58
405.604	3.68
405.968	3.39
406.331	3.7
406.694	3.55
407.057	3.63
407.42	3.4
407.783	3.59
408.146	3.38
408.509	3.54
408.872	3.66
409.235	3.74
409.598	3.57
409.961	3.34
410.323	3.64
410.686	3.59
411.049	3.72
411.411	3.54
411.774	3.63
412.136	3.45
412.499	3.43
412.861	3.62
413.223	3.51
413.586	3.37
413.948	3.6
414.31	3.75
414.672	3.62
415.035	3.48
415.397	3.48
415.759	3.65
416.121	3.82
416.483	3.65
416.845	3.62
417.206	3.77
417.568	3.59
417.93	3.63
418.292	3.7
418.653	3.53
419.015	3.55
419.377	3.42
419.738	3.64
420.1	3.53
420.461	3.55
420.822	3.66
421.184	3.58
421.545	3.58
421.906	3.67
422.267	3.55
422.629	3.52
422.99	3.41
423.351	3.55
423.712	3.47
424.073	3.6
424.434	3.68
424.795	3.56
425.155	3.47
425.516	3.57
425.877	3.6
426.238	3.51
426.598	3.44
426.959	3.66
427.32	3.51
427.68	3.66
428.041	3.52
428.401	3.65
428.761	3.56
429.122	3.5
429.482	3.67
429.842	3.87
430.202	3.79
430.563	3.75
430.923	3.77
431.283	3.65
431.643	3.58
432.003	3.6
432.363	3.74
432.722	3.55
433.082	3.75
433.442	3.81
433.802	3.65
434.161	3.74
434.521	3.73
434.881	3.68
435.24	3.61
435.6	3.81
435.959	3.76
436.319	3.72
436.678	3.64
437.037	3.73
437.396	3.89
437.756	3.78
438.115	3.94
438.474	3.82
438.833	3.82
439.192	3.87
439.551	3.77
439.91	3.79
440.269	3.82
440.628	3.59
440.987	3.76
441.345	3.59
441.704	3.73
442.063	3.77
442.421	3.72
442.78	3.84
443.138	3.73
443.497	3.71
443.855	3.8
444.214	3.8
444.572	3.93
444.93	3.78
445.288	3.69
445.647	3.85
446.005	3.92
446.363	3.83
446.721	3.74
447.079	3.76
447.437	3.67
447.795	3.68
448.153	3.72
448.51	3.74
448.868	3.83
449.226	3.7
449.584	3.76
449.941	3.81
450.299	3.77
450.656	3.82
451.014	3.65
451.371	3.79
451.729	3.67
452.086	3.88
452.443	4.07
452.801	3.97
453.158	4.09
453.515	3.94
453.872	4
454.229	3.8
454.586	3.98
454.943	3.89
455.3	3.93
455.657	3.85
456.014	3.96
456.371	3.94
456.727	3.89
457.084	3.87
457.441	3.86
457.797	3.95
458.154	3.83
458.51	4.07
458.867	3.91
459.223	3.99
459.58	3.95
459.936	4.03
460.292	3.82
460.648	4.04
461.005	3.9
461.361	3.89
461.717	3.92
462.073	3.83
462.429	3.8
462.785	3.94
463.141	3.9
463.496	4.07
463.852	3.99
464.208	3.97
464.564	3.91
464.919	4.09
465.275	4.23
465.631	3.96
465.986	4.14
466.342	4.13
466.697	3.97
467.052	3.99
467.408	4.03
467.763	4.02
468.118	4.01
468.473	4.12
468.829	4.03
469.184	4.02
469.539	4.02
469.894	3.99
470.249	3.96
470.603	4.06
470.958	4.05
471.313	4.12
471.668	3.83
472.023	4.04
472.377	3.99
472.732	4.11
473.086	4.09
473.441	4.14
473.795	4.13
474.15	4.33
474.504	4.07
474.859	4.14
475.213	4.25
475.567	4.17
475.921	4.25
476.275	4.25
476.63	4.3
476.984	4.22
477.338	4.24
477.692	4.22
478.045	4.26
478.399	4.26
478.753	4.08
479.107	4.08
479.461	4.09
479.814	4.32
480.168	4.22
480.521	4.21
480.875	4.14
481.228	4.22
481.582	4.29
481.935	4.15
482.289	4.21
482.642	4.28
482.995	4.3
483.348	4.2
483.701	4.24
484.055	4.32
484.408	4.17
484.761	4.13
485.114	4.1
485.466	4.02
485.819	3.94
486.172	3.89
486.525	3.92
486.878	3.95
487.23	4.03
487.583	4.11
487.936	4.13
488.288	4.18
488.641	4.21
488.993	4.14
489.345	4.08
489.698	4.05
490.05	4.03
490.402	4
490.754	4.11
491.107	4.12
491.459	4.2
491.811	4.26
492.163	4.27
492.515	4.24
492.866	4.44
493.218	4.27
493.57	4.14
493.922	4.08
494.274	4.15
494.625	4.14
494.977	4.23
495.328	4.35
495.68	4.44
496.031	4.48
496.383	4.47
496.734	4.43
497.086	4.52
497.437	4.58
497.788	4.5
498.139	4.37
498.49	4.46
498.842	4.46
499.193	4.31
499.544	4.37
499.894	4.35
500.245	4.44
500.596	4.53
500.947	4.5
501.298	4.52
501.648	4.52
501.999	4.47
502.35	4.42
502.7	4.47
503.051	4.67
503.401	4.63
503.752	4.54
504.102	4.65
504.452	4.6
504.803	4.66
505.153	4.54
505.503	4.64
505.853	4.55
506.203	4.57
506.553	4.54
506.903	4.79
507.253	4.64
507.603	4.57
507.953	4.58
508.303	4.79
508.652	4.77
509.002	4.81
509.352	4.58
509.701	4.6
510.051	4.64
510.4	4.57
510.75	4.66
511.099	4.6
511.449	4.71
511.798	4.68
512.147	4.69
512.496	4.72
512.846	4.67
513.195	4.77
513.544	4.74
513.893	4.66
514.242	4.73
514.591	4.7
514.939	4.68
515.288	4.77
515.637	4.95
515.986	4.81
516.334	4.86
516.683	4.84
517.032	4.9
517.38	4.88
517.729	4.9
518.077	4.9
518.426	4.84
518.774	4.93
519.122	4.9
519.47	4.87
519.819	4.82
520.167	4.74
520.515	4.84
520.863	4.69
521.211	4.77
521.559	4.82
521.907	4.84
522.255	4.81
522.602	4.85
522.95	5.07
523.298	5
523.645	5
523.993	4.93
524.341	5.05
524.688	5.06
525.036	5.1
525.383	5.22
525.73	5.12
526.078	5.19
526.425	5.05
526.772	5.11
527.119	5.05
527.466	4.94
527.814	4.94
528.161	4.95
528.508	5.01
528.854	5.01
529.201	5.08
529.548	5.07
529.895	5.1
530.242	4.98
530.588	4.87
530.935	4.83
531.282	4.83
531.628	4.86
531.975	4.96
532.321	4.99
532.667	5.02
533.014	5.15
533.36	5.19
533.706	5.27
534.052	5.17
534.399	5.21
534.745	5.22
535.091	5.17
535.437	5.11
535.783	5.09
536.129	5.13
536.474	5.23
536.82	5.21
537.166	5.26
537.512	5.43
537.857	5.46
538.203	5.37
538.549	5.3
538.894	5.33
539.239	5.22
539.585	5.29
539.93	5.41
540.276	5.42
540.621	5.43
540.966	5.5
541.311	5.67
541.656	5.66
542.001	5.55
542.346	5.58
542.691	5.49
543.036	5.44
543.381	5.38
543.726	5.32
544.071	5.34
544.415	5.37
544.76	5.53
545.105	5.51
545.449	5.54
545.794	5.56
546.138	5.6
546.483	5.57
546.827	5.64
547.171	5.74
547.516	5.7
547.86	5.69
548.204	5.79
548.548	5.8
548.892	5.64
549.236	5.73
549.58	5.65
549.924	5.7
550.268	5.92
550.612	5.83
550.956	6
551.3	6.08
551.643	6.14
551.987	5.89
552.33	6.06
552.674	6.1
553.017	6.25
553.361	6.05
553.704	6.23
554.048	6.21
554.391	6.15
554.734	6.14
555.077	6.14
555.42	6.02
555.764	6.19
556.107	6.12
556.45	6.11
556.793	6.26
557.135	6.26
557.478	6.17
557.821	6.25
558.164	6.48
558.507	6.32
558.849	6.43
559.192	6.31
559.534	6.24
559.877	6.45
560.219	6.63
560.562	6.54
560.904	6.63
561.246	6.31
561.589	6.46
561.931	6.36
562.273	6.32
562.615	6.34
562.957	6.56
563.299	6.59
563.641	6.56
563.983	6.48
564.325	6.52
564.667	6.35
565.008	6.57
565.35	6.88
565.692	6.71
566.033	6.62
566.375	6.57
566.716	6.63
567.058	6.58
567.399	6.57
567.741	6.86
568.082	6.65
568.423	6.76
568.764	6.76
569.105	6.96
569.447	6.83
569.788	6.92
570.129	6.81
570.47	7.01
570.811	6.94
571.151	6.84
571.492	6.99
571.833	6.99
572.174	7.04
572.514	7.01
572.855	6.89
573.195	7.14
573.536	7.05
573.876	6.98
574.217	7.03
574.557	6.99
574.898	7.07
575.238	7.04
575.578	7.13
575.918	7.21
576.258	7.24
576.598	7.13
576.938	7.02
577.278	7.33
577.618	7.14
577.958	7.24
578.298	7.35
578.638	7.39
578.977	7.34
579.317	7.22
579.657	7.34
579.996	7.38
580.336	7.42
580.675	7.49
581.014	7.74
581.354	7.45
581.693	7.55
582.032	7.7
582.372	7.6
582.711	8
583.05	7.51
583.389	7.71
583.728	7.77
584.067	7.9
584.406	7.89
584.745	7.91
585.083	8.07
585.422	7.86
585.761	8.04
586.1	8.03
586.438	7.92
586.777	7.76
587.115	7.95
587.454	8.01
587.792	8.14
588.13	8.2
588.469	7.91
588.807	8.44
589.145	8.17
589.483	8.37
589.821	8.09
590.159	8.6
590.497	8.08
590.835	8.28
591.173	8.27
591.511	8.01
591.849	8.2
592.187	8.36
592.524	8.47
592.862	8.19
593.2	8.1
593.537	8.31
593.875	8.58
594.212	8.45
594.55	8.51
594.887	8.53
595.224	8.59
595.561	8.4
595.899	8.36
596.236	8.63
596.573	8.61
596.91	8.59
597.247	8.73
597.584	8.7
597.921	8.61
598.258	8.84
598.594	8.54
598.931	8.66
599.268	8.65
599.604	8.71
599.941	8.84
600.277	8.71
600.614	9.03
600.95	8.89
601.287	8.89
601.623	9.07
601.959	9.17
602.296	8.88
602.632	8.94
602.968	9.2
603.304	9.2
603.64	8.96
603.976	9.24
604.312	9.2
604.648	9.14
604.984	9.19
605.319	9.29
605.655	9.34
605.991	9.47
606.326	9.32
606.662	9.25
606.998	9.21
607.333	9.14
607.668	9.28
608.004	9.21
608.339	9.29
608.674	9.45
609.01	9.52
609.345	9.79
609.68	9.56
610.015	9.65
610.35	9.47
610.685	9.77
611.02	9.75
611.355	9.86
611.689	9.54
612.024	9.67
612.359	9.69
612.694	9.98
613.028	9.55
613.363	9.73
613.697	9.74
614.032	9.94
614.366	9.63
614.7	9.96
615.035	9.88
615.369	10.11
615.703	10.21
616.037	10.03
616.371	10.15
616.705	10.37
617.039	10.17
617.373	10.08
617.707	9.99
618.041	10.18
618.375	10.62
618.709	10.36
619.042	10.47
619.376	10.69
619.71	10.26
620.043	10.54
620.377	10.78
620.71	10.39
621.043	10.43
621.377	10.71
621.71	10.37
622.043	10.37
622.376	10.64
622.709	10.71
623.043	10.75
623.376	10.88
623.709	10.88
624.041	11.18
624.374	10.5
624.707	10.3
625.04	10.75
625.373	10.94
625.705	10.99
626.038	10.94
626.37	11.43
626.703	11.02
627.035	11.14
627.368	11.3
627.7	11.1
628.032	11.25
628.365	10.82
628.697	11.29
629.029	11.1
629.361	11.47
629.693	11.15
630.025	11.17
630.357	11.21
630.689	11.27
631.021	11.39
631.353	11.13
631.684	11.44
632.016	11.23
632.348	11.53
632.679	11.42
633.011	11.62
633.342	11.57
633.674	11.51
634.005	11.58
634.336	11.62
634.668	11.53
634.999	11.81
635.33	11.99
635.661	12.18
635.992	11.52
636.323	11.87
636.654	11.76
636.985	11.87
637.316	11.82
637.647	12.11
637.977	11.46
638.308	12.19
638.639	11.88
638.969	12.55
639.3	11.62
639.63	11.68
639.961	12.27
640.291	11.78
640.622	12.03
640.952	11.7
641.282	12.35
641.612	12.67
641.943	11.88
642.273	12.57
642.603	12.31
642.933	11.96
643.263	12.91
643.592	12.28
643.922	12.53
644.252	12.3
644.582	12.57
644.911	12.65
645.241	13.19
645.571	12.88
645.9	12.16
646.23	12.86
646.559	12.79
646.888	12.84
647.218	12.41
647.547	13.16
647.876	13.13
648.205	12.87
648.534	13.28
648.863	12.82
649.192	13.03
649.521	13.37
649.85	12.91
650.179	13.27
650.508	13.12
650.837	13.03
651.165	13.69
651.494	13.34
651.822	13.71
652.151	13.34
652.479	13.84
652.808	13.61
653.136	13.25
653.465	13.68
653.793	13.51
654.121	13.51
654.449	13.5
654.777	13.25
655.105	13.6
655.433	13.49
655.761	13.41
656.089	14.04
656.417	13.65
656.745	14.42
657.073	13.82
657.4	13.77
657.728	14.41
658.056	14.08
658.383	14.3
658.711	14.12
659.038	14.19
659.365	14.48
659.693	14.48
660.02	14.12
660.347	14.18
660.674	14.3
661.001	14.43
661.329	14.12
661.656	14.41
661.982	14.34
662.309	14.47
662.636	14.68
662.963	14.72
663.29	14.45
663.616	14.52
663.943	14.21
664.27	14.66
664.596	14.74
664.923	14.32
665.249	14.73
665.576	14.83
665.902	14.58
666.228	14.94
666.554	14.54
666.881	14.61
667.207	14.83
667.533	15.53
667.859	14.07
668.185	14.63
668.511	14.95
668.837	14.59
669.162	14.98
669.488	14.7
669.814	15.39
670.139	15.17
670.465	15.28
670.791	15.63
671.116	14.92
671.442	15.17
671.767	14.93
672.092	15.43
672.418	15.34
672.743	15.7
673.068	15.48
673.393	15.67
673.718	15.45
674.043	15.48
674.368	15.25
674.693	16.04
675.018	16.29
675.343	16.24
675.667	16.33
675.992	16.16
676.317	15.46
676.641	15.8
676.966	15.84
677.29	15.29
677.615	16.09
677.939	15.84
678.264	15.39
678.588	15.92
678.912	15.86
679.236	15.79
679.56	16.27
679.885	16.37
680.209	15.53
680.532	16.56
680.856	15.95
681.18	16.53
681.504	15.81
681.828	16.11
682.152	16.81
682.475	16.59
682.799	16.82
683.122	16.05
683.446	16.42
683.769	16.55
684.093	16.43
684.416	17.03
684.739	16.82
685.062	17.34
685.386	17.15
685.709	16.31
686.032	15.89
686.355	16.63
686.678	16.93
687.001	16.23
