Data from 0175_chest_Reflection__1__062.txt Node

Date: Mon Aug 28 19:08:30 CDT 2023
User: ToomeyLab
Spectrometer: FLMS14357
Trigger mode: 0
Integration Time (sec): 1.000000E-2
Scans to average: 100
Electric dark correction enabled: true
Nonlinearity correction enabled: false
Boxcar width: 0
XAxis mode: Wavelengths
Number of Pixels in Spectrum: 2048
>>>>>Begin Spectral Data<<<<<
189.047	67.61
189.435	67.61
189.823	67.61
190.211	-6018.6
190.599	-69.19
190.987	550.06
191.375	-16.44
191.763	104.68
192.151	-98.52
192.538	182.79
192.926	216.36
193.314	336.79
193.702	115.99
194.089	108.64
194.477	-4183.53
194.864	-535.97
195.252	124.83
195.639	-4611.97
196.027	121.81
196.414	393.43
196.801	-1.95
197.189	53.21
197.576	290.12
197.963	-40.5
198.351	-18.22
198.738	-18.51
199.125	-19.16
199.512	-13.76
199.899	46.88
200.286	-0.64
200.673	3.69
201.06	-13.45
201.447	-35.89
201.833	-66.87
202.22	2.64
202.607	15.03
202.994	16.95
203.38	19.03
203.767	-36.75
204.154	20.28
204.54	-47.48
204.927	-49.86
205.313	-1.29
205.699	-21.94
206.086	12.34
206.472	-37.25
206.858	18.14
207.245	11.02
207.631	47.94
208.017	2.46
208.403	13.77
208.789	-28.52
209.175	-50.89
209.561	32.21
209.947	-10.23
210.333	-4.87
210.719	16.17
211.105	8.31
211.491	-4.87
211.876	9.61
212.262	5.47
212.648	31.82
213.034	-55.74
213.419	-11.94
213.805	3.56
214.19	6.54
214.576	21.79
214.961	2.76
215.346	-35.61
215.732	1.64
216.117	-21.13
216.502	-0.12
216.888	-47.33
217.273	-17.25
217.658	9.85
218.043	-15.18
218.428	11.06
218.813	-8.06
219.198	-23.3
219.583	-7.63
219.968	-1.89
220.353	10.12
220.738	8.99
221.122	-0.16
221.507	-3.85
221.892	20.86
222.276	14.29
222.661	-1.11
223.046	-4.11
223.43	4.14
223.815	11.49
224.199	12.43
224.583	1.82
224.968	7.06
225.352	10.54
225.736	2.26
226.121	2.59
226.505	-2.5
226.889	11.68
227.273	6.25
227.657	2.2
228.041	7.56
228.425	8.04
228.809	1.86
229.193	6.82
229.577	7.26
229.961	4.07
230.344	6.3
230.728	5.19
231.112	3.57
231.495	5.52
231.879	4.16
232.263	4.85
232.646	4.08
233.03	6.03
233.413	6.62
233.797	4.76
234.18	4.04
234.563	4.43
234.946	7.35
235.33	6.62
235.713	4.01
236.096	6.15
236.479	4.6
236.862	6.77
237.245	3.25
237.628	5.1
238.011	7.05
238.394	5.9
238.777	4.82
239.16	3.44
239.543	2.58
239.925	6.66
240.308	2.63
240.691	3.48
241.073	4.62
241.456	3.2
241.838	3.96
242.221	5.71
242.603	5.12
242.986	5.03
243.368	5.29
243.75	4.65
244.133	5.72
244.515	4.39
244.897	5.01
245.279	4.41
245.661	4.54
246.043	5.33
246.425	4.42
246.807	4.81
247.189	4.12
247.571	4.38
247.953	3.94
248.335	4.35
248.717	4.51
249.098	4.42
249.48	4.49
249.862	4.58
250.243	4.15
250.625	4.72
251.006	4.19
251.388	4.71
251.769	5.44
252.151	4.13
252.532	3.42
252.913	5.03
253.295	3.28
253.676	4.63
254.057	4.84
254.438	3.96
254.819	4.04
255.2	4.03
255.581	4.59
255.962	4.67
256.343	5.02
256.724	3.38
257.105	4.05
257.486	4.54
257.867	3.76
258.247	3.45
258.628	4.96
259.009	4.69
259.389	3.71
259.77	4
260.15	4.11
260.531	3.63
260.911	4.43
261.292	4.26
261.672	4.13
262.052	4.18
262.432	4.11
262.813	3.96
263.193	4.12
263.573	4.27
263.953	4.46
264.333	4.04
264.713	4.4
265.093	4.54
265.473	3.59
265.853	3.76
266.233	3.73
266.612	4.43
266.992	3.84
267.372	3.36
267.752	4.93
268.131	4.43
268.511	3.77
268.89	4.03
269.27	3.64
269.649	3.99
270.029	4.66
270.408	4.43
270.787	5.14
271.167	4.41
271.546	3.83
271.925	3.8
272.304	3.61
272.683	4.36
273.062	3.5
273.441	4.12
273.82	3.71
274.199	3.45
274.578	3.95
274.957	3.99
275.336	4.42
275.715	4.37
276.093	3.53
276.472	3.56
276.851	3.72
277.229	4.35
277.608	4.2
277.986	3.91
278.365	4.02
278.743	3.87
279.122	3.75
279.5	3.45
279.878	3.74
280.257	3.96
280.635	4.17
281.013	3.92
281.391	3.56
281.769	3.42
282.147	4.05
282.525	4.54
282.903	3.93
283.281	4.27
283.659	4.28
284.037	4.13
284.415	4.03
284.792	4.24
285.17	3.58
285.548	4.11
285.925	4.04
286.303	4.33
286.68	3.79
287.058	3.63
287.435	3.75
287.813	3.85
288.19	4.33
288.567	3.97
288.945	3.99
289.322	3.81
289.699	3.93
290.076	4.05
290.453	4.25
290.83	3.18
291.207	3.83
291.584	3.67
291.961	4.05
292.338	3.84
292.715	3.56
293.092	3.7
293.469	3.71
293.845	3.43
294.222	3.78
294.599	3.43
294.975	4.06
295.352	3.43
295.728	3.97
296.105	4.05
296.481	3.68
296.858	4.19
297.234	3.86
297.61	3.99
297.986	3.76
298.363	3.48
298.739	4.02
299.115	3.74
299.491	3.98
299.867	3.85
300.243	3.87
300.619	3.77
300.995	3.96
301.371	4.22
301.746	3.89
302.122	3.59
302.498	3.73
302.874	3.59
303.249	4.02
303.625	4.21
304	4.01
304.376	3.55
304.751	3.53
305.127	3.87
305.502	3.7
305.878	3.81
306.253	3.86
306.628	3.62
307.003	4.01
307.378	3.83
307.754	3.89
308.129	3.82
308.504	4.5
308.879	4.56
309.254	3.92
309.629	3.16
310.003	3.58
310.378	3.44
310.753	3.74
311.128	3.9
311.502	4.09
311.877	3.63
312.252	3.97
312.626	3.99
313.001	3.89
313.375	3.93
313.75	3.92
314.124	3.95
314.498	4.16
314.873	3.74
315.247	4.17
315.621	3.48
315.995	4.32
316.369	4.01
316.743	3.49
317.117	3.82
317.491	3.07
317.865	3.3
318.239	3.83
318.613	4.14
318.987	4.19
319.361	4.31
319.734	3.67
320.108	3.86
320.482	3.99
320.855	3.53
321.229	4.03
321.602	3.74
321.976	3.72
322.349	4.2
322.723	3.97
323.096	4.37
323.469	3.55
323.843	3.48
324.216	3.99
324.589	3.86
324.962	3.76
325.335	3.48
325.708	3.59
326.081	3.47
326.454	3.99
326.827	3.47
327.2	3.51
327.573	3.38
327.945	4.18
328.318	3.82
328.691	3.5
329.063	3.79
329.436	3.81
329.809	4.03
330.181	3.82
330.553	3.14
330.926	3.26
331.298	3.87
331.671	3.82
332.043	3.63
332.415	4.44
332.787	3.6
333.159	3.64
333.532	4.17
333.904	3.95
334.276	3.44
334.648	4.06
335.02	4.13
335.391	3.61
335.763	3.54
336.135	4.26
336.507	3.85
336.879	3.62
337.25	4.18
337.622	3.89
337.993	3.82
338.365	3.7
338.736	4.09
339.108	3.26
339.479	3.38
339.851	4.13
340.222	4.35
340.593	3.62
340.964	3.88
341.336	3.51
341.707	3.64
342.078	3.8
342.449	3.79
342.82	4.44
343.191	3.89
343.562	3.65
343.933	3.75
344.303	3.6
344.674	3.6
345.045	3.76
345.416	4.19
345.786	4.28
346.157	3.95
346.527	3.4
346.898	3.64
347.268	3.37
347.639	3.35
348.009	3.49
348.38	3.78
348.75	3.75
349.12	4.14
349.49	3.81
349.861	3.31
350.231	3.47
350.601	4.07
350.971	4.21
351.341	3.67
351.711	3.58
352.081	3.86
352.45	3.86
352.82	4.04
353.19	4.52
353.56	4.01
353.929	3.89
354.299	3.54
354.669	3.9
355.038	3.94
355.408	3.8
355.777	3.81
356.147	3.66
356.516	4.11
356.885	3.7
357.254	3.81
357.624	3.93
357.993	4
358.362	3.43
358.731	3.87
359.1	3.79
359.469	3.73
359.838	3.45
360.207	3.9
360.576	4.08
360.945	3.59
361.314	3.77
361.682	3.87
362.051	3.9
362.42	3.78
362.788	3.57
363.157	3.64
363.525	3.73
363.894	4.05
364.262	3.92
364.631	3.86
364.999	3.88
365.367	3.79
365.735	3.53
366.104	3.8
366.472	3.8
366.84	3.98
367.208	3.69
367.576	3.55
367.944	3.98
368.312	4.4
368.68	3.84
369.048	3.78
369.416	3.53
369.783	3.92
370.151	3.89
370.519	3.68
370.886	3.58
371.254	3.47
371.621	3.75
371.989	3.95
372.356	3.44
372.724	4.2
373.091	4.16
373.458	3.76
373.826	4
374.193	3.63
374.56	3.85
374.927	3.6
375.294	3.78
375.661	3.76
376.028	3.64
376.395	3.84
376.762	3.9
377.129	3.5
377.496	3.61
377.863	4.09
378.229	3.82
378.596	4.45
378.963	4.08
379.329	3.97
379.696	3.82
380.062	3.81
380.429	3.55
380.795	4.16
381.161	4.04
381.528	4.26
381.894	3.82
382.26	4.12
382.626	4.01
382.993	4.16
383.359	3.9
383.725	4.19
384.091	3.99
384.457	3.93
384.823	3.75
385.188	3.81
385.554	3.8
385.92	3.69
386.286	4.3
386.651	3.87
387.017	3.76
387.383	4.06
387.748	3.83
388.114	3.76
388.479	3.5
388.845	3.95
389.21	3.91
389.575	3.84
389.94	3.6
390.306	3.86
390.671	4.06
391.036	4.04
391.401	3.89
391.766	4.29
392.131	4.05
392.496	3.49
392.861	3.9
393.226	3.89
393.591	3.69
393.956	3.86
394.32	3.87
394.685	3.85
395.05	4
395.414	4.14
395.779	3.99
396.143	3.8
396.508	3.62
396.872	4.22
397.236	4.22
397.601	3.77
397.965	3.91
398.329	4.02
398.694	3.93
399.058	3.72
399.422	3.9
399.786	3.97
400.15	4.04
400.514	3.96
400.878	3.58
401.242	4.14
401.605	4.08
401.969	3.87
402.333	4.02
402.697	3.87
403.06	3.93
403.424	4.02
403.787	3.84
404.151	3.88
404.514	3.99
404.878	4.09
405.241	4.04
405.604	4.11
405.968	3.78
406.331	4.07
406.694	4.1
407.057	3.86
407.42	3.82
407.783	3.83
408.146	4
408.509	3.97
408.872	4.01
409.235	4.12
409.598	4.07
409.961	3.93
410.323	4.14
410.686	4.15
411.049	4.31
411.411	4.11
411.774	3.96
412.136	3.77
412.499	3.91
412.861	3.95
413.223	3.86
413.586	3.86
413.948	3.87
414.31	4.08
414.672	3.88
415.035	3.94
415.397	3.84
415.759	3.98
416.121	4.24
416.483	3.94
416.845	4.13
417.206	4.22
417.568	4.07
417.93	3.95
418.292	4.04
418.653	4.05
419.015	3.92
419.377	3.64
419.738	4.07
420.1	3.97
420.461	4.07
420.822	3.98
421.184	3.9
421.545	4.09
421.906	4.05
422.267	3.99
422.629	3.88
422.99	3.91
423.351	3.98
423.712	3.92
424.073	3.9
424.434	4.06
424.795	3.91
425.155	3.94
425.516	3.83
425.877	3.84
426.238	3.9
426.598	3.92
426.959	3.87
427.32	3.98
427.68	3.98
428.041	3.8
428.401	4.06
428.761	3.92
429.122	3.96
429.482	4.16
429.842	4.1
430.202	3.9
430.563	3.9
430.923	4.3
431.283	4.09
431.643	4.02
432.003	4.01
432.363	4.08
432.722	4.05
433.082	3.91
433.442	4.03
433.802	4.02
434.161	4.2
434.521	4.06
434.881	3.9
435.24	3.97
435.6	4.08
435.959	3.98
436.319	4.14
436.678	4
437.037	3.96
437.396	4.22
437.756	4.01
438.115	4.23
438.474	4.17
438.833	4.04
439.192	3.97
439.551	3.91
439.91	4.01
440.269	3.85
440.628	3.98
440.987	4.11
441.345	3.92
441.704	4.09
442.063	3.97
442.421	3.96
442.78	4.03
443.138	3.97
443.497	3.98
443.855	3.98
444.214	4.04
444.572	3.99
444.93	4.07
445.288	4.06
445.647	4.1
446.005	4.08
446.363	4.19
446.721	4.06
447.079	4.07
447.437	4.1
447.795	4.01
448.153	4.12
448.51	4
448.868	4.07
449.226	3.99
449.584	4.04
449.941	4.03
450.299	3.97
450.656	4
451.014	3.91
451.371	4.03
451.729	3.87
452.086	4.05
452.443	4.22
452.801	4.18
453.158	4.12
453.515	4.03
453.872	4.08
454.229	4.23
454.586	4.19
454.943	4.13
455.3	4.18
455.657	4.31
456.014	4.16
456.371	4.21
456.727	4.24
457.084	4.16
457.441	4.16
457.797	4.26
458.154	4.19
458.51	4.19
458.867	3.99
459.223	4.28
459.58	4.14
459.936	4.23
460.292	4.28
460.648	4.14
461.005	3.94
461.361	4.18
461.717	4.11
462.073	4.1
462.429	4.06
462.785	4.07
463.141	4.08
463.496	4.23
463.852	4.22
464.208	4.07
464.564	4.26
464.919	4.27
465.275	4.25
465.631	4.21
465.986	4.08
466.342	4.25
466.697	4.08
467.052	4.19
467.408	4.28
467.763	4.06
468.118	4.13
468.473	4.19
468.829	4.28
469.184	3.99
469.539	4.1
469.894	4.11
470.249	4.14
470.603	4.05
470.958	4.14
471.313	4.21
471.668	4.15
472.023	4.09
472.377	4.15
472.732	4.31
473.086	4.23
473.441	4.32
473.795	4.33
474.15	4.32
474.504	4.27
474.859	4.15
475.213	4.17
475.567	4.21
475.921	4.37
476.275	4.13
476.63	4.42
476.984	4.31
477.338	4.32
477.692	4.16
478.045	4.31
478.399	4.3
478.753	4.16
479.107	4.24
479.461	4.2
479.814	4.24
480.168	4.33
480.521	4.37
480.875	4.16
481.228	4.25
481.582	4.24
481.935	4.11
482.289	4.19
482.642	4.26
482.995	4.31
483.348	4.32
483.701	4.27
484.055	4.18
484.408	4.13
484.761	4.22
485.114	4.18
485.466	4.13
485.819	4.03
486.172	3.95
486.525	3.96
486.878	3.94
487.23	3.99
487.583	4.03
487.936	4.11
488.288	4.14
488.641	4.16
488.993	4.14
489.345	4.11
489.698	4.12
490.05	4.07
490.402	4.05
490.754	4.06
491.107	4.1
491.459	4.09
491.811	4.14
492.163	4.14
492.515	4.26
492.866	4.29
493.218	4.12
493.57	4.19
493.922	4.08
494.274	4.12
494.625	4.03
494.977	4.18
495.328	4.14
495.68	4.19
496.031	4.2
496.383	4.19
496.734	4.23
497.086	4.46
497.437	4.48
497.788	4.3
498.139	4.38
498.49	4.26
498.842	4.37
499.193	4.29
499.544	4.32
499.894	4.25
500.245	4.25
500.596	4.3
500.947	4.3
501.298	4.36
501.648	4.36
501.999	4.3
502.35	4.18
502.7	4.46
503.051	4.41
503.401	4.46
503.752	4.41
504.102	4.3
504.452	4.38
504.803	4.49
505.153	4.48
505.503	4.4
505.853	4.33
506.203	4.39
506.553	4.44
506.903	4.37
507.253	4.47
507.603	4.4
507.953	4.46
508.303	4.57
508.652	4.54
509.002	4.48
509.352	4.34
509.701	4.37
510.051	4.46
510.4	4.34
510.75	4.39
511.099	4.41
511.449	4.32
511.798	4.27
512.147	4.41
512.496	4.45
512.846	4.42
513.195	4.52
513.544	4.42
513.893	4.44
514.242	4.48
514.591	4.58
514.939	4.39
515.288	4.35
515.637	4.45
515.986	4.41
516.334	4.65
516.683	4.66
517.032	4.47
517.38	4.6
517.729	4.6
518.077	4.54
518.426	4.52
518.774	4.57
519.122	4.63
519.47	4.39
519.819	4.55
520.167	4.53
520.515	4.46
520.863	4.41
521.211	4.41
521.559	4.44
521.907	4.53
522.255	4.42
522.602	4.48
522.95	4.6
523.298	4.61
523.645	4.61
523.993	4.55
524.341	4.65
524.688	4.58
525.036	4.62
525.383	4.72
525.73	4.68
526.078	4.77
526.425	4.61
526.772	4.64
527.119	4.65
527.466	4.51
527.814	4.54
528.161	4.5
528.508	4.54
528.854	4.6
529.201	4.6
529.548	4.61
529.895	4.61
530.242	4.5
530.588	4.46
530.935	4.41
531.282	4.4
531.628	4.41
531.975	4.45
532.321	4.45
532.667	4.5
533.014	4.58
533.36	4.59
533.706	4.63
534.052	4.6
534.399	4.62
534.745	4.72
535.091	4.67
535.437	4.6
535.783	4.59
536.129	4.59
536.474	4.59
536.82	4.64
537.166	4.71
537.512	4.67
537.857	4.69
538.203	4.66
538.549	4.75
538.894	4.7
539.239	4.66
539.585	4.68
539.93	4.7
540.276	4.68
540.621	4.82
540.966	4.78
541.311	4.93
541.656	4.93
542.001	4.89
542.346	4.89
542.691	4.9
543.036	4.85
543.381	4.69
543.726	4.64
544.071	4.71
544.415	4.79
544.76	4.74
545.105	4.79
545.449	4.76
545.794	4.86
546.138	4.86
546.483	4.82
546.827	4.97
547.171	4.91
547.516	4.92
547.86	4.93
548.204	5.02
548.548	5.02
548.892	4.86
549.236	4.94
549.58	4.85
549.924	4.83
550.268	4.98
550.612	4.97
550.956	5.09
551.3	5.1
551.643	5.13
551.987	5.08
552.33	5.16
552.674	5.1
553.017	5.12
553.361	5.25
553.704	5.04
554.048	5.28
554.391	5.18
554.734	5.33
555.077	5.2
555.42	5.21
555.764	5.2
556.107	5.17
556.45	5.13
556.793	5.26
557.135	5.18
557.478	5.29
557.821	5.2
558.164	5.37
558.507	5.3
558.849	5.57
559.192	5.24
559.534	5.11
559.877	5.36
560.219	5.58
560.562	5.24
560.904	5.7
561.246	5.32
561.589	5.48
561.931	5.56
562.273	5.34
562.615	5.39
562.957	5.49
563.299	5.59
563.641	5.38
563.983	5.62
564.325	5.42
564.667	5.3
565.008	5.44
565.35	5.72
565.692	5.74
566.033	5.45
566.375	5.41
566.716	5.54
567.058	5.65
567.399	5.41
567.741	5.73
568.082	5.55
568.423	5.62
568.764	5.56
569.105	5.68
569.447	5.65
569.788	5.64
570.129	5.6
570.47	5.66
570.811	5.68
571.151	5.54
571.492	5.67
571.833	5.72
572.174	5.79
572.514	5.7
572.855	5.68
573.195	5.81
573.536	5.78
573.876	5.85
574.217	5.67
574.557	5.76
574.898	5.88
575.238	5.72
575.578	5.77
575.918	5.79
576.258	5.8
576.598	5.98
576.938	5.87
577.278	5.93
577.618	5.83
577.958	6
578.298	5.98
578.638	5.96
578.977	5.94
579.317	5.92
579.657	6.09
579.996	6.05
580.336	5.93
580.675	5.95
581.014	6.16
581.354	6.1
581.693	6.08
582.032	6.36
582.372	6.21
582.711	6.42
583.05	6.06
583.389	6.2
583.728	6.25
584.067	6.41
584.406	6.22
584.745	6.32
585.083	6.23
585.422	6.36
585.761	6.36
586.1	6.55
586.438	6.22
586.777	6.3
587.115	6.54
587.454	6.45
587.792	6.53
588.13	6.31
588.469	6.39
588.807	6.48
589.145	6.36
589.483	6.56
589.821	6.42
590.159	6.75
590.497	6.72
590.835	6.6
591.173	6.24
591.511	6.37
591.849	6.43
592.187	6.6
592.524	6.67
592.862	6.77
593.2	6.71
593.537	6.64
593.875	6.86
594.212	6.83
594.55	6.97
594.887	6.62
595.224	6.77
595.561	6.62
595.899	6.33
596.236	6.78
596.573	6.91
596.91	6.68
597.247	7.15
597.584	6.82
597.921	6.85
598.258	6.82
598.594	6.91
598.931	6.8
599.268	7.07
599.604	6.9
599.941	6.96
600.277	6.74
600.614	6.94
600.95	6.89
601.287	6.91
601.623	7.13
601.959	7.13
602.296	6.74
602.632	7.22
602.968	7.18
603.304	7.21
603.64	7.08
603.976	7.03
604.312	7.14
604.648	7.19
604.984	7.36
605.319	7.32
605.655	7.36
605.991	7.22
606.326	7.34
606.662	7.28
606.998	7.38
607.333	7.26
607.668	7.31
608.004	7.26
608.339	7.28
608.674	7.31
609.01	7.57
609.345	7.41
609.68	7.47
610.015	7.7
610.35	7.63
610.685	7.54
611.02	7.43
611.355	7.79
611.689	7.36
612.024	7.74
612.359	7.61
612.694	7.53
613.028	7.64
613.363	7.5
613.697	7.58
614.032	7.67
614.366	7.85
614.7	7.8
615.035	7.7
615.369	7.77
615.703	7.7
616.037	7.82
616.371	7.6
616.705	7.98
617.039	7.72
617.373	7.88
617.707	7.81
618.041	7.81
618.375	8.06
618.709	7.88
619.042	7.96
619.376	8.24
619.71	8.25
620.043	8.02
620.377	8.37
620.71	7.81
621.043	8.09
621.377	8.25
621.71	8.03
622.043	8.09
622.376	8.06
622.709	8.07
623.043	8.28
623.376	8.47
623.709	8.53
624.041	8.64
624.374	8.19
624.707	8.01
625.04	8.01
625.373	8.44
625.705	8.78
626.038	8.78
626.37	8.23
626.703	8.56
627.035	8.94
627.368	8.95
627.7	8.58
628.032	8.9
628.365	8.66
628.697	8.71
629.029	8.69
629.361	8.61
629.693	8.5
630.025	8.7
630.357	8.37
630.689	8.76
631.021	8.89
631.353	8.32
631.684	8.86
632.016	8.61
632.348	8.89
632.679	9.11
633.011	8.76
633.342	8.69
633.674	9.16
634.005	8.85
634.336	9.05
634.668	9.01
634.999	9.03
635.33	9.2
635.661	9.24
635.992	8.61
636.323	9.35
636.654	9.12
636.985	8.87
637.316	9.38
637.647	9.24
637.977	8.85
638.308	9.41
638.639	8.98
638.969	9.74
639.3	9.04
639.63	9.46
639.961	9.51
640.291	9.3
640.622	9.45
640.952	8.74
641.282	9.27
641.612	9.44
641.943	9.54
642.273	10.11
642.603	9.63
642.933	9.33
643.263	9.64
643.592	9.57
643.922	9.75
644.252	9.31
644.582	9.39
644.911	9.74
645.241	10.01
645.571	9.63
645.9	9.63
646.23	9.73
646.559	9.65
646.888	9.86
647.218	9.51
647.547	10.04
647.876	9.93
648.205	9.64
648.534	10.05
648.863	9.75
649.192	9.9
649.521	9.84
649.85	10.31
650.179	10.28
650.508	10.13
650.837	10.11
651.165	10.14
651.494	9.91
651.822	9.71
652.151	10.09
652.479	10.3
652.808	9.88
653.136	9.72
653.465	10.57
653.793	10.7
654.121	10.66
654.449	10.38
654.777	10.35
655.105	10.45
655.433	10.43
655.761	10.08
656.089	10.41
656.417	10.24
656.745	10.01
657.073	10.54
657.4	10.66
657.728	10.89
658.056	10.97
658.383	10.35
658.711	10.69
659.038	10.27
659.365	10.84
659.693	10.52
660.02	10.57
660.347	10.67
660.674	10.96
661.001	11.1
661.329	10.72
661.656	10.48
661.982	10.88
662.309	10.91
662.636	10.7
662.963	10.93
663.29	11.3
663.616	10.81
663.943	11.24
664.27	11.04
664.596	10.79
664.923	11.89
665.249	11.17
665.576	11.23
665.902	10.88
666.228	11.38
666.554	11.29
666.881	11.49
667.207	11.52
667.533	11.2
667.859	10.8
668.185	11.01
668.511	11.33
668.837	10.65
669.162	11.62
669.488	11.25
669.814	11.1
670.139	11.58
670.465	11.7
670.791	11.71
671.116	11.62
671.442	11.51
671.767	11.18
672.092	11.73
672.418	11.51
672.743	11.84
673.068	11.6
673.393	11.63
673.718	11.21
674.043	11.81
674.368	11.58
674.693	11.89
675.018	12.49
675.343	11.69
675.667	12.39
675.992	12.11
676.317	11.68
676.641	12.28
676.966	11.5
677.29	11.52
677.615	12.68
677.939	11.84
678.264	11.73
678.588	12.4
678.912	12.89
679.236	11.49
679.56	11.76
679.885	12.17
680.209	12.28
680.532	12.7
680.856	12.19
681.18	12.4
681.504	12.5
681.828	12.12
682.152	12.1
682.475	12.49
682.799	12.66
683.122	12.33
683.446	12.38
683.769	12.95
684.093	12.4
684.416	12.6
684.739	12.25
685.062	12.9
685.386	11.88
685.709	13.3
686.032	11.85
686.355	12.48
686.678	12.69
687.001	12.01
687.324	12.57
687.646	12.41
687.969	12.77
688.292	12.91
688.614	13.87
688.937	12.61
689.26	13.63
689.582	13.18
