Data from 0175_forehead_Reflection__0__066.txt Node

Date: Mon Aug 28 19:13:43 CDT 2023
User: ToomeyLab
Spectrometer: FLMS14357
Trigger mode: 0
Integration Time (sec): 1.000000E-2
Scans to average: 100
Electric dark correction enabled: true
Nonlinearity correction enabled: false
Boxcar width: 0
XAxis mode: Wavelengths
Number of Pixels in Spectrum: 2048
>>>>>Begin Spectral Data<<<<<
189.047	47.35
189.435	47.35
189.823	47.35
190.211	-2990.7
190.599	-79.79
190.987	33.89
191.375	11.16
191.763	129.14
192.151	-38.49
192.538	-45.65
192.926	209.16
193.314	-481.72
193.702	135.73
194.089	117.2
194.477	-1028.24
194.864	105.47
195.252	62.63
195.639	4476.92
196.027	109.25
196.414	29.42
196.801	86.47
197.189	30.36
197.576	-464.96
197.963	-37.12
198.351	64.03
198.738	28.35
199.125	30.95
199.512	-20.46
199.899	70.16
200.286	94.4
200.673	37.82
201.06	9.31
201.447	-1.42
201.833	12.03
202.22	1.14
202.607	24.55
202.994	23.24
203.38	44.16
203.767	35.32
204.154	15.01
204.54	26.09
204.927	-30.32
205.313	71.79
205.699	-16.52
206.086	38.63
206.472	32.34
206.858	17.51
207.245	19.13
207.631	44.86
208.017	18.02
208.403	19.89
208.789	23.74
209.175	15.44
209.561	-13.19
209.947	49.03
210.333	31.11
210.719	16.88
211.105	14.57
211.491	37.05
211.876	50.25
212.262	4.12
212.648	27.86
213.034	13.61
213.419	17.43
213.805	40.37
214.19	16.55
214.576	20.22
214.961	11.39
215.346	11.95
215.732	59.26
216.117	7.64
216.502	28.33
216.888	7.65
217.273	21.97
217.658	23.62
218.043	23.12
218.428	25.38
218.813	5.63
219.198	46.48
219.583	26.69
219.968	19.31
220.353	28.26
220.738	33.18
221.122	30.63
221.507	27.97
221.892	29.21
222.276	14.52
222.661	17.42
223.046	10.09
223.43	6.03
223.815	15.22
224.199	26.87
224.583	14.14
224.968	12.94
225.352	23.29
225.736	12.02
226.121	1.37
226.505	14.62
226.889	16.59
227.273	18.3
227.657	13.52
228.041	13.64
228.425	8.64
228.809	11.05
229.193	9.86
229.577	11.19
229.961	7.2
230.344	6.52
230.728	6.9
231.112	5.93
231.495	6.96
231.879	6.49
232.263	7.85
232.646	5.46
233.03	7.85
233.413	8.88
233.797	7.52
234.18	5.66
234.563	6.33
234.946	9.92
235.33	7.19
235.713	5.3
236.096	7.71
236.479	6.68
236.862	7.87
237.245	6.32
237.628	6.62
238.011	8.84
238.394	10.08
238.777	8.64
239.16	6.75
239.543	6.42
239.925	8.16
240.308	7.02
240.691	5.27
241.073	6.4
241.456	7.58
241.838	7.01
242.221	8.56
242.603	7.71
242.986	8.06
243.368	6.93
243.75	6.69
244.133	6.33
244.515	6.38
244.897	6.41
245.279	6.76
245.661	6.49
246.043	7
246.425	6.95
246.807	7.36
247.189	6.03
247.571	6.57
247.953	7.33
248.335	6.68
248.717	6.33
249.098	6.41
249.48	6.21
249.862	6.2
250.243	6.45
250.625	6.98
251.006	6.89
251.388	7.12
251.769	6.78
252.151	6.85
252.532	6.66
252.913	7.81
253.295	6.04
253.676	6.26
254.057	6.31
254.438	6.43
254.819	5.73
255.2	6.94
255.581	6.29
255.962	7.12
256.343	7.91
256.724	6.65
257.105	6.91
257.486	7.49
257.867	6.44
258.247	6.53
258.628	7.84
259.009	5.93
259.389	6.1
259.77	7.3
260.15	6.22
260.531	5.69
260.911	6.2
261.292	6.39
261.672	5.96
262.052	5.7
262.432	5.85
262.813	5.98
263.193	6.41
263.573	6.23
263.953	6.8
264.333	6.61
264.713	6.22
265.093	6.45
265.473	6.24
265.853	5.82
266.233	5.53
266.612	7.02
266.992	6.49
267.372	5.73
267.752	7.15
268.131	6.41
268.511	5.67
268.89	6.48
269.27	5.84
269.649	6.04
270.029	6.32
270.408	6.74
270.787	6.51
271.167	5.57
271.546	5.93
271.925	6.2
272.304	6.22
272.683	6.15
273.062	6.07
273.441	6.22
273.82	5.79
274.199	5.83
274.578	5.83
274.957	6.18
275.336	6.5
275.715	5.69
276.093	5.26
276.472	6
276.851	6.11
277.229	6.28
277.608	5.98
277.986	5.38
278.365	6.71
278.743	5.89
279.122	6.23
279.5	5.43
279.878	5.91
280.257	6.12
280.635	6.48
281.013	5.86
281.391	5.76
281.769	6.24
282.147	6.42
282.525	6.39
282.903	6.59
283.281	5.55
283.659	7.05
284.037	6.31
284.415	5.76
284.792	6.15
285.17	5.83
285.548	5.96
285.925	6.47
286.303	6.04
286.68	6.18
287.058	6.27
287.435	5.83
287.813	5.97
288.19	6.03
288.567	5.93
288.945	6.21
289.322	6.18
289.699	6.06
290.076	6.61
290.453	6.29
290.83	6.13
291.207	6.08
291.584	6.69
291.961	6.45
292.338	6.29
292.715	6.07
293.092	6.2
293.469	6.07
293.845	6
294.222	5.89
294.599	5.79
294.975	7.29
295.352	7.14
295.728	6.68
296.105	6.56
296.481	6.36
296.858	7.15
297.234	6.58
297.61	6.68
297.986	6.51
298.363	6.94
298.739	6.57
299.115	6.56
299.491	6.64
299.867	6.7
300.243	6.91
300.619	6.99
300.995	7.32
301.371	7.01
301.746	7.33
302.122	6.88
302.498	7.08
302.874	7.34
303.249	7.31
303.625	7.43
304	7.63
304.376	6.85
304.751	7.66
305.127	7.9
305.502	8.15
305.878	7.23
306.253	7.33
306.628	7.5
307.003	7.9
307.378	8.4
307.754	8.48
308.129	8.1
308.504	8.02
308.879	8.08
309.254	8.36
309.629	8.11
310.003	8.31
310.378	8.08
310.753	8.66
311.128	8.38
311.502	8.59
311.877	8.31
312.252	8.74
312.626	8.38
313.001	8.65
313.375	8.68
313.75	8.23
314.124	8.61
314.498	8.98
314.873	8.79
315.247	9.24
315.621	8.75
315.995	9.39
316.369	9.17
316.743	9.07
317.117	9.57
317.491	8.62
317.865	8.91
318.239	9.22
318.613	9.4
318.987	9.39
319.361	9.72
319.734	9.47
320.108	9.26
320.482	10.11
320.855	9.7
321.229	9.66
321.602	9.47
321.976	9.96
322.349	9.58
322.723	10.14
323.096	10.12
323.469	9.45
323.843	9.9
324.216	10.69
324.589	10.78
324.962	10.25
325.335	10.4
325.708	10.22
326.081	10.49
326.454	10.67
326.827	10.34
327.2	10.37
327.573	10.19
327.945	11.35
328.318	11.41
328.691	10.28
329.063	10.61
329.436	11.03
329.809	11.13
330.181	11.17
330.553	10.57
330.926	10.99
331.298	11.28
331.671	11.13
332.043	10.97
332.415	11.74
332.787	11.1
333.159	11.4
333.532	11.75
333.904	12.03
334.276	10.88
334.648	12.01
335.02	12.1
335.391	12
335.763	11.61
336.135	12.39
336.507	11.6
336.879	11.39
337.25	12.13
337.622	11.54
337.993	12.34
338.365	11.86
338.736	12.65
339.108	11.65
339.479	11.69
339.851	12.31
340.222	12.62
340.593	11.88
340.964	12.88
341.336	12.06
341.707	11.86
342.078	12.12
342.449	12.39
342.82	12.99
343.191	12.78
343.562	12.86
343.933	12.63
344.303	12.45
344.674	12.89
345.045	13.08
345.416	13.16
345.786	13.21
346.157	13.17
346.527	12.79
346.898	13.27
347.268	13.05
347.639	13.02
348.009	13.35
348.38	13.42
348.75	13.6
349.12	13.46
349.49	13.2
349.861	13.16
350.231	13.51
350.601	14.15
350.971	13.92
351.341	14.04
351.711	14.28
352.081	14.06
352.45	14.25
352.82	14.47
353.19	14.72
353.56	14.44
353.929	14.32
354.299	13.73
354.669	14.55
355.038	14.24
355.408	14.15
355.777	14.38
356.147	14.64
356.516	14.49
356.885	14.69
357.254	14.71
357.624	14.78
357.993	14.88
358.362	14.49
358.731	14.91
359.1	15.01
359.469	15.14
359.838	14.59
360.207	15.06
360.576	15.22
360.945	15.32
361.314	14.95
361.682	15.06
362.051	15.75
362.42	15.45
362.788	15.49
363.157	15.34
363.525	15.53
363.894	15.43
364.262	15.44
364.631	15.52
364.999	15.38
365.367	15.94
365.735	15.93
366.104	15.82
366.472	15.93
366.84	16.11
367.208	16.21
367.576	16.23
367.944	16.41
368.312	16.4
368.68	16.46
369.048	16.58
369.416	16.8
369.783	16.52
370.151	16.94
370.519	16.92
370.886	16.55
371.254	16.84
371.621	16.91
371.989	17.25
372.356	16.88
372.724	17.79
373.091	17.28
373.458	17.42
373.826	17.49
374.193	17.42
374.56	17.3
374.927	17.54
375.294	17.69
375.661	17.98
376.028	17.61
376.395	17.91
376.762	17.89
377.129	17.61
377.496	17.84
377.863	18.17
378.229	17.89
378.596	18.34
378.963	18.33
379.329	18.57
379.696	18.1
380.062	18.27
380.429	18.06
380.795	18.57
381.161	18.63
381.528	18.95
381.894	18.86
382.26	18.84
382.626	18.62
382.993	18.87
383.359	19.13
383.725	19.07
384.091	19.25
384.457	19.12
384.823	19.35
385.188	19.42
385.554	19.08
385.92	19.61
386.286	19.62
386.651	19.55
387.017	19.64
387.383	19.36
387.748	19.45
388.114	19.66
388.479	19.44
388.845	19.92
389.21	19.66
389.575	20.12
389.94	19.74
390.306	19.94
390.671	20.3
391.036	20
391.401	20.47
391.766	20.34
392.131	20.43
392.496	20.35
392.861	20.54
393.226	20.55
393.591	20.31
393.956	20.63
394.32	20.39
394.685	20.83
395.05	20.73
395.414	21.07
395.779	20.68
396.143	20.91
396.508	20.84
396.872	21.04
397.236	20.96
397.601	21.07
397.965	21.25
398.329	21.13
398.694	21.5
399.058	21.64
399.422	21.4
399.786	21.64
400.15	22.06
400.514	21.54
400.878	22.01
401.242	21.99
401.605	21.97
401.969	21.77
402.333	21.69
402.697	22.08
403.06	22.18
403.424	22.48
403.787	22.13
404.151	22.06
404.514	22.18
404.878	22.3
405.241	22.67
405.604	22.19
405.968	22.27
406.331	22.55
406.694	22.37
407.057	22.58
407.42	22.11
407.783	22.57
408.146	22.53
408.509	22.71
408.872	22.84
409.235	22.79
409.598	22.92
409.961	22.95
410.323	23.06
410.686	23.26
411.049	23.15
411.411	23.18
411.774	23.34
412.136	23.2
412.499	23.37
412.861	23.49
413.223	23.28
413.586	23.37
413.948	23.63
414.31	23.86
414.672	23.72
415.035	23.74
415.397	23.73
415.759	24.16
416.121	23.85
416.483	24.05
416.845	24.17
417.206	24.11
417.568	24.17
417.93	24.23
418.292	24.27
418.653	24.14
419.015	24.06
419.377	24.06
419.738	24.32
420.1	24.21
420.461	24.27
420.822	24.31
421.184	24.21
421.545	24.33
421.906	24.3
422.267	24.48
422.629	24.5
422.99	24.46
423.351	24.43
423.712	24.42
424.073	24.54
424.434	24.93
424.795	24.99
425.155	25.03
425.516	25.12
425.877	25.07
426.238	24.96
426.598	25.03
426.959	25.12
427.32	25.29
427.68	25.59
428.041	25.65
428.401	25.8
428.761	26.09
429.122	26.23
429.482	26.46
429.842	26.55
430.202	26.65
430.563	26.82
430.923	26.78
431.283	26.88
431.643	26.89
432.003	27.11
432.363	27.35
432.722	27.29
433.082	27.27
433.442	27.33
433.802	27.37
434.161	27.37
434.521	27.47
434.881	27.39
435.24	27.36
435.6	27.55
435.959	27.45
436.319	27.54
436.678	27.43
437.037	27.66
437.396	28.2
437.756	28.14
438.115	28.38
438.474	28.43
438.833	28.3
439.192	28.63
439.551	28.4
439.91	28.57
440.269	28.59
440.628	28.55
440.987	28.74
441.345	28.51
441.704	28.54
442.063	28.53
442.421	28.6
442.78	28.79
443.138	28.76
443.497	28.84
443.855	28.85
444.214	29.24
444.572	29.37
444.93	29.49
445.288	29.53
445.647	29.7
446.005	29.63
446.363	29.82
446.721	29.72
447.079	29.83
447.437	29.61
447.795	29.55
448.153	29.52
448.51	29.38
448.868	29.44
449.226	29.68
449.584	29.74
449.941	29.94
450.299	30.16
450.656	30.3
451.014	30.48
451.371	30.37
451.729	30.74
452.086	30.72
452.443	31.04
452.801	31.48
453.158	31.25
453.515	31.34
453.872	31.22
454.229	31.71
454.586	31.56
454.943	31.2
455.3	31.46
455.657	31.47
456.014	31.61
456.371	31.69
456.727	31.78
457.084	31.89
457.441	32.12
457.797	32.13
458.154	32.13
458.51	32.45
458.867	32.49
459.223	32.25
459.58	32.3
459.936	32.54
460.292	32.76
460.648	32.43
461.005	32.57
461.361	32.42
461.717	32.08
462.073	31.99
462.429	31.84
462.785	31.96
463.141	32.23
463.496	32.54
463.852	32.97
464.208	32.9
464.564	33.23
464.919	33.43
465.275	33.68
465.631	33.79
465.986	34
466.342	33.95
466.697	33.6
467.052	33.79
467.408	33.86
467.763	34.05
468.118	33.86
468.473	34.01
468.829	34.01
469.184	33.93
469.539	34.29
469.894	34.11
470.249	34.26
470.603	34.32
470.958	34.49
471.313	34.7
471.668	34.63
472.023	34.82
472.377	34.69
472.732	34.76
473.086	34.6
473.441	35.16
473.795	35.21
474.15	34.94
474.504	35.4
474.859	35.3
475.213	35.39
475.567	35.25
475.921	35.5
476.275	35.39
476.63	35.62
476.984	35.7
477.338	36.12
477.692	35.71
478.045	35.95
478.399	35.89
478.753	35.81
479.107	35.85
479.461	35.87
479.814	36
480.168	36.12
480.521	35.88
480.875	36.16
481.228	35.95
481.582	36.11
481.935	36.31
482.289	36.38
482.642	36.51
482.995	36.54
483.348	36.37
483.701	36.31
484.055	36.3
484.408	36.2
484.761	36.14
485.114	36.15
485.466	35.84
485.819	35.54
486.172	35.24
486.525	35.14
486.878	35.03
487.23	35.1
487.583	35.41
487.936	35.77
488.288	36.17
488.641	36.34
488.993	36.38
489.345	36.14
489.698	36.09
490.05	35.85
490.402	35.81
490.754	35.9
491.107	36.1
491.459	36.42
491.811	36.79
492.163	37.24
492.515	37.47
492.866	37.56
493.218	37.37
493.57	36.88
493.922	36.7
494.274	36.58
494.625	36.53
494.977	36.89
495.328	37.32
495.68	37.73
496.031	37.99
496.383	38.37
496.734	38.6
497.086	38.62
497.437	38.84
497.788	39.06
498.139	38.87
498.49	38.92
498.842	38.73
499.193	38.56
499.544	38.5
499.894	38.55
500.245	38.69
500.596	38.89
500.947	38.81
501.298	39
501.648	39.36
501.999	39.46
502.35	39.33
502.7	39.48
503.051	39.74
503.401	39.51
503.752	39.59
504.102	40.07
504.452	40
504.803	39.99
505.153	40.15
505.503	39.97
505.853	40.04
506.203	40.17
506.553	40.02
506.903	40.14
507.253	40.33
507.603	40.21
507.953	40.56
508.303	40.46
508.652	40.83
509.002	40.73
509.352	40.39
509.701	40.43
510.051	40.41
510.4	40.43
510.75	40.3
511.099	40.35
511.449	40.22
511.798	40.37
512.147	40.54
512.496	40.6
512.846	40.76
513.195	40.75
513.544	40.95
513.893	40.83
514.242	40.75
514.591	40.94
514.939	41.1
515.288	40.99
515.637	41.21
515.986	41.34
516.334	41.28
516.683	41.38
517.032	41.48
517.38	41.82
517.729	41.77
518.077	41.72
518.426	41.83
518.774	41.72
519.122	41.84
519.47	41.69
519.819	41.52
520.167	41.43
520.515	41.29
520.863	40.91
521.211	41.13
521.559	41.12
521.907	41.05
522.255	41.3
522.602	41.54
522.95	41.79
523.298	42.12
523.645	42.32
523.993	42.31
524.341	42.39
524.688	42.6
525.036	42.81
525.383	42.63
525.73	42.79
526.078	42.52
526.425	42.59
526.772	42.73
527.119	42.54
527.466	42.38
527.814	41.87
528.161	41.87
528.508	41.85
528.854	41.93
529.201	42.13
529.548	42.25
529.895	42.28
530.242	41.99
530.588	41.62
530.935	41.36
531.282	41.15
531.628	41.16
531.975	41.04
532.321	41.24
532.667	41.6
533.014	42.11
533.36	42.3
533.706	42.54
534.052	42.6
534.399	42.72
534.745	42.8
535.091	42.54
535.437	42.27
535.783	42.17
536.129	42.02
536.474	42.07
536.82	42.35
537.166	42.7
537.512	43.04
537.857	43.35
538.203	43.35
538.549	43.41
538.894	43.06
539.239	42.93
539.585	42.95
539.93	43.2
540.276	43.32
540.621	43.71
540.966	43.93
541.311	44.22
541.656	44.34
542.001	44.29
542.346	44.42
542.691	44.31
543.036	43.71
543.381	43.07
543.726	42.7
544.071	42.74
544.415	42.77
544.76	43
545.105	43.19
545.449	43.48
545.794	43.58
546.138	43.69
546.483	43.94
546.827	44.08
547.171	44.28
547.516	44.34
547.86	44.51
548.204	44.65
548.548	44.51
548.892	44.3
549.236	44.13
549.58	44.22
549.924	44.56
550.268	44.81
550.612	45.04
550.956	45.08
551.3	45.17
551.643	45.56
551.987	45.5
552.33	45.88
552.674	45.87
553.017	46.05
553.361	45.83
553.704	45.78
554.048	45.94
554.391	45.93
554.734	46.04
555.077	45.58
555.42	45.66
555.764	45.87
556.107	46.05
556.45	45.95
556.793	46.16
557.135	46.29
557.478	46.26
557.821	46.56
558.164	46.64
558.507	46.46
558.849	46.73
559.192	46.99
559.534	46.46
559.877	46.68
560.219	47.03
560.562	46.96
560.904	46.56
561.246	47.1
561.589	46.85
561.931	47.01
562.273	46.72
562.615	47.08
562.957	46.99
563.299	46.9
563.641	46.71
563.983	47.18
564.325	47.29
564.667	46.96
565.008	47.31
565.35	47.55
565.692	47.52
566.033	47.41
566.375	47.18
566.716	47.41
567.058	47.6
567.399	47.36
567.741	47.66
568.082	47.3
568.423	47.07
568.764	46.99
569.105	47.09
569.447	47.09
569.788	46.95
570.129	47.44
570.47	47.64
570.811	47.76
571.151	47.75
571.492	47.5
571.833	47.72
572.174	47.78
572.514	47.84
572.855	47.77
573.195	47.79
573.536	47.96
573.876	47.87
574.217	47.57
574.557	47.72
574.898	47.51
575.238	47.69
575.578	48.02
575.918	48.06
576.258	47.79
576.598	48.18
576.938	47.92
577.278	48.07
577.618	47.98
577.958	48.06
578.298	48.57
578.638	48.16
578.977	48.34
579.317	48.51
579.657	48.43
579.996	48.45
580.336	48.67
580.675	48.78
581.014	49.02
581.354	49.06
581.693	49.19
582.032	49.12
582.372	49.35
582.711	49.31
583.05	49.17
583.389	49.48
583.728	49.2
584.067	49.62
584.406	49.49
584.745	49.24
585.083	49.54
585.422	49.35
585.761	49.56
586.1	49.64
586.438	49.58
586.777	49.87
587.115	49.43
587.454	50.03
587.792	50.05
588.13	49.91
588.469	49.85
588.807	49.86
589.145	49.87
589.483	49.94
589.821	49.95
590.159	50.07
590.497	50.02
590.835	50.08
591.173	49.89
591.511	49.64
591.849	49.83
592.187	49.81
592.524	49.86
592.862	49.93
593.2	49.73
593.537	50.02
593.875	50.44
594.212	50.34
594.55	50.49
594.887	50.27
595.224	50.77
595.561	50.56
595.899	50.26
596.236	50.58
596.573	50.54
596.91	50.07
597.247	50.26
597.584	50.57
597.921	50.45
598.258	50.42
598.594	50.4
598.931	50.3
599.268	50.12
599.604	49.79
599.941	50.12
600.277	49.86
600.614	50.27
600.95	50.28
601.287	50.43
601.623	50.96
601.959	51.32
602.296	50.98
602.632	50.73
602.968	51.27
603.304	51.06
603.64	51.07
603.976	51.02
604.312	51.28
604.648	51.15
604.984	51.05
605.319	50.85
605.655	50.8
605.991	50.82
606.326	50.68
606.662	50.54
606.998	50.38
607.333	50.42
607.668	50.36
608.004	50.54
608.339	50.85
608.674	51.06
609.01	51.55
609.345	51.93
609.68	51.42
610.015	51.8
610.35	51.89
610.685	51.78
611.02	51.77
611.355	51.92
611.689	51.25
612.024	51.34
612.359	51.51
612.694	51.24
613.028	51.3
613.363	51.33
613.697	51.68
614.032	52.05
614.366	51.7
614.7	52.52
615.035	51.86
615.369	52.15
615.703	51.94
616.037	52.34
616.371	52.07
616.705	52.44
617.039	52.64
617.373	52.57
617.707	52.34
618.041	52.36
618.375	52.09
618.709	52.42
619.042	52.88
619.376	52.68
619.71	52.26
620.043	52.86
620.377	52.86
620.71	52.45
621.043	52.69
621.377	52.51
621.71	52.42
622.043	52.81
622.376	53.17
622.709	52.91
623.043	52.63
623.376	53.15
623.709	53.06
624.041	53.34
624.374	52.99
624.707	52.9
625.04	53.06
625.373	53.17
625.705	53.61
626.038	53.36
626.37	53.21
626.703	53.55
627.035	53.1
627.368	53.51
627.7	53.37
628.032	53.82
628.365	53.6
628.697	53.45
629.029	53.34
629.361	53.15
629.693	52.95
630.025	52.9
630.357	53.13
630.689	53.18
631.021	53.52
631.353	53.55
631.684	53.39
632.016	53.61
632.348	53.61
632.679	53.66
633.011	53.8
633.342	53.33
633.674	53.74
634.005	53.91
634.336	53.89
634.668	53.92
634.999	54.46
635.33	53.74
635.661	54.28
635.992	53.62
636.323	53.74
636.654	53.72
636.985	53.51
637.316	53.46
637.647	54.16
637.977	54.14
638.308	54
638.639	53.99
638.969	54.11
639.3	54.23
639.63	54.45
639.961	54.45
640.291	54.45
640.622	54.74
640.952	54.34
641.282	54.37
641.612	55
641.943	54.29
642.273	55.06
642.603	54.52
642.933	54.6
643.263	55.03
643.592	54.52
643.922	54.89
644.252	54.77
644.582	55.21
644.911	55.47
645.241	54.83
645.571	55.28
645.9	55.59
646.23	54.48
646.559	54.36
646.888	55.25
647.218	55.47
647.547	54.64
647.876	55.31
648.205	55
648.534	55.54
648.863	54.77
649.192	55.53
649.521	55.27
649.85	54.89
650.179	55.39
650.508	55.54
650.837	54.9
651.165	55.04
651.494	54.5
651.822	55.22
652.151	55.41
652.479	55.45
652.808	55.59
653.136	55.02
653.465	55.4
653.793	55.85
654.121	55.88
654.449	55.8
654.777	55.5
655.105	56.15
655.433	55.66
655.761	55.14
656.089	55.27
656.417	55.47
656.745	55.5
657.073	55.62
657.4	55.67
657.728	55.68
658.056	56.41
658.383	56.1
658.711	56.24
659.038	56.04
659.365	56.34
659.693	55.84
660.02	56.03
660.347	56.32
660.674	56.45
661.001	56.04
661.329	55.98
661.656	55.72
661.982	55.82
662.309	55.73
662.636	55.92
662.963	56.07
663.29	56.38
663.616	56.13
663.943	56.24
664.27	56.49
664.596	56.32
664.923	56.36
665.249	56.66
665.576	56.02
665.902	56.2
666.228	55.47
666.554	56.24
666.881	56.64
667.207	56.15
667.533	56.6
667.859	56.23
668.185	56.66
668.511	57.02
668.837	56.47
669.162	56.14
