Data from 0175_crown_Reflection__4__075.txt Node

Date: Mon Aug 28 19:16:00 CDT 2023
User: ToomeyLab
Spectrometer: FLMS14357
Trigger mode: 0
Integration Time (sec): 1.000000E-2
Scans to average: 100
Electric dark correction enabled: true
Nonlinearity correction enabled: false
Boxcar width: 0
XAxis mode: Wavelengths
Number of Pixels in Spectrum: 2048
>>>>>Begin Spectral Data<<<<<
189.047	-92.82
189.435	-92.82
189.823	-92.82
190.211	-6548.84
190.599	49.39
190.987	173.87
191.375	-91.43
191.763	115.72
192.151	-74.65
192.538	19.96
192.926	95.75
193.314	-509.26
193.702	178.45
194.089	130.96
194.477	2880
194.864	-83.82
195.252	58.22
195.639	-3049.57
196.027	40.56
196.414	168.48
196.801	5.71
197.189	14.02
197.576	96.53
197.963	28.4
198.351	8.18
198.738	25.92
199.125	-9.32
199.512	-13.23
199.899	-21.85
200.286	-57.86
200.673	17.69
201.06	2.28
201.447	-82.26
201.833	-25.87
202.22	-19.94
202.607	-13.89
202.994	34.8
203.38	36.53
203.767	2.36
204.154	-18.76
204.54	-50.05
204.927	-10.79
205.313	46.28
205.699	-16.11
206.086	31.48
206.472	7.61
206.858	-12.75
207.245	5.26
207.631	58.88
208.017	-1.39
208.403	21.01
208.789	33.81
209.175	-10.85
209.561	-12.29
209.947	0.99
210.333	20.55
210.719	31.45
211.105	46.01
211.491	-24.44
211.876	6.3
212.262	-22.2
212.648	12.68
213.034	33.19
213.419	0.61
213.805	25.23
214.19	12.3
214.576	8.9
214.961	-9.42
215.346	-46.59
215.732	38.81
216.117	-6.51
216.502	21.31
216.888	-29.57
217.273	-10.2
217.658	21.99
218.043	-28.48
218.428	-3.28
218.813	-0.79
219.198	-13.27
219.583	7.53
219.968	24.4
220.353	-2.86
220.738	8.93
221.122	4.74
221.507	1.78
221.892	-3.72
222.276	-12.53
222.661	1.04
223.046	-8.02
223.43	-1.4
223.815	9.19
224.199	6.13
224.583	10
224.968	18.73
225.352	2.85
225.736	12.82
226.121	8.94
226.505	1.62
226.889	4.49
227.273	11.61
227.657	8.94
228.041	9.82
228.425	8.78
228.809	8.19
229.193	9.98
229.577	7.01
229.961	5.28
230.344	7.68
230.728	7.8
231.112	7.37
231.495	7.92
231.879	6.76
232.263	7.88
232.646	7.11
233.03	6.88
233.413	8.16
233.797	6.4
234.18	7.79
234.563	5.06
234.946	8.05
235.33	5.95
235.713	3.25
236.096	8.44
236.479	5.81
236.862	9.24
237.245	7.36
237.628	8
238.011	9.61
238.394	8.66
238.777	8.43
239.16	6.83
239.543	4.3
239.925	9.55
240.308	4.2
240.691	6.44
241.073	3.99
241.456	6.56
241.838	5.36
242.221	7.54
242.603	8.23
242.986	7.42
243.368	7.07
243.75	6.59
244.133	6.95
244.515	6.57
244.897	7.13
245.279	7.3
245.661	6.32
246.043	6.48
246.425	6.53
246.807	6.81
247.189	5.9
247.571	7.25
247.953	6.97
248.335	6.61
248.717	6.24
249.098	6.2
249.48	6.47
249.862	6.74
250.243	6.46
250.625	6.66
251.006	6.08
251.388	6.41
251.769	6.81
252.151	6
252.532	5.86
252.913	6.6
253.295	5.12
253.676	6.56
254.057	6.42
254.438	5.95
254.819	6.17
255.2	6.83
255.581	5.27
255.962	5.86
256.343	7.04
256.724	5.94
257.105	5.06
257.486	6.44
257.867	5.86
258.247	6.42
258.628	6.9
259.009	5.71
259.389	4.96
259.77	6.58
260.15	5.78
260.531	5.05
260.911	6.11
261.292	5.77
261.672	5.73
262.052	5.8
262.432	5.68
262.813	6.01
263.193	5.79
263.573	5.43
263.953	6.22
264.333	5.66
264.713	5.94
265.093	6.46
265.473	5.45
265.853	5.29
266.233	5.23
266.612	6.39
266.992	5.47
267.372	5.44
267.752	6.25
268.131	5.85
268.511	5.83
268.89	5.51
269.27	5.25
269.649	5.42
270.029	5.74
270.408	5.95
270.787	6.06
271.167	5.76
271.546	5.27
271.925	5.72
272.304	5.63
272.683	6.03
273.062	5.45
273.441	5.74
273.82	5.42
274.199	4.98
274.578	5.76
274.957	5.44
275.336	5.89
275.715	5.65
276.093	5.23
276.472	5.6
276.851	5.1
277.229	6.12
277.608	5.64
277.986	5.54
278.365	5.26
278.743	5.19
279.122	5.22
279.5	5.19
279.878	4.8
280.257	5.61
280.635	5.86
281.013	5.48
281.391	5.34
281.769	4.94
282.147	4.75
282.525	5.5
282.903	5.19
283.281	4.89
283.659	6.14
284.037	5.52
284.415	5.28
284.792	5.42
285.17	5.51
285.548	5.3
285.925	5.19
286.303	4.78
286.68	5.64
287.058	5.35
287.435	5.13
287.813	5.12
288.19	5.29
288.567	5.34
288.945	5.26
289.322	5.73
289.699	5.16
290.076	5.55
290.453	5.19
290.83	5.29
291.207	5.33
291.584	5.09
291.961	5.59
292.338	4.74
292.715	5.03
293.092	5.41
293.469	5.34
293.845	5.28
294.222	5.02
294.599	4.87
294.975	5.32
295.352	5.77
295.728	5.33
296.105	5.54
296.481	5.01
296.858	4.97
297.234	5.02
297.61	5.04
297.986	4.87
298.363	5.62
298.739	4.72
299.115	4.76
299.491	5.36
299.867	5.1
300.243	5.4
300.619	4.94
300.995	5.39
301.371	4.84
301.746	5.67
302.122	5.33
302.498	5.28
302.874	5.18
303.249	5.15
303.625	5.31
304	5.16
304.376	4.81
304.751	4.44
305.127	5.25
305.502	4.85
305.878	5.14
306.253	4.67
306.628	4.82
307.003	5.44
307.378	5.17
307.754	5.09
308.129	4.83
308.504	5.62
308.879	5.57
309.254	5.58
309.629	4.75
310.003	5.24
310.378	4.93
310.753	5.08
311.128	5.06
311.502	4.87
311.877	4.76
312.252	5.19
312.626	5.5
313.001	5.04
313.375	4.94
313.75	5.02
314.124	4.69
314.498	5.21
314.873	4.98
315.247	5
315.621	5.03
315.995	5.67
316.369	4.84
316.743	4.7
317.117	4.86
317.491	4.06
317.865	4.36
318.239	4.84
318.613	4.83
318.987	4.78
319.361	5.33
319.734	4.98
320.108	5.15
320.482	4.92
320.855	4.96
321.229	5.19
321.602	4.93
321.976	4.68
322.349	4.91
322.723	4.57
323.096	5.13
323.469	4.99
323.843	4.55
324.216	4.96
324.589	5.26
324.962	4.96
325.335	5.66
325.708	4.95
326.081	4.66
326.454	5.53
326.827	5.24
327.2	4.76
327.573	5.02
327.945	5.28
328.318	5.63
328.691	4.45
329.063	4.74
329.436	4.92
329.809	5.27
330.181	4.56
330.553	5.08
330.926	5.1
331.298	5.35
331.671	4.94
332.043	4.53
332.415	5.61
332.787	4.8
333.159	5.08
333.532	5.75
333.904	5.34
334.276	4.47
334.648	5.55
335.02	5.46
335.391	4.81
335.763	5.06
336.135	5.07
336.507	4.59
336.879	4.71
337.25	5.29
337.622	5.03
337.993	5.34
338.365	5.13
338.736	5.21
339.108	4.63
339.479	4.48
339.851	5.1
340.222	5.47
340.593	5.04
340.964	5.06
341.336	4.65
341.707	4.95
342.078	4.66
342.449	5.14
342.82	5.12
343.191	4.97
343.562	5.06
343.933	4.6
344.303	5.06
344.674	5.33
345.045	4.99
345.416	5.27
345.786	5.24
346.157	5.03
346.527	4.52
346.898	4.74
347.268	5.05
347.639	4.7
348.009	4.69
348.38	5.15
348.75	4.94
349.12	5.26
349.49	4.86
349.861	4.7
350.231	4.92
350.601	5.58
350.971	5.12
351.341	5.15
351.711	5.36
352.081	5.18
352.45	5.39
352.82	5.08
353.19	5.84
353.56	5.14
353.929	5.17
354.299	5.25
354.669	5.37
355.038	5.18
355.408	5.12
355.777	5.23
356.147	5.23
356.516	5.09
356.885	5.27
357.254	5.05
357.624	5.03
357.993	5.18
358.362	5.16
358.731	4.97
359.1	5.23
359.469	5.28
359.838	4.84
360.207	5.01
360.576	5.5
360.945	4.75
361.314	5.07
361.682	5.07
362.051	5.3
362.42	5.17
362.788	5.13
363.157	5.22
363.525	4.9
363.894	5.28
364.262	5.23
364.631	5.23
364.999	5.02
365.367	5.15
365.735	5.1
366.104	5.07
366.472	5.15
366.84	4.85
367.208	5.17
367.576	5.11
367.944	5.21
368.312	5.01
368.68	5.37
369.048	5.22
369.416	5.19
369.783	4.88
370.151	5.65
370.519	5.23
370.886	4.98
371.254	5.04
371.621	5.03
371.989	5.15
372.356	4.96
372.724	5.48
373.091	5.54
373.458	5.02
373.826	5.26
374.193	5.2
374.56	5.8
374.927	4.94
375.294	5.38
375.661	5.38
376.028	5.04
376.395	4.71
376.762	5.66
377.129	4.99
377.496	5.37
377.863	5.41
378.229	5.25
378.596	5.36
378.963	5.3
379.329	5.42
379.696	5.15
380.062	5.08
380.429	4.94
380.795	5.21
381.161	5.34
381.528	5.45
381.894	5
382.26	5.36
382.626	5.58
382.993	5.17
383.359	5.21
383.725	5.64
384.091	5.38
384.457	5.56
384.823	4.92
385.188	5.25
385.554	5.11
385.92	5.17
386.286	5.63
386.651	5.39
387.017	5.29
387.383	5.32
387.748	5.24
388.114	5.11
388.479	5.09
388.845	5.24
389.21	5.2
389.575	5.61
389.94	5.26
390.306	5.27
390.671	5.06
391.036	5.33
391.401	5.34
391.766	5.51
392.131	5.5
392.496	5.01
392.861	5.46
393.226	5.39
393.591	5.2
393.956	5.56
394.32	5.31
394.685	5.45
395.05	5.23
395.414	5.42
395.779	5.44
396.143	5.15
396.508	4.98
396.872	5.45
397.236	5.34
397.601	5.32
397.965	5.09
398.329	5.36
398.694	5.41
399.058	5.27
399.422	5.43
399.786	5.41
400.15	5.52
400.514	5.45
400.878	5.23
401.242	5.25
401.605	5.29
401.969	5.16
402.333	5.31
402.697	5.28
403.06	5.44
403.424	5.53
403.787	5.19
404.151	5.13
404.514	5.46
404.878	5.28
405.241	5.49
405.604	5.31
405.968	5.18
406.331	5.47
406.694	5.34
407.057	5.3
407.42	5.07
407.783	5.27
408.146	5.08
408.509	5.33
408.872	5.15
409.235	5.36
409.598	5.3
409.961	5.4
410.323	5.33
410.686	5.62
411.049	5.46
411.411	5.48
411.774	5.42
412.136	5.26
412.499	5.5
412.861	5.37
413.223	5.34
413.586	5.22
413.948	5.42
414.31	5.56
414.672	5.25
415.035	5.36
415.397	5.22
415.759	5.35
416.121	5.52
416.483	5.24
416.845	5.54
417.206	5.66
417.568	5.31
417.93	5.36
418.292	5.34
418.653	5.23
419.015	5.22
419.377	5.13
419.738	5.49
420.1	5.43
420.461	5.33
420.822	5.31
421.184	5.28
421.545	5.31
421.906	5.28
422.267	5.26
422.629	5.21
422.99	5.22
423.351	5.22
423.712	5.21
424.073	5.26
424.434	5.38
424.795	5.16
425.155	5.23
425.516	5.32
425.877	5.2
426.238	5.16
426.598	5.2
426.959	5.26
427.32	5.21
427.68	5.36
428.041	5.18
428.401	5.41
428.761	5.28
429.122	5.27
429.482	5.38
429.842	5.42
430.202	5.35
430.563	5.56
430.923	5.54
431.283	5.32
431.643	5.31
432.003	5.3
432.363	5.36
432.722	5.37
433.082	5.31
433.442	5.41
433.802	5.49
434.161	5.36
434.521	5.41
434.881	5.18
435.24	5.32
435.6	5.37
435.959	5.31
436.319	5.32
436.678	5.31
437.037	5.33
437.396	5.45
437.756	5.24
438.115	5.47
438.474	5.52
438.833	5.26
439.192	5.51
439.551	5.29
439.91	5.46
440.269	5.28
440.628	5.39
440.987	5.49
441.345	5.33
441.704	5.28
442.063	5.27
442.421	5.23
442.78	5.32
443.138	5.39
443.497	5.28
443.855	5.36
444.214	5.3
444.572	5.32
444.93	5.44
445.288	5.25
445.647	5.37
446.005	5.54
446.363	5.38
446.721	5.33
447.079	5.35
447.437	5.23
447.795	5.17
448.153	5.29
448.51	5.26
448.868	5.22
449.226	5.12
449.584	5.18
449.941	5.27
450.299	5.31
450.656	5.29
451.014	5.24
451.371	5.37
451.729	5.2
452.086	5.26
452.443	5.43
452.801	5.31
453.158	5.45
453.515	5.38
453.872	5.25
454.229	5.56
454.586	5.48
454.943	5.43
455.3	5.3
455.657	5.25
456.014	5.34
456.371	5.29
456.727	5.4
457.084	5.28
457.441	5.33
457.797	5.31
458.154	5.42
458.51	5.53
458.867	5.33
459.223	5.51
459.58	5.23
459.936	5.35
460.292	5.35
460.648	5.36
461.005	5.29
461.361	5.33
461.717	5.26
462.073	5.26
462.429	5.23
462.785	5.26
463.141	5.16
463.496	5.3
463.852	5.31
464.208	5.32
464.564	5.46
464.919	5.4
465.275	5.54
465.631	5.45
465.986	5.44
466.342	5.47
466.697	5.23
467.052	5.36
467.408	5.29
467.763	5.2
468.118	5.31
468.473	5.42
468.829	5.38
469.184	5.18
469.539	5.33
469.894	5.35
470.249	5.27
470.603	5.43
470.958	5.17
471.313	5.33
471.668	5.19
472.023	5.43
472.377	5.24
472.732	5.51
473.086	5.37
473.441	5.47
473.795	5.48
474.15	5.54
474.504	5.39
474.859	5.29
475.213	5.38
475.567	5.38
475.921	5.54
476.275	5.34
476.63	5.44
476.984	5.41
477.338	5.27
477.692	5.32
478.045	5.38
478.399	5.43
478.753	5.17
479.107	5.37
479.461	5.39
479.814	5.37
480.168	5.26
480.521	5.36
480.875	5.47
481.228	5.45
481.582	5.44
481.935	5.22
482.289	5.4
482.642	5.34
482.995	5.4
483.348	5.3
483.701	5.28
484.055	5.17
484.408	5.28
484.761	5.19
485.114	5.18
485.466	5.07
485.819	5.02
486.172	4.87
486.525	4.93
486.878	4.96
487.23	5.01
487.583	5.11
487.936	5.19
488.288	5.13
488.641	5.17
488.993	5.18
489.345	5.08
489.698	5.11
490.05	4.97
490.402	5
490.754	5.04
491.107	5.11
491.459	5.12
491.811	5.2
492.163	5.28
492.515	5.34
492.866	5.27
493.218	5.22
493.57	5.19
493.922	5
494.274	5.09
494.625	5.04
494.977	5.19
495.328	5.23
495.68	5.25
496.031	5.31
496.383	5.21
496.734	5.07
497.086	5.4
497.437	5.36
497.788	5.33
498.139	5.31
498.49	5.19
498.842	5.31
499.193	5.17
499.544	5.19
499.894	5.24
500.245	5.29
500.596	5.31
500.947	5.3
501.298	5.29
501.648	5.23
501.999	5.24
502.35	5.2
502.7	5.26
503.051	5.32
503.401	5.35
503.752	5.33
504.102	5.19
504.452	5.34
504.803	5.33
505.153	5.31
505.503	5.41
505.853	5.24
506.203	5.34
506.553	5.18
506.903	5.26
507.253	5.22
507.603	5.22
507.953	5.35
508.303	5.4
508.652	5.38
509.002	5.49
509.352	5.22
509.701	5.29
510.051	5.31
510.4	5.27
510.75	5.31
511.099	5.25
511.449	5.17
511.798	5.14
512.147	5.24
512.496	5.24
512.846	5.17
513.195	5.28
513.544	5.33
513.893	5.23
514.242	5.23
514.591	5.41
514.939	5.1
515.288	5.27
515.637	5.26
515.986	5.34
516.334	5.3
516.683	5.26
517.032	5.29
517.38	5.36
517.729	5.37
518.077	5.3
518.426	5.25
518.774	5.26
519.122	5.35
519.47	5.21
519.819	5.27
520.167	5.12
520.515	5.23
520.863	5.01
521.211	5.14
521.559	5.19
521.907	5.12
522.255	5.11
522.602	5.16
522.95	5.22
523.298	5.3
523.645	5.2
523.993	5.23
524.341	5.34
524.688	5.31
525.036	5.27
525.383	5.32
525.73	5.25
526.078	5.41
526.425	5.22
526.772	5.2
527.119	5.26
527.466	5.13
527.814	5.05
528.161	5.07
528.508	5.11
528.854	5.11
529.201	5.22
529.548	5.13
529.895	5.08
530.242	5.07
530.588	4.95
530.935	4.9
531.282	4.92
531.628	4.92
531.975	4.95
532.321	5
532.667	5.02
533.014	5.12
533.36	5.09
533.706	5.2
534.052	5.11
534.399	5.16
534.745	5.18
535.091	5.07
535.437	5.05
535.783	5.02
536.129	5
536.474	5
536.82	5.08
537.166	5.07
537.512	5.17
537.857	5.25
538.203	5.1
538.549	5.07
538.894	5.08
539.239	5.02
539.585	5.09
539.93	5.15
540.276	5.13
540.621	5.26
540.966	5.16
541.311	5.3
541.656	5.19
542.001	5.26
542.346	5.28
542.691	5.17
543.036	5.06
543.381	5
543.726	4.92
544.071	4.99
544.415	4.99
544.76	5.04
545.105	5.02
545.449	5
545.794	5.16
546.138	5.18
546.483	5.14
546.827	5.06
547.171	5.06
547.516	5.14
547.86	5.11
548.204	5.21
548.548	5.18
548.892	4.96
549.236	5.04
549.58	5.07
549.924	5.13
550.268	5.15
550.612	5.11
550.956	5.26
551.3	5.12
551.643	5.23
551.987	5.05
552.33	5.28
552.674	5.06
553.017	5.16
553.361	5.15
553.704	4.98
554.048	5.41
554.391	5.21
554.734	5.3
555.077	5.24
555.42	5.15
555.764	5.27
556.107	5.03
556.45	5.11
556.793	5.1
557.135	5.2
557.478	5.15
557.821	5.24
558.164	5.35
558.507	5.17
558.849	5.21
559.192	5.13
559.534	5
559.877	5.28
560.219	5.16
560.562	5.26
560.904	5.27
561.246	5.19
561.589	5.2
561.931	5.23
562.273	5.03
562.615	5.14
562.957	5.39
563.299	5.35
563.641	5.06
563.983	5.19
564.325	5.17
564.667	5.26
565.008	5.08
565.35	5.26
565.692	5.19
566.033	5.08
566.375	5.07
566.716	5.09
567.058	5.2
567.399	5.09
567.741	5.24
568.082	5.05
568.423	5.11
568.764	5
569.105	5.23
569.447	5.13
569.788	5.09
570.129	5.07
570.47	5.22
570.811	5.19
571.151	5.09
571.492	5.11
571.833	5.1
572.174	5.15
572.514	5.1
572.855	5.04
573.195	5.28
573.536	5.16
573.876	4.94
574.217	5.1
574.557	5.07
574.898	5.26
575.238	5.07
575.578	4.99
575.918	5.15
576.258	5.19
576.598	5
576.938	5.04
577.278	5.04
577.618	5.06
577.958	5.26
578.298	5.2
578.638	5.12
578.977	5.23
579.317	5.14
579.657	5.07
579.996	5.24
580.336	5.11
580.675	5.04
581.014	5.29
581.354	5.17
581.693	5.24
582.032	5.25
582.372	5.14
582.711	5.4
583.05	5.09
583.389	4.97
583.728	5.22
584.067	5.37
584.406	5.03
584.745	5.17
585.083	5.14
585.422	5.11
585.761	5.22
586.1	5.11
586.438	5.14
586.777	5.04
587.115	5.41
587.454	5.33
587.792	5.14
588.13	5.21
588.469	5.11
588.807	5.15
589.145	5.21
589.483	5.04
589.821	5.1
590.159	5.39
590.497	4.98
590.835	5.22
591.173	4.95
591.511	5.11
591.849	5.28
592.187	5.26
592.524	5.24
592.862	5.28
593.2	4.95
593.537	4.88
593.875	5.25
594.212	5.33
594.55	5.3
594.887	5.23
595.224	5.23
595.561	4.92
595.899	4.88
596.236	5.07
596.573	5.27
596.91	5.11
597.247	5.27
597.584	5.19
597.921	5.09
598.258	5.19
598.594	4.84
598.931	4.97
599.268	5.14
599.604	5.06
599.941	5.2
600.277	4.82
600.614	5.32
600.95	4.98
601.287	5.13
601.623	5.27
601.959	5.29
602.296	5.15
602.632	5.06
602.968	5.15
603.304	5.08
603.64	5.06
603.976	5.41
604.312	5.2
604.648	5.05
604.984	5.06
605.319	5.18
605.655	5.17
605.991	5.33
606.326	5.19
606.662	5.2
606.998	4.94
607.333	5.06
607.668	5.02
608.004	5.06
608.339	5.26
608.674	4.92
609.01	5.28
609.345	5.11
609.68	5.06
610.015	5.11
610.35	5.32
610.685	5.24
611.02	5.24
611.355	5.34
611.689	4.99
612.024	5.19
612.359	5.05
612.694	5.18
613.028	5.17
613.363	4.99
613.697	5.21
614.032	4.98
614.366	5.07
614.7	5.31
615.035	5.46
615.369	5.1
615.703	5.51
616.037	4.97
616.371	4.98
616.705	4.91
617.039	5.1
617.373	5.17
617.707	4.98
618.041	5.17
618.375	5.07
618.709	5.45
619.042	5.4
619.376	4.88
619.71	5.16
620.043	5.18
620.377	5.22
620.71	4.95
621.043	5.09
621.377	5.3
621.71	4.99
622.043	4.77
622.376	5.27
622.709	5.24
623.043	5.28
623.376	5.6
623.709	5.31
624.041	5.33
624.374	4.93
624.707	4.82
625.04	5.07
625.373	5.4
625.705	5.45
626.038	4.87
626.37	5.42
626.703	5.04
627.035	5.24
627.368	5.63
627.7	5.39
628.032	5.32
628.365	4.98
628.697	5.14
629.029	5.23
629.361	5.41
629.693	5.24
630.025	5.17
630.357	5.09
630.689	5.2
631.021	5.51
631.353	5.34
631.684	5.49
632.016	5
632.348	5.03
632.679	5.19
633.011	5.35
633.342	5.25
633.674	5.4
634.005	5.23
634.336	5.22
634.668	4.81
634.999	5.24
635.33	5.48
635.661	5.39
635.992	5.16
636.323	5.05
636.654	5.1
636.985	5.41
637.316	5.56
637.647	5.19
637.977	5.11
638.308	5.41
638.639	4.95
638.969	5.6
639.3	5.11
639.63	5.18
639.961	5.52
640.291	5.34
640.622	5.41
640.952	4.9
641.282	5.17
641.612	5.34
641.943	5.29
642.273	5.89
642.603	4.88
642.933	5.31
643.263	5.43
643.592	5.07
643.922	4.98
644.252	4.89
644.582	5.44
644.911	5.45
645.241	5.43
645.571	4.87
645.9	5.23
646.23	5.14
646.559	5.38
646.888	5.52
647.218	5.07
647.547	5.02
647.876	5.26
648.205	4.91
648.534	5.73
648.863	5.3
649.192	5.43
649.521	5.38
649.85	5.65
650.179	5.49
650.508	5.5
650.837	5.15
651.165	5.54
651.494	5.58
651.822	5.37
652.151	5.11
652.479	5.9
652.808	5.13
653.136	5.12
653.465	5.31
653.793	5.38
654.121	5.42
654.449	5.37
654.777	5.31
655.105	5.18
655.433	5.65
655.761	5.36
656.089	5.59
656.417	4.98
656.745	5.88
657.073	4.85
657.4	5.43
657.728	5.55
658.056	5.53
658.383	4.97
658.711	5.39
659.038	5.47
659.365	5.52
659.693	5.5
660.02	5.91
660.347	5.73
660.674	5.47
661.001	5.62
661.329	5.45
661.656	5.21
661.982	4.96
662.309	5.84
662.636	5.26
662.963	5.7
663.29	5.55
663.616	5.16
663.943	5
664.27	5.74
664.596	5.62
664.923	5.46
665.249	5.94
665.576	5.24
665.902	5.67
666.228	5.43
666.554	5.05
666.881	5.2
667.207	5.52
667.533	5.1
667.859	5.14
668.185	5.36
668.511	5.74
668.837	4.82
669.162	5.67
669.488	5.01
669.814	5.44
670.139	5.55
670.465	5.99
670.791	5.21
671.116	5.55
671.442	5.58
671.767	4.92
672.092	5.78
672.418	5.55
672.743	6.12
673.068	5.68
673.393	5.38
673.718	4.85
674.043	5.36
674.368	5.16
674.693	5.96
675.018	6.35
675.343	5.66
675.667	5.95
675.992	5.31
676.317	5.23
676.641	6.09
676.966	6.14
677.29	5.24
677.615	6.24
677.939	6.11
678.264	5.72
678.588	5.37
678.912	5.75
679.236	5.23
679.56	5.21
679.885	5.79
680.209	5.59
680.532	6.03
680.856	5.42
681.18	5.49
681.504	5.44
681.828	6.17
682.152	5.62
682.475	5.68
682.799	5.9
683.122	5.83
683.446	5.92
683.769	6.33
684.093	5.57
684.416	5.5
684.739	5.44
685.062	5.63
685.386	5.46
685.709	5.82
686.032	5.13
686.355	5.33
686.678	6.27
687.001	4.8
687.324	5.49
687.646	5.7
687.969	5.87
688.292	5.7
688.614	5.72
688.937	5.74
689.26	5.34
689.582	5.22
689.904	5.48
690.227	6.11
690.549	5.35
690.871	5.83
691.194	5.57
691.516	6.4
691.838	5.85
692.16	5.91
692.482	5.82
692.804	5.96
