Data from 0175_crown_Reflection__1__072.txt Node

Date: Mon Aug 28 19:15:28 CDT 2023
User: ToomeyLab
Spectrometer: FLMS14357
Trigger mode: 0
Integration Time (sec): 1.000000E-2
Scans to average: 100
Electric dark correction enabled: true
Nonlinearity correction enabled: false
Boxcar width: 0
XAxis mode: Wavelengths
Number of Pixels in Spectrum: 2048
>>>>>Begin Spectral Data<<<<<
189.047	-51.14
189.435	-51.14
189.823	-51.14
190.211	3420.93
190.599	-18.58
190.987	-182.02
191.375	33.93
191.763	-17.15
192.151	-65.28
192.538	-1.29
192.926	-29.97
193.314	-202.48
193.702	164.57
194.089	132.94
194.477	-2521.18
194.864	-141.68
195.252	-19.95
195.639	-669.23
196.027	121.5
196.414	238.91
196.801	78.85
197.189	60.06
197.576	-57.64
197.963	-23.05
198.351	-42.87
198.738	50.28
199.125	11.66
199.512	-5.42
199.899	-12.1
200.286	12.83
200.673	5.09
201.06	-7.24
201.447	-40.1
201.833	-18.6
202.22	5.84
202.607	0.27
202.994	39.23
203.38	90.99
203.767	-23.79
204.154	-0.92
204.54	-28.49
204.927	-42.07
205.313	40.02
205.699	-17.35
206.086	13.24
206.472	-18.32
206.858	-35.99
207.245	-15.24
207.631	33.53
208.017	-11.42
208.403	-2.62
208.789	-23.68
209.175	-17.58
209.561	9.91
209.947	-8.45
210.333	-44.72
210.719	0.57
211.105	8.06
211.491	-49.23
211.876	-7.22
212.262	-44.69
212.648	-0.92
213.034	-61.97
213.419	4.01
213.805	26.02
214.19	-49.2
214.576	-17.12
214.961	-17.8
215.346	-39.54
215.732	0.93
216.117	-50.28
216.502	-19.59
216.888	-15.17
217.273	-41.85
217.658	-4.99
218.043	-30.71
218.428	-9.03
218.813	-13.1
219.198	-37.46
219.583	-7.3
219.968	24.66
220.353	-21.21
220.738	-4.99
221.122	-5.02
221.507	11.87
221.892	-2.72
222.276	-3.75
222.661	1.16
223.046	-11.09
223.43	-4.71
223.815	2.66
224.199	4.2
224.583	3.59
224.968	3.41
225.352	4.42
225.736	2.24
226.121	-6.27
226.505	0.39
226.889	3.02
227.273	2.13
227.657	2.58
228.041	-2.15
228.425	1.21
228.809	2.09
229.193	2.86
229.577	4.81
229.961	0.43
230.344	2.39
230.728	2.61
231.112	2.26
231.495	3.01
231.879	2.11
232.263	2.03
232.646	1.35
233.03	2.88
233.413	5
233.797	0.8
234.18	1.97
234.563	1.63
234.946	4.57
235.33	5.86
235.713	-0.35
236.096	2.93
236.479	1.24
236.862	2.34
237.245	1.88
237.628	2.75
238.011	3.62
238.394	4.4
238.777	2.69
239.16	0.54
239.543	-1.09
239.925	3.84
240.308	1.85
240.691	0.66
241.073	-1.13
241.456	0.75
241.838	2.06
242.221	2.46
242.603	3.14
242.986	2.67
243.368	2.53
243.75	1.88
244.133	2.25
244.515	2.15
244.897	2.48
245.279	2.74
245.661	1.69
246.043	2.29
246.425	1.5
246.807	3.13
247.189	1.45
247.571	2.19
247.953	2.22
248.335	2.12
248.717	2.28
249.098	2.19
249.48	2.52
249.862	2.12
250.243	2.07
250.625	2.32
251.006	2.2
251.388	2.26
251.769	2.32
252.151	1.68
252.532	1.16
252.913	3.39
253.295	1.44
253.676	1.86
254.057	2.12
254.438	1.75
254.819	2.07
255.2	2.17
255.581	1.4
255.962	2.36
256.343	2.58
256.724	0.54
257.105	1.57
257.486	1.75
257.867	2.56
258.247	1.56
258.628	2.87
259.009	0.34
259.389	1.95
259.77	1.77
260.15	1.51
260.531	1.87
260.911	2.47
261.292	2.07
261.672	1.87
262.052	2.07
262.432	2.05
262.813	2.06
263.193	1.87
263.573	1.96
263.953	1.81
264.333	1.47
264.713	2.17
265.093	2.06
265.473	2.49
265.853	1.34
266.233	1.12
266.612	2.5
266.992	1.36
267.372	1.19
267.752	2.6
268.131	2.21
268.511	1.2
268.89	2.09
269.27	1.55
269.649	1.81
270.029	2.32
270.408	2.42
270.787	2.03
271.167	2.04
271.546	1.75
271.925	1.55
272.304	2.07
272.683	2.61
273.062	1.78
273.441	2.38
273.82	2.09
274.199	1.34
274.578	1.89
274.957	2.01
275.336	2.28
275.715	1.78
276.093	1.7
276.472	2.05
276.851	1.83
277.229	1.77
277.608	1.6
277.986	1.49
278.365	1.81
278.743	1.58
279.122	1.97
279.5	1.46
279.878	1.46
280.257	1.6
280.635	2.33
281.013	1.7
281.391	1.32
281.769	1.93
282.147	1.92
282.525	1.39
282.903	2.08
283.281	2.16
283.659	2.63
284.037	1.99
284.415	2.08
284.792	1.99
285.17	1.63
285.548	1.87
285.925	2.02
286.303	1.62
286.68	2.18
287.058	2.17
287.435	1.64
287.813	1.74
288.19	2.31
288.567	2.09
288.945	1.73
289.322	2.17
289.699	1.94
290.076	1.82
290.453	1.8
290.83	1.08
291.207	1.97
291.584	1.84
291.961	2.11
292.338	1.65
292.715	1.53
293.092	1.91
293.469	1.44
293.845	1.37
294.222	1.27
294.599	1.23
294.975	1.79
295.352	1.36
295.728	1.65
296.105	1.61
296.481	2.25
296.858	2.36
297.234	2.05
297.61	1.91
297.986	1.8
298.363	2.46
298.739	1.99
299.115	1.75
299.491	1.96
299.867	1.87
300.243	2.07
300.619	1.94
300.995	2.13
301.371	1.57
301.746	2.04
302.122	1.61
302.498	1.35
302.874	2.05
303.249	1.51
303.625	2.1
304	1.75
304.376	1.46
304.751	2.09
305.127	1.66
305.502	1.27
305.878	1.63
306.253	1.76
306.628	1.65
307.003	1.81
307.378	1.72
307.754	2.1
308.129	1.61
308.504	1.95
308.879	2
309.254	1.84
309.629	2.31
310.003	1.6
310.378	1.15
310.753	1.89
311.128	2.15
311.502	2.04
311.877	2.18
312.252	2.26
312.626	1.98
313.001	1.98
313.375	2.18
313.75	1.85
314.124	2
314.498	2.05
314.873	2.29
315.247	2.17
315.621	1.37
315.995	2.54
316.369	1.91
316.743	1.18
317.117	1.54
317.491	1.37
317.865	1.74
318.239	1.67
318.613	2.19
318.987	2.06
319.361	1.87
319.734	2.26
320.108	1.84
320.482	2.16
320.855	1.86
321.229	1.13
321.602	1.87
321.976	1.34
322.349	2.29
322.723	1.55
323.096	1.79
323.469	1.45
323.843	1.75
324.216	2.13
324.589	2
324.962	1.99
325.335	2.46
325.708	1.6
326.081	1.82
326.454	2.17
326.827	1.68
327.2	1.48
327.573	1.72
327.945	2.02
328.318	2.11
328.691	1.36
329.063	1.51
329.436	1.85
329.809	1.96
330.181	1.54
330.553	1.45
330.926	2.11
331.298	1.97
331.671	1.56
332.043	1.66
332.415	2.38
332.787	2.02
333.159	1.53
333.532	2.56
333.904	1.89
334.276	1.23
334.648	1.7
335.02	1.93
335.391	1.89
335.763	1.85
336.135	2.07
336.507	1.71
336.879	1.35
337.25	2.07
337.622	1.68
337.993	2.01
338.365	1.8
338.736	2.1
339.108	1.4
339.479	1.41
339.851	1.78
340.222	2.23
340.593	2.21
340.964	2.01
341.336	1.82
341.707	1.46
342.078	2.07
342.449	2.01
342.82	2.33
343.191	2
343.562	1.47
343.933	1.88
344.303	1.7
344.674	2.16
345.045	2.09
345.416	1.72
345.786	2.38
346.157	1.91
346.527	1.26
346.898	1.86
347.268	1.74
347.639	1.57
348.009	1.53
348.38	2.1
348.75	1.83
349.12	1.95
349.49	1.86
349.861	1.69
350.231	1.43
350.601	1.93
350.971	2.16
351.341	1.83
351.711	1.87
352.081	1.43
352.45	2.21
352.82	1.92
353.19	2.42
353.56	2.12
353.929	2.11
354.299	1.81
354.669	2.42
355.038	2.2
355.408	1.86
355.777	1.73
356.147	1.92
356.516	2.21
356.885	1.77
357.254	1.84
357.624	1.85
357.993	2.37
358.362	1.63
358.731	1.83
359.1	1.85
359.469	1.94
359.838	1.71
360.207	1.8
360.576	2.06
360.945	1.84
361.314	1.59
361.682	1.45
362.051	2.17
362.42	1.78
362.788	2.21
363.157	2.08
363.525	1.95
363.894	2.03
364.262	2.06
364.631	1.75
364.999	2.08
365.367	1.96
365.735	1.97
366.104	1.96
366.472	1.72
366.84	2.15
367.208	1.7
367.576	1.69
367.944	2.29
368.312	2.26
368.68	1.99
369.048	2.07
369.416	2.04
369.783	1.95
370.151	1.98
370.519	1.73
370.886	1.58
371.254	1.91
371.621	1.74
371.989	2.03
372.356	1.95
372.724	2.43
373.091	2.19
373.458	1.93
373.826	1.9
374.193	1.99
374.56	2
374.927	1.62
375.294	2.06
375.661	1.97
376.028	1.88
376.395	1.6
376.762	1.93
377.129	1.92
377.496	2.04
377.863	2.07
378.229	2.04
378.596	2.34
378.963	2.31
379.329	2.14
379.696	1.95
380.062	1.88
380.429	1.83
380.795	1.87
381.161	2.08
381.528	2.31
381.894	2.19
382.26	2.17
382.626	2.15
382.993	1.92
383.359	2.12
383.725	2.22
384.091	2.12
384.457	1.81
384.823	1.98
385.188	2.02
385.554	2.1
385.92	2.19
386.286	2.34
386.651	2.02
387.017	2.29
387.383	2.17
387.748	1.96
388.114	1.76
388.479	1.61
388.845	2.16
389.21	1.73
389.575	2.28
389.94	2.02
390.306	1.97
390.671	1.75
391.036	1.89
391.401	2.36
391.766	2.15
392.131	2.17
392.496	1.6
392.861	1.91
393.226	2.12
393.591	1.83
393.956	2.11
394.32	2.04
394.685	2.31
395.05	2.09
395.414	2.25
395.779	1.77
396.143	2.02
396.508	1.67
396.872	2.19
397.236	1.96
397.601	1.85
397.965	1.87
398.329	2.12
398.694	2.25
399.058	2.05
399.422	2.02
399.786	2
400.15	2.24
400.514	2.05
400.878	1.89
401.242	1.8
401.605	2.17
401.969	1.84
402.333	2.03
402.697	2.01
403.06	2.32
403.424	2.12
403.787	1.99
404.151	1.73
404.514	2.28
404.878	1.85
405.241	2.2
405.604	2.26
405.968	1.94
406.331	2.24
406.694	2.07
407.057	2.15
407.42	1.94
407.783	1.96
408.146	1.83
408.509	2.14
408.872	2.01
409.235	2.02
409.598	2.1
409.961	1.84
410.323	2.19
410.686	2.4
411.049	2.4
411.411	2.14
411.774	2.17
412.136	1.94
412.499	1.92
412.861	2.2
413.223	1.99
413.586	1.92
413.948	1.89
414.31	2.17
414.672	1.88
415.035	2.08
415.397	2.16
415.759	1.96
416.121	2.01
416.483	1.93
416.845	2.07
417.206	2.2
417.568	2.17
417.93	2.02
418.292	2.05
418.653	2.08
419.015	1.96
419.377	1.97
419.738	2.27
420.1	2.16
420.461	2.08
420.822	2.07
421.184	2.05
421.545	2.11
421.906	1.92
422.267	2.12
422.629	1.96
422.99	1.99
423.351	2.14
423.712	2.03
424.073	2.07
424.434	2.11
424.795	2.01
425.155	2.09
425.516	1.96
425.877	1.98
426.238	2.07
426.598	1.99
426.959	2.09
427.32	2.09
427.68	2.18
428.041	2.03
428.401	2.09
428.761	2.02
429.122	2.09
429.482	2.09
429.842	2.2
430.202	2.2
430.563	2.1
430.923	2.26
431.283	2.1
431.643	2.05
432.003	2.02
432.363	2.32
432.722	2.12
433.082	2.18
433.442	2.21
433.802	2.17
434.161	2.19
434.521	2.14
434.881	2.01
435.24	2.15
435.6	2.13
435.959	2.2
436.319	2.13
436.678	1.98
437.037	2.1
437.396	2.22
437.756	2.12
438.115	2.16
438.474	2.27
438.833	2.17
439.192	2.29
439.551	1.96
439.91	2.24
440.269	2.07
440.628	2.04
440.987	2.09
441.345	2.04
441.704	1.98
442.063	2.07
442.421	2.03
442.78	2.13
443.138	1.99
443.497	2.01
443.855	2.19
444.214	2.17
444.572	2.09
444.93	2.11
445.288	2.04
445.647	2.17
446.005	2.15
446.363	2.22
446.721	2.08
447.079	2.14
447.437	2.02
447.795	1.9
448.153	2.19
448.51	2.04
448.868	2.1
449.226	2
449.584	2.01
449.941	2.11
450.299	2.1
450.656	2.04
451.014	2.04
451.371	2.06
451.729	2.01
452.086	2.11
452.443	2.22
452.801	2.14
453.158	2.08
453.515	1.98
453.872	2.07
454.229	2.24
454.586	2.23
454.943	2.08
455.3	2.27
455.657	2.18
456.014	2.24
456.371	2.06
456.727	2.11
457.084	2.19
457.441	2.27
457.797	2.15
458.154	2.19
458.51	2.3
458.867	2.23
459.223	2.2
459.58	2.14
459.936	2.01
460.292	2.17
460.648	2.05
461.005	2
461.361	1.99
461.717	2.13
462.073	2.07
462.429	2.05
462.785	2.13
463.141	2.1
463.496	2.27
463.852	2.11
464.208	2
464.564	2.22
464.919	2.19
465.275	2.17
465.631	2.12
465.986	2.22
466.342	2.16
466.697	2.05
467.052	2.1
467.408	2.11
467.763	2.12
468.118	2.03
468.473	2.13
468.829	2.16
469.184	2.01
469.539	2.17
469.894	2.12
470.249	2.11
470.603	2.2
470.958	2.04
471.313	2.14
471.668	2.02
472.023	2.16
472.377	2.13
472.732	2.27
473.086	2.19
473.441	2.2
473.795	2.31
474.15	2.26
474.504	2.29
474.859	2.34
475.213	2.12
475.567	2.1
475.921	2.37
476.275	2.21
476.63	2.25
476.984	2.27
477.338	2.09
477.692	2.22
478.045	2.18
478.399	2.15
478.753	2.05
479.107	2.12
479.461	2.26
479.814	2.28
480.168	2.26
480.521	2.26
480.875	2.16
481.228	2.13
481.582	2.09
481.935	2.01
482.289	2.14
482.642	2.37
482.995	2.3
483.348	2.18
483.701	2.15
484.055	2.09
484.408	1.98
484.761	2.15
485.114	2.07
485.466	2.03
485.819	1.96
486.172	1.95
486.525	2
486.878	2
487.23	2.12
487.583	2.17
487.936	2.18
488.288	2.17
488.641	2.15
488.993	2.11
489.345	2.08
489.698	2.08
490.05	2.05
490.402	1.99
490.754	2.11
491.107	2.1
491.459	2.13
491.811	2.12
492.163	2.18
492.515	2.22
492.866	2.16
493.218	2.05
493.57	2.09
493.922	1.99
494.274	2.08
494.625	2.03
494.977	2.17
495.328	2.26
495.68	2.28
496.031	2.2
496.383	2.13
496.734	2.12
497.086	2.31
497.437	2.32
497.788	2.2
498.139	2.25
498.49	2.11
498.842	2.23
499.193	2.11
499.544	2.08
499.894	2.18
500.245	2.17
500.596	2.17
500.947	2.23
501.298	2.2
501.648	2.24
501.999	2.23
502.35	2.11
502.7	2.22
503.051	2.29
503.401	2.26
503.752	2.21
504.102	2.15
504.452	2.15
504.803	2.27
505.153	2.15
505.503	2.13
505.853	2.13
506.203	2.27
506.553	2.2
506.903	2.25
507.253	2.29
507.603	2.15
507.953	2.24
508.303	2.27
508.652	2.22
509.002	2.28
509.352	2.18
509.701	2.02
510.051	2.11
510.4	2.21
510.75	2.16
511.099	2.21
511.449	2.12
511.798	2.11
512.147	2.19
512.496	2.21
512.846	2.16
513.195	2.27
513.544	2.24
513.893	2.25
514.242	2.26
514.591	2.32
514.939	2.11
515.288	2.26
515.637	2.17
515.986	2.15
516.334	2.31
516.683	2.31
517.032	2.28
517.38	2.28
517.729	2.29
518.077	2.28
518.426	2.24
518.774	2.18
519.122	2.32
519.47	2.19
519.819	2.16
520.167	2.16
520.515	2.23
520.863	2.02
521.211	2.12
521.559	2.2
521.907	2.21
522.255	2.09
522.602	2.32
522.95	2.31
523.298	2.41
523.645	2.32
523.993	2.22
524.341	2.15
524.688	2.18
525.036	2.25
525.383	2.35
525.73	2.3
526.078	2.42
526.425	2.23
526.772	2.19
527.119	2.26
527.466	2.08
527.814	2.13
528.161	2.12
528.508	2.17
528.854	2.23
529.201	2.16
529.548	2.13
529.895	2.17
530.242	2.11
530.588	2.03
530.935	2
531.282	2.06
531.628	2.06
531.975	2.17
532.321	2.24
532.667	2.24
533.014	2.33
533.36	2.24
533.706	2.24
534.052	2.15
534.399	2.23
534.745	2.19
535.091	2.2
535.437	2.11
535.783	2.11
536.129	2.2
536.474	2.2
536.82	2.28
537.166	2.2
537.512	2.28
537.857	2.34
538.203	2.23
538.549	2.18
538.894	2.13
539.239	2.12
539.585	2.21
539.93	2.21
540.276	2.24
540.621	2.31
540.966	2.23
541.311	2.36
541.656	2.33
542.001	2.25
542.346	2.26
542.691	2.19
543.036	2.18
543.381	2.1
543.726	2.08
544.071	2.19
544.415	2.2
544.76	2.19
545.105	2.33
545.449	2.22
545.794	2.27
546.138	2.35
546.483	2.25
546.827	2.27
547.171	2.19
547.516	2.31
547.86	2.21
548.204	2.29
548.548	2.27
548.892	2.17
549.236	2.21
549.58	2.27
549.924	2.14
550.268	2.32
550.612	2.29
550.956	2.2
551.3	2.33
551.643	2.42
551.987	2.25
552.33	2.5
552.674	2.28
553.017	2.31
553.361	2.47
553.704	2.31
554.048	2.36
554.391	2.27
554.734	2.4
555.077	2.3
555.42	2.29
555.764	2.32
556.107	2.26
556.45	2.21
556.793	2.23
557.135	2.29
557.478	2.23
557.821	2.31
558.164	2.46
558.507	2.17
558.849	2.53
559.192	2.24
559.534	2.27
559.877	2.46
560.219	2.56
560.562	2.21
560.904	2.48
561.246	2.12
561.589	2.3
561.931	2.3
562.273	2.12
562.615	2.21
562.957	2.63
563.299	2.47
563.641	2.19
563.983	2.29
564.325	2.35
564.667	2.32
565.008	2.18
565.35	2.45
565.692	2.43
566.033	2.09
566.375	2.29
566.716	2.35
567.058	2.37
567.399	2.26
567.741	2.34
568.082	2.38
568.423	2.23
568.764	2.29
569.105	2.38
569.447	2.36
569.788	2.35
570.129	2.29
570.47	2.4
570.811	2.34
571.151	2.19
571.492	2.37
571.833	2.27
572.174	2.44
572.514	2.25
572.855	2.26
573.195	2.53
573.536	2.4
573.876	2.22
574.217	2.28
574.557	2.3
574.898	2.41
575.238	2.39
575.578	2.37
575.918	2.41
576.258	2.4
576.598	2.37
576.938	2.13
577.278	2.34
577.618	2.33
577.958	2.37
578.298	2.63
578.638	2.31
578.977	2.29
579.317	2.21
579.657	2.22
579.996	2.24
580.336	2.34
580.675	2.45
581.014	2.37
581.354	2.36
581.693	2.45
582.032	2.38
582.372	2.47
582.711	2.52
583.05	2.36
583.389	2.42
583.728	2.4
584.067	2.5
584.406	2.29
584.745	2.43
585.083	2.37
585.422	2.35
585.761	2.38
586.1	2.55
586.438	2.22
586.777	2.2
587.115	2.51
587.454	2.46
587.792	2.42
588.13	2.28
588.469	2.5
588.807	2.29
589.145	2.26
589.483	2.2
589.821	2.16
590.159	2.42
590.497	2.39
590.835	2.72
591.173	2.47
591.511	2.24
591.849	2.4
592.187	2.38
592.524	2.51
592.862	2.26
593.2	2.5
593.537	2.55
593.875	2.4
594.212	2.5
594.55	2.55
594.887	2.38
595.224	2.32
595.561	2.2
595.899	2.25
596.236	2.4
596.573	2.46
596.91	2.36
597.247	2.43
597.584	2.39
597.921	2.26
598.258	2.32
598.594	2.48
598.931	2.3
599.268	2.28
599.604	2.31
599.941	2.35
600.277	2.36
600.614	2.48
600.95	2.38
601.287	2.41
601.623	2.7
601.959	2.62
602.296	2.35
602.632	2.57
602.968	2.76
603.304	2.59
603.64	2.35
603.976	2.44
604.312	2.33
604.648	2.32
604.984	2.38
605.319	2.33
605.655	2.58
605.991	2.87
606.326	2.63
606.662	2.41
606.998	2.34
607.333	2.25
607.668	2.42
608.004	2.36
608.339	2.51
608.674	2.35
609.01	2.61
609.345	2.52
609.68	2.44
610.015	2.58
610.35	2.73
610.685	2.65
611.02	2.18
611.355	2.64
611.689	2.2
612.024	2.43
612.359	2.45
612.694	2.51
613.028	2.26
613.363	2.32
613.697	2.56
614.032	2.52
614.366	2.45
614.7	2.52
615.035	2.59
615.369	2.4
615.703	2.36
616.037	2.33
616.371	2.33
616.705	2.33
617.039	2.27
617.373	2.37
617.707	2.39
618.041	2.41
618.375	2.21
618.709	2.98
619.042	2.54
619.376	2.45
619.71	2.48
620.043	2.34
620.377	2.83
620.71	2.36
621.043	2.65
621.377	2.53
621.71	2.61
622.043	2.05
622.376	2.5
622.709	2.55
623.043	2.38
623.376	2.5
623.709	2.23
624.041	2.72
624.374	2.39
624.707	2.49
625.04	2.32
625.373	2.69
625.705	2.59
626.038	2.38
626.37	2.76
626.703	2.47
627.035	2.49
627.368	2.82
627.7	2.65
628.032	2.54
628.365	2.24
628.697	2.69
629.029	2.47
629.361	2.5
629.693	2.42
630.025	2.24
630.357	2.42
630.689	2.36
631.021	2.72
631.353	2.39
631.684	2.88
632.016	2.44
632.348	2.54
632.679	2.49
633.011	2.58
633.342	2.46
633.674	2.48
634.005	2.67
634.336	2.6
634.668	2.62
634.999	2.58
635.33	2.33
635.661	2.5
635.992	2.11
636.323	2.61
636.654	2.37
636.985	2.74
637.316	2.56
637.647	2.58
637.977	2.56
638.308	2.69
638.639	2.47
638.969	2.93
639.3	2.56
639.63	2.31
639.961	2.65
640.291	2.73
640.622	2.27
640.952	2.03
641.282	2.63
641.612	2.53
641.943	2.33
642.273	3
642.603	2.46
642.933	2.47
643.263	3.47
643.592	2.49
643.922	2.61
644.252	2.2
644.582	2.71
644.911	2.52
645.241	2.63
645.571	2.21
645.9	2.43
646.23	2.39
646.559	2.42
646.888	2.91
647.218	2.26
647.547	2.24
647.876	2.79
648.205	2.49
648.534	2.94
648.863	2.58
649.192	2.53
649.521	2.92
649.85	2.84
650.179	2.59
650.508	2.57
650.837	2.35
651.165	2.28
651.494	2.57
651.822	2.38
652.151	2.72
652.479	3.11
652.808	2.46
653.136	2.49
653.465	2.38
653.793	2.9
654.121	2.56
654.449	2.79
654.777	1.88
655.105	2.3
655.433	2.59
655.761	2.41
656.089	2.68
656.417	2.14
656.745	3.33
657.073	2.36
657.4	2.77
657.728	3.08
658.056	2.78
658.383	2.32
658.711	3.16
659.038	2.5
659.365	2.96
659.693	2.64
660.02	2.28
660.347	2.83
660.674	2.97
661.001	3.08
661.329	2.43
661.656	2.39
661.982	2.67
662.309	2.99
662.636	2.67
662.963	2.82
663.29	2.8
663.616	2.3
663.943	2.68
664.27	3.07
664.596	2.32
664.923	3.1
665.249	2.78
665.576	2.89
665.902	2.84
666.228	2.42
666.554	2.61
666.881	2.87
667.207	2.71
667.533	3
667.859	2.25
668.185	2.33
668.511	2.88
668.837	2.55
669.162	2.58
669.488	2.61
669.814	2.74
670.139	2.32
670.465	2.89
670.791	2.96
671.116	2.6
671.442	2.59
671.767	2.13
672.092	3.07
672.418	2.76
672.743	2.8
673.068	2.59
673.393	3.03
673.718	2.25
674.043	2.42
674.368	2.77
674.693	3.25
675.018	2.79
675.343	2.81
675.667	2.86
675.992	3.18
676.317	1.89
676.641	2.45
676.966	2.91
677.29	2.23
677.615	3.16
677.939	2.14
678.264	2.07
678.588	2.98
678.912	3.15
679.236	1.63
679.56	2.33
679.885	3.05
680.209	2.34
680.532	2.81
680.856	2.7
681.18	2.51
681.504	2.6
681.828	2.14
682.152	2.77
682.475	2.63
682.799	2.82
683.122	2.4
683.446	2.33
683.769	3.05
684.093	3.09
684.416	3.31
684.739	2.4
685.062	3.19
685.386	2.56
685.709	2.62
686.032	1.8
686.355	2.47
686.678	2.38
687.001	2.25
687.324	2.31
687.646	2.61
687.969	2.3
688.292	2.8
688.614	3.27
688.937	2.57
689.26	3.09
689.582	2.54
689.904	2.33
690.227	3.19
690.549	2.46
690.871	2.97
691.194	2.98
691.516	2.7
691.838	2.64
692.16	2.75
