Data from 0175_forehead_Reflection__2__068.txt Node

Date: Mon Aug 28 19:14:06 CDT 2023
User: ToomeyLab
Spectrometer: FLMS14357
Trigger mode: 0
Integration Time (sec): 1.000000E-2
Scans to average: 100
Electric dark correction enabled: true
Nonlinearity correction enabled: false
Boxcar width: 0
XAxis mode: Wavelengths
Number of Pixels in Spectrum: 2048
>>>>>Begin Spectral Data<<<<<
189.047	-150.64
189.435	-150.64
189.823	-150.64
190.211	-1106.98
190.599	254.16
190.987	136.09
191.375	-76.52
191.763	40.95
192.151	37.86
192.538	315.84
192.926	267.98
193.314	-327.77
193.702	24.65
194.089	178.32
194.477	-1529.41
194.864	132.71
195.252	28.79
195.639	-4311.11
196.027	101.35
196.414	147.27
196.801	-1.43
197.189	-74.99
197.576	-498.59
197.963	-52.48
198.351	-1.5
198.738	63.57
199.125	56.27
199.512	80.5
199.899	2.97
200.286	80.26
200.673	5.39
201.06	15.13
201.447	-11.67
201.833	-40.81
202.22	27.45
202.607	29.97
202.994	23.17
203.38	48.02
203.767	-6.77
204.154	44.47
204.54	18.62
204.927	9.53
205.313	54.65
205.699	-12.55
206.086	46.28
206.472	19.84
206.858	-6.42
207.245	8.13
207.631	31.14
208.017	32.87
208.403	20.5
208.789	20.73
209.175	5.53
209.561	34.61
209.947	33.91
210.333	67.05
210.719	60.35
211.105	39.5
211.491	6.66
211.876	24.99
212.262	131.28
212.648	38.93
213.034	34.47
213.419	19.64
213.805	22.5
214.19	50.15
214.576	-0.31
214.961	48.39
215.346	13.53
215.732	43.86
216.117	1.66
216.502	8.48
216.888	-9.05
217.273	12.2
217.658	52.98
218.043	15.53
218.428	28.78
218.813	22.79
219.198	55.83
219.583	9.05
219.968	33.31
220.353	-8.23
220.738	13.38
221.122	31.5
221.507	5.49
221.892	2.11
222.276	30.39
222.661	13.9
223.046	2.32
223.43	7.12
223.815	21.82
224.199	16.56
224.583	16.95
224.968	8.89
225.352	27.01
225.736	22.76
226.121	5.12
226.505	12.88
226.889	10.63
227.273	6.4
227.657	9.87
228.041	17.09
228.425	10.67
228.809	10.29
229.193	7.06
229.577	8.16
229.961	5.87
230.344	6.16
230.728	6.36
231.112	5.35
231.495	5.57
231.879	5.72
232.263	5.33
232.646	5.32
233.03	6.46
233.413	9.21
233.797	7.2
234.18	6.36
234.563	6.27
234.946	10.62
235.33	7.41
235.713	4.19
236.096	7.24
236.479	5.92
236.862	7.03
237.245	6.5
237.628	7.18
238.011	7.89
238.394	7.51
238.777	9.17
239.16	4.2
239.543	4.82
239.925	7.27
240.308	6.84
240.691	5.25
241.073	5.14
241.456	7.79
241.838	5.66
242.221	8.31
242.603	7.66
242.986	7.54
243.368	6.59
243.75	5.93
244.133	5.77
244.515	5.63
244.897	6.66
245.279	6.6
245.661	5.29
246.043	6.18
246.425	5.58
246.807	7.08
247.189	5.26
247.571	6.69
247.953	7.26
248.335	6.13
248.717	6.08
249.098	5.83
249.48	5.8
249.862	5.93
250.243	6.13
250.625	6.8
251.006	6.61
251.388	6.61
251.769	6.94
252.151	6.74
252.532	5.81
252.913	7.57
253.295	5.61
253.676	5.86
254.057	6.06
254.438	5.98
254.819	5.74
255.2	6.64
255.581	7.39
255.962	6.16
256.343	8.03
256.724	6.33
257.105	7.94
257.486	6.67
257.867	5.9
258.247	6.36
258.628	7.62
259.009	6.2
259.389	5.52
259.77	5.98
260.15	5.67
260.531	5.94
260.911	5.98
261.292	6.02
261.672	5.45
262.052	5.62
262.432	5.86
262.813	5.9
263.193	6.06
263.573	5.33
263.953	5.95
264.333	5.59
264.713	5.37
265.093	6.45
265.473	6.68
265.853	5.51
266.233	5.62
266.612	7.11
266.992	5.1
267.372	5.52
267.752	6.07
268.131	5.81
268.511	5.54
268.89	5.76
269.27	5.33
269.649	5.99
270.029	6.29
270.408	5.95
270.787	5.79
271.167	5.41
271.546	5.39
271.925	6.28
272.304	6.24
272.683	6.22
273.062	5.63
273.441	5.96
273.82	5.43
274.199	5.43
274.578	5.7
274.957	5.9
275.336	6.07
275.715	6
276.093	5.22
276.472	5.03
276.851	5.2
277.229	5.62
277.608	4.98
277.986	5.75
278.365	5.58
278.743	5.52
279.122	5.73
279.5	5.22
279.878	5.03
280.257	5.93
280.635	5.84
281.013	5.51
281.391	5.35
281.769	5.65
282.147	6.02
282.525	5.87
282.903	5.56
283.281	5.35
283.659	6.11
284.037	6.07
284.415	5.51
284.792	5.93
285.17	5.76
285.548	5.28
285.925	5.87
286.303	5.81
286.68	5.56
287.058	5.64
287.435	5.39
287.813	5.44
288.19	5.54
288.567	6.08
288.945	5.71
289.322	5.98
289.699	6.13
290.076	6.26
290.453	5.64
290.83	5.46
291.207	5.58
291.584	6
291.961	6.42
292.338	5.78
292.715	6.26
293.092	6.22
293.469	6.23
293.845	6.02
294.222	6.47
294.599	6.37
294.975	6.06
295.352	6.31
295.728	6.64
296.105	6.65
296.481	6.51
296.858	6.84
297.234	7.04
297.61	6.81
297.986	5.75
298.363	6.72
298.739	6.56
299.115	6.44
299.491	6.85
299.867	6.75
300.243	6.83
300.619	6.91
300.995	6.88
301.371	6.63
301.746	7.42
302.122	7.44
302.498	7.21
302.874	7.42
303.249	7.34
303.625	7.19
304	7.14
304.376	7.43
304.751	6.89
305.127	7.82
305.502	7.7
305.878	7.12
306.253	7.36
306.628	7.99
307.003	7.47
307.378	7.77
307.754	8.17
308.129	7.83
308.504	8.43
308.879	7.64
309.254	8.24
309.629	8.06
310.003	8.31
310.378	8.31
310.753	8.42
311.128	8.34
311.502	8.45
311.877	8.34
312.252	8.63
312.626	8.43
313.001	8.54
313.375	8.67
313.75	8.87
314.124	8.63
314.498	8.97
314.873	9.17
315.247	9.09
315.621	8.46
315.995	9.29
316.369	8.78
316.743	9.09
317.117	9.13
317.491	9.03
317.865	9.36
318.239	9.34
318.613	10.17
318.987	9.02
319.361	9.77
319.734	9.22
320.108	9.76
320.482	9.96
320.855	9.71
321.229	9.88
321.602	10.5
321.976	9.67
322.349	10.01
322.723	10.11
323.096	10.46
323.469	9.63
323.843	10.04
324.216	10.3
324.589	10.15
324.962	10.28
325.335	10.17
325.708	10.64
326.081	10.13
326.454	10.54
326.827	10.41
327.2	10.21
327.573	10.21
327.945	11.07
328.318	11.05
328.691	10.58
329.063	10.15
329.436	10.24
329.809	11.25
330.181	10.64
330.553	11.16
330.926	10.88
331.298	10.81
331.671	10.92
332.043	11.14
332.415	11.73
332.787	10.95
333.159	11.51
333.532	11.94
333.904	11.78
334.276	11.18
334.648	11.67
335.02	11.4
335.391	11.43
335.763	11.91
336.135	11.34
336.507	11.68
336.879	11.15
337.25	12.12
337.622	12.06
337.993	12.12
338.365	11.55
338.736	12.08
339.108	11.54
339.479	11.15
339.851	12.27
340.222	11.97
340.593	11.63
340.964	12.52
341.336	11.98
341.707	11.9
342.078	12.09
342.449	12.16
342.82	11.97
343.191	12.14
343.562	12.18
343.933	12.33
344.303	12.21
344.674	12.99
345.045	12.68
345.416	12.71
345.786	12.83
346.157	12.78
346.527	12.27
346.898	12.46
347.268	12.76
347.639	12.21
348.009	12.92
348.38	12.64
348.75	12.76
349.12	13.15
349.49	13.18
349.861	12.85
350.231	12.53
350.601	13.5
350.971	13.43
351.341	13.3
351.711	13.45
352.081	13.47
352.45	13.49
352.82	13.43
353.19	13.59
353.56	13.62
353.929	13.66
354.299	12.98
354.669	13.62
355.038	13.75
355.408	13.68
355.777	13.76
356.147	13.49
356.516	13.98
356.885	14.22
357.254	13.9
357.624	13.63
357.993	13.85
358.362	13.23
358.731	13.99
359.1	14.37
359.469	14.63
359.838	14.02
360.207	14.09
360.576	14.27
360.945	14.19
361.314	13.98
361.682	14.11
362.051	14.45
362.42	14.37
362.788	14.17
363.157	14.36
363.525	14.48
363.894	14.47
364.262	14.47
364.631	14.29
364.999	14.46
365.367	14.73
365.735	14.53
366.104	14.58
366.472	14.71
366.84	14.82
367.208	15.04
367.576	14.99
367.944	15.02
368.312	15.02
368.68	15.05
369.048	15.2
369.416	15.16
369.783	15.01
370.151	15.4
370.519	15.15
370.886	15.19
371.254	15.36
371.621	15.27
371.989	15.7
372.356	15.39
372.724	15.92
373.091	15.79
373.458	15.7
373.826	15.59
374.193	15.85
374.56	15.99
374.927	15.91
375.294	15.95
375.661	16.04
376.028	15.72
376.395	15.85
376.762	16.52
377.129	15.9
377.496	15.98
377.863	16.4
378.229	16.25
378.596	16.21
378.963	16.42
379.329	16.3
379.696	16.4
380.062	16.23
380.429	16.36
380.795	16.61
381.161	16.63
381.528	16.97
381.894	16.52
382.26	16.64
382.626	16.92
382.993	16.97
383.359	16.96
383.725	16.97
384.091	16.92
384.457	16.82
384.823	17.09
385.188	17.06
385.554	16.97
385.92	17.15
386.286	17.45
386.651	17.13
387.017	17.52
387.383	17.38
387.748	17.45
388.114	17.28
388.479	17.58
388.845	17.33
389.21	17.35
389.575	17.56
389.94	17.51
390.306	17.71
390.671	17.75
391.036	17.58
391.401	17.67
391.766	17.92
392.131	17.93
392.496	17.75
392.861	17.92
393.226	17.91
393.591	17.71
393.956	17.94
394.32	17.79
394.685	18.15
395.05	18.1
395.414	18.13
395.779	18.35
396.143	18.18
396.508	18.25
396.872	18.29
397.236	18.24
397.601	18.16
397.965	18.45
398.329	18.65
398.694	18.45
399.058	18.56
399.422	18.82
399.786	18.69
400.15	18.88
400.514	18.97
400.878	18.65
401.242	18.96
401.605	18.84
401.969	19.05
402.333	18.73
402.697	18.92
403.06	19
403.424	19.21
403.787	19
404.151	18.71
404.514	18.93
404.878	19.24
405.241	19.27
405.604	19.26
405.968	18.95
406.331	19.37
406.694	19.19
407.057	19.29
407.42	18.84
407.783	19.25
408.146	19.34
408.509	19.43
408.872	19.43
409.235	19.28
409.598	19.66
409.961	19.69
410.323	19.53
410.686	19.65
411.049	19.68
411.411	19.81
411.774	19.96
412.136	19.6
412.499	19.48
412.861	19.89
413.223	19.9
413.586	19.9
413.948	20.31
414.31	19.87
414.672	19.8
415.035	20.08
415.397	20.21
415.759	20.44
416.121	20.39
416.483	20.25
416.845	20.25
417.206	20.38
417.568	20.06
417.93	20.41
418.292	20.32
418.653	20.17
419.015	20.16
419.377	20.38
419.738	20.54
420.1	20.31
420.461	20.3
420.822	20.36
421.184	20.43
421.545	20.37
421.906	20.4
422.267	20.51
422.629	20.38
422.99	20.43
423.351	20.4
423.712	20.4
424.073	20.57
424.434	20.79
424.795	20.71
425.155	20.78
425.516	20.77
425.877	20.73
426.238	20.64
426.598	20.82
426.959	20.85
427.32	20.96
427.68	21.21
428.041	21.37
428.401	21.37
428.761	21.35
429.122	21.8
429.482	21.78
429.842	21.84
430.202	21.83
430.563	22.04
430.923	21.96
431.283	22.02
431.643	21.89
432.003	22.15
432.363	22.44
432.722	22.19
433.082	22.26
433.442	22.44
433.802	22.2
434.161	22.5
434.521	22.4
434.881	22.24
435.24	22.15
435.6	22.26
435.959	22.27
436.319	22.36
436.678	22.57
437.037	22.67
437.396	22.81
437.756	22.76
438.115	22.94
438.474	23.06
438.833	23
439.192	23.01
439.551	23
439.91	23.05
440.269	23.01
440.628	23.08
440.987	23.08
441.345	22.93
441.704	22.85
442.063	22.85
442.421	22.86
442.78	23.09
443.138	23.04
443.497	23.01
443.855	23.24
444.214	23.24
444.572	23.29
444.93	23.57
445.288	23.49
445.647	23.75
446.005	23.62
446.363	23.65
446.721	23.69
447.079	23.53
447.437	23.52
447.795	23.24
448.153	23.31
448.51	23.26
448.868	23.33
449.226	23.36
449.584	23.52
449.941	23.58
450.299	23.85
450.656	23.93
451.014	24.08
451.371	24.15
451.729	24.14
452.086	24.26
452.443	24.63
452.801	24.64
453.158	24.64
453.515	24.8
453.872	24.72
454.229	24.69
454.586	24.76
454.943	24.53
455.3	24.71
455.657	24.68
456.014	24.72
456.371	24.64
456.727	24.79
457.084	24.87
457.441	25.12
457.797	24.91
458.154	25
458.51	25.46
458.867	25.16
459.223	25.26
459.58	25.17
459.936	25.48
460.292	25.39
460.648	25.06
461.005	25.13
461.361	25.07
461.717	24.93
462.073	24.67
462.429	24.65
462.785	24.88
463.141	25.16
463.496	25.34
463.852	25.69
464.208	25.64
464.564	25.76
464.919	25.74
465.275	25.85
465.631	25.82
465.986	26.17
466.342	25.99
466.697	26.06
467.052	25.96
467.408	26.02
467.763	26.21
468.118	25.9
468.473	26.25
468.829	26.17
469.184	26.08
469.539	26.19
469.894	26.25
470.249	26.37
470.603	26.22
470.958	26.64
471.313	26.47
471.668	26.43
472.023	26.62
472.377	26.67
472.732	26.5
473.086	26.54
473.441	26.85
473.795	26.72
474.15	27.09
474.504	27.15
474.859	27.13
475.213	26.94
475.567	27.02
475.921	27.05
476.275	26.97
476.63	27.25
476.984	27.2
477.338	27.32
477.692	27.33
478.045	27.4
478.399	27.3
478.753	27.32
479.107	27.15
479.461	27.17
479.814	27.31
480.168	27.47
480.521	27.24
480.875	27.3
481.228	27.44
481.582	27.39
481.935	27.41
482.289	27.6
482.642	27.84
482.995	27.69
483.348	27.6
483.701	27.58
484.055	27.28
484.408	27.48
484.761	27.24
485.114	27.26
485.466	26.92
485.819	26.51
486.172	26.27
486.525	26.28
486.878	26.35
487.23	26.55
487.583	26.98
487.936	27.25
488.288	27.38
488.641	27.49
488.993	27.3
489.345	27.14
489.698	27.01
490.05	26.89
490.402	26.85
490.754	27.22
491.107	27.22
491.459	27.45
491.811	27.86
492.163	28.11
492.515	28.47
492.866	28.27
493.218	27.91
493.57	27.64
493.922	27.27
494.274	27.43
494.625	27.63
494.977	27.83
495.328	28.23
495.68	28.47
496.031	28.79
496.383	28.76
496.734	28.88
497.086	29.09
497.437	29.08
497.788	29.1
498.139	29.16
498.49	29.11
498.842	29.04
499.193	28.75
499.544	28.91
499.894	28.9
500.245	28.91
500.596	29.09
500.947	29.06
501.298	29.24
501.648	29.05
501.999	29.35
502.35	29.36
502.7	29.6
503.051	29.76
503.401	29.39
503.752	29.61
504.102	29.67
504.452	29.73
504.803	29.69
505.153	29.91
505.503	29.63
505.853	29.73
506.203	29.84
506.553	29.86
506.903	29.84
507.253	29.76
507.603	29.93
507.953	30.02
508.303	30
508.652	30.09
509.002	30.14
509.352	30.03
509.701	29.97
510.051	29.97
510.4	30.09
510.75	29.77
511.099	29.87
511.449	29.9
511.798	29.92
512.147	30.02
512.496	30.12
512.846	30.36
513.195	30.39
513.544	30.23
513.893	30.32
514.242	30.42
514.591	30.34
514.939	30.45
515.288	30.43
515.637	30.6
515.986	30.6
516.334	30.68
516.683	30.83
517.032	30.8
517.38	30.93
517.729	30.81
518.077	30.89
518.426	31.17
518.774	30.93
519.122	30.86
519.47	30.82
519.819	30.75
520.167	30.45
520.515	30.58
520.863	30.2
521.211	30.33
521.559	30.44
521.907	30.36
522.255	30.54
522.602	30.77
522.95	31.04
523.298	31.3
523.645	31.19
523.993	31.18
524.341	31.24
524.688	31.49
525.036	31.51
525.383	31.53
525.73	31.5
526.078	31.54
526.425	31.48
526.772	31.48
527.119	31.27
527.466	31.26
527.814	30.82
528.161	30.94
528.508	30.94
528.854	31.03
529.201	31.24
529.548	31.28
529.895	31.32
530.242	30.97
530.588	30.37
530.935	30.22
531.282	30.21
531.628	30.24
531.975	30.41
532.321	30.77
532.667	30.96
533.014	31.32
533.36	31.37
533.706	31.54
534.052	31.51
534.399	31.55
534.745	31.6
535.091	31.33
535.437	31.04
535.783	30.98
536.129	30.95
536.474	31.14
536.82	31.44
537.166	31.63
537.512	31.9
537.857	32.24
538.203	32
538.549	31.84
538.894	31.53
539.239	31.7
539.585	31.68
539.93	31.97
540.276	32.06
540.621	32.47
540.966	32.34
541.311	32.64
541.656	32.7
542.001	32.54
542.346	32.66
542.691	32.58
543.036	32.06
543.381	31.51
543.726	31.39
544.071	31.59
544.415	31.62
544.76	31.86
545.105	32.07
545.449	32.1
545.794	32.22
546.138	32.4
546.483	32.37
546.827	32.55
547.171	32.86
547.516	32.86
547.86	32.87
548.204	32.86
548.548	32.88
548.892	32.66
549.236	32.42
549.58	32.65
549.924	32.78
550.268	32.99
550.612	33.2
550.956	33.36
551.3	33.47
551.643	33.49
551.987	33.47
552.33	33.64
552.674	33.6
553.017	33.78
553.361	33.81
553.704	33.68
554.048	33.81
554.391	33.75
554.734	33.78
555.077	33.54
555.42	33.52
555.764	33.54
556.107	33.69
556.45	33.87
556.793	33.85
557.135	33.97
557.478	34.07
557.821	34.22
558.164	34.3
558.507	34.23
558.849	34.26
559.192	34.48
559.534	34.1
559.877	34.41
560.219	34.44
560.562	34.48
560.904	34.35
561.246	34.67
561.589	34.32
561.931	34.62
562.273	34.44
562.615	34.66
562.957	34.7
563.299	34.71
563.641	34.33
563.983	34.32
564.325	34.47
564.667	34.62
565.008	34.61
565.35	34.72
565.692	34.84
566.033	34.64
566.375	34.61
566.716	34.76
567.058	34.91
567.399	34.69
567.741	34.95
568.082	34.48
568.423	34.55
568.764	34.52
569.105	34.65
569.447	34.76
569.788	34.72
570.129	34.88
570.47	35.01
570.811	35.25
571.151	35.05
571.492	35.03
571.833	34.82
572.174	35.28
572.514	35.4
572.855	35.2
573.195	34.9
573.536	35.23
573.876	35.08
574.217	34.81
574.557	34.96
574.898	35.17
575.238	35.04
575.578	35.29
575.918	35.18
576.258	35.05
576.598	35.55
576.938	35.23
577.278	35.41
577.618	35.47
577.958	35.42
578.298	35.67
578.638	35.37
578.977	35.45
579.317	35.57
579.657	35.49
579.996	35.76
580.336	35.79
580.675	35.99
581.014	36.27
581.354	36
581.693	36.24
582.032	36.26
582.372	36.2
582.711	36.49
583.05	36.16
583.389	36.12
583.728	36.05
584.067	36.26
584.406	36.61
584.745	36.06
585.083	36.58
585.422	36.24
585.761	36.15
586.1	36.61
586.438	36.47
586.777	36.65
587.115	36.44
587.454	36.41
587.792	36.61
588.13	36.66
588.469	36.76
588.807	36.93
589.145	36.71
589.483	36.45
589.821	36.64
590.159	36.99
590.497	36.63
590.835	36.74
591.173	36.61
591.511	36.53
591.849	36.48
592.187	36.52
592.524	36.7
592.862	36.59
593.2	36.55
593.537	36.69
593.875	36.98
594.212	37.04
594.55	36.88
594.887	36.99
595.224	37
595.561	36.91
595.899	36.88
596.236	37.05
596.573	37.15
596.91	37.12
597.247	37.15
597.584	37.06
597.921	37.24
598.258	37.12
598.594	37.29
598.931	37.06
599.268	36.9
599.604	36.65
599.941	36.9
600.277	36.67
600.614	37.01
600.95	37.44
601.287	37.05
601.623	37.53
601.959	37.58
602.296	37.57
602.632	37.33
602.968	37.8
603.304	37.57
603.64	37.83
603.976	37.57
604.312	37.78
604.648	37.29
604.984	37.45
605.319	37.52
605.655	37.42
605.991	37.51
606.326	37.43
606.662	37.27
606.998	36.8
607.333	37.06
607.668	37.11
608.004	37.24
608.339	37.28
608.674	37.58
609.01	37.82
609.345	37.83
609.68	37.71
610.015	38.08
610.35	38.05
610.685	38.17
611.02	37.67
611.355	37.97
611.689	37.47
612.024	37.67
612.359	37.48
612.694	37.92
613.028	37.79
613.363	37.7
613.697	38
614.032	38.31
614.366	38.12
614.7	38.53
615.035	38.18
615.369	38.01
615.703	38.66
616.037	38.41
616.371	38.33
616.705	38.57
617.039	38.5
617.373	38.51
617.707	38.75
618.041	38.34
618.375	38.71
618.709	38.73
619.042	38.64
619.376	38.75
619.71	38.22
620.043	39.09
620.377	39.37
620.71	38.72
621.043	38.91
621.377	38.65
621.71	38.79
622.043	38.49
622.376	38.86
622.709	38.51
623.043	38.72
623.376	38.73
623.709	38.91
624.041	38.95
624.374	38.87
624.707	38.89
625.04	38.63
625.373	39.03
625.705	38.73
626.038	39.22
626.37	39.63
626.703	39.12
627.035	38.96
627.368	39.33
627.7	39.4
628.032	39.28
628.365	39.41
628.697	39.09
629.029	39.27
629.361	38.91
629.693	39.15
630.025	39.23
630.357	39.03
630.689	39.13
631.021	39.64
631.353	39.4
631.684	39.39
632.016	39.11
632.348	39.9
632.679	39.47
633.011	39.28
633.342	39.08
633.674	39.7
634.005	39.73
634.336	39.67
634.668	39.59
634.999	39.94
635.33	39.81
635.661	39.98
635.992	39.55
636.323	39.66
636.654	39.58
636.985	39.64
637.316	39.49
637.647	39.48
637.977	39.92
638.308	40.08
638.639	40.1
638.969	40.13
639.3	39.97
639.63	39.5
639.961	40.11
640.291	40.01
640.622	39.96
640.952	39.69
641.282	40.13
641.612	40.52
641.943	40.26
642.273	40.49
642.603	39.43
642.933	40.16
643.263	40.11
643.592	40.6
643.922	39.85
644.252	40.17
644.582	40.24
644.911	40.57
645.241	40.33
645.571	40.39
645.9	40.16
646.23	40.23
646.559	40.51
646.888	40.56
647.218	40.53
647.547	40.06
647.876	40.7
648.205	40.69
648.534	41.02
648.863	40.36
649.192	40.83
649.521	40.55
649.85	40.58
650.179	40.89
650.508	41.31
650.837	40.63
651.165	40.8
651.494	40.67
651.822	41.02
652.151	40.19
652.479	40.59
652.808	40.7
653.136	40.98
653.465	40.95
653.793	41.25
654.121	40.87
654.449	40.77
654.777	40.42
655.105	40.8
655.433	40.83
655.761	40.75
656.089	40.81
656.417	40.71
656.745	40.98
657.073	40.62
657.4	41.06
657.728	41.28
658.056	40.94
658.383	41.11
658.711	41.18
659.038	41.08
659.365	41.36
659.693	41.12
660.02	41.27
660.347	41.96
660.674	41.38
661.001	41.24
661.329	41.21
661.656	41.19
661.982	40.77
662.309	40.78
662.636	41.1
662.963	41.46
663.29	41.77
663.616	41.43
663.943	41.42
664.27	41.72
664.596	41.46
664.923	41.8
665.249	41.44
665.576	41.66
665.902	41.84
666.228	41.04
666.554	41.18
666.881	41.94
667.207	41.21
667.533	41.82
667.859	41.05
668.185	41.46
668.511	41.67
668.837	41.68
