Data from 20-1_forehead_Reflection__0__70.txt Node

Date: Fri Nov 11 20:43:13 CST 2022
User: ToomeyLab
Spectrometer: FLMS14357
Trigger mode: 0
Integration Time (sec): 1.000000E-2
Scans to average: 100
Electric dark correction enabled: true
Nonlinearity correction enabled: false
Boxcar width: 0
XAxis mode: Wavelengths
Number of Pixels in Spectrum: 2048
>>>>>Begin Spectral Data<<<<<
189.047	-148.92
189.435	-148.92
189.823	-148.92
190.211	-152.74
190.599	197.93
190.987	74.46
191.375	-0.32
191.763	64.28
192.151	228.3
192.538	561.47
192.926	81.25
193.314	325.85
193.702	-99.08
194.089	-339.18
194.477	51.58
194.864	94.16
195.252	106.61
195.639	-170.74
196.027	-185.5
196.414	41.41
196.801	-52736.36
197.189	108.93
197.576	98.52
197.963	63.73
198.351	-23.62
198.738	-18.25
199.125	10.5
199.512	35.75
199.899	-52.79
200.286	-28.34
200.673	-15.32
201.06	19.81
201.447	47.09
201.833	20.21
202.22	-16.96
202.607	31.08
202.994	61.39
203.38	30.13
203.767	-9.82
204.154	30.16
204.54	45.81
204.927	32.09
205.313	-5.58
205.699	-40.12
206.086	32.79
206.472	25.77
206.858	29.77
207.245	34.7
207.631	15.67
208.017	20.05
208.403	6.35
208.789	13.55
209.175	15.34
209.561	49.4
209.947	13.1
210.333	41.75
210.719	8.4
211.105	51.63
211.491	17.85
211.876	27.51
212.262	29.21
212.648	4.98
213.034	1.59
213.419	-36.39
213.805	35.4
214.19	33.47
214.576	26.28
214.961	-25.63
215.346	7.31
215.732	-13.85
216.117	19.36
216.502	15.52
216.888	-20.13
217.273	32.01
217.658	-13.51
218.043	16.57
218.428	0.53
218.813	-1.51
219.198	12.89
219.583	11.9
219.968	5.45
220.353	-1.01
220.738	-7.4
221.122	6.36
221.507	3.94
221.892	-21.11
222.276	9.37
222.661	19.52
223.046	-15.62
223.43	5.81
223.815	0.4
224.199	3.2
224.583	3.92
224.968	0.33
225.352	0.96
225.736	2.63
226.121	7.19
226.505	10.52
226.889	-0.81
227.273	0.38
227.657	1.05
228.041	-1.13
228.425	-0.59
228.809	3.86
229.193	7.23
229.577	6.11
229.961	4.2
230.344	3.25
230.728	2.43
231.112	2.08
231.495	3.85
231.879	2.97
232.263	1.85
232.646	2.95
233.03	2.46
233.413	3.44
233.797	2.73
234.18	4.56
234.563	5.43
234.946	4.41
235.33	4.33
235.713	4.73
236.096	1.91
236.479	2.77
236.862	3.75
237.245	4.23
237.628	3.7
238.011	2.52
238.394	4.62
238.777	4.49
239.16	5.07
239.543	2.76
239.925	3.91
240.308	3.27
240.691	3.75
241.073	3.65
241.456	2.9
241.838	5.62
242.221	3.61
242.603	4.31
242.986	3.82
243.368	3.82
243.75	4.34
244.133	4.27
244.515	3.95
244.897	4.14
245.279	4.62
245.661	4.31
246.043	3.71
246.425	4.56
246.807	4.38
247.189	3.41
247.571	4.61
247.953	4.29
248.335	4.11
248.717	4.54
249.098	4.56
249.48	4.3
249.862	4.85
250.243	3.96
250.625	4.65
251.006	5.59
251.388	4.22
251.769	5.8
252.151	5.35
252.532	4.57
252.913	4.95
253.295	4.8
253.676	4.08
254.057	4.37
254.438	5.11
254.819	4.19
255.2	5.09
255.581	4.16
255.962	4.91
256.343	4.87
256.724	4.01
257.105	4.59
257.486	4.34
257.867	5.39
258.247	4.7
258.628	4.17
259.009	4.36
259.389	4.73
259.77	4.36
260.15	4.29
260.531	4.53
260.911	4.62
261.292	4.62
261.672	4.24
262.052	4.4
262.432	4.73
262.813	4.55
263.193	4.38
263.573	4.67
263.953	5
264.333	4.48
264.713	4
265.093	4.46
265.473	3.31
265.853	3.96
266.233	5.03
266.612	3.98
266.992	4.17
267.372	5.03
267.752	4.4
268.131	4.21
268.511	4.5
268.89	3.92
269.27	4.23
269.649	4.21
270.029	4.63
270.408	4.3
270.787	4.32
271.167	4.12
271.546	4.27
271.925	4.59
272.304	4.27
272.683	4.12
273.062	3.92
273.441	4.22
273.82	3.88
274.199	3.9
274.578	4.02
274.957	4.44
275.336	4.79
275.715	4.47
276.093	3.95
276.472	4.05
276.851	3.78
277.229	3.77
277.608	4.12
277.986	4.24
278.365	4.32
278.743	3.8
279.122	4.29
279.5	4.47
279.878	4.3
280.257	4.76
280.635	3.96
281.013	4.36
281.391	4.05
281.769	4.14
282.147	4.39
282.525	3.57
282.903	4.12
283.281	4.61
283.659	4.37
284.037	4.23
284.415	4.36
284.792	4.13
285.17	4.64
285.548	3.78
285.925	4.21
286.303	4.18
286.68	4.63
287.058	4.18
287.435	4.34
287.813	4.33
288.19	4.05
288.567	4.31
288.945	4.53
289.322	4.64
289.699	4.09
290.076	4.82
290.453	4.59
290.83	4.58
291.207	4.38
291.584	4.94
291.961	4.51
292.338	4.55
292.715	4.85
293.092	5.04
293.469	4.5
293.845	5.33
294.222	4.76
294.599	5.43
294.975	5.36
295.352	5.15
295.728	4.67
296.105	5.15
296.481	4.8
296.858	5.38
297.234	5.43
297.61	5.07
297.986	5.78
298.363	5.52
298.739	5.81
299.115	5.94
299.491	5.93
299.867	5.53
300.243	5.67
300.619	6.04
300.995	6.15
301.371	6.1
301.746	6.32
302.122	6.28
302.498	6.28
302.874	6.36
303.249	6.2
303.625	5.98
304	5.54
304.376	6.53
304.751	6.35
305.127	6.09
305.502	7.17
305.878	7.1
306.253	6.81
306.628	6.57
307.003	6.78
307.378	6.97
307.754	7.34
308.129	7.26
308.504	7.58
308.879	7.27
309.254	7.52
309.629	7.31
310.003	7.25
310.378	7.16
310.753	7.68
311.128	7.92
311.502	8.05
311.877	7.49
312.252	7.82
312.626	7.84
313.001	7.75
313.375	7.89
313.75	7.73
314.124	7.66
314.498	8
314.873	8
315.247	8.91
315.621	8.65
315.995	8.19
316.369	8.82
316.743	8.51
317.117	8.97
317.491	8.61
317.865	8.64
318.239	8.87
318.613	8.89
318.987	8.8
319.361	8.79
319.734	9.32
320.108	9.22
320.482	9.4
320.855	9.23
321.229	9.32
321.602	9.59
321.976	9.31
322.349	9.3
322.723	10.04
323.096	9.36
323.469	9.82
323.843	9.57
324.216	9.75
324.589	10.12
324.962	10.41
325.335	9.83
325.708	10.21
326.081	9.85
326.454	9.97
326.827	10.17
327.2	10.65
327.573	10.95
327.945	10.02
328.318	9.86
328.691	10.41
329.063	10.72
329.436	10.21
329.809	10.38
330.181	10.14
330.553	9.91
330.926	10.63
331.298	10.81
331.671	10.19
332.043	10.27
332.415	11.04
332.787	10.77
333.159	10.83
333.532	10.87
333.904	11.31
334.276	10.8
334.648	10.97
335.02	10.63
335.391	11.26
335.763	11.04
336.135	11.02
336.507	10.92
336.879	11.16
337.25	11.08
337.622	11.21
337.993	11.15
338.365	11.03
338.736	11.29
339.108	10.92
339.479	10.93
339.851	11.59
340.222	11.14
340.593	11.72
340.964	11.22
341.336	11.73
341.707	11.09
342.078	10.82
342.449	11.47
342.82	11.55
343.191	12.07
343.562	11.5
343.933	11.69
344.303	11.46
344.674	11.97
345.045	11.52
345.416	11.99
345.786	11.49
346.157	11.55
346.527	12.01
346.898	11.61
347.268	11.99
347.639	12
348.009	11.67
348.38	12.25
348.75	11.92
349.12	12.38
349.49	12.64
349.861	11.79
350.231	12.25
350.601	12.27
350.971	12.21
351.341	12.56
351.711	11.91
352.081	12.39
352.45	12.44
352.82	12.37
353.19	12.47
353.56	12.43
353.929	12.6
354.299	12.37
354.669	12.77
355.038	12.23
355.408	12.24
355.777	12.88
356.147	12.78
356.516	13.19
356.885	12.57
357.254	12.66
357.624	12.38
357.993	12.85
358.362	13.15
358.731	12.58
359.1	12.72
359.469	12.47
359.838	12.73
360.207	13.25
360.576	13.14
360.945	13.03
361.314	12.88
361.682	12.83
362.051	13.02
362.42	13.07
362.788	13.32
363.157	13.11
363.525	12.82
363.894	13.13
364.262	13.24
364.631	13.41
364.999	13.55
365.367	13.51
365.735	13.32
366.104	13.03
366.472	13.28
366.84	13.15
367.208	13.68
367.576	13.68
367.944	13.88
368.312	13.5
368.68	13.5
369.048	13.54
369.416	13.68
369.783	13.94
370.151	14.1
370.519	13.81
370.886	13.71
371.254	14.11
371.621	13.71
371.989	14.09
372.356	13.93
372.724	14.37
373.091	13.84
373.458	13.95
373.826	13.97
374.193	13.96
374.56	14
374.927	13.78
375.294	14.15
375.661	14.48
376.028	13.83
376.395	14.41
376.762	14.15
377.129	13.95
377.496	14.47
377.863	14.57
378.229	14.4
378.596	14.16
378.963	14.4
379.329	14.45
379.696	14.62
380.062	14.4
380.429	14.61
380.795	14.78
381.161	14.83
381.528	14.58
381.894	14.62
382.26	14.92
382.626	14.79
382.993	14.73
383.359	14.95
383.725	14.79
384.091	14.76
384.457	14.84
384.823	14.57
385.188	14.82
385.554	14.64
385.92	14.63
386.286	14.87
386.651	15.02
387.017	15.06
387.383	14.85
387.748	14.81
388.114	15.02
388.479	14.92
388.845	15.08
389.21	15.01
389.575	15.2
389.94	15.42
390.306	15.07
390.671	15.02
391.036	15.34
391.401	15.2
391.766	15.39
392.131	15.35
392.496	15.39
392.861	15.31
393.226	15.25
393.591	15.14
393.956	15.44
394.32	15.55
394.685	15.66
395.05	15.72
395.414	15.62
395.779	15.54
396.143	15.33
396.508	15.8
396.872	15.59
397.236	15.58
397.601	15.75
397.965	15.84
398.329	15.73
398.694	15.67
399.058	16.01
399.422	15.74
399.786	15.8
400.15	15.93
400.514	16.02
400.878	15.49
401.242	15.79
401.605	15.95
401.969	16.21
402.333	15.72
402.697	16.05
403.06	16.05
403.424	15.87
403.787	16.13
404.151	15.93
404.514	16.25
404.878	16.11
405.241	16.06
405.604	16.06
405.968	16.23
406.331	15.92
406.694	16.16
407.057	16.13
407.42	16.36
407.783	16.26
408.146	16.26
408.509	16.31
408.872	16.41
409.235	16.32
409.598	16.57
409.961	16.5
410.323	16.41
410.686	16.47
411.049	16.35
411.411	16.36
411.774	16.46
412.136	16.4
412.499	16.5
412.861	16.51
413.223	16.38
413.586	16.57
413.948	16.82
414.31	16.73
414.672	16.83
415.035	16.66
415.397	16.6
415.759	16.37
416.121	16.62
416.483	16.44
416.845	16.78
417.206	16.52
417.568	16.6
417.93	16.85
418.292	16.57
418.653	16.63
419.015	16.78
419.377	16.73
419.738	16.92
420.1	16.85
420.461	16.86
420.822	16.76
421.184	16.83
421.545	16.87
421.906	16.76
422.267	16.73
422.629	16.65
422.99	16.76
423.351	16.77
423.712	16.88
424.073	16.8
424.434	17.06
424.795	16.96
425.155	17.01
425.516	16.94
425.877	16.93
426.238	16.92
426.598	16.98
426.959	16.95
427.32	17.21
427.68	17.36
428.041	17.36
428.401	17.2
428.761	17.5
429.122	17.37
429.482	17.75
429.842	17.52
430.202	17.59
430.563	17.63
430.923	17.74
431.283	17.59
431.643	17.7
432.003	17.69
432.363	17.59
432.722	17.82
433.082	17.76
433.442	17.82
433.802	17.79
434.161	17.83
434.521	17.85
434.881	17.82
435.24	17.87
435.6	17.87
435.959	18.05
436.319	17.87
436.678	18.15
437.037	18.26
437.396	18.11
437.756	18.13
438.115	18.14
438.474	18.15
438.833	18.25
439.192	18.19
439.551	18.26
439.91	18.31
440.269	18.34
440.628	18.37
440.987	18.38
441.345	18.34
441.704	18.26
442.063	18.32
442.421	18.29
442.78	18.12
443.138	18.31
443.497	18.34
443.855	18.47
444.214	18.44
444.572	18.66
444.93	18.6
445.288	18.54
445.647	18.67
446.005	18.58
446.363	18.73
446.721	18.68
447.079	18.56
447.437	18.37
447.795	18.55
448.153	18.42
448.51	18.46
448.868	18.6
449.226	18.58
449.584	18.56
449.941	18.76
450.299	18.94
450.656	19.06
451.014	19.05
451.371	18.97
451.729	18.96
452.086	19.09
452.443	19.03
452.801	19.32
453.158	19.28
453.515	19.06
453.872	19.08
454.229	19.16
454.586	19.18
454.943	19.19
455.3	19.34
455.657	19.26
456.014	19.48
456.371	19.41
456.727	19.52
457.084	19.17
457.441	19.59
457.797	19.46
458.154	19.44
458.51	19.4
458.867	19.56
459.223	19.62
459.58	19.49
459.936	19.55
460.292	19.59
460.648	19.42
461.005	19.48
461.361	19.45
461.717	19.13
462.073	19.55
462.429	19.58
462.785	19.67
463.141	19.57
463.496	19.87
463.852	19.87
464.208	20.07
464.564	19.9
464.919	19.95
465.275	20.11
465.631	20.16
465.986	20.26
466.342	19.97
466.697	20.01
467.052	20.16
467.408	20.28
467.763	20.16
468.118	20.23
468.473	20.26
468.829	20.21
469.184	20.08
469.539	20.43
469.894	20.4
470.249	20.34
470.603	20.31
470.958	20.27
471.313	20.43
471.668	20.62
472.023	20.49
472.377	20.62
472.732	20.36
473.086	20.57
473.441	20.66
473.795	20.47
474.15	20.53
474.504	20.67
474.859	20.6
475.213	20.66
475.567	20.79
475.921	20.88
476.275	20.85
476.63	20.88
476.984	20.69
477.338	20.88
477.692	20.8
478.045	20.81
478.399	20.83
478.753	20.81
479.107	20.88
479.461	20.74
479.814	20.8
480.168	20.85
480.521	21.02
480.875	21.06
481.228	21.06
481.582	20.96
481.935	20.96
482.289	20.93
482.642	20.99
482.995	20.91
483.348	20.9
483.701	20.81
484.055	20.77
484.408	20.61
484.761	20.38
485.114	20.1
485.466	19.96
485.819	19.99
486.172	20.23
486.525	20.55
486.878	20.74
487.23	20.78
487.583	20.86
487.936	20.92
488.288	20.71
488.641	20.48
488.993	20.49
489.345	20.4
489.698	20.53
490.05	20.56
490.402	20.73
490.754	20.87
491.107	21.06
491.459	21.24
491.811	21.32
492.163	21.28
492.515	21.19
492.866	21
493.218	20.7
493.57	20.7
493.922	20.88
494.274	21.2
494.625	21.39
494.977	21.63
495.328	21.75
495.68	21.81
496.031	21.96
496.383	22
496.734	21.73
497.086	22
497.437	21.85
497.788	21.75
498.139	21.75
498.49	21.62
498.842	21.64
499.193	21.87
499.544	21.95
499.894	21.9
500.245	21.95
500.596	22.04
500.947	22.12
501.298	22.13
501.648	22.07
501.999	22.22
502.35	22.2
502.7	22.29
503.051	22.38
503.401	22.23
503.752	22.41
504.102	22.42
504.452	22.34
504.803	22.46
505.153	22.41
505.503	22.38
505.853	22.35
506.203	22.36
506.553	22.24
506.903	22.56
507.253	22.63
507.603	22.55
507.953	22.47
508.303	22.53
508.652	22.71
509.002	22.57
509.352	22.53
509.701	22.61
510.051	22.52
510.4	22.58
510.75	22.54
511.099	22.58
511.449	22.6
511.798	22.54
512.147	22.55
512.496	22.57
512.846	22.7
513.195	22.81
513.544	22.59
513.893	22.68
514.242	22.77
514.591	22.76
514.939	22.8
515.288	22.9
515.637	22.93
515.986	22.95
516.334	23.08
516.683	23.07
517.032	23.18
517.38	23.16
517.729	23.01
518.077	22.97
518.426	23.13
518.774	23.01
519.122	22.91
519.47	22.99
519.819	22.89
520.167	22.69
520.515	22.74
520.863	22.91
521.211	22.91
521.559	23.05
521.907	23.17
522.255	23.32
522.602	23.34
522.95	23.41
523.298	23.43
523.645	23.46
523.993	23.36
524.341	23.46
524.688	23.45
525.036	23.57
525.383	23.45
525.73	23.34
526.078	23.43
526.425	23.27
526.772	23.11
527.119	23.07
527.466	23.12
527.814	23.13
528.161	23.21
528.508	23.24
528.854	23.2
529.201	23.28
529.548	23.04
529.895	22.64
530.242	22.61
530.588	22.68
530.935	22.87
531.282	23.1
531.628	23.34
531.975	23.39
532.321	23.36
532.667	23.61
533.014	23.66
533.36	23.73
533.706	23.74
534.052	23.5
534.399	23.39
534.745	23.14
535.091	23.11
535.437	23.17
535.783	23.5
536.129	23.68
536.474	23.87
536.82	23.99
537.166	23.96
537.512	23.93
537.857	23.78
538.203	23.61
538.549	23.74
538.894	23.87
539.239	23.91
539.585	24.19
539.93	24.27
540.276	24.34
540.621	24.37
540.966	24.54
541.311	24.4
541.656	24.28
542.001	24.04
542.346	23.96
542.691	23.65
543.036	23.4
543.381	23.53
543.726	23.67
544.071	23.84
544.415	24.04
544.76	24.2
545.105	24.03
545.449	24.32
545.794	24.54
546.138	24.56
546.483	24.57
546.827	24.89
547.171	24.52
547.516	24.27
547.86	24.55
548.204	24.48
548.548	24.41
548.892	24.43
549.236	24.71
549.58	24.9
549.924	24.9
550.268	25.05
550.612	25.05
550.956	25.21
551.3	25.18
551.643	25.17
551.987	25.38
552.33	25.28
552.674	25.23
553.017	25.39
553.361	25.32
553.704	25.13
554.048	25.29
554.391	25.26
554.734	25.02
555.077	25.27
555.42	25.4
555.764	25.53
556.107	25.4
556.45	25.67
556.793	25.32
557.135	25.63
557.478	25.4
557.821	25.58
558.164	25.65
558.507	25.58
558.849	25.46
559.192	25.52
559.534	25.7
559.877	25.79
560.219	25.41
560.562	25.58
560.904	25.56
561.246	25.7
561.589	25.73
561.931	25.55
562.273	25.84
562.615	25.67
562.957	25.75
563.299	25.75
563.641	25.76
563.983	25.91
564.325	25.93
564.667	26.1
565.008	26
565.35	25.92
565.692	25.78
566.033	26.03
566.375	25.98
566.716	26.03
567.058	26.05
567.399	26.02
567.741	25.85
568.082	25.8
568.423	25.9
568.764	26.2
569.105	25.85
569.447	26.41
569.788	26.3
570.129	26.18
570.47	26.15
570.811	26.27
571.151	26.29
571.492	26.29
571.833	26.35
572.174	26.17
572.514	26.33
572.855	26.27
573.195	26.15
573.536	26.16
573.876	26.2
574.217	26.21
574.557	26.19
574.898	26.35
575.238	26.42
575.578	26.47
575.918	26.53
576.258	26.38
576.598	26.41
576.938	26.4
577.278	26.44
577.618	26.53
577.958	26.42
578.298	26.4
578.638	26.57
578.977	26.84
579.317	26.83
579.657	26.85
579.996	26.89
580.336	26.88
580.675	27.22
581.014	27.08
581.354	27
581.693	26.91
582.032	26.96
582.372	27
582.711	27.01
583.05	27.06
583.389	27.26
583.728	26.99
584.067	27.1
584.406	26.93
584.745	27.35
585.083	27.16
585.422	27.26
585.761	27.24
586.1	27.34
586.438	27.19
586.777	27.21
587.115	26.9
587.454	27.37
587.792	27.25
588.13	27.29
588.469	27.29
588.807	27.19
589.145	27.06
589.483	27.36
589.821	27.31
590.159	27.35
590.497	27.43
590.835	27.37
591.173	27.7
591.511	27.24
591.849	27.27
592.187	27.53
592.524	27.51
592.862	27.51
593.2	27.77
593.537	27.83
593.875	27.39
594.212	27.57
594.55	27.55
594.887	27.62
595.224	27.6
595.561	27.41
595.899	27.38
596.236	27.59
596.573	27.45
596.91	27.63
597.247	27.76
597.584	27.61
597.921	27.58
598.258	27.32
598.594	27.38
598.931	27.34
599.268	27.34
599.604	27.76
599.941	27.9
600.277	27.96
600.614	28.13
600.95	27.9
601.287	28.1
601.623	28.27
601.959	28.09
602.296	28.12
602.632	28.26
602.968	28.03
603.304	28.12
603.64	28.08
603.976	28.09
604.312	28.15
604.648	28.15
604.984	27.79
605.319	27.85
605.655	27.95
605.991	27.86
606.326	28.02
606.662	27.79
606.998	27.88
607.333	27.73
607.668	28.07
608.004	28.29
608.339	28.41
608.674	28.24
609.01	28.27
609.345	28.15
609.68	28.67
610.015	28.61
610.35	27.87
610.685	28.28
611.02	27.92
611.355	28.23
611.689	28.11
612.024	28.4
612.359	28.4
612.694	28.39
613.028	28.49
613.363	28.68
613.697	28.85
614.032	29
614.366	28.61
614.7	28.14
615.035	28.74
615.369	28.68
615.703	28.53
616.037	28.61
616.371	28.82
616.705	28.84
617.039	28.64
617.373	28.76
617.707	28.7
618.041	28.88
618.375	28.72
618.709	28.84
619.042	29.52
619.376	28.49
619.71	28.56
620.043	29.23
620.377	28.83
620.71	28.9
621.043	28.73
621.377	28.86
621.71	28.69
622.043	29.14
622.376	29.15
622.709	28.75
623.043	28.81
623.376	29.36
623.709	28.86
624.041	29.23
624.374	29.08
624.707	29.24
625.04	29.17
625.373	29
625.705	29
626.038	29.5
626.37	29.01
626.703	29.01
627.035	29.2
627.368	29.03
627.7	29.17
628.032	29.01
628.365	29.37
628.697	29.11
629.029	29.12
629.361	28.97
629.693	29.06
630.025	29.3
630.357	29.4
630.689	29.25
631.021	29.14
631.353	29.24
631.684	29.36
632.016	29.37
632.348	29.49
632.679	29.19
633.011	29.56
633.342	29.41
633.674	29.56
634.005	29.43
634.336	29.44
634.668	29.45
634.999	29.38
635.33	29.5
635.661	29.85
635.992	29.59
636.323	29.65
636.654	29.46
636.985	29.55
637.316	29.84
637.647	29.6
637.977	29.44
638.308	29.84
638.639	29.83
638.969	29.69
639.3	29.93
639.63	30.17
639.961	29.45
640.291	30.05
640.622	30.1
640.952	30.18
641.282	29.68
641.612	29.88
641.943	30.54
642.273	29.91
642.603	29.73
642.933	29.78
643.263	29.89
643.592	30.16
643.922	30.03
644.252	29.9
644.582	30.23
644.911	29.7
645.241	30.07
645.571	30.15
645.9	30.38
646.23	30.03
646.559	30.69
646.888	30.2
647.218	30.23
647.547	29.93
647.876	30.12
648.205	30
648.534	29.75
648.863	29.92
649.192	29.83
649.521	30.11
649.85	30.43
650.179	29.43
650.508	30.35
650.837	30.33
651.165	29.71
651.494	30.31
651.822	30.31
652.151	29.95
652.479	30.53
652.808	30.18
653.136	30.4
653.465	30.4
653.793	30.25
654.121	29.89
654.449	30.28
654.777	30.87
655.105	30.08
655.433	30.11
655.761	30.35
656.089	30.51
656.417	29.8
656.745	30.56
657.073	30.23
657.4	30.08
657.728	30.6
658.056	30.51
658.383	30.36
658.711	30.18
659.038	30.43
659.365	30.23
659.693	30.24
660.02	30.87
660.347	30.56
660.674	30.3
661.001	30.61
661.329	30.09
661.656	30.69
661.982	30.96
662.309	30.62
662.636	31.43
662.963	30.54
663.29	30.64
663.616	30.48
663.943	30.67
664.27	30.5
664.596	30.9
664.923	30.49
665.249	30.76
665.576	31.07
665.902	30.69
666.228	30.97
666.554	31.02
666.881	30.55
667.207	30.84
667.533	31.09
667.859	31.29
668.185	30.99
668.511	30.42
668.837	31
669.162	30.98
669.488	30.75
669.814	30.53
670.139	30.49
