Data from 20-1_chest_Reflection__0__60.txt Node

Date: Fri Nov 11 20:40:13 CST 2022
User: ToomeyLab
Spectrometer: FLMS14357
Trigger mode: 0
Integration Time (sec): 1.000000E-2
Scans to average: 100
Electric dark correction enabled: true
Nonlinearity correction enabled: false
Boxcar width: 0
XAxis mode: Wavelengths
Number of Pixels in Spectrum: 2048
>>>>>Begin Spectral Data<<<<<
189.047	-501.32
189.435	-501.32
189.823	-501.32
190.211	-458.04
190.599	26.02
190.987	133.45
191.375	-248.26
191.763	-14.7
192.151	-196.48
192.538	75.25
192.926	45.84
193.314	224.46
193.702	-9.53
194.089	-158.08
194.477	132.22
194.864	190.94
195.252	-14.05
195.639	-191.27
196.027	-379.13
196.414	28.51
196.801	-10272.73
197.189	189.19
197.576	87.22
197.963	9.9
198.351	-42.58
198.738	9.44
199.125	-6.22
199.512	12.45
199.899	-200.56
200.286	-32.9
200.673	-36.24
201.06	4.24
201.447	33.26
201.833	8.81
202.22	-43.82
202.607	17.51
202.994	17.68
203.38	38.94
203.767	40.98
204.154	26.37
204.54	-29.68
204.927	29.98
205.313	-5.59
205.699	-54.44
206.086	26.67
206.472	-9.58
206.858	22.45
207.245	20.59
207.631	1.23
208.017	25.79
208.403	3.39
208.789	25.85
209.175	-2.9
209.561	43.3
209.947	15.87
210.333	12.84
210.719	0.62
211.105	67.68
211.491	8.58
211.876	21.96
212.262	14.12
212.648	-24.87
213.034	-23.49
213.419	-40.5
213.805	-18.76
214.19	8.52
214.576	-3.29
214.961	-9.19
215.346	-24.41
215.732	-8.85
216.117	26.83
216.502	11.6
216.888	-11.13
217.273	5.1
217.658	-8.62
218.043	28.46
218.428	-19.64
218.813	10.83
219.198	-2.63
219.583	-11.29
219.968	-8.59
220.353	-5.83
220.738	-13.64
221.122	14.93
221.507	6.27
221.892	12.22
222.276	15.65
222.661	13.49
223.046	-4.35
223.43	0.43
223.815	1.66
224.199	11.8
224.583	-6.2
224.968	-16.34
225.352	6.39
225.736	-0.67
226.121	2.87
226.505	14.93
226.889	-9.34
227.273	1.83
227.657	0.57
228.041	0.59
228.425	0.99
228.809	0.75
229.193	5.19
229.577	3.09
229.961	3.6
230.344	2.46
230.728	2.08
231.112	2.08
231.495	2.49
231.879	1.44
232.263	3.79
232.646	1.17
233.03	2.78
233.413	3.49
233.797	2.82
234.18	2.2
234.563	-0.05
234.946	1.96
235.33	2.91
235.713	3.04
236.096	0.66
236.479	1.99
236.862	3.83
237.245	2.87
237.628	2.47
238.011	3.02
238.394	3.67
238.777	3.32
239.16	3.46
239.543	0.17
239.925	3.01
240.308	2.4
240.691	2.98
241.073	1.93
241.456	2.32
241.838	3.73
242.221	1.82
242.603	3.36
242.986	3
243.368	2.8
243.75	2.95
244.133	2.98
244.515	3.1
244.897	3.08
245.279	2.49
245.661	2.34
246.043	2.41
246.425	3.78
246.807	2.16
247.189	3.04
247.571	2.88
247.953	2.9
248.335	2.87
248.717	3.05
249.098	3.16
249.48	2.93
249.862	3.31
250.243	2.88
250.625	3.19
251.006	3.66
251.388	3.14
251.769	2.91
252.151	3.49
252.532	2.93
252.913	3.43
253.295	3.04
253.676	2.39
254.057	2.87
254.438	3.1
254.819	2.05
255.2	3.6
255.581	2.56
255.962	3.07
256.343	3.19
256.724	3.01
257.105	3.4
257.486	3.23
257.867	2.49
258.247	1.51
258.628	2.15
259.009	3.21
259.389	2.61
259.77	3.61
260.15	3.17
260.531	3.03
260.911	2.8
261.292	3.13
261.672	2.72
262.052	2.71
262.432	2.95
262.813	2.95
263.193	3.05
263.573	3.27
263.953	3.14
264.333	2.45
264.713	2.87
265.093	3.48
265.473	1.61
265.853	2.71
266.233	2.85
266.612	2.67
266.992	2.05
267.372	3.39
267.752	3.01
268.131	2.22
268.511	3
268.89	2.66
269.27	2.41
269.649	2.52
270.029	2.89
270.408	2.64
270.787	2.64
271.167	2.5
271.546	2.61
271.925	3.1
272.304	2.99
272.683	2.8
273.062	2.83
273.441	2.82
273.82	2.59
274.199	2.87
274.578	2.81
274.957	2.96
275.336	3.06
275.715	3.01
276.093	2.55
276.472	2.76
276.851	2.91
277.229	2.97
277.608	2.6
277.986	2.85
278.365	2.66
278.743	2.84
279.122	3.04
279.5	2.8
279.878	2.62
280.257	2.43
280.635	2.74
281.013	2.69
281.391	2.28
281.769	2.62
282.147	2.72
282.525	2.25
282.903	2.81
283.281	3.07
283.659	2.87
284.037	2.54
284.415	2.81
284.792	3.02
285.17	3.03
285.548	2.33
285.925	2.67
286.303	2.69
286.68	3.13
287.058	3.08
287.435	2.65
287.813	2.93
288.19	2.49
288.567	2.77
288.945	2.96
289.322	3.05
289.699	2.04
290.076	3.24
290.453	2.88
290.83	2.56
291.207	2.6
291.584	2.88
291.961	2.79
292.338	2.87
292.715	3.17
293.092	3.35
293.469	3.25
293.845	2.71
294.222	2.93
294.599	3.22
294.975	3.01
295.352	3.18
295.728	2.68
296.105	2.69
296.481	2.56
296.858	2.64
297.234	3.4
297.61	3.34
297.986	3.16
298.363	3.14
298.739	3.11
299.115	3.47
299.491	3.13
299.867	3.03
300.243	3.37
300.619	2.84
300.995	3.31
301.371	3.75
301.746	3.58
302.122	3.38
302.498	3.44
302.874	3.55
303.249	3.68
303.625	3.02
304	3.13
304.376	3.04
304.751	3.24
305.127	3.26
305.502	3.75
305.878	3.78
306.253	3.5
306.628	3.23
307.003	4.15
307.378	3.44
307.754	3.89
308.129	3.44
308.504	3.55
308.879	3.63
309.254	3.68
309.629	3.19
310.003	3.57
310.378	3.5
310.753	4.1
311.128	3.91
311.502	4.2
311.877	3.84
312.252	3.65
312.626	3.65
313.001	3.54
313.375	3.75
313.75	3.81
314.124	3.25
314.498	3.58
314.873	4.01
315.247	4.03
315.621	3.99
315.995	3.75
316.369	4.22
316.743	3.92
317.117	4.03
317.491	3.51
317.865	3.66
318.239	4.09
318.613	4.48
318.987	3.85
319.361	3.89
319.734	4.36
320.108	3.63
320.482	4.6
320.855	3.89
321.229	3.94
321.602	3.94
321.976	4.39
322.349	4.63
322.723	4.34
323.096	4.26
323.469	4.17
323.843	4.23
324.216	4.08
324.589	4.57
324.962	4.46
325.335	3.93
325.708	4.1
326.081	4.62
326.454	3.59
326.827	3.77
327.2	4.59
327.573	4.64
327.945	4.53
328.318	4.02
328.691	4.42
329.063	4.34
329.436	4.69
329.809	3.74
330.181	4.21
330.553	3.88
330.926	4.11
331.298	4.48
331.671	4.25
332.043	4.2
332.415	4.25
332.787	4.36
333.159	4.65
333.532	4.46
333.904	4.65
334.276	4.25
334.648	3.89
335.02	4.17
335.391	4.88
335.763	4.4
336.135	4.04
336.507	4.02
336.879	4.63
337.25	3.94
337.622	4.7
337.993	4.91
338.365	4.54
338.736	4.53
339.108	4.62
339.479	4.25
339.851	4.67
340.222	4.4
340.593	4.54
340.964	4.11
341.336	4.69
341.707	4.27
342.078	4.37
342.449	4.61
342.82	4.52
343.191	4.87
343.562	4.44
343.933	4.54
344.303	4.22
344.674	4.48
345.045	4.27
345.416	5.03
345.786	4.32
346.157	4.66
346.527	4.48
346.898	3.83
347.268	4.27
347.639	4.36
348.009	4.41
348.38	4.63
348.75	4.36
349.12	5.05
349.49	4.67
349.861	4.52
350.231	4.71
350.601	4.25
350.971	5.12
351.341	4.45
351.711	4.77
352.081	4.74
352.45	4.65
352.82	4.15
353.19	4.65
353.56	4.72
353.929	4.72
354.299	4.24
354.669	4.78
355.038	4.48
355.408	4.87
355.777	4.41
356.147	4.82
356.516	4.58
356.885	4.66
357.254	4.51
357.624	4.15
357.993	4.86
358.362	4.58
358.731	4.3
359.1	4.34
359.469	4.54
359.838	4.54
360.207	4.74
360.576	4.72
360.945	4.54
361.314	4.43
361.682	4.72
362.051	4.65
362.42	4.7
362.788	4.88
363.157	4.56
363.525	4.54
363.894	4.51
364.262	4.93
364.631	4.87
364.999	4.8
365.367	4.77
365.735	4.62
366.104	4.47
366.472	4.55
366.84	4.39
367.208	4.56
367.576	5.03
367.944	4.93
368.312	4.78
368.68	4.28
369.048	4.62
369.416	4.7
369.783	4.9
370.151	4.93
370.519	4.7
370.886	4.8
371.254	4.84
371.621	4.82
371.989	4.78
372.356	4.99
372.724	5.28
373.091	5.13
373.458	4.75
373.826	4.59
374.193	4.75
374.56	4.7
374.927	4.59
375.294	5.11
375.661	5.22
376.028	4.84
376.395	4.82
376.762	5.02
377.129	4.95
377.496	4.88
377.863	4.94
378.229	4.77
378.596	4.94
378.963	4.66
379.329	5.16
379.696	4.85
380.062	4.71
380.429	5.07
380.795	5.11
381.161	5.19
381.528	4.99
381.894	5.15
382.26	5.21
382.626	5.19
382.993	4.86
383.359	5.45
383.725	4.94
384.091	5.15
384.457	4.74
384.823	4.9
385.188	5.03
385.554	4.96
385.92	4.72
386.286	4.79
386.651	4.96
387.017	4.95
387.383	4.94
387.748	4.74
388.114	5.21
388.479	4.96
388.845	4.95
389.21	5
389.575	5.2
389.94	5.08
390.306	4.93
390.671	5.08
391.036	4.95
391.401	5.2
391.766	5.12
392.131	4.97
392.496	4.98
392.861	5.02
393.226	4.89
393.591	4.95
393.956	5.08
394.32	5.17
394.685	5.12
395.05	5.21
395.414	5.01
395.779	5.16
396.143	4.9
396.508	5.44
396.872	5.24
397.236	5.08
397.601	5.03
397.965	5.11
398.329	5.05
398.694	5.31
399.058	5.13
399.422	5.21
399.786	5.14
400.15	5.09
400.514	4.98
400.878	5.06
401.242	5.13
401.605	5.37
401.969	5.22
402.333	5.01
402.697	5.04
403.06	5.28
403.424	4.84
403.787	5.29
404.151	5.02
404.514	5.13
404.878	5.3
405.241	5.19
405.604	5.26
405.968	5.21
406.331	4.89
406.694	5.06
407.057	5.26
407.42	5.24
407.783	5.22
408.146	5.37
408.509	5.39
408.872	5.21
409.235	5.46
409.598	5.25
409.961	5.57
410.323	5.15
410.686	5.16
411.049	4.97
411.411	5.21
411.774	5.15
412.136	4.99
412.499	5.33
412.861	5.32
413.223	5.3
413.586	5.23
413.948	5.29
414.31	5.39
414.672	5.22
415.035	5.2
415.397	5.29
415.759	5.04
416.121	5.4
416.483	4.99
416.845	5.26
417.206	5.18
417.568	5.33
417.93	5.18
418.292	5.15
418.653	5.19
419.015	5.3
419.377	5.33
419.738	5.26
420.1	5.25
420.461	5.32
420.822	5.23
421.184	5.16
421.545	5.21
421.906	5.19
422.267	5.24
422.629	5.16
422.99	5.16
423.351	5.19
423.712	5.17
424.073	5.35
424.434	5.33
424.795	5.34
425.155	5.19
425.516	5.29
425.877	5.28
426.238	5.25
426.598	5.21
426.959	5.24
427.32	5.39
427.68	5.39
428.041	5.62
428.401	5.13
428.761	5.53
429.122	5.25
429.482	5.45
429.842	5.51
430.202	5.36
430.563	5.57
430.923	5.44
431.283	5.39
431.643	5.46
432.003	5.6
432.363	5.51
432.722	5.59
433.082	5.46
433.442	5.63
433.802	5.51
434.161	5.35
434.521	5.57
434.881	5.7
435.24	5.57
435.6	5.45
435.959	5.52
436.319	5.45
436.678	5.47
437.037	5.52
437.396	5.53
437.756	5.47
438.115	5.51
438.474	5.5
438.833	5.58
439.192	5.78
439.551	5.55
439.91	5.6
440.269	5.6
440.628	5.6
440.987	5.55
441.345	5.61
441.704	5.58
442.063	5.62
442.421	5.55
442.78	5.42
443.138	5.66
443.497	5.5
443.855	5.58
444.214	5.55
444.572	5.56
444.93	5.54
445.288	5.51
445.647	5.75
446.005	5.76
446.363	5.69
446.721	5.6
447.079	5.67
447.437	5.52
447.795	5.53
448.153	5.43
448.51	5.59
448.868	5.66
449.226	5.64
449.584	5.58
449.941	5.58
450.299	5.58
450.656	5.78
451.014	5.72
451.371	5.68
451.729	5.66
452.086	5.87
452.443	5.78
452.801	5.73
453.158	5.71
453.515	5.65
453.872	5.61
454.229	5.75
454.586	5.8
454.943	5.88
455.3	5.83
455.657	5.81
456.014	5.95
456.371	5.81
456.727	5.92
457.084	5.63
457.441	6
457.797	5.8
458.154	5.78
458.51	5.85
458.867	5.76
459.223	5.88
459.58	5.86
459.936	5.9
460.292	5.76
460.648	5.81
461.005	5.81
461.361	5.75
461.717	5.72
462.073	5.85
462.429	5.74
462.785	5.68
463.141	5.76
463.496	5.73
463.852	5.91
464.208	5.85
464.564	5.93
464.919	5.92
465.275	5.98
465.631	6.06
465.986	6.05
466.342	6.17
466.697	5.87
467.052	5.96
467.408	5.88
467.763	5.99
468.118	6.1
468.473	5.91
468.829	6.04
469.184	6.06
469.539	6.06
469.894	6.03
470.249	6.04
470.603	6.02
470.958	6.04
471.313	6.1
471.668	6.17
472.023	5.87
472.377	6.08
472.732	6.12
473.086	5.97
473.441	6.16
473.795	6.12
474.15	6.06
474.504	6.18
474.859	6.2
475.213	6.15
475.567	6.27
475.921	6.23
476.275	6.04
476.63	6.32
476.984	6.17
477.338	6.16
477.692	6.02
478.045	5.99
478.399	6.26
478.753	6.05
479.107	6.08
479.461	6.14
479.814	6.05
480.168	6.15
480.521	6.19
480.875	6.15
481.228	6.04
481.582	6.28
481.935	6.09
482.289	6.02
482.642	6.14
482.995	6.12
483.348	6.12
483.701	6.2
484.055	6.09
484.408	6.04
484.761	6.02
485.114	5.88
485.466	5.81
485.819	5.84
486.172	5.89
486.525	5.91
486.878	5.98
487.23	6.03
487.583	6.09
487.936	6.09
488.288	6.14
488.641	6.04
488.993	6.03
489.345	6
489.698	6
490.05	6.02
490.402	6.02
490.754	6.15
491.107	6.11
491.459	6.13
491.811	6.33
492.163	6.28
492.515	6.26
492.866	6.15
493.218	6.14
493.57	6.1
493.922	6.12
494.274	6.21
494.625	6.19
494.977	6.4
495.328	6.39
495.68	6.38
496.031	6.35
496.383	6.65
496.734	6.47
497.086	6.55
497.437	6.55
497.788	6.49
498.139	6.4
498.49	6.4
498.842	6.39
499.193	6.49
499.544	6.52
499.894	6.34
500.245	6.53
500.596	6.57
500.947	6.51
501.298	6.54
501.648	6.65
501.999	6.59
502.35	6.73
502.7	6.66
503.051	6.63
503.401	6.63
503.752	6.59
504.102	6.59
504.452	6.63
504.803	6.64
505.153	6.55
505.503	6.63
505.853	6.59
506.203	6.76
506.553	6.49
506.903	6.59
507.253	6.74
507.603	6.71
507.953	6.62
508.303	6.62
508.652	6.69
509.002	6.73
509.352	6.77
509.701	6.74
510.051	6.68
510.4	6.73
510.75	6.69
511.099	6.65
511.449	6.77
511.798	6.74
512.147	6.62
512.496	6.68
512.846	6.84
513.195	6.9
513.544	6.72
513.893	6.6
514.242	6.77
514.591	6.84
514.939	6.87
515.288	6.82
515.637	6.95
515.986	6.83
516.334	6.78
516.683	6.99
517.032	6.96
517.38	7.07
517.729	6.88
518.077	6.98
518.426	7.16
518.774	7.06
519.122	7.05
519.47	7.07
519.819	6.94
520.167	6.83
520.515	6.97
520.863	7.01
521.211	6.9
521.559	6.97
521.907	7.05
522.255	6.92
522.602	7.09
522.95	7.11
523.298	7.08
523.645	7.12
523.993	7.16
524.341	7.14
524.688	7.13
525.036	7.15
525.383	7.27
525.73	7.17
526.078	7.23
526.425	7.17
526.772	7.12
527.119	7.09
527.466	7.09
527.814	7.22
528.161	7.19
528.508	7.17
528.854	7.13
529.201	7.11
529.548	7.09
529.895	6.97
530.242	6.93
530.588	7.02
530.935	6.98
531.282	7.02
531.628	7.1
531.975	7.19
532.321	7.21
532.667	7.31
533.014	7.35
533.36	7.36
533.706	7.45
534.052	7.35
534.399	7.28
534.745	7.24
535.091	7.27
535.437	7.27
535.783	7.32
536.129	7.4
536.474	7.39
536.82	7.48
537.166	7.54
537.512	7.55
537.857	7.52
538.203	7.47
538.549	7.63
538.894	7.57
539.239	7.46
539.585	7.63
539.93	7.6
540.276	7.84
540.621	7.76
540.966	7.94
541.311	7.78
541.656	7.8
542.001	7.71
542.346	7.77
542.691	7.6
543.036	7.49
543.381	7.58
543.726	7.56
544.071	7.62
544.415	7.7
544.76	7.75
545.105	7.73
545.449	7.82
545.794	7.91
546.138	7.94
546.483	8.05
546.827	7.99
547.171	7.93
547.516	7.97
547.86	8.01
548.204	7.98
548.548	8
548.892	8.06
549.236	8.04
549.58	8.19
549.924	8.27
550.268	8.32
550.612	8.33
550.956	8.4
551.3	8.25
551.643	8.3
551.987	8.27
552.33	8.42
552.674	8.36
553.017	8.6
553.361	8.37
553.704	8.31
554.048	8.4
554.391	8.34
554.734	8.37
555.077	8.58
555.42	8.57
555.764	8.59
556.107	8.6
556.45	8.66
556.793	8.59
557.135	8.64
557.478	8.95
557.821	8.78
558.164	8.76
558.507	8.79
558.849	8.73
559.192	8.66
559.534	8.74
559.877	8.77
560.219	8.78
560.562	8.81
560.904	8.92
561.246	8.75
561.589	8.88
561.931	8.84
562.273	8.88
562.615	8.84
562.957	9.06
563.299	8.92
563.641	8.91
563.983	9
564.325	9.17
564.667	8.99
565.008	9.06
565.35	9.25
565.692	9.05
566.033	9.13
566.375	9.24
566.716	9.15
567.058	9.4
567.399	9.27
567.741	9.3
568.082	9.28
568.423	9.41
568.764	9.39
569.105	9.23
569.447	9.39
569.788	9.34
570.129	9.36
570.47	9.38
570.811	9.58
571.151	9.58
571.492	9.41
571.833	9.44
572.174	9.7
572.514	9.68
572.855	9.64
573.195	9.49
573.536	9.63
573.876	9.64
574.217	9.72
574.557	9.55
574.898	9.52
575.238	9.8
575.578	9.79
575.918	9.8
576.258	9.79
576.598	9.85
576.938	9.82
577.278	9.7
577.618	9.8
577.958	9.89
578.298	10.04
578.638	9.99
578.977	10.05
579.317	10.09
579.657	10.33
579.996	10.19
580.336	10
580.675	10.22
581.014	10.05
581.354	10.19
581.693	10.17
582.032	10.23
582.372	10.28
582.711	10.2
583.05	10.34
583.389	10.44
583.728	10.48
584.067	10.46
584.406	10.41
584.745	10.59
585.083	10.36
585.422	10.35
585.761	10.42
586.1	10.62
586.438	10.55
586.777	10.43
587.115	10.46
587.454	10.49
587.792	10.74
588.13	10.54
588.469	10.78
588.807	10.85
589.145	10.79
589.483	10.78
589.821	10.79
590.159	10.93
590.497	10.89
590.835	10.81
591.173	11.08
591.511	10.88
591.849	11.03
592.187	11.08
592.524	10.75
592.862	10.8
593.2	11.13
593.537	11.07
593.875	11.27
594.212	11.19
594.55	11.14
594.887	11.09
595.224	11.25
595.561	11.32
595.899	11.17
596.236	11.4
596.573	10.95
596.91	11.19
597.247	11.44
597.584	11.35
597.921	11.5
598.258	11.2
598.594	11.31
598.931	11.31
599.268	11.46
599.604	11.44
599.941	11.54
600.277	11.55
600.614	11.71
600.95	11.49
601.287	11.7
601.623	12.06
601.959	12.01
602.296	11.62
602.632	11.8
602.968	11.77
603.304	11.99
603.64	12.1
603.976	11.89
604.312	11.86
604.648	11.92
604.984	11.89
605.319	11.96
605.655	12.06
605.991	11.94
606.326	12.03
606.662	12.01
606.998	11.97
607.333	12.04
607.668	11.97
608.004	12.08
608.339	12.05
608.674	12.29
609.01	12.28
609.345	12.25
609.68	12.29
610.015	12.09
610.35	12.17
610.685	12.56
611.02	12.36
611.355	12.46
611.689	12.52
612.024	12.47
612.359	12.39
612.694	12.21
613.028	12.55
613.363	12.73
613.697	12.73
614.032	12.7
614.366	12.59
614.7	12.62
615.035	12.82
615.369	12.79
615.703	12.78
616.037	12.89
616.371	12.69
616.705	12.98
617.039	12.93
617.373	13.05
617.707	12.69
618.041	13.41
618.375	13.06
618.709	13.27
619.042	13.42
619.376	13.14
619.71	13.12
620.043	13.32
620.377	13.19
620.71	13.15
621.043	13.16
621.377	12.87
621.71	13.11
622.043	13.32
622.376	12.93
622.709	12.87
623.043	13.1
623.376	13.65
623.709	13.92
624.041	13.94
624.374	13.21
624.707	13.6
625.04	13.38
625.373	13.6
625.705	13.23
626.038	13.61
626.37	13.93
626.703	13.74
627.035	13.94
627.368	13.66
627.7	13.69
628.032	13.85
628.365	13.89
628.697	13.85
629.029	13.8
629.361	14.12
629.693	13.64
630.025	13.86
630.357	13.89
630.689	13.79
631.021	13.79
631.353	14.3
631.684	13.95
632.016	13.84
632.348	13.87
632.679	13.97
633.011	14.4
633.342	14.37
633.674	14.17
634.005	14.14
634.336	14.44
634.668	14.6
634.999	14.15
635.33	14.57
635.661	14.56
635.992	14.61
636.323	14.69
636.654	14.53
636.985	14.59
637.316	14.54
637.647	14.94
637.977	14.62
638.308	14.91
638.639	14.83
638.969	14.58
639.3	15.22
639.63	14.8
639.961	14.77
640.291	15.09
640.622	15.29
640.952	15.03
641.282	14.68
641.612	14.79
641.943	15.47
642.273	14.97
642.603	15.1
642.933	15.28
643.263	15.27
643.592	15.17
643.922	15.24
644.252	15.1
644.582	15.41
644.911	15.21
645.241	15.11
645.571	14.99
645.9	15.71
646.23	15.73
646.559	15.25
646.888	15.38
647.218	15.21
647.547	15.15
647.876	15.1
648.205	15.55
648.534	15.64
648.863	15.58
649.192	15.13
649.521	15.61
649.85	16.01
650.179	15.21
650.508	15.63
650.837	15.99
651.165	15.64
651.494	15.76
651.822	15.45
652.151	15.87
652.479	15.66
652.808	15.87
653.136	15.64
653.465	16.14
653.793	15.73
654.121	15.62
654.449	15.6
654.777	16.56
655.105	16.37
655.433	16.05
655.761	16.21
656.089	16.24
656.417	15.89
656.745	16.74
657.073	16.26
657.4	15.93
657.728	16.32
658.056	16.56
658.383	16.11
658.711	16.39
659.038	16.61
659.365	16.36
659.693	16.62
660.02	16.98
660.347	16.93
660.674	16.41
661.001	16.6
661.329	16.4
661.656	16.73
661.982	16.8
662.309	16.2
662.636	16.88
662.963	16.47
663.29	16.55
663.616	16.45
663.943	17.07
664.27	17.42
664.596	17.03
664.923	17.11
665.249	17.06
665.576	16.88
665.902	17.06
666.228	16.93
666.554	17.07
666.881	17.03
667.207	17.06
667.533	17.04
667.859	17.25
668.185	17.16
668.511	16.58
668.837	17.55
669.162	16.94
669.488	17.31
669.814	17.26
670.139	17.02
670.465	16.48
670.791	17.17
671.116	17.46
671.442	18.04
671.767	17.94
672.092	17.33
672.418	17.76
672.743	17.66
673.068	17.56
673.393	18.18
673.718	17.3
674.043	17.77
674.368	17.43
674.693	17.49
675.018	18.03
675.343	17.84
675.667	18.02
675.992	18.72
676.317	18.05
676.641	18.22
676.966	17.86
677.29	17.75
677.615	17.86
677.939	18.25
678.264	18.64
678.588	17.74
678.912	18.53
679.236	18
679.56	18.9
679.885	18.24
680.209	17.99
680.532	18.46
680.856	18.53
681.18	18.7
681.504	18.31
681.828	18.94
682.152	18.58
682.475	18.44
682.799	18.65
683.122	18.46
683.446	18.87
683.769	19.33
684.093	19.02
684.416	18.8
684.739	19.51
