Data from 20-1_chest_Reflection__4__64.txt Node

Date: Fri Nov 11 20:41:11 CST 2022
User: ToomeyLab
Spectrometer: FLMS14357
Trigger mode: 0
Integration Time (sec): 1.000000E-2
Scans to average: 100
Electric dark correction enabled: true
Nonlinearity correction enabled: false
Boxcar width: 0
XAxis mode: Wavelengths
Number of Pixels in Spectrum: 2048
>>>>>Begin Spectral Data<<<<<
189.047	-125.85
189.435	-125.85
189.823	-125.85
190.211	-10.28
190.599	34.29
190.987	324.43
191.375	-155.54
191.763	-35.42
192.151	110.94
192.538	-123.16
192.926	125.11
193.314	231.31
193.702	-125.48
194.089	-345.34
194.477	94.72
194.864	249.48
195.252	76.63
195.639	1347.6
196.027	-435.64
196.414	174.94
196.801	-19909.09
197.189	220.72
197.576	165.06
197.963	13.41
198.351	-21.66
198.738	1.99
199.125	47.49
199.512	7.28
199.899	9.94
200.286	4.57
200.673	13.74
201.06	17.76
201.447	29.25
201.833	-4.04
202.22	-29.78
202.607	9.09
202.994	28.98
203.38	27.32
203.767	57.32
204.154	31.76
204.54	9.56
204.927	-17.18
205.313	1.49
205.699	-42.33
206.086	38.33
206.472	22.66
206.858	35.19
207.245	26.56
207.631	7.61
208.017	3.1
208.403	16.67
208.789	32.19
209.175	51.22
209.561	26.16
209.947	-0.11
210.333	13.91
210.719	4.66
211.105	54.49
211.491	9.27
211.876	25.02
212.262	13.09
212.648	-9.3
213.034	23.07
213.419	-29.89
213.805	13.5
214.19	41.79
214.576	10.21
214.961	-15.61
215.346	5.84
215.732	5.47
216.117	24.7
216.502	5.93
216.888	4.39
217.273	31.1
217.658	-21.32
218.043	10.03
218.428	13.42
218.813	7.33
219.198	3.85
219.583	26.41
219.968	-0.83
220.353	-1.75
220.738	15.29
221.122	6.06
221.507	9.48
221.892	8.61
222.276	7.37
222.661	16.71
223.046	-4.32
223.43	-22.45
223.815	5.25
224.199	-0.03
224.583	-6.69
224.968	1.73
225.352	0.83
225.736	6.25
226.121	-0.3
226.505	9.61
226.889	-7.29
227.273	3.42
227.657	-3.86
228.041	0.34
228.425	0.82
228.809	4.64
229.193	8.09
229.577	3.78
229.961	4.15
230.344	3.62
230.728	2.49
231.112	1.76
231.495	3.48
231.879	2.21
232.263	2.25
232.646	2.57
233.03	3.87
233.413	3.76
233.797	4
234.18	2.5
234.563	3.11
234.946	0.66
235.33	3.16
235.713	2.73
236.096	2.67
236.479	2.88
236.862	5.62
237.245	3.09
237.628	4.5
238.011	5.19
238.394	4.17
238.777	3.12
239.16	3.67
239.543	1.62
239.925	5.29
240.308	3.77
240.691	3.35
241.073	2.7
241.456	3.65
241.838	5.19
242.221	4.08
242.603	4.33
242.986	3.98
243.368	3.94
243.75	4.01
244.133	4.15
244.515	3.91
244.897	4.47
245.279	4.42
245.661	4.2
246.043	4.41
246.425	5.16
246.807	3.93
247.189	4.7
247.571	3.81
247.953	4.25
248.335	4.27
248.717	4.63
249.098	4.66
249.48	4.3
249.862	4.73
250.243	4.32
250.625	4.58
251.006	4.85
251.388	4.36
251.769	4.43
252.151	5.07
252.532	3.69
252.913	4.94
253.295	4.54
253.676	3.83
254.057	4.4
254.438	4.25
254.819	4.54
255.2	5.53
255.581	3.92
255.962	3.83
256.343	4.3
256.724	4.32
257.105	3.97
257.486	4.51
257.867	4.88
258.247	3.46
258.628	3.9
259.009	4.09
259.389	3.49
259.77	4.84
260.15	4.27
260.531	4.45
260.911	4.02
261.292	4.38
261.672	3.9
262.052	4.18
262.432	4.2
262.813	4.25
263.193	3.63
263.573	4.11
263.953	4.32
264.333	3.96
264.713	4.4
265.093	4.16
265.473	3.76
265.853	5.13
266.233	3.88
266.612	3.79
266.992	4.09
267.372	4.38
267.752	3.84
268.131	3.63
268.511	3.99
268.89	3.84
269.27	4.35
269.649	3.35
270.029	4.44
270.408	3.91
270.787	3.52
271.167	3.78
271.546	3.48
271.925	4.2
272.304	4
272.683	3.99
273.062	3.92
273.441	4.13
273.82	3.65
274.199	3.65
274.578	3.75
274.957	4.19
275.336	4.31
275.715	3.96
276.093	4.08
276.472	3.63
276.851	3.62
277.229	3.18
277.608	3.49
277.986	4.3
278.365	3.48
278.743	3.76
279.122	4.61
279.5	3.92
279.878	4.35
280.257	4.1
280.635	3.82
281.013	3.94
281.391	3.85
281.769	3.76
282.147	3.96
282.525	3.55
282.903	3.65
283.281	4.09
283.659	4.08
284.037	4.24
284.415	3.86
284.792	3.96
285.17	4.04
285.548	3.71
285.925	3.56
286.303	3.61
286.68	4.25
287.058	4.18
287.435	4.05
287.813	4.02
288.19	3.73
288.567	3.95
288.945	3.98
289.322	4.51
289.699	4.17
290.076	4.52
290.453	3.95
290.83	4.13
291.207	4.71
291.584	4.12
291.961	4.13
292.338	4.36
292.715	4.33
293.092	4.68
293.469	4.28
293.845	4.5
294.222	4.39
294.599	5.11
294.975	5.06
295.352	4.76
295.728	4.82
296.105	5.23
296.481	4.51
296.858	4.69
297.234	4.7
297.61	4.61
297.986	4.83
298.363	5.03
298.739	5.02
299.115	5.23
299.491	5.2
299.867	5.23
300.243	4.98
300.619	5.52
300.995	5.04
301.371	5.66
301.746	5.34
302.122	5.12
302.498	5.31
302.874	5.38
303.249	5.23
303.625	5.22
304	5.33
304.376	5.46
304.751	4.47
305.127	5.02
305.502	5.86
305.878	5.81
306.253	5.33
306.628	5.33
307.003	5.76
307.378	5.6
307.754	5.51
308.129	5.16
308.504	5.9
308.879	6.07
309.254	5.78
309.629	5.19
310.003	5.71
310.378	5.71
310.753	5.73
311.128	5.93
311.502	6.09
311.877	5.69
312.252	5.67
312.626	5.96
313.001	5.63
313.375	5.64
313.75	5.59
314.124	5.58
314.498	5.72
314.873	5.52
315.247	6.4
315.621	5.63
315.995	5.82
316.369	6.16
316.743	5.82
317.117	5.88
317.491	5.94
317.865	5.52
318.239	6.03
318.613	6.33
318.987	6.44
319.361	5.76
319.734	6.65
320.108	5.92
320.482	6.17
320.855	6.26
321.229	5.92
321.602	6.6
321.976	6.13
322.349	6.64
322.723	6.76
323.096	6.34
323.469	6.13
323.843	6.71
324.216	5.56
324.589	6.32
324.962	6.23
325.335	5.95
325.708	6.39
326.081	6.19
326.454	6.29
326.827	6.08
327.2	6.64
327.573	7.31
327.945	6.34
328.318	6.4
328.691	6.24
329.063	6.93
329.436	5.93
329.809	6.52
330.181	6.28
330.553	5.98
330.926	6.52
331.298	6.02
331.671	6.27
332.043	6.17
332.415	6.75
332.787	6.62
333.159	6.35
333.532	6.53
333.904	6.83
334.276	6
334.648	6.29
335.02	6.27
335.391	6.72
335.763	6.37
336.135	5.97
336.507	6.39
336.879	6.58
337.25	6.49
337.622	6.55
337.993	6.48
338.365	6.47
338.736	6.19
339.108	6.39
339.479	6.26
339.851	6.27
340.222	6.39
340.593	7.08
340.964	6.86
341.336	6.8
341.707	6.67
342.078	6.24
342.449	6.85
342.82	6.6
343.191	6.89
343.562	6.77
343.933	6.66
344.303	6.13
344.674	6.55
345.045	6.36
345.416	6.59
345.786	6.29
346.157	6.64
346.527	6.6
346.898	6.12
347.268	6.19
347.639	6.64
348.009	6.46
348.38	6.73
348.75	6.79
349.12	7.39
349.49	6.93
349.861	6.55
350.231	6.47
350.601	6.59
350.971	6.86
351.341	6.67
351.711	6.77
352.081	6.88
352.45	6.59
352.82	5.95
353.19	6.76
353.56	6.47
353.929	6.77
354.299	6.11
354.669	6.21
355.038	6.75
355.408	6.6
355.777	6.65
356.147	6.93
356.516	7.01
356.885	6.99
357.254	6.44
357.624	6.18
357.993	6.81
358.362	6.92
358.731	6.45
359.1	6.71
359.469	6.38
359.838	6.55
360.207	6.53
360.576	6.6
360.945	6.76
361.314	6.53
361.682	6.74
362.051	6.95
362.42	6.82
362.788	6.64
363.157	6.74
363.525	6.64
363.894	6.62
364.262	6.74
364.631	6.87
364.999	6.64
365.367	6.59
365.735	6.58
366.104	6.68
366.472	6.37
366.84	6.22
367.208	6.65
367.576	6.81
367.944	6.81
368.312	6.85
368.68	6.77
369.048	7.03
369.416	6.99
369.783	6.87
370.151	6.57
370.519	6.95
370.886	6.96
371.254	6.88
371.621	6.96
371.989	6.73
372.356	6.73
372.724	7
373.091	7.05
373.458	6.82
373.826	6.65
374.193	6.54
374.56	6.44
374.927	6.83
375.294	6.92
375.661	7.05
376.028	6.32
376.395	6.97
376.762	7.09
377.129	6.61
377.496	6.72
377.863	6.93
378.229	6.85
378.596	6.72
378.963	7.04
379.329	6.89
379.696	7.03
380.062	6.96
380.429	6.95
380.795	7.29
381.161	6.96
381.528	7.08
381.894	7.2
382.26	7.05
382.626	7.1
382.993	7.01
383.359	7.04
383.725	6.8
384.091	7.05
384.457	6.77
384.823	6.75
385.188	7.01
385.554	6.85
385.92	6.9
386.286	6.97
386.651	7.19
387.017	6.99
387.383	7.14
387.748	7.06
388.114	7.16
388.479	6.69
388.845	6.95
389.21	6.93
389.575	7.31
389.94	7.02
390.306	6.91
390.671	6.95
391.036	7.12
391.401	6.9
391.766	7
392.131	7.23
392.496	7.07
392.861	6.96
393.226	6.9
393.591	7.07
393.956	6.95
394.32	7.02
394.685	6.96
395.05	7.32
395.414	7.26
395.779	6.85
396.143	6.98
396.508	7.16
396.872	7.06
397.236	6.94
397.601	7.12
397.965	7.04
398.329	7.03
398.694	7.29
399.058	7.2
399.422	7.25
399.786	7.19
400.15	7.19
400.514	7.17
400.878	7.13
401.242	6.92
401.605	7.26
401.969	7.22
402.333	6.99
402.697	7.24
403.06	7.45
403.424	6.97
403.787	7.24
404.151	7.17
404.514	7.31
404.878	7.43
405.241	7.14
405.604	7.19
405.968	7.24
406.331	6.86
406.694	7.14
407.057	7.26
407.42	7.27
407.783	6.85
408.146	7.28
408.509	7.2
408.872	7.14
409.235	7.35
409.598	7.43
409.961	7.57
410.323	7.16
410.686	7.28
411.049	6.94
411.411	7.26
411.774	7.39
412.136	7.18
412.499	7.18
412.861	7.35
413.223	6.96
413.586	7.26
413.948	7.64
414.31	7.52
414.672	7.23
415.035	7.46
415.397	7.13
415.759	7.18
416.121	7.41
416.483	7.24
416.845	7.35
417.206	7.11
417.568	7.27
417.93	7.14
418.292	7.2
418.653	7.36
419.015	7.23
419.377	7.32
419.738	7.32
420.1	7.15
420.461	7.29
420.822	7.21
421.184	7.18
421.545	7.13
421.906	7.27
422.267	7.11
422.629	7.2
422.99	7.2
423.351	7.19
423.712	7.19
424.073	7.29
424.434	7.33
424.795	7.25
425.155	7.25
425.516	7.27
425.877	7.33
426.238	7.25
426.598	7.18
426.959	7.18
427.32	7.28
427.68	7.44
428.041	7.47
428.401	7.21
428.761	7.48
429.122	7.39
429.482	7.43
429.842	7.5
430.202	7.51
430.563	7.69
430.923	7.57
431.283	7.27
431.643	7.56
432.003	7.46
432.363	7.44
432.722	7.55
433.082	7.47
433.442	7.61
433.802	7.61
434.161	7.56
434.521	7.44
434.881	7.57
435.24	7.56
435.6	7.41
435.959	7.48
436.319	7.5
436.678	7.45
437.037	7.6
437.396	7.53
437.756	7.49
438.115	7.5
438.474	7.35
438.833	7.56
439.192	7.65
439.551	7.45
439.91	7.57
440.269	7.68
440.628	7.61
440.987	7.64
441.345	7.53
441.704	7.54
442.063	7.57
442.421	7.49
442.78	7.43
443.138	7.51
443.497	7.42
443.855	7.54
444.214	7.54
444.572	7.7
444.93	7.58
445.288	7.64
445.647	7.62
446.005	7.67
446.363	7.59
446.721	7.69
447.079	7.69
447.437	7.47
447.795	7.53
448.153	7.48
448.51	7.58
448.868	7.57
449.226	7.64
449.584	7.55
449.941	7.65
450.299	7.54
450.656	7.79
451.014	7.67
451.371	7.73
451.729	7.5
452.086	7.79
452.443	7.76
452.801	7.78
453.158	7.68
453.515	7.69
453.872	7.65
454.229	7.82
454.586	7.82
454.943	7.76
455.3	7.8
455.657	7.81
456.014	7.82
456.371	7.95
456.727	8.07
457.084	7.62
457.441	8.06
457.797	7.89
458.154	7.94
458.51	7.82
458.867	8
459.223	7.91
459.58	7.99
459.936	7.83
460.292	7.97
460.648	7.87
461.005	7.65
461.361	7.76
461.717	7.75
462.073	7.79
462.429	7.79
462.785	7.79
463.141	7.74
463.496	8.03
463.852	7.93
464.208	7.93
464.564	7.97
464.919	7.81
465.275	7.96
465.631	7.99
465.986	8.06
466.342	7.98
466.697	7.85
467.052	8.02
467.408	8.08
467.763	7.95
468.118	8.09
468.473	8.17
468.829	7.99
469.184	7.95
469.539	8.01
469.894	8.04
470.249	8.17
470.603	8.08
470.958	8.16
471.313	8.19
471.668	8.28
472.023	7.93
472.377	8.23
472.732	8.09
473.086	8.23
473.441	8.23
473.795	8.12
474.15	8.16
474.504	8.28
474.859	8.18
475.213	8.41
475.567	8.24
475.921	8.27
476.275	8.25
476.63	8.32
476.984	8.25
477.338	8.39
477.692	8.1
478.045	8.24
478.399	8.3
478.753	8.14
479.107	8.19
479.461	8.2
479.814	8.14
480.168	8.18
480.521	8.24
480.875	8.41
481.228	8.26
481.582	8.28
481.935	8.11
482.289	8.12
482.642	8.26
482.995	8.2
483.348	8.22
483.701	8.23
484.055	8.19
484.408	8.09
484.761	7.96
485.114	7.89
485.466	7.86
485.819	7.87
486.172	7.84
486.525	7.85
486.878	7.9
487.23	7.91
487.583	8
487.936	8.08
488.288	8.13
488.641	8
488.993	8.07
489.345	7.95
489.698	8.01
490.05	7.98
490.402	8
490.754	8.08
491.107	8.04
491.459	8.15
491.811	8.22
492.163	8.24
492.515	8.24
492.866	8.23
493.218	8.15
493.57	8.15
493.922	8.18
494.274	8.18
494.625	8.17
494.977	8.31
495.328	8.35
495.68	8.37
496.031	8.53
496.383	8.41
496.734	8.52
497.086	8.47
497.437	8.55
497.788	8.53
498.139	8.49
498.49	8.43
498.842	8.33
499.193	8.58
499.544	8.58
499.894	8.51
500.245	8.61
500.596	8.54
500.947	8.56
501.298	8.55
501.648	8.62
501.999	8.59
502.35	8.66
502.7	8.57
503.051	8.6
503.401	8.53
503.752	8.63
504.102	8.49
504.452	8.74
504.803	8.83
505.153	8.71
505.503	8.65
505.853	8.62
506.203	8.63
506.553	8.54
506.903	8.6
507.253	8.78
507.603	8.69
507.953	8.82
508.303	8.71
508.652	8.76
509.002	8.73
509.352	8.83
509.701	8.8
510.051	8.76
510.4	8.77
510.75	8.67
511.099	8.66
511.449	8.79
511.798	8.62
512.147	8.65
512.496	8.68
512.846	8.96
513.195	8.75
513.544	8.79
513.893	8.75
514.242	8.8
514.591	8.69
514.939	8.97
515.288	8.9
515.637	8.92
515.986	8.88
516.334	8.95
516.683	8.89
517.032	8.9
517.38	9
517.729	8.96
518.077	8.94
518.426	9.01
518.774	9.01
519.122	9.13
519.47	8.99
519.819	8.94
520.167	8.92
520.515	9
520.863	8.96
521.211	8.97
521.559	8.94
521.907	9.06
522.255	8.97
522.602	9.1
522.95	8.99
523.298	9.22
523.645	9.19
523.993	9.33
524.341	9.3
524.688	9.26
525.036	9.23
525.383	9.3
525.73	9.18
526.078	9.22
526.425	9.16
526.772	9.21
527.119	9.14
527.466	9.21
527.814	9.07
528.161	9.23
528.508	9.18
528.854	9.06
529.201	9.17
529.548	9.13
529.895	9.01
530.242	8.99
530.588	9.02
530.935	9
531.282	8.97
531.628	9.02
531.975	9.16
532.321	9.15
532.667	9.26
533.014	9.35
533.36	9.31
533.706	9.34
534.052	9.41
534.399	9.3
534.745	9.2
535.091	9.3
535.437	9.29
535.783	9.32
536.129	9.35
536.474	9.47
536.82	9.49
537.166	9.48
537.512	9.5
537.857	9.42
538.203	9.53
538.549	9.58
538.894	9.51
539.239	9.48
539.585	9.59
539.93	9.5
540.276	9.7
540.621	9.65
540.966	9.73
541.311	9.79
541.656	9.74
542.001	9.79
542.346	9.69
542.691	9.53
543.036	9.49
543.381	9.5
543.726	9.53
544.071	9.54
544.415	9.63
544.76	9.64
545.105	9.61
545.449	9.68
545.794	9.84
546.138	9.65
546.483	9.86
546.827	9.93
547.171	9.98
547.516	9.89
547.86	9.92
548.204	9.99
548.548	9.86
548.892	9.87
549.236	10.05
549.58	10.06
549.924	10.09
550.268	10.27
550.612	10.27
550.956	10.44
551.3	10.29
551.643	10.29
551.987	10.38
552.33	10.29
552.674	10.27
553.017	10.47
553.361	10.55
553.704	10.37
554.048	10.38
554.391	10.39
554.734	10.37
555.077	10.55
555.42	10.5
555.764	10.55
556.107	10.58
556.45	10.52
556.793	10.43
557.135	10.53
557.478	10.56
557.821	10.68
558.164	10.53
558.507	10.63
558.849	10.67
559.192	10.65
559.534	10.68
559.877	10.83
560.219	10.73
560.562	10.59
560.904	10.75
561.246	10.72
561.589	10.69
561.931	10.72
562.273	10.94
562.615	10.83
562.957	10.85
563.299	10.83
563.641	10.62
563.983	10.78
564.325	10.83
564.667	10.79
565.008	10.91
565.35	10.86
565.692	10.8
566.033	10.93
566.375	10.93
566.716	11.07
567.058	11.18
567.399	11.15
567.741	11.04
568.082	11.04
568.423	11.08
568.764	11.26
569.105	11.02
569.447	11.27
569.788	11.23
570.129	11.13
570.47	10.96
570.811	11.33
571.151	11.47
571.492	11.38
571.833	11.32
572.174	11.29
572.514	11.46
572.855	11.42
573.195	11.28
573.536	11.46
573.876	11.3
574.217	11.56
574.557	11.42
574.898	11.35
575.238	11.44
575.578	11.38
575.918	11.68
576.258	11.6
576.598	11.52
576.938	11.55
577.278	11.44
577.618	11.67
577.958	11.47
578.298	11.69
578.638	11.62
578.977	11.76
579.317	11.66
579.657	11.9
579.996	11.77
580.336	12.02
580.675	11.92
581.014	11.87
581.354	11.74
581.693	11.79
582.032	11.81
582.372	11.98
582.711	11.95
583.05	12.05
583.389	12
583.728	11.88
584.067	12.24
584.406	12.16
584.745	12.55
585.083	11.97
585.422	12.03
585.761	12.16
586.1	12.14
586.438	12.16
586.777	12.22
587.115	12.21
587.454	12.36
587.792	12.32
588.13	12.37
588.469	12.27
588.807	12.27
589.145	12.31
589.483	12.64
589.821	12.25
590.159	12.47
590.497	12.62
590.835	12.54
591.173	12.54
591.511	12.54
591.849	12.5
592.187	12.63
592.524	12.6
592.862	12.43
593.2	12.63
593.537	12.64
593.875	12.57
594.212	12.6
594.55	12.56
594.887	12.78
595.224	12.73
595.561	12.76
595.899	12.75
596.236	12.75
596.573	12.5
596.91	12.87
597.247	12.96
597.584	12.72
597.921	13
598.258	12.7
598.594	12.91
598.931	12.78
599.268	12.66
599.604	12.88
599.941	12.84
600.277	13.05
600.614	12.97
600.95	12.89
601.287	13
601.623	13.57
601.959	13.35
602.296	13.06
602.632	13.02
602.968	13.08
603.304	13.47
603.64	13.37
603.976	13.22
604.312	13.27
604.648	13.24
604.984	13.39
605.319	13.37
605.655	13.45
605.991	13.21
606.326	13.47
606.662	13.13
606.998	13.3
607.333	13.21
607.668	13.33
608.004	13.31
608.339	13.62
608.674	13.67
609.01	13.64
609.345	13.51
609.68	13.38
610.015	13.82
610.35	13.67
610.685	13.58
611.02	13.49
611.355	13.68
611.689	13.61
612.024	13.77
612.359	13.47
612.694	13.86
613.028	13.69
613.363	13.93
613.697	13.98
614.032	13.9
614.366	13.57
614.7	13.67
615.035	13.86
615.369	13.82
615.703	13.99
616.037	14.04
616.371	14.01
616.705	14.19
617.039	13.97
617.373	13.96
617.707	14.11
618.041	14.22
618.375	13.95
618.709	14.32
619.042	14.26
619.376	14.24
619.71	14.44
620.043	14.77
620.377	14.33
620.71	14.35
621.043	14.35
621.377	14.58
621.71	14.19
622.043	14.68
622.376	14.58
622.709	14.28
623.043	14.33
623.376	14.51
623.709	14.15
624.041	14.38
624.374	14.23
624.707	14.72
625.04	14.68
625.373	14.51
625.705	14.36
626.038	14.79
626.37	14.58
626.703	14.8
627.035	14.62
627.368	14.41
627.7	14.47
628.032	14.73
628.365	14.85
628.697	14.46
629.029	14.89
629.361	14.81
629.693	14.63
630.025	14.89
630.357	15.05
630.689	14.89
631.021	14.9
631.353	15.17
631.684	14.97
632.016	14.97
632.348	14.97
632.679	14.92
633.011	14.97
633.342	15.12
633.674	15.28
634.005	15.3
634.336	15.27
634.668	15.4
634.999	15.15
635.33	15.54
635.661	15.62
635.992	15.44
636.323	15.21
636.654	15.49
636.985	15.51
637.316	15.33
637.647	15.81
637.977	15.52
638.308	15.72
638.639	15.48
638.969	15.27
639.3	15.78
639.63	15.55
639.961	15.45
640.291	15.8
640.622	16.15
640.952	15.89
641.282	15.51
641.612	15.48
641.943	15.66
642.273	15.51
642.603	16.27
642.933	16.02
643.263	15.65
643.592	16.36
643.922	15.97
644.252	15.67
644.582	16.01
644.911	15.59
645.241	15.77
645.571	15.83
645.9	16.08
646.23	16.51
646.559	16.43
646.888	16.21
647.218	15.92
647.547	15.59
647.876	15.89
648.205	15.89
648.534	15.7
648.863	16.13
649.192	15.88
649.521	16.58
649.85	16.7
650.179	16.29
650.508	16.53
650.837	16.28
651.165	16.4
651.494	16.73
651.822	16.23
652.151	16.52
652.479	15.89
652.808	16.6
653.136	16.23
653.465	16.5
653.793	16.84
654.121	16.2
654.449	16.35
654.777	16.89
655.105	16.51
655.433	16.67
655.761	16.65
656.089	16.66
656.417	16.39
656.745	17.14
657.073	16.8
657.4	16.76
657.728	16.86
658.056	16.92
658.383	16.75
658.711	16.46
659.038	16.89
659.365	17.17
659.693	17.05
660.02	16.83
660.347	17.13
660.674	16.6
661.001	17.09
661.329	16.81
661.656	16.84
661.982	17.11
662.309	16.95
662.636	17.6
662.963	17.16
663.29	16.88
663.616	16.75
663.943	17.16
664.27	17.32
664.596	17.22
664.923	16.96
665.249	17.47
665.576	17.48
665.902	17.5
666.228	17.5
666.554	17.33
666.881	17.13
667.207	17.24
667.533	17.35
667.859	17.47
668.185	17.16
668.511	17.33
668.837	18.15
669.162	17.66
669.488	17.11
669.814	17.28
670.139	17.1
670.465	17.63
670.791	16.81
671.116	17.55
671.442	17.65
671.767	17.75
672.092	17.5
672.418	17.5
672.743	17.57
673.068	17.97
673.393	18
673.718	17.73
674.043	17.69
674.368	17.69
674.693	17.26
675.018	17.92
675.343	18.11
675.667	18.09
675.992	19
676.317	17.64
676.641	17.97
676.966	18.51
677.29	17.88
677.615	17.97
677.939	17.91
678.264	18.22
678.588	18.05
678.912	17.81
679.236	18.7
679.56	18.52
679.885	17.64
680.209	18.35
680.532	18.43
680.856	18.99
681.18	18.18
681.504	18.16
681.828	18.15
682.152	17.62
682.475	18.04
682.799	18.22
683.122	18.15
683.446	18.62
