Data from 20-1_crown_Reflection__2__67.txt Node

Date: Fri Nov 11 20:42:26 CST 2022
User: ToomeyLab
Spectrometer: FLMS14357
Trigger mode: 0
Integration Time (sec): 1.000000E-2
Scans to average: 100
Electric dark correction enabled: true
Nonlinearity correction enabled: false
Boxcar width: 0
XAxis mode: Wavelengths
Number of Pixels in Spectrum: 2048
>>>>>Begin Spectral Data<<<<<
189.047	117.49
189.435	117.49
189.823	117.49
190.211	54.06
190.599	299.27
190.987	327.48
191.375	71.31
191.763	-213.62
192.151	53.08
192.538	-232.09
192.926	73.91
193.314	262.9
193.702	-105.93
194.089	-7.27
194.477	120.98
194.864	179.49
195.252	46.01
195.639	1793.01
196.027	-538.69
196.414	9.3
196.801	-22781.82
197.189	135.15
197.576	69.95
197.963	-35.09
198.351	-79.47
198.738	-22.21
199.125	1.6
199.512	16.78
199.899	-121.98
200.286	24.71
200.673	-5.63
201.06	10.71
201.447	-23.73
201.833	14.94
202.22	-5.51
202.607	17.9
202.994	39.23
203.38	23.22
203.767	10.88
204.154	48.93
204.54	18.81
204.927	10.29
205.313	3.1
205.699	3.59
206.086	14.18
206.472	28.39
206.858	12.02
207.245	22.32
207.631	-3.97
208.017	23.03
208.403	-1.24
208.789	3.88
209.175	7.75
209.561	36.64
209.947	-27.98
210.333	-10.37
210.719	12.45
211.105	58.39
211.491	20.24
211.876	48.55
212.262	21.5
212.648	-16.32
213.034	-14.74
213.419	-35.87
213.805	-6.42
214.19	-4.13
214.576	-12.14
214.961	-25.78
215.346	-29.42
215.732	-11.81
216.117	16.67
216.502	3.77
216.888	-32.41
217.273	7.04
217.658	-2.33
218.043	-3.96
218.428	10.41
218.813	12.38
219.198	0.24
219.583	1.14
219.968	-7.58
220.353	-8.87
220.738	-10
221.122	12
221.507	-9.1
221.892	-4.45
222.276	4.47
222.661	20.34
223.046	-6.05
223.43	-2.21
223.815	0.47
224.199	5.1
224.583	5.18
224.968	-5.17
225.352	8.34
225.736	-14.21
226.121	-2.73
226.505	-0.74
226.889	-6.71
227.273	3.65
227.657	-5.62
228.041	0.36
228.425	4.19
228.809	2.5
229.193	4.88
229.577	6.36
229.961	3.52
230.344	3.65
230.728	3.48
231.112	3.01
231.495	4.39
231.879	3.56
232.263	3.34
232.646	2.72
233.03	4.34
233.413	4.62
233.797	4.09
234.18	0.75
234.563	3.52
234.946	3.95
235.33	5.13
235.713	2.67
236.096	2.29
236.479	3.29
236.862	5.95
237.245	2.52
237.628	3.66
238.011	4.15
238.394	3.8
238.777	3.45
239.16	4.49
239.543	1.79
239.925	5.04
240.308	3.91
240.691	3.87
241.073	3
241.456	4.03
241.838	4.89
242.221	3.94
242.603	3.76
242.986	3.32
243.368	4.04
243.75	4.12
244.133	3.8
244.515	3.85
244.897	4.09
245.279	3.78
245.661	3.48
246.043	2.77
246.425	4.7
246.807	3.51
247.189	3.49
247.571	3.98
247.953	3.54
248.335	3.85
248.717	3.75
249.098	3.97
249.48	3.67
249.862	4.05
250.243	3.4
250.625	3.85
251.006	4.25
251.388	4.65
251.769	3.87
252.151	3.57
252.532	4.06
252.913	4.49
253.295	3.72
253.676	2.83
254.057	3.21
254.438	3.31
254.819	2.69
255.2	3.51
255.581	2.81
255.962	3.47
256.343	3.17
256.724	3.06
257.105	3.41
257.486	3.28
257.867	4.35
258.247	2.98
258.628	3.32
259.009	3.22
259.389	3.21
259.77	4.26
260.15	3.58
260.531	3.78
260.911	3.49
261.292	3.61
261.672	3.37
262.052	3.54
262.432	3.7
262.813	3.57
263.193	3.54
263.573	3.53
263.953	3.83
264.333	3.39
264.713	3.54
265.093	3.52
265.473	2.46
265.853	3.15
266.233	3.57
266.612	3.2
266.992	3.77
267.372	3.73
267.752	2.92
268.131	3.24
268.511	3.63
268.89	2.96
269.27	3.48
269.649	3.07
270.029	3.43
270.408	3.57
270.787	3.48
271.167	3.31
271.546	3.61
271.925	3.29
272.304	3.42
272.683	2.95
273.062	2.88
273.441	3.04
273.82	3.21
274.199	3.18
274.578	3.04
274.957	3.63
275.336	3.99
275.715	3.73
276.093	3.52
276.472	3.25
276.851	3.38
277.229	3.06
277.608	3.12
277.986	3.46
278.365	2.78
278.743	3.15
279.122	3.57
279.5	3.32
279.878	3.54
280.257	3.62
280.635	3.12
281.013	3.44
281.391	3.17
281.769	3.53
282.147	2.92
282.525	2.95
282.903	3.05
283.281	3.04
283.659	3.28
284.037	3.65
284.415	3.22
284.792	2.98
285.17	3.37
285.548	3.07
285.925	3.13
286.303	3.34
286.68	3.21
287.058	3.14
287.435	3.04
287.813	3.21
288.19	2.84
288.567	3.19
288.945	3.42
289.322	3.34
289.699	2.64
290.076	3.36
290.453	3.01
290.83	3.02
291.207	2.79
291.584	3.44
291.961	3.24
292.338	2.86
292.715	3.15
293.092	3.32
293.469	2.4
293.845	3.28
294.222	2.58
294.599	3.34
294.975	3.46
295.352	3.42
295.728	3.04
296.105	3.23
296.481	2.72
296.858	2.73
297.234	3.16
297.61	2.72
297.986	3.28
298.363	3.3
298.739	3.25
299.115	3.3
299.491	3.4
299.867	3.26
300.243	2.95
300.619	3.37
300.995	2.93
301.371	3.87
301.746	3.24
302.122	3.22
302.498	3.27
302.874	3.23
303.249	3.3
303.625	3.01
304	2.77
304.376	3.32
304.751	2.68
305.127	3.21
305.502	3.24
305.878	3.08
306.253	2.95
306.628	3.02
307.003	3.08
307.378	2.83
307.754	3.63
308.129	2.85
308.504	3.07
308.879	3.22
309.254	2.83
309.629	3.19
310.003	2.61
310.378	3.43
310.753	3.41
311.128	3.46
311.502	3.45
311.877	3.35
312.252	2.93
312.626	3.11
313.001	3.12
313.375	3.38
313.75	3.18
314.124	2.85
314.498	2.77
314.873	3.08
315.247	3.35
315.621	3.27
315.995	3.62
316.369	3.12
316.743	2.78
317.117	3.15
317.491	3.07
317.865	2.7
318.239	3.14
318.613	3.16
318.987	2.99
319.361	3.19
319.734	3.67
320.108	3.2
320.482	3.55
320.855	2.99
321.229	3.06
321.602	2.46
321.976	2.71
322.349	3.05
322.723	3.52
323.096	2.67
323.469	3.22
323.843	3.55
324.216	3.02
324.589	3.25
324.962	3.51
325.335	3.12
325.708	3.05
326.081	3.18
326.454	2.93
326.827	3.03
327.2	3.48
327.573	4.04
327.945	2.91
328.318	3.33
328.691	2.96
329.063	3.5
329.436	2.89
329.809	2.9
330.181	2.39
330.553	2.45
330.926	3.15
331.298	3.18
331.671	3.63
332.043	2.85
332.415	2.72
332.787	3.59
333.159	2.94
333.532	3.63
333.904	3.84
334.276	3.26
334.648	3.27
335.02	3.26
335.391	3.52
335.763	3.21
336.135	3.08
336.507	3.26
336.879	3.21
337.25	3.01
337.622	3.79
337.993	3.7
338.365	2.95
338.736	3.44
339.108	3.25
339.479	2.53
339.851	3.13
340.222	2.95
340.593	3.64
340.964	3.21
341.336	3.31
341.707	3.11
342.078	2.85
342.449	3.41
342.82	3.31
343.191	3.39
343.562	3.15
343.933	3.4
344.303	3.27
344.674	3.15
345.045	3.01
345.416	3.69
345.786	2.76
346.157	3.09
346.527	3.1
346.898	2.47
347.268	2.98
347.639	3.45
348.009	2.86
348.38	3.41
348.75	3.27
349.12	3.53
349.49	3.48
349.861	2.87
350.231	2.89
350.601	3.08
350.971	3.19
351.341	3.41
351.711	3.36
352.081	3.3
352.45	3.62
352.82	3.19
353.19	3.33
353.56	2.98
353.929	3.45
354.299	3.08
354.669	3.04
355.038	3.22
355.408	3.15
355.777	3.7
356.147	3.29
356.516	3.38
356.885	3.47
357.254	3.2
357.624	2.9
357.993	3.38
358.362	3.41
358.731	2.95
359.1	3.28
359.469	3.06
359.838	3.29
360.207	3.32
360.576	3.37
360.945	3.6
361.314	3.18
361.682	3.19
362.051	3.11
362.42	3.36
362.788	3.56
363.157	3.03
363.525	3.21
363.894	3.09
364.262	3.32
364.631	3.24
364.999	3.37
365.367	3.35
365.735	3.12
366.104	3.2
366.472	3.22
366.84	3.08
367.208	3.34
367.576	3.61
367.944	3.38
368.312	3
368.68	3.2
369.048	3.29
369.416	3.04
369.783	3.53
370.151	3.54
370.519	3.2
370.886	3.4
371.254	3.55
371.621	3.28
371.989	3.25
372.356	3.37
372.724	3.64
373.091	3.28
373.458	3.33
373.826	3.23
374.193	3.27
374.56	3.6
374.927	3.28
375.294	3.45
375.661	3.41
376.028	3.09
376.395	3.53
376.762	3.78
377.129	3.47
377.496	3.54
377.863	3.56
378.229	3.5
378.596	3.41
378.963	3.31
379.329	3.43
379.696	3.39
380.062	3.26
380.429	3.49
380.795	3.71
381.161	3.46
381.528	3.25
381.894	3.42
382.26	3.82
382.626	3.66
382.993	3.33
383.359	3.44
383.725	3.32
384.091	3.4
384.457	3.34
384.823	3.35
385.188	3.4
385.554	3.34
385.92	3.34
386.286	3.21
386.651	3.56
387.017	3.12
387.383	3.4
387.748	3.35
388.114	3.36
388.479	3.24
388.845	3.23
389.21	3.18
389.575	3.6
389.94	3.42
390.306	3.26
390.671	3.64
391.036	3.53
391.401	3.35
391.766	3.6
392.131	3.27
392.496	3.55
392.861	3.37
393.226	3.39
393.591	3.28
393.956	3.39
394.32	3.47
394.685	3.44
395.05	3.55
395.414	3.5
395.779	3.58
396.143	3.48
396.508	3.65
396.872	3.66
397.236	3.33
397.601	3.43
397.965	3.44
398.329	3.44
398.694	3.74
399.058	3.71
399.422	3.51
399.786	3.33
400.15	3.51
400.514	3.59
400.878	3.42
401.242	3.52
401.605	3.76
401.969	3.49
402.333	3.35
402.697	3.35
403.06	3.74
403.424	3.25
403.787	3.51
404.151	3.46
404.514	3.54
404.878	3.55
405.241	3.4
405.604	3.42
405.968	3.54
406.331	3.31
406.694	3.45
407.057	3.6
407.42	3.55
407.783	3.61
408.146	3.64
408.509	3.49
408.872	3.65
409.235	3.64
409.598	3.49
409.961	3.61
410.323	3.49
410.686	3.37
411.049	3.38
411.411	3.53
411.774	3.63
412.136	3.31
412.499	3.6
412.861	3.69
413.223	3.58
413.586	3.55
413.948	3.78
414.31	3.68
414.672	3.65
415.035	3.59
415.397	3.5
415.759	3.33
416.121	3.62
416.483	3.55
416.845	3.66
417.206	3.38
417.568	3.49
417.93	3.48
418.292	3.52
418.653	3.67
419.015	3.5
419.377	3.51
419.738	3.62
420.1	3.49
420.461	3.52
420.822	3.58
421.184	3.46
421.545	3.48
421.906	3.5
422.267	3.37
422.629	3.38
422.99	3.42
423.351	3.38
423.712	3.49
424.073	3.56
424.434	3.57
424.795	3.54
425.155	3.43
425.516	3.57
425.877	3.52
426.238	3.45
426.598	3.44
426.959	3.5
427.32	3.64
427.68	3.59
428.041	3.73
428.401	3.39
428.761	3.65
429.122	3.37
429.482	3.56
429.842	3.49
430.202	3.45
430.563	3.6
430.923	3.67
431.283	3.35
431.643	3.62
432.003	3.65
432.363	3.69
432.722	3.64
433.082	3.58
433.442	3.75
433.802	3.62
434.161	3.61
434.521	3.66
434.881	3.69
435.24	3.55
435.6	3.59
435.959	3.55
436.319	3.51
436.678	3.57
437.037	3.5
437.396	3.8
437.756	3.63
438.115	3.63
438.474	3.48
438.833	3.72
439.192	3.54
439.551	3.57
439.91	3.62
440.269	3.56
440.628	3.76
440.987	3.66
441.345	3.55
441.704	3.68
442.063	3.55
442.421	3.56
442.78	3.41
443.138	3.62
443.497	3.45
443.855	3.54
444.214	3.56
444.572	3.65
444.93	3.58
445.288	3.71
445.647	3.78
446.005	3.72
446.363	3.7
446.721	3.76
447.079	3.71
447.437	3.52
447.795	3.65
448.153	3.5
448.51	3.57
448.868	3.61
449.226	3.56
449.584	3.52
449.941	3.59
450.299	3.5
450.656	3.64
451.014	3.63
451.371	3.7
451.729	3.58
452.086	3.57
452.443	3.65
452.801	3.8
453.158	3.63
453.515	3.61
453.872	3.52
454.229	3.65
454.586	3.56
454.943	3.76
455.3	3.64
455.657	3.63
456.014	3.8
456.371	3.67
456.727	3.8
457.084	3.42
457.441	3.81
457.797	3.55
458.154	3.79
458.51	3.72
458.867	3.68
459.223	3.78
459.58	3.78
459.936	3.69
460.292	3.58
460.648	3.73
461.005	3.65
461.361	3.59
461.717	3.49
462.073	3.63
462.429	3.6
462.785	3.56
463.141	3.66
463.496	3.55
463.852	3.61
464.208	3.73
464.564	3.62
464.919	3.57
465.275	3.6
465.631	3.63
465.986	3.77
466.342	3.67
466.697	3.62
467.052	3.68
467.408	3.63
467.763	3.72
468.118	3.72
468.473	3.72
468.829	3.78
469.184	3.63
469.539	3.78
469.894	3.76
470.249	3.83
470.603	3.7
470.958	3.71
471.313	3.82
471.668	3.87
472.023	3.67
472.377	3.8
472.732	3.54
473.086	3.6
473.441	3.56
473.795	3.67
474.15	3.64
474.504	3.77
474.859	3.7
475.213	3.72
475.567	3.77
475.921	3.85
476.275	3.51
476.63	3.78
476.984	3.75
477.338	3.84
477.692	3.61
478.045	3.71
478.399	3.77
478.753	3.71
479.107	3.59
479.461	3.66
479.814	3.6
480.168	3.69
480.521	3.81
480.875	3.71
481.228	3.53
481.582	3.72
481.935	3.49
482.289	3.63
482.642	3.72
482.995	3.53
483.348	3.7
483.701	3.68
484.055	3.63
484.408	3.62
484.761	3.56
485.114	3.44
485.466	3.43
485.819	3.42
486.172	3.46
486.525	3.54
486.878	3.56
487.23	3.56
487.583	3.58
487.936	3.65
488.288	3.62
488.641	3.56
488.993	3.57
489.345	3.48
489.698	3.52
490.05	3.52
490.402	3.53
490.754	3.59
491.107	3.58
491.459	3.6
491.811	3.65
492.163	3.71
492.515	3.59
492.866	3.6
493.218	3.49
493.57	3.54
493.922	3.55
494.274	3.59
494.625	3.6
494.977	3.72
495.328	3.66
495.68	3.81
496.031	3.69
496.383	3.77
496.734	3.84
497.086	3.77
497.437	3.71
497.788	3.71
498.139	3.76
498.49	3.62
498.842	3.55
499.193	3.74
499.544	3.68
499.894	3.72
500.245	3.85
500.596	3.87
500.947	3.78
501.298	3.71
501.648	3.72
501.999	3.7
502.35	3.87
502.7	3.72
503.051	3.68
503.401	3.85
503.752	3.67
504.102	3.68
504.452	3.83
504.803	3.73
505.153	3.63
505.503	3.8
505.853	3.71
506.203	3.8
506.553	3.7
506.903	3.83
507.253	3.8
507.603	3.7
507.953	3.62
508.303	3.73
508.652	3.86
509.002	3.75
509.352	3.81
509.701	3.85
510.051	3.65
510.4	3.81
510.75	3.79
511.099	3.66
511.449	3.71
511.798	3.75
512.147	3.74
512.496	3.68
512.846	3.8
513.195	3.76
513.544	3.72
513.893	3.68
514.242	3.67
514.591	3.85
514.939	3.62
515.288	3.72
515.637	3.79
515.986	3.77
516.334	3.72
516.683	3.82
517.032	3.8
517.38	3.67
517.729	3.83
518.077	3.89
518.426	3.89
518.774	3.76
519.122	3.79
519.47	3.79
519.819	3.72
520.167	3.67
520.515	3.69
520.863	3.75
521.211	3.74
521.559	3.65
521.907	3.76
522.255	3.8
522.602	3.89
522.95	3.8
523.298	3.83
523.645	3.87
523.993	3.82
524.341	3.93
524.688	3.79
525.036	3.82
525.383	3.83
525.73	3.69
526.078	3.78
526.425	3.65
526.772	3.7
527.119	3.66
527.466	3.72
527.814	3.74
528.161	3.74
528.508	3.62
528.854	3.68
529.201	3.68
529.548	3.65
529.895	3.55
530.242	3.56
530.588	3.59
530.935	3.61
531.282	3.66
531.628	3.6
531.975	3.72
532.321	3.67
532.667	3.75
533.014	3.73
533.36	3.7
533.706	3.78
534.052	3.73
534.399	3.7
534.745	3.62
535.091	3.63
535.437	3.65
535.783	3.69
536.129	3.79
536.474	3.71
536.82	3.73
537.166	3.74
537.512	3.64
537.857	3.75
538.203	3.68
538.549	3.81
538.894	3.79
539.239	3.75
539.585	3.8
539.93	3.75
540.276	3.86
540.621	3.79
540.966	3.9
541.311	3.71
541.656	3.81
542.001	3.7
542.346	3.77
542.691	3.72
543.036	3.57
543.381	3.67
543.726	3.63
544.071	3.68
544.415	3.75
544.76	3.74
545.105	3.61
545.449	3.68
545.794	3.83
546.138	3.71
546.483	3.78
546.827	3.84
547.171	3.85
547.516	3.7
547.86	3.72
548.204	3.84
548.548	3.69
548.892	3.79
549.236	3.76
549.58	3.79
549.924	3.87
550.268	3.88
550.612	3.88
550.956	4.05
551.3	3.81
551.643	3.84
551.987	3.94
552.33	3.87
552.674	3.79
553.017	4.04
553.361	3.78
553.704	3.91
554.048	3.89
554.391	3.81
554.734	3.9
555.077	4.01
555.42	3.88
555.764	3.93
556.107	3.93
556.45	4.03
556.793	3.82
557.135	3.76
557.478	3.95
557.821	3.84
558.164	3.78
558.507	4.05
558.849	4.06
559.192	3.82
559.534	3.99
559.877	4.12
560.219	4
560.562	3.72
560.904	3.98
561.246	3.71
561.589	3.94
561.931	3.63
562.273	3.94
562.615	3.84
562.957	3.86
563.299	3.92
563.641	3.78
563.983	3.94
564.325	3.73
564.667	3.94
565.008	3.97
565.35	3.89
565.692	3.72
566.033	3.83
566.375	3.82
566.716	3.9
567.058	3.72
567.399	3.99
567.741	4.06
568.082	3.82
568.423	3.81
568.764	4.02
569.105	3.7
569.447	4.04
569.788	3.83
570.129	3.87
570.47	3.91
570.811	3.9
571.151	4.02
571.492	3.79
571.833	3.92
572.174	3.9
572.514	3.88
572.855	4.02
573.195	3.63
573.536	3.89
573.876	3.94
574.217	3.97
574.557	3.78
574.898	3.89
575.238	3.82
575.578	3.99
575.918	4.02
576.258	4
576.598	3.89
576.938	3.81
577.278	3.74
577.618	3.84
577.958	3.89
578.298	3.94
578.638	3.95
578.977	4.15
579.317	4.01
579.657	3.92
579.996	3.92
580.336	3.96
580.675	3.99
581.014	4.08
581.354	3.83
581.693	3.94
582.032	3.81
582.372	3.81
582.711	3.93
583.05	3.9
583.389	4.01
583.728	3.97
584.067	4.02
584.406	4.08
584.745	3.98
585.083	4.05
585.422	3.83
585.761	3.81
586.1	3.85
586.438	3.72
586.777	3.91
587.115	3.87
587.454	3.89
587.792	3.95
588.13	3.77
588.469	3.73
588.807	4
589.145	3.91
589.483	4.06
589.821	4.03
590.159	3.97
590.497	4.21
590.835	3.99
591.173	3.98
591.511	3.84
591.849	3.94
592.187	4.05
592.524	3.89
592.862	3.8
593.2	4.05
593.537	3.9
593.875	4.01
594.212	4
594.55	3.99
594.887	4.03
595.224	3.87
595.561	3.84
595.899	3.91
596.236	3.82
596.573	3.79
596.91	4.02
597.247	4.13
597.584	3.78
597.921	4.14
598.258	3.72
598.594	3.91
598.931	3.78
599.268	3.83
599.604	3.82
599.941	3.79
600.277	3.96
600.614	3.97
600.95	3.85
601.287	3.98
601.623	4.06
601.959	4.07
602.296	3.66
602.632	3.84
602.968	3.97
603.304	3.94
603.64	4
603.976	3.91
604.312	3.8
604.648	3.83
604.984	4.07
605.319	4.02
605.655	3.93
605.991	3.75
606.326	4.1
606.662	3.76
606.998	3.81
607.333	3.97
607.668	3.86
608.004	3.84
608.339	3.91
608.674	4
609.01	4.08
609.345	3.79
609.68	3.85
610.015	4.15
610.35	3.74
610.685	4.06
611.02	4.05
611.355	3.81
611.689	3.93
612.024	4.01
612.359	3.73
612.694	3.83
613.028	3.86
613.363	4.12
613.697	3.99
614.032	4.05
614.366	3.76
614.7	3.79
615.035	3.92
615.369	3.92
615.703	3.99
616.037	3.88
616.371	3.99
616.705	4.13
617.039	4.01
617.373	3.97
617.707	3.94
618.041	3.99
618.375	3.78
618.709	4.17
619.042	4.35
619.376	4.06
619.71	3.9
620.043	4.24
620.377	3.9
620.71	3.98
621.043	3.81
621.377	3.86
621.71	3.99
622.043	3.86
622.376	3.98
622.709	3.76
623.043	3.99
623.376	4.11
623.709	3.94
624.041	4.28
624.374	3.71
624.707	4.26
625.04	3.77
625.373	3.9
625.705	4.06
626.038	4.15
626.37	4.09
626.703	4.07
627.035	3.93
627.368	3.7
627.7	3.9
628.032	3.81
628.365	3.99
628.697	3.71
629.029	3.97
629.361	4
629.693	3.83
630.025	3.98
630.357	4.02
630.689	4
631.021	3.88
631.353	4.22
631.684	3.71
632.016	3.9
632.348	3.84
632.679	4.04
633.011	3.97
633.342	4.34
633.674	3.74
634.005	3.96
634.336	3.94
634.668	4.12
634.999	3.89
635.33	3.89
635.661	4.17
635.992	4.23
636.323	4.03
636.654	4.22
636.985	3.9
637.316	3.9
637.647	4.27
637.977	3.79
638.308	4.18
638.639	3.98
638.969	3.87
639.3	4.31
639.63	4.3
639.961	4.04
640.291	4.45
640.622	4.25
640.952	3.68
641.282	3.52
641.612	3.76
641.943	4.44
642.273	3.67
642.603	4.24
642.933	4.1
643.263	3.74
643.592	4.45
643.922	4.1
644.252	3.98
644.582	4.28
644.911	3.7
645.241	3.86
645.571	3.9
645.9	4.23
646.23	4.36
646.559	4.12
646.888	4.02
647.218	3.82
647.547	3.72
647.876	4
648.205	3.83
648.534	3.9
648.863	3.85
649.192	4.15
649.521	4.02
649.85	4.72
650.179	4.56
650.508	4.12
650.837	4.22
651.165	3.88
651.494	4.36
651.822	3.45
652.151	4.03
652.479	3.71
652.808	3.74
653.136	3.69
653.465	4.17
653.793	3.94
654.121	3.74
654.449	3.45
654.777	4.34
655.105	4.07
655.433	4.09
655.761	4.1
656.089	4.15
656.417	3.75
656.745	4.34
657.073	3.66
657.4	4.09
657.728	4.16
658.056	4.06
658.383	3.87
658.711	4.01
659.038	4.22
659.365	3.59
659.693	3.89
660.02	4.35
660.347	4.43
660.674	4.02
661.001	4.26
661.329	3.73
661.656	4.09
661.982	4.21
662.309	3.91
662.636	4.31
662.963	4.24
663.29	4.22
663.616	4.04
663.943	3.91
664.27	4.15
664.596	4.23
664.923	4.23
665.249	4.42
665.576	4.52
665.902	4.46
666.228	4.58
666.554	4.09
666.881	3.88
667.207	4.36
667.533	4.52
667.859	4.38
668.185	4.17
668.511	3.97
668.837	4.45
669.162	4.53
669.488	4.23
669.814	4.6
670.139	3.96
670.465	4.07
670.791	3.42
671.116	4.06
671.442	4.22
671.767	4.5
672.092	4.1
672.418	3.86
672.743	3.63
673.068	3.95
673.393	4.57
673.718	4.51
674.043	4.02
674.368	4.12
674.693	3.38
675.018	4.32
675.343	4.32
675.667	4.59
675.992	4.96
676.317	4.09
676.641	3.84
676.966	3.94
677.29	3.67
677.615	4.05
677.939	4.11
678.264	4.53
678.588	3.98
678.912	4.23
679.236	3.77
679.56	4.57
679.885	4.23
680.209	4.06
680.532	4.57
680.856	4.46
681.18	4.41
681.504	3.93
681.828	4.09
682.152	3.99
682.475	3.86
682.799	3.97
683.122	4.14
683.446	4.65
683.769	4.39
684.093	4.18
684.416	3.65
684.739	4.49
685.062	3.83
685.386	4.16
685.709	4.01
686.032	4.12
686.355	4.87
686.678	4.22
687.001	4.28
687.324	4.09
687.646	3.56
687.969	4.33
688.292	5.35
688.614	4.19
688.937	4.23
689.26	3.39
689.582	4.27
689.904	4.36
690.227	4.35
690.549	4.57
690.871	4.22
691.194	3.8
691.516	3.93
691.838	4.27
692.16	4.1
692.482	3.7
