Data from 20-1_chest_Reflection__3__63.txt Node

Date: Fri Nov 11 20:40:58 CST 2022
User: ToomeyLab
Spectrometer: FLMS14357
Trigger mode: 0
Integration Time (sec): 1.000000E-2
Scans to average: 100
Electric dark correction enabled: true
Nonlinearity correction enabled: false
Boxcar width: 0
XAxis mode: Wavelengths
Number of Pixels in Spectrum: 2048
>>>>>Begin Spectral Data<<<<<
189.047	10.87
189.435	10.87
189.823	10.87
190.211	-141.29
190.599	72.31
190.987	15.7
191.375	-27.29
191.763	-148.59
192.151	-242.01
192.538	197.51
192.926	33.71
193.314	355.15
193.702	-57.42
194.089	29.28
194.477	45.69
194.864	68.08
195.252	79.2
195.639	965.94
196.027	-202.77
196.414	9.87
196.801	-46290.91
197.189	100.96
197.576	25.5
197.963	-40.19
198.351	-55.15
198.738	1.45
199.125	9.74
199.512	25.48
199.899	-116.87
200.286	62.68
200.673	-25.47
201.06	14.87
201.447	23.08
201.833	-7.59
202.22	-42.78
202.607	10.03
202.994	17.52
203.38	26.32
203.767	-7.37
204.154	38.05
204.54	37.94
204.927	12.57
205.313	-12.36
205.699	-34.82
206.086	21.93
206.472	33.26
206.858	19.21
207.245	31.93
207.631	-22.81
208.017	12.85
208.403	11.9
208.789	28.96
209.175	20.93
209.561	64.97
209.947	1.42
210.333	-3.65
210.719	37.32
211.105	41.83
211.491	18.85
211.876	57.48
212.262	15.32
212.648	-7.82
213.034	2.69
213.419	-28.46
213.805	-14.42
214.19	4.15
214.576	14.23
214.961	-16.62
215.346	-25.39
215.732	-24.68
216.117	31.37
216.502	13.11
216.888	1.73
217.273	-9.12
217.658	-11.65
218.043	30.04
218.428	3.21
218.813	2.27
219.198	9.35
219.583	5.36
219.968	7.76
220.353	-25.53
220.738	-33.5
221.122	4.95
221.507	-3.93
221.892	15.7
222.276	10.76
222.661	12.91
223.046	-4.12
223.43	3.69
223.815	10.44
224.199	4.08
224.583	-3.8
224.968	-7.68
225.352	0.82
225.736	2.92
226.121	2.41
226.505	10.4
226.889	2.29
227.273	6.08
227.657	-0.7
228.041	6.95
228.425	2.08
228.809	6.72
229.193	5.15
229.577	6.46
229.961	7.13
230.344	6.77
230.728	5.38
231.112	5.12
231.495	6.7
231.879	5.37
232.263	6.99
232.646	3.46
233.03	4.96
233.413	6.06
233.797	6.44
234.18	5.53
234.563	5.94
234.946	3.59
235.33	6.96
235.713	5.53
236.096	4.51
236.479	5.21
236.862	7.2
237.245	4.48
237.628	6.72
238.011	7.19
238.394	6.36
238.777	7.24
239.16	5.01
239.543	3.17
239.925	6.78
240.308	4.53
240.691	7.66
241.073	5.06
241.456	5.98
241.838	6.38
242.221	5.7
242.603	5.84
242.986	5.34
243.368	6.13
243.75	5.53
244.133	5.74
244.515	5.42
244.897	6.02
245.279	4.79
245.661	4.78
246.043	5.27
246.425	6.59
246.807	5.67
247.189	5.47
247.571	6.01
247.953	5.65
248.335	5.54
248.717	5.62
249.098	5.77
249.48	5.32
249.862	5.89
250.243	5.23
250.625	5.45
251.006	6.15
251.388	5.8
251.769	6.14
252.151	5.36
252.532	4.86
252.913	6.71
253.295	5.73
253.676	4.41
254.057	5.48
254.438	5.71
254.819	5.51
255.2	6.84
255.581	5.56
255.962	4.87
256.343	4.94
256.724	5.65
257.105	5.81
257.486	5.16
257.867	5.85
258.247	5.62
258.628	4.64
259.009	4.98
259.389	4.44
259.77	5.33
260.15	5.65
260.531	5.5
260.911	5.16
261.292	5.41
261.672	5.03
262.052	5.22
262.432	5.46
262.813	5.17
263.193	5.32
263.573	5.1
263.953	5.54
264.333	4.75
264.713	5.12
265.093	5.1
265.473	4.58
265.853	4.97
266.233	5.03
266.612	5.12
266.992	4.96
267.372	5.53
267.752	4.89
268.131	4.99
268.511	5.24
268.89	4.67
269.27	5.02
269.649	4.99
270.029	5.87
270.408	4.86
270.787	5.27
271.167	4.39
271.546	5.04
271.925	4.97
272.304	5.48
272.683	5.06
273.062	4.52
273.441	5.18
273.82	4.82
274.199	5.2
274.578	5.25
274.957	5.13
275.336	5.28
275.715	5.34
276.093	4.77
276.472	4.67
276.851	4.88
277.229	5.07
277.608	4.49
277.986	4.88
278.365	4.45
278.743	5.1
279.122	5.45
279.5	5.16
279.878	4.98
280.257	5.29
280.635	4.55
281.013	4.93
281.391	5.09
281.769	5.12
282.147	4.92
282.525	4.63
282.903	5.12
283.281	4.93
283.659	5.1
284.037	4.92
284.415	4.69
284.792	4.88
285.17	5.05
285.548	4.6
285.925	4.7
286.303	5.06
286.68	5.16
287.058	5.24
287.435	4.98
287.813	4.75
288.19	4.65
288.567	4.91
288.945	5.08
289.322	5.48
289.699	4.01
290.076	5.06
290.453	4.96
290.83	5.11
291.207	4.86
291.584	5.22
291.961	5
292.338	5.28
292.715	5.08
293.092	5.06
293.469	5.13
293.845	5.24
294.222	4.66
294.599	5.51
294.975	5.44
295.352	5.14
295.728	5.24
296.105	5.38
296.481	4.63
296.858	4.9
297.234	4.7
297.61	4.82
297.986	5.48
298.363	5.25
298.739	5.16
299.115	5.34
299.491	5.39
299.867	4.92
300.243	5.18
300.619	5
300.995	5.11
301.371	5.71
301.746	5.25
302.122	5.8
302.498	5.36
302.874	5.08
303.249	5.2
303.625	4.96
304	4.6
304.376	5.18
304.751	5.07
305.127	5.18
305.502	5.67
305.878	5.73
306.253	5.18
306.628	5.29
307.003	5.59
307.378	5.4
307.754	5.6
308.129	5.61
308.504	5.29
308.879	5.47
309.254	5.37
309.629	5.89
310.003	5.39
310.378	5.5
310.753	5.59
311.128	5.66
311.502	5.67
311.877	5.03
312.252	5.48
312.626	5.31
313.001	5.21
313.375	5.33
313.75	5.32
314.124	5.32
314.498	5.31
314.873	5.67
315.247	5.45
315.621	5.59
315.995	5.48
316.369	5.65
316.743	5.12
317.117	5.42
317.491	5.96
317.865	5.13
318.239	5.7
318.613	5.78
318.987	5.44
319.361	5.02
319.734	5.85
320.108	5.46
320.482	5.6
320.855	5.62
321.229	4.93
321.602	5.31
321.976	5.46
322.349	5.68
322.723	5.66
323.096	6.09
323.469	5.44
323.843	5.65
324.216	5.16
324.589	5.47
324.962	6.22
325.335	5.43
325.708	5.5
326.081	5.78
326.454	5.26
326.827	5.11
327.2	5.57
327.573	5.97
327.945	5.51
328.318	5.32
328.691	5.43
329.063	5.76
329.436	5.42
329.809	5.59
330.181	5.32
330.553	4.84
330.926	5.41
331.298	5.75
331.671	5.34
332.043	5.44
332.415	5.48
332.787	5.26
333.159	5.29
333.532	5.92
333.904	6.01
334.276	5.07
334.648	5.4
335.02	5.23
335.391	5.68
335.763	5.22
336.135	5.43
336.507	5.3
336.879	5.62
337.25	5.25
337.622	5.42
337.993	5.08
338.365	5.52
338.736	5.71
339.108	5.45
339.479	5.42
339.851	5.76
340.222	5.58
340.593	5.73
340.964	5.42
341.336	5.76
341.707	5.69
342.078	5.2
342.449	5.68
342.82	5.68
343.191	5.57
343.562	5.13
343.933	5.42
344.303	5.36
344.674	5.47
345.045	5.39
345.416	5.9
345.786	5.41
346.157	5.49
346.527	5.88
346.898	5.39
347.268	5.13
347.639	5.22
348.009	5.68
348.38	6.14
348.75	5.71
349.12	6.3
349.49	5.84
349.861	5.52
350.231	5.75
350.601	5.72
350.971	5.52
351.341	5.77
351.711	5.29
352.081	5.79
352.45	5.45
352.82	5.36
353.19	5.86
353.56	5.52
353.929	5.85
354.299	5.56
354.669	5.83
355.038	5.04
355.408	5.74
355.777	5.79
356.147	5.44
356.516	5.74
356.885	5.61
357.254	5.7
357.624	5.36
357.993	5.58
358.362	5.86
358.731	5.14
359.1	5.6
359.469	5.18
359.838	5.68
360.207	5.92
360.576	5.53
360.945	5.87
361.314	5.53
361.682	5.58
362.051	5.48
362.42	5.84
362.788	5.77
363.157	5.43
363.525	5.61
363.894	5.67
364.262	5.91
364.631	5.67
364.999	5.69
365.367	5.65
365.735	5.55
366.104	5.61
366.472	5.65
366.84	5.35
367.208	5.61
367.576	5.85
367.944	5.99
368.312	5.53
368.68	5.62
369.048	5.79
369.416	5.77
369.783	5.95
370.151	6.03
370.519	5.65
370.886	5.72
371.254	5.99
371.621	5.52
371.989	5.55
372.356	5.82
372.724	5.97
373.091	5.81
373.458	5.9
373.826	5.55
374.193	5.84
374.56	5.68
374.927	5.51
375.294	5.9
375.661	6.12
376.028	5.68
376.395	6
376.762	5.84
377.129	5.66
377.496	5.51
377.863	5.83
378.229	5.79
378.596	5.64
378.963	5.89
379.329	6.07
379.696	5.9
380.062	5.57
380.429	5.85
380.795	6.27
381.161	6.18
381.528	5.86
381.894	5.63
382.26	6.03
382.626	5.93
382.993	5.61
383.359	6.08
383.725	5.91
384.091	5.89
384.457	5.71
384.823	6
385.188	5.76
385.554	5.98
385.92	5.73
386.286	5.88
386.651	6
387.017	5.94
387.383	6.07
387.748	5.78
388.114	5.92
388.479	5.72
388.845	5.99
389.21	5.84
389.575	5.94
389.94	5.87
390.306	5.72
390.671	5.83
391.036	6.06
391.401	5.84
391.766	6.2
392.131	6.01
392.496	5.92
392.861	6.03
393.226	5.96
393.591	5.96
393.956	5.94
394.32	6.01
394.685	5.88
395.05	6.13
395.414	5.88
395.779	5.98
396.143	5.95
396.508	6.14
396.872	5.94
397.236	5.76
397.601	5.88
397.965	5.9
398.329	5.92
398.694	6.01
399.058	5.95
399.422	5.95
399.786	6.05
400.15	6.05
400.514	5.96
400.878	5.91
401.242	5.81
401.605	6.08
401.969	6.09
402.333	5.74
402.697	6.13
403.06	6.28
403.424	6.15
403.787	6.01
404.151	6.04
404.514	6.04
404.878	6.16
405.241	5.94
405.604	5.99
405.968	6.09
406.331	5.72
406.694	6.03
407.057	5.95
407.42	6.07
407.783	6.15
408.146	6.12
408.509	6.08
408.872	6.16
409.235	6.27
409.598	5.93
409.961	6.12
410.323	5.93
410.686	5.92
411.049	5.83
411.411	6.07
411.774	6.1
412.136	5.83
412.499	6.11
412.861	6.08
413.223	5.82
413.586	5.98
413.948	6.22
414.31	6.19
414.672	6.19
415.035	6.25
415.397	6.15
415.759	6.01
416.121	6.03
416.483	6.04
416.845	6.05
417.206	5.91
417.568	6.03
417.93	6.11
418.292	6.04
418.653	6.15
419.015	6.13
419.377	6.15
419.738	6.12
420.1	6.06
420.461	6.08
420.822	6.01
421.184	6.08
421.545	6.01
421.906	6.1
422.267	5.85
422.629	5.85
422.99	5.93
423.351	6
423.712	5.96
424.073	6.12
424.434	6.16
424.795	6.18
425.155	6.08
425.516	6.06
425.877	5.96
426.238	6.03
426.598	6.07
426.959	5.88
427.32	6.11
427.68	6.12
428.041	6.26
428.401	6
428.761	6.14
429.122	6.04
429.482	6.21
429.842	6.08
430.202	6.17
430.563	6.37
430.923	6.19
431.283	6.08
431.643	6.14
432.003	6.31
432.363	6.1
432.722	6.32
433.082	6.3
433.442	6.19
433.802	6.31
434.161	6.26
434.521	6.26
434.881	6.38
435.24	6.16
435.6	6.23
435.959	6.17
436.319	6.2
436.678	6.23
437.037	6.34
437.396	6.39
437.756	6.24
438.115	6.23
438.474	6.13
438.833	6.12
439.192	6.33
439.551	6.27
439.91	6.4
440.269	6.27
440.628	6.44
440.987	6.22
441.345	6.24
441.704	6.23
442.063	6.34
442.421	6.27
442.78	6.23
443.138	6.13
443.497	6.17
443.855	6.28
444.214	6.15
444.572	6.29
444.93	6.31
445.288	6.21
445.647	6.43
446.005	6.41
446.363	6.42
446.721	6.33
447.079	6.33
447.437	6.33
447.795	6.36
448.153	6.18
448.51	6.24
448.868	6.29
449.226	6.29
449.584	6.34
449.941	6.38
450.299	6.22
450.656	6.51
451.014	6.4
451.371	6.36
451.729	6.33
452.086	6.36
452.443	6.4
452.801	6.55
453.158	6.39
453.515	6.39
453.872	6.37
454.229	6.41
454.586	6.34
454.943	6.47
455.3	6.41
455.657	6.55
456.014	6.55
456.371	6.42
456.727	6.61
457.084	6.21
457.441	6.68
457.797	6.49
458.154	6.43
458.51	6.63
458.867	6.52
459.223	6.5
459.58	6.48
459.936	6.41
460.292	6.66
460.648	6.4
461.005	6.35
461.361	6.37
461.717	6.37
462.073	6.41
462.429	6.34
462.785	6.38
463.141	6.41
463.496	6.49
463.852	6.61
464.208	6.57
464.564	6.4
464.919	6.57
465.275	6.4
465.631	6.53
465.986	6.81
466.342	6.53
466.697	6.56
467.052	6.53
467.408	6.42
467.763	6.51
468.118	6.85
468.473	6.55
468.829	6.58
469.184	6.51
469.539	6.7
469.894	6.54
470.249	6.64
470.603	6.49
470.958	6.67
471.313	6.7
471.668	6.7
472.023	6.67
472.377	6.63
472.732	6.5
473.086	6.53
473.441	6.59
473.795	6.59
474.15	6.57
474.504	6.77
474.859	6.77
475.213	6.64
475.567	6.79
475.921	6.72
476.275	6.56
476.63	6.77
476.984	6.81
477.338	6.72
477.692	6.66
478.045	6.69
478.399	6.73
478.753	6.56
479.107	6.58
479.461	6.81
479.814	6.6
480.168	6.72
480.521	6.69
480.875	6.72
481.228	6.63
481.582	6.7
481.935	6.62
482.289	6.55
482.642	6.68
482.995	6.66
483.348	6.57
483.701	6.61
484.055	6.61
484.408	6.62
484.761	6.47
485.114	6.4
485.466	6.28
485.819	6.34
486.172	6.39
486.525	6.4
486.878	6.48
487.23	6.5
487.583	6.53
487.936	6.59
488.288	6.56
488.641	6.5
488.993	6.53
489.345	6.4
489.698	6.5
490.05	6.48
490.402	6.55
490.754	6.6
491.107	6.61
491.459	6.67
491.811	6.75
492.163	6.71
492.515	6.67
492.866	6.61
493.218	6.49
493.57	6.55
493.922	6.61
494.274	6.66
494.625	6.76
494.977	6.79
495.328	6.84
495.68	6.8
496.031	6.85
496.383	6.9
496.734	6.85
497.086	6.83
497.437	6.92
497.788	6.89
498.139	6.95
498.49	6.77
498.842	6.86
499.193	6.88
499.544	6.91
499.894	6.85
500.245	6.88
500.596	7.01
500.947	6.96
501.298	7
501.648	6.9
501.999	7.04
502.35	7
502.7	7.04
503.051	6.9
503.401	7
503.752	6.86
504.102	6.94
504.452	7.06
504.803	7.06
505.153	6.96
505.503	7.11
505.853	7.12
506.203	7.09
506.553	6.97
506.903	7.05
507.253	7.02
507.603	7.21
507.953	7.15
508.303	7.04
508.652	7.1
509.002	7.06
509.352	7.04
509.701	7.23
510.051	6.98
510.4	7.17
510.75	7.03
511.099	7
511.449	7.17
511.798	7.12
512.147	7.06
512.496	7.14
512.846	7.27
513.195	7.21
513.544	7.12
513.893	7.1
514.242	7.09
514.591	7.2
514.939	7.21
515.288	7.17
515.637	7.23
515.986	7.2
516.334	7.23
516.683	7.36
517.032	7.3
517.38	7.28
517.729	7.34
518.077	7.41
518.426	7.39
518.774	7.38
519.122	7.37
519.47	7.34
519.819	7.22
520.167	7.25
520.515	7.3
520.863	7.25
521.211	7.24
521.559	7.31
521.907	7.34
522.255	7.28
522.602	7.39
522.95	7.3
523.298	7.46
523.645	7.39
523.993	7.43
524.341	7.56
524.688	7.49
525.036	7.4
525.383	7.5
525.73	7.49
526.078	7.4
526.425	7.45
526.772	7.45
527.119	7.32
527.466	7.39
527.814	7.44
528.161	7.48
528.508	7.45
528.854	7.43
529.201	7.35
529.548	7.4
529.895	7.23
530.242	7.25
530.588	7.27
530.935	7.29
531.282	7.33
531.628	7.35
531.975	7.46
532.321	7.48
532.667	7.6
533.014	7.56
533.36	7.6
533.706	7.74
534.052	7.55
534.399	7.55
534.745	7.5
535.091	7.54
535.437	7.54
535.783	7.59
536.129	7.63
536.474	7.65
536.82	7.7
537.166	7.75
537.512	7.71
537.857	7.73
538.203	7.76
538.549	7.8
538.894	7.75
539.239	7.81
539.585	7.82
539.93	7.78
540.276	8.01
540.621	8.03
540.966	8.03
541.311	7.9
541.656	7.9
542.001	7.95
542.346	7.87
542.691	7.74
543.036	7.65
543.381	7.72
543.726	7.76
544.071	7.84
544.415	7.99
544.76	7.99
545.105	7.93
545.449	7.92
545.794	8.06
546.138	8.06
546.483	8.22
546.827	8.19
547.171	8.26
547.516	8.06
547.86	8.13
548.204	8.22
548.548	8.22
548.892	8.23
549.236	8.22
549.58	8.28
549.924	8.38
550.268	8.46
550.612	8.55
550.956	8.53
551.3	8.4
551.643	8.31
551.987	8.53
552.33	8.47
552.674	8.44
553.017	8.68
553.361	8.62
553.704	8.7
554.048	8.46
554.391	8.59
554.734	8.54
555.077	8.7
555.42	8.58
555.764	8.78
556.107	8.73
556.45	8.79
556.793	8.77
557.135	8.73
557.478	8.83
557.821	8.68
558.164	8.88
558.507	8.85
558.849	8.84
559.192	9
559.534	8.8
559.877	8.95
560.219	8.87
560.562	8.87
560.904	9.05
561.246	8.87
561.589	9.05
561.931	8.82
562.273	9.01
562.615	8.93
562.957	9.14
563.299	9.03
563.641	9.05
563.983	9.06
564.325	9.13
564.667	9.25
565.008	9.35
565.35	9.1
565.692	9.08
566.033	9.28
566.375	9.29
566.716	9.41
567.058	9.25
567.399	9.38
567.741	9.28
568.082	9.35
568.423	9.32
568.764	9.42
569.105	9.26
569.447	9.44
569.788	9.42
570.129	9.51
570.47	9.37
570.811	9.57
571.151	9.69
571.492	9.69
571.833	9.58
572.174	9.58
572.514	9.69
572.855	9.76
573.195	9.59
573.536	9.64
573.876	9.72
574.217	9.75
574.557	9.7
574.898	9.75
575.238	9.73
575.578	9.86
575.918	9.94
576.258	9.89
576.598	9.86
576.938	9.9
577.278	9.65
577.618	9.84
577.958	10.01
578.298	10.06
578.638	10.01
578.977	10.22
579.317	10.28
579.657	10.27
579.996	10.09
580.336	10.04
580.675	10.27
581.014	10.28
581.354	10.28
581.693	10.21
582.032	10.04
582.372	10.31
582.711	10.34
583.05	10.57
583.389	10.33
583.728	10.48
584.067	10.68
584.406	10.66
584.745	10.76
585.083	10.47
585.422	10.61
585.761	10.63
586.1	10.61
586.438	10.74
586.777	10.8
587.115	10.66
587.454	10.61
587.792	10.55
588.13	10.79
588.469	10.66
588.807	11.05
589.145	10.86
589.483	10.97
589.821	10.85
590.159	10.75
590.497	11.05
590.835	11.04
591.173	10.97
591.511	10.92
591.849	10.76
592.187	11.12
592.524	11.03
592.862	11.04
593.2	11.18
593.537	11.17
593.875	11.31
594.212	11.28
594.55	11.37
594.887	11.46
595.224	11.43
595.561	11.43
595.899	11.45
596.236	11.44
596.573	11.5
596.91	11.52
597.247	11.36
597.584	11.64
597.921	11.66
598.258	11.41
598.594	11.3
598.931	11.42
599.268	11.51
599.604	11.71
599.941	11.6
600.277	11.75
600.614	11.82
600.95	11.6
601.287	11.76
601.623	12.09
601.959	11.96
602.296	11.82
602.632	12
602.968	12.08
603.304	11.95
603.64	12.03
603.976	12.32
604.312	12.04
604.648	12.02
604.984	11.93
605.319	12.02
605.655	12.06
605.991	12.08
606.326	12.42
606.662	12.1
606.998	12.14
607.333	12.39
607.668	12.24
608.004	12.27
608.339	12.38
608.674	12.58
609.01	12.72
609.345	12.56
609.68	12.5
610.015	12.65
610.35	12.41
610.685	12.61
611.02	12.55
611.355	12.62
611.689	12.5
612.024	12.78
612.359	12.52
612.694	12.77
613.028	12.82
613.363	12.95
613.697	12.84
614.032	12.91
614.366	12.79
614.7	12.9
615.035	13.04
615.369	12.7
615.703	12.86
616.037	13.1
616.371	12.89
616.705	13.67
617.039	13.39
617.373	13.01
617.707	13.05
618.041	13.45
618.375	13.06
618.709	13.87
619.042	13.64
619.376	13.45
619.71	13.42
620.043	13.97
620.377	13.36
620.71	13.57
621.043	13.49
621.377	13.61
621.71	13.66
622.043	13.65
622.376	13.97
622.709	13.32
623.043	13.65
623.376	13.65
623.709	13.8
624.041	13.97
624.374	13.55
624.707	13.95
625.04	13.9
625.373	13.73
625.705	13.79
626.038	13.92
626.37	14.04
626.703	14.08
627.035	14.01
627.368	14
627.7	13.86
628.032	14.24
628.365	14.21
628.697	14.08
629.029	14.32
629.361	14.24
629.693	14.47
630.025	14.35
630.357	14.5
630.689	14.01
631.021	14.3
631.353	14.69
631.684	14.46
632.016	14.38
632.348	14.77
632.679	14.15
633.011	14.71
633.342	14.73
633.674	14.48
634.005	14.78
634.336	14.76
634.668	14.61
634.999	14.7
635.33	14.63
635.661	15.1
635.992	14.91
636.323	14.9
636.654	14.73
636.985	14.92
637.316	15.26
637.647	15.32
637.977	15.08
638.308	15.26
638.639	15.13
638.969	14.66
639.3	15.48
639.63	15.71
639.961	15.21
640.291	15.65
640.622	15.47
640.952	15.39
641.282	15.47
641.612	15.29
641.943	15.79
642.273	15.26
642.603	15.49
642.933	15.12
643.263	15.29
643.592	15.68
643.922	15.59
644.252	15.36
644.582	15.44
644.911	15.82
645.241	15.68
645.571	15.69
645.9	15.97
646.23	15.92
646.559	15.93
646.888	16.5
647.218	15.51
647.547	15.91
647.876	15.7
648.205	16.53
648.534	15.84
648.863	16.14
649.192	15.95
649.521	16.29
649.85	16.33
650.179	16.13
650.508	16.09
650.837	16.59
651.165	16.17
651.494	16.82
651.822	16.51
652.151	15.83
652.479	16.02
652.808	16.12
653.136	16.18
653.465	16.6
653.793	16.38
654.121	16.5
654.449	16.58
654.777	17.13
655.105	16.74
655.433	16.44
655.761	16.68
656.089	16.78
656.417	16.56
656.745	16.76
657.073	16.64
657.4	16.47
657.728	16.84
658.056	17.16
658.383	16.53
658.711	16.92
659.038	16.87
659.365	17.05
659.693	17.02
660.02	17.79
660.347	17.27
660.674	16.74
661.001	17.01
661.329	16.97
661.656	17.27
661.982	17.5
662.309	17.43
662.636	17.56
662.963	17.32
663.29	17.51
663.616	16.95
663.943	17.65
664.27	17.31
664.596	17.77
664.923	17.51
665.249	17.74
665.576	17.98
665.902	17.73
666.228	18.18
666.554	17.53
666.881	17.48
667.207	17.77
667.533	18.06
667.859	18.01
668.185	17.44
668.511	17.82
668.837	17.94
669.162	17.82
669.488	17.98
669.814	17.56
670.139	17.69
670.465	17.78
670.791	18.13
671.116	18.25
671.442	18.59
671.767	18.66
672.092	18.45
672.418	18.43
672.743	18.17
673.068	18.55
673.393	18.48
673.718	18.25
674.043	18.36
674.368	19.05
674.693	18.14
675.018	18.68
675.343	18.54
675.667	19.15
675.992	19.38
676.317	18.74
676.641	18.52
676.966	18.97
677.29	18.39
677.615	18.75
677.939	18.63
678.264	18.52
678.588	18.65
678.912	18.7
679.236	19.19
679.56	19.34
679.885	19.29
680.209	18.53
680.532	18.89
680.856	19.43
681.18	19.35
681.504	19.31
681.828	19.53
682.152	19.43
682.475	19.28
682.799	19.05
683.122	19.31
683.446	19.67
683.769	19.58
684.093	19.22
684.416	19.6
684.739	19.59
685.062	19.31
685.386	19.96
