Data from 20-1_chest_Reflection__2__62.txt Node

Date: Fri Nov 11 20:40:45 CST 2022
User: ToomeyLab
Spectrometer: FLMS14357
Trigger mode: 0
Integration Time (sec): 1.000000E-2
Scans to average: 100
Electric dark correction enabled: true
Nonlinearity correction enabled: false
Boxcar width: 0
XAxis mode: Wavelengths
Number of Pixels in Spectrum: 2048
>>>>>Begin Spectral Data<<<<<
189.047	-98.75
189.435	-98.75
189.823	-98.75
190.211	210.78
190.599	137.09
190.987	121.32
191.375	-11.88
191.763	5.87
192.151	-284.91
192.538	189.04
192.926	147.05
193.314	240.23
193.702	91.27
194.089	-68.72
194.477	69.89
194.864	162.35
195.252	103.14
195.639	3.93
196.027	12.47
196.414	-33.68
196.801	-50409.09
197.189	142.33
197.576	-59.06
197.963	41.55
198.351	-20.32
198.738	-17.13
199.125	-0.45
199.512	15.48
199.899	-196.49
200.286	-5.6
200.673	-15.99
201.06	25.15
201.447	19.46
201.833	25.58
202.22	-63.46
202.607	9.9
202.994	1.15
203.38	6.08
203.767	36.53
204.154	32.5
204.54	7.02
204.927	3.6
205.313	-18.21
205.699	-5.44
206.086	66.82
206.472	68.27
206.858	22.61
207.245	39.09
207.631	-2.45
208.017	26.65
208.403	13.45
208.789	24.21
209.175	3.9
209.561	48.25
209.947	5.97
210.333	13.68
210.719	4.18
211.105	52.35
211.491	61.01
211.876	-1.02
212.262	24.44
212.648	-20.92
213.034	-16.62
213.419	-4.48
213.805	-34.84
214.19	17.46
214.576	43.35
214.961	-19.92
215.346	-22.15
215.732	-8.47
216.117	44.12
216.502	-20.23
216.888	-13.51
217.273	2.93
217.658	-10.89
218.043	-10.72
218.428	0.24
218.813	8.69
219.198	0.24
219.583	13.86
219.968	2.57
220.353	-13.6
220.738	7.47
221.122	5.61
221.507	-19.19
221.892	-25.65
222.276	14.37
222.661	16.12
223.046	-4.79
223.43	0.11
223.815	-0.26
224.199	8.17
224.583	-11.48
224.968	-2.23
225.352	-8.05
225.736	2.29
226.121	-8.72
226.505	3.2
226.889	-1.13
227.273	1.19
227.657	-2.48
228.041	1.48
228.425	4.57
228.809	1.56
229.193	4.74
229.577	3.24
229.961	4.44
230.344	3.76
230.728	3.73
231.112	2.48
231.495	2.99
231.879	2.66
232.263	3.88
232.646	1.7
233.03	4.2
233.413	4.78
233.797	2.55
234.18	2.68
234.563	6.14
234.946	2.83
235.33	4.32
235.713	3.53
236.096	3.74
236.479	3.91
236.862	6.1
237.245	3.25
237.628	5.73
238.011	3.48
238.394	3.88
238.777	4.05
239.16	4.07
239.543	3.65
239.925	4.7
240.308	3.19
240.691	5.15
241.073	4.17
241.456	3.06
241.838	3.35
242.221	3.88
242.603	3.85
242.986	3.44
243.368	3.8
243.75	4.32
244.133	4.28
244.515	4.32
244.897	4.49
245.279	3.75
245.661	3.93
246.043	4.3
246.425	5.16
246.807	3.31
247.189	3.69
247.571	3.78
247.953	3.96
248.335	4.15
248.717	4.44
249.098	4.38
249.48	4.07
249.862	4.18
250.243	3.92
250.625	4.04
251.006	4.96
251.388	5.1
251.769	4.6
252.151	4.3
252.532	3.99
252.913	4.78
253.295	4.87
253.676	3.8
254.057	3.87
254.438	4.33
254.819	3.19
255.2	4.94
255.581	3.55
255.962	3.22
256.343	3.5
256.724	3.99
257.105	3.91
257.486	3.81
257.867	4.46
258.247	4.38
258.628	4.1
259.009	4.12
259.389	3.57
259.77	4.75
260.15	3.83
260.531	4.01
260.911	4.05
261.292	4.06
261.672	3.82
262.052	3.86
262.432	4.19
262.813	4.29
263.193	3.66
263.573	3.8
263.953	4.36
264.333	4
264.713	3.58
265.093	4.22
265.473	3.49
265.853	4.15
266.233	3.31
266.612	3.55
266.992	3.88
267.372	4.56
267.752	3.44
268.131	3.67
268.511	3.74
268.89	3.47
269.27	3.61
269.649	3.43
270.029	3.98
270.408	3.7
270.787	4.07
271.167	3.29
271.546	3.51
271.925	3.92
272.304	4.13
272.683	3.94
273.062	3.87
273.441	3.86
273.82	4.17
274.199	3.46
274.578	3.46
274.957	3.84
275.336	3.78
275.715	4.18
276.093	3.3
276.472	3.19
276.851	3.76
277.229	3.45
277.608	3.79
277.986	3.79
278.365	3.09
278.743	3.44
279.122	3.94
279.5	3.98
279.878	3.9
280.257	3.85
280.635	3.05
281.013	3.51
281.391	4.19
281.769	3.92
282.147	3.55
282.525	2.62
282.903	3.48
283.281	3.52
283.659	3.97
284.037	3.52
284.415	3.61
284.792	3.83
285.17	3.56
285.548	3.52
285.925	3.41
286.303	3.31
286.68	3.84
287.058	3.88
287.435	3.64
287.813	3.56
288.19	3.25
288.567	3.87
288.945	3.82
289.322	3.67
289.699	3.73
290.076	4.1
290.453	3.69
290.83	3.3
291.207	3.21
291.584	3.81
291.961	3.64
292.338	3.88
292.715	3.81
293.092	3.59
293.469	3.7
293.845	3.57
294.222	3.92
294.599	4.23
294.975	3.82
295.352	3.64
295.728	3.78
296.105	3.64
296.481	3.52
296.858	3.48
297.234	3.73
297.61	3.61
297.986	4.29
298.363	3.9
298.739	4.21
299.115	4.18
299.491	3.84
299.867	3.8
300.243	3.79
300.619	3.89
300.995	3.81
301.371	4.58
301.746	4.31
302.122	3.88
302.498	4.47
302.874	3.84
303.249	4.11
303.625	3.73
304	3.7
304.376	3.78
304.751	3.8
305.127	3.89
305.502	4.34
305.878	4.64
306.253	4.03
306.628	4.2
307.003	4.05
307.378	4.58
307.754	4.83
308.129	3.86
308.504	4.39
308.879	4.23
309.254	3.95
309.629	4.02
310.003	4.4
310.378	4.16
310.753	4.5
311.128	4.45
311.502	4.49
311.877	4.24
312.252	4.35
312.626	4.26
313.001	3.98
313.375	4.49
313.75	4.52
314.124	4.31
314.498	4.52
314.873	4.19
315.247	4.98
315.621	4.75
315.995	4.94
316.369	4.13
316.743	4.19
317.117	4.42
317.491	4.23
317.865	4.08
318.239	4.45
318.613	4.37
318.987	4.43
319.361	4.18
319.734	4.92
320.108	4.34
320.482	4.77
320.855	4.05
321.229	4.2
321.602	4.51
321.976	4.49
322.349	5.04
322.723	4.48
323.096	4.36
323.469	4.28
323.843	4.44
324.216	4.26
324.589	4.62
324.962	4.43
325.335	4.46
325.708	4.78
326.081	4.39
326.454	4.3
326.827	4.49
327.2	4.99
327.573	5.43
327.945	4.68
328.318	4.5
328.691	4.61
329.063	4.87
329.436	4.39
329.809	4.59
330.181	4.16
330.553	4.05
330.926	4.4
331.298	4.15
331.671	4.41
332.043	4.03
332.415	4.68
332.787	4.83
333.159	4.66
333.532	4.31
333.904	5.18
334.276	4.37
334.648	4.22
335.02	4.64
335.391	4.95
335.763	4.35
336.135	4.47
336.507	4.41
336.879	4.57
337.25	4.44
337.622	4.26
337.993	4.83
338.365	4.64
338.736	4.66
339.108	5.05
339.479	4.44
339.851	4.73
340.222	4.58
340.593	5.15
340.964	5
341.336	4.83
341.707	4.41
342.078	4.26
342.449	4.97
342.82	4.79
343.191	4.96
343.562	4.46
343.933	4.67
344.303	4.31
344.674	4.5
345.045	4.42
345.416	5.04
345.786	4.71
346.157	4.42
346.527	4.65
346.898	4.2
347.268	4.61
347.639	4.41
348.009	4.6
348.38	4.83
348.75	4.66
349.12	5.21
349.49	5.17
349.861	4.41
350.231	4.92
350.601	4.64
350.971	4.64
351.341	5.09
351.711	4.71
352.081	4.98
352.45	4.6
352.82	4.29
353.19	4.75
353.56	4.69
353.929	4.67
354.299	4.3
354.669	4.61
355.038	4.6
355.408	4.64
355.777	4.3
356.147	4.8
356.516	4.49
356.885	4.83
357.254	4.56
357.624	4.39
357.993	4.69
358.362	4.99
358.731	4.38
359.1	4.63
359.469	4.5
359.838	4.55
360.207	4.65
360.576	4.87
360.945	5.04
361.314	4.25
361.682	4.73
362.051	4.48
362.42	4.64
362.788	4.94
363.157	4.46
363.525	4.62
363.894	4.61
364.262	4.78
364.631	5
364.999	4.81
365.367	4.85
365.735	4.72
366.104	4.45
366.472	4.76
366.84	4.44
367.208	4.73
367.576	4.87
367.944	4.98
368.312	4.76
368.68	4.51
369.048	4.9
369.416	4.88
369.783	4.86
370.151	5.04
370.519	5.01
370.886	4.87
371.254	5.11
371.621	4.92
371.989	4.5
372.356	4.9
372.724	5.2
373.091	5.03
373.458	4.73
373.826	4.45
374.193	4.72
374.56	4.83
374.927	4.61
375.294	4.93
375.661	5.18
376.028	4.89
376.395	4.68
376.762	4.81
377.129	4.92
377.496	4.68
377.863	4.84
378.229	5.11
378.596	4.79
378.963	4.79
379.329	5.08
379.696	5.01
380.062	4.81
380.429	5.04
380.795	5.19
381.161	5.01
381.528	4.78
381.894	5.09
382.26	5.13
382.626	4.97
382.993	5.08
383.359	4.87
383.725	4.76
384.091	5.07
384.457	5.1
384.823	5.12
385.188	4.85
385.554	4.94
385.92	4.79
386.286	4.87
386.651	5.1
387.017	4.94
387.383	5.05
387.748	4.79
388.114	4.78
388.479	4.65
388.845	5.04
389.21	4.75
389.575	5.01
389.94	4.92
390.306	4.69
390.671	5.1
391.036	5.05
391.401	4.99
391.766	5.21
392.131	4.66
392.496	5.03
392.861	4.96
393.226	4.72
393.591	5.02
393.956	4.98
394.32	4.93
394.685	5.04
395.05	4.88
395.414	4.89
395.779	4.9
396.143	5.06
396.508	5.03
396.872	4.86
397.236	4.91
397.601	4.93
397.965	5.32
398.329	5.2
398.694	5.11
399.058	5.1
399.422	5.12
399.786	4.89
400.15	5.23
400.514	5.1
400.878	5.03
401.242	4.91
401.605	5.42
401.969	5.01
402.333	5.06
402.697	5.16
403.06	4.96
403.424	4.73
403.787	5.15
404.151	5.19
404.514	4.92
404.878	4.96
405.241	5.03
405.604	4.95
405.968	5.19
406.331	4.91
406.694	5.09
407.057	5.21
407.42	5.14
407.783	5.06
408.146	5.06
408.509	5.2
408.872	5.16
409.235	5.18
409.598	4.92
409.961	5.19
410.323	4.95
410.686	4.96
411.049	4.86
411.411	5.21
411.774	5.1
412.136	5.16
412.499	5.12
412.861	5.18
413.223	5.13
413.586	5.14
413.948	5.27
414.31	5.15
414.672	5.03
415.035	5.21
415.397	5.05
415.759	5.03
416.121	5.24
416.483	5.02
416.845	5.25
417.206	4.83
417.568	5.03
417.93	5.16
418.292	4.96
418.653	5.23
419.015	5.24
419.377	5.16
419.738	5.08
420.1	5.19
420.461	5.01
420.822	5.18
421.184	5.03
421.545	5
421.906	5.18
422.267	5.01
422.629	5.03
422.99	5.12
423.351	5.12
423.712	5.1
424.073	5.14
424.434	5.12
424.795	5.24
425.155	5.08
425.516	5.16
425.877	5.09
426.238	5.14
426.598	5.12
426.959	5.1
427.32	5.22
427.68	5.25
428.041	5.33
428.401	5.05
428.761	5.4
429.122	5.08
429.482	5.31
429.842	5.12
430.202	5.46
430.563	5.34
430.923	5.35
431.283	5.19
431.643	5.1
432.003	5.33
432.363	5.24
432.722	5.56
433.082	5.37
433.442	5.45
433.802	5.31
434.161	5.22
434.521	5.27
434.881	5.49
435.24	5.25
435.6	5.37
435.959	5.41
436.319	5.26
436.678	5.4
437.037	5.32
437.396	5.54
437.756	5.31
438.115	5.46
438.474	5.27
438.833	5.38
439.192	5.38
439.551	5.34
439.91	5.31
440.269	5.38
440.628	5.34
440.987	5.35
441.345	5.28
441.704	5.39
442.063	5.36
442.421	5.39
442.78	5.25
443.138	5.34
443.497	5.3
443.855	5.39
444.214	5.32
444.572	5.4
444.93	5.28
445.288	5.29
445.647	5.49
446.005	5.51
446.363	5.45
446.721	5.47
447.079	5.48
447.437	5.23
447.795	5.38
448.153	5.34
448.51	5.36
448.868	5.38
449.226	5.41
449.584	5.34
449.941	5.45
450.299	5.39
450.656	5.46
451.014	5.4
451.371	5.54
451.729	5.5
452.086	5.44
452.443	5.49
452.801	5.56
453.158	5.47
453.515	5.48
453.872	5.54
454.229	5.48
454.586	5.58
454.943	5.55
455.3	5.47
455.657	5.61
456.014	5.69
456.371	5.52
456.727	5.45
457.084	5.22
457.441	5.64
457.797	5.59
458.154	5.48
458.51	5.67
458.867	5.59
459.223	5.54
459.58	5.6
459.936	5.44
460.292	5.66
460.648	5.6
461.005	5.53
461.361	5.57
461.717	5.49
462.073	5.51
462.429	5.46
462.785	5.53
463.141	5.45
463.496	5.5
463.852	5.71
464.208	5.73
464.564	5.61
464.919	5.65
465.275	5.61
465.631	5.7
465.986	5.77
466.342	5.73
466.697	5.61
467.052	5.6
467.408	5.65
467.763	5.58
468.118	5.77
468.473	5.78
468.829	5.72
469.184	5.63
469.539	5.8
469.894	5.82
470.249	5.78
470.603	5.58
470.958	5.73
471.313	5.8
471.668	5.71
472.023	5.66
472.377	5.79
472.732	5.65
473.086	5.6
473.441	5.85
473.795	5.8
474.15	5.74
474.504	5.86
474.859	5.87
475.213	5.86
475.567	5.87
475.921	5.78
476.275	5.75
476.63	5.76
476.984	5.87
477.338	5.83
477.692	5.71
478.045	5.75
478.399	5.87
478.753	5.77
479.107	5.82
479.461	5.86
479.814	5.79
480.168	5.87
480.521	5.88
480.875	5.97
481.228	5.71
481.582	5.83
481.935	5.76
482.289	5.77
482.642	5.84
482.995	5.8
483.348	5.77
483.701	5.93
484.055	5.72
484.408	5.79
484.761	5.73
485.114	5.53
485.466	5.58
485.819	5.59
486.172	5.53
486.525	5.58
486.878	5.64
487.23	5.61
487.583	5.69
487.936	5.83
488.288	5.74
488.641	5.66
488.993	5.73
489.345	5.68
489.698	5.68
490.05	5.68
490.402	5.65
490.754	5.77
491.107	5.73
491.459	5.75
491.811	5.83
492.163	5.9
492.515	5.87
492.866	5.87
493.218	5.78
493.57	5.78
493.922	5.76
494.274	5.78
494.625	5.85
494.977	5.88
495.328	5.91
495.68	5.97
496.031	5.93
496.383	6.07
496.734	5.95
497.086	6.08
497.437	5.97
497.788	6
498.139	6.07
498.49	5.99
498.842	6.05
499.193	6.01
499.544	6.08
499.894	6.02
500.245	6.04
500.596	6.16
500.947	6.05
501.298	6.11
501.648	6
501.999	6.02
502.35	6.17
502.7	6.16
503.051	6.17
503.401	6.16
503.752	6.08
504.102	6.15
504.452	6.12
504.803	6.19
505.153	6.22
505.503	6.11
505.853	6.22
506.203	6.17
506.553	6.04
506.903	6.19
507.253	6.19
507.603	6.18
507.953	6.03
508.303	6.21
508.652	6.15
509.002	6.21
509.352	6.19
509.701	6.31
510.051	6.12
510.4	6.22
510.75	6.18
511.099	6.17
511.449	6.17
511.798	6.23
512.147	6.09
512.496	6.22
512.846	6.31
513.195	6.31
513.544	6.17
513.893	6.28
514.242	6.25
514.591	6.26
514.939	6.2
515.288	6.18
515.637	6.38
515.986	6.35
516.334	6.35
516.683	6.31
517.032	6.34
517.38	6.23
517.729	6.44
518.077	6.31
518.426	6.39
518.774	6.4
519.122	6.35
519.47	6.32
519.819	6.28
520.167	6.32
520.515	6.38
520.863	6.3
521.211	6.3
521.559	6.22
521.907	6.35
522.255	6.38
522.602	6.35
522.95	6.34
523.298	6.4
523.645	6.51
523.993	6.44
524.341	6.53
524.688	6.49
525.036	6.5
525.383	6.57
525.73	6.43
526.078	6.51
526.425	6.51
526.772	6.35
527.119	6.45
527.466	6.44
527.814	6.4
528.161	6.39
528.508	6.37
528.854	6.36
529.201	6.37
529.548	6.3
529.895	6.27
530.242	6.29
530.588	6.33
530.935	6.31
531.282	6.29
531.628	6.29
531.975	6.34
532.321	6.42
532.667	6.46
533.014	6.51
533.36	6.48
533.706	6.65
534.052	6.57
534.399	6.53
534.745	6.52
535.091	6.48
535.437	6.49
535.783	6.43
536.129	6.52
536.474	6.53
536.82	6.49
537.166	6.64
537.512	6.67
537.857	6.51
538.203	6.57
538.549	6.64
538.894	6.54
539.239	6.61
539.585	6.63
539.93	6.67
540.276	6.75
540.621	6.84
540.966	6.86
541.311	6.78
541.656	6.82
542.001	6.75
542.346	6.77
542.691	6.68
543.036	6.62
543.381	6.62
543.726	6.57
544.071	6.58
544.415	6.62
544.76	6.68
545.105	6.64
545.449	6.69
545.794	6.83
546.138	6.72
546.483	6.78
546.827	6.89
547.171	6.86
547.516	6.65
547.86	6.84
548.204	6.96
548.548	6.87
548.892	6.82
549.236	6.83
549.58	7.01
549.924	6.94
550.268	7.01
550.612	7.02
550.956	7.1
551.3	7.13
551.643	6.99
551.987	7.09
552.33	7.16
552.674	6.96
553.017	7.15
553.361	7.18
553.704	7.26
554.048	7.06
554.391	7.14
554.734	7.18
555.077	7.28
555.42	7.13
555.764	7.2
556.107	7.18
556.45	7.23
556.793	7.16
557.135	7.26
557.478	7.16
557.821	7.26
558.164	7.23
558.507	7.32
558.849	7.19
559.192	7.16
559.534	7.29
559.877	7.32
560.219	7.3
560.562	7.26
560.904	7.37
561.246	7.27
561.589	7.37
561.931	7.34
562.273	7.25
562.615	7.39
562.957	7.3
563.299	7.43
563.641	7.2
563.983	7.29
564.325	7.32
564.667	7.48
565.008	7.64
565.35	7.58
565.692	7.26
566.033	7.4
566.375	7.63
566.716	7.57
567.058	7.52
567.399	7.65
567.741	7.51
568.082	7.56
568.423	7.52
568.764	7.67
569.105	7.6
569.447	7.66
569.788	7.5
570.129	7.62
570.47	7.45
570.811	7.62
571.151	7.73
571.492	7.52
571.833	7.68
572.174	7.58
572.514	7.55
572.855	7.73
573.195	7.64
573.536	7.75
573.876	7.7
574.217	7.76
574.557	7.7
574.898	7.59
575.238	7.7
575.578	7.65
575.918	7.74
576.258	7.65
576.598	7.83
576.938	7.95
577.278	7.81
577.618	7.81
577.958	7.88
578.298	7.96
578.638	7.75
578.977	7.91
579.317	8.01
579.657	8
579.996	7.94
580.336	8.03
580.675	8.03
581.014	7.85
581.354	7.76
581.693	7.72
582.032	7.82
582.372	7.92
582.711	8.11
583.05	8.07
583.389	7.99
583.728	8.35
584.067	8.06
584.406	8
584.745	8.3
585.083	8.01
585.422	8.03
585.761	8.16
586.1	8.1
586.438	7.95
586.777	8.03
587.115	8.22
587.454	8.16
587.792	8.13
588.13	8.08
588.469	8.23
588.807	8.4
589.145	8.32
589.483	8.24
589.821	8.35
590.159	8.25
590.497	8.39
590.835	8.28
591.173	8.35
591.511	8.16
591.849	8.33
592.187	8.15
592.524	8.22
592.862	8.19
593.2	8.59
593.537	8.1
593.875	8.4
594.212	8.5
594.55	8.44
594.887	8.42
595.224	8.34
595.561	8.42
595.899	8.6
596.236	8.51
596.573	8.48
596.91	8.57
597.247	8.63
597.584	8.61
597.921	8.62
598.258	8.48
598.594	8.44
598.931	8.4
599.268	8.49
599.604	8.58
599.941	8.67
600.277	8.57
600.614	8.66
600.95	8.35
601.287	8.8
601.623	9.02
601.959	8.71
602.296	8.56
602.632	8.57
602.968	8.51
603.304	8.71
603.64	8.72
603.976	9.04
604.312	8.51
604.648	8.88
604.984	9
605.319	8.98
605.655	9.02
605.991	8.81
606.326	8.91
606.662	8.8
606.998	8.72
607.333	8.82
607.668	8.91
608.004	8.82
608.339	8.81
608.674	9.12
609.01	8.96
609.345	8.9
609.68	8.8
610.015	8.81
610.35	8.64
610.685	9.13
611.02	8.89
611.355	8.97
611.689	9.02
612.024	8.99
612.359	8.85
612.694	8.89
613.028	9.14
613.363	9.35
613.697	9
614.032	9
614.366	9.05
614.7	8.97
615.035	9.15
615.369	8.99
615.703	9.09
616.037	9.2
616.371	9.15
616.705	9.32
617.039	9.35
617.373	8.95
617.707	9.32
618.041	9.26
618.375	8.98
618.709	9.38
619.042	9.57
619.376	9.33
619.71	9.36
620.043	9.15
620.377	9.21
620.71	9.37
621.043	9.11
621.377	9.69
621.71	9.27
622.043	9.37
622.376	9.38
622.709	9.11
623.043	9.49
623.376	9.52
623.709	9.63
624.041	9.32
624.374	9.1
624.707	9.59
625.04	9.64
625.373	9.27
625.705	9.3
626.038	9.52
626.37	9.94
626.703	9.45
627.035	9.7
627.368	9.39
627.7	9.71
628.032	9.74
628.365	9.67
628.697	9.76
629.029	9.73
629.361	9.55
629.693	9.63
630.025	9.85
630.357	9.57
630.689	9.58
631.021	10.02
631.353	9.9
631.684	9.69
632.016	9.96
632.348	9.86
632.679	9.96
633.011	9.88
633.342	9.64
633.674	9.83
634.005	9.83
634.336	9.94
634.668	9.93
634.999	9.93
635.33	10.05
635.661	10.16
635.992	9.72
636.323	9.85
636.654	9.94
636.985	9.85
637.316	9.82
637.647	10.46
637.977	10.33
638.308	10.36
638.639	9.89
638.969	9.63
639.3	10.22
639.63	10.52
639.961	9.67
640.291	10.37
640.622	10.36
640.952	9.86
641.282	9.86
641.612	9.86
641.943	10.07
642.273	9.93
642.603	10.14
642.933	10.49
643.263	10.06
643.592	10.17
643.922	10.29
644.252	10.46
644.582	10.53
644.911	9.78
645.241	10.27
645.571	10.31
645.9	10.52
646.23	10.71
646.559	10.54
646.888	10.7
647.218	10.35
647.547	10.19
647.876	10.17
648.205	10.85
648.534	10.05
648.863	10.36
649.192	10.19
649.521	10.2
649.85	10.9
650.179	10.45
650.508	10.76
650.837	10.5
651.165	10.28
651.494	10.51
651.822	10.35
652.151	10.37
652.479	10.07
652.808	10.25
653.136	10.41
653.465	10.78
653.793	10.52
654.121	10.47
654.449	10.15
654.777	11.1
655.105	10.55
655.433	10.65
655.761	10.89
656.089	10.95
656.417	10.41
656.745	10.81
657.073	10.99
657.4	10.82
657.728	11.02
658.056	10.72
658.383	10.71
658.711	10.63
659.038	10.93
659.365	10.51
659.693	10.96
660.02	11.87
660.347	10.82
660.674	11.07
661.001	11.23
661.329	10.84
661.656	11.17
661.982	11.22
662.309	10.87
662.636	11.06
662.963	10.89
663.29	11.19
663.616	10.56
663.943	11.16
664.27	11.06
664.596	11.45
664.923	10.95
665.249	11.33
665.576	11.49
665.902	11.54
666.228	10.81
666.554	11.19
666.881	11.22
667.207	11.44
667.533	11.43
667.859	11.51
668.185	11.38
668.511	10.97
668.837	11.13
669.162	11.58
669.488	11.14
669.814	10.97
670.139	11.41
670.465	11.29
670.791	11.03
671.116	11.88
671.442	11.63
671.767	11.52
672.092	11.53
672.418	11.35
672.743	10.98
673.068	11.07
673.393	12.04
673.718	11.41
674.043	11.74
674.368	11.41
674.693	11.25
675.018	11.62
675.343	11.43
675.667	12.01
675.992	12.51
676.317	11.45
676.641	11.6
676.966	12.03
677.29	11.13
677.615	11.32
677.939	11.98
678.264	12.03
678.588	11.88
678.912	12.03
679.236	11.6
679.56	11.99
679.885	11.56
680.209	11.57
680.532	12.35
680.856	12.45
681.18	12.3
681.504	11.58
681.828	12.26
682.152	11.67
682.475	11.76
682.799	11.38
683.122	11.96
683.446	11.94
683.769	11.95
684.093	12.04
684.416	12.34
684.739	12.49
685.062	11.51
685.386	12.3
685.709	12.07
686.032	11.65
686.355	11.99
686.678	11.69
687.001	11.47
687.324	11.67
687.646	11.36
687.969	11.9
688.292	12.67
688.614	12.49
688.937	11.75
