Data from 20-1_forehead_Reflection__2__72.txt Node

Date: Fri Nov 11 20:43:41 CST 2022
User: ToomeyLab
Spectrometer: FLMS14357
Trigger mode: 0
Integration Time (sec): 1.000000E-2
Scans to average: 100
Electric dark correction enabled: true
Nonlinearity correction enabled: false
Boxcar width: 0
XAxis mode: Wavelengths
Number of Pixels in Spectrum: 2048
>>>>>Begin Spectral Data<<<<<
189.047	-176.1
189.435	-176.1
189.823	-176.1
190.211	1098.67
190.599	-96
190.987	387.17
191.375	-47.04
191.763	48.99
192.151	-162.89
192.538	-104.97
192.926	114.09
193.314	255.15
193.702	80.63
194.089	-91.79
194.477	71.29
194.864	21.49
195.252	21.63
195.639	439.74
196.027	-129.92
196.414	-32.15
196.801	-40718.18
197.189	110.69
197.576	12.38
197.963	-13.35
198.351	5.89
198.738	9.41
199.125	12.9
199.512	13.41
199.899	-37.24
200.286	42.46
200.673	5.7
201.06	34.67
201.447	69.36
201.833	44.82
202.22	-31.43
202.607	39.73
202.994	42.71
203.38	20.61
203.767	60.44
204.154	65.03
204.54	38.96
204.927	57.12
205.313	20.43
205.699	12.6
206.086	48.43
206.472	44.55
206.858	39.63
207.245	48.92
207.631	29.41
208.017	26.29
208.403	5.23
208.789	-7.9
209.175	10.2
209.561	66.35
209.947	4.6
210.333	36.27
210.719	20.03
211.105	46.1
211.491	59.77
211.876	38.48
212.262	23.23
212.648	26.25
213.034	-28.61
213.419	-12.52
213.805	-12
214.19	12.19
214.576	15.62
214.961	-19.29
215.346	-10.73
215.732	7.44
216.117	26.39
216.502	-2.6
216.888	20.89
217.273	27.15
217.658	24.05
218.043	12.47
218.428	51.49
218.813	7.72
219.198	10.28
219.583	17.12
219.968	15.06
220.353	10.27
220.738	-9.86
221.122	21.23
221.507	-9.95
221.892	-2.03
222.276	14.85
222.661	26.05
223.046	-7.12
223.43	-4.53
223.815	6.57
224.199	6.77
224.583	3.05
224.968	-0.1
225.352	10.81
225.736	3.6
226.121	6.18
226.505	12.09
226.889	-1.28
227.273	2.75
227.657	-2.69
228.041	3.47
228.425	2.96
228.809	1.73
229.193	6.51
229.577	4.4
229.961	1.71
230.344	2.48
230.728	1.74
231.112	1.49
231.495	2.02
231.879	1.12
232.263	2.52
232.646	2.86
233.03	2.59
233.413	3.37
233.797	3.77
234.18	2.11
234.563	3.74
234.946	2.42
235.33	3.24
235.713	2.12
236.096	3.02
236.479	2.23
236.862	3.71
237.245	3.6
237.628	4.17
238.011	3.69
238.394	3.41
238.777	2.48
239.16	4.27
239.543	3.23
239.925	2.34
240.308	2.49
240.691	3.27
241.073	1.32
241.456	1.42
241.838	3.56
242.221	1.96
242.603	2.63
242.986	2.8
243.368	2.46
243.75	2.43
244.133	2.64
244.515	2.38
244.897	2.77
245.279	1.86
245.661	3.16
246.043	3.4
246.425	3.81
246.807	2.34
247.189	2.28
247.571	2.86
247.953	2.45
248.335	2.49
248.717	2.65
249.098	2.82
249.48	2.44
249.862	2.78
250.243	2.49
250.625	2.87
251.006	3.8
251.388	3.75
251.769	2.97
252.151	3.54
252.532	2.87
252.913	2.98
253.295	2.79
253.676	2.14
254.057	2.73
254.438	2.9
254.819	1.91
255.2	3.38
255.581	2.72
255.962	1.97
256.343	2.6
256.724	2.21
257.105	2.94
257.486	3.5
257.867	3.21
258.247	2.45
258.628	1.63
259.009	3.41
259.389	2.79
259.77	3.32
260.15	3.17
260.531	2.71
260.911	2.46
261.292	2.68
261.672	2.29
262.052	2.64
262.432	2.84
262.813	2.78
263.193	2.86
263.573	2.51
263.953	3.13
264.333	2.33
264.713	3.12
265.093	2.26
265.473	2.43
265.853	3.02
266.233	3.17
266.612	2.79
266.992	2.85
267.372	3.36
267.752	2.44
268.131	1.97
268.511	2.41
268.89	2.26
269.27	2.51
269.649	2.18
270.029	2.82
270.408	2.9
270.787	3.14
271.167	2.13
271.546	2.37
271.925	2.96
272.304	2.27
272.683	2.42
273.062	2.28
273.441	2.52
273.82	2.32
274.199	2.45
274.578	2.26
274.957	2.86
275.336	3.12
275.715	2.69
276.093	2.38
276.472	2.75
276.851	2.66
277.229	2.41
277.608	2.51
277.986	2.69
278.365	2.58
278.743	2.27
279.122	2.75
279.5	3.02
279.878	3.13
280.257	2.8
280.635	2.07
281.013	2.33
281.391	2.04
281.769	2.74
282.147	2.38
282.525	1.75
282.903	2.15
283.281	2.87
283.659	2.71
284.037	2.6
284.415	2.39
284.792	2.66
285.17	2.47
285.548	2.46
285.925	1.82
286.303	2.58
286.68	2.66
287.058	2.6
287.435	2.38
287.813	2.68
288.19	2.54
288.567	2.38
288.945	2.59
289.322	3.03
289.699	2.09
290.076	3
290.453	2.46
290.83	2.19
291.207	2.32
291.584	2.82
291.961	2.5
292.338	2.84
292.715	2.86
293.092	2.85
293.469	2.69
293.845	2.6
294.222	2.7
294.599	3.18
294.975	2.95
295.352	2.76
295.728	3.21
296.105	3.05
296.481	2.75
296.858	2.94
297.234	3.35
297.61	2.72
297.986	3.29
298.363	3.27
298.739	3.09
299.115	3.09
299.491	3.24
299.867	3.07
300.243	3.17
300.619	3.06
300.995	3.34
301.371	4.05
301.746	3.48
302.122	3.31
302.498	3.56
302.874	3.57
303.249	3.52
303.625	3.55
304	3.46
304.376	3.36
304.751	3.81
305.127	3.53
305.502	3.98
305.878	4.42
306.253	3.88
306.628	3.96
307.003	4.39
307.378	3.65
307.754	4.24
308.129	3.9
308.504	4.52
308.879	4.06
309.254	4.4
309.629	4.05
310.003	4
310.378	4.74
310.753	4.76
311.128	4.98
311.502	4.63
311.877	4.27
312.252	4.8
312.626	4.69
313.001	4.59
313.375	4.74
313.75	5.13
314.124	4.74
314.498	5.14
314.873	5.5
315.247	5.53
315.621	5.62
315.995	5.59
316.369	5.55
316.743	5.19
317.117	5.93
317.491	5.48
317.865	5.23
318.239	6.28
318.613	6.25
318.987	5.77
319.361	5.88
319.734	6.12
320.108	5.88
320.482	6.86
320.855	5.96
321.229	5.93
321.602	5.98
321.976	6
322.349	7.11
322.723	7.19
323.096	6.13
323.469	6.74
323.843	7.11
324.216	6.65
324.589	7.42
324.962	7.06
325.335	6.35
325.708	6.8
326.081	6.92
326.454	6.82
326.827	6.9
327.2	7.76
327.573	8.1
327.945	7.11
328.318	7.06
328.691	7.81
329.063	7.85
329.436	7.46
329.809	7.19
330.181	7.02
330.553	6.95
330.926	7.85
331.298	7.77
331.671	7.67
332.043	7.21
332.415	8.09
332.787	7.75
333.159	7.99
333.532	8.23
333.904	8.42
334.276	7.55
334.648	7.87
335.02	7.78
335.391	8.91
335.763	8.07
336.135	8.12
336.507	8.27
336.879	8.62
337.25	7.92
337.622	8.86
337.993	8.47
338.365	8.49
338.736	8.4
339.108	8.66
339.479	8.4
339.851	8.69
340.222	8.66
340.593	8.98
340.964	8.67
341.336	8.86
341.707	8.6
342.078	8.33
342.449	8.6
342.82	8.93
343.191	9.07
343.562	8.85
343.933	9.22
344.303	8.93
344.674	9.28
345.045	9.02
345.416	9.42
345.786	9.31
346.157	8.72
346.527	9.46
346.898	8.81
347.268	8.98
347.639	9.21
348.009	9.62
348.38	9.38
348.75	9.67
349.12	9.91
349.49	9.81
349.861	9.78
350.231	9.69
350.601	9.83
350.971	9.74
351.341	9.82
351.711	9.66
352.081	10.09
352.45	10.14
352.82	9.91
353.19	10.06
353.56	9.85
353.929	10.29
354.299	9.83
354.669	10.26
355.038	10.07
355.408	10.33
355.777	10.25
356.147	10.27
356.516	10.04
356.885	10.62
357.254	10.64
357.624	9.98
357.993	10.51
358.362	10.62
358.731	10.4
359.1	10.33
359.469	10.18
359.838	10.48
360.207	10.93
360.576	10.55
360.945	10.78
361.314	10.79
361.682	10.96
362.051	11.08
362.42	10.79
362.788	11.15
363.157	10.89
363.525	10.89
363.894	10.89
364.262	11.17
364.631	11.29
364.999	11.3
365.367	11.48
365.735	11.32
366.104	11.31
366.472	11.29
366.84	11.06
367.208	11.11
367.576	11.69
367.944	12.12
368.312	11.64
368.68	11.61
369.048	11.63
369.416	11.53
369.783	12.01
370.151	12
370.519	12.21
370.886	11.93
371.254	12.12
371.621	12.1
371.989	11.86
372.356	12.11
372.724	12.38
373.091	12.37
373.458	12.27
373.826	12.16
374.193	12.37
374.56	12.25
374.927	12.3
375.294	12.4
375.661	12.93
376.028	12.08
376.395	12.61
376.762	12.41
377.129	12.53
377.496	12.55
377.863	13.03
378.229	12.76
378.596	12.59
378.963	12.72
379.329	13.13
379.696	12.8
380.062	13.1
380.429	12.98
380.795	13.1
381.161	13.28
381.528	13.07
381.894	13.05
382.26	13.18
382.626	13.33
382.993	13.16
383.359	13.48
383.725	13.25
384.091	13.36
384.457	13.34
384.823	13.12
385.188	13.53
385.554	13.5
385.92	13.27
386.286	13.67
386.651	13.87
387.017	13.66
387.383	13.56
387.748	13.48
388.114	13.46
388.479	13.45
388.845	13.68
389.21	13.76
389.575	13.91
389.94	13.7
390.306	13.77
390.671	14.04
391.036	14.01
391.401	14.08
391.766	14.18
392.131	14.09
392.496	14.13
392.861	14.15
393.226	14.21
393.591	14.17
393.956	13.98
394.32	14.43
394.685	14.48
395.05	14.48
395.414	14.55
395.779	14.75
396.143	14.46
396.508	14.66
396.872	14.69
397.236	14.48
397.601	14.7
397.965	14.59
398.329	14.74
398.694	15
399.058	14.91
399.422	14.97
399.786	14.78
400.15	14.71
400.514	14.82
400.878	14.69
401.242	14.9
401.605	15.03
401.969	15.13
402.333	15
402.697	14.96
403.06	15.33
403.424	15.02
403.787	15.25
404.151	14.98
404.514	15.26
404.878	15.23
405.241	15.11
405.604	15.09
405.968	15.2
406.331	15.07
406.694	15.23
407.057	15.47
407.42	15.39
407.783	15.67
408.146	15.48
408.509	15.51
408.872	15.57
409.235	15.51
409.598	15.52
409.961	15.44
410.323	15.76
410.686	15.94
411.049	15.43
411.411	15.58
411.774	15.36
412.136	15.58
412.499	15.51
412.861	15.81
413.223	15.63
413.586	15.74
413.948	15.96
414.31	16.04
414.672	16.02
415.035	16.05
415.397	15.91
415.759	15.99
416.121	15.74
416.483	16.1
416.845	16.38
417.206	16.15
417.568	16.12
417.93	16.13
418.292	15.92
418.653	16.17
419.015	16.13
419.377	16.25
419.738	16.23
420.1	16.16
420.461	16.35
420.822	16.29
421.184	16.23
421.545	16.27
421.906	16.26
422.267	16.17
422.629	16.3
422.99	16.23
423.351	16.3
423.712	16.42
424.073	16.54
424.434	16.72
424.795	16.76
425.155	16.84
425.516	16.73
425.877	16.65
426.238	16.75
426.598	16.63
426.959	16.81
427.32	16.95
427.68	17.04
428.041	17.34
428.401	17.09
428.761	17.46
429.122	17.33
429.482	17.5
429.842	17.62
430.202	17.77
430.563	17.92
430.923	17.9
431.283	17.76
431.643	17.86
432.003	18.01
432.363	17.78
432.722	18.15
433.082	18.08
433.442	18
433.802	18.05
434.161	18.14
434.521	18.1
434.881	18.06
435.24	18.14
435.6	18.26
435.959	18.41
436.319	18.34
436.678	18.35
437.037	18.41
437.396	18.51
437.756	18.6
438.115	18.59
438.474	18.56
438.833	18.67
439.192	18.73
439.551	18.7
439.91	18.83
440.269	18.77
440.628	18.76
440.987	18.92
441.345	18.81
441.704	18.73
442.063	18.85
442.421	18.84
442.78	18.71
443.138	18.91
443.497	18.92
443.855	19.04
444.214	19.03
444.572	19.33
444.93	19.26
445.288	19.35
445.647	19.53
446.005	19.46
446.363	19.51
446.721	19.46
447.079	19.31
447.437	19.37
447.795	19.33
448.153	19.25
448.51	19.33
448.868	19.36
449.226	19.51
449.584	19.59
449.941	19.65
450.299	19.79
450.656	20.1
451.014	19.93
451.371	20.01
451.729	20.09
452.086	20.42
452.443	20.2
452.801	20.18
453.158	20.35
453.515	20.28
453.872	20.11
454.229	20.42
454.586	20.25
454.943	20.58
455.3	20.54
455.657	20.54
456.014	20.5
456.371	20.82
456.727	20.85
457.084	20.63
457.441	20.92
457.797	21.02
458.154	20.96
458.51	20.99
458.867	20.78
459.223	21.01
459.58	21.07
459.936	20.96
460.292	21.05
460.648	20.99
461.005	20.75
461.361	20.75
461.717	20.76
462.073	20.86
462.429	20.88
462.785	20.97
463.141	21.17
463.496	21.3
463.852	21.34
464.208	21.52
464.564	21.58
464.919	21.52
465.275	21.67
465.631	21.66
465.986	21.8
466.342	21.83
466.697	21.8
467.052	21.67
467.408	21.86
467.763	21.9
468.118	22.02
468.473	22.03
468.829	22.08
469.184	21.96
469.539	22.01
469.894	22.13
470.249	22.29
470.603	22.02
470.958	22.21
471.313	22.61
471.668	22.39
472.023	22.22
472.377	22.5
472.732	22.52
473.086	22.5
473.441	22.57
473.795	22.55
474.15	22.67
474.504	22.68
474.859	22.55
475.213	22.56
475.567	22.81
475.921	22.87
476.275	22.9
476.63	23.02
476.984	22.81
477.338	23.04
477.692	22.87
478.045	22.97
478.399	22.99
478.753	22.93
479.107	22.96
479.461	23.08
479.814	23.05
480.168	23.16
480.521	23.08
480.875	23.12
481.228	23.27
481.582	23.22
481.935	23.15
482.289	23.19
482.642	23.3
482.995	23.15
483.348	23.09
483.701	23.12
484.055	23.1
484.408	23
484.761	22.72
485.114	22.38
485.466	22.33
485.819	22.43
486.172	22.5
486.525	22.65
486.878	22.91
487.23	22.84
487.583	23.11
487.936	23.17
488.288	23.13
488.641	22.96
488.993	23.05
489.345	22.92
489.698	23.08
490.05	23.08
490.402	23.13
490.754	23.36
491.107	23.44
491.459	23.67
491.811	23.84
492.163	24
492.515	23.78
492.866	23.57
493.218	23.35
493.57	23.35
493.922	23.42
494.274	23.65
494.625	23.88
494.977	24.17
495.328	24.33
495.68	24.38
496.031	24.5
496.383	24.72
496.734	24.75
497.086	24.72
497.437	24.64
497.788	24.7
498.139	24.65
498.49	24.54
498.842	24.59
499.193	24.8
499.544	24.87
499.894	24.87
500.245	24.91
500.596	24.93
500.947	24.95
501.298	25.14
501.648	25.21
501.999	25.31
502.35	25.17
502.7	25.27
503.051	25.27
503.401	25.44
503.752	25.36
504.102	25.51
504.452	25.52
504.803	25.53
505.153	25.46
505.503	25.54
505.853	25.61
506.203	25.65
506.553	25.53
506.903	25.64
507.253	25.72
507.603	25.83
507.953	25.76
508.303	25.82
508.652	25.89
509.002	25.88
509.352	25.87
509.701	25.88
510.051	25.86
510.4	25.78
510.75	25.83
511.099	25.78
511.449	26.11
511.798	25.91
512.147	25.77
512.496	25.9
512.846	26.25
513.195	26.18
513.544	26.14
513.893	25.97
514.242	25.91
514.591	26.19
514.939	26.32
515.288	26.18
515.637	26.3
515.986	26.34
516.334	26.45
516.683	26.5
517.032	26.64
517.38	26.51
517.729	26.45
518.077	26.72
518.426	26.57
518.774	26.7
519.122	26.56
519.47	26.56
519.819	26.38
520.167	26.32
520.515	26.41
520.863	26.5
521.211	26.56
521.559	26.56
521.907	26.6
522.255	26.85
522.602	26.93
522.95	27.02
523.298	27.05
523.645	26.94
523.993	27.01
524.341	27.28
524.688	27.05
525.036	27.26
525.383	27.24
525.73	27.07
526.078	27.18
526.425	27.03
526.772	26.99
527.119	26.79
527.466	26.87
527.814	26.89
528.161	26.94
528.508	27.03
528.854	26.96
529.201	26.98
529.548	26.72
529.895	26.51
530.242	26.43
530.588	26.56
530.935	26.68
531.282	26.68
531.628	26.84
531.975	27.03
532.321	27.06
532.667	27.21
533.014	27.41
533.36	27.51
533.706	27.48
534.052	27.33
534.399	27.35
534.745	27.13
535.091	27.11
535.437	27.19
535.783	27.28
536.129	27.48
536.474	27.64
536.82	27.71
537.166	27.76
537.512	27.93
537.857	27.89
538.203	27.78
538.549	27.93
538.894	27.8
539.239	27.78
539.585	28.23
539.93	28.29
540.276	28.36
540.621	28.47
540.966	28.64
541.311	28.44
541.656	28.45
542.001	28.24
542.346	28.21
542.691	27.76
543.036	27.77
543.381	27.81
543.726	27.88
544.071	27.91
544.415	27.96
544.76	28.12
545.105	28.22
545.449	28.4
545.794	28.55
546.138	28.46
546.483	28.66
546.827	28.93
547.171	28.86
547.516	28.88
547.86	28.91
548.204	28.85
548.548	28.69
548.892	28.81
549.236	28.93
549.58	29.32
549.924	29.17
550.268	29.28
550.612	29.44
550.956	29.65
551.3	29.37
551.643	29.49
551.987	29.77
552.33	29.83
552.674	29.78
553.017	29.76
553.361	29.9
553.704	29.74
554.048	29.73
554.391	29.74
554.734	29.55
555.077	29.9
555.42	29.9
555.764	29.83
556.107	30.03
556.45	30
556.793	30.06
557.135	30.07
557.478	29.89
557.821	30.14
558.164	30.22
558.507	30.34
558.849	30.36
559.192	30.43
559.534	30.27
559.877	30.36
560.219	30.35
560.562	30.42
560.904	30.5
561.246	30.38
561.589	30.58
561.931	30.45
562.273	30.43
562.615	30.37
562.957	30.61
563.299	30.77
563.641	30.68
563.983	30.61
564.325	30.73
564.667	30.75
565.008	30.97
565.35	31.02
565.692	30.64
566.033	30.9
566.375	31.1
566.716	30.87
567.058	30.93
567.399	31.08
567.741	30.98
568.082	30.83
568.423	30.82
568.764	30.96
569.105	30.84
569.447	30.98
569.788	30.97
570.129	31.06
570.47	31.1
570.811	31.12
571.151	31.19
571.492	31.31
571.833	31.35
572.174	31.43
572.514	31.29
572.855	31.43
573.195	31.17
573.536	31.43
573.876	31.33
574.217	31.15
574.557	31.34
574.898	31.59
575.238	31.44
575.578	31.33
575.918	31.51
576.258	31.49
576.598	31.49
576.938	31.68
577.278	31.7
577.618	31.5
577.958	31.78
578.298	31.76
578.638	32.04
578.977	31.84
579.317	31.95
579.657	32
579.996	32.08
580.336	32.09
580.675	32.24
581.014	32.3
581.354	32.12
581.693	32.34
582.032	32.09
582.372	32.38
582.711	32.29
583.05	32.48
583.389	32.38
583.728	32.59
584.067	32.56
584.406	32.44
584.745	32.55
585.083	32.11
585.422	32.85
585.761	32.61
586.1	32.3
586.438	32.78
586.777	32.72
587.115	32.49
587.454	32.7
587.792	32.53
588.13	32.82
588.469	32.87
588.807	32.78
589.145	33.02
589.483	33.01
589.821	32.77
590.159	32.82
590.497	33.05
590.835	32.61
591.173	33.18
591.511	33.25
591.849	32.99
592.187	33.12
592.524	32.97
592.862	33.16
593.2	33.15
593.537	33.07
593.875	33.39
594.212	33.35
594.55	33.46
594.887	33.29
595.224	33.1
595.561	33.17
595.899	33.16
596.236	33.28
596.573	33.22
596.91	33.29
597.247	33.49
597.584	33.46
597.921	33.44
598.258	33.35
598.594	33.18
598.931	33.28
599.268	33.16
599.604	33.3
599.941	33.4
600.277	33.26
600.614	33.5
600.95	33.44
601.287	33.74
601.623	34.05
601.959	33.65
602.296	33.72
602.632	33.81
602.968	33.9
603.304	34.19
603.64	33.98
603.976	34.24
604.312	33.98
604.648	34.08
604.984	33.94
605.319	34.02
605.655	33.98
605.991	33.76
606.326	33.98
606.662	33.7
606.998	33.6
607.333	33.85
607.668	34.01
608.004	34.13
608.339	33.96
608.674	34.22
609.01	34.3
609.345	34.17
609.68	34.3
610.015	34.2
610.35	34.03
610.685	34.22
611.02	34.38
611.355	34.35
611.689	34.28
612.024	34.19
612.359	34.14
612.694	34.36
613.028	34.64
613.363	34.76
613.697	34.69
614.032	34.64
614.366	34.43
614.7	34.48
615.035	34.74
615.369	34.71
615.703	34.69
616.037	34.99
616.371	34.7
616.705	35.1
617.039	34.75
617.373	34.8
617.707	34.93
618.041	34.93
618.375	34.69
618.709	34.99
619.042	35.17
619.376	34.77
619.71	35.2
620.043	35.41
620.377	34.99
620.71	35.15
621.043	35.19
621.377	35.08
621.71	34.81
622.043	35.29
622.376	35.35
622.709	34.94
623.043	34.8
623.376	35.38
623.709	35.09
624.041	35.25
624.374	35.45
624.707	35.77
625.04	35.33
625.373	35.16
625.705	35.2
626.038	35.55
626.37	35.54
626.703	35.89
627.035	35.77
627.368	35.32
627.7	35.15
628.032	35.55
628.365	35.53
628.697	35.58
629.029	35.95
629.361	35.64
629.693	35.63
630.025	35.84
630.357	35.93
630.689	35.65
631.021	35.5
631.353	35.88
631.684	35.63
632.016	35.72
632.348	35.83
632.679	35.86
633.011	36.09
633.342	36.01
633.674	35.88
634.005	36.08
634.336	36.27
634.668	35.93
634.999	36.02
635.33	36.17
635.661	36.04
635.992	36.26
636.323	36.13
636.654	36.19
636.985	36.52
637.316	36.3
637.647	36.46
637.977	36.49
638.308	36.64
638.639	36.23
638.969	36.1
639.3	36.61
639.63	36.65
639.961	36.4
640.291	36.35
640.622	36.45
640.952	36.78
641.282	36.07
641.612	36.45
641.943	36.64
642.273	36.68
642.603	36.44
642.933	37
643.263	36.79
643.592	36.47
643.922	36.43
644.252	36.95
644.582	37.08
644.911	36.63
645.241	36.88
645.571	36.93
645.9	36.94
646.23	37.14
646.559	36.49
646.888	37.1
647.218	36.47
647.547	36.33
647.876	37.39
648.205	37.21
648.534	36.67
648.863	36.81
649.192	37.03
649.521	37.02
649.85	37.48
650.179	36.63
650.508	37.39
650.837	37.55
651.165	36.74
651.494	37.24
651.822	36.91
652.151	36.84
652.479	37.05
652.808	37.08
653.136	37.51
653.465	37.15
653.793	37.15
654.121	37.11
654.449	37.16
654.777	37.49
655.105	37.24
655.433	37.53
655.761	37.49
656.089	37.21
656.417	37.26
656.745	37.61
657.073	37.49
657.4	37.29
657.728	37.76
658.056	37.46
658.383	37.27
658.711	37.22
659.038	37.58
659.365	37.33
659.693	37.9
660.02	38.44
660.347	37.89
660.674	38.02
661.001	37.96
661.329	37.26
661.656	37.74
661.982	37.82
662.309	37.68
662.636	37.87
662.963	37.82
663.29	37.56
663.616	37.53
663.943	37.96
664.27	37.8
664.596	37.75
664.923	38.52
665.249	38.26
665.576	38.24
665.902	37.96
666.228	38.56
666.554	37.34
666.881	37.33
667.207	37.84
667.533	38.26
667.859	38.24
668.185	37.97
668.511	38.35
668.837	38.48
669.162	38.46
669.488	37.93
669.814	37.83
670.139	37.84
670.465	37.95
670.791	37.95
671.116	38.38
