Data from 20-1_forehead_Reflection__1__71.txt Node

Date: Fri Nov 11 20:43:27 CST 2022
User: ToomeyLab
Spectrometer: FLMS14357
Trigger mode: 0
Integration Time (sec): 1.000000E-2
Scans to average: 100
Electric dark correction enabled: true
Nonlinearity correction enabled: false
Boxcar width: 0
XAxis mode: Wavelengths
Number of Pixels in Spectrum: 2048
>>>>>Begin Spectral Data<<<<<
189.047	206.27
189.435	206.27
189.823	206.27
190.211	472.31
190.599	-127.02
190.987	301.82
191.375	-43.38
191.763	-73.41
192.151	46.29
192.538	-150.06
192.926	-17.95
193.314	112.41
193.702	-51.15
194.089	-55.61
194.477	174.42
194.864	35.77
195.252	77.13
195.639	83.84
196.027	246.72
196.414	69.85
196.801	-64145.45
197.189	123.81
197.576	194.27
197.963	-51.84
198.351	-23.25
198.738	3.71
199.125	43.96
199.512	36.94
199.899	-56.13
200.286	24.07
200.673	32.46
201.06	34.29
201.447	49.82
201.833	19.39
202.22	23.58
202.607	26.54
202.994	13.33
203.38	13.22
203.767	16.13
204.154	25.72
204.54	58.35
204.927	37.29
205.313	19.14
205.699	-37.31
206.086	17.41
206.472	-11.25
206.858	42.89
207.245	46.65
207.631	16.27
208.017	37.35
208.403	34.1
208.789	19.98
209.175	32.51
209.561	41.27
209.947	24.53
210.333	52.8
210.719	30.16
211.105	72.88
211.491	54.71
211.876	44.64
212.262	29.26
212.648	13.92
213.034	-1.18
213.419	-11.69
213.805	-18.24
214.19	43.87
214.576	56
214.961	-20.12
215.346	-16.37
215.732	-6.6
216.117	23.56
216.502	18.53
216.888	16.42
217.273	25.53
217.658	13.55
218.043	30.71
218.428	19.58
218.813	0.4
219.198	15.24
219.583	4.61
219.968	-13.02
220.353	3.61
220.738	2.26
221.122	11.43
221.507	-5.77
221.892	-0.2
222.276	18.71
222.661	14.34
223.046	13.36
223.43	11.3
223.815	5
224.199	11.21
224.583	5.69
224.968	-12.51
225.352	9.74
225.736	9.85
226.121	-3.85
226.505	17.04
226.889	-4.25
227.273	2.14
227.657	1.89
228.041	3.58
228.425	7.87
228.809	4.45
229.193	5.15
229.577	5.64
229.961	5.36
230.344	4.34
230.728	3.72
231.112	2.85
231.495	3.78
231.879	3.03
232.263	3.51
232.646	3.43
233.03	3.18
233.413	3.95
233.797	2.9
234.18	3.69
234.563	4.09
234.946	4.44
235.33	3.6
235.713	3.27
236.096	3.82
236.479	5.13
236.862	4.99
237.245	4.03
237.628	4.95
238.011	4.05
238.394	3.16
238.777	5.1
239.16	4.57
239.543	4.21
239.925	4.97
240.308	4.67
240.691	4.79
241.073	3.2
241.456	3.5
241.838	4.83
242.221	4.15
242.603	5.21
242.986	3.43
243.368	4.9
243.75	4.42
244.133	4.33
244.515	4.15
244.897	4.27
245.279	4.87
245.661	4.83
246.043	5.32
246.425	5.56
246.807	4.42
247.189	4.65
247.571	4.49
247.953	4.44
248.335	4.56
248.717	4.51
249.098	4.81
249.48	4.54
249.862	4.95
250.243	4.6
250.625	4.97
251.006	5.6
251.388	4.66
251.769	4.81
252.151	5.69
252.532	3.88
252.913	4.71
253.295	5
253.676	4.51
254.057	4.8
254.438	4.71
254.819	4.12
255.2	6.3
255.581	5.14
255.962	4.56
256.343	5.62
256.724	5.86
257.105	4.76
257.486	4.95
257.867	5.51
258.247	3.66
258.628	4.52
259.009	4.49
259.389	4.8
259.77	4.79
260.15	5.13
260.531	4.95
260.911	4.83
261.292	4.64
261.672	4.35
262.052	4.56
262.432	4.76
262.813	4.58
263.193	5
263.573	4.92
263.953	5.19
264.333	4.7
264.713	5.08
265.093	4.86
265.473	4.02
265.853	4.74
266.233	5.23
266.612	4.83
266.992	4.17
267.372	5.48
267.752	4.32
268.131	4.01
268.511	4.1
268.89	4.46
269.27	4.61
269.649	4.27
270.029	4.78
270.408	4.44
270.787	4.64
271.167	3.85
271.546	4.5
271.925	4.51
272.304	4.3
272.683	4.26
273.062	4.03
273.441	4.67
273.82	4.21
274.199	4.35
274.578	4.08
274.957	4.51
275.336	4.57
275.715	4.63
276.093	4.1
276.472	4.27
276.851	3.88
277.229	4.31
277.608	4.22
277.986	4.24
278.365	3.89
278.743	4.03
279.122	4.45
279.5	4.61
279.878	4.52
280.257	4.24
280.635	4.7
281.013	4.44
281.391	4.26
281.769	4.55
282.147	4.49
282.525	4.18
282.903	4.26
283.281	4.26
283.659	4.52
284.037	5.08
284.415	4.27
284.792	4.57
285.17	4.77
285.548	4.32
285.925	4.47
286.303	4.59
286.68	4.84
287.058	4.9
287.435	4.38
287.813	4.37
288.19	4.32
288.567	4.67
288.945	4.65
289.322	5.04
289.699	4.25
290.076	5.2
290.453	4.73
290.83	4.33
291.207	4.89
291.584	4.92
291.961	4.86
292.338	5.13
292.715	4.81
293.092	5.22
293.469	5.27
293.845	5.44
294.222	5.09
294.599	5.5
294.975	5.46
295.352	5.26
295.728	5.45
296.105	5.41
296.481	5.08
296.858	5.22
297.234	5.36
297.61	5.61
297.986	5.71
298.363	5.92
298.739	5.69
299.115	5.95
299.491	6.08
299.867	5.82
300.243	6.06
300.619	6.01
300.995	6.53
301.371	7
301.746	6.57
302.122	6.66
302.498	6.64
302.874	6.54
303.249	6.66
303.625	6.83
304	6.29
304.376	7.08
304.751	6.71
305.127	6.65
305.502	7.24
305.878	7.36
306.253	6.74
306.628	7.09
307.003	7.23
307.378	6.93
307.754	7.54
308.129	6.98
308.504	7.35
308.879	7.41
309.254	7.9
309.629	7.84
310.003	7.88
310.378	8.24
310.753	8.15
311.128	8.19
311.502	8.14
311.877	7.98
312.252	8.28
312.626	7.92
313.001	8.14
313.375	8.22
313.75	8.38
314.124	8.05
314.498	8.44
314.873	8.36
315.247	9.24
315.621	8.79
315.995	8.9
316.369	9.3
316.743	9.2
317.117	9.69
317.491	9.19
317.865	8.8
318.239	9.45
318.613	10.16
318.987	9.71
319.361	9.24
319.734	9.61
320.108	9.64
320.482	10.09
320.855	9.53
321.229	9.31
321.602	9.93
321.976	9.71
322.349	10.34
322.723	10.45
323.096	10.45
323.469	9.84
323.843	10.47
324.216	9.94
324.589	10.38
324.962	10.75
325.335	10.43
325.708	10.88
326.081	10.59
326.454	10.56
326.827	10.43
327.2	11.12
327.573	11.38
327.945	10.96
328.318	10.75
328.691	11.11
329.063	11.17
329.436	10.89
329.809	10.59
330.181	10.37
330.553	10.34
330.926	10.81
331.298	11.35
331.671	11.28
332.043	10.99
332.415	11.84
332.787	12.01
333.159	11.81
333.532	11.55
333.904	11.8
334.276	11.48
334.648	11.87
335.02	11.83
335.391	12.3
335.763	11.74
336.135	11.67
336.507	11.64
336.879	11.93
337.25	11.89
337.622	12.54
337.993	12.36
338.365	12.38
338.736	12.5
339.108	12.48
339.479	12.4
339.851	12.62
340.222	12.33
340.593	12.6
340.964	12.34
341.336	12.69
341.707	12.57
342.078	12.25
342.449	12.89
342.82	12.59
343.191	12.79
343.562	12.54
343.933	12.69
344.303	12.42
344.674	12.78
345.045	12.57
345.416	12.84
345.786	12.3
346.157	12.41
346.527	13.1
346.898	12.53
347.268	12.82
347.639	13.23
348.009	12.88
348.38	13.82
348.75	13.09
349.12	13.77
349.49	13.75
349.861	13.29
350.231	13.44
350.601	13.36
350.971	13.14
351.341	13.63
351.711	13.08
352.081	13.66
352.45	13.78
352.82	13.63
353.19	13.85
353.56	13.7
353.929	13.71
354.299	14.12
354.669	14.26
355.038	13.71
355.408	14.24
355.777	14.29
356.147	14.1
356.516	14.1
356.885	14.26
357.254	13.87
357.624	14.09
357.993	14.19
358.362	14.31
358.731	13.98
359.1	14.07
359.469	13.83
359.838	14.16
360.207	14.64
360.576	14.57
360.945	14.76
361.314	14.46
361.682	14.58
362.051	14.42
362.42	14.6
362.788	14.84
363.157	14.63
363.525	14.48
363.894	14.67
364.262	14.9
364.631	14.99
364.999	14.76
365.367	14.85
365.735	14.77
366.104	14.88
366.472	14.91
366.84	14.52
367.208	14.93
367.576	15.33
367.944	15.28
368.312	15.18
368.68	15.16
369.048	15.39
369.416	15.58
369.783	15.5
370.151	15.6
370.519	15.41
370.886	15.44
371.254	15.65
371.621	15.44
371.989	15.52
372.356	15.86
372.724	15.97
373.091	15.7
373.458	15.58
373.826	15.52
374.193	15.69
374.56	15.77
374.927	15.8
375.294	16.03
375.661	15.98
376.028	15.69
376.395	16.13
376.762	16.21
377.129	15.9
377.496	16.17
377.863	16.53
378.229	16.3
378.596	15.94
378.963	16.2
379.329	16.47
379.696	16.41
380.062	16.18
380.429	16.29
380.795	16.78
381.161	16.5
381.528	16.36
381.894	16.59
382.26	16.67
382.626	16.82
382.993	16.31
383.359	16.54
383.725	16.68
384.091	16.68
384.457	16.86
384.823	16.92
385.188	16.74
385.554	16.62
385.92	16.82
386.286	16.77
386.651	17.07
387.017	16.78
387.383	17.14
387.748	16.64
388.114	16.75
388.479	16.9
388.845	17.03
389.21	17.02
389.575	17.28
389.94	17.23
390.306	17.42
390.671	17.39
391.036	17.17
391.401	17.28
391.766	17.47
392.131	17.41
392.496	17.33
392.861	17.31
393.226	17.36
393.591	17.52
393.956	17.46
394.32	17.71
394.685	17.45
395.05	17.75
395.414	17.66
395.779	17.52
396.143	17.76
396.508	17.91
396.872	17.77
397.236	17.62
397.601	17.8
397.965	17.93
398.329	18.26
398.694	17.98
399.058	18.01
399.422	17.8
399.786	17.97
400.15	18.1
400.514	18.31
400.878	18.26
401.242	18.11
401.605	18.3
401.969	18.33
402.333	18.14
402.697	18.3
403.06	18.34
403.424	17.99
403.787	18.57
404.151	18.5
404.514	18.38
404.878	18.2
405.241	18.25
405.604	18.48
405.968	18.39
406.331	18.14
406.694	18.51
407.057	18.6
407.42	18.67
407.783	18.54
408.146	18.92
408.509	18.65
408.872	18.79
409.235	18.79
409.598	18.73
409.961	18.97
410.323	18.83
410.686	18.98
411.049	18.91
411.411	18.87
411.774	18.93
412.136	18.93
412.499	19
412.861	18.88
413.223	19
413.586	19.02
413.948	19.32
414.31	19.23
414.672	19.19
415.035	19.19
415.397	19.13
415.759	19.03
416.121	19.14
416.483	19.22
416.845	19.23
417.206	18.91
417.568	19.22
417.93	19.43
418.292	19.23
418.653	19.19
419.015	19.43
419.377	19.31
419.738	19.38
420.1	19.41
420.461	19.21
420.822	19.41
421.184	19.32
421.545	19.22
421.906	19.25
422.267	19.16
422.629	19.27
422.99	19.39
423.351	19.23
423.712	19.44
424.073	19.41
424.434	19.58
424.795	19.65
425.155	19.58
425.516	19.49
425.877	19.58
426.238	19.63
426.598	19.54
426.959	19.66
427.32	19.83
427.68	19.9
428.041	20.03
428.401	20
428.761	20.07
429.122	20.12
429.482	20.29
429.842	20.28
430.202	20.31
430.563	20.62
430.923	20.34
431.283	20.41
431.643	20.4
432.003	20.67
432.363	20.38
432.722	20.63
433.082	20.5
433.442	20.71
433.802	20.73
434.161	20.47
434.521	20.47
434.881	20.74
435.24	20.61
435.6	20.65
435.959	20.86
436.319	20.65
436.678	20.67
437.037	20.94
437.396	20.84
437.756	20.7
438.115	20.78
438.474	21
438.833	20.88
439.192	20.98
439.551	20.94
439.91	21.06
440.269	20.89
440.628	21.07
440.987	20.98
441.345	21.15
441.704	21.05
442.063	20.98
442.421	21.05
442.78	20.97
443.138	21.04
443.497	21.12
443.855	21.21
444.214	21.2
444.572	21.5
444.93	21.34
445.288	21.44
445.647	21.53
446.005	21.52
446.363	21.64
446.721	21.57
447.079	21.5
447.437	21.33
447.795	21.36
448.153	21.23
448.51	21.32
448.868	21.52
449.226	21.53
449.584	21.53
449.941	21.68
450.299	21.64
450.656	21.89
451.014	21.97
451.371	21.99
451.729	21.97
452.086	22.22
452.443	22.09
452.801	22.21
453.158	22.11
453.515	22.13
453.872	22.1
454.229	22.2
454.586	22.33
454.943	22.16
455.3	22.29
455.657	22.37
456.014	22.59
456.371	22.39
456.727	22.6
457.084	22.36
457.441	22.64
457.797	22.59
458.154	22.52
458.51	22.66
458.867	22.46
459.223	22.66
459.58	22.57
459.936	22.32
460.292	22.84
460.648	22.73
461.005	22.49
461.361	22.48
461.717	22.32
462.073	22.61
462.429	22.58
462.785	22.72
463.141	22.64
463.496	22.62
463.852	22.97
464.208	23.16
464.564	23
464.919	23.04
465.275	23.1
465.631	23.15
465.986	23.41
466.342	23.21
466.697	23.21
467.052	23.39
467.408	23.34
467.763	23.22
468.118	23.29
468.473	23.35
468.829	23.66
469.184	23.41
469.539	23.52
469.894	23.59
470.249	23.46
470.603	23.44
470.958	23.59
471.313	23.59
471.668	23.83
472.023	23.79
472.377	23.95
472.732	23.58
473.086	23.94
473.441	23.88
473.795	23.85
474.15	23.93
474.504	23.86
474.859	23.83
475.213	24.11
475.567	24.04
475.921	24
476.275	24.08
476.63	24.2
476.984	24.09
477.338	24.03
477.692	24.05
478.045	24.2
478.399	24.2
478.753	24.05
479.107	24.33
479.461	24.22
479.814	24.07
480.168	24.16
480.521	24.21
480.875	24.27
481.228	24.26
481.582	24.24
481.935	24.31
482.289	24.26
482.642	24.22
482.995	24.29
483.348	24.18
483.701	24.14
484.055	23.98
484.408	24.06
484.761	23.73
485.114	23.51
485.466	23.39
485.819	23.52
486.172	23.59
486.525	23.72
486.878	23.89
487.23	23.94
487.583	23.97
487.936	24.11
488.288	24.07
488.641	23.95
488.993	23.88
489.345	23.94
489.698	24
490.05	24.01
490.402	24.12
490.754	24.22
491.107	24.36
491.459	24.51
491.811	24.71
492.163	24.74
492.515	24.57
492.866	24.38
493.218	24.25
493.57	24.24
493.922	24.36
494.274	24.57
494.625	24.7
494.977	24.97
495.328	24.97
495.68	25.21
496.031	25.11
496.383	25.45
496.734	25.36
497.086	25.53
497.437	25.45
497.788	25.23
498.139	25.23
498.49	25.1
498.842	25.1
499.193	25.32
499.544	25.38
499.894	25.25
500.245	25.54
500.596	25.4
500.947	25.61
501.298	25.71
501.648	25.68
501.999	25.9
502.35	25.91
502.7	25.86
503.051	25.97
503.401	25.96
503.752	25.9
504.102	26.04
504.452	26.15
504.803	26.07
505.153	26.04
505.503	26.15
505.853	26
506.203	26.16
506.553	25.92
506.903	26.04
507.253	26.14
507.603	26.26
507.953	26.14
508.303	26.26
508.652	26.15
509.002	26.15
509.352	26.24
509.701	26.5
510.051	26.22
510.4	26.32
510.75	26.21
511.099	26.16
511.449	26.41
511.798	26.25
512.147	26.26
512.496	26.28
512.846	26.7
513.195	26.32
513.544	26.32
513.893	26.29
514.242	26.56
514.591	26.65
514.939	26.59
515.288	26.44
515.637	26.69
515.986	26.87
516.334	26.91
516.683	26.7
517.032	26.91
517.38	26.79
517.729	26.83
518.077	26.9
518.426	26.89
518.774	26.89
519.122	26.83
519.47	26.9
519.819	26.69
520.167	26.59
520.515	26.65
520.863	26.69
521.211	26.85
521.559	26.77
521.907	27.1
522.255	26.97
522.602	27.16
522.95	27.28
523.298	27.26
523.645	27.39
523.993	27.32
524.341	27.48
524.688	27.44
525.036	27.51
525.383	27.35
525.73	27.29
526.078	27.34
526.425	27.36
526.772	27.16
527.119	27.28
527.466	27.08
527.814	27.22
528.161	27.23
528.508	27.3
528.854	27.21
529.201	27.08
529.548	26.94
529.895	26.76
530.242	26.76
530.588	26.94
530.935	26.99
531.282	26.98
531.628	27.16
531.975	27.35
532.321	27.34
532.667	27.5
533.014	27.54
533.36	27.65
533.706	27.67
534.052	27.43
534.399	27.5
534.745	27.28
535.091	27.22
535.437	27.39
535.783	27.54
536.129	27.59
536.474	27.74
536.82	27.88
537.166	27.95
537.512	28
537.857	27.95
538.203	27.81
538.549	27.83
538.894	28.02
539.239	28.08
539.585	28.08
539.93	28.22
540.276	28.41
540.621	28.53
540.966	28.67
541.311	28.52
541.656	28.5
542.001	28.42
542.346	28.13
542.691	27.89
543.036	27.75
543.381	27.87
543.726	27.86
544.071	27.95
544.415	28.07
544.76	28.23
545.105	28.21
545.449	28.36
545.794	28.46
546.138	28.52
546.483	28.7
546.827	28.84
547.171	28.66
547.516	28.68
547.86	28.76
548.204	28.75
548.548	28.63
548.892	28.86
549.236	28.8
549.58	29.11
549.924	29.23
550.268	29.25
550.612	29.29
550.956	29.49
551.3	29.37
551.643	29.54
551.987	29.71
552.33	29.59
552.674	29.39
553.017	29.69
553.361	29.37
553.704	29.68
554.048	29.54
554.391	29.42
554.734	29.41
555.077	29.66
555.42	29.56
555.764	29.76
556.107	29.63
556.45	29.65
556.793	29.87
557.135	29.83
557.478	29.9
557.821	30.05
558.164	30.19
558.507	30.13
558.849	30.03
559.192	29.93
559.534	29.81
559.877	29.89
560.219	30.12
560.562	30
560.904	30.1
561.246	30.01
561.589	30.16
561.931	29.94
562.273	30.07
562.615	30.04
562.957	30.43
563.299	30.4
563.641	29.99
563.983	30.17
564.325	30.35
564.667	30.36
565.008	30.38
565.35	30.37
565.692	30.33
566.033	30.5
566.375	30.62
566.716	30.54
567.058	30.59
567.399	30.71
567.741	30.52
568.082	30.31
568.423	30.46
568.764	30.61
569.105	30.57
569.447	30.67
569.788	30.67
570.129	30.67
570.47	30.7
570.811	30.61
571.151	30.96
571.492	30.94
571.833	30.64
572.174	30.81
572.514	31.02
572.855	30.91
573.195	30.57
573.536	30.81
573.876	30.67
574.217	30.94
574.557	31.04
574.898	30.88
575.238	31.06
575.578	30.93
575.918	31.03
576.258	31.01
576.598	31.12
576.938	31.07
577.278	31.1
577.618	30.87
577.958	31.16
578.298	31.18
578.638	31.21
578.977	31.39
579.317	31.39
579.657	31.62
579.996	31.52
580.336	31.51
580.675	31.53
581.014	31.67
581.354	31.38
581.693	31.64
582.032	31.41
582.372	31.72
582.711	31.83
583.05	31.68
583.389	31.73
583.728	31.79
584.067	31.48
584.406	31.84
584.745	32.1
585.083	31.62
585.422	31.68
585.761	31.82
586.1	31.84
586.438	32.01
586.777	32.08
587.115	31.98
587.454	31.66
587.792	31.69
588.13	32.07
588.469	32.13
588.807	32.22
589.145	32.02
589.483	32.4
589.821	32.08
590.159	32.06
590.497	32.17
590.835	32.14
591.173	32.36
591.511	32.34
591.849	32.21
592.187	32.17
592.524	32.31
592.862	32.04
593.2	32.37
593.537	32.24
593.875	32.3
594.212	32.42
594.55	32.59
594.887	32.46
595.224	32.26
595.561	32.36
595.899	32.31
596.236	32.46
596.573	32.4
596.91	32.62
597.247	32.46
597.584	32.42
597.921	32.35
598.258	32.13
598.594	32.2
598.931	32.27
599.268	32.28
599.604	32.34
599.941	32.57
600.277	32.56
600.614	32.92
600.95	32.27
601.287	32.91
601.623	33.09
601.959	32.96
602.296	32.62
602.632	32.7
602.968	32.7
603.304	33.05
603.64	33.08
603.976	32.94
604.312	32.96
604.648	32.92
604.984	32.96
605.319	32.9
605.655	32.96
605.991	32.6
606.326	32.98
606.662	32.81
606.998	32.7
607.333	32.86
607.668	32.92
608.004	32.99
608.339	33.16
608.674	33.25
609.01	33.37
609.345	32.97
609.68	32.98
610.015	33.05
610.35	33.08
610.685	33.05
611.02	33.2
611.355	32.96
611.689	33.24
612.024	32.92
612.359	33.2
612.694	33.2
613.028	33.54
613.363	33.49
613.697	33.88
614.032	33.57
614.366	33.35
614.7	33.49
615.035	33.48
615.369	33.44
615.703	33.59
616.037	33.62
616.371	33.58
616.705	34.21
617.039	34.13
617.373	33.35
617.707	33.82
618.041	34.02
618.375	33.53
618.709	33.73
619.042	33.94
619.376	33.83
619.71	33.84
620.043	34.04
620.377	34.07
620.71	33.54
621.043	33.94
621.377	33.77
621.71	33.64
622.043	33.7
622.376	33.78
622.709	33.78
623.043	33.81
623.376	34.22
623.709	33.93
624.041	33.88
624.374	34.26
624.707	34.29
625.04	33.96
625.373	33.8
625.705	33.92
626.038	34.22
626.37	34.15
626.703	34.13
627.035	34.38
627.368	34
627.7	33.89
628.032	34.23
628.365	34.64
628.697	34.36
629.029	34.26
629.361	33.94
629.693	34.56
630.025	34.53
630.357	34.41
630.689	34.25
631.021	34.29
631.353	34.21
631.684	34.45
632.016	34.05
632.348	34.29
632.679	34.44
633.011	34.44
633.342	34.86
633.674	34.34
634.005	34.73
634.336	34.71
634.668	34.85
634.999	34.57
635.33	34.5
635.661	34.67
635.992	34.73
636.323	34.57
636.654	34.52
636.985	34.54
637.316	34.82
637.647	34.86
637.977	34.65
638.308	35
638.639	34.99
638.969	34.73
639.3	34.95
639.63	34.94
639.961	34.35
640.291	35.05
640.622	34.77
640.952	34.61
641.282	34.94
641.612	34.79
641.943	35.37
642.273	35.07
642.603	35.13
642.933	35.55
643.263	35.14
643.592	34.87
643.922	35.24
644.252	35.18
644.582	35.05
644.911	34.66
645.241	34.86
645.571	34.72
645.9	35.37
646.23	35.64
646.559	35.4
646.888	35.52
647.218	34.99
647.547	35.1
647.876	35.04
648.205	35.01
648.534	34.59
648.863	35.38
649.192	35.51
649.521	35.38
649.85	35.58
650.179	34.91
650.508	35.71
650.837	35.84
651.165	35.15
651.494	35.66
651.822	35.53
652.151	35.42
652.479	35.44
652.808	35.53
653.136	35.37
653.465	34.98
653.793	35.23
654.121	35.4
654.449	35.29
654.777	35.93
655.105	35.46
655.433	35.28
655.761	35.57
656.089	35.55
656.417	34.8
656.745	35.46
657.073	35.64
657.4	35.42
657.728	35.37
658.056	36.14
658.383	35.5
658.711	34.73
659.038	35.85
659.365	35.08
659.693	36.14
660.02	36.33
660.347	35.91
660.674	34.97
661.001	35.83
661.329	35.54
661.656	35.23
661.982	35.8
662.309	35.67
662.636	35.82
662.963	36.03
663.29	35.3
663.616	35.94
663.943	36.01
664.27	35.93
664.596	36.24
664.923	36
665.249	36.5
665.576	36.11
665.902	36.35
666.228	36.16
666.554	35.87
666.881	36.14
667.207	36.26
667.533	36.24
667.859	36.11
668.185	35.96
668.511	35.9
668.837	35.6
669.162	36.44
669.488	36.05
669.814	35.89
