Data from 20-1_forehead_Reflection__4__74.txt Node

Date: Fri Nov 11 20:44:05 CST 2022
User: ToomeyLab
Spectrometer: FLMS14357
Trigger mode: 0
Integration Time (sec): 1.000000E-2
Scans to average: 100
Electric dark correction enabled: true
Nonlinearity correction enabled: false
Boxcar width: 0
XAxis mode: Wavelengths
Number of Pixels in Spectrum: 2048
>>>>>Begin Spectral Data<<<<<
189.047	-174.22
189.435	-174.22
189.823	-174.22
190.211	-157.21
190.599	204.67
190.987	88.81
191.375	51.51
191.763	55.85
192.151	677.74
192.538	20.34
192.926	-35.32
193.314	202.55
193.702	-62.83
194.089	-360.82
194.477	53.08
194.864	46.14
195.252	101.88
195.639	1510.92
196.027	-306.19
196.414	100.68
196.801	-21127.27
197.189	14.82
197.576	121.55
197.963	1.87
198.351	-11.66
198.738	-18.83
199.125	34.17
199.512	11.01
199.899	-54.45
200.286	12.08
200.673	40.95
201.06	32.24
201.447	39.96
201.833	28.68
202.22	-19.69
202.607	32.77
202.994	33.85
203.38	67.24
203.767	47.76
204.154	35.29
204.54	11.76
204.927	54.19
205.313	11.62
205.699	15.19
206.086	40.37
206.472	36.48
206.858	49.72
207.245	42.31
207.631	12.23
208.017	25.62
208.403	11.6
208.789	14.14
209.175	40.64
209.561	53.5
209.947	28.24
210.333	12.19
210.719	15.35
211.105	66.18
211.491	29.91
211.876	22.08
212.262	21.95
212.648	15.32
213.034	27.64
213.419	-6.87
213.805	25.69
214.19	15.41
214.576	55.35
214.961	0.92
215.346	-0.13
215.732	4.16
216.117	52.46
216.502	19.37
216.888	-10.46
217.273	1.67
217.658	-17.42
218.043	22.79
218.428	14.46
218.813	30.73
219.198	21.93
219.583	33.44
219.968	16.04
220.353	8.16
220.738	12.67
221.122	17.61
221.507	-7.71
221.892	5
222.276	25.15
222.661	27.8
223.046	-1.85
223.43	14.3
223.815	-2.91
224.199	10.24
224.583	8.17
224.968	-1.63
225.352	8.35
225.736	1.29
226.121	1.91
226.505	9.42
226.889	1.44
227.273	7.74
227.657	-0.35
228.041	6.54
228.425	2.37
228.809	1.75
229.193	3.75
229.577	5.26
229.961	4.24
230.344	3.76
230.728	2.95
231.112	1.93
231.495	4.17
231.879	3.51
232.263	1.23
232.646	1.87
233.03	4.02
233.413	4.59
233.797	3.67
234.18	3.4
234.563	4.15
234.946	4.46
235.33	3.7
235.713	3.13
236.096	2.42
236.479	4.05
236.862	3.71
237.245	4.26
237.628	4.89
238.011	3.78
238.394	4.58
238.777	2.86
239.16	5.87
239.543	3.05
239.925	4.39
240.308	3.19
240.691	4.71
241.073	3.63
241.456	1.93
241.838	3.68
242.221	4.29
242.603	3.95
242.986	3.11
243.368	3.94
243.75	3.74
244.133	3.63
244.515	3.38
244.897	4.36
245.279	3.58
245.661	3.82
246.043	4.12
246.425	4.83
246.807	3.72
247.189	3.83
247.571	3.98
247.953	3.83
248.335	4.18
248.717	4.19
249.098	4.24
249.48	3.8
249.862	4.42
250.243	4.28
250.625	4.47
251.006	5.47
251.388	4.57
251.769	4.87
252.151	5.42
252.532	5.02
252.913	4.85
253.295	4.16
253.676	3.88
254.057	3.92
254.438	4.36
254.819	3.45
255.2	4.53
255.581	5.01
255.962	4.43
256.343	3.71
256.724	4.44
257.105	5.29
257.486	4.72
257.867	5.07
258.247	4.18
258.628	3.81
259.009	4.25
259.389	4.54
259.77	4.65
260.15	4.11
260.531	4.09
260.911	4.26
261.292	4.17
261.672	3.91
262.052	4.07
262.432	4.36
262.813	4.49
263.193	3.86
263.573	3.9
263.953	4.81
264.333	4.22
264.713	4.05
265.093	4.57
265.473	3.82
265.853	4.38
266.233	3.98
266.612	3.46
266.992	3.85
267.372	4.53
267.752	3.98
268.131	3.71
268.511	3.71
268.89	3.85
269.27	3.93
269.649	3.9
270.029	3.94
270.408	4.39
270.787	3.37
271.167	3.77
271.546	4.06
271.925	3.9
272.304	4.02
272.683	3.88
273.062	3.71
273.441	4.29
273.82	3.78
274.199	3.85
274.578	3.52
274.957	3.55
275.336	4.16
275.715	4.18
276.093	3.5
276.472	4.05
276.851	4.05
277.229	3.56
277.608	3.88
277.986	3.96
278.365	3.54
278.743	4.1
279.122	4.27
279.5	3.93
279.878	4.26
280.257	4.19
280.635	3.71
281.013	4.31
281.391	3.82
281.769	4.26
282.147	3.87
282.525	3.53
282.903	3.93
283.281	4.19
283.659	3.91
284.037	3.92
284.415	3.74
284.792	3.65
285.17	4.38
285.548	3.96
285.925	3.46
286.303	3.89
286.68	3.89
287.058	3.91
287.435	3.72
287.813	4.02
288.19	3.77
288.567	3.86
288.945	3.78
289.322	4.41
289.699	3.74
290.076	4.47
290.453	4.36
290.83	3.87
291.207	4.19
291.584	4.77
291.961	4.46
292.338	4.44
292.715	4.27
293.092	4.64
293.469	4.43
293.845	4.44
294.222	5.19
294.599	5.14
294.975	5.08
295.352	5.36
295.728	5.02
296.105	5.03
296.481	4.84
296.858	4.75
297.234	5.51
297.61	5.3
297.986	5.25
298.363	5.49
298.739	5.4
299.115	5.57
299.491	5.5
299.867	5.35
300.243	5.36
300.619	5.49
300.995	5.58
301.371	6.24
301.746	6.25
302.122	6.13
302.498	5.99
302.874	6.12
303.249	5.88
303.625	5.91
304	6.06
304.376	6.02
304.751	5.87
305.127	6.15
305.502	6.25
305.878	6.59
306.253	6.65
306.628	6.39
307.003	6.74
307.378	6.34
307.754	7.23
308.129	6.87
308.504	6.97
308.879	6.86
309.254	7.35
309.629	7
310.003	6.66
310.378	6.93
310.753	7.18
311.128	7.42
311.502	7.5
311.877	7.5
312.252	7.6
312.626	7.41
313.001	7.37
313.375	7.65
313.75	7.31
314.124	7.19
314.498	7.62
314.873	7.57
315.247	8.13
315.621	8.25
315.995	8.1
316.369	8.27
316.743	8.12
317.117	8.22
317.491	8.48
317.865	7.95
318.239	8.79
318.613	8.96
318.987	8.31
319.361	8.07
319.734	8.7
320.108	8.76
320.482	9.09
320.855	8.57
321.229	9.09
321.602	8.64
321.976	8.49
322.349	9.22
322.723	8.97
323.096	8.82
323.469	8.68
323.843	9.68
324.216	9.07
324.589	9.3
324.962	9.86
325.335	9.3
325.708	9.51
326.081	9.42
326.454	9.6
326.827	9.38
327.2	9.89
327.573	9.88
327.945	9.37
328.318	9.17
328.691	9.92
329.063	10.01
329.436	9.46
329.809	9.49
330.181	9.33
330.553	9.58
330.926	10.12
331.298	9.89
331.671	9.58
332.043	9.15
332.415	10.14
332.787	10
333.159	10.35
333.532	10.02
333.904	10.56
334.276	10.06
334.648	10.42
335.02	10.4
335.391	10.27
335.763	10.23
336.135	10.34
336.507	10.23
336.879	10.22
337.25	10.56
337.622	10.85
337.993	10.63
338.365	10.64
338.736	10.94
339.108	10.59
339.479	10.43
339.851	10.71
340.222	10.78
340.593	11.39
340.964	11.02
341.336	11.21
341.707	10.9
342.078	10.27
342.449	10.98
342.82	10.84
343.191	10.91
343.562	11.13
343.933	10.86
344.303	11.02
344.674	11.2
345.045	11.02
345.416	11.32
345.786	10.83
346.157	10.86
346.527	11.08
346.898	11.05
347.268	11.08
347.639	11.42
348.009	11.12
348.38	11.25
348.75	11.49
349.12	11.75
349.49	11.94
349.861	11.46
350.231	11.55
350.601	11.53
350.971	11.69
351.341	11.69
351.711	11.63
352.081	11.62
352.45	11.83
352.82	11.49
353.19	12.27
353.56	11.8
353.929	11.86
354.299	11.99
354.669	12.06
355.038	11.69
355.408	11.99
355.777	12.01
356.147	11.94
356.516	12.36
356.885	12.38
357.254	11.64
357.624	11.61
357.993	12.11
358.362	12.3
358.731	11.68
359.1	12.06
359.469	11.75
359.838	12.05
360.207	12.26
360.576	12.5
360.945	12.49
361.314	12
361.682	12.27
362.051	12.27
362.42	12.41
362.788	12.56
363.157	12.28
363.525	12.22
363.894	12.18
364.262	12.45
364.631	12.65
364.999	12.67
365.367	12.43
365.735	12.5
366.104	12.44
366.472	12.44
366.84	12.57
367.208	12.51
367.576	13.36
367.944	13.06
368.312	12.66
368.68	12.56
369.048	12.94
369.416	12.77
369.783	12.93
370.151	13.05
370.519	12.86
370.886	12.75
371.254	13.38
371.621	12.79
371.989	12.9
372.356	13.63
372.724	13.55
373.091	13.34
373.458	13.33
373.826	13.07
374.193	13.1
374.56	13.09
374.927	13.04
375.294	13.26
375.661	13.92
376.028	13.01
376.395	13.61
376.762	13.54
377.129	13.51
377.496	13.8
377.863	13.77
378.229	13.73
378.596	13.5
378.963	13.55
379.329	14.03
379.696	13.59
380.062	13.52
380.429	13.62
380.795	14.11
381.161	13.67
381.528	13.77
381.894	13.87
382.26	14.12
382.626	13.93
382.993	14.11
383.359	13.82
383.725	13.72
384.091	13.93
384.457	14
384.823	13.84
385.188	14.12
385.554	13.99
385.92	13.81
386.286	14.35
386.651	14.14
387.017	14.25
387.383	14.28
387.748	14.11
388.114	14.17
388.479	13.89
388.845	14.27
389.21	14.21
389.575	14.57
389.94	14.35
390.306	14.31
390.671	14.55
391.036	14.23
391.401	14.37
391.766	14.68
392.131	14.22
392.496	14.58
392.861	14.44
393.226	14.39
393.591	14.48
393.956	14.75
394.32	14.61
394.685	14.59
395.05	14.73
395.414	14.61
395.779	14.78
396.143	14.64
396.508	14.57
396.872	14.62
397.236	14.74
397.601	14.79
397.965	14.95
398.329	15
398.694	15.14
399.058	15.09
399.422	14.94
399.786	14.88
400.15	14.91
400.514	15.08
400.878	14.98
401.242	15.15
401.605	15.35
401.969	15.05
402.333	14.96
402.697	15.34
403.06	15.15
403.424	14.93
403.787	15.2
404.151	15.29
404.514	15.33
404.878	15.35
405.241	15.1
405.604	15.41
405.968	15.33
406.331	15.03
406.694	15.35
407.057	15.26
407.42	15.4
407.783	15.29
408.146	15.61
408.509	15.45
408.872	15.56
409.235	15.56
409.598	15.57
409.961	15.41
410.323	15.7
410.686	15.45
411.049	15.25
411.411	15.37
411.774	15.68
412.136	15.57
412.499	15.74
412.861	15.76
413.223	15.68
413.586	15.58
413.948	15.94
414.31	15.78
414.672	16
415.035	15.92
415.397	16.05
415.759	15.78
416.121	15.86
416.483	15.73
416.845	15.82
417.206	15.84
417.568	15.77
417.93	15.78
418.292	15.61
418.653	15.94
419.015	15.9
419.377	15.72
419.738	15.87
420.1	15.69
420.461	15.84
420.822	15.83
421.184	15.98
421.545	15.94
421.906	15.97
422.267	15.75
422.629	15.77
422.99	15.74
423.351	15.76
423.712	15.9
424.073	16.03
424.434	16.14
424.795	16.16
425.155	16.07
425.516	16.1
425.877	16.08
426.238	16.03
426.598	16.08
426.959	16.12
427.32	16.2
427.68	16.36
428.041	16.53
428.401	16.41
428.761	16.56
429.122	16.51
429.482	16.76
429.842	16.58
430.202	16.77
430.563	16.8
430.923	16.82
431.283	16.74
431.643	16.86
432.003	16.85
432.363	16.93
432.722	16.99
433.082	17.02
433.442	16.97
433.802	16.9
434.161	16.88
434.521	16.84
434.881	16.86
435.24	17.01
435.6	17.05
435.959	17.09
436.319	16.94
436.678	17.17
437.037	17.15
437.396	17.24
437.756	17.18
438.115	17.21
438.474	17.2
438.833	17.25
439.192	17.35
439.551	17.44
439.91	17.32
440.269	17.44
440.628	17.54
440.987	17.48
441.345	17.33
441.704	17.29
442.063	17.35
442.421	17.42
442.78	17.3
443.138	17.5
443.497	17.36
443.855	17.59
444.214	17.55
444.572	17.87
444.93	17.68
445.288	17.58
445.647	17.97
446.005	17.75
446.363	17.77
446.721	17.65
447.079	17.68
447.437	17.56
447.795	17.68
448.153	17.46
448.51	17.55
448.868	17.53
449.226	17.76
449.584	17.68
449.941	17.98
450.299	18.03
450.656	18.06
451.014	18.19
451.371	18.11
451.729	18.25
452.086	18.24
452.443	18.26
452.801	18.18
453.158	18.29
453.515	18.37
453.872	18.33
454.229	18.35
454.586	18.35
454.943	18.48
455.3	18.55
455.657	18.5
456.014	18.61
456.371	18.62
456.727	18.6
457.084	18.44
457.441	18.86
457.797	18.5
458.154	18.66
458.51	18.63
458.867	18.58
459.223	18.84
459.58	18.71
459.936	18.88
460.292	18.73
460.648	18.59
461.005	18.58
461.361	18.56
461.717	18.35
462.073	18.53
462.429	18.54
462.785	18.67
463.141	18.78
463.496	18.99
463.852	19.09
464.208	19.34
464.564	19.07
464.919	19.12
465.275	19.14
465.631	19.18
465.986	19.36
466.342	19.27
466.697	19.3
467.052	19.28
467.408	19.46
467.763	19.29
468.118	19.44
468.473	19.58
468.829	19.51
469.184	19.42
469.539	19.44
469.894	19.43
470.249	19.63
470.603	19.49
470.958	19.57
471.313	19.67
471.668	19.81
472.023	19.45
472.377	19.72
472.732	19.78
473.086	19.7
473.441	19.74
473.795	19.88
474.15	19.83
474.504	19.91
474.859	19.86
475.213	19.87
475.567	19.9
475.921	19.93
476.275	20.14
476.63	20.14
476.984	19.87
477.338	19.85
477.692	20.04
478.045	20.07
478.399	20.25
478.753	20
479.107	19.9
479.461	19.83
479.814	19.98
480.168	20.14
480.521	20.27
480.875	20.16
481.228	20.26
481.582	20.17
481.935	20.09
482.289	20.01
482.642	20.02
482.995	19.98
483.348	20.04
483.701	19.94
484.055	19.92
484.408	19.75
484.761	19.5
485.114	19.24
485.466	19.2
485.819	19.34
486.172	19.38
486.525	19.59
486.878	19.67
487.23	19.82
487.583	19.88
487.936	19.97
488.288	19.87
488.641	19.76
488.993	19.71
489.345	19.69
489.698	19.66
490.05	19.8
490.402	19.9
490.754	20.02
491.107	20.12
491.459	20.22
491.811	20.39
492.163	20.48
492.515	20.29
492.866	20.04
493.218	20.03
493.57	19.92
493.922	20.17
494.274	20.36
494.625	20.57
494.977	20.7
495.328	20.83
495.68	20.94
496.031	21.01
496.383	21.06
496.734	21.11
497.086	21.12
497.437	21.03
497.788	21.11
498.139	20.9
498.49	20.93
498.842	20.99
499.193	21.05
499.544	20.98
499.894	21.09
500.245	21.23
500.596	21.3
500.947	21.28
501.298	21.29
501.648	21.46
501.999	21.44
502.35	21.4
502.7	21.39
503.051	21.56
503.401	21.48
503.752	21.61
504.102	21.56
504.452	21.73
504.803	21.7
505.153	21.71
505.503	21.65
505.853	21.64
506.203	21.69
506.553	21.62
506.903	21.77
507.253	21.78
507.603	21.81
507.953	21.84
508.303	21.83
508.652	21.76
509.002	21.83
509.352	21.84
509.701	21.87
510.051	21.85
510.4	21.73
510.75	21.69
511.099	21.69
511.449	21.88
511.798	21.62
512.147	21.78
512.496	21.91
512.846	22.02
513.195	21.96
513.544	21.96
513.893	21.85
514.242	22
514.591	22.14
514.939	22.06
515.288	22.07
515.637	22.13
515.986	22.22
516.334	22.43
516.683	22.33
517.032	22.41
517.38	22.58
517.729	22.44
518.077	22.45
518.426	22.5
518.774	22.32
519.122	22.43
519.47	22.23
519.819	22.23
520.167	22.11
520.515	22.13
520.863	22.2
521.211	22.25
521.559	22.18
521.907	22.51
522.255	22.45
522.602	22.58
522.95	22.68
523.298	22.65
523.645	22.8
523.993	22.77
524.341	22.77
524.688	22.63
525.036	22.84
525.383	22.87
525.73	22.8
526.078	22.8
526.425	22.69
526.772	22.58
527.119	22.49
527.466	22.52
527.814	22.45
528.161	22.5
528.508	22.6
528.854	22.54
529.201	22.53
529.548	22.33
529.895	21.96
530.242	22.02
530.588	22.09
530.935	22.18
531.282	22.26
531.628	22.48
531.975	22.62
532.321	22.64
532.667	22.86
533.014	22.88
533.36	22.99
533.706	22.92
534.052	22.79
534.399	22.71
534.745	22.56
535.091	22.51
535.437	22.65
535.783	22.79
536.129	22.89
536.474	23.04
536.82	23.14
537.166	23.25
537.512	23.29
537.857	23.16
538.203	23.07
538.549	23.1
538.894	23.06
539.239	23.16
539.585	23.39
539.93	23.39
540.276	23.76
540.621	23.65
540.966	23.82
541.311	23.63
541.656	23.65
542.001	23.38
542.346	23.37
542.691	22.96
543.036	22.83
543.381	22.97
543.726	23.01
544.071	23.15
544.415	23.31
544.76	23.36
545.105	23.35
545.449	23.57
545.794	23.79
546.138	23.7
546.483	23.85
546.827	23.98
547.171	23.88
547.516	23.63
547.86	23.89
548.204	23.83
548.548	23.86
548.892	23.94
549.236	23.81
549.58	24.17
549.924	24.35
550.268	24.48
550.612	24.53
550.956	24.44
551.3	24.46
551.643	24.61
551.987	24.88
552.33	24.61
552.674	24.56
553.017	24.81
553.361	24.84
553.704	24.73
554.048	24.55
554.391	24.57
554.734	24.54
555.077	24.8
555.42	24.73
555.764	24.67
556.107	24.81
556.45	24.93
556.793	24.9
557.135	24.92
557.478	25.04
557.821	25
558.164	25.14
558.507	25.08
558.849	25.3
559.192	25.02
559.534	25.17
559.877	25.27
560.219	25.12
560.562	25.17
560.904	25.33
561.246	25.28
561.589	25.13
561.931	25.22
562.273	25.24
562.615	25.23
562.957	25.23
563.299	25.22
563.641	25.23
563.983	25.37
564.325	25.34
564.667	25.37
565.008	25.46
565.35	25.56
565.692	25.3
566.033	25.31
566.375	25.52
566.716	25.65
567.058	25.5
567.399	25.5
567.741	25.4
568.082	25.34
568.423	25.38
568.764	25.47
569.105	25.53
569.447	25.59
569.788	25.62
570.129	25.75
570.47	25.56
570.811	26.03
571.151	25.74
571.492	25.71
571.833	25.61
572.174	25.79
572.514	25.63
572.855	25.72
573.195	25.64
573.536	25.59
573.876	25.66
574.217	25.67
574.557	25.63
574.898	25.92
575.238	25.85
575.578	26
575.918	25.83
576.258	25.98
576.598	25.77
576.938	26.02
577.278	25.9
577.618	26.07
577.958	26.13
578.298	26.27
578.638	26.02
578.977	26.18
579.317	26.21
579.657	26.6
579.996	26.21
580.336	26.45
580.675	26.57
581.014	26.29
581.354	26.54
581.693	26.34
582.032	26.28
582.372	26.5
582.711	26.56
583.05	26.46
583.389	26.77
583.728	26.82
584.067	26.96
584.406	26.74
584.745	26.84
585.083	26.63
585.422	26.51
585.761	26.7
586.1	26.7
586.438	26.83
586.777	26.87
587.115	26.88
587.454	26.75
587.792	26.77
588.13	26.91
588.469	26.76
588.807	27
589.145	27.06
589.483	27.22
589.821	27.19
590.159	26.91
590.497	26.99
590.835	27.12
591.173	27.06
591.511	26.99
591.849	27
592.187	26.76
592.524	27.1
592.862	26.9
593.2	27.05
593.537	27.28
593.875	27.34
594.212	27.27
594.55	27.14
594.887	27.21
595.224	27.17
595.561	27
595.899	27.12
596.236	27.35
596.573	27.28
596.91	27.39
597.247	27.18
597.584	27.09
597.921	27.21
598.258	26.81
598.594	27.04
598.931	27.01
599.268	27.02
599.604	27.43
599.941	27.18
600.277	27.37
600.614	27.68
600.95	27.24
601.287	27.5
601.623	27.89
601.959	27.76
602.296	27.45
602.632	27.58
602.968	27.4
603.304	27.5
603.64	27.77
603.976	27.43
604.312	27.53
604.648	27.47
604.984	27.57
605.319	27.69
605.655	27.74
605.991	27.48
606.326	27.67
606.662	27.23
606.998	27.59
607.333	27.43
607.668	27.54
608.004	27.73
608.339	27.85
608.674	27.93
609.01	28.07
609.345	28.01
609.68	27.94
610.015	28.04
610.35	27.73
610.685	27.87
611.02	27.87
611.355	27.68
611.689	27.73
612.024	27.9
612.359	27.92
612.694	27.81
613.028	28.13
613.363	28.38
613.697	28.28
614.032	28.19
614.366	27.98
614.7	28.01
615.035	28.34
615.369	28.01
615.703	28.36
616.037	28.29
616.371	28.24
616.705	28.4
617.039	28.47
617.373	28.24
617.707	28.55
618.041	28.72
618.375	28.29
618.709	28.48
619.042	28.89
619.376	28.7
619.71	28.44
620.043	28.7
620.377	28.64
620.71	28.72
621.043	28.37
621.377	28.46
621.71	28.42
622.043	28.66
622.376	28.97
622.709	28.23
623.043	28.72
623.376	28.69
623.709	28.58
624.041	28.86
624.374	28.82
624.707	29.16
625.04	28.53
625.373	28.39
625.705	28.68
626.038	28.91
626.37	28.7
626.703	29.08
627.035	28.79
627.368	28.57
627.7	28.72
628.032	28.72
628.365	28.75
628.697	28.77
629.029	28.82
629.361	28.76
629.693	28.86
630.025	29.12
630.357	29.16
630.689	29.07
631.021	28.67
631.353	29.07
631.684	28.81
632.016	28.92
632.348	29.3
632.679	29.45
633.011	28.99
633.342	29.25
633.674	28.72
634.005	29.23
634.336	29.01
634.668	29.02
634.999	29.27
635.33	28.88
635.661	29.21
635.992	29.27
636.323	28.96
636.654	29.3
636.985	29.15
637.316	29.5
637.647	29.25
637.977	29.44
638.308	29.43
638.639	29.45
638.969	29.1
639.3	29.46
639.63	29.69
639.961	29.33
640.291	29.69
640.622	29.58
640.952	29.32
641.282	29.58
641.612	29.14
641.943	29.97
642.273	29.68
642.603	29.81
642.933	29.76
643.263	29.36
643.592	29.74
643.922	29.71
644.252	29.8
644.582	29.7
644.911	28.92
645.241	29.61
645.571	29.17
645.9	30.08
646.23	29.83
646.559	30.16
646.888	29.94
647.218	29.45
647.547	29.87
647.876	30.02
648.205	29.79
648.534	29.59
648.863	30.3
649.192	29.73
649.521	29.74
649.85	30.36
650.179	29.46
650.508	30.41
650.837	30.68
651.165	29.71
651.494	30.03
651.822	29.66
652.151	29.85
652.479	29.51
652.808	30.07
653.136	30.12
653.465	29.65
653.793	29.8
654.121	29.73
654.449	29.8
654.777	30.43
655.105	30.32
655.433	30.57
655.761	30.33
656.089	30.29
656.417	30.01
656.745	30.39
657.073	30.42
657.4	29.83
657.728	30.64
658.056	30.48
658.383	30.13
658.711	29.77
659.038	30.04
659.365	30.09
659.693	31.09
660.02	30.8
660.347	30.65
660.674	29.96
661.001	30.2
661.329	30.09
661.656	29.81
661.982	30.47
662.309	29.84
662.636	30.83
662.963	29.99
663.29	30.14
663.616	30.08
663.943	30.65
664.27	30.48
664.596	30.96
664.923	30.8
665.249	30.48
665.576	30.44
665.902	30.37
666.228	30.5
666.554	31.32
666.881	30.59
667.207	30.45
667.533	30.65
667.859	31.21
668.185	31.25
668.511	30.56
668.837	30.48
669.162	30.62
669.488	30.72
669.814	29.79
