Data from 20-3_crown_Reflection__2__97.txt Node

Date: Fri Nov 11 20:54:04 CST 2022
User: ToomeyLab
Spectrometer: FLMS14357
Trigger mode: 0
Integration Time (sec): 1.000000E-2
Scans to average: 100
Electric dark correction enabled: true
Nonlinearity correction enabled: false
Boxcar width: 0
XAxis mode: Wavelengths
Number of Pixels in Spectrum: 2048
>>>>>Begin Spectral Data<<<<<
189.047	-79.72
189.435	-79.72
189.823	-79.72
190.211	-132.96
190.599	-42.14
190.987	759.69
191.375	-78.34
191.763	-147.1
192.151	-36.91
192.538	96.39
192.926	268.99
193.314	451.69
193.702	-1567.28
194.089	7571.21
194.477	118.65
194.864	4.57
195.252	91.95
195.639	86.66
196.027	71.14
196.414	3286.19
196.801	169.63
197.189	139.91
197.576	-19.44
197.963	25.25
198.351	-39.99
198.738	-80.76
199.125	-1.67
199.512	20.56
199.899	-147.98
200.286	12.86
200.673	21.91
201.06	3.13
201.447	2.55
201.833	-10.08
202.22	10.78
202.607	14.58
202.994	38.26
203.38	33.02
203.767	10.96
204.154	6.41
204.54	-13.66
204.927	40.18
205.313	23.29
205.699	-37.05
206.086	35.12
206.472	6.33
206.858	56.42
207.245	38.84
207.631	1.52
208.017	0.48
208.403	12.83
208.789	4.88
209.175	20.74
209.561	38.84
209.947	-13.04
210.333	-1.65
210.719	-13.69
211.105	35.47
211.491	41.87
211.876	25.32
212.262	16.15
212.648	-6.36
213.034	23.61
213.419	-49.03
213.805	-10.83
214.19	-6.12
214.576	-8.45
214.961	-40.59
215.346	-12.51
215.732	7.81
216.117	31.91
216.502	4.79
216.888	-16.1
217.273	1.33
217.658	-13.22
218.043	2.02
218.428	-13.61
218.813	-9.28
219.198	-10.29
219.583	12.01
219.968	-6.19
220.353	-36.86
220.738	-4.56
221.122	0.57
221.507	-13.64
221.892	-10.34
222.276	16.45
222.661	10.23
223.046	-7.42
223.43	4.42
223.815	-3.89
224.199	3.72
224.583	3.36
224.968	-7.61
225.352	4.77
225.736	-4.73
226.121	4.57
226.505	11.72
226.889	-4.95
227.273	3.62
227.657	1.44
228.041	2.36
228.425	3.3
228.809	7.69
229.193	6.71
229.577	6.65
229.961	5.15
230.344	5.71
230.728	4.09
231.112	3.99
231.495	4.55
231.879	3.08
232.263	4.64
232.646	3.9
233.03	4.52
233.413	4.73
233.797	4.84
234.18	5.32
234.563	3.99
234.946	3.86
235.33	5.14
235.713	4.46
236.096	4.92
236.479	5.41
236.862	6.15
237.245	3.41
237.628	4.82
238.011	5.21
238.394	5.89
238.777	6.41
239.16	5.74
239.543	3.25
239.925	6.11
240.308	4.59
240.691	6.38
241.073	4.42
241.456	3.95
241.838	5.77
242.221	3.82
242.603	5.06
242.986	4.16
243.368	3.98
243.75	4.78
244.133	4.92
244.515	4.67
244.897	5.01
245.279	4.69
245.661	4.79
246.043	4.67
246.425	5.97
246.807	5.03
247.189	4.89
247.571	4.81
247.953	4.73
248.335	4.75
248.717	4.75
249.098	4.88
249.48	4.49
249.862	4.68
250.243	4.42
250.625	4.64
251.006	5.65
251.388	4.9
251.769	4.98
252.151	4.86
252.532	4.88
252.913	5.24
253.295	4.81
253.676	4.01
254.057	4.56
254.438	4.31
254.819	3.83
255.2	4.57
255.581	4.39
255.962	3.91
256.343	5.34
256.724	4.17
257.105	4.16
257.486	4.36
257.867	5.04
258.247	3.58
258.628	3.83
259.009	4.57
259.389	3.7
259.77	4.64
260.15	4.52
260.531	4.37
260.911	4.21
261.292	4.43
261.672	4.21
262.052	4.15
262.432	4.36
262.813	4.77
263.193	4.75
263.573	4.29
263.953	4.58
264.333	3.94
264.713	4.69
265.093	4.14
265.473	3.53
265.853	3.79
266.233	4.36
266.612	3.29
266.992	4.02
267.372	4.88
267.752	4.06
268.131	3.64
268.511	4.08
268.89	4.05
269.27	4.19
269.649	3.9
270.029	4.19
270.408	3.86
270.787	4.22
271.167	3.67
271.546	4.12
271.925	4.22
272.304	4.41
272.683	4.33
273.062	3.73
273.441	4.18
273.82	3.74
274.199	4.24
274.578	3.69
274.957	4.08
275.336	4.37
275.715	4.29
276.093	3.82
276.472	3.83
276.851	3.55
277.229	3.66
277.608	4.09
277.986	3.55
278.365	3.68
278.743	4.09
279.122	4.65
279.5	4.22
279.878	3.95
280.257	3.95
280.635	4.18
281.013	4.01
281.391	3.67
281.769	3.51
282.147	4.09
282.525	3.76
282.903	3.49
283.281	4.15
283.659	3.95
284.037	3.73
284.415	3.78
284.792	4.19
285.17	4.07
285.548	3.48
285.925	3.79
286.303	3.44
286.68	4.14
287.058	4
287.435	4.03
287.813	3.98
288.19	3.53
288.567	3.75
288.945	4.07
289.322	4.09
289.699	3.65
290.076	3.5
290.453	3.78
290.83	3.58
291.207	3.64
291.584	3.82
291.961	4.11
292.338	3.6
292.715	3.77
293.092	3.93
293.469	3.9
293.845	4.07
294.222	4.06
294.599	3.78
294.975	3.85
295.352	3.84
295.728	4.03
296.105	3.76
296.481	3.36
296.858	3.26
297.234	3.73
297.61	3.88
297.986	3.85
298.363	3.99
298.739	3.82
299.115	3.87
299.491	4
299.867	3.67
300.243	3.75
300.619	3.73
300.995	3.83
301.371	4.52
301.746	4.31
302.122	3.61
302.498	3.92
302.874	3.78
303.249	4.08
303.625	3.8
304	3.91
304.376	3.77
304.751	3.97
305.127	3.72
305.502	4.24
305.878	4.44
306.253	3.72
306.628	4.08
307.003	4.22
307.378	3.88
307.754	4.33
308.129	3.72
308.504	4.19
308.879	4.23
309.254	4.46
309.629	4.27
310.003	3.89
310.378	4.25
310.753	4.28
311.128	4.43
311.502	4.31
311.877	4.18
312.252	4.07
312.626	3.97
313.001	3.86
313.375	3.72
313.75	4.03
314.124	4.17
314.498	3.78
314.873	4.34
315.247	4.3
315.621	4.2
315.995	4.28
316.369	3.95
316.743	3.86
317.117	3.92
317.491	3.94
317.865	3.84
318.239	4.17
318.613	4.14
318.987	4.17
319.361	4.02
319.734	4.31
320.108	4.12
320.482	4.63
320.855	4.01
321.229	3.98
321.602	3.87
321.976	4.11
322.349	3.96
322.723	4.56
323.096	4.79
323.469	4.43
323.843	4.13
324.216	3.87
324.589	4.08
324.962	4.66
325.335	4.21
325.708	4.67
326.081	4.36
326.454	4.26
326.827	4.06
327.2	5.02
327.573	4.49
327.945	4.47
328.318	4.38
328.691	4.09
329.063	4.64
329.436	4.11
329.809	3.93
330.181	4.15
330.553	4.11
330.926	4.61
331.298	4.26
331.671	4.28
332.043	3.79
332.415	4.28
332.787	4.72
333.159	4.27
333.532	4.66
333.904	4.74
334.276	4.29
334.648	4.28
335.02	4.24
335.391	4.35
335.763	4.39
336.135	4
336.507	4.25
336.879	4.17
337.25	4.28
337.622	4.55
337.993	4.61
338.365	4.63
338.736	4.26
339.108	4.61
339.479	4.44
339.851	4.76
340.222	4.55
340.593	4.63
340.964	4.68
341.336	4.47
341.707	4.37
342.078	4.01
342.449	4.69
342.82	4.63
343.191	4.6
343.562	4.44
343.933	4.35
344.303	4.21
344.674	4.25
345.045	4.46
345.416	4.7
345.786	4.27
346.157	4.12
346.527	4.41
346.898	4.24
347.268	4.33
347.639	4.52
348.009	4.19
348.38	4.81
348.75	4.43
349.12	4.69
349.49	4.99
349.861	4.37
350.231	4.75
350.601	4.62
350.971	5.04
351.341	5.09
351.711	4.95
352.081	4.33
352.45	5.01
352.82	4.82
353.19	4.5
353.56	4.65
353.929	4.67
354.299	4.48
354.669	4.77
355.038	4.22
355.408	4.61
355.777	4.29
356.147	4.72
356.516	4.54
356.885	4.82
357.254	4.37
357.624	4.4
357.993	4.93
358.362	4.96
358.731	4.29
359.1	4.57
359.469	4.48
359.838	4.63
360.207	4.59
360.576	4.66
360.945	4.79
361.314	4.66
361.682	4.57
362.051	4.53
362.42	4.8
362.788	4.79
363.157	4.45
363.525	4.55
363.894	4.57
364.262	4.75
364.631	4.62
364.999	4.71
365.367	4.59
365.735	4.79
366.104	4.54
366.472	4.59
366.84	4.32
367.208	4.67
367.576	4.82
367.944	5
368.312	4.7
368.68	4.79
369.048	5.09
369.416	4.89
369.783	4.78
370.151	4.94
370.519	4.93
370.886	4.85
371.254	4.85
371.621	4.24
371.989	4.84
372.356	5.06
372.724	4.96
373.091	5.01
373.458	4.64
373.826	4.7
374.193	4.57
374.56	4.94
374.927	5.04
375.294	5.08
375.661	5.18
376.028	4.59
376.395	5.19
376.762	4.79
377.129	5.03
377.496	4.87
377.863	4.98
378.229	4.91
378.596	4.74
378.963	4.94
379.329	4.85
379.696	4.74
380.062	4.93
380.429	5.02
380.795	5.44
381.161	4.87
381.528	4.62
381.894	5.28
382.26	5.21
382.626	5.12
382.993	4.79
383.359	4.93
383.725	5.12
384.091	4.99
384.457	5.04
384.823	4.82
385.188	5.13
385.554	5.1
385.92	4.75
386.286	4.69
386.651	5
387.017	4.88
387.383	4.94
387.748	4.89
388.114	5.01
388.479	4.82
388.845	4.83
389.21	4.9
389.575	5.14
389.94	4.84
390.306	4.92
390.671	4.9
391.036	4.99
391.401	5.1
391.766	5.24
392.131	5.14
392.496	4.87
392.861	5.01
393.226	4.86
393.591	4.73
393.956	5
394.32	5.11
394.685	4.88
395.05	5.09
395.414	4.92
395.779	4.88
396.143	4.97
396.508	5.19
396.872	5.25
397.236	4.9
397.601	4.88
397.965	5.04
398.329	4.95
398.694	5.32
399.058	5.15
399.422	4.99
399.786	5.05
400.15	5.08
400.514	5.18
400.878	5.09
401.242	4.86
401.605	5.18
401.969	5.06
402.333	4.89
402.697	4.99
403.06	5.25
403.424	4.72
403.787	5.11
404.151	5.08
404.514	4.98
404.878	5.07
405.241	5.02
405.604	4.99
405.968	5.14
406.331	4.89
406.694	5.06
407.057	5.23
407.42	5.31
407.783	5.23
408.146	5.17
408.509	5.22
408.872	5.37
409.235	5.14
409.598	5.1
409.961	5.23
410.323	5.26
410.686	5.06
411.049	5.11
411.411	5.08
411.774	5.25
412.136	4.95
412.499	5.22
412.861	5.1
413.223	5.14
413.586	4.96
413.948	5.36
414.31	5.17
414.672	5.23
415.035	5.26
415.397	5.11
415.759	5.06
416.121	5.02
416.483	5.16
416.845	5.2
417.206	4.97
417.568	4.9
417.93	4.95
418.292	4.98
418.653	5.18
419.015	5.02
419.377	5.05
419.738	5.07
420.1	5.04
420.461	5.16
420.822	5.04
421.184	4.98
421.545	5.05
421.906	5
422.267	4.89
422.629	4.8
422.99	4.97
423.351	4.96
423.712	4.92
424.073	5.1
424.434	5.1
424.795	5.1
425.155	5.03
425.516	5.11
425.877	5.02
426.238	4.95
426.598	4.97
426.959	4.94
427.32	5.09
427.68	5.19
428.041	5.17
428.401	4.89
428.761	5.28
429.122	5.05
429.482	5.29
429.842	5.1
430.202	5.18
430.563	5.33
430.923	5.28
431.283	5.09
431.643	5.02
432.003	5.26
432.363	5.14
432.722	5.4
433.082	5.2
433.442	5.09
433.802	5.29
434.161	5.13
434.521	5.1
434.881	5.22
435.24	5.1
435.6	5.13
435.959	5.07
436.319	5.08
436.678	5.28
437.037	5.14
437.396	5.14
437.756	5.26
438.115	5.11
438.474	5.16
438.833	5.17
439.192	5.22
439.551	5.06
439.91	5.31
440.269	5.11
440.628	5.26
440.987	5.09
441.345	5
441.704	5.02
442.063	5.05
442.421	5.05
442.78	4.95
443.138	5.15
443.497	5.04
443.855	5.11
444.214	5.09
444.572	5.24
444.93	5.19
445.288	5.15
445.647	5.32
446.005	5.22
446.363	5.23
446.721	5.12
447.079	5.17
447.437	4.97
447.795	5.04
448.153	5
448.51	5.13
448.868	5.07
449.226	5.08
449.584	5.13
449.941	5.24
450.299	5.07
450.656	5.15
451.014	5.26
451.371	5.15
451.729	5.1
452.086	5.23
452.443	5.22
452.801	5.27
453.158	5.1
453.515	5.24
453.872	5.21
454.229	5.25
454.586	5.21
454.943	5.24
455.3	5.35
455.657	5.21
456.014	5.38
456.371	5.26
456.727	5.39
457.084	5
457.441	5.14
457.797	5.27
458.154	5.09
458.51	5.09
458.867	5.14
459.223	5.23
459.58	5.15
459.936	5.05
460.292	5.18
460.648	5.06
461.005	5.08
461.361	5.09
461.717	4.98
462.073	5.01
462.429	5.02
462.785	5
463.141	5.07
463.496	5.09
463.852	5.18
464.208	5.23
464.564	5.19
464.919	5.12
465.275	5.1
465.631	5.13
465.986	5.3
466.342	5.02
466.697	5.17
467.052	5.19
467.408	5.19
467.763	5.07
468.118	5.18
468.473	5.2
468.829	5.34
469.184	5.29
469.539	5.21
469.894	5.34
470.249	5.36
470.603	5.11
470.958	5.18
471.313	5.24
471.668	5.14
472.023	5.03
472.377	5.25
472.732	5.17
473.086	5.2
473.441	5.25
473.795	5.01
474.15	5.14
474.504	5.2
474.859	5.17
475.213	5.27
475.567	5.21
475.921	5.12
476.275	5.03
476.63	5.26
476.984	5.23
477.338	5.23
477.692	4.97
478.045	5.2
478.399	5.24
478.753	5.15
479.107	5.19
479.461	5.06
479.814	5.08
480.168	5.09
480.521	5.19
480.875	5.17
481.228	5.17
481.582	5.2
481.935	5.16
482.289	5.11
482.642	5.18
482.995	4.99
483.348	5.05
483.701	5.11
484.055	4.92
484.408	5.03
484.761	4.87
485.114	4.74
485.466	4.72
485.819	4.67
486.172	4.78
486.525	4.82
486.878	4.85
487.23	4.88
487.583	4.92
487.936	4.91
488.288	4.95
488.641	4.83
488.993	4.86
489.345	4.78
489.698	4.8
490.05	4.77
490.402	4.84
490.754	4.92
491.107	4.91
491.459	4.99
491.811	5.02
492.163	5.01
492.515	4.94
492.866	4.91
493.218	4.83
493.57	4.83
493.922	4.87
494.274	4.9
494.625	4.93
494.977	5.1
495.328	5.05
495.68	5.09
496.031	5.08
496.383	5.17
496.734	5.07
497.086	5.04
497.437	5.05
497.788	5.04
498.139	5.13
498.49	4.97
498.842	4.93
499.193	4.97
499.544	4.99
499.894	4.94
500.245	5.05
500.596	5.1
500.947	5.09
501.298	5.08
501.648	5.06
501.999	5.12
502.35	5.14
502.7	5.14
503.051	5.14
503.401	5.06
503.752	5.03
504.102	5.11
504.452	5.04
504.803	4.99
505.153	5.04
505.503	5.06
505.853	5
506.203	5.12
506.553	5.03
506.903	5.01
507.253	5.11
507.603	5.12
507.953	5.03
508.303	4.86
508.652	5.04
509.002	4.89
509.352	4.99
509.701	5.16
510.051	4.93
510.4	5.08
510.75	4.92
511.099	4.91
511.449	5.01
511.798	5
512.147	5.01
512.496	4.97
512.846	5.06
513.195	5.06
513.544	5.02
513.893	4.92
514.242	5.02
514.591	5
514.939	5.06
515.288	5.05
515.637	5.06
515.986	4.96
516.334	5.06
516.683	5.03
517.032	5.16
517.38	5.03
517.729	5.03
518.077	5.03
518.426	5.01
518.774	4.97
519.122	5.09
519.47	4.99
519.819	4.9
520.167	4.82
520.515	4.88
520.863	4.86
521.211	4.96
521.559	4.97
521.907	5.01
522.255	4.92
522.602	5.05
522.95	5.04
523.298	5.02
523.645	4.97
523.993	5.08
524.341	5.1
524.688	5.03
525.036	5.08
525.383	5.06
525.73	4.92
526.078	4.82
526.425	4.9
526.772	4.98
527.119	4.85
527.466	4.9
527.814	4.78
528.161	4.92
528.508	4.91
528.854	4.84
529.201	4.84
529.548	4.8
529.895	4.74
530.242	4.65
530.588	4.65
530.935	4.67
531.282	4.77
531.628	4.77
531.975	4.82
532.321	4.83
532.667	4.87
533.014	4.85
533.36	4.86
533.706	4.92
534.052	4.86
534.399	4.81
534.745	4.8
535.091	4.71
535.437	4.69
535.783	4.77
536.129	4.84
536.474	4.9
536.82	4.9
537.166	4.91
537.512	4.8
537.857	4.85
538.203	4.75
538.549	4.88
538.894	4.84
539.239	4.84
539.585	4.9
539.93	4.97
540.276	5.02
540.621	5.09
540.966	5.06
541.311	5.06
541.656	4.96
542.001	4.88
542.346	4.84
542.691	4.78
543.036	4.63
543.381	4.69
543.726	4.69
544.071	4.78
544.415	4.8
544.76	4.85
545.105	4.78
545.449	4.76
545.794	4.91
546.138	4.83
546.483	4.92
546.827	4.92
547.171	4.9
547.516	4.85
547.86	4.85
548.204	4.8
548.548	4.77
548.892	4.85
549.236	4.82
549.58	4.93
549.924	5.12
550.268	5.02
550.612	5.04
550.956	5.15
551.3	4.97
551.643	5.03
551.987	5.05
552.33	5.07
552.674	4.83
553.017	5.03
553.361	5.05
553.704	4.98
554.048	5.02
554.391	5.01
554.734	4.88
555.077	5.13
555.42	5.03
555.764	5
556.107	5.06
556.45	5.1
556.793	5.1
557.135	5.01
557.478	5.04
557.821	4.98
558.164	4.98
558.507	4.99
558.849	4.98
559.192	4.91
559.534	5.24
559.877	5.22
560.219	5
560.562	5.06
560.904	5.04
561.246	4.87
561.589	5.02
561.931	4.95
562.273	5.1
562.615	4.87
562.957	5.14
563.299	5.07
563.641	5.03
563.983	4.9
564.325	4.97
564.667	5.07
565.008	5.12
565.35	4.97
565.692	4.99
566.033	4.94
566.375	5.07
566.716	4.99
567.058	4.96
567.399	5.08
567.741	5.04
568.082	5.08
568.423	4.97
568.764	5.03
569.105	4.96
569.447	5.02
569.788	4.96
570.129	5.04
570.47	4.92
570.811	4.99
571.151	5
571.492	5.01
571.833	4.87
572.174	5.06
572.514	5.07
572.855	5.09
573.195	4.86
573.536	5.1
573.876	4.95
574.217	5.02
574.557	4.92
574.898	4.97
575.238	5.01
575.578	4.88
575.918	5.03
576.258	5.15
576.598	4.97
576.938	4.92
577.278	4.88
577.618	4.81
577.958	4.87
578.298	5.02
578.638	5.01
578.977	4.94
579.317	4.97
579.657	5.07
579.996	5.01
580.336	4.99
580.675	5.11
581.014	5.21
581.354	4.98
581.693	4.94
582.032	4.98
582.372	5.03
582.711	4.93
583.05	5.07
583.389	4.93
583.728	4.97
584.067	5.28
584.406	5.2
584.745	5.13
585.083	4.96
585.422	5.17
585.761	5.01
586.1	5.05
586.438	4.96
586.777	5.02
587.115	5.24
587.454	4.89
587.792	5.06
588.13	5.07
588.469	4.92
588.807	5.03
589.145	5.12
589.483	5.1
589.821	5.04
590.159	5.22
590.497	5.27
590.835	5.15
591.173	5.16
591.511	4.96
591.849	4.87
592.187	4.77
592.524	4.81
592.862	4.84
593.2	5.13
593.537	5.08
593.875	5.31
594.212	5.07
594.55	5.02
594.887	5.03
595.224	4.75
595.561	4.72
595.899	4.81
596.236	4.89
596.573	5.03
596.91	5.09
597.247	4.95
597.584	4.85
597.921	5.12
598.258	4.94
598.594	4.99
598.931	4.85
599.268	4.91
599.604	4.83
599.941	4.99
600.277	5.09
600.614	5.25
600.95	4.94
601.287	5.26
601.623	5.26
601.959	5.08
602.296	4.93
602.632	4.96
602.968	5.1
603.304	4.98
603.64	5.29
603.976	5.1
604.312	4.82
604.648	4.97
604.984	5.11
605.319	5.17
605.655	4.85
605.991	4.99
606.326	5.1
606.662	4.9
606.998	4.9
607.333	4.91
607.668	4.75
608.004	5.08
608.339	4.9
608.674	5.11
609.01	5
609.345	5.09
609.68	5
610.015	5.05
610.35	5.02
610.685	5.01
611.02	4.98
611.355	4.84
611.689	4.89
612.024	4.91
612.359	4.7
612.694	4.83
613.028	5.06
613.363	5.07
613.697	5.02
614.032	4.96
614.366	4.74
614.7	4.91
615.035	4.85
615.369	4.69
615.703	5.11
616.037	5.28
616.371	4.98
616.705	5.29
617.039	5
617.373	4.96
617.707	5.05
618.041	5.17
618.375	4.79
618.709	5.37
619.042	5.4
619.376	5
619.71	4.86
620.043	4.91
620.377	4.77
620.71	4.9
621.043	4.66
621.377	5.16
621.71	4.99
622.043	5.09
622.376	5.27
622.709	5.1
623.043	4.86
623.376	5.3
623.709	5.14
624.041	4.93
624.374	4.97
624.707	5.23
625.04	5.05
625.373	4.98
625.705	5.05
626.038	5.13
626.37	5.07
626.703	5.06
627.035	5.15
627.368	4.87
627.7	4.97
628.032	5.25
628.365	5.19
628.697	5
629.029	4.95
629.361	4.71
629.693	4.87
630.025	5.05
630.357	5.1
630.689	4.98
631.021	4.84
631.353	5.29
631.684	4.93
632.016	4.95
632.348	4.65
632.679	5.01
633.011	5.22
633.342	5.06
633.674	5.23
634.005	5.16
634.336	5.09
634.668	5.03
634.999	4.9
635.33	5.12
635.661	5.39
635.992	5.35
636.323	4.89
636.654	5.27
636.985	4.73
637.316	5.04
637.647	5.16
637.977	5
638.308	4.94
638.639	5.17
638.969	4.76
639.3	5.19
639.63	5.29
639.961	4.9
640.291	5.38
640.622	5.4
640.952	5
641.282	4.55
641.612	4.78
641.943	5.19
642.273	4.9
642.603	5.11
642.933	4.91
643.263	4.76
643.592	5.09
643.922	5.4
644.252	5.12
644.582	5.35
644.911	4.72
645.241	4.99
645.571	4.98
645.9	4.91
646.23	5.25
646.559	4.89
646.888	4.97
647.218	4.93
647.547	4.72
647.876	5.11
648.205	4.92
648.534	4.83
648.863	4.77
649.192	4.64
649.521	4.92
649.85	5.27
650.179	4.95
650.508	5.18
650.837	5.37
651.165	4.81
651.494	5.17
651.822	5.1
652.151	4.88
652.479	4.66
652.808	4.88
653.136	5.11
653.465	4.85
653.793	5.39
654.121	4.5
654.449	4.54
654.777	5.6
655.105	4.84
655.433	5.33
655.761	5.3
656.089	5.21
656.417	4.61
656.745	4.97
657.073	4.92
657.4	4.94
657.728	5.01
658.056	5.13
658.383	4.97
658.711	4.84
659.038	4.94
659.365	5.08
659.693	5.24
660.02	5.84
660.347	5.52
660.674	4.96
661.001	4.8
661.329	4.95
661.656	4.74
661.982	4.92
662.309	4.91
662.636	5.56
662.963	4.75
663.29	5.04
663.616	4.88
663.943	5.16
664.27	4.85
664.596	5.05
664.923	5.13
665.249	5.25
665.576	5.62
665.902	5.58
666.228	5.05
666.554	4.63
666.881	4.43
667.207	4.96
667.533	5.33
667.859	5.42
668.185	5.3
668.511	4.89
668.837	5.34
669.162	5.08
669.488	5.1
669.814	5.12
670.139	5.27
670.465	4.38
670.791	4.92
671.116	4.93
671.442	5.45
671.767	5.82
672.092	4.67
672.418	5.1
672.743	4.69
673.068	5.39
673.393	5.56
673.718	4.58
674.043	5.53
674.368	5.38
674.693	4.55
675.018	5.44
675.343	4.96
675.667	5.76
675.992	5.97
676.317	4.9
676.641	4.92
676.966	5.45
677.29	4.87
677.615	4.48
677.939	4.55
678.264	4.78
678.588	5.1
678.912	4.8
679.236	5.04
679.56	5.17
679.885	4.99
680.209	4.81
680.532	5.64
680.856	5.76
681.18	5.37
681.504	4.83
681.828	5.4
682.152	5.13
682.475	5.01
682.799	4.93
683.122	4.93
683.446	5.26
683.769	5.12
684.093	5.41
684.416	5.3
684.739	6.1
685.062	4.77
685.386	5.58
685.709	5
686.032	5.25
686.355	5.1
686.678	5.34
687.001	5.11
687.324	5.01
687.646	4.77
687.969	5.24
688.292	6.37
688.614	5
688.937	4.64
689.26	3.8
689.582	5.61
689.904	5.27
690.227	5.24
690.549	5.3
690.871	5.07
691.194	5.09
691.516	4.39
691.838	4.98
692.16	5.46
692.482	5.13
692.804	5.35
693.126	5.16
