Data from 20-3_chest_Reflection__4__94.txt Node

Date: Fri Nov 11 20:52:56 CST 2022
User: ToomeyLab
Spectrometer: FLMS14357
Trigger mode: 0
Integration Time (sec): 1.000000E-2
Scans to average: 100
Electric dark correction enabled: true
Nonlinearity correction enabled: false
Boxcar width: 0
XAxis mode: Wavelengths
Number of Pixels in Spectrum: 2048
>>>>>Begin Spectral Data<<<<<
189.047	-78.81
189.435	-78.81
189.823	-78.81
190.211	22.76
190.599	58.61
190.987	732.62
191.375	84.14
191.763	-261.68
192.151	-66.94
192.538	-89.4
192.926	542.73
193.314	351.1
193.702	114.81
194.089	-57.58
194.477	43.48
194.864	31.63
195.252	135.7
195.639	-208.1
196.027	-599.19
196.414	-322.86
196.801	14.84
197.189	212.74
197.576	187.91
197.963	-22.89
198.351	-88.24
198.738	-21.15
199.125	38.35
199.512	33.81
199.899	-110.9
200.286	-4.79
200.673	-16.87
201.06	3.75
201.447	27.77
201.833	-3.47
202.22	18.49
202.607	-14.03
202.994	13.83
203.38	10.95
203.767	-10.03
204.154	-4.74
204.54	-8.53
204.927	35.87
205.313	-46.28
205.699	-48.99
206.086	8.05
206.472	25.98
206.858	28.98
207.245	38.14
207.631	21.62
208.017	13.61
208.403	4.35
208.789	-21.65
209.175	13.28
209.561	30.16
209.947	-23.63
210.333	1.66
210.719	4.44
211.105	19.37
211.491	7.19
211.876	14.1
212.262	11.94
212.648	-8
213.034	3.75
213.419	-18.5
213.805	-17.92
214.19	-5.69
214.576	1.37
214.961	-20.45
215.346	-33.93
215.732	-15.75
216.117	21.45
216.502	-13.58
216.888	-52.32
217.273	5.48
217.658	-24.67
218.043	-20.42
218.428	-1.62
218.813	0.5
219.198	6.52
219.583	-7.43
219.968	16.97
220.353	-27.5
220.738	-24.24
221.122	17.78
221.507	-25.07
221.892	-17.8
222.276	5.56
222.661	24.19
223.046	-14.6
223.43	-12
223.815	-1.29
224.199	7.54
224.583	3.53
224.968	-9.52
225.352	1.83
225.736	-1.18
226.121	-1.72
226.505	7.21
226.889	-12.02
227.273	0.96
227.657	-5.15
228.041	3
228.425	-0.09
228.809	1.38
229.193	4.22
229.577	1.6
229.961	3.84
230.344	3.73
230.728	2.76
231.112	2.32
231.495	3.48
231.879	3
232.263	2.26
232.646	3.11
233.03	3.02
233.413	3.95
233.797	4.16
234.18	3.83
234.563	2.6
234.946	2.69
235.33	4.44
235.713	2.49
236.096	2.56
236.479	1.82
236.862	3.38
237.245	3.32
237.628	1.93
238.011	2.92
238.394	3.68
238.777	2.99
239.16	4.51
239.543	1.64
239.925	4.53
240.308	2.44
240.691	4.45
241.073	2.66
241.456	2.18
241.838	3.89
242.221	3.1
242.603	3.97
242.986	2.66
243.368	3.28
243.75	3.61
244.133	3.39
244.515	3.13
244.897	3.51
245.279	2.89
245.661	3.47
246.043	3.32
246.425	4.09
246.807	3.19
247.189	2.76
247.571	3.48
247.953	3.1
248.335	3.21
248.717	3.51
249.098	3.46
249.48	3.25
249.862	3.66
250.243	3.4
250.625	3.38
251.006	3.69
251.388	3.29
251.769	3.85
252.151	2.43
252.532	3.47
252.913	2.54
253.295	3.33
253.676	3.28
254.057	2.95
254.438	3.27
254.819	2.14
255.2	3.81
255.581	3.03
255.962	2.87
256.343	3.27
256.724	2.56
257.105	2.31
257.486	3.86
257.867	3.02
258.247	2.47
258.628	2.84
259.009	2.47
259.389	2.95
259.77	3.45
260.15	3.11
260.531	3.36
260.911	3.02
261.292	3.23
261.672	3.09
262.052	3.14
262.432	3.33
262.813	3.38
263.193	2.68
263.573	2.82
263.953	3.69
264.333	3.14
264.713	3.19
265.093	3.06
265.473	2.31
265.853	3.44
266.233	3.12
266.612	2.5
266.992	2.87
267.372	3.14
267.752	3.16
268.131	2.49
268.511	2.98
268.89	2.95
269.27	2.88
269.649	2.35
270.029	3.32
270.408	2.77
270.787	2.79
271.167	2.38
271.546	3.08
271.925	3.04
272.304	3.31
272.683	3.04
273.062	2.86
273.441	2.9
273.82	3.03
274.199	2.69
274.578	2.89
274.957	3.17
275.336	3.15
275.715	3.04
276.093	2.83
276.472	3.13
276.851	2.9
277.229	2.87
277.608	3.06
277.986	2.92
278.365	2.57
278.743	2.64
279.122	3.28
279.5	3.03
279.878	2.9
280.257	2.92
280.635	2.98
281.013	3.08
281.391	2.7
281.769	2.81
282.147	2.91
282.525	2.77
282.903	2.51
283.281	2.9
283.659	2.86
284.037	3.04
284.415	2.79
284.792	2.89
285.17	3.05
285.548	3.3
285.925	2.5
286.303	3.03
286.68	3.08
287.058	3.08
287.435	2.82
287.813	3.04
288.19	2.68
288.567	3.18
288.945	3.09
289.322	2.94
289.699	2.82
290.076	3.47
290.453	2.86
290.83	2.72
291.207	2.91
291.584	3.29
291.961	2.95
292.338	3.02
292.715	3.08
293.092	2.87
293.469	3.29
293.845	3.14
294.222	2.67
294.599	3.28
294.975	2.98
295.352	2.9
295.728	3.17
296.105	2.75
296.481	2.75
296.858	2.93
297.234	3.23
297.61	2.96
297.986	3.16
298.363	3.13
298.739	3.1
299.115	3.3
299.491	3.26
299.867	3.04
300.243	2.93
300.619	3.12
300.995	3.13
301.371	4.24
301.746	3.11
302.122	3.14
302.498	3.51
302.874	2.81
303.249	3.06
303.625	2.9
304	2.53
304.376	3.5
304.751	2.97
305.127	3.16
305.502	3.36
305.878	3.52
306.253	3.13
306.628	3.42
307.003	3.12
307.378	3.18
307.754	3.58
308.129	3.36
308.504	3.41
308.879	3.43
309.254	3.24
309.629	3.12
310.003	2.95
310.378	3.33
310.753	3.2
311.128	3.57
311.502	3.42
311.877	3.3
312.252	3.38
312.626	3.29
313.001	3.1
313.375	3.41
313.75	3.25
314.124	2.84
314.498	3.25
314.873	3.17
315.247	3.57
315.621	3.21
315.995	3.49
316.369	3.21
316.743	3.24
317.117	3.55
317.491	3.62
317.865	3.04
318.239	3.5
318.613	3.62
318.987	3.53
319.361	3.15
319.734	3.95
320.108	3.24
320.482	4.25
320.855	2.91
321.229	3.08
321.602	3.3
321.976	3.53
322.349	3.4
322.723	3.73
323.096	3.68
323.469	3.55
323.843	3.5
324.216	3.24
324.589	3.76
324.962	4.06
325.335	3.26
325.708	3.8
326.081	3.45
326.454	3.23
326.827	3.41
327.2	3.86
327.573	4.01
327.945	3.58
328.318	3.61
328.691	3.64
329.063	3.84
329.436	3.05
329.809	3.15
330.181	3.31
330.553	2.93
330.926	3.51
331.298	3.15
331.671	3.22
332.043	3.05
332.415	3.24
332.787	4.18
333.159	3.52
333.532	4.06
333.904	3.59
334.276	3.52
334.648	3.16
335.02	3.45
335.391	4.21
335.763	3.69
336.135	3.14
336.507	3.16
336.879	4.03
337.25	3.34
337.622	3.63
337.993	3.93
338.365	3.75
338.736	3.64
339.108	3.46
339.479	2.95
339.851	3.45
340.222	3.36
340.593	4.07
340.964	3.48
341.336	3.96
341.707	3.32
342.078	3.15
342.449	3.73
342.82	3.81
343.191	3.53
343.562	3.51
343.933	3.5
344.303	3.24
344.674	3.14
345.045	3.47
345.416	3.81
345.786	3.51
346.157	3.73
346.527	3.88
346.898	2.74
347.268	3.38
347.639	3.52
348.009	3.55
348.38	3.74
348.75	3.38
349.12	4.17
349.49	3.79
349.861	3.68
350.231	3.56
350.601	3.84
350.971	3.38
351.341	3.83
351.711	3.69
352.081	3.53
352.45	3.7
352.82	3.48
353.19	3.99
353.56	3.87
353.929	3.71
354.299	3.74
354.669	3.83
355.038	3.76
355.408	3.79
355.777	3.82
356.147	3.62
356.516	3.61
356.885	3.79
357.254	3.71
357.624	3.25
357.993	3.58
358.362	3.76
358.731	3.26
359.1	3.58
359.469	3.18
359.838	3.64
360.207	3.68
360.576	3.7
360.945	3.82
361.314	3.53
361.682	3.48
362.051	3.71
362.42	3.75
362.788	3.87
363.157	3.76
363.525	3.5
363.894	3.73
364.262	3.78
364.631	3.89
364.999	3.66
365.367	3.56
365.735	3.45
366.104	3.58
366.472	3.73
366.84	3.3
367.208	3.61
367.576	4
367.944	3.75
368.312	3.68
368.68	3.7
369.048	3.68
369.416	3.53
369.783	3.78
370.151	3.69
370.519	3.76
370.886	3.61
371.254	4.09
371.621	3.64
371.989	3.31
372.356	3.68
372.724	3.96
373.091	3.82
373.458	3.92
373.826	3.23
374.193	3.49
374.56	3.69
374.927	4.02
375.294	3.98
375.661	4.16
376.028	3.6
376.395	3.76
376.762	3.94
377.129	3.67
377.496	3.81
377.863	3.93
378.229	3.97
378.596	3.44
378.963	3.83
379.329	3.93
379.696	3.73
380.062	3.73
380.429	4.01
380.795	4.26
381.161	3.99
381.528	3.86
381.894	3.95
382.26	3.97
382.626	3.9
382.993	3.69
383.359	4
383.725	3.49
384.091	3.86
384.457	3.87
384.823	3.77
385.188	3.98
385.554	3.68
385.92	3.53
386.286	3.87
386.651	3.93
387.017	3.66
387.383	3.91
387.748	3.47
388.114	3.83
388.479	3.58
388.845	3.75
389.21	3.62
389.575	3.87
389.94	3.86
390.306	3.53
390.671	3.76
391.036	3.7
391.401	3.92
391.766	4.14
392.131	3.99
392.496	4.04
392.861	3.79
393.226	3.76
393.591	3.99
393.956	3.82
394.32	3.89
394.685	3.86
395.05	4.11
395.414	3.67
395.779	3.95
396.143	3.93
396.508	3.93
396.872	4.1
397.236	3.72
397.601	3.81
397.965	3.98
398.329	3.87
398.694	4
399.058	4.02
399.422	3.84
399.786	3.84
400.15	3.86
400.514	3.93
400.878	3.79
401.242	3.81
401.605	4.05
401.969	3.86
402.333	3.78
402.697	3.86
403.06	4.07
403.424	3.64
403.787	3.9
404.151	3.75
404.514	3.78
404.878	3.9
405.241	3.74
405.604	3.81
405.968	3.95
406.331	3.74
406.694	3.72
407.057	3.81
407.42	3.8
407.783	3.85
408.146	4.13
408.509	4.13
408.872	3.98
409.235	4.01
409.598	4
409.961	4.13
410.323	3.86
410.686	4.11
411.049	3.87
411.411	3.97
411.774	4.03
412.136	3.95
412.499	3.93
412.861	3.93
413.223	3.69
413.586	3.76
413.948	4.26
414.31	4.1
414.672	4.09
415.035	4.14
415.397	3.85
415.759	3.89
416.121	3.79
416.483	3.82
416.845	4.08
417.206	3.97
417.568	3.87
417.93	3.89
418.292	3.78
418.653	4.05
419.015	4.01
419.377	3.9
419.738	3.98
420.1	3.92
420.461	3.97
420.822	3.91
421.184	3.87
421.545	3.97
421.906	3.93
422.267	3.83
422.629	3.82
422.99	3.92
423.351	3.86
423.712	3.81
424.073	3.91
424.434	3.89
424.795	4
425.155	3.95
425.516	3.97
425.877	3.91
426.238	3.83
426.598	3.84
426.959	3.84
427.32	3.96
427.68	3.96
428.041	4.22
428.401	3.82
428.761	4.12
429.122	3.87
429.482	4.16
429.842	3.95
430.202	4.02
430.563	4.13
430.923	4
431.283	3.91
431.643	3.93
432.003	4.08
432.363	3.88
432.722	4.14
433.082	4.21
433.442	4.17
433.802	4.07
434.161	4.04
434.521	4.06
434.881	4.12
435.24	3.98
435.6	4.03
435.959	4.01
436.319	4.03
436.678	3.98
437.037	4.05
437.396	4.2
437.756	3.99
438.115	4.15
438.474	3.97
438.833	4.15
439.192	4.09
439.551	4.12
439.91	4.13
440.269	4.08
440.628	4.11
440.987	4.1
441.345	3.98
441.704	4.08
442.063	4.02
442.421	4.01
442.78	3.95
443.138	4.13
443.497	4.03
443.855	4.08
444.214	4.05
444.572	4.1
444.93	4.05
445.288	4.17
445.647	4.2
446.005	4.26
446.363	4.18
446.721	4.12
447.079	4.15
447.437	4.05
447.795	4.12
448.153	4.02
448.51	4.04
448.868	4.09
449.226	4.14
449.584	4.13
449.941	4.2
450.299	4.06
450.656	4.18
451.014	4.26
451.371	4.14
451.729	4.06
452.086	4.19
452.443	4.21
452.801	4.27
453.158	4.26
453.515	4.07
453.872	4.14
454.229	4.24
454.586	4.13
454.943	4.23
455.3	4.14
455.657	4.21
456.014	4.28
456.371	4.36
456.727	4.39
457.084	4.06
457.441	4.23
457.797	4.2
458.154	4.14
458.51	4.24
458.867	4.05
459.223	4.36
459.58	4.23
459.936	4.24
460.292	4.29
460.648	4.2
461.005	4.25
461.361	4.06
461.717	4.06
462.073	4.2
462.429	4.11
462.785	4.17
463.141	4.18
463.496	4.13
463.852	4.32
464.208	4.21
464.564	4.27
464.919	4.28
465.275	4.28
465.631	4.33
465.986	4.36
466.342	4.31
466.697	4.29
467.052	4.4
467.408	4.37
467.763	4.36
468.118	4.23
468.473	4.44
468.829	4.28
469.184	4.34
469.539	4.26
469.894	4.23
470.249	4.51
470.603	4.31
470.958	4.33
471.313	4.37
471.668	4.38
472.023	4.35
472.377	4.41
472.732	4.22
473.086	4.3
473.441	4.33
473.795	4.36
474.15	4.45
474.504	4.38
474.859	4.34
475.213	4.38
475.567	4.53
475.921	4.4
476.275	4.35
476.63	4.36
476.984	4.35
477.338	4.45
477.692	4.21
478.045	4.28
478.399	4.4
478.753	4.26
479.107	4.33
479.461	4.34
479.814	4.29
480.168	4.44
480.521	4.4
480.875	4.4
481.228	4.35
481.582	4.5
481.935	4.35
482.289	4.19
482.642	4.32
482.995	4.28
483.348	4.37
483.701	4.45
484.055	4.33
484.408	4.26
484.761	4.14
485.114	4.11
485.466	4.06
485.819	4.06
486.172	4.11
486.525	4.19
486.878	4.25
487.23	4.28
487.583	4.32
487.936	4.34
488.288	4.34
488.641	4.24
488.993	4.21
489.345	4.19
489.698	4.19
490.05	4.23
490.402	4.26
490.754	4.32
491.107	4.29
491.459	4.37
491.811	4.37
492.163	4.45
492.515	4.4
492.866	4.35
493.218	4.24
493.57	4.24
493.922	4.27
494.274	4.38
494.625	4.36
494.977	4.53
495.328	4.48
495.68	4.48
496.031	4.51
496.383	4.57
496.734	4.6
497.086	4.61
497.437	4.57
497.788	4.48
498.139	4.48
498.49	4.44
498.842	4.45
499.193	4.49
499.544	4.57
499.894	4.42
500.245	4.54
500.596	4.57
500.947	4.58
501.298	4.57
501.648	4.55
501.999	4.58
502.35	4.77
502.7	4.59
503.051	4.62
503.401	4.66
503.752	4.61
504.102	4.57
504.452	4.76
504.803	4.47
505.153	4.56
505.503	4.61
505.853	4.68
506.203	4.65
506.553	4.61
506.903	4.66
507.253	4.71
507.603	4.64
507.953	4.5
508.303	4.54
508.652	4.75
509.002	4.67
509.352	4.67
509.701	4.69
510.051	4.63
510.4	4.63
510.75	4.58
511.099	4.59
511.449	4.64
511.798	4.71
512.147	4.66
512.496	4.69
512.846	4.91
513.195	4.69
513.544	4.58
513.893	4.61
514.242	4.72
514.591	4.66
514.939	4.72
515.288	4.72
515.637	4.75
515.986	4.88
516.334	4.81
516.683	4.76
517.032	4.71
517.38	4.73
517.729	4.84
518.077	4.8
518.426	4.89
518.774	4.74
519.122	4.91
519.47	4.76
519.819	4.71
520.167	4.71
520.515	4.69
520.863	4.81
521.211	4.77
521.559	4.73
521.907	4.87
522.255	4.84
522.602	4.92
522.95	4.88
523.298	5.02
523.645	4.92
523.993	4.96
524.341	5.01
524.688	5.04
525.036	4.97
525.383	4.89
525.73	4.9
526.078	4.9
526.425	4.87
526.772	4.87
527.119	4.86
527.466	4.87
527.814	4.91
528.161	4.96
528.508	4.86
528.854	4.82
529.201	4.86
529.548	4.87
529.895	4.76
530.242	4.69
530.588	4.73
530.935	4.76
531.282	4.85
531.628	4.87
531.975	5
532.321	4.9
532.667	5.04
533.014	5.05
533.36	4.97
533.706	5.09
534.052	5.08
534.399	4.91
534.745	4.94
535.091	4.91
535.437	4.94
535.783	4.97
536.129	5.09
536.474	5.12
536.82	5.06
537.166	5.17
537.512	5.14
537.857	5.08
538.203	5.05
538.549	5.07
538.894	5.16
539.239	5.13
539.585	5.17
539.93	5.31
540.276	5.34
540.621	5.32
540.966	5.3
541.311	5.26
541.656	5.32
542.001	5.28
542.346	5.26
542.691	5.13
543.036	5.02
543.381	5.11
543.726	5.08
544.071	5.25
544.415	5.27
544.76	5.35
545.105	5.23
545.449	5.24
545.794	5.42
546.138	5.25
546.483	5.37
546.827	5.44
547.171	5.5
547.516	5.43
547.86	5.5
548.204	5.5
548.548	5.38
548.892	5.49
549.236	5.5
549.58	5.51
549.924	5.58
550.268	5.67
550.612	5.65
550.956	5.8
551.3	5.69
551.643	5.67
551.987	5.62
552.33	5.79
552.674	5.71
553.017	5.86
553.361	5.72
553.704	5.76
554.048	5.79
554.391	5.66
554.734	5.67
555.077	5.8
555.42	5.78
555.764	5.89
556.107	5.94
556.45	5.96
556.793	5.86
557.135	5.82
557.478	5.99
557.821	6.07
558.164	5.96
558.507	5.94
558.849	6.08
559.192	6.02
559.534	6.04
559.877	6.05
560.219	6.17
560.562	6
560.904	6.24
561.246	5.94
561.589	6.01
561.931	6.03
562.273	6.06
562.615	6.08
562.957	6.11
563.299	6.13
563.641	6.12
563.983	6.09
564.325	6.13
564.667	6.27
565.008	6.44
565.35	6.26
565.692	6.11
566.033	6.17
566.375	6.35
566.716	6.42
567.058	6.19
567.399	6.33
567.741	6.3
568.082	6.45
568.423	6.37
568.764	6.43
569.105	6.4
569.447	6.52
569.788	6.4
570.129	6.37
570.47	6.4
570.811	6.57
571.151	6.65
571.492	6.49
571.833	6.6
572.174	6.51
572.514	6.61
572.855	6.63
573.195	6.42
573.536	6.56
573.876	6.64
574.217	6.65
574.557	6.73
574.898	6.73
575.238	6.88
575.578	6.75
575.918	6.94
576.258	6.91
576.598	6.71
576.938	6.66
577.278	6.67
577.618	6.79
577.958	6.91
578.298	6.88
578.638	6.98
578.977	7.04
579.317	7.03
579.657	7
579.996	6.86
580.336	6.96
580.675	7.06
581.014	7.21
581.354	7.15
581.693	7.02
582.032	7.08
582.372	7.12
582.711	7.22
583.05	6.97
583.389	7.2
583.728	7.31
584.067	7.2
584.406	7.25
584.745	7.44
585.083	7.23
585.422	7.36
585.761	7.29
586.1	7.49
586.438	7.32
586.777	7.23
587.115	7.41
587.454	7.34
587.792	7.43
588.13	7.67
588.469	7.43
588.807	7.65
589.145	7.46
589.483	7.74
589.821	7.55
590.159	7.8
590.497	7.63
590.835	7.6
591.173	8.03
591.511	7.77
591.849	7.73
592.187	7.74
592.524	7.68
592.862	7.64
593.2	7.86
593.537	7.86
593.875	7.86
594.212	7.8
594.55	7.81
594.887	7.84
595.224	7.76
595.561	7.68
595.899	7.69
596.236	7.99
596.573	8.12
596.91	7.96
597.247	7.92
597.584	8.16
597.921	8.31
598.258	7.95
598.594	7.97
598.931	8
599.268	8.14
599.604	8.22
599.941	8.24
600.277	8.31
600.614	8.49
600.95	8.16
601.287	8.42
601.623	8.58
601.959	8.53
602.296	8.27
602.632	8.48
602.968	8.5
603.304	8.48
603.64	8.8
603.976	8.61
604.312	8.43
604.648	8.44
604.984	8.42
605.319	8.37
605.655	8.35
605.991	8.62
606.326	8.83
606.662	8.53
606.998	8.49
607.333	8.66
607.668	8.59
608.004	8.74
608.339	8.83
608.674	8.82
609.01	8.97
609.345	8.98
609.68	8.75
610.015	8.93
610.35	8.96
610.685	9.11
611.02	8.81
611.355	8.9
611.689	8.93
612.024	8.99
612.359	8.86
612.694	8.73
613.028	9.03
613.363	8.85
613.697	9.3
614.032	9.37
614.366	9.15
614.7	9.05
615.035	9.22
615.369	9.17
615.703	9.51
616.037	9.49
616.371	8.98
616.705	9.21
617.039	9.38
617.373	9.54
617.707	9.37
618.041	9.67
618.375	9.17
618.709	9.82
619.042	9.92
619.376	9.64
619.71	9.56
620.043	9.7
620.377	9.63
620.71	9.29
621.043	9.47
621.377	9.99
621.71	9.68
622.043	9.72
622.376	10.02
622.709	9.56
623.043	9.66
623.376	9.79
623.709	10.13
624.041	9.88
624.374	9.82
624.707	10.22
625.04	9.78
625.373	9.87
625.705	10.05
626.038	10.21
626.37	10.32
626.703	9.87
627.035	10.09
627.368	10.01
627.7	10.14
628.032	9.89
628.365	10.24
628.697	10.06
629.029	10.19
629.361	10.15
629.693	10.35
630.025	10.08
630.357	10.26
630.689	10.4
631.021	10.5
631.353	10.76
631.684	10.27
632.016	10.32
632.348	10.35
632.679	10.36
633.011	10.64
633.342	10.62
633.674	10.37
634.005	10.4
634.336	10.83
634.668	10.72
634.999	10.8
635.33	10.76
635.661	11.11
635.992	10.7
636.323	10.68
636.654	11.15
636.985	10.79
637.316	10.97
637.647	11.08
637.977	11.09
638.308	10.85
638.639	10.81
638.969	10.62
639.3	10.94
639.63	11.38
639.961	10.78
640.291	11.33
640.622	11.28
640.952	11.05
641.282	11.02
641.612	11.19
641.943	11.47
642.273	10.85
642.603	11.62
642.933	11.41
643.263	11.48
643.592	11.66
643.922	11.27
644.252	11.67
644.582	11.69
644.911	11.81
645.241	11.81
645.571	11.77
645.9	11.6
646.23	11.83
646.559	11.92
646.888	11.62
647.218	11.46
647.547	11.75
647.876	11.78
648.205	12.05
648.534	11.74
648.863	11.87
649.192	11.9
649.521	11.74
649.85	12.34
650.179	11.83
650.508	12.03
650.837	12.14
651.165	11.67
651.494	12.18
651.822	12.08
652.151	11.78
652.479	11.87
652.808	11.92
653.136	12.08
653.465	12.29
653.793	12.24
654.121	12.28
654.449	11.73
654.777	12.02
655.105	12
655.433	12.06
655.761	12.22
656.089	12.8
656.417	12.16
656.745	12.28
657.073	12.45
657.4	12.02
657.728	12.46
658.056	12.7
658.383	12.83
658.711	11.9
659.038	12.6
659.365	12.5
659.693	12.5
660.02	12.64
660.347	12.62
660.674	12.94
661.001	12.67
661.329	12.76
661.656	13.01
661.982	12.91
662.309	12.57
662.636	13.4
662.963	13.07
663.29	12.97
663.616	12.65
663.943	13.28
664.27	12.91
664.596	13.05
664.923	12.61
665.249	13.31
665.576	13.24
665.902	13.17
666.228	13.48
666.554	13.16
666.881	13.11
667.207	13.5
667.533	13.56
667.859	13.62
668.185	13.3
668.511	13.68
668.837	13.88
669.162	13.34
669.488	13.16
669.814	13.34
670.139	13.73
670.465	13.78
670.791	13.29
671.116	13.65
671.442	14.16
671.767	13.94
672.092	14
672.418	13.67
672.743	13.73
673.068	13.46
673.393	14.5
673.718	13.56
674.043	13.89
674.368	14.18
674.693	13.45
675.018	13.92
675.343	14.08
675.667	14.44
675.992	14.22
676.317	14.01
676.641	13.58
676.966	14.18
677.29	14.12
677.615	13.47
677.939	14.09
678.264	14.26
678.588	13.83
678.912	14.17
679.236	14.61
679.56	14.76
679.885	14.36
680.209	13.57
680.532	14.72
680.856	14.36
681.18	14.3
681.504	14.09
681.828	14.39
682.152	14.48
682.475	14.73
682.799	14.71
683.122	14.77
683.446	15.29
683.769	14.84
684.093	14.32
684.416	14.29
684.739	15.18
685.062	14.63
685.386	15
685.709	14.94
686.032	15.02
686.355	14.82
686.678	15.09
687.001	14.61
687.324	15.03
687.646	13.9
687.969	14.74
