Data from 20-3_forehead_Reflection__2__102.txt Node

Date: Fri Nov 11 20:55:32 CST 2022
User: ToomeyLab
Spectrometer: FLMS14357
Trigger mode: 0
Integration Time (sec): 1.000000E-2
Scans to average: 100
Electric dark correction enabled: true
Nonlinearity correction enabled: false
Boxcar width: 0
XAxis mode: Wavelengths
Number of Pixels in Spectrum: 2048
>>>>>Begin Spectral Data<<<<<
189.047	156.93
189.435	156.93
189.823	156.93
190.211	-75.25
190.599	-12.8
190.987	571.63
191.375	32.6
191.763	-367.2
192.151	62.36
192.538	46.05
192.926	91.99
193.314	45.01
193.702	-269.14
194.089	406.06
194.477	86.81
194.864	40.39
195.252	72.16
195.639	43.59
196.027	-317.07
196.414	2245.71
196.801	9.89
197.189	168.95
197.576	194.28
197.963	-44.6
198.351	-72.21
198.738	-5.02
199.125	13.43
199.512	17.35
199.899	-55.67
200.286	29.51
200.673	4.03
201.06	-2.81
201.447	37.63
201.833	5.77
202.22	-18.97
202.607	20.58
202.994	19.3
203.38	31.07
203.767	47.54
204.154	26.1
204.54	-30.75
204.927	34.27
205.313	-9.79
205.699	-179.56
206.086	68.48
206.472	-1.81
206.858	26.2
207.245	41.96
207.631	19.83
208.017	5.37
208.403	13.43
208.789	14.13
209.175	7.77
209.561	34.81
209.947	24.92
210.333	47.34
210.719	12.33
211.105	17.9
211.491	28.19
211.876	28.35
212.262	9.92
212.648	10.23
213.034	0.14
213.419	-9.19
213.805	-12.44
214.19	6.95
214.576	18.29
214.961	-22.36
215.346	15.73
215.732	4.04
216.117	19.32
216.502	-0.98
216.888	-4.15
217.273	10.73
217.658	8.4
218.043	16.47
218.428	-10.98
218.813	6.06
219.198	3.72
219.583	10.15
219.968	14.74
220.353	-32.89
220.738	1.36
221.122	12.55
221.507	-21.82
221.892	-19.89
222.276	6.85
222.661	22.41
223.046	-8.45
223.43	-4.42
223.815	-1.05
224.199	9.78
224.583	-14.38
224.968	3.75
225.352	1.96
225.736	-5.15
226.121	1.68
226.505	-0.07
226.889	-7.73
227.273	6.17
227.657	0.34
228.041	-2.18
228.425	0.19
228.809	4.37
229.193	1.79
229.577	1.81
229.961	2.64
230.344	2.02
230.728	0.36
231.112	0.61
231.495	0.97
231.879	0.42
232.263	1.4
232.646	-0.24
233.03	1.41
233.413	1.76
233.797	0.44
234.18	0.37
234.563	1.27
234.946	0.58
235.33	1.39
235.713	0.6
236.096	1.83
236.479	0.94
236.862	2.94
237.245	1.21
237.628	3.01
238.011	3.45
238.394	2.83
238.777	1.06
239.16	2.19
239.543	1.18
239.925	2.79
240.308	0.77
240.691	1.79
241.073	0.87
241.456	1.33
241.838	2.28
242.221	2.25
242.603	1.93
242.986	1.26
243.368	0.95
243.75	1.78
244.133	1.56
244.515	1.78
244.897	1.86
245.279	1.31
245.661	1.65
246.043	1.34
246.425	3.23
246.807	1.1
247.189	1.5
247.571	1.49
247.953	1.97
248.335	1.68
248.717	1.72
249.098	2.04
249.48	1.41
249.862	1.93
250.243	1.8
250.625	1.87
251.006	2.69
251.388	2.16
251.769	2.35
252.151	1.83
252.532	2.66
252.913	2.58
253.295	1.66
253.676	1.5
254.057	1.21
254.438	2
254.819	1.32
255.2	1.39
255.581	2.22
255.962	1.16
256.343	1.57
256.724	1.46
257.105	1.67
257.486	2.26
257.867	2.33
258.247	0.46
258.628	1.5
259.009	1.55
259.389	1.62
259.77	2.71
260.15	1.9
260.531	2.19
260.911	1.84
261.292	1.97
261.672	1.69
262.052	1.74
262.432	1.9
262.813	1.73
263.193	1.4
263.573	2.02
263.953	2.04
264.333	1.65
264.713	1.59
265.093	2.03
265.473	1.34
265.853	1.56
266.233	2.03
266.612	1.09
266.992	1.37
267.372	2.11
267.752	1.39
268.131	1.43
268.511	1.61
268.89	1.68
269.27	1.41
269.649	1.21
270.029	2.01
270.408	2.02
270.787	1.59
271.167	0.84
271.546	1.56
271.925	1.77
272.304	2.04
272.683	1.62
273.062	1.5
273.441	1.87
273.82	1.43
274.199	1.77
274.578	1.62
274.957	1.83
275.336	1.99
275.715	1.96
276.093	1.47
276.472	1.85
276.851	1.87
277.229	1.55
277.608	2.13
277.986	1.5
278.365	1.76
278.743	1.58
279.122	2.03
279.5	1.93
279.878	2.09
280.257	2.09
280.635	1.77
281.013	1.66
281.391	1.88
281.769	1.22
282.147	1.78
282.525	0.71
282.903	1.26
283.281	1.7
283.659	2.12
284.037	2.12
284.415	2.05
284.792	1.68
285.17	1.91
285.548	1.51
285.925	1.23
286.303	1.52
286.68	2.13
287.058	1.79
287.435	1.67
287.813	1.76
288.19	1.27
288.567	1.72
288.945	1.44
289.322	2.17
289.699	1.59
290.076	1.74
290.453	1.84
290.83	2.01
291.207	1.87
291.584	1.94
291.961	1.89
292.338	1.91
292.715	2.1
293.092	1.77
293.469	1.62
293.845	2.03
294.222	1.89
294.599	2.64
294.975	2.37
295.352	2.13
295.728	2.05
296.105	2.12
296.481	1.86
296.858	1.53
297.234	2.17
297.61	2.03
297.986	2.4
298.363	2.7
298.739	2.14
299.115	2.12
299.491	2.54
299.867	2.31
300.243	2.2
300.619	2.27
300.995	2.59
301.371	2.67
301.746	2.51
302.122	2.36
302.498	2.5
302.874	2.43
303.249	2.32
303.625	2.39
304	1.9
304.376	2.42
304.751	2.27
305.127	1.97
305.502	2.84
305.878	2.73
306.253	2.67
306.628	2.09
307.003	2.76
307.378	2.67
307.754	2.74
308.129	2.81
308.504	2.82
308.879	2.7
309.254	2.71
309.629	3.05
310.003	3.02
310.378	2.77
310.753	3.31
311.128	3.28
311.502	3.13
311.877	2.95
312.252	3.16
312.626	2.91
313.001	3.01
313.375	3.09
313.75	2.96
314.124	2.68
314.498	3.32
314.873	2.57
315.247	3.35
315.621	3.56
315.995	3.68
316.369	3.47
316.743	3.17
317.117	3.46
317.491	3.31
317.865	2.9
318.239	3.38
318.613	3.36
318.987	3.52
319.361	2.91
319.734	3.19
320.108	3.29
320.482	3.37
320.855	3.25
321.229	3.29
321.602	3.46
321.976	3.61
322.349	3.77
322.723	3.93
323.096	3.69
323.469	3.44
323.843	3.86
324.216	4.05
324.589	3.52
324.962	4.35
325.335	3.86
325.708	4.03
326.081	3.83
326.454	3.27
326.827	3.73
327.2	4.5
327.573	4.38
327.945	3.99
328.318	3.94
328.691	4.36
329.063	4.17
329.436	3.99
329.809	3.86
330.181	4
330.553	3.48
330.926	4.01
331.298	4.43
331.671	3.93
332.043	3.69
332.415	4.6
332.787	4.56
333.159	4.21
333.532	4.18
333.904	4.6
334.276	4.14
334.648	4.47
335.02	4.09
335.391	4.53
335.763	4.16
336.135	4.16
336.507	3.99
336.879	4.39
337.25	4.71
337.622	4.61
337.993	4.55
338.365	4.39
338.736	4.61
339.108	4.72
339.479	4.46
339.851	4.66
340.222	4.42
340.593	4.73
340.964	4.14
341.336	4.79
341.707	4.26
342.078	4.12
342.449	4.81
342.82	4.56
343.191	4.72
343.562	4.87
343.933	4.35
344.303	4.36
344.674	4.73
345.045	4.67
345.416	5.03
345.786	4.16
346.157	4.63
346.527	4.77
346.898	4.06
347.268	4.21
347.639	4.85
348.009	4.52
348.38	4.95
348.75	4.55
349.12	5.17
349.49	4.84
349.861	4.29
350.231	4.96
350.601	4.48
350.971	4.68
351.341	4.8
351.711	4.76
352.081	4.91
352.45	5.08
352.82	4.89
353.19	5.21
353.56	4.82
353.929	4.75
354.299	4.83
354.669	4.87
355.038	4.68
355.408	4.99
355.777	5.29
356.147	5.33
356.516	5.05
356.885	5.13
357.254	4.9
357.624	4.47
357.993	5.04
358.362	5.36
358.731	4.54
359.1	5.08
359.469	4.87
359.838	5.05
360.207	5.13
360.576	5.14
360.945	5.17
361.314	4.91
361.682	4.99
362.051	4.98
362.42	5.22
362.788	5.12
363.157	4.94
363.525	5
363.894	4.95
364.262	5.22
364.631	5.37
364.999	5.11
365.367	5.26
365.735	5.35
366.104	5.1
366.472	5.14
366.84	4.94
367.208	5.12
367.576	5.34
367.944	5.36
368.312	5.19
368.68	5.44
369.048	5.47
369.416	5.42
369.783	5.29
370.151	5.5
370.519	5.52
370.886	5.47
371.254	5.69
371.621	5.28
371.989	5.31
372.356	5.36
372.724	5.81
373.091	5.74
373.458	5.48
373.826	5.33
374.193	5.35
374.56	5.66
374.927	5.34
375.294	5.79
375.661	6.07
376.028	5.31
376.395	5.62
376.762	5.87
377.129	5.42
377.496	5.77
377.863	5.74
378.229	5.67
378.596	5.63
378.963	5.79
379.329	5.82
379.696	5.81
380.062	5.49
380.429	5.83
380.795	5.93
381.161	5.93
381.528	5.82
381.894	5.8
382.26	5.99
382.626	6.01
382.993	5.81
383.359	6.26
383.725	5.68
384.091	6.12
384.457	6.15
384.823	5.85
385.188	5.95
385.554	6.03
385.92	5.91
386.286	5.89
386.651	6
387.017	5.8
387.383	5.85
387.748	5.82
388.114	6.09
388.479	5.91
388.845	6.02
389.21	5.85
389.575	6.16
389.94	6.02
390.306	5.89
390.671	6.16
391.036	6.19
391.401	5.96
391.766	6.26
392.131	6.06
392.496	6.47
392.861	6.21
393.226	6.21
393.591	6.18
393.956	6.03
394.32	6.34
394.685	6.26
395.05	6.22
395.414	6.11
395.779	6.21
396.143	6.23
396.508	6.27
396.872	6.44
397.236	6.37
397.601	6.34
397.965	6.34
398.329	6.32
398.694	6.47
399.058	6.35
399.422	6.5
399.786	6.43
400.15	6.57
400.514	6.36
400.878	6.32
401.242	6.65
401.605	6.55
401.969	6.44
402.333	6.22
402.697	6.59
403.06	6.79
403.424	6.32
403.787	6.58
404.151	6.46
404.514	6.34
404.878	6.76
405.241	6.47
405.604	6.27
405.968	6.63
406.331	6.4
406.694	6.52
407.057	6.58
407.42	6.68
407.783	6.6
408.146	6.64
408.509	6.54
408.872	6.78
409.235	6.87
409.598	6.76
409.961	7.03
410.323	6.62
410.686	6.74
411.049	6.74
411.411	6.92
411.774	6.69
412.136	6.68
412.499	6.84
412.861	6.89
413.223	6.62
413.586	6.87
413.948	7.04
414.31	6.91
414.672	6.88
415.035	6.93
415.397	6.88
415.759	6.8
416.121	6.92
416.483	6.95
416.845	7.15
417.206	6.93
417.568	6.65
417.93	7.1
418.292	6.92
418.653	7.06
419.015	7.06
419.377	6.94
419.738	7
420.1	6.86
420.461	7.02
420.822	6.91
421.184	6.99
421.545	6.99
421.906	7
422.267	6.8
422.629	6.8
422.99	6.98
423.351	6.95
423.712	6.86
424.073	7.07
424.434	7.15
424.795	7.19
425.155	6.96
425.516	7.02
425.877	7.05
426.238	7.03
426.598	7.05
426.959	7.03
427.32	7.15
427.68	7.24
428.041	7.34
428.401	7.09
428.761	7.39
429.122	7.25
429.482	7.46
429.842	7.34
430.202	7.51
430.563	7.67
430.923	7.55
431.283	7.26
431.643	7.38
432.003	7.55
432.363	7.44
432.722	7.81
433.082	7.61
433.442	7.78
433.802	7.64
434.161	7.48
434.521	7.51
434.881	7.69
435.24	7.46
435.6	7.57
435.959	7.66
436.319	7.67
436.678	7.63
437.037	7.81
437.396	7.74
437.756	7.66
438.115	7.75
438.474	7.76
438.833	7.81
439.192	7.86
439.551	7.82
439.91	7.66
440.269	7.74
440.628	7.9
440.987	7.86
441.345	7.79
441.704	7.83
442.063	7.86
442.421	7.89
442.78	7.77
443.138	7.92
443.497	7.81
443.855	7.89
444.214	8.03
444.572	8.1
444.93	7.91
445.288	8.08
445.647	8.12
446.005	8.17
446.363	8.18
446.721	8.13
447.079	8.09
447.437	7.9
447.795	7.93
448.153	7.97
448.51	8.02
448.868	8.05
449.226	8.18
449.584	8.16
449.941	8.25
450.299	8.08
450.656	8.38
451.014	8.44
451.371	8.42
451.729	8.36
452.086	8.4
452.443	8.37
452.801	8.57
453.158	8.56
453.515	8.44
453.872	8.44
454.229	8.46
454.586	8.62
454.943	8.64
455.3	8.57
455.657	8.53
456.014	8.59
456.371	8.59
456.727	8.7
457.084	8.52
457.441	8.91
457.797	8.58
458.154	8.66
458.51	8.73
458.867	8.55
459.223	8.78
459.58	8.66
459.936	8.65
460.292	8.66
460.648	8.72
461.005	8.63
461.361	8.62
461.717	8.56
462.073	8.66
462.429	8.58
462.785	8.72
463.141	8.73
463.496	8.91
463.852	9.11
464.208	8.98
464.564	8.91
464.919	8.87
465.275	9.03
465.631	8.96
465.986	9.16
466.342	8.94
466.697	8.9
467.052	9.05
467.408	9.26
467.763	9.06
468.118	9.23
468.473	9.07
468.829	9.23
469.184	9.17
469.539	9.36
469.894	9.27
470.249	9.34
470.603	9.16
470.958	9.25
471.313	9.3
471.668	9.45
472.023	9.15
472.377	9.5
472.732	9.37
473.086	9.33
473.441	9.44
473.795	9.35
474.15	9.23
474.504	9.3
474.859	9.32
475.213	9.59
475.567	9.53
475.921	9.53
476.275	9.46
476.63	9.59
476.984	9.68
477.338	9.53
477.692	9.49
478.045	9.49
478.399	9.52
478.753	9.43
479.107	9.78
479.461	9.64
479.814	9.63
480.168	9.67
480.521	9.69
480.875	9.74
481.228	9.79
481.582	9.85
481.935	9.62
482.289	9.65
482.642	9.71
482.995	9.66
483.348	9.65
483.701	9.8
484.055	9.64
484.408	9.52
484.761	9.39
485.114	9.23
485.466	9.12
485.819	9.13
486.172	9.21
486.525	9.35
486.878	9.46
487.23	9.54
487.583	9.6
487.936	9.59
488.288	9.59
488.641	9.54
488.993	9.51
489.345	9.43
489.698	9.51
490.05	9.52
490.402	9.62
490.754	9.77
491.107	9.75
491.459	9.87
491.811	9.98
492.163	10.05
492.515	9.93
492.866	9.85
493.218	9.68
493.57	9.67
493.922	9.76
494.274	9.88
494.625	10.04
494.977	10.2
495.328	10.27
495.68	10.34
496.031	10.28
496.383	10.38
496.734	10.37
497.086	10.45
497.437	10.44
497.788	10.33
498.139	10.38
498.49	10.36
498.842	10.28
499.193	10.33
499.544	10.45
499.894	10.42
500.245	10.5
500.596	10.5
500.947	10.48
501.298	10.61
501.648	10.69
501.999	10.65
502.35	10.83
502.7	10.65
503.051	10.72
503.401	10.69
503.752	10.73
504.102	10.74
504.452	10.73
504.803	10.69
505.153	10.81
505.503	10.87
505.853	10.82
506.203	10.93
506.553	10.77
506.903	10.87
507.253	10.94
507.603	10.85
507.953	10.92
508.303	10.98
508.652	10.99
509.002	10.76
509.352	10.93
509.701	11.01
510.051	10.88
510.4	10.93
510.75	10.87
511.099	10.85
511.449	10.95
511.798	10.9
512.147	10.94
512.496	10.91
512.846	11.15
513.195	10.98
513.544	11.11
513.893	11.04
514.242	11.07
514.591	11.1
514.939	11.09
515.288	11.24
515.637	11.16
515.986	11.26
516.334	11.3
516.683	11.19
517.032	11.37
517.38	11.4
517.729	11.39
518.077	11.38
518.426	11.41
518.774	11.43
519.122	11.34
519.47	11.34
519.819	11.28
520.167	11.13
520.515	11.25
520.863	11.23
521.211	11.35
521.559	11.36
521.907	11.44
522.255	11.37
522.602	11.61
522.95	11.59
523.298	11.59
523.645	11.62
523.993	11.59
524.341	11.75
524.688	11.61
525.036	11.57
525.383	11.8
525.73	11.7
526.078	11.56
526.425	11.62
526.772	11.61
527.119	11.53
527.466	11.61
527.814	11.6
528.161	11.58
528.508	11.56
528.854	11.64
529.201	11.64
529.548	11.49
529.895	11.39
530.242	11.29
530.588	11.28
530.935	11.3
531.282	11.41
531.628	11.53
531.975	11.61
532.321	11.61
532.667	11.84
533.014	11.88
533.36	11.91
533.706	11.88
534.052	11.94
534.399	11.9
534.745	11.74
535.091	11.58
535.437	11.68
535.783	11.78
536.129	11.96
536.474	12.02
536.82	12.06
537.166	12.08
537.512	12.12
537.857	12.04
538.203	12.08
538.549	12.13
538.894	12.25
539.239	12.16
539.585	12.23
539.93	12.29
540.276	12.44
540.621	12.52
540.966	12.54
541.311	12.53
541.656	12.54
542.001	12.46
542.346	12.33
542.691	12.14
543.036	12
543.381	12.09
543.726	12.11
544.071	12.14
544.415	12.27
544.76	12.4
545.105	12.31
545.449	12.39
545.794	12.63
546.138	12.57
546.483	12.65
546.827	12.61
547.171	12.78
547.516	12.66
547.86	12.66
548.204	12.81
548.548	12.71
548.892	12.68
549.236	12.74
549.58	12.94
549.924	13
550.268	13.18
550.612	13.1
550.956	13.19
551.3	13.13
551.643	13.32
551.987	13.31
552.33	13.2
552.674	13.09
553.017	13.39
553.361	13.23
553.704	13.48
554.048	13.34
554.391	13.21
554.734	13.08
555.077	13.39
555.42	13.19
555.764	13.19
556.107	13.65
556.45	13.57
556.793	13.45
557.135	13.46
557.478	13.67
557.821	13.66
558.164	13.64
558.507	13.5
558.849	13.53
559.192	13.47
559.534	13.67
559.877	13.73
560.219	13.83
560.562	13.67
560.904	13.75
561.246	13.55
561.589	13.86
561.931	13.53
562.273	13.66
562.615	13.75
562.957	13.93
563.299	13.71
563.641	13.48
563.983	13.79
564.325	13.88
564.667	13.97
565.008	14.01
565.35	13.88
565.692	13.83
566.033	13.98
566.375	14.14
566.716	14.17
567.058	13.99
567.399	14.1
567.741	14.07
568.082	14.01
568.423	13.92
568.764	14.08
569.105	13.96
569.447	14.12
569.788	14.05
570.129	14.21
570.47	14.09
570.811	14.06
571.151	14.33
571.492	14.3
571.833	14.28
572.174	14.31
572.514	14.41
572.855	14.46
573.195	14.26
573.536	14.22
573.876	14.41
574.217	14.48
574.557	14.27
574.898	14.38
575.238	14.38
575.578	14.28
575.918	14.66
576.258	14.36
576.598	14.46
576.938	14.51
577.278	14.38
577.618	14.49
577.958	14.51
578.298	14.52
578.638	14.67
578.977	14.58
579.317	14.84
579.657	14.7
579.996	14.79
580.336	14.79
580.675	14.95
581.014	15.02
581.354	14.84
581.693	14.87
582.032	14.92
582.372	14.81
582.711	14.83
583.05	14.9
583.389	15.07
583.728	15.03
584.067	15.05
584.406	15.01
584.745	15.16
585.083	15.16
585.422	14.95
585.761	15.18
586.1	15.05
586.438	15.21
586.777	15.18
587.115	15.23
587.454	15.15
587.792	15.45
588.13	15.38
588.469	15.5
588.807	15.23
589.145	15.32
589.483	15.57
589.821	15.47
590.159	15.49
590.497	15.53
590.835	15.14
591.173	15.31
591.511	15.39
591.849	15.39
592.187	15.52
592.524	15.3
592.862	15.24
593.2	15.54
593.537	15.63
593.875	15.76
594.212	15.37
594.55	15.65
594.887	15.5
595.224	15.62
595.561	15.25
595.899	15.46
596.236	15.45
596.573	15.65
596.91	15.9
597.247	15.74
597.584	15.69
597.921	15.79
598.258	15.77
598.594	15.81
598.931	15.57
599.268	15.63
599.604	15.8
599.941	15.84
600.277	15.94
600.614	15.94
600.95	16.14
601.287	16.14
601.623	16.4
601.959	16.04
602.296	16.14
602.632	16.05
602.968	16.15
603.304	16.27
603.64	16.33
603.976	16.45
604.312	16.11
604.648	16.06
604.984	15.91
605.319	16.32
605.655	16.04
605.991	16
606.326	16.23
606.662	16.16
606.998	16.07
607.333	16.17
607.668	16.25
608.004	16.59
608.339	16.41
608.674	16.62
609.01	16.34
609.345	16.53
609.68	16.49
610.015	16.6
610.35	16.43
610.685	16.63
611.02	16.35
611.355	16.37
611.689	16.35
612.024	16.48
612.359	16.44
612.694	16.42
613.028	16.45
613.363	16.81
613.697	16.96
614.032	16.79
614.366	16.77
614.7	16.6
615.035	16.85
615.369	16.71
615.703	16.79
616.037	16.93
616.371	17.07
616.705	17.11
617.039	16.91
617.373	16.92
617.707	16.7
618.041	16.99
618.375	17.06
618.709	17.3
619.042	17.37
619.376	17.07
619.71	17.31
620.043	17.18
620.377	17.17
620.71	17.12
621.043	17.08
621.377	17.15
621.71	17.12
622.043	17.14
622.376	17.38
622.709	17.13
623.043	17.07
623.376	17.41
623.709	17.46
624.041	17.57
624.374	17.39
624.707	17.77
625.04	17.31
625.373	17.1
625.705	17.13
626.038	17.8
626.37	17.18
626.703	17.68
627.035	17.56
627.368	17.62
627.7	17.27
628.032	17.45
628.365	17.59
628.697	17.54
629.029	17.65
629.361	17.47
629.693	17.59
630.025	17.55
630.357	17.61
630.689	17.66
631.021	17.68
631.353	17.99
631.684	17.94
632.016	17.64
632.348	17.43
632.679	17.38
633.011	17.97
633.342	17.97
633.674	17.85
634.005	17.84
634.336	18.24
634.668	17.94
634.999	18.13
635.33	18.04
635.661	17.96
635.992	17.86
636.323	17.86
636.654	18.38
636.985	18.13
637.316	17.96
637.647	18.47
637.977	18.31
638.308	17.67
638.639	18.09
638.969	17.98
639.3	18.39
639.63	18.27
639.961	18.05
640.291	18.22
640.622	18.48
640.952	18.48
641.282	18.56
641.612	18.1
641.943	18.62
642.273	18.49
642.603	18.6
642.933	18.47
643.263	18.39
643.592	18.73
643.922	18.51
644.252	18.17
644.582	18.35
644.911	18.68
645.241	18.47
645.571	18.23
645.9	18.31
646.23	18.74
646.559	18.53
646.888	18.68
647.218	18.61
647.547	18.82
647.876	18.56
648.205	18.94
648.534	18.52
648.863	18.84
649.192	18.5
649.521	18.93
649.85	19.18
650.179	18.86
650.508	18.63
650.837	18.43
651.165	18.97
651.494	18.91
651.822	18.52
652.151	19.12
652.479	18.86
652.808	19.03
653.136	18.76
653.465	19.08
653.793	19.47
654.121	18.94
654.449	19.03
654.777	19.73
655.105	18.9
655.433	18.66
655.761	19.49
656.089	19.27
656.417	18.87
656.745	19.39
657.073	19.29
657.4	18.93
657.728	19.46
658.056	19.58
658.383	19
658.711	19.33
659.038	19.38
659.365	18.9
659.693	19.48
660.02	19.91
660.347	19.41
660.674	19.71
661.001	19.23
661.329	19.01
661.656	19.07
661.982	19.72
662.309	19.56
662.636	19.8
662.963	19.89
663.29	20.21
663.616	19.38
663.943	19.86
664.27	19.57
664.596	19.89
664.923	19.64
665.249	19.64
665.576	19.45
665.902	19.64
666.228	19.69
666.554	19.43
666.881	19.8
667.207	19.77
667.533	20.27
667.859	20.31
668.185	19.76
668.511	19.29
668.837	20.03
669.162	19.92
669.488	19.71
669.814	19.92
670.139	20.11
670.465	20
670.791	19.91
671.116	19.97
671.442	20.3
671.767	20.81
672.092	20.36
672.418	20.01
672.743	19.86
673.068	20.73
673.393	20.98
673.718	20.28
674.043	20.3
674.368	21
674.693	19.58
675.018	20.27
675.343	20.57
675.667	20.47
675.992	20.94
676.317	20.5
676.641	20.15
676.966	20.83
677.29	19.77
677.615	20.33
677.939	19.86
678.264	20.69
678.588	20.61
678.912	20.5
679.236	20.41
