Data from 20-3_forehead_Reflection__3__103.txt Node

Date: Fri Nov 11 20:55:43 CST 2022
User: ToomeyLab
Spectrometer: FLMS14357
Trigger mode: 0
Integration Time (sec): 1.000000E-2
Scans to average: 100
Electric dark correction enabled: true
Nonlinearity correction enabled: false
Boxcar width: 0
XAxis mode: Wavelengths
Number of Pixels in Spectrum: 2048
>>>>>Begin Spectral Data<<<<<
189.047	19.47
189.435	19.47
189.823	19.47
190.211	-14.69
190.599	57.45
190.987	103.55
191.375	-77.24
191.763	-126.27
192.151	-92.95
192.538	-14.77
192.926	218.99
193.314	404.4
193.702	-1380.25
194.089	2939.39
194.477	41.92
194.864	60.42
195.252	-59.34
195.639	47.68
196.027	-134.31
196.414	2424.76
196.801	122.96
197.189	139.23
197.576	112.61
197.963	-21.74
198.351	-9.46
198.738	17.53
199.125	15.12
199.512	16.69
199.899	-36.02
200.286	14.57
200.673	24.22
201.06	34.18
201.447	15.24
201.833	35.96
202.22	-36.46
202.607	34.25
202.994	36.59
203.38	20.84
203.767	48.3
204.154	2.6
204.54	-8.98
204.927	13.53
205.313	-8.71
205.699	-27.7
206.086	39.8
206.472	42.32
206.858	34.23
207.245	20.84
207.631	3.53
208.017	15.01
208.403	15.13
208.789	18.57
209.175	-8.48
209.561	37.88
209.947	-7.81
210.333	-3.15
210.719	6.18
211.105	28.45
211.491	1.42
211.876	27.31
212.262	42.62
212.648	13.4
213.034	-4.6
213.419	10.09
213.805	-10.04
214.19	-1.69
214.576	6.65
214.961	4.83
215.346	-3.7
215.732	-32.19
216.117	39.14
216.502	12.43
216.888	0.78
217.273	29.47
217.658	-17.52
218.043	14.16
218.428	9.83
218.813	11.2
219.198	20.34
219.583	-13.87
219.968	-13.76
220.353	-37.77
220.738	-21.18
221.122	1.03
221.507	-4.09
221.892	-8.93
222.276	16.4
222.661	17.13
223.046	-22.59
223.43	-2.06
223.815	0.64
224.199	0.66
224.583	0.82
224.968	6.42
225.352	8.99
225.736	-4.73
226.121	3.36
226.505	6.65
226.889	-12.12
227.273	5.27
227.657	-2.38
228.041	0.41
228.425	4
228.809	4.76
229.193	4.62
229.577	4.6
229.961	3.93
230.344	3.85
230.728	2.15
231.112	0.71
231.495	3.67
231.879	2.34
232.263	1.94
232.646	0.39
233.03	3.86
233.413	2.91
233.797	3.72
234.18	3.37
234.563	4.41
234.946	1.31
235.33	3.28
235.713	1.42
236.096	1.69
236.479	1.94
236.862	2.86
237.245	2.24
237.628	3.8
238.011	2.54
238.394	2.83
238.777	2.61
239.16	4.57
239.543	3.2
239.925	3.38
240.308	2.77
240.691	2.79
241.073	2.25
241.456	1.42
241.838	3.58
242.221	2.87
242.603	3.2
242.986	2.5
243.368	3.03
243.75	3.13
244.133	2.87
244.515	2.84
244.897	3.66
245.279	2.51
245.661	3.57
246.043	3.13
246.425	3.8
246.807	3.68
247.189	3.19
247.571	3.55
247.953	2.89
248.335	3.23
248.717	3.34
249.098	3.43
249.48	3.03
249.862	3.77
250.243	2.62
250.625	3.39
251.006	4.09
251.388	3.45
251.769	3.01
252.151	2.98
252.532	3.57
252.913	3.81
253.295	3.95
253.676	2.84
254.057	3.59
254.438	3.44
254.819	2.81
255.2	3.35
255.581	4.2
255.962	2.78
256.343	2.68
256.724	3.11
257.105	3.66
257.486	3.37
257.867	3.58
258.247	2.43
258.628	3.06
259.009	2.84
259.389	3.55
259.77	4.12
260.15	3.38
260.531	3.05
260.911	3
261.292	3.43
261.672	3.22
262.052	3.3
262.432	3.42
262.813	3.35
263.193	3.3
263.573	3.5
263.953	3.69
264.333	3.53
264.713	2.73
265.093	3.82
265.473	2.72
265.853	3.17
266.233	4.26
266.612	2.88
266.992	2.94
267.372	4.48
267.752	2.97
268.131	3.24
268.511	3.14
268.89	2.89
269.27	3.05
269.649	2.46
270.029	3.29
270.408	3.35
270.787	3.05
271.167	2.66
271.546	2.93
271.925	3.67
272.304	3.11
272.683	3.4
273.062	2.88
273.441	3.46
273.82	3.35
274.199	3.08
274.578	3.06
274.957	3.33
275.336	3.66
275.715	3.15
276.093	3.24
276.472	3.23
276.851	2.87
277.229	2.75
277.608	3.26
277.986	3.26
278.365	3
278.743	2.7
279.122	3.78
279.5	2.86
279.878	3.26
280.257	3.46
280.635	3.38
281.013	2.83
281.391	3.57
281.769	2.97
282.147	2.85
282.525	2.36
282.903	3.15
283.281	2.69
283.659	3.47
284.037	3.22
284.415	3.16
284.792	3.06
285.17	3.95
285.548	3.02
285.925	2.5
286.303	2.62
286.68	3.27
287.058	3.23
287.435	3.1
287.813	3.21
288.19	2.93
288.567	2.95
288.945	3.11
289.322	3.61
289.699	2.59
290.076	3.49
290.453	3.56
290.83	3.2
291.207	3.3
291.584	3.44
291.961	3.11
292.338	3.1
292.715	3.65
293.092	3.85
293.469	3.44
293.845	3.76
294.222	3.3
294.599	3.31
294.975	3.89
295.352	4.09
295.728	3.89
296.105	3.81
296.481	3.33
296.858	3.91
297.234	3.78
297.61	3.91
297.986	4.36
298.363	4.07
298.739	3.84
299.115	4.24
299.491	4.28
299.867	4.03
300.243	4.25
300.619	4.43
300.995	4.03
301.371	4.58
301.746	4.44
302.122	4.56
302.498	4.46
302.874	4.34
303.249	4.25
303.625	4.53
304	3.93
304.376	4.81
304.751	4.38
305.127	4.09
305.502	4.51
305.878	5.04
306.253	4.47
306.628	4.52
307.003	4.87
307.378	4.8
307.754	5.26
308.129	4.24
308.504	4.61
308.879	4.87
309.254	4.74
309.629	4.77
310.003	4.96
310.378	5.33
310.753	5.33
311.128	5.19
311.502	5.48
311.877	5.11
312.252	5.15
312.626	5.44
313.001	5.22
313.375	5.35
313.75	5.25
314.124	5.13
314.498	5.65
314.873	5.49
315.247	5.95
315.621	5.76
315.995	6
316.369	5.91
316.743	5.31
317.117	5.8
317.491	5.51
317.865	5.78
318.239	6.01
318.613	6.03
318.987	6.17
319.361	5.91
319.734	5.86
320.108	6.2
320.482	6.42
320.855	5.9
321.229	6.22
321.602	6.04
321.976	6.47
322.349	6.34
322.723	6.44
323.096	6.53
323.469	6.5
323.843	6.36
324.216	6.17
324.589	6.5
324.962	6.98
325.335	6.32
325.708	6.76
326.081	6.31
326.454	6.23
326.827	6.13
327.2	7.14
327.573	7.33
327.945	6.75
328.318	6.43
328.691	6.67
329.063	6.64
329.436	6.62
329.809	6.75
330.181	6.68
330.553	6.46
330.926	6.79
331.298	6.72
331.671	7.31
332.043	6.74
332.415	6.95
332.787	7.62
333.159	7.19
333.532	6.75
333.904	7.35
334.276	7.29
334.648	6.82
335.02	7.09
335.391	7.27
335.763	7.37
336.135	7.42
336.507	7.34
336.879	7.4
337.25	6.92
337.622	7.34
337.993	7.68
338.365	7.47
338.736	7.51
339.108	7.42
339.479	7.56
339.851	7.73
340.222	7.17
340.593	7.77
340.964	7.42
341.336	7.97
341.707	7.35
342.078	7.38
342.449	7.48
342.82	7.81
343.191	7.81
343.562	7.75
343.933	7.54
344.303	7.55
344.674	7.82
345.045	7.66
345.416	7.74
345.786	7.58
346.157	7.29
346.527	7.71
346.898	7.14
347.268	7.29
347.639	7.91
348.009	7.74
348.38	7.95
348.75	8.07
349.12	8.13
349.49	8.19
349.861	7.75
350.231	8.11
350.601	7.84
350.971	8.14
351.341	8.07
351.711	8.24
352.081	8.32
352.45	7.83
352.82	7.77
353.19	8.49
353.56	7.79
353.929	7.99
354.299	7.97
354.669	8.58
355.038	7.96
355.408	7.96
355.777	8.3
356.147	8.08
356.516	8.09
356.885	8.37
357.254	7.89
357.624	8.17
357.993	8.29
358.362	8.39
358.731	8
359.1	8.2
359.469	7.92
359.838	8.17
360.207	8.43
360.576	8.52
360.945	8.66
361.314	8.11
361.682	8.07
362.051	8.29
362.42	8.59
362.788	8.5
363.157	8.26
363.525	8.02
363.894	8.33
364.262	8.5
364.631	8.71
364.999	8.59
365.367	8.41
365.735	8.56
366.104	8.6
366.472	8.36
366.84	8.06
367.208	8.38
367.576	8.92
367.944	8.88
368.312	8.52
368.68	8.6
369.048	8.57
369.416	8.73
369.783	9.03
370.151	9
370.519	8.94
370.886	8.83
371.254	9.13
371.621	8.63
371.989	8.88
372.356	8.88
372.724	9.33
373.091	8.99
373.458	8.93
373.826	8.83
374.193	8.76
374.56	8.86
374.927	8.85
375.294	8.99
375.661	9.25
376.028	8.94
376.395	9.11
376.762	9.46
377.129	9.3
377.496	9.17
377.863	9.19
378.229	9.23
378.596	9
378.963	9.22
379.329	9.29
379.696	9.45
380.062	9.38
380.429	9.26
380.795	9.82
381.161	9.47
381.528	9.3
381.894	9.73
382.26	9.57
382.626	9.41
382.993	9.58
383.359	9.69
383.725	9.56
384.091	9.74
384.457	9.51
384.823	9.7
385.188	9.87
385.554	9.87
385.92	9.48
386.286	9.56
386.651	9.4
387.017	9.38
387.383	9.74
387.748	9.33
388.114	9.54
388.479	9.3
388.845	9.7
389.21	9.54
389.575	9.57
389.94	9.7
390.306	9.82
390.671	10.01
391.036	9.84
391.401	9.59
391.766	9.98
392.131	9.88
392.496	10.15
392.861	9.89
393.226	9.83
393.591	9.8
393.956	9.83
394.32	9.94
394.685	9.84
395.05	10.12
395.414	9.87
395.779	10
396.143	9.97
396.508	10.12
396.872	10.02
397.236	9.99
397.601	10.25
397.965	10.2
398.329	10.25
398.694	10.23
399.058	10.02
399.422	10.36
399.786	10.09
400.15	10.04
400.514	10.16
400.878	10.29
401.242	10.14
401.605	10.48
401.969	10.2
402.333	10.28
402.697	10.2
403.06	10.34
403.424	10.08
403.787	10.39
404.151	10.41
404.514	10.28
404.878	10.53
405.241	10.42
405.604	10.28
405.968	10.34
406.331	10.11
406.694	10.28
407.057	10.44
407.42	10.48
407.783	10.34
408.146	10.63
408.509	10.69
408.872	10.67
409.235	10.78
409.598	10.66
409.961	10.83
410.323	10.56
410.686	10.58
411.049	10.51
411.411	10.48
411.774	10.52
412.136	10.76
412.499	10.61
412.861	10.78
413.223	10.69
413.586	10.69
413.948	11
414.31	10.89
414.672	10.91
415.035	10.74
415.397	10.68
415.759	10.78
416.121	10.63
416.483	10.85
416.845	11.01
417.206	10.91
417.568	10.68
417.93	10.86
418.292	10.76
418.653	10.97
419.015	10.89
419.377	10.71
419.738	10.89
420.1	10.86
420.461	10.88
420.822	10.86
421.184	10.88
421.545	10.86
421.906	10.84
422.267	10.8
422.629	10.58
422.99	10.71
423.351	10.77
423.712	10.8
424.073	10.99
424.434	10.98
424.795	10.92
425.155	10.96
425.516	10.86
425.877	10.82
426.238	10.91
426.598	10.85
426.959	10.92
427.32	11.12
427.68	11.18
428.041	11.42
428.401	11.25
428.761	11.28
429.122	11.23
429.482	11.56
429.842	11.47
430.202	11.6
430.563	11.63
430.923	11.41
431.283	11.33
431.643	11.62
432.003	11.56
432.363	11.67
432.722	11.69
433.082	11.72
433.442	11.7
433.802	11.75
434.161	11.54
434.521	11.55
434.881	11.65
435.24	11.66
435.6	11.65
435.959	11.7
436.319	11.68
436.678	11.86
437.037	11.83
437.396	11.88
437.756	11.8
438.115	11.95
438.474	11.82
438.833	12.11
439.192	11.98
439.551	11.94
439.91	12.05
440.269	12.1
440.628	12.04
440.987	11.92
441.345	11.75
441.704	12.01
442.063	11.89
442.421	11.83
442.78	11.83
443.138	11.99
443.497	12.02
443.855	12.09
444.214	12.08
444.572	12.23
444.93	12.34
445.288	12.13
445.647	12.18
446.005	12.31
446.363	12.3
446.721	12.21
447.079	12.11
447.437	12
447.795	12.03
448.153	11.95
448.51	12.16
448.868	12.13
449.226	12.23
449.584	12.17
449.941	12.36
450.299	12.26
450.656	12.41
451.014	12.51
451.371	12.6
451.729	12.66
452.086	12.63
452.443	12.72
452.801	12.78
453.158	12.61
453.515	12.8
453.872	12.63
454.229	12.64
454.586	12.71
454.943	12.89
455.3	12.79
455.657	12.81
456.014	12.99
456.371	12.82
456.727	12.9
457.084	12.61
457.441	13
457.797	12.81
458.154	12.95
458.51	12.99
458.867	12.93
459.223	13.19
459.58	13.17
459.936	12.93
460.292	12.96
460.648	12.94
461.005	12.85
461.361	12.78
461.717	12.7
462.073	12.99
462.429	12.83
462.785	13.07
463.141	13.01
463.496	13.15
463.852	13.4
464.208	13.31
464.564	13.34
464.919	13.26
465.275	13.32
465.631	13.4
465.986	13.6
466.342	13.58
466.697	13.42
467.052	13.44
467.408	13.63
467.763	13.45
468.118	13.47
468.473	13.59
468.829	13.49
469.184	13.62
469.539	13.63
469.894	13.65
470.249	13.7
470.603	13.69
470.958	13.62
471.313	13.77
471.668	13.72
472.023	13.62
472.377	13.65
472.732	13.65
473.086	13.74
473.441	13.97
473.795	13.77
474.15	13.8
474.504	13.97
474.859	13.81
475.213	14.08
475.567	14.11
475.921	14.04
476.275	14.08
476.63	14.1
476.984	14.15
477.338	14.36
477.692	14
478.045	13.9
478.399	14.12
478.753	13.9
479.107	14.06
479.461	14.07
479.814	14.09
480.168	14.18
480.521	14.24
480.875	14.2
481.228	14.17
481.582	14.31
481.935	14.15
482.289	14.19
482.642	14.22
482.995	14.2
483.348	14.09
483.701	14.18
484.055	14.02
484.408	13.89
484.761	13.75
485.114	13.51
485.466	13.34
485.819	13.38
486.172	13.54
486.525	13.76
486.878	13.84
487.23	14.02
487.583	14.04
487.936	14.11
488.288	14.01
488.641	13.88
488.993	13.8
489.345	13.75
489.698	13.81
490.05	13.9
490.402	14.02
490.754	14.19
491.107	14.34
491.459	14.39
491.811	14.51
492.163	14.47
492.515	14.55
492.866	14.28
493.218	14.09
493.57	13.97
493.922	14.21
494.274	14.45
494.625	14.66
494.977	14.79
495.328	14.86
495.68	14.82
496.031	14.92
496.383	15
496.734	15.06
497.086	15.34
497.437	15.09
497.788	14.97
498.139	15.03
498.49	15.03
498.842	14.87
499.193	15.05
499.544	15.13
499.894	15.09
500.245	15.11
500.596	15.28
500.947	15.11
501.298	15.2
501.648	15.27
501.999	15.3
502.35	15.43
502.7	15.54
503.051	15.54
503.401	15.48
503.752	15.49
504.102	15.6
504.452	15.55
504.803	15.61
505.153	15.53
505.503	15.63
505.853	15.57
506.203	15.66
506.553	15.55
506.903	15.52
507.253	15.66
507.603	15.69
507.953	15.71
508.303	15.77
508.652	15.71
509.002	15.87
509.352	15.77
509.701	15.87
510.051	15.67
510.4	15.7
510.75	15.52
511.099	15.63
511.449	15.7
511.798	15.72
512.147	15.78
512.496	15.82
512.846	15.99
513.195	15.82
513.544	15.88
513.893	15.78
514.242	15.84
514.591	15.99
514.939	15.9
515.288	16.15
515.637	16.06
515.986	16.21
516.334	16.18
516.683	16.14
517.032	16.31
517.38	16.24
517.729	16.38
518.077	16.32
518.426	16.36
518.774	16.12
519.122	16.16
519.47	16.21
519.819	16.03
520.167	15.97
520.515	16.05
520.863	16.04
521.211	16.18
521.559	16.22
521.907	16.17
522.255	16.25
522.602	16.36
522.95	16.45
523.298	16.6
523.645	16.59
523.993	16.68
524.341	16.84
524.688	16.63
525.036	16.68
525.383	16.67
525.73	16.51
526.078	16.64
526.425	16.67
526.772	16.64
527.119	16.38
527.466	16.37
527.814	16.42
528.161	16.47
528.508	16.6
528.854	16.58
529.201	16.47
529.548	16.38
529.895	16.08
530.242	15.98
530.588	16.03
530.935	16.12
531.282	16.33
531.628	16.45
531.975	16.63
532.321	16.69
532.667	16.83
533.014	16.93
533.36	16.85
533.706	16.89
534.052	16.8
534.399	16.62
534.745	16.61
535.091	16.48
535.437	16.59
535.783	16.75
536.129	16.89
536.474	17.09
536.82	17.15
537.166	17.19
537.512	17.11
537.857	17.12
538.203	16.89
538.549	17.02
538.894	17.06
539.239	17.24
539.585	17.3
539.93	17.49
540.276	17.59
540.621	17.58
540.966	17.76
541.311	17.64
541.656	17.79
542.001	17.47
542.346	17.29
542.691	17.06
543.036	16.8
543.381	16.99
543.726	17.08
544.071	17.22
544.415	17.35
544.76	17.4
545.105	17.4
545.449	17.51
545.794	17.71
546.138	17.69
546.483	17.66
546.827	18.01
547.171	17.77
547.516	17.78
547.86	17.91
548.204	17.86
548.548	17.78
548.892	17.9
549.236	17.91
549.58	18.22
549.924	18.27
550.268	18.29
550.612	18.38
550.956	18.45
551.3	18.34
551.643	18.49
551.987	18.58
552.33	18.4
552.674	18.37
553.017	18.68
553.361	18.6
553.704	18.49
554.048	18.47
554.391	18.49
554.734	18.46
555.077	18.53
555.42	18.63
555.764	18.6
556.107	18.7
556.45	18.98
556.793	18.9
557.135	18.77
557.478	19
557.821	18.77
558.164	18.93
558.507	18.86
558.849	19.07
559.192	19.07
559.534	19.06
559.877	19.12
560.219	19.08
560.562	19.13
560.904	19.2
561.246	19.05
561.589	19.08
561.931	19.15
562.273	19.16
562.615	19.12
562.957	19.21
563.299	19.07
563.641	19.01
563.983	19.2
564.325	19.39
564.667	19.25
565.008	19.32
565.35	19.22
565.692	19.12
566.033	19.3
566.375	19.47
566.716	19.44
567.058	19.41
567.399	19.41
567.741	19.47
568.082	19.48
568.423	19.33
568.764	19.46
569.105	19.37
569.447	19.57
569.788	19.62
570.129	19.63
570.47	19.6
570.811	19.76
571.151	19.76
571.492	19.93
571.833	19.71
572.174	19.86
572.514	19.83
572.855	19.71
573.195	19.64
573.536	19.67
573.876	19.73
574.217	19.83
574.557	19.68
574.898	19.95
575.238	19.76
575.578	19.78
575.918	20.05
576.258	19.96
576.598	19.9
576.938	19.98
577.278	19.88
577.618	19.99
577.958	20.17
578.298	20.16
578.638	20.37
578.977	20.25
579.317	20.25
579.657	20.3
579.996	20.4
580.336	20.31
580.675	20.38
581.014	20.68
581.354	20.33
581.693	20.55
582.032	20.39
582.372	20.51
582.711	20.58
583.05	20.61
583.389	20.66
583.728	20.76
584.067	20.8
584.406	20.39
584.745	21.06
585.083	20.86
585.422	20.85
585.761	21.08
586.1	20.73
586.438	20.7
586.777	20.82
587.115	20.87
587.454	20.76
587.792	21.03
588.13	21.11
588.469	20.84
588.807	21.07
589.145	21.01
589.483	21.26
589.821	21.01
590.159	21.02
590.497	21.06
590.835	21.03
591.173	20.91
591.511	20.74
591.849	21.26
592.187	21.04
592.524	20.99
592.862	21.23
593.2	21.16
593.537	21.15
593.875	21.26
594.212	21.31
594.55	21.41
594.887	21.34
595.224	21.3
595.561	21.28
595.899	21.23
596.236	21.3
596.573	21.23
596.91	21.52
597.247	21.46
597.584	21.34
597.921	21.63
598.258	21.3
598.594	21.35
598.931	21.18
599.268	21.15
599.604	21.4
599.941	21.45
600.277	21.86
600.614	21.7
600.95	21.64
601.287	21.81
601.623	22.01
601.959	22
602.296	21.71
602.632	21.89
602.968	21.93
603.304	21.84
603.64	22.04
603.976	22.06
604.312	21.83
604.648	21.65
604.984	21.83
605.319	21.9
605.655	21.8
605.991	21.84
606.326	21.72
606.662	21.65
606.998	21.73
607.333	21.97
607.668	21.95
608.004	22.12
608.339	22.21
608.674	22.12
609.01	22.56
609.345	22.15
609.68	22.01
610.015	22.43
610.35	22.14
610.685	22.43
611.02	22.11
611.355	22.14
611.689	22.14
612.024	22.11
612.359	22.45
612.694	22.43
613.028	22.44
613.363	22.6
613.697	22.69
614.032	22.52
614.366	22.55
614.7	22.65
615.035	22.51
615.369	22.53
615.703	22.62
616.037	23.05
616.371	22.92
616.705	22.7
617.039	22.91
617.373	22.83
617.707	22.73
618.041	22.91
618.375	22.56
618.709	23.43
619.042	23.13
619.376	23.02
619.71	23.32
620.043	22.76
620.377	22.82
620.71	22.87
621.043	23.04
621.377	23.28
621.71	23.15
622.043	23.41
622.376	23.13
622.709	22.84
623.043	23.2
623.376	23.43
623.709	23.49
624.041	23.41
624.374	22.94
624.707	23.42
625.04	23.21
625.373	23.2
625.705	23.53
626.038	23.49
626.37	23.62
626.703	23.58
627.035	23.53
627.368	23.55
627.7	23.45
628.032	23.35
628.365	23.61
628.697	23.28
629.029	23.36
629.361	23.36
629.693	23.27
630.025	23.51
630.357	23.49
630.689	23.49
631.021	23.55
631.353	23.82
631.684	23.85
632.016	23.83
632.348	23.72
632.679	23.81
633.011	23.83
633.342	24.32
633.674	23.59
634.005	23.96
634.336	23.91
634.668	23.56
634.999	24
635.33	23.96
635.661	24.24
635.992	23.93
636.323	23.78
636.654	23.91
636.985	24.3
637.316	23.92
637.647	24.2
637.977	24.38
638.308	24.21
638.639	24.21
638.969	23.99
639.3	24.79
639.63	24.73
639.961	23.98
640.291	24.61
640.622	24.49
640.952	24.63
641.282	24.11
641.612	24.32
641.943	24.39
642.273	24.3
642.603	24.71
642.933	24.66
643.263	24.33
643.592	24.34
643.922	24.53
644.252	24.58
644.582	25.06
644.911	24.32
645.241	25.07
645.571	24.63
645.9	24.97
646.23	25.03
646.559	24.85
646.888	24.8
647.218	24.8
647.547	24.91
647.876	24.67
648.205	24.83
648.534	24.88
648.863	25.08
649.192	24.8
649.521	24.61
649.85	25.32
650.179	24.87
650.508	24.69
650.837	25.43
651.165	25
651.494	24.98
651.822	24.84
652.151	25.19
652.479	24.93
652.808	24.75
653.136	24.83
653.465	25.37
653.793	25.36
654.121	25.21
654.449	25.03
654.777	25.23
655.105	25.42
655.433	25.18
655.761	25.16
656.089	25.61
656.417	25.12
656.745	25.49
657.073	25.49
657.4	25.21
657.728	26.29
658.056	25.67
658.383	25.44
658.711	25.32
659.038	25.76
659.365	25.36
659.693	25.6
660.02	26.48
660.347	25.55
660.674	25.55
661.001	25.36
661.329	25.27
661.656	25.13
661.982	25.86
662.309	25.79
662.636	25.85
662.963	25.8
663.29	25.64
663.616	25.31
663.943	25.7
664.27	26.02
664.596	26.29
664.923	25.76
665.249	26
665.576	26.36
665.902	26.26
666.228	26.44
666.554	25.86
666.881	25.93
667.207	26.09
667.533	26.39
667.859	26.74
668.185	26.57
668.511	26.09
668.837	26.05
669.162	26.05
669.488	25.92
669.814	26.31
670.139	26.6
670.465	26.13
670.791	26.33
671.116	26.76
671.442	26.29
671.767	26.82
672.092	26.49
672.418	25.71
672.743	26.56
673.068	26.87
673.393	26.8
673.718	26.65
674.043	26.32
