Data from 20-3_crown_Reflection__4__99.txt Node

Date: Fri Nov 11 20:54:23 CST 2022
User: ToomeyLab
Spectrometer: FLMS14357
Trigger mode: 0
Integration Time (sec): 1.000000E-2
Scans to average: 100
Electric dark correction enabled: true
Nonlinearity correction enabled: false
Boxcar width: 0
XAxis mode: Wavelengths
Number of Pixels in Spectrum: 2048
>>>>>Begin Spectral Data<<<<<
189.047	49.7
189.435	49.7
189.823	49.7
190.211	62.28
190.599	-22.97
190.987	204.02
191.375	-100.88
191.763	-31.2
192.151	-21.06
192.538	-11.9
192.926	327.89
193.314	579.19
193.702	-798.77
194.089	6330.3
194.477	142.14
194.864	-3.65
195.252	195.8
195.639	39.58
196.027	-122.44
196.414	107.62
196.801	55.86
197.189	150.15
197.576	202.99
197.963	43.58
198.351	-60.37
198.738	-37.53
199.125	-5.84
199.512	-14.7
199.899	-139.83
200.286	-4.9
200.673	16.3
201.06	27.22
201.447	8.74
201.833	13.28
202.22	-10.87
202.607	31.91
202.994	29.52
203.38	12.49
203.767	-7.03
204.154	7.7
204.54	33.78
204.927	-12.96
205.313	7.98
205.699	-22.64
206.086	17.02
206.472	-17.87
206.858	12.67
207.245	27.83
207.631	-5.69
208.017	12.78
208.403	-7.63
208.789	8.21
209.175	-2.66
209.561	47.52
209.947	-1.35
210.333	7.21
210.719	19.4
211.105	33.88
211.491	-6.38
211.876	2.76
212.262	-0.49
212.648	-20.05
213.034	-29.21
213.419	-55.3
213.805	-4.33
214.19	-8.6
214.576	9.75
214.961	-19.13
215.346	-32.54
215.732	4.69
216.117	8.18
216.502	-16.61
216.888	-45.5
217.273	14.24
217.658	-1.03
218.043	-1.45
218.428	-3.09
218.813	8.15
219.198	8.61
219.583	4.7
219.968	5.5
220.353	-26.91
220.738	-4.88
221.122	7.83
221.507	-9.56
221.892	5.96
222.276	17.06
222.661	10.41
223.046	-5.91
223.43	-8.78
223.815	-2.95
224.199	-5.91
224.583	-11.53
224.968	7.98
225.352	-6.47
225.736	-0.29
226.121	4.23
226.505	3.31
226.889	-6.07
227.273	2.52
227.657	-0.11
228.041	1.98
228.425	4.69
228.809	5.64
229.193	6.73
229.577	5.96
229.961	5.76
230.344	5.49
230.728	4.66
231.112	3.79
231.495	6.28
231.879	3.64
232.263	5.72
232.646	3.96
233.03	4.68
233.413	4.2
233.797	4.91
234.18	3.38
234.563	3.81
234.946	4.98
235.33	3.37
235.713	3.86
236.096	3.63
236.479	3
236.862	6.16
237.245	4.07
237.628	5.29
238.011	5.82
238.394	4.01
238.777	3.93
239.16	6.63
239.543	3.58
239.925	4.88
240.308	3.28
240.691	4.71
241.073	2.72
241.456	3.18
241.838	4.87
242.221	4.97
242.603	5.56
242.986	4.73
243.368	4.89
243.75	4.67
244.133	4.66
244.515	4.64
244.897	5.16
245.279	4.94
245.661	4.58
246.043	4.41
246.425	4.88
246.807	4.88
247.189	4.48
247.571	4.83
247.953	4.6
248.335	4.79
248.717	4.66
249.098	4.92
249.48	4.46
249.862	4.73
250.243	4.76
250.625	4.07
251.006	5.18
251.388	5.22
251.769	4.69
252.151	4.8
252.532	4.67
252.913	4.25
253.295	4.51
253.676	4.2
254.057	4.24
254.438	4.89
254.819	3.73
255.2	4.11
255.581	5.15
255.962	3.18
256.343	3.85
256.724	3.67
257.105	3.54
257.486	3.63
257.867	4.66
258.247	3.84
258.628	3.83
259.009	4.26
259.389	4.23
259.77	4.61
260.15	4.19
260.531	4.58
260.911	4.41
261.292	4.38
261.672	4.12
262.052	4.19
262.432	4.55
262.813	4.17
263.193	4.21
263.573	4.28
263.953	4.89
264.333	4.06
264.713	3.95
265.093	4.48
265.473	3.53
265.853	4.26
266.233	4.58
266.612	4.47
266.992	3.88
267.372	4.45
267.752	3.67
268.131	4.22
268.511	3.65
268.89	3.75
269.27	4.34
269.649	3.76
270.029	4.43
270.408	4.11
270.787	3.99
271.167	3.81
271.546	4.23
271.925	3.87
272.304	4.2
272.683	3.92
273.062	3.65
273.441	4.27
273.82	3.95
274.199	3.87
274.578	3.73
274.957	4.19
275.336	4.17
275.715	4.17
276.093	3.6
276.472	3.97
276.851	4
277.229	3.53
277.608	4.41
277.986	3.55
278.365	3.82
278.743	4.09
279.122	4.4
279.5	3.69
279.878	3.96
280.257	3.92
280.635	3.68
281.013	4.12
281.391	3.85
281.769	4.03
282.147	3.45
282.525	3.35
282.903	3.56
283.281	3.71
283.659	3.74
284.037	4.2
284.415	3.7
284.792	4.12
285.17	4.06
285.548	3.62
285.925	3.49
286.303	3.74
286.68	4.32
287.058	3.72
287.435	3.83
287.813	3.69
288.19	3.51
288.567	3.66
288.945	3.51
289.322	3.8
289.699	3.49
290.076	4.43
290.453	3.83
290.83	3.64
291.207	3.64
291.584	3.86
291.961	3.74
292.338	3.59
292.715	3.57
293.092	3.64
293.469	3.45
293.845	3.65
294.222	3.47
294.599	4.05
294.975	3.68
295.352	3.55
295.728	3.88
296.105	3.31
296.481	3.34
296.858	3.59
297.234	3.67
297.61	3.61
297.986	4.02
298.363	3.89
298.739	3.88
299.115	3.8
299.491	3.99
299.867	3.82
300.243	3.56
300.619	3.87
300.995	4.04
301.371	4.43
301.746	4.16
302.122	3.68
302.498	3.71
302.874	3.92
303.249	3.49
303.625	3.81
304	3.24
304.376	3.97
304.751	3.36
305.127	3.78
305.502	3.96
305.878	4.22
306.253	3.94
306.628	3.92
307.003	3.94
307.378	3.9
307.754	4.36
308.129	3.89
308.504	3.79
308.879	3.82
309.254	3.77
309.629	3.45
310.003	4.09
310.378	3.95
310.753	4.36
311.128	4.17
311.502	3.9
311.877	3.53
312.252	4.09
312.626	3.8
313.001	3.89
313.375	3.71
313.75	3.88
314.124	3.6
314.498	4
314.873	4.25
315.247	4.11
315.621	3.99
315.995	4.07
316.369	3.98
316.743	3.74
317.117	3.78
317.491	3.45
317.865	3.62
318.239	3.6
318.613	4.05
318.987	4.07
319.361	4
319.734	3.63
320.108	3.27
320.482	4.22
320.855	3.46
321.229	4.03
321.602	3.99
321.976	4.04
322.349	3.62
322.723	3.74
323.096	3.53
323.469	3.59
323.843	3.97
324.216	3.81
324.589	4.24
324.962	4.05
325.335	3.66
325.708	3.85
326.081	4.02
326.454	4.09
326.827	3.81
327.2	4.42
327.573	4.45
327.945	3.65
328.318	3.88
328.691	4.29
329.063	3.95
329.436	3.68
329.809	3.67
330.181	4.4
330.553	3.47
330.926	4.39
331.298	3.85
331.671	3.69
332.043	3.5
332.415	4.24
332.787	4.27
333.159	4.2
333.532	4
333.904	4.27
334.276	4.13
334.648	3.87
335.02	4.15
335.391	4.05
335.763	4.33
336.135	4.33
336.507	4.3
336.879	4.06
337.25	3.64
337.622	4.26
337.993	4.09
338.365	4.14
338.736	3.92
339.108	3.82
339.479	3.7
339.851	3.98
340.222	4
340.593	4.22
340.964	4.2
341.336	4.24
341.707	4
342.078	3.84
342.449	4.4
342.82	4.3
343.191	4.04
343.562	4.36
343.933	4.05
344.303	3.57
344.674	4.15
345.045	4.02
345.416	4.46
345.786	3.99
346.157	3.74
346.527	3.83
346.898	3.83
347.268	4.09
347.639	4.17
348.009	3.94
348.38	4.17
348.75	4.03
349.12	4.41
349.49	4.33
349.861	4.19
350.231	4.08
350.601	4.09
350.971	4.11
351.341	4.34
351.711	4.23
352.081	4.43
352.45	3.96
352.82	4.07
353.19	4.55
353.56	3.87
353.929	4.09
354.299	4.41
354.669	4.46
355.038	4.08
355.408	4.27
355.777	4.41
356.147	4.38
356.516	4.09
356.885	4.29
357.254	4.64
357.624	3.8
357.993	4.34
358.362	4.19
358.731	3.81
359.1	4.15
359.469	3.88
359.838	4.19
360.207	4.35
360.576	4.34
360.945	4.37
361.314	3.83
361.682	4.22
362.051	4.34
362.42	4.34
362.788	4.25
363.157	4.06
363.525	4.13
363.894	4.04
364.262	4.33
364.631	4.39
364.999	4.19
365.367	4.41
365.735	4.08
366.104	4.21
366.472	4.3
366.84	3.87
367.208	3.93
367.576	4.5
367.944	4.53
368.312	4.24
368.68	4.12
369.048	4.22
369.416	4.06
369.783	4.27
370.151	4.08
370.519	4.38
370.886	4.46
371.254	4.57
371.621	4.17
371.989	4.11
372.356	4.27
372.724	4.77
373.091	4.61
373.458	4.37
373.826	4.3
374.193	4.08
374.56	4.3
374.927	4.08
375.294	4.84
375.661	4.59
376.028	4.08
376.395	4.4
376.762	4.51
377.129	4.24
377.496	3.99
377.863	4.32
378.229	4.26
378.596	4.06
378.963	4.31
379.329	4.47
379.696	4.34
380.062	4.37
380.429	4.7
380.795	4.72
381.161	4.44
381.528	4.18
381.894	4.39
382.26	4.59
382.626	4.62
382.993	4.28
383.359	4.86
383.725	4.31
384.091	4.46
384.457	4.47
384.823	4.25
385.188	4.28
385.554	4.43
385.92	4.2
386.286	4.16
386.651	4.55
387.017	4.24
387.383	4.63
387.748	4.32
388.114	4.54
388.479	4.3
388.845	4.46
389.21	4.32
389.575	4.4
389.94	4.57
390.306	4.38
390.671	4.44
391.036	4.46
391.401	4.48
391.766	4.6
392.131	4.38
392.496	4.31
392.861	4.5
393.226	4.34
393.591	4.5
393.956	4.48
394.32	4.38
394.685	4.3
395.05	4.6
395.414	4.32
395.779	4.53
396.143	4.38
396.508	4.64
396.872	4.54
397.236	4.51
397.601	4.49
397.965	4.43
398.329	4.3
398.694	4.67
399.058	4.67
399.422	4.47
399.786	4.49
400.15	4.66
400.514	4.4
400.878	4.55
401.242	4.45
401.605	4.66
401.969	4.53
402.333	4.52
402.697	4.61
403.06	4.66
403.424	4.4
403.787	4.65
404.151	4.55
404.514	4.43
404.878	4.47
405.241	4.47
405.604	4.48
405.968	4.59
406.331	4.31
406.694	4.22
407.057	4.51
407.42	4.78
407.783	4.77
408.146	4.6
408.509	4.77
408.872	4.54
409.235	4.78
409.598	4.63
409.961	4.65
410.323	4.52
410.686	4.7
411.049	4.48
411.411	4.39
411.774	4.65
412.136	4.57
412.499	4.53
412.861	4.54
413.223	4.53
413.586	4.64
413.948	4.78
414.31	4.71
414.672	4.53
415.035	4.68
415.397	4.48
415.759	4.46
416.121	4.43
416.483	4.76
416.845	4.71
417.206	4.42
417.568	4.44
417.93	4.4
418.292	4.29
418.653	4.53
419.015	4.62
419.377	4.6
419.738	4.71
420.1	4.53
420.461	4.68
420.822	4.51
421.184	4.51
421.545	4.55
421.906	4.55
422.267	4.52
422.629	4.41
422.99	4.51
423.351	4.45
423.712	4.52
424.073	4.6
424.434	4.57
424.795	4.64
425.155	4.48
425.516	4.49
425.877	4.55
426.238	4.52
426.598	4.44
426.959	4.5
427.32	4.66
427.68	4.6
428.041	4.64
428.401	4.35
428.761	4.7
429.122	4.57
429.482	4.58
429.842	4.56
430.202	4.67
430.563	4.68
430.923	4.58
431.283	4.59
431.643	4.54
432.003	4.76
432.363	4.62
432.722	4.75
433.082	4.49
433.442	4.69
433.802	4.62
434.161	4.52
434.521	4.65
434.881	4.73
435.24	4.66
435.6	4.6
435.959	4.58
436.319	4.62
436.678	4.68
437.037	4.56
437.396	4.66
437.756	4.62
438.115	4.55
438.474	4.61
438.833	4.58
439.192	4.68
439.551	4.71
439.91	4.73
440.269	4.7
440.628	4.63
440.987	4.65
441.345	4.59
441.704	4.6
442.063	4.63
442.421	4.61
442.78	4.58
443.138	4.56
443.497	4.55
443.855	4.59
444.214	4.61
444.572	4.74
444.93	4.68
445.288	4.61
445.647	4.79
446.005	4.7
446.363	4.6
446.721	4.65
447.079	4.72
447.437	4.62
447.795	4.55
448.153	4.49
448.51	4.57
448.868	4.6
449.226	4.62
449.584	4.58
449.941	4.7
450.299	4.61
450.656	4.72
451.014	4.76
451.371	4.76
451.729	4.62
452.086	4.75
452.443	4.74
452.801	4.68
453.158	4.75
453.515	4.68
453.872	4.69
454.229	4.69
454.586	4.67
454.943	4.74
455.3	4.71
455.657	4.66
456.014	4.67
456.371	4.7
456.727	4.71
457.084	4.6
457.441	4.88
457.797	4.74
458.154	4.66
458.51	4.73
458.867	4.46
459.223	4.62
459.58	4.75
459.936	4.6
460.292	4.58
460.648	4.61
461.005	4.62
461.361	4.61
461.717	4.53
462.073	4.6
462.429	4.61
462.785	4.58
463.141	4.57
463.496	4.55
463.852	4.84
464.208	4.78
464.564	4.62
464.919	4.52
465.275	4.52
465.631	4.75
465.986	4.79
466.342	4.7
466.697	4.68
467.052	4.74
467.408	4.68
467.763	4.62
468.118	4.6
468.473	4.71
468.829	4.76
469.184	4.58
469.539	4.63
469.894	4.8
470.249	4.71
470.603	4.65
470.958	4.69
471.313	4.89
471.668	4.77
472.023	4.53
472.377	4.89
472.732	4.6
473.086	4.7
473.441	4.57
473.795	4.73
474.15	4.66
474.504	4.77
474.859	4.77
475.213	4.76
475.567	4.68
475.921	4.83
476.275	4.58
476.63	4.68
476.984	4.62
477.338	4.69
477.692	4.59
478.045	4.61
478.399	4.58
478.753	4.59
479.107	4.73
479.461	4.6
479.814	4.53
480.168	4.72
480.521	4.64
480.875	4.68
481.228	4.58
481.582	4.62
481.935	4.57
482.289	4.49
482.642	4.64
482.995	4.52
483.348	4.56
483.701	4.67
484.055	4.48
484.408	4.47
484.761	4.44
485.114	4.33
485.466	4.28
485.819	4.3
486.172	4.33
486.525	4.38
486.878	4.41
487.23	4.39
487.583	4.5
487.936	4.42
488.288	4.53
488.641	4.39
488.993	4.41
489.345	4.36
489.698	4.37
490.05	4.42
490.402	4.43
490.754	4.47
491.107	4.39
491.459	4.45
491.811	4.51
492.163	4.53
492.515	4.48
492.866	4.44
493.218	4.37
493.57	4.39
493.922	4.4
494.274	4.43
494.625	4.48
494.977	4.58
495.328	4.54
495.68	4.47
496.031	4.56
496.383	4.57
496.734	4.59
497.086	4.6
497.437	4.69
497.788	4.49
498.139	4.58
498.49	4.61
498.842	4.4
499.193	4.64
499.544	4.59
499.894	4.52
500.245	4.58
500.596	4.63
500.947	4.58
501.298	4.59
501.648	4.62
501.999	4.58
502.35	4.81
502.7	4.71
503.051	4.6
503.401	4.62
503.752	4.55
504.102	4.62
504.452	4.63
504.803	4.63
505.153	4.5
505.503	4.62
505.853	4.54
506.203	4.53
506.553	4.48
506.903	4.51
507.253	4.55
507.603	4.64
507.953	4.62
508.303	4.58
508.652	4.61
509.002	4.52
509.352	4.66
509.701	4.54
510.051	4.54
510.4	4.63
510.75	4.42
511.099	4.34
511.449	4.55
511.798	4.47
512.147	4.48
512.496	4.36
512.846	4.61
513.195	4.44
513.544	4.54
513.893	4.44
514.242	4.49
514.591	4.66
514.939	4.51
515.288	4.51
515.637	4.47
515.986	4.5
516.334	4.5
516.683	4.55
517.032	4.55
517.38	4.56
517.729	4.58
518.077	4.57
518.426	4.68
518.774	4.59
519.122	4.55
519.47	4.55
519.819	4.53
520.167	4.44
520.515	4.42
520.863	4.5
521.211	4.44
521.559	4.39
521.907	4.52
522.255	4.42
522.602	4.54
522.95	4.48
523.298	4.66
523.645	4.58
523.993	4.49
524.341	4.62
524.688	4.53
525.036	4.55
525.383	4.56
525.73	4.51
526.078	4.44
526.425	4.33
526.772	4.5
527.119	4.43
527.466	4.45
527.814	4.41
528.161	4.43
528.508	4.44
528.854	4.34
529.201	4.44
529.548	4.31
529.895	4.3
530.242	4.22
530.588	4.26
530.935	4.26
531.282	4.31
531.628	4.31
531.975	4.4
532.321	4.36
532.667	4.48
533.014	4.41
533.36	4.43
533.706	4.54
534.052	4.4
534.399	4.36
534.745	4.29
535.091	4.36
535.437	4.34
535.783	4.35
536.129	4.41
536.474	4.45
536.82	4.42
537.166	4.45
537.512	4.36
537.857	4.38
538.203	4.31
538.549	4.46
538.894	4.37
539.239	4.4
539.585	4.43
539.93	4.43
540.276	4.6
540.621	4.53
540.966	4.53
541.311	4.46
541.656	4.49
542.001	4.46
542.346	4.49
542.691	4.33
543.036	4.25
543.381	4.33
543.726	4.31
544.071	4.35
544.415	4.4
544.76	4.38
545.105	4.35
545.449	4.34
545.794	4.45
546.138	4.46
546.483	4.44
546.827	4.48
547.171	4.53
547.516	4.45
547.86	4.44
548.204	4.48
548.548	4.4
548.892	4.48
549.236	4.46
549.58	4.61
549.924	4.5
550.268	4.56
550.612	4.58
550.956	4.56
551.3	4.5
551.643	4.51
551.987	4.57
552.33	4.61
552.674	4.48
553.017	4.59
553.361	4.51
553.704	4.54
554.048	4.46
554.391	4.49
554.734	4.45
555.077	4.71
555.42	4.43
555.764	4.57
556.107	4.58
556.45	4.57
556.793	4.58
557.135	4.55
557.478	4.63
557.821	4.73
558.164	4.63
558.507	4.64
558.849	4.54
559.192	4.54
559.534	4.56
559.877	4.69
560.219	4.5
560.562	4.59
560.904	4.59
561.246	4.3
561.589	4.57
561.931	4.41
562.273	4.63
562.615	4.51
562.957	4.54
563.299	4.42
563.641	4.28
563.983	4.56
564.325	4.55
564.667	4.57
565.008	4.45
565.35	4.46
565.692	4.52
566.033	4.49
566.375	4.65
566.716	4.55
567.058	4.52
567.399	4.67
567.741	4.59
568.082	4.56
568.423	4.51
568.764	4.57
569.105	4.38
569.447	4.61
569.788	4.62
570.129	4.4
570.47	4.55
570.811	4.51
571.151	4.74
571.492	4.57
571.833	4.47
572.174	4.67
572.514	4.57
572.855	4.57
573.195	4.38
573.536	4.61
573.876	4.54
574.217	4.65
574.557	4.61
574.898	4.57
575.238	4.48
575.578	4.45
575.918	4.54
576.258	4.58
576.598	4.65
576.938	4.62
577.278	4.35
577.618	4.54
577.958	4.4
578.298	4.64
578.638	4.54
578.977	4.55
579.317	4.63
579.657	4.79
579.996	4.46
580.336	4.56
580.675	4.69
581.014	4.71
581.354	4.49
581.693	4.48
582.032	4.45
582.372	4.5
582.711	4.6
583.05	4.55
583.389	4.7
583.728	4.62
584.067	4.64
584.406	4.49
584.745	4.75
585.083	4.6
585.422	4.44
585.761	4.66
586.1	4.51
586.438	4.6
586.777	4.64
587.115	4.58
587.454	4.47
587.792	4.45
588.13	4.47
588.469	4.69
588.807	4.72
589.145	4.56
589.483	4.69
589.821	4.51
590.159	4.69
590.497	4.73
590.835	4.47
591.173	4.59
591.511	4.57
591.849	4.63
592.187	4.52
592.524	4.41
592.862	4.42
593.2	4.44
593.537	4.64
593.875	4.71
594.212	4.62
594.55	4.69
594.887	4.44
595.224	4.75
595.561	4.41
595.899	4.44
596.236	4.58
596.573	4.64
596.91	4.81
597.247	4.52
597.584	4.55
597.921	4.73
598.258	4.59
598.594	4.59
598.931	4.37
599.268	4.55
599.604	4.52
599.941	4.55
600.277	4.54
600.614	4.6
600.95	4.27
601.287	4.53
601.623	4.7
601.959	4.89
602.296	4.43
602.632	4.58
602.968	4.73
603.304	4.64
603.64	4.7
603.976	4.62
604.312	4.66
604.648	4.48
604.984	4.6
605.319	4.72
605.655	4.55
605.991	4.55
606.326	4.8
606.662	4.54
606.998	4.54
607.333	4.47
607.668	4.58
608.004	4.57
608.339	4.57
608.674	4.84
609.01	4.8
609.345	4.63
609.68	4.36
610.015	4.77
610.35	4.29
610.685	4.73
611.02	4.77
611.355	4.41
611.689	4.6
612.024	4.52
612.359	4.28
612.694	4.59
613.028	4.41
613.363	4.72
613.697	4.61
614.032	4.76
614.366	4.22
614.7	4.25
615.035	4.25
615.369	4.46
615.703	4.46
616.037	4.65
616.371	4.97
616.705	5.05
617.039	4.73
617.373	4.47
617.707	4.34
618.041	4.75
618.375	4.21
618.709	4.79
619.042	4.72
619.376	4.74
619.71	4.8
620.043	4.58
620.377	4.43
620.71	4.28
621.043	4.36
621.377	4.49
621.71	4.33
622.043	4.53
622.376	4.65
622.709	4.26
623.043	4.58
623.376	4.8
623.709	4.71
624.041	4.81
624.374	4.42
624.707	4.58
625.04	4.85
625.373	4.5
625.705	4.32
626.038	4.54
626.37	4.47
626.703	4.15
627.035	4.73
627.368	3.91
627.7	4.63
628.032	4.75
628.365	4.79
628.697	4.5
629.029	4.43
629.361	4.59
629.693	4.45
630.025	4.6
630.357	4.58
630.689	4.59
631.021	4.63
631.353	4.85
631.684	4.53
632.016	4.62
632.348	4.68
632.679	4.68
633.011	4.89
633.342	4.82
633.674	4.57
634.005	4.24
634.336	4.57
634.668	4.65
634.999	4.48
635.33	4.67
635.661	4.7
635.992	4.95
636.323	4.55
636.654	4.72
636.985	4.58
637.316	4.67
637.647	4.83
637.977	4.76
638.308	4.76
638.639	4.59
638.969	4.8
639.3	4.81
639.63	4.9
639.961	4.55
640.291	4.8
640.622	5.09
640.952	4.54
641.282	4.63
641.612	4.56
641.943	4.98
642.273	4.7
642.603	4.57
642.933	4.51
643.263	4.19
643.592	4.75
643.922	4.34
644.252	4.78
644.582	4.76
644.911	4.19
645.241	4.53
645.571	4.39
645.9	4.78
646.23	4.83
646.559	4.72
646.888	4.4
647.218	4.67
647.547	4.85
647.876	4.68
648.205	4.43
648.534	4.57
648.863	4.54
649.192	4.49
649.521	4.4
649.85	4.67
650.179	4.63
650.508	4.83
650.837	4.78
651.165	4.27
651.494	4.77
651.822	4.61
652.151	4.16
652.479	4.41
652.808	4.45
653.136	4.5
653.465	4.91
653.793	4.56
654.121	4.62
654.449	4.48
654.777	5.27
655.105	4.65
655.433	4.77
655.761	4.77
656.089	4.67
656.417	4.11
656.745	4.65
657.073	4.47
657.4	4.37
657.728	4.52
658.056	4.8
658.383	4.55
658.711	4.57
659.038	4.7
659.365	4.35
659.693	4.37
660.02	4.9
660.347	4.71
660.674	4.76
661.001	4.88
661.329	4.62
661.656	4.73
661.982	5.05
662.309	4.39
662.636	5.04
662.963	4.64
663.29	4.54
663.616	4.16
663.943	4.68
664.27	4.54
664.596	5.07
664.923	4.82
665.249	4.5
665.576	5.03
665.902	4.97
666.228	4.86
666.554	4.55
666.881	4.15
667.207	4.33
667.533	5.11
667.859	4.73
668.185	4.94
668.511	4.36
668.837	5.34
669.162	4.96
669.488	4.41
669.814	4.45
670.139	4.03
670.465	4.66
670.791	4.16
671.116	5.02
671.442	4.52
671.767	4.96
672.092	4.75
672.418	4.37
672.743	3.95
673.068	4.34
673.393	5.19
673.718	5.09
674.043	4.75
674.368	4.84
674.693	4.25
675.018	4.37
675.343	5.13
675.667	4.65
675.992	5.17
676.317	5.08
676.641	4.55
676.966	4.35
677.29	4.55
677.615	4.23
677.939	4.71
678.264	4.52
678.588	4.37
678.912	4.42
679.236	4.76
679.56	4.97
679.885	4.52
680.209	4.61
680.532	5.27
680.856	5.04
681.18	5.13
681.504	4.6
681.828	4.91
682.152	4.67
682.475	4.68
682.799	4.59
683.122	4.58
683.446	5.18
683.769	4.69
684.093	5.03
684.416	4.41
684.739	4.74
685.062	4.55
685.386	5.41
685.709	4.5
686.032	4.1
686.355	4.73
686.678	4.75
687.001	4.66
687.324	4.08
687.646	4.15
687.969	4.85
688.292	5.55
688.614	4.74
688.937	4.75
689.26	3.58
689.582	4.4
689.904	4.65
690.227	4.53
690.549	4.34
690.871	4.42
691.194	4.26
691.516	4.55
691.838	4.22
692.16	5.13
692.482	4.64
