Data from 20-3_crown_Reflection__1__96.txt Node

Date: Fri Nov 11 20:53:53 CST 2022
User: ToomeyLab
Spectrometer: FLMS14357
Trigger mode: 0
Integration Time (sec): 1.000000E-2
Scans to average: 100
Electric dark correction enabled: true
Nonlinearity correction enabled: false
Boxcar width: 0
XAxis mode: Wavelengths
Number of Pixels in Spectrum: 2048
>>>>>Begin Spectral Data<<<<<
189.047	198.49
189.435	198.49
189.823	198.49
190.211	15.91
190.599	21.66
190.987	262.77
191.375	-63.36
191.763	-62.63
192.151	-12.47
192.538	-95.26
192.926	458.31
193.314	652.37
193.702	257.41
194.089	4292.42
194.477	82.55
194.864	11.62
195.252	116.51
195.639	13.81
196.027	-109.35
196.414	381.43
196.801	26.68
197.189	165.4
197.576	270.55
197.963	-7.85
198.351	-104.86
198.738	5.21
199.125	-22.07
199.512	26.73
199.899	-75.51
200.286	-60.62
200.673	-71.79
201.06	64.27
201.447	2.69
201.833	5.73
202.22	-96.97
202.607	22.81
202.994	3.27
203.38	31.57
203.767	1.93
204.154	-5.97
204.54	35.05
204.927	17.97
205.313	-15.51
205.699	-37.67
206.086	34.64
206.472	35.83
206.858	12.67
207.245	23.7
207.631	-0.45
208.017	4.91
208.403	-1.38
208.789	1.06
209.175	-17.12
209.561	30.94
209.947	-21.45
210.333	-1.52
210.719	3.72
211.105	35.07
211.491	10.72
211.876	17.12
212.262	1.36
212.648	-1.05
213.034	-29.53
213.419	-58.89
213.805	-19.73
214.19	-15.34
214.576	-0.67
214.961	-26.73
215.346	-36.31
215.732	-37.66
216.117	10.91
216.502	15.02
216.888	-33.21
217.273	8.8
217.658	-44.25
218.043	5.34
218.428	-22.29
218.813	-26.6
219.198	7.38
219.583	-6.41
219.968	4.19
220.353	-16.32
220.738	-40.48
221.122	-14.89
221.507	-31.91
221.892	-17.7
222.276	11.78
222.661	3.3
223.046	-20.17
223.43	-15.12
223.815	-3.97
224.199	8.54
224.583	-1.81
224.968	-9.99
225.352	8.52
225.736	-4.9
226.121	3.19
226.505	3.86
226.889	-12.03
227.273	6.01
227.657	0.69
228.041	-3.89
228.425	-0.09
228.809	1.09
229.193	4.69
229.577	4.82
229.961	3.91
230.344	2.36
230.728	2.63
231.112	2.54
231.495	2.26
231.879	1.48
232.263	1.07
232.646	0.61
233.03	3.25
233.413	3.2
233.797	1.39
234.18	-0.39
234.563	2.96
234.946	1.57
235.33	0.29
235.713	2.08
236.096	0.79
236.479	2.16
236.862	3.61
237.245	1.05
237.628	2.61
238.011	2.22
238.394	2.95
238.777	2.7
239.16	4.67
239.543	0.75
239.925	2.27
240.308	0.58
240.691	4.44
241.073	2.03
241.456	1.67
241.838	3.1
242.221	2.32
242.603	3.43
242.986	2.09
243.368	2.52
243.75	2.89
244.133	2.92
244.515	2.55
244.897	3.06
245.279	2.69
245.661	2.29
246.043	1.88
246.425	3.33
246.807	2.57
247.189	2.52
247.571	2.92
247.953	2.95
248.335	2.98
248.717	2.93
249.098	3.13
249.48	2.88
249.862	3.22
250.243	2.75
250.625	2.97
251.006	3.78
251.388	3.15
251.769	2.66
252.151	2.8
252.532	2.54
252.913	3.31
253.295	2.26
253.676	2.47
254.057	2.82
254.438	3.05
254.819	2.32
255.2	2.94
255.581	1.88
255.962	2.39
256.343	1.93
256.724	2.18
257.105	1.83
257.486	2.39
257.867	2.76
258.247	1.89
258.628	2.69
259.009	1.89
259.389	2.74
259.77	2.99
260.15	2.03
260.531	2.73
260.911	2.55
261.292	2.68
261.672	2.43
262.052	2.72
262.432	2.78
262.813	2.77
263.193	2.81
263.573	2.74
263.953	2.62
264.333	2
264.713	2.59
265.093	2.47
265.473	2.05
265.853	2.53
266.233	2.45
266.612	2.37
266.992	2.52
267.372	2.99
267.752	2.17
268.131	2.16
268.511	2.58
268.89	2.44
269.27	2.52
269.649	2.31
270.029	2.75
270.408	2.2
270.787	2.46
271.167	2.06
271.546	2.2
271.925	2.55
272.304	2.61
272.683	2.27
273.062	2.12
273.441	2.81
273.82	2.32
274.199	2.11
274.578	2.21
274.957	2.47
275.336	3.11
275.715	2.46
276.093	2.12
276.472	2.2
276.851	1.75
277.229	1.88
277.608	2.47
277.986	2.4
278.365	2.14
278.743	2.33
279.122	2.96
279.5	2.44
279.878	2.59
280.257	2.26
280.635	2.44
281.013	2.63
281.391	2.18
281.769	2.19
282.147	2.29
282.525	1.76
282.903	2.15
283.281	2.15
283.659	2.63
284.037	2.54
284.415	2.32
284.792	2.65
285.17	2.27
285.548	2.29
285.925	2.11
286.303	2
286.68	2.59
287.058	2.31
287.435	2.16
287.813	2.58
288.19	2.1
288.567	2.07
288.945	2.6
289.322	2.79
289.699	2.22
290.076	2.5
290.453	1.95
290.83	2.44
291.207	2.13
291.584	3.01
291.961	2.32
292.338	2.43
292.715	2.43
293.092	2.47
293.469	2.35
293.845	2.24
294.222	2.31
294.599	2.75
294.975	2.5
295.352	2.19
295.728	2.16
296.105	2.62
296.481	1.91
296.858	2.33
297.234	2.54
297.61	1.72
297.986	2.74
298.363	2.63
298.739	2.38
299.115	2.63
299.491	2.57
299.867	2.37
300.243	2.42
300.619	2.52
300.995	2.44
301.371	2.73
301.746	3
302.122	2.51
302.498	2.42
302.874	2.49
303.249	2.46
303.625	2.15
304	2.2
304.376	2.73
304.751	2.14
305.127	2.54
305.502	2.77
305.878	3.04
306.253	2.25
306.628	2.56
307.003	2.64
307.378	2.29
307.754	3
308.129	2.52
308.504	2.73
308.879	2.74
309.254	2.52
309.629	2.39
310.003	2.08
310.378	2.49
310.753	3.13
311.128	3.07
311.502	3.04
311.877	2.56
312.252	2.62
312.626	2.71
313.001	2.47
313.375	2.5
313.75	2.42
314.124	2.71
314.498	2.54
314.873	2.24
315.247	2.35
315.621	2.85
315.995	3.15
316.369	2.76
316.743	2.42
317.117	2.67
317.491	2.63
317.865	2.39
318.239	2.69
318.613	2.85
318.987	2.52
319.361	2.3
319.734	2.59
320.108	2.13
320.482	2.63
320.855	2.29
321.229	2.17
321.602	2.39
321.976	2.72
322.349	2.85
322.723	3.49
323.096	2.46
323.469	2.82
323.843	2.92
324.216	2.43
324.589	2.91
324.962	2.98
325.335	2.57
325.708	2.73
326.081	3.01
326.454	3.13
326.827	2.93
327.2	2.95
327.573	3.49
327.945	2.69
328.318	2.62
328.691	2.79
329.063	2.62
329.436	2.45
329.809	2.51
330.181	2.42
330.553	2
330.926	3.05
331.298	2.84
331.671	2.56
332.043	2.16
332.415	2.83
332.787	2.92
333.159	2.77
333.532	3.16
333.904	3.55
334.276	2.67
334.648	2.78
335.02	2.67
335.391	3.06
335.763	2.83
336.135	2.38
336.507	3.09
336.879	2.98
337.25	3.12
337.622	3.12
337.993	2.64
338.365	3.13
338.736	2.86
339.108	2.97
339.479	2.71
339.851	3.1
340.222	2.42
340.593	3.37
340.964	3.33
341.336	3.2
341.707	2.79
342.078	2.24
342.449	2.9
342.82	2.87
343.191	2.81
343.562	3
343.933	3.04
344.303	2.98
344.674	2.99
345.045	2.76
345.416	3.24
345.786	2.73
346.157	2.4
346.527	2.97
346.898	2.58
347.268	2.84
347.639	3.07
348.009	3.13
348.38	3.13
348.75	2.79
349.12	3.15
349.49	2.91
349.861	2.99
350.231	3.21
350.601	3.07
350.971	3.02
351.341	3.13
351.711	2.92
352.081	2.97
352.45	3.14
352.82	2.38
353.19	3.22
353.56	2.64
353.929	2.93
354.299	2.52
354.669	3.06
355.038	2.84
355.408	3.05
355.777	3.25
356.147	2.81
356.516	3.42
356.885	3.21
357.254	2.78
357.624	2.66
357.993	2.96
358.362	3.01
358.731	2.78
359.1	3.04
359.469	2.65
359.838	2.81
360.207	3.34
360.576	3.04
360.945	3.2
361.314	2.77
361.682	3.03
362.051	2.83
362.42	3.19
362.788	3.14
363.157	2.89
363.525	2.95
363.894	3.02
364.262	3.13
364.631	3.29
364.999	2.97
365.367	3.05
365.735	2.92
366.104	3.01
366.472	2.87
366.84	2.66
367.208	2.82
367.576	3.18
367.944	3.31
368.312	2.94
368.68	2.93
369.048	2.89
369.416	3.01
369.783	2.97
370.151	2.92
370.519	2.84
370.886	3.2
371.254	3.16
371.621	2.74
371.989	3.18
372.356	3.26
372.724	3.25
373.091	3.36
373.458	3.04
373.826	2.78
374.193	2.85
374.56	3.1
374.927	2.77
375.294	2.97
375.661	3.53
376.028	2.53
376.395	3.12
376.762	3.06
377.129	3.16
377.496	2.85
377.863	3.19
378.229	3.29
378.596	2.91
378.963	3.14
379.329	3.05
379.696	2.98
380.062	3
380.429	3.38
380.795	3.3
381.161	3.04
381.528	3.32
381.894	3.29
382.26	3.3
382.626	3.29
382.993	2.95
383.359	3.04
383.725	2.98
384.091	3.05
384.457	2.85
384.823	3.05
385.188	3.02
385.554	3.18
385.92	3.07
386.286	2.91
386.651	3.16
387.017	2.82
387.383	3.16
387.748	2.95
388.114	3.03
388.479	2.76
388.845	3.38
389.21	3.11
389.575	3.03
389.94	3.12
390.306	2.77
390.671	3.1
391.036	3.14
391.401	3.25
391.766	3.32
392.131	3.33
392.496	3.07
392.861	3.11
393.226	2.97
393.591	2.98
393.956	3.15
394.32	2.99
394.685	3.16
395.05	3.43
395.414	3.2
395.779	3.24
396.143	3.26
396.508	3.29
396.872	3.18
397.236	3.05
397.601	3.21
397.965	3.1
398.329	3.25
398.694	3.12
399.058	3.29
399.422	3.11
399.786	3.25
400.15	3.29
400.514	3.42
400.878	3.12
401.242	2.89
401.605	3.25
401.969	3.16
402.333	2.87
402.697	3.19
403.06	3.29
403.424	2.98
403.787	3.17
404.151	3.36
404.514	3.09
404.878	3.32
405.241	2.97
405.604	3.24
405.968	3.2
406.331	2.98
406.694	3.26
407.057	3.33
407.42	3.3
407.783	3.24
408.146	3.2
408.509	3.1
408.872	3.31
409.235	3.19
409.598	3.14
409.961	3.3
410.323	3.27
410.686	3.28
411.049	3.12
411.411	3.2
411.774	3.14
412.136	3.14
412.499	3.24
412.861	3.09
413.223	2.99
413.586	3.07
413.948	3.27
414.31	3.31
414.672	3.05
415.035	3.04
415.397	3.13
415.759	3.17
416.121	3.17
416.483	2.9
416.845	3.19
417.206	2.93
417.568	3.1
417.93	3.06
418.292	3.09
418.653	3.23
419.015	3.21
419.377	3.17
419.738	3.28
420.1	3.09
420.461	3.25
420.822	3.21
421.184	3.14
421.545	3.22
421.906	3.04
422.267	2.98
422.629	3.04
422.99	3.06
423.351	3.07
423.712	3.16
424.073	3.22
424.434	3.22
424.795	3.27
425.155	3.11
425.516	3.16
425.877	3.13
426.238	2.95
426.598	3.06
426.959	3.15
427.32	3.22
427.68	3.33
428.041	3.2
428.401	3.07
428.761	3.24
429.122	3.19
429.482	3.23
429.842	3.19
430.202	3.31
430.563	3.47
430.923	3.25
431.283	2.91
431.643	3.07
432.003	3.34
432.363	3.26
432.722	3.37
433.082	3.29
433.442	3.12
433.802	3.25
434.161	3.23
434.521	3.29
434.881	3.28
435.24	3.25
435.6	3.31
435.959	3.22
436.319	3.14
436.678	3.15
437.037	3.24
437.396	3.32
437.756	3.3
438.115	3.14
438.474	3.07
438.833	3.12
439.192	3.24
439.551	3.2
439.91	3.34
440.269	3.23
440.628	3.31
440.987	3.22
441.345	3.22
441.704	3.26
442.063	3.17
442.421	3.09
442.78	3.12
443.138	3.2
443.497	3.28
443.855	3.17
444.214	3.13
444.572	3.3
444.93	3.26
445.288	3.14
445.647	3.4
446.005	3.29
446.363	3.24
446.721	3.18
447.079	3.27
447.437	3.05
447.795	3.18
448.153	3.18
448.51	3.16
448.868	3.24
449.226	3.18
449.584	3.17
449.941	3.32
450.299	3.02
450.656	3.22
451.014	3.35
451.371	3.17
451.729	3.14
452.086	3.22
452.443	3.22
452.801	3.33
453.158	3.29
453.515	3.19
453.872	3.16
454.229	3.34
454.586	3.15
454.943	3.25
455.3	3.18
455.657	3.31
456.014	3.34
456.371	3.08
456.727	3.31
457.084	3.02
457.441	3.52
457.797	3.36
458.154	3.04
458.51	3.23
458.867	3.16
459.223	3.35
459.58	3.19
459.936	3.09
460.292	3.21
460.648	3.21
461.005	3.16
461.361	3.2
461.717	3.11
462.073	3.19
462.429	3.21
462.785	3.18
463.141	3.15
463.496	3.07
463.852	3.33
464.208	3.31
464.564	3.18
464.919	3.18
465.275	3.1
465.631	3.35
465.986	3.33
466.342	3.33
466.697	3.19
467.052	3.28
467.408	3.23
467.763	3.24
468.118	3.19
468.473	3.28
468.829	3.15
469.184	3.35
469.539	3.27
469.894	3.33
470.249	3.33
470.603	3.17
470.958	3.22
471.313	3.52
471.668	3.36
472.023	3.12
472.377	3.28
472.732	3.19
473.086	3.34
473.441	3.34
473.795	3.19
474.15	3.2
474.504	3.42
474.859	3.16
475.213	3.4
475.567	3.29
475.921	3.36
476.275	3.11
476.63	3.38
476.984	3.32
477.338	3.11
477.692	3.07
478.045	3.13
478.399	3.25
478.753	3.23
479.107	3.07
479.461	3.19
479.814	3.21
480.168	3.14
480.521	3.18
480.875	3.26
481.228	3.26
481.582	3.22
481.935	3.11
482.289	3.13
482.642	3.14
482.995	3.16
483.348	3.17
483.701	3.13
484.055	3.15
484.408	3.1
484.761	3.04
485.114	2.96
485.466	2.91
485.819	2.96
486.172	2.95
486.525	3.05
486.878	3.05
487.23	3.05
487.583	3.09
487.936	3.05
488.288	3.04
488.641	3.06
488.993	3.04
489.345	3.01
489.698	2.98
490.05	3.03
490.402	3.04
490.754	3.1
491.107	3.03
491.459	3.12
491.811	3.15
492.163	3.14
492.515	3.14
492.866	3.05
493.218	3.01
493.57	3
493.922	3
494.274	3.07
494.625	3.13
494.977	3.18
495.328	3.09
495.68	3.11
496.031	3.18
496.383	3.21
496.734	3.26
497.086	3.15
497.437	3.22
497.788	3.15
498.139	3.12
498.49	3.11
498.842	3.08
499.193	3.21
499.544	3.22
499.894	3.08
500.245	3.18
500.596	3.2
500.947	3.13
501.298	3.21
501.648	3.14
501.999	3.15
502.35	3.31
502.7	3.1
503.051	3.16
503.401	3.1
503.752	3.18
504.102	3.13
504.452	3.21
504.803	3.2
505.153	3.13
505.503	3.22
505.853	3.15
506.203	3.18
506.553	3.1
506.903	3.11
507.253	3.06
507.603	3.18
507.953	3.18
508.303	3.09
508.652	3.22
509.002	3.09
509.352	3.17
509.701	3.23
510.051	3.02
510.4	3.19
510.75	3.11
511.099	3.11
511.449	3.16
511.798	3.16
512.147	3.02
512.496	3.04
512.846	3.2
513.195	3.1
513.544	3.1
513.893	3.09
514.242	3.1
514.591	3.08
514.939	3.17
515.288	3.14
515.637	3.2
515.986	3.05
516.334	3.11
516.683	3.2
517.032	3.26
517.38	3.16
517.729	3.21
518.077	3.05
518.426	3.13
518.774	3.24
519.122	3.23
519.47	3.16
519.819	3.04
520.167	3.1
520.515	3.05
520.863	3.18
521.211	3.09
521.559	3.09
521.907	3.04
522.255	3.08
522.602	3.21
522.95	3.18
523.298	3.12
523.645	3.16
523.993	3.09
524.341	3.23
524.688	3.19
525.036	3.25
525.383	3.06
525.73	3.11
526.078	2.98
526.425	3.09
526.772	3.05
527.119	3.05
527.466	3.07
527.814	3.03
528.161	3.12
528.508	3.08
528.854	3.04
529.201	3.04
529.548	2.99
529.895	2.94
530.242	2.93
530.588	2.94
530.935	2.93
531.282	3.01
531.628	3.01
531.975	3.07
532.321	3.02
532.667	3.04
533.014	3.06
533.36	3.03
533.706	3.08
534.052	3.16
534.399	3.04
534.745	2.99
535.091	3.01
535.437	2.97
535.783	3.02
536.129	3.04
536.474	3.1
536.82	3.04
537.166	3.09
537.512	3.1
537.857	3.07
538.203	2.97
538.549	3.15
538.894	3.03
539.239	3.08
539.585	3.1
539.93	3.15
540.276	3.2
540.621	3.18
540.966	3.17
541.311	3.18
541.656	3.12
542.001	3.12
542.346	3.08
542.691	3.04
543.036	2.91
543.381	2.98
543.726	2.95
544.071	3.04
544.415	3.03
544.76	3.02
545.105	2.98
545.449	2.96
545.794	3.03
546.138	3.07
546.483	3.05
546.827	3.13
547.171	3.1
547.516	3.01
547.86	3.07
548.204	3.05
548.548	3.01
548.892	3.06
549.236	3.02
549.58	3.1
549.924	3.13
550.268	3.05
550.612	3.14
550.956	3.26
551.3	3.19
551.643	3.09
551.987	3.1
552.33	3.09
552.674	3.02
553.017	3.19
553.361	3.21
553.704	3.19
554.048	3.07
554.391	3.17
554.734	3.03
555.077	3.17
555.42	2.96
555.764	3.13
556.107	3.19
556.45	3.19
556.793	3.22
557.135	3.17
557.478	3.15
557.821	3.14
558.164	3.02
558.507	3.13
558.849	3.35
559.192	3.1
559.534	3.18
559.877	3.38
560.219	3.31
560.562	3.13
560.904	3.27
561.246	2.97
561.589	3.16
561.931	2.97
562.273	3.28
562.615	3.17
562.957	3.14
563.299	3.13
563.641	3.04
563.983	3.05
564.325	3.09
564.667	3.06
565.008	3.19
565.35	3.14
565.692	2.89
566.033	3.01
566.375	3.29
566.716	3.29
567.058	3.11
567.399	3.21
567.741	3.16
568.082	3.14
568.423	3.14
568.764	3.21
569.105	3.16
569.447	3.19
569.788	3.28
570.129	3.06
570.47	3.14
570.811	3.19
571.151	3.35
571.492	3.15
571.833	2.95
572.174	3.28
572.514	3.28
572.855	3.19
573.195	2.93
573.536	3.15
573.876	3.08
574.217	3.17
574.557	3.12
574.898	3.15
575.238	3.15
575.578	3.08
575.918	3.28
576.258	3.11
576.598	3.08
576.938	3.18
577.278	2.96
577.618	3.1
577.958	3.1
578.298	3.15
578.638	3.31
578.977	3.21
579.317	3.33
579.657	3.26
579.996	3.05
580.336	3.11
580.675	3.25
581.014	3.35
581.354	3.12
581.693	3.11
582.032	3.18
582.372	3.18
582.711	2.85
583.05	3.02
583.389	3.16
583.728	3.22
584.067	3.22
584.406	3.08
584.745	3.33
585.083	3.29
585.422	3.13
585.761	3.17
586.1	3.05
586.438	3.19
586.777	3.19
587.115	3.24
587.454	3.1
587.792	3.08
588.13	3.09
588.469	3.2
588.807	3.1
589.145	3.18
589.483	3.27
589.821	3.14
590.159	3.18
590.497	3.3
590.835	3.14
591.173	3.41
591.511	3.06
591.849	3.24
592.187	3.25
592.524	3.13
592.862	3.12
593.2	3.2
593.537	3.05
593.875	3.4
594.212	3.05
594.55	3.09
594.887	3.26
595.224	3.16
595.561	3.07
595.899	2.91
596.236	3.27
596.573	3.16
596.91	3.19
597.247	3.21
597.584	3.17
597.921	3.13
598.258	3.21
598.594	3.25
598.931	3.03
599.268	3.01
599.604	3.11
599.941	3.2
600.277	3.15
600.614	3.3
600.95	3.11
601.287	3.18
601.623	3.58
601.959	3.41
602.296	3.17
602.632	2.96
602.968	3.05
603.304	2.97
603.64	3.54
603.976	3.39
604.312	3.31
604.648	3.21
604.984	3.33
605.319	3.1
605.655	3.09
605.991	3.13
606.326	3.37
606.662	3.11
606.998	3.09
607.333	3.25
607.668	3.08
608.004	3.28
608.339	3.09
608.674	3.29
609.01	3.29
609.345	3.27
609.68	2.95
610.015	3.06
610.35	2.92
610.685	3.24
611.02	3.26
611.355	3.08
611.689	3.2
612.024	3.1
612.359	3.09
612.694	3.17
613.028	3.05
613.363	3.15
613.697	3.27
614.032	3.17
614.366	2.97
614.7	2.96
615.035	3.06
615.369	3.1
615.703	3.28
616.037	3.56
616.371	3.15
616.705	3.27
617.039	3.55
617.373	3.22
617.707	3.04
618.041	3.59
618.375	2.99
618.709	3.37
619.042	3.37
619.376	3.18
619.71	3.21
620.043	3.23
620.377	3.14
620.71	3.23
621.043	3.13
621.377	2.94
621.71	3.02
622.043	3.19
622.376	3.16
622.709	2.86
623.043	2.83
623.376	3.26
623.709	3.33
624.041	3.21
624.374	2.66
624.707	3.26
625.04	3.19
625.373	2.96
625.705	3.31
626.038	3.51
626.37	3.07
626.703	3.13
627.035	3.43
627.368	2.86
627.7	3.01
628.032	3.26
628.365	3.36
628.697	3.32
629.029	3.17
629.361	3.09
629.693	3.2
630.025	3.45
630.357	3.27
630.689	2.69
631.021	3.04
631.353	3.24
631.684	3.07
632.016	3.09
632.348	2.93
632.679	2.92
633.011	3.44
633.342	2.94
633.674	3.19
634.005	3.07
634.336	3.06
634.668	3.37
634.999	3.27
635.33	3.34
635.661	3.33
635.992	3.45
636.323	2.72
636.654	3.54
636.985	3.23
637.316	3.24
637.647	3.61
637.977	3.22
638.308	3.29
638.639	2.88
638.969	3.05
639.3	3.36
639.63	3.28
639.961	2.98
640.291	3.25
640.622	3.45
640.952	3.25
641.282	2.89
641.612	3.45
641.943	3.44
642.273	3.01
642.603	3.27
642.933	3.57
643.263	3.12
643.592	3.37
643.922	3.54
644.252	3.35
644.582	3.26
644.911	3.09
645.241	2.95
645.571	2.55
645.9	3.31
646.23	3.66
646.559	3.06
646.888	3.49
647.218	3.25
647.547	3.16
647.876	2.97
648.205	3.56
648.534	3.14
648.863	3.21
649.192	3.17
649.521	3.55
649.85	3.57
650.179	3.28
650.508	3.01
650.837	3.31
651.165	3.18
651.494	3.22
651.822	3.25
652.151	2.81
652.479	2.41
652.808	2.68
653.136	3.15
653.465	3.44
653.793	3.45
654.121	2.87
654.449	3
654.777	3.72
655.105	3.09
655.433	3.06
655.761	3.58
656.089	3.06
656.417	2.85
656.745	2.98
657.073	2.86
657.4	2.84
657.728	3.32
658.056	3.94
658.383	3.08
658.711	2.82
659.038	3.57
659.365	2.69
659.693	3.21
660.02	3.58
660.347	3.23
660.674	2.96
661.001	3.42
661.329	3.21
661.656	3.4
661.982	3.5
662.309	3.31
662.636	3.23
662.963	2.83
663.29	2.97
663.616	2.78
663.943	3.21
664.27	2.65
664.596	3.24
664.923	3.3
665.249	3.23
665.576	3.37
665.902	3.76
666.228	3.3
666.554	3.24
666.881	2.81
667.207	2.95
667.533	3.5
667.859	3.57
668.185	3.17
668.511	2.88
668.837	3.96
669.162	3.36
669.488	3.14
669.814	2.97
670.139	2.91
670.465	3
670.791	3.38
671.116	3.21
671.442	3.15
671.767	3.54
672.092	3.32
672.418	2.99
672.743	3.17
673.068	3.64
673.393	3.44
673.718	3.79
674.043	3.54
674.368	3.33
674.693	2.76
675.018	3.38
675.343	3.45
675.667	3.31
675.992	4.1
676.317	2.84
676.641	2.6
676.966	3.6
677.29	3.68
677.615	2.87
677.939	3.49
678.264	2.78
678.588	2.7
678.912	3.1
679.236	3.74
679.56	3.38
679.885	2.95
680.209	2.69
680.532	3.33
680.856	3.24
681.18	3.51
681.504	3.14
681.828	2.97
682.152	3.36
682.475	3.02
682.799	3.02
683.122	3.5
683.446	3.65
683.769	3.41
684.093	3.41
684.416	2.82
684.739	3.7
685.062	3.13
685.386	3.55
685.709	3.22
686.032	3.77
686.355	3.3
686.678	3.74
687.001	3.04
687.324	3.45
687.646	2.92
687.969	3.81
688.292	4.43
688.614	3.51
688.937	3.11
689.26	2.43
689.582	3.23
689.904	3.5
690.227	3.15
690.549	3.56
690.871	3.01
691.194	3.19
691.516	2.9
691.838	3.54
