Data from 20-3_chest_Reflection__3__93.txt Node

Date: Fri Nov 11 20:52:46 CST 2022
User: ToomeyLab
Spectrometer: FLMS14357
Trigger mode: 0
Integration Time (sec): 1.000000E-2
Scans to average: 100
Electric dark correction enabled: true
Nonlinearity correction enabled: false
Boxcar width: 0
XAxis mode: Wavelengths
Number of Pixels in Spectrum: 2048
>>>>>Begin Spectral Data<<<<<
189.047	137.17
189.435	137.17
189.823	137.17
190.211	34.77
190.599	61.85
190.987	431.09
191.375	378.34
191.763	-146.23
192.151	60.77
192.538	-36.88
192.926	220.92
193.314	473.69
193.702	593.21
194.089	3540.91
194.477	112.77
194.864	99.5
195.252	119.57
195.639	-6.33
196.027	-57.32
196.414	-875.71
196.801	59.16
197.189	29.91
197.576	154.03
197.963	-36.06
198.351	-61.04
198.738	-8.56
199.125	6.49
199.512	27.79
199.899	-97.42
200.286	6.13
200.673	-2.52
201.06	44.44
201.447	15.48
201.833	3.9
202.22	-64.65
202.607	8.83
202.994	28.38
203.38	27.12
203.767	36.32
204.154	11.68
204.54	3.5
204.927	59.31
205.313	22.83
205.699	-123.73
206.086	44.24
206.472	-19.42
206.858	36.71
207.245	12.22
207.631	-8.8
208.017	3.25
208.403	13.22
208.789	9.4
209.175	29.63
209.561	51.52
209.947	-16.68
210.333	1.18
210.719	29.46
211.105	39.6
211.491	13.18
211.876	16.33
212.262	12.55
212.648	-12.01
213.034	10.13
213.419	13.93
213.805	-22.87
214.19	3.32
214.576	15.26
214.961	-30.53
215.346	-20.61
215.732	-14.52
216.117	29.26
216.502	-1.08
216.888	1.34
217.273	21.59
217.658	-25.99
218.043	-23.96
218.428	-11.41
218.813	-0.4
219.198	-11.5
219.583	-5.23
219.968	6.57
220.353	-13.77
220.738	-0.34
221.122	-13.71
221.507	-5.26
221.892	-19.11
222.276	11.35
222.661	19.7
223.046	-20.12
223.43	-1.86
223.815	8.49
224.199	-7.88
224.583	6.63
224.968	-11.46
225.352	9.6
225.736	-0.99
226.121	0.6
226.505	3.52
226.889	-5.05
227.273	6.56
227.657	-2.01
228.041	-1.38
228.425	0.86
228.809	3.7
229.193	4.1
229.577	5.7
229.961	2.35
230.344	3.29
230.728	2.3
231.112	2.2
231.495	2.67
231.879	1.41
232.263	3.41
232.646	1.61
233.03	3.73
233.413	3.39
233.797	1.89
234.18	1.19
234.563	5.41
234.946	0.65
235.33	2.44
235.713	2.25
236.096	2.72
236.479	2.91
236.862	4.72
237.245	3.07
237.628	3.47
238.011	3.16
238.394	2.37
238.777	3.45
239.16	3.65
239.543	-0.12
239.925	2.53
240.308	1.42
240.691	3.59
241.073	3
241.456	2.32
241.838	3.06
242.221	2.89
242.603	3.55
242.986	2.85
243.368	2.56
243.75	2.69
244.133	2.99
244.515	2.8
244.897	3.08
245.279	3.05
245.661	1.81
246.043	2.9
246.425	3.46
246.807	2.45
247.189	2.77
247.571	2.49
247.953	3.22
248.335	3.08
248.717	2.98
249.098	3.2
249.48	3.01
249.862	3.05
250.243	3.05
250.625	2.99
251.006	4.17
251.388	3.25
251.769	3.24
252.151	4.2
252.532	2.35
252.913	3.51
253.295	3.24
253.676	2.49
254.057	2.44
254.438	3.06
254.819	2.45
255.2	3.83
255.581	2.64
255.962	2.85
256.343	3.37
256.724	2.22
257.105	3.45
257.486	2.37
257.867	4.25
258.247	1.37
258.628	2.46
259.009	2.51
259.389	2.58
259.77	3.25
260.15	2.9
260.531	3
260.911	3.03
261.292	2.88
261.672	2.6
262.052	2.74
262.432	2.86
262.813	2.96
263.193	2.47
263.573	2.71
263.953	2.92
264.333	2.3
264.713	2.69
265.093	2.86
265.473	1.76
265.853	1.97
266.233	2.42
266.612	2.12
266.992	2.82
267.372	2.86
267.752	2.88
268.131	2.53
268.511	2.95
268.89	2.43
269.27	2.35
269.649	1.97
270.029	3.34
270.408	2.56
270.787	2.79
271.167	2.61
271.546	2.89
271.925	2.73
272.304	2.98
272.683	2.46
273.062	2.64
273.441	3.06
273.82	2.46
274.199	2.38
274.578	2.69
274.957	3.05
275.336	2.99
275.715	2.73
276.093	2.18
276.472	2.19
276.851	2.4
277.229	2.17
277.608	2.72
277.986	2.59
278.365	2.52
278.743	2.9
279.122	3.47
279.5	2.83
279.878	2.97
280.257	3.12
280.635	2.53
281.013	3.06
281.391	2.26
281.769	2.99
282.147	2.29
282.525	1.97
282.903	2.45
283.281	2.99
283.659	2.75
284.037	2.66
284.415	2.56
284.792	2.65
285.17	2.51
285.548	2.47
285.925	2.3
286.303	2.73
286.68	2.64
287.058	2.81
287.435	2.67
287.813	2.8
288.19	2.42
288.567	2.44
288.945	2.78
289.322	3.2
289.699	2.53
290.076	3.21
290.453	2.64
290.83	2.74
291.207	2.58
291.584	2.79
291.961	2.87
292.338	2.62
292.715	2.93
293.092	3.2
293.469	2.68
293.845	2.84
294.222	2.62
294.599	3.18
294.975	2.41
295.352	2.89
295.728	2.63
296.105	2.63
296.481	2.71
296.858	2.82
297.234	2.74
297.61	2.51
297.986	3.12
298.363	3.22
298.739	2.85
299.115	3.13
299.491	3.06
299.867	2.95
300.243	3.1
300.619	3.34
300.995	3.1
301.371	3.62
301.746	3.34
302.122	3.33
302.498	3
302.874	3.18
303.249	3.17
303.625	2.88
304	2.76
304.376	3
304.751	2.78
305.127	2.87
305.502	3.33
305.878	3.45
306.253	3.21
306.628	2.88
307.003	3.19
307.378	3
307.754	3.77
308.129	3.21
308.504	3.31
308.879	3.29
309.254	3.34
309.629	3.22
310.003	3.01
310.378	3.31
310.753	3.89
311.128	3.32
311.502	3.61
311.877	3.17
312.252	3.16
312.626	3.46
313.001	3.39
313.375	3.27
313.75	3.29
314.124	3
314.498	3.32
314.873	3.39
315.247	3.51
315.621	3.37
315.995	3.48
316.369	3.61
316.743	3.03
317.117	3.65
317.491	3.64
317.865	3.26
318.239	3.41
318.613	3.84
318.987	3.09
319.361	3.15
319.734	3.56
320.108	3.12
320.482	3.88
320.855	3.18
321.229	3.15
321.602	3.76
321.976	3.19
322.349	3.84
322.723	4.08
323.096	3.93
323.469	3.29
323.843	4.08
324.216	3.88
324.589	3.92
324.962	3.85
325.335	3.56
325.708	3.45
326.081	3.37
326.454	3.23
326.827	3.33
327.2	3.93
327.573	4.46
327.945	3.65
328.318	3.41
328.691	3.61
329.063	3.98
329.436	3.69
329.809	3.27
330.181	3.44
330.553	3.41
330.926	4.1
331.298	3.69
331.671	3.91
332.043	3.08
332.415	3.91
332.787	3.76
333.159	3.58
333.532	3.93
333.904	4.01
334.276	3.64
334.648	3.61
335.02	3.46
335.391	4.15
335.763	3.8
336.135	3.3
336.507	3.7
336.879	3.99
337.25	3.88
337.622	3.93
337.993	3.83
338.365	4.18
338.736	3.88
339.108	3.81
339.479	3.22
339.851	3.92
340.222	4.15
340.593	4.06
340.964	4.14
341.336	3.82
341.707	3.49
342.078	3.54
342.449	3.87
342.82	3.57
343.191	3.86
343.562	3.76
343.933	3.71
344.303	3.82
344.674	3.42
345.045	3.91
345.416	4.18
345.786	3.31
346.157	3.43
346.527	4.15
346.898	3.26
347.268	3.59
347.639	3.76
348.009	3.67
348.38	4.02
348.75	3.85
349.12	4.34
349.49	4.1
349.861	4.03
350.231	3.89
350.601	3.86
350.971	4.04
351.341	3.92
351.711	4.07
352.081	3.92
352.45	3.72
352.82	3.71
353.19	4.01
353.56	3.84
353.929	4.01
354.299	4.22
354.669	4.05
355.038	3.92
355.408	3.67
355.777	3.91
356.147	4.23
356.516	3.9
356.885	4.33
357.254	3.88
357.624	4
357.993	3.87
358.362	3.91
358.731	3.66
359.1	4.07
359.469	3.48
359.838	3.66
360.207	4.08
360.576	4.06
360.945	4.17
361.314	3.81
361.682	3.88
362.051	3.81
362.42	4
362.788	4.24
363.157	3.77
363.525	3.56
363.894	3.9
364.262	3.92
364.631	4.09
364.999	4.07
365.367	3.85
365.735	4.02
366.104	3.79
366.472	3.89
366.84	3.68
367.208	3.87
367.576	4.2
367.944	4.1
368.312	3.7
368.68	3.94
369.048	3.94
369.416	3.97
369.783	3.91
370.151	4.21
370.519	4.25
370.886	4.14
371.254	4.32
371.621	3.64
371.989	4.16
372.356	4.09
372.724	4.14
373.091	4.14
373.458	3.75
373.826	3.75
374.193	3.93
374.56	3.81
374.927	3.97
375.294	4.18
375.661	4.25
376.028	3.81
376.395	4.29
376.762	4.26
377.129	3.81
377.496	4.02
377.863	4.05
378.229	4.16
378.596	3.66
378.963	4.02
379.329	4.31
379.696	4.12
380.062	4.08
380.429	4.3
380.795	4.42
381.161	4.32
381.528	3.88
381.894	4.24
382.26	4.37
382.626	4.12
382.993	4.01
383.359	4.49
383.725	3.96
384.091	3.93
384.457	4.1
384.823	3.95
385.188	4.29
385.554	4.17
385.92	3.91
386.286	4.04
386.651	3.98
387.017	3.93
387.383	4.33
387.748	4.2
388.114	4.03
388.479	3.77
388.845	4.23
389.21	4.14
389.575	4.18
389.94	4.08
390.306	4.07
390.671	4.09
391.036	4.19
391.401	4.2
391.766	4.19
392.131	4.05
392.496	4.11
392.861	4.1
393.226	4.09
393.591	4.2
393.956	4.15
394.32	4.19
394.685	4.11
395.05	4.25
395.414	3.98
395.779	4.03
396.143	4.12
396.508	4.11
396.872	4.36
397.236	4.04
397.601	4.26
397.965	4.39
398.329	4.24
398.694	4.26
399.058	4.37
399.422	4.14
399.786	4.06
400.15	4.21
400.514	4.07
400.878	4.22
401.242	4.05
401.605	4.26
401.969	4.15
402.333	4.24
402.697	4.25
403.06	4.47
403.424	4.12
403.787	4.03
404.151	4.21
404.514	4.22
404.878	4.24
405.241	4.2
405.604	4.14
405.968	4.24
406.331	3.95
406.694	4.08
407.057	4.06
407.42	4.34
407.783	4.29
408.146	4.15
408.509	4.27
408.872	4.43
409.235	4.33
409.598	4.21
409.961	4.41
410.323	4.08
410.686	4.22
411.049	4.17
411.411	4.13
411.774	4.25
412.136	4.12
412.499	4.08
412.861	4.27
413.223	3.97
413.586	4.15
413.948	4.57
414.31	4.16
414.672	4.34
415.035	4.14
415.397	3.98
415.759	4.26
416.121	4.13
416.483	4.13
416.845	4.19
417.206	4.07
417.568	4.02
417.93	4.19
418.292	3.91
418.653	4.2
419.015	4.27
419.377	4.28
419.738	4.39
420.1	4.2
420.461	4.27
420.822	4.2
421.184	4.26
421.545	4.32
421.906	4.19
422.267	4.11
422.629	4
422.99	4.1
423.351	4.12
423.712	4.15
424.073	4.24
424.434	4.23
424.795	4.24
425.155	4.19
425.516	4.16
425.877	4.15
426.238	4.18
426.598	4.14
426.959	4.21
427.32	4.28
427.68	4.33
428.041	4.31
428.401	4.08
428.761	4.38
429.122	4.3
429.482	4.29
429.842	4.27
430.202	4.43
430.563	4.32
430.923	4.33
431.283	4.2
431.643	4.16
432.003	4.56
432.363	4.4
432.722	4.48
433.082	4.46
433.442	4.4
433.802	4.39
434.161	4.35
434.521	4.41
434.881	4.5
435.24	4.35
435.6	4.27
435.959	4.33
436.319	4.34
436.678	4.29
437.037	4.36
437.396	4.45
437.756	4.33
438.115	4.5
438.474	4.39
438.833	4.42
439.192	4.4
439.551	4.5
439.91	4.4
440.269	4.28
440.628	4.37
440.987	4.37
441.345	4.31
441.704	4.33
442.063	4.37
442.421	4.35
442.78	4.26
443.138	4.39
443.497	4.33
443.855	4.39
444.214	4.41
444.572	4.35
444.93	4.41
445.288	4.33
445.647	4.49
446.005	4.5
446.363	4.47
446.721	4.47
447.079	4.39
447.437	4.34
447.795	4.36
448.153	4.29
448.51	4.33
448.868	4.35
449.226	4.38
449.584	4.5
449.941	4.55
450.299	4.35
450.656	4.51
451.014	4.51
451.371	4.5
451.729	4.39
452.086	4.55
452.443	4.6
452.801	4.55
453.158	4.38
453.515	4.42
453.872	4.38
454.229	4.51
454.586	4.55
454.943	4.44
455.3	4.47
455.657	4.62
456.014	4.63
456.371	4.58
456.727	4.69
457.084	4.35
457.441	4.64
457.797	4.56
458.154	4.57
458.51	4.52
458.867	4.52
459.223	4.54
459.58	4.44
459.936	4.48
460.292	4.54
460.648	4.55
461.005	4.41
461.361	4.48
461.717	4.47
462.073	4.53
462.429	4.49
462.785	4.48
463.141	4.54
463.496	4.62
463.852	4.69
464.208	4.56
464.564	4.63
464.919	4.61
465.275	4.56
465.631	4.49
465.986	4.67
466.342	4.67
466.697	4.5
467.052	4.72
467.408	4.65
467.763	4.63
468.118	4.58
468.473	4.76
468.829	4.67
469.184	4.58
469.539	4.7
469.894	4.64
470.249	4.67
470.603	4.61
470.958	4.56
471.313	4.76
471.668	4.58
472.023	4.6
472.377	4.74
472.732	4.62
473.086	4.64
473.441	4.73
473.795	4.62
474.15	4.66
474.504	4.76
474.859	4.71
475.213	4.77
475.567	4.85
475.921	4.79
476.275	4.76
476.63	4.74
476.984	4.83
477.338	4.74
477.692	4.65
478.045	4.6
478.399	4.87
478.753	4.7
479.107	4.69
479.461	4.55
479.814	4.65
480.168	4.82
480.521	4.75
480.875	4.85
481.228	4.72
481.582	4.84
481.935	4.69
482.289	4.65
482.642	4.76
482.995	4.69
483.348	4.76
483.701	4.78
484.055	4.71
484.408	4.66
484.761	4.58
485.114	4.42
485.466	4.41
485.819	4.4
486.172	4.43
486.525	4.54
486.878	4.57
487.23	4.64
487.583	4.69
487.936	4.7
488.288	4.66
488.641	4.57
488.993	4.64
489.345	4.54
489.698	4.55
490.05	4.57
490.402	4.61
490.754	4.74
491.107	4.72
491.459	4.74
491.811	4.79
492.163	4.85
492.515	4.71
492.866	4.71
493.218	4.63
493.57	4.55
493.922	4.63
494.274	4.65
494.625	4.87
494.977	4.83
495.328	4.94
495.68	4.9
496.031	4.82
496.383	4.93
496.734	4.94
497.086	4.97
497.437	4.95
497.788	4.96
498.139	4.87
498.49	4.83
498.842	4.79
499.193	5
499.544	5.03
499.894	4.92
500.245	4.93
500.596	4.91
500.947	5.02
501.298	4.9
501.648	5.01
501.999	4.99
502.35	5.08
502.7	4.98
503.051	4.98
503.401	5
503.752	4.95
504.102	5.08
504.452	5.04
504.803	4.93
505.153	5.03
505.503	5.03
505.853	5.04
506.203	5.08
506.553	5.05
506.903	5
507.253	5
507.603	5.02
507.953	5.11
508.303	5.03
508.652	5.11
509.002	5.03
509.352	4.91
509.701	5.14
510.051	5.04
510.4	5.16
510.75	5.08
511.099	4.98
511.449	5.1
511.798	5.08
512.147	5.02
512.496	5.03
512.846	5.27
513.195	5.2
513.544	5.15
513.893	5.05
514.242	5.09
514.591	5.1
514.939	5.19
515.288	5.13
515.637	5.2
515.986	5.18
516.334	5.17
516.683	5.21
517.032	5.28
517.38	5.24
517.729	5.38
518.077	5.32
518.426	5.28
518.774	5.21
519.122	5.28
519.47	5.24
519.819	5.19
520.167	5.18
520.515	5.12
520.863	5.18
521.211	5.19
521.559	5.16
521.907	5.35
522.255	5.18
522.602	5.33
522.95	5.37
523.298	5.34
523.645	5.32
523.993	5.39
524.341	5.46
524.688	5.43
525.036	5.4
525.383	5.34
525.73	5.38
526.078	5.35
526.425	5.32
526.772	5.32
527.119	5.2
527.466	5.28
527.814	5.32
528.161	5.34
528.508	5.45
528.854	5.35
529.201	5.29
529.548	5.28
529.895	5.15
530.242	5.1
530.588	5.17
530.935	5.19
531.282	5.31
531.628	5.29
531.975	5.38
532.321	5.41
532.667	5.5
533.014	5.44
533.36	5.46
533.706	5.53
534.052	5.42
534.399	5.42
534.745	5.42
535.091	5.37
535.437	5.38
535.783	5.42
536.129	5.53
536.474	5.64
536.82	5.47
537.166	5.65
537.512	5.67
537.857	5.6
538.203	5.45
538.549	5.63
538.894	5.58
539.239	5.6
539.585	5.66
539.93	5.77
540.276	5.89
540.621	5.89
540.966	5.73
541.311	5.71
541.656	5.7
542.001	5.81
542.346	5.72
542.691	5.59
543.036	5.5
543.381	5.59
543.726	5.56
544.071	5.68
544.415	5.77
544.76	5.73
545.105	5.74
545.449	5.74
545.794	5.91
546.138	5.89
546.483	5.98
546.827	5.89
547.171	6.01
547.516	5.82
547.86	5.86
548.204	5.93
548.548	5.9
548.892	5.91
549.236	5.92
549.58	6.04
549.924	6.18
550.268	6.12
550.612	6.21
550.956	6.32
551.3	6.19
551.643	6.3
551.987	6.26
552.33	6.14
552.674	6.11
553.017	6.39
553.361	6.24
553.704	6.19
554.048	6.21
554.391	6.34
554.734	6.26
555.077	6.51
555.42	6.25
555.764	6.38
556.107	6.39
556.45	6.33
556.793	6.37
557.135	6.51
557.478	6.29
557.821	6.48
558.164	6.39
558.507	6.53
558.849	6.53
559.192	6.48
559.534	6.52
559.877	6.68
560.219	6.67
560.562	6.41
560.904	6.63
561.246	6.35
561.589	6.66
561.931	6.52
562.273	6.6
562.615	6.59
562.957	6.71
563.299	6.7
563.641	6.63
563.983	6.57
564.325	6.61
564.667	6.85
565.008	6.94
565.35	6.87
565.692	6.52
566.033	6.82
566.375	7.01
566.716	6.89
567.058	6.83
567.399	6.95
567.741	6.98
568.082	6.94
568.423	6.75
568.764	7.05
569.105	6.89
569.447	7.07
569.788	7.14
570.129	7.03
570.47	7.03
570.811	7.08
571.151	7.21
571.492	7.17
571.833	7.06
572.174	7.17
572.514	7.08
572.855	7.19
573.195	6.93
573.536	7.07
573.876	7.14
574.217	7.3
574.557	7.12
574.898	7.23
575.238	7.29
575.578	7.3
575.918	7.49
576.258	7.37
576.598	7.35
576.938	7.43
577.278	7.34
577.618	7.35
577.958	7.47
578.298	7.32
578.638	7.44
578.977	7.58
579.317	7.49
579.657	7.76
579.996	7.65
580.336	7.59
580.675	7.61
581.014	7.8
581.354	7.55
581.693	7.66
582.032	7.65
582.372	7.59
582.711	7.88
583.05	7.93
583.389	7.88
583.728	7.97
584.067	8
584.406	7.69
584.745	8.04
585.083	7.91
585.422	7.86
585.761	7.92
586.1	8.03
586.438	7.8
586.777	7.87
587.115	8.1
587.454	8.06
587.792	7.97
588.13	8.13
588.469	8.16
588.807	8.38
589.145	8.26
589.483	8.46
589.821	8.25
590.159	8.27
590.497	8.55
590.835	8.24
591.173	8.33
591.511	8.17
591.849	8.43
592.187	8.35
592.524	8.31
592.862	8.48
593.2	8.37
593.537	8.39
593.875	8.88
594.212	8.39
594.55	8.56
594.887	8.55
595.224	8.51
595.561	8.34
595.899	8.44
596.236	8.73
596.573	8.54
596.91	8.74
597.247	8.77
597.584	8.55
597.921	8.74
598.258	8.64
598.594	8.71
598.931	8.64
599.268	8.87
599.604	8.88
599.941	8.96
600.277	8.89
600.614	9.11
600.95	8.94
601.287	9.04
601.623	9.41
601.959	9.1
602.296	8.93
602.632	9
602.968	9.29
603.304	9.46
603.64	9.43
603.976	9.4
604.312	9.43
604.648	9.24
604.984	9.24
605.319	9.26
605.655	9.2
605.991	9.25
606.326	9.45
606.662	9.21
606.998	9.31
607.333	9.41
607.668	9.28
608.004	9.45
608.339	9.45
608.674	9.59
609.01	9.9
609.345	9.51
609.68	9.31
610.015	9.78
610.35	9.58
610.685	9.87
611.02	9.74
611.355	9.69
611.689	9.67
612.024	9.62
612.359	9.83
612.694	9.81
613.028	9.59
613.363	9.98
613.697	10.07
614.032	9.96
614.366	9.63
614.7	9.97
615.035	10.15
615.369	9.91
615.703	10.07
616.037	10.42
616.371	10.08
616.705	10.2
617.039	10.32
617.373	10.15
617.707	10.38
618.041	10.03
618.375	10.11
618.709	10.31
619.042	10.53
619.376	10.21
619.71	10.43
620.043	10.51
620.377	10.01
620.71	10.62
621.043	10.31
621.377	10.65
621.71	10.76
622.043	10.66
622.376	11.05
622.709	10.78
623.043	10.83
623.376	10.68
623.709	10.79
624.041	10.89
624.374	10.39
624.707	11.17
625.04	10.66
625.373	10.96
625.705	10.71
626.038	10.65
626.37	10.85
626.703	10.74
627.035	11.09
627.368	10.93
627.7	10.75
628.032	11.29
628.365	11.32
628.697	10.91
629.029	11.16
629.361	11.27
629.693	11.43
630.025	11.49
630.357	11.36
630.689	11.07
631.021	11.2
631.353	11.44
631.684	11.58
632.016	11.39
632.348	11.27
632.679	11.39
633.011	11.68
633.342	11.71
633.674	11.42
634.005	11.54
634.336	11.57
634.668	11.43
634.999	11.64
635.33	11.77
635.661	12.18
635.992	11.66
636.323	11.34
636.654	12.02
636.985	11.93
637.316	11.88
637.647	12.01
637.977	12.05
638.308	12.25
638.639	12.04
638.969	11.82
639.3	12.14
639.63	12.56
639.961	11.99
640.291	12.48
640.622	12.53
640.952	12.01
641.282	12.63
641.612	12.52
641.943	12.5
642.273	12.36
642.603	12.64
642.933	12.33
643.263	12.31
643.592	12.74
643.922	12.13
644.252	12.79
644.582	12.6
644.911	12.55
645.241	12.98
645.571	12.62
645.9	12.86
646.23	12.99
646.559	13.1
646.888	13.08
647.218	13
647.547	12.96
647.876	12.9
648.205	12.86
648.534	12.85
648.863	13.7
649.192	13.1
649.521	13.01
649.85	13.1
650.179	13.25
650.508	13.26
650.837	13.42
651.165	13.09
651.494	13.58
651.822	13.16
652.151	13.25
652.479	13.22
652.808	13.08
653.136	13.31
653.465	13.9
653.793	13.56
654.121	13.53
654.449	12.93
654.777	14.1
655.105	13.38
655.433	13.73
655.761	13.46
656.089	13.89
656.417	13.29
656.745	13.99
657.073	13.4
657.4	13.36
657.728	13.87
658.056	14.15
658.383	13.75
658.711	13.64
659.038	13.97
659.365	14.06
659.693	13.68
660.02	14.52
660.347	14.3
660.674	14.15
661.001	14.02
661.329	13.79
661.656	14.24
661.982	14.48
662.309	14.39
662.636	14.35
662.963	14.67
663.29	14.39
663.616	14.32
663.943	14.7
664.27	14.56
664.596	14.99
664.923	14.7
665.249	15.03
665.576	15.1
665.902	14.67
666.228	14.63
666.554	14.65
666.881	14.9
667.207	15.07
667.533	15.47
667.859	15.27
668.185	14.91
668.511	14.38
668.837	15.58
669.162	14.86
669.488	15.15
669.814	15.14
670.139	14.89
670.465	15.09
670.791	15.03
671.116	14.99
671.442	14.92
671.767	15.72
672.092	15.07
672.418	14.98
672.743	15.29
673.068	15.79
673.393	15.49
673.718	15.32
674.043	15.67
674.368	15.51
674.693	14.69
675.018	15.95
675.343	15.43
675.667	15.41
675.992	16.35
676.317	15.78
676.641	15.23
676.966	16.04
677.29	15.41
677.615	15.7
677.939	15.62
678.264	16.35
678.588	15.78
678.912	15.8
679.236	15.98
679.56	17.09
679.885	15.85
680.209	15.85
680.532	16.38
680.856	16.62
681.18	16.5
681.504	15.68
681.828	16.17
682.152	16.25
682.475	16.31
682.799	16.03
683.122	16.7
683.446	16.55
683.769	16.68
684.093	16.76
684.416	16.69
684.739	16.84
685.062	16.15
685.386	16.9
685.709	16.53
686.032	16.76
686.355	17.28
686.678	16.92
687.001	16.68
687.324	16.61
