Data from 20-3_chest_Reflection__2__92.txt Node

Date: Fri Nov 11 20:52:36 CST 2022
User: ToomeyLab
Spectrometer: FLMS14357
Trigger mode: 0
Integration Time (sec): 1.000000E-2
Scans to average: 100
Electric dark correction enabled: true
Nonlinearity correction enabled: false
Boxcar width: 0
XAxis mode: Wavelengths
Number of Pixels in Spectrum: 2048
>>>>>Begin Spectral Data<<<<<
189.047	18.17
189.435	18.17
189.823	18.17
190.211	47.6
190.599	-25.29
190.987	6.86
191.375	-87.67
191.763	-195.79
192.151	58.75
192.538	51.17
192.926	226.41
193.314	493.57
193.702	-253.09
194.089	8518.18
194.477	93.68
194.864	54.96
195.252	184.67
195.639	113.06
196.027	-55.12
196.414	2250.48
196.801	67.62
197.189	119.68
197.576	290.64
197.963	-97.26
198.351	-52.17
198.738	-47.22
199.125	33.11
199.512	7.36
199.899	-55.58
200.286	-0.72
200.673	10.38
201.06	23.6
201.447	8.71
201.833	8.17
202.22	-43.03
202.607	37.66
202.994	26.94
203.38	24.65
203.767	1.39
204.154	12.53
204.54	3.57
204.927	32.44
205.313	36.28
205.699	-41.01
206.086	25.68
206.472	-9.97
206.858	42.81
207.245	39.06
207.631	0.51
208.017	19.99
208.403	-13.35
208.789	28.81
209.175	1.59
209.561	38.47
209.947	-17.04
210.333	-4.24
210.719	12.26
211.105	25.03
211.491	6.44
211.876	47.79
212.262	35.21
212.648	-15.82
213.034	-20.09
213.419	-32.86
213.805	-17.51
214.19	-6.41
214.576	4.14
214.961	-5.11
215.346	10.76
215.732	-22.49
216.117	27.88
216.502	-24.27
216.888	-9.5
217.273	7.86
217.658	-5.5
218.043	22.27
218.428	4.18
218.813	18.4
219.198	23.53
219.583	6.32
219.968	-3.9
220.353	-12.98
220.738	-12.29
221.122	6.31
221.507	-9.73
221.892	-2.84
222.276	19.95
222.661	16.43
223.046	-12.73
223.43	-14.99
223.815	6.6
224.199	11.77
224.583	2.63
224.968	6.38
225.352	-6.11
225.736	7.45
226.121	-3.32
226.505	3.12
226.889	-4.74
227.273	9.83
227.657	-1.55
228.041	5.22
228.425	-0.53
228.809	6.18
229.193	4.05
229.577	4.68
229.961	4.88
230.344	3.61
230.728	3.4
231.112	3.53
231.495	4.55
231.879	3.88
232.263	3.1
232.646	2.82
233.03	2.72
233.413	3.12
233.797	4.82
234.18	3.25
234.563	5.14
234.946	3.77
235.33	3.85
235.713	3.56
236.096	3.59
236.479	4.18
236.862	4.87
237.245	3.82
237.628	4.09
238.011	5.48
238.394	4.03
238.777	3.92
239.16	4.19
239.543	3.42
239.925	5.34
240.308	4.34
240.691	4.01
241.073	4.21
241.456	2.5
241.838	5.05
242.221	3.15
242.603	4.14
242.986	4.18
243.368	4.14
243.75	4.01
244.133	3.94
244.515	3.85
244.897	4.43
245.279	3.75
245.661	4.74
246.043	4.57
246.425	5.51
246.807	4.13
247.189	3.9
247.571	3.9
247.953	3.94
248.335	3.99
248.717	4.07
249.098	4.33
249.48	3.78
249.862	4.48
250.243	4.21
250.625	3.82
251.006	4.47
251.388	4.16
251.769	4.22
252.151	3.85
252.532	4.06
252.913	4.31
253.295	4.07
253.676	3.33
254.057	3.79
254.438	3.62
254.819	3.98
255.2	4.86
255.581	3.63
255.962	3.25
256.343	4.09
256.724	3.99
257.105	3.59
257.486	4.56
257.867	3.84
258.247	3.19
258.628	3.73
259.009	3.15
259.389	3.38
259.77	4.71
260.15	3.97
260.531	3.8
260.911	3.87
261.292	4.11
261.672	3.57
262.052	3.8
262.432	3.89
262.813	3.71
263.193	3.98
263.573	3.64
263.953	3.74
264.333	3.72
264.713	3.84
265.093	3.94
265.473	3.42
265.853	3.85
266.233	3.51
266.612	3.24
266.992	3.73
267.372	4.21
267.752	3.7
268.131	3.31
268.511	3.78
268.89	3.67
269.27	4.06
269.649	3.67
270.029	3.73
270.408	3.33
270.787	3.71
271.167	3.53
271.546	3.79
271.925	3.82
272.304	3.79
272.683	3.35
273.062	3.23
273.441	3.6
273.82	3.63
274.199	3.57
274.578	3.55
274.957	4
275.336	4.4
275.715	3.85
276.093	3.42
276.472	3.48
276.851	3.89
277.229	3.63
277.608	3.84
277.986	3.82
278.365	2.92
278.743	3.08
279.122	3.97
279.5	3.45
279.878	4.19
280.257	3.63
280.635	3.23
281.013	3.68
281.391	3.45
281.769	3.64
282.147	3.53
282.525	2.86
282.903	3.42
283.281	3.71
283.659	3.66
284.037	3.73
284.415	3.41
284.792	3.51
285.17	3.95
285.548	3.11
285.925	3.54
286.303	3.77
286.68	3.79
287.058	3.64
287.435	3.64
287.813	3.38
288.19	3.29
288.567	3.57
288.945	3.55
289.322	4.09
289.699	3.16
290.076	3.93
290.453	3.58
290.83	2.98
291.207	3.32
291.584	3.75
291.961	3.79
292.338	3.49
292.715	4.06
293.092	3.89
293.469	3.59
293.845	3.73
294.222	3.55
294.599	4.61
294.975	3.86
295.352	4.33
295.728	3.75
296.105	3.92
296.481	3.3
296.858	3.87
297.234	3.94
297.61	3.88
297.986	3.84
298.363	3.99
298.739	3.93
299.115	3.8
299.491	4.11
299.867	3.79
300.243	3.94
300.619	4.1
300.995	3.95
301.371	4.07
301.746	4.14
302.122	3.96
302.498	4.56
302.874	4.05
303.249	4.13
303.625	3.75
304	3.74
304.376	4.11
304.751	4.17
305.127	4.2
305.502	4.06
305.878	4.46
306.253	4.25
306.628	4.09
307.003	4.13
307.378	4
307.754	4.61
308.129	4.26
308.504	4.56
308.879	4.31
309.254	4.23
309.629	3.98
310.003	4.29
310.378	4.48
310.753	4.51
311.128	4.67
311.502	4.32
311.877	4.17
312.252	4.52
312.626	4.53
313.001	4.17
313.375	4.7
313.75	4.41
314.124	4.08
314.498	4.6
314.873	4.25
315.247	4.04
315.621	4.65
315.995	4.18
316.369	4.15
316.743	4.49
317.117	4.47
317.491	4.39
317.865	4.28
318.239	4.56
318.613	4.52
318.987	4.58
319.361	4.44
319.734	4.72
320.108	4.76
320.482	4.62
320.855	4.77
321.229	4.36
321.602	4.7
321.976	4.85
322.349	4.64
322.723	4.64
323.096	4.93
323.469	4.94
323.843	4.65
324.216	4.07
324.589	4.47
324.962	5.34
325.335	4.78
325.708	4.47
326.081	4.74
326.454	4.12
326.827	4.42
327.2	4.69
327.573	5.28
327.945	4.75
328.318	4.62
328.691	5.34
329.063	4.66
329.436	4.55
329.809	4.35
330.181	4.41
330.553	4.16
330.926	5.31
331.298	5.26
331.671	4.6
332.043	4.06
332.415	4.44
332.787	4.98
333.159	4.6
333.532	4.92
333.904	4.92
334.276	4.45
334.648	4.7
335.02	4.73
335.391	4.65
335.763	4.69
336.135	4.67
336.507	4.59
336.879	4.86
337.25	4.86
337.622	4.78
337.993	4.82
338.365	4.82
338.736	5.13
339.108	4.61
339.479	5.18
339.851	4.89
340.222	4.62
340.593	5.05
340.964	4.68
341.336	5.2
341.707	4.84
342.078	4.36
342.449	5.27
342.82	5
343.191	5.13
343.562	5.08
343.933	4.82
344.303	4.89
344.674	4.53
345.045	4.59
345.416	5.15
345.786	4.72
346.157	4.74
346.527	5.02
346.898	4.47
347.268	4.38
347.639	4.45
348.009	4.64
348.38	4.99
348.75	4.94
349.12	5.58
349.49	5.1
349.861	4.56
350.231	5.07
350.601	4.69
350.971	5.27
351.341	5.07
351.711	4.94
352.081	4.55
352.45	4.83
352.82	4.73
353.19	4.99
353.56	4.77
353.929	4.68
354.299	5.11
354.669	5.15
355.038	5.08
355.408	5.17
355.777	4.93
356.147	4.98
356.516	4.96
356.885	4.72
357.254	4.84
357.624	4.82
357.993	5.02
358.362	4.99
358.731	4.51
359.1	5.1
359.469	4.62
359.838	4.81
360.207	4.79
360.576	4.84
360.945	4.91
361.314	4.87
361.682	4.96
362.051	4.89
362.42	5.23
362.788	4.94
363.157	4.78
363.525	5.03
363.894	4.75
364.262	4.99
364.631	5.28
364.999	4.94
365.367	4.98
365.735	4.94
366.104	4.97
366.472	4.66
366.84	4.56
367.208	4.74
367.576	5.12
367.944	5.11
368.312	4.81
368.68	5.18
369.048	4.97
369.416	5.13
369.783	5.11
370.151	4.99
370.519	5.21
370.886	5.2
371.254	4.8
371.621	4.91
371.989	4.97
372.356	5.37
372.724	5.17
373.091	5.37
373.458	4.98
373.826	4.84
374.193	5.11
374.56	4.82
374.927	5.01
375.294	5.01
375.661	5.29
376.028	4.66
376.395	5.27
376.762	4.93
377.129	5.14
377.496	5.15
377.863	5.2
378.229	5.24
378.596	5.01
378.963	5.14
379.329	5.22
379.696	5.04
380.062	5.08
380.429	5.14
380.795	5.53
381.161	5.09
381.528	4.93
381.894	5.22
382.26	5.32
382.626	5.09
382.993	5.16
383.359	5.21
383.725	5.1
384.091	5.14
384.457	4.97
384.823	5.11
385.188	5.12
385.554	5.1
385.92	5.04
386.286	5.03
386.651	5.23
387.017	4.79
387.383	5.32
387.748	5.16
388.114	5.25
388.479	4.86
388.845	5.15
389.21	4.9
389.575	5.5
389.94	5.21
390.306	5.07
390.671	5.08
391.036	5.23
391.401	5.23
391.766	5.46
392.131	5.33
392.496	5.21
392.861	5.13
393.226	5.13
393.591	5.04
393.956	5.26
394.32	5.27
394.685	5.31
395.05	5.4
395.414	5.07
395.779	5.27
396.143	5.26
396.508	5.23
396.872	5.44
397.236	5.1
397.601	5.4
397.965	5.27
398.329	5.15
398.694	5.41
399.058	5.32
399.422	5.23
399.786	4.92
400.15	5.28
400.514	5.29
400.878	5.22
401.242	5.1
401.605	5.55
401.969	5.32
402.333	5.2
402.697	5.43
403.06	5.49
403.424	5.13
403.787	5.21
404.151	5.26
404.514	5.43
404.878	5.43
405.241	5.25
405.604	5.08
405.968	5.32
406.331	4.95
406.694	5.16
407.057	5.22
407.42	5.45
407.783	5.34
408.146	5.41
408.509	5.24
408.872	5.25
409.235	5.51
409.598	5.36
409.961	5.65
410.323	5.27
410.686	5.36
411.049	5.31
411.411	5.28
411.774	5.26
412.136	5.43
412.499	5.44
412.861	5.48
413.223	5.17
413.586	5.38
413.948	5.45
414.31	5.39
414.672	5.51
415.035	5.28
415.397	5.35
415.759	5.47
416.121	5.36
416.483	5.4
416.845	5.66
417.206	5.41
417.568	5.41
417.93	5.34
418.292	5.19
418.653	5.45
419.015	5.45
419.377	5.35
419.738	5.48
420.1	5.37
420.461	5.47
420.822	5.34
421.184	5.34
421.545	5.45
421.906	5.28
422.267	5.16
422.629	5.27
422.99	5.2
423.351	5.25
423.712	5.27
424.073	5.43
424.434	5.38
424.795	5.47
425.155	5.36
425.516	5.26
425.877	5.36
426.238	5.39
426.598	5.23
426.959	5.31
427.32	5.39
427.68	5.46
428.041	5.54
428.401	5.37
428.761	5.56
429.122	5.45
429.482	5.52
429.842	5.44
430.202	5.59
430.563	5.61
430.923	5.7
431.283	5.33
431.643	5.4
432.003	5.91
432.363	5.49
432.722	5.73
433.082	5.6
433.442	5.63
433.802	5.72
434.161	5.37
434.521	5.41
434.881	5.65
435.24	5.38
435.6	5.55
435.959	5.63
436.319	5.53
436.678	5.56
437.037	5.59
437.396	5.69
437.756	5.57
438.115	5.57
438.474	5.47
438.833	5.69
439.192	5.58
439.551	5.59
439.91	5.69
440.269	5.64
440.628	5.62
440.987	5.58
441.345	5.54
441.704	5.58
442.063	5.61
442.421	5.58
442.78	5.46
443.138	5.55
443.497	5.43
443.855	5.68
444.214	5.6
444.572	5.67
444.93	5.65
445.288	5.71
445.647	5.7
446.005	5.8
446.363	5.69
446.721	5.67
447.079	5.71
447.437	5.55
447.795	5.61
448.153	5.6
448.51	5.58
448.868	5.65
449.226	5.6
449.584	5.7
449.941	5.65
450.299	5.57
450.656	5.7
451.014	5.79
451.371	5.63
451.729	5.64
452.086	5.73
452.443	5.8
452.801	5.93
453.158	5.76
453.515	5.75
453.872	5.75
454.229	5.81
454.586	5.87
454.943	5.93
455.3	5.77
455.657	5.76
456.014	6.01
456.371	5.91
456.727	6.04
457.084	5.6
457.441	5.88
457.797	5.83
458.154	5.8
458.51	5.95
458.867	5.96
459.223	5.95
459.58	5.79
459.936	5.77
460.292	5.88
460.648	5.93
461.005	5.82
461.361	5.76
461.717	5.69
462.073	5.81
462.429	5.77
462.785	5.78
463.141	5.77
463.496	5.83
463.852	6.02
464.208	5.96
464.564	5.94
464.919	5.95
465.275	5.79
465.631	5.96
465.986	6.23
466.342	6.01
466.697	5.98
467.052	5.9
467.408	6.1
467.763	5.96
468.118	6.05
468.473	6.08
468.829	5.99
469.184	6.05
469.539	6.13
469.894	6.19
470.249	6.17
470.603	6.02
470.958	5.99
471.313	6.17
471.668	6.2
472.023	5.94
472.377	6.32
472.732	6.06
473.086	6.03
473.441	6.09
473.795	6.07
474.15	6.03
474.504	6
474.859	6.09
475.213	6.17
475.567	6.17
475.921	6.22
476.275	6.19
476.63	6.13
476.984	6.24
477.338	6.15
477.692	6.03
478.045	6.08
478.399	6.28
478.753	6.09
479.107	6.19
479.461	6.18
479.814	6.14
480.168	6.12
480.521	6.24
480.875	6.29
481.228	6.11
481.582	6.19
481.935	6.13
482.289	6.12
482.642	6.19
482.995	6.16
483.348	6.1
483.701	6.18
484.055	6.05
484.408	6.07
484.761	5.96
485.114	5.86
485.466	5.79
485.819	5.81
486.172	5.81
486.525	5.91
486.878	5.95
487.23	5.98
487.583	6.05
487.936	6.03
488.288	6.15
488.641	6.02
488.993	6
489.345	5.9
489.698	5.96
490.05	6.01
490.402	6.04
490.754	6.03
491.107	6.07
491.459	6.17
491.811	6.25
492.163	6.21
492.515	6.22
492.866	6.14
493.218	5.99
493.57	6.03
493.922	6.11
494.274	6.15
494.625	6.25
494.977	6.37
495.328	6.33
495.68	6.32
496.031	6.29
496.383	6.41
496.734	6.5
497.086	6.52
497.437	6.6
497.788	6.39
498.139	6.43
498.49	6.3
498.842	6.32
499.193	6.35
499.544	6.47
499.894	6.32
500.245	6.46
500.596	6.52
500.947	6.32
501.298	6.44
501.648	6.54
501.999	6.49
502.35	6.68
502.7	6.58
503.051	6.6
503.401	6.61
503.752	6.53
504.102	6.43
504.452	6.65
504.803	6.62
505.153	6.59
505.503	6.68
505.853	6.66
506.203	6.6
506.553	6.56
506.903	6.59
507.253	6.62
507.603	6.66
507.953	6.65
508.303	6.64
508.652	6.57
509.002	6.71
509.352	6.71
509.701	6.78
510.051	6.6
510.4	6.76
510.75	6.67
511.099	6.69
511.449	6.74
511.798	6.73
512.147	6.65
512.496	6.64
512.846	6.81
513.195	6.81
513.544	6.75
513.893	6.61
514.242	6.75
514.591	6.72
514.939	6.81
515.288	6.8
515.637	6.88
515.986	6.91
516.334	6.86
516.683	6.87
517.032	6.94
517.38	6.8
517.729	6.9
518.077	6.88
518.426	6.95
518.774	6.99
519.122	6.96
519.47	6.93
519.819	6.78
520.167	6.74
520.515	6.84
520.863	6.9
521.211	6.92
521.559	6.8
521.907	7
522.255	6.87
522.602	6.99
522.95	6.99
523.298	7.12
523.645	7.15
523.993	7.13
524.341	7.19
524.688	7.11
525.036	7.08
525.383	7.06
525.73	7.03
526.078	7.01
526.425	7.05
526.772	7.07
527.119	6.96
527.466	6.99
527.814	7.06
528.161	7.1
528.508	7.13
528.854	6.99
529.201	7.02
529.548	7
529.895	6.91
530.242	6.85
530.588	6.87
530.935	6.9
531.282	6.97
531.628	6.99
531.975	7.06
532.321	7.06
532.667	7.21
533.014	7.26
533.36	7.22
533.706	7.28
534.052	7.19
534.399	7.18
534.745	7.16
535.091	7.09
535.437	7.13
535.783	7.2
536.129	7.24
536.474	7.36
536.82	7.25
537.166	7.39
537.512	7.38
537.857	7.39
538.203	7.31
538.549	7.47
538.894	7.39
539.239	7.4
539.585	7.4
539.93	7.57
540.276	7.61
540.621	7.61
540.966	7.73
541.311	7.67
541.656	7.68
542.001	7.58
542.346	7.6
542.691	7.4
543.036	7.35
543.381	7.44
543.726	7.41
544.071	7.48
544.415	7.59
544.76	7.62
545.105	7.59
545.449	7.62
545.794	7.78
546.138	7.69
546.483	7.91
546.827	7.82
547.171	7.84
547.516	7.77
547.86	7.84
548.204	7.89
548.548	7.91
548.892	7.91
549.236	7.98
549.58	8
549.924	8.14
550.268	8.08
550.612	8.19
550.956	8.29
551.3	8.23
551.643	8.12
551.987	8.31
552.33	8.2
552.674	8.26
553.017	8.31
553.361	8.28
553.704	8.29
554.048	8.25
554.391	8.29
554.734	8.22
555.077	8.43
555.42	8.35
555.764	8.45
556.107	8.44
556.45	8.56
556.793	8.5
557.135	8.49
557.478	8.47
557.821	8.56
558.164	8.54
558.507	8.5
558.849	8.54
559.192	8.64
559.534	8.74
559.877	8.63
560.219	8.65
560.562	8.56
560.904	8.85
561.246	8.55
561.589	8.77
561.931	8.59
562.273	8.89
562.615	8.8
562.957	8.91
563.299	8.85
563.641	8.86
563.983	8.76
564.325	8.86
564.667	8.98
565.008	9.18
565.35	8.82
565.692	8.98
566.033	8.95
566.375	9.02
566.716	9.08
567.058	8.93
567.399	9.11
567.741	9.11
568.082	9.1
568.423	9.03
568.764	9.2
569.105	9.11
569.447	9.17
569.788	9.35
570.129	9.15
570.47	9.1
570.811	9.32
571.151	9.58
571.492	9.37
571.833	9.3
572.174	9.42
572.514	9.54
572.855	9.49
573.195	9.26
573.536	9.47
573.876	9.43
574.217	9.53
574.557	9.46
574.898	9.46
575.238	9.55
575.578	9.47
575.918	9.69
576.258	9.57
576.598	9.67
576.938	9.63
577.278	9.43
577.618	9.68
577.958	9.61
578.298	9.72
578.638	9.69
578.977	9.93
579.317	9.82
579.657	9.98
579.996	9.82
580.336	9.86
580.675	10.05
581.014	10.05
581.354	9.97
581.693	10.08
582.032	10
582.372	10.25
582.711	10.15
583.05	10.07
583.389	10.24
583.728	10.39
584.067	10.44
584.406	10.21
584.745	10.35
585.083	10.35
585.422	10.4
585.761	10.5
586.1	10.52
586.438	10.24
586.777	10.46
587.115	10.59
587.454	10.45
587.792	10.46
588.13	10.46
588.469	10.53
588.807	10.62
589.145	10.77
589.483	10.81
589.821	10.51
590.159	10.86
590.497	10.98
590.835	10.55
591.173	10.94
591.511	10.69
591.849	10.92
592.187	10.83
592.524	10.65
592.862	10.83
593.2	11.17
593.537	10.99
593.875	11.29
594.212	10.99
594.55	11.13
594.887	11.05
595.224	11.12
595.561	10.75
595.899	11.09
596.236	11.08
596.573	11.21
596.91	11.17
597.247	11.22
597.584	11.37
597.921	11.53
598.258	11.25
598.594	11.21
598.931	11.05
599.268	11.26
599.604	11.27
599.941	11.28
600.277	11.62
600.614	11.68
600.95	11.48
601.287	11.49
601.623	12.02
601.959	11.86
602.296	11.51
602.632	11.73
602.968	11.6
603.304	11.82
603.64	11.9
603.976	11.95
604.312	12.02
604.648	11.81
604.984	11.89
605.319	11.99
605.655	11.76
605.991	11.87
606.326	11.97
606.662	11.88
606.998	11.82
607.333	11.88
607.668	11.91
608.004	12.05
608.339	12.08
608.674	11.97
609.01	12.38
609.345	12.09
609.68	12.22
610.015	12.49
610.35	12.55
610.685	12.24
611.02	12.39
611.355	12.5
611.689	12.4
612.024	12.32
612.359	12.47
612.694	12.2
613.028	12.41
613.363	12.53
613.697	12.55
614.032	12.87
614.366	12.72
614.7	12.7
615.035	12.8
615.369	12.76
615.703	13.11
616.037	13.17
616.371	12.78
616.705	13.05
617.039	13.08
617.373	12.79
617.707	12.94
618.041	13.07
618.375	12.9
618.709	13.14
619.042	13.6
619.376	13.16
619.71	13.21
620.043	13.36
620.377	13.11
620.71	13.03
621.043	13.32
621.377	13.24
621.71	13.12
622.043	13.85
622.376	13.71
622.709	13.43
623.043	13.63
623.376	13.71
623.709	13.8
624.041	13.87
624.374	13.49
624.707	13.77
625.04	13.67
625.373	13.6
625.705	14.02
626.038	14.06
626.37	13.84
626.703	13.72
627.035	13.83
627.368	13.63
627.7	13.9
628.032	13.97
628.365	14.36
628.697	14.12
629.029	14.15
629.361	13.92
629.693	14.26
630.025	14.25
630.357	14.33
630.689	14.21
631.021	14.08
631.353	14.51
631.684	14.24
632.016	14.28
632.348	14.32
632.679	14.09
633.011	14.61
633.342	14.72
633.674	14.42
634.005	14.73
634.336	14.17
634.668	14.61
634.999	14.79
635.33	14.78
635.661	15
635.992	14.57
636.323	14.47
636.654	15.09
636.985	14.92
637.316	14.68
637.647	15.09
637.977	15.18
638.308	15.09
638.639	15.07
638.969	15.07
639.3	15.32
639.63	15.72
639.961	15.04
640.291	15.88
640.622	15.76
640.952	15.43
641.282	15.05
641.612	15.21
641.943	15.64
642.273	15.57
642.603	15.71
642.933	15.48
643.263	15.6
643.592	16.09
643.922	15.94
644.252	15.4
644.582	15.35
644.911	15.62
645.241	15.7
645.571	15.72
645.9	16.13
646.23	16.23
646.559	15.79
646.888	16.05
647.218	15.67
647.547	15.92
647.876	15.49
648.205	16.5
648.534	16.31
648.863	16.27
649.192	15.66
649.521	16.28
649.85	16.22
650.179	16.27
650.508	16.02
650.837	16.4
651.165	16
651.494	16.39
651.822	16.35
652.151	16.32
652.479	16.56
652.808	16.53
653.136	16.24
653.465	17.05
653.793	16.87
654.121	16.52
654.449	16.16
654.777	17.06
655.105	16.55
655.433	17.01
655.761	16.64
656.089	16.95
656.417	16.63
656.745	16.92
657.073	16.79
657.4	17.01
657.728	17.17
658.056	17.07
658.383	16.85
658.711	17.04
659.038	17.56
659.365	16.99
659.693	17.52
660.02	17.6
660.347	16.84
660.674	17.27
661.001	17.21
661.329	17.01
661.656	17.28
661.982	17.47
662.309	17.48
662.636	17.54
662.963	17.55
663.29	17.76
663.616	17.72
663.943	17.78
664.27	18.12
664.596	17.79
664.923	17.47
665.249	18.17
665.576	18.22
665.902	17.76
666.228	18.12
666.554	17.87
666.881	17.82
667.207	18.07
667.533	18.6
667.859	18.44
668.185	18.33
668.511	17.86
668.837	18.49
669.162	18.25
669.488	18.43
669.814	18.68
670.139	18.8
670.465	18.23
670.791	18.26
671.116	18.68
671.442	18.4
671.767	18.65
672.092	18.41
672.418	18.33
672.743	18.3
673.068	19.15
673.393	19.43
673.718	18.72
674.043	19.25
674.368	19.05
674.693	18.49
675.018	19.16
675.343	19.06
675.667	19.35
675.992	20.03
676.317	19.17
676.641	18.53
676.966	19.26
677.29	19.62
677.615	18.97
677.939	18.78
678.264	19.29
678.588	19.05
678.912	19.08
679.236	20.19
679.56	20.07
679.885	19.01
680.209	18.87
680.532	19.64
680.856	19.58
681.18	19.67
681.504	19.57
681.828	19.51
682.152	19.63
682.475	19.67
682.799	19.44
683.122	19.57
683.446	20.34
683.769	19.34
684.093	20.06
684.416	20.14
684.739	20.64
685.062	20.17
