Data from 20-3_crown_Reflection__0__95.txt Node

Date: Fri Nov 11 20:53:43 CST 2022
User: ToomeyLab
Spectrometer: FLMS14357
Trigger mode: 0
Integration Time (sec): 1.000000E-2
Scans to average: 100
Electric dark correction enabled: true
Nonlinearity correction enabled: false
Boxcar width: 0
XAxis mode: Wavelengths
Number of Pixels in Spectrum: 2048
>>>>>Begin Spectral Data<<<<<
189.047	125.97
189.435	125.97
189.823	125.97
190.211	-44.11
190.599	54.89
190.987	414.54
191.375	-137.67
191.763	-104.72
192.151	-35.41
192.538	189.18
192.926	77.89
193.314	518.7
193.702	570.99
194.089	3995.45
194.477	138.56
194.864	-13.39
195.252	109.95
195.639	61.8
196.027	-466.75
196.414	463.33
196.801	99.45
197.189	92.59
197.576	171.46
197.963	14.68
198.351	-137.84
198.738	-15.64
199.125	14.37
199.512	-9.31
199.899	-107.37
200.286	37.97
200.673	-12.93
201.06	27.48
201.447	22.25
201.833	16.19
202.22	-113.9
202.607	5.52
202.994	18.67
203.38	26.61
203.767	-5.68
204.154	-13.5
204.54	-1.35
204.927	0.66
205.313	-7.97
205.699	-11.77
206.086	8.11
206.472	40.83
206.858	35.5
207.245	27.4
207.631	-12.55
208.017	4.49
208.403	-5.4
208.789	-9.81
209.175	20.69
209.561	50.06
209.947	-37.32
210.333	25.99
210.719	6.79
211.105	15.88
211.491	14.77
211.876	23.88
212.262	8.54
212.648	-10.57
213.034	8.08
213.419	-27.96
213.805	-18.34
214.19	3.9
214.576	4.85
214.961	-45.92
215.346	-29.72
215.732	-38.12
216.117	7.65
216.502	12.3
216.888	-41.41
217.273	-10.33
217.658	-18.74
218.043	-7.79
218.428	-36.99
218.813	-3.83
219.198	-2.2
219.583	-8.03
219.968	-3.77
220.353	16.61
220.738	5.64
221.122	-3.97
221.507	6.38
221.892	-10.58
222.276	12.5
222.661	10.03
223.046	-9.1
223.43	-4.14
223.815	-1.63
224.199	1.06
224.583	-6.37
224.968	-9.45
225.352	8.94
225.736	1.14
226.121	-5.55
226.505	-3.94
226.889	-11.38
227.273	5.2
227.657	-3.66
228.041	1.1
228.425	3.23
228.809	4.94
229.193	6.59
229.577	3.2
229.961	3.52
230.344	4.65
230.728	2.88
231.112	2.44
231.495	3.99
231.879	1.5
232.263	3.43
232.646	2.13
233.03	3.55
233.413	1.72
233.797	2.34
234.18	0.26
234.563	2.49
234.946	2.11
235.33	4.72
235.713	1.96
236.096	2.9
236.479	2.19
236.862	3.96
237.245	1.56
237.628	5.02
238.011	3.41
238.394	3.91
238.777	3.52
239.16	3.72
239.543	1.55
239.925	3.57
240.308	2.31
240.691	4.44
241.073	2.44
241.456	1.72
241.838	4.49
242.221	3.54
242.603	3.75
242.986	3.43
243.368	4.01
243.75	3.49
244.133	3.03
244.515	3.32
244.897	3.57
245.279	3
245.661	3.43
246.043	2.68
246.425	3.38
246.807	2.87
247.189	3.06
247.571	2.82
247.953	3.16
248.335	3.22
248.717	3.08
249.098	3.51
249.48	3.25
249.862	3.32
250.243	3.1
250.625	3.35
251.006	3.91
251.388	3.69
251.769	2.78
252.151	2.67
252.532	3.24
252.913	3.24
253.295	3.26
253.676	2.65
254.057	2.97
254.438	3.66
254.819	2.7
255.2	3.48
255.581	3.5
255.962	2.77
256.343	1.87
256.724	2.09
257.105	2.48
257.486	2.1
257.867	3.12
258.247	2.33
258.628	3.47
259.009	2.56
259.389	3.19
259.77	3.46
260.15	2.88
260.531	3.3
260.911	3.08
261.292	3.21
261.672	2.82
262.052	3.09
262.432	3.33
262.813	2.96
263.193	2.5
263.573	2.89
263.953	3.03
264.333	2.92
264.713	3.09
265.093	3.45
265.473	2.72
265.853	2.92
266.233	3.51
266.612	2.78
266.992	3
267.372	3.38
267.752	2.2
268.131	2.57
268.511	3.11
268.89	2.85
269.27	3.14
269.649	2.22
270.029	3.08
270.408	3.09
270.787	3.26
271.167	2.54
271.546	2.57
271.925	3.36
272.304	3.45
272.683	3.28
273.062	2.84
273.441	3.08
273.82	2.78
274.199	3.07
274.578	2.95
274.957	2.83
275.336	3.12
275.715	3
276.093	2.58
276.472	2.36
276.851	2.58
277.229	2.36
277.608	2.76
277.986	3.1
278.365	2.42
278.743	2.91
279.122	2.97
279.5	3.09
279.878	3.13
280.257	3.44
280.635	3.21
281.013	2.69
281.391	3.06
281.769	2.59
282.147	2.62
282.525	2.44
282.903	2.66
283.281	2.66
283.659	2.91
284.037	3.32
284.415	2.79
284.792	3.02
285.17	2.84
285.548	2.74
285.925	2.4
286.303	2.84
286.68	2.92
287.058	2.76
287.435	2.48
287.813	2.85
288.19	2.71
288.567	2.71
288.945	3.23
289.322	3.35
289.699	2.23
290.076	3.09
290.453	2.9
290.83	2.87
291.207	2.99
291.584	2.7
291.961	2.62
292.338	3.03
292.715	2.96
293.092	3.01
293.469	2.6
293.845	2.83
294.222	2.7
294.599	3.21
294.975	2.76
295.352	2.93
295.728	2.85
296.105	2.68
296.481	2.45
296.858	2.83
297.234	2.87
297.61	2.44
297.986	3.17
298.363	3
298.739	3.01
299.115	2.92
299.491	3.05
299.867	2.81
300.243	3.15
300.619	2.62
300.995	2.71
301.371	3.29
301.746	3.14
302.122	2.76
302.498	3.41
302.874	3.15
303.249	2.39
303.625	2.66
304	2.33
304.376	2.79
304.751	2.46
305.127	2.68
305.502	3.27
305.878	3.48
306.253	2.58
306.628	2.75
307.003	2.69
307.378	2.54
307.754	3.3
308.129	2.81
308.504	2.82
308.879	2.55
309.254	3.32
309.629	2.39
310.003	2.88
310.378	3
310.753	3.03
311.128	3.12
311.502	2.98
311.877	2.89
312.252	3.19
312.626	3.1
313.001	2.88
313.375	3
313.75	2.95
314.124	2.69
314.498	3.21
314.873	2.79
315.247	2.94
315.621	3.35
315.995	3.04
316.369	2.87
316.743	2.85
317.117	3.03
317.491	3
317.865	2.4
318.239	2.95
318.613	3.06
318.987	3.14
319.361	3.03
319.734	3.31
320.108	2.64
320.482	3.37
320.855	2.37
321.229	2.74
321.602	2.96
321.976	3.26
322.349	3.29
322.723	3.11
323.096	3.06
323.469	2.89
323.843	3.16
324.216	2.55
324.589	3.19
324.962	3.36
325.335	2.8
325.708	2.89
326.081	3.4
326.454	2.84
326.827	2.63
327.2	3.36
327.573	3.77
327.945	2.85
328.318	2.69
328.691	2.99
329.063	3.23
329.436	2.97
329.809	2.72
330.181	2.76
330.553	2.45
330.926	3.25
331.298	3.53
331.671	3.08
332.043	2.77
332.415	3.11
332.787	3.62
333.159	3.08
333.532	3.31
333.904	3.18
334.276	3.04
334.648	2.86
335.02	2.79
335.391	3.51
335.763	3.14
336.135	3.09
336.507	3.39
336.879	3.11
337.25	2.95
337.622	3.64
337.993	2.84
338.365	3.47
338.736	3.37
339.108	3.4
339.479	2.97
339.851	3.32
340.222	3.1
340.593	3.25
340.964	3.1
341.336	3.8
341.707	3.15
342.078	2.92
342.449	3.33
342.82	3.43
343.191	3.25
343.562	2.96
343.933	3.08
344.303	2.96
344.674	3.48
345.045	2.97
345.416	3.4
345.786	2.67
346.157	3.13
346.527	3.05
346.898	2.73
347.268	3.02
347.639	3.01
348.009	2.99
348.38	3.37
348.75	3.18
349.12	3.9
349.49	3.32
349.861	2.86
350.231	3.5
350.601	3.08
350.971	2.9
351.341	3.31
351.711	3.29
352.081	3.27
352.45	3.28
352.82	2.95
353.19	3.39
353.56	3.22
353.929	3.16
354.299	3.47
354.669	3.55
355.038	2.96
355.408	3.44
355.777	3.36
356.147	3.51
356.516	2.98
356.885	3.39
357.254	3.6
357.624	2.71
357.993	3.04
358.362	3.2
358.731	2.93
359.1	3.27
359.469	2.84
359.838	3.26
360.207	3.62
360.576	3.25
360.945	3.12
361.314	2.94
361.682	3.14
362.051	3.34
362.42	3.36
362.788	3.52
363.157	3.05
363.525	3.23
363.894	3.03
364.262	3.43
364.631	3.38
364.999	3.31
365.367	3.42
365.735	3.25
366.104	2.88
366.472	3.32
366.84	2.87
367.208	3.13
367.576	3.37
367.944	3.69
368.312	3.26
368.68	3.2
369.048	3.18
369.416	3.29
369.783	3.73
370.151	3.23
370.519	3.54
370.886	3.05
371.254	3.43
371.621	3.17
371.989	3.18
372.356	3.21
372.724	3.74
373.091	3.49
373.458	3.26
373.826	3.26
374.193	3.12
374.56	3.17
374.927	3.27
375.294	3.46
375.661	3.74
376.028	3.16
376.395	3.6
376.762	3.65
377.129	3.24
377.496	3.42
377.863	3.44
378.229	3.43
378.596	3.37
378.963	3.32
379.329	3.59
379.696	3.51
380.062	3.23
380.429	3.46
380.795	3.76
381.161	3.48
381.528	3.67
381.894	3.39
382.26	3.57
382.626	3.56
382.993	3.31
383.359	3.58
383.725	3.4
384.091	3.48
384.457	3.58
384.823	3.25
385.188	3.56
385.554	3.51
385.92	3.32
386.286	3.36
386.651	3.21
387.017	3.28
387.383	3.36
387.748	3.38
388.114	3.26
388.479	3.1
388.845	3.46
389.21	3.25
389.575	3.65
389.94	3.37
390.306	3.47
390.671	3.18
391.036	3.58
391.401	3.61
391.766	3.26
392.131	3.32
392.496	3.46
392.861	3.55
393.226	3.47
393.591	3.27
393.956	3.42
394.32	3.38
394.685	3.65
395.05	3.62
395.414	3.41
395.779	3.4
396.143	3.33
396.508	3.55
396.872	3.69
397.236	3.6
397.601	3.47
397.965	3.6
398.329	3.5
398.694	3.6
399.058	3.58
399.422	3.76
399.786	3.43
400.15	3.64
400.514	3.54
400.878	3.41
401.242	3.52
401.605	3.63
401.969	3.46
402.333	3.21
402.697	3.34
403.06	3.89
403.424	3.41
403.787	3.58
404.151	3.53
404.514	3.42
404.878	3.5
405.241	3.39
405.604	3.54
405.968	3.46
406.331	3.31
406.694	3.41
407.057	3.6
407.42	3.53
407.783	3.54
408.146	3.7
408.509	3.65
408.872	3.53
409.235	3.53
409.598	3.73
409.961	3.78
410.323	3.46
410.686	3.54
411.049	3.34
411.411	3.39
411.774	3.67
412.136	3.48
412.499	3.61
412.861	3.64
413.223	3.31
413.586	3.4
413.948	3.9
414.31	3.58
414.672	3.65
415.035	3.69
415.397	3.49
415.759	3.32
416.121	3.38
416.483	3.36
416.845	3.72
417.206	3.35
417.568	3.55
417.93	3.41
418.292	3.36
418.653	3.52
419.015	3.54
419.377	3.56
419.738	3.53
420.1	3.67
420.461	3.61
420.822	3.43
421.184	3.39
421.545	3.44
421.906	3.44
422.267	3.4
422.629	3.42
422.99	3.44
423.351	3.44
423.712	3.44
424.073	3.54
424.434	3.59
424.795	3.6
425.155	3.47
425.516	3.44
425.877	3.45
426.238	3.49
426.598	3.41
426.959	3.38
427.32	3.61
427.68	3.59
428.041	3.62
428.401	3.44
428.761	3.69
429.122	3.56
429.482	3.59
429.842	3.66
430.202	3.54
430.563	3.67
430.923	3.64
431.283	3.49
431.643	3.53
432.003	3.63
432.363	3.48
432.722	3.64
433.082	3.64
433.442	3.56
433.802	3.62
434.161	3.57
434.521	3.57
434.881	3.64
435.24	3.56
435.6	3.5
435.959	3.55
436.319	3.48
436.678	3.7
437.037	3.66
437.396	3.73
437.756	3.66
438.115	3.48
438.474	3.52
438.833	3.61
439.192	3.7
439.551	3.62
439.91	3.68
440.269	3.63
440.628	3.73
440.987	3.63
441.345	3.54
441.704	3.63
442.063	3.62
442.421	3.63
442.78	3.59
443.138	3.6
443.497	3.47
443.855	3.59
444.214	3.66
444.572	3.68
444.93	3.68
445.288	3.63
445.647	3.63
446.005	3.67
446.363	3.65
446.721	3.57
447.079	3.54
447.437	3.6
447.795	3.6
448.153	3.51
448.51	3.64
448.868	3.6
449.226	3.57
449.584	3.61
449.941	3.58
450.299	3.49
450.656	3.63
451.014	3.72
451.371	3.65
451.729	3.5
452.086	3.56
452.443	3.63
452.801	3.82
453.158	3.69
453.515	3.68
453.872	3.61
454.229	3.55
454.586	3.63
454.943	3.81
455.3	3.56
455.657	3.75
456.014	3.59
456.371	3.68
456.727	3.79
457.084	3.45
457.441	3.8
457.797	3.69
458.154	3.75
458.51	3.75
458.867	3.55
459.223	3.86
459.58	3.72
459.936	3.6
460.292	3.56
460.648	3.6
461.005	3.61
461.361	3.61
461.717	3.52
462.073	3.66
462.429	3.52
462.785	3.65
463.141	3.59
463.496	3.62
463.852	3.84
464.208	3.72
464.564	3.62
464.919	3.54
465.275	3.54
465.631	3.67
465.986	3.85
466.342	3.84
466.697	3.59
467.052	3.76
467.408	3.75
467.763	3.68
468.118	3.64
468.473	3.77
468.829	3.62
469.184	3.66
469.539	3.73
469.894	3.73
470.249	3.75
470.603	3.54
470.958	3.6
471.313	3.7
471.668	3.81
472.023	3.57
472.377	3.84
472.732	3.75
473.086	3.65
473.441	3.59
473.795	3.66
474.15	3.72
474.504	3.75
474.859	3.6
475.213	3.68
475.567	3.78
475.921	3.7
476.275	3.77
476.63	3.81
476.984	3.81
477.338	3.79
477.692	3.6
478.045	3.79
478.399	3.84
478.753	3.59
479.107	3.62
479.461	3.58
479.814	3.66
480.168	3.59
480.521	3.88
480.875	3.67
481.228	3.67
481.582	3.72
481.935	3.71
482.289	3.52
482.642	3.68
482.995	3.61
483.348	3.63
483.701	3.61
484.055	3.56
484.408	3.58
484.761	3.53
485.114	3.41
485.466	3.37
485.819	3.37
486.172	3.39
486.525	3.47
486.878	3.53
487.23	3.54
487.583	3.58
487.936	3.56
488.288	3.65
488.641	3.54
488.993	3.48
489.345	3.45
489.698	3.44
490.05	3.48
490.402	3.52
490.754	3.56
491.107	3.51
491.459	3.52
491.811	3.63
492.163	3.66
492.515	3.57
492.866	3.54
493.218	3.48
493.57	3.46
493.922	3.52
494.274	3.58
494.625	3.61
494.977	3.64
495.328	3.73
495.68	3.66
496.031	3.7
496.383	3.74
496.734	3.65
497.086	3.67
497.437	3.59
497.788	3.45
498.139	3.72
498.49	3.53
498.842	3.59
499.193	3.63
499.544	3.76
499.894	3.57
500.245	3.65
500.596	3.73
500.947	3.62
501.298	3.67
501.648	3.63
501.999	3.75
502.35	3.75
502.7	3.68
503.051	3.72
503.401	3.69
503.752	3.49
504.102	3.55
504.452	3.61
504.803	3.57
505.153	3.7
505.503	3.75
505.853	3.75
506.203	3.77
506.553	3.7
506.903	3.68
507.253	3.7
507.603	3.64
507.953	3.71
508.303	3.62
508.652	3.69
509.002	3.6
509.352	3.66
509.701	3.69
510.051	3.67
510.4	3.67
510.75	3.56
511.099	3.52
511.449	3.62
511.798	3.61
512.147	3.57
512.496	3.52
512.846	3.69
513.195	3.67
513.544	3.63
513.893	3.54
514.242	3.66
514.591	3.61
514.939	3.58
515.288	3.68
515.637	3.74
515.986	3.7
516.334	3.65
516.683	3.72
517.032	3.66
517.38	3.67
517.729	3.69
518.077	3.67
518.426	3.7
518.774	3.7
519.122	3.74
519.47	3.71
519.819	3.61
520.167	3.48
520.515	3.66
520.863	3.68
521.211	3.64
521.559	3.56
521.907	3.68
522.255	3.45
522.602	3.72
522.95	3.58
523.298	3.78
523.645	3.59
523.993	3.72
524.341	3.68
524.688	3.76
525.036	3.8
525.383	3.64
525.73	3.62
526.078	3.65
526.425	3.54
526.772	3.61
527.119	3.6
527.466	3.55
527.814	3.62
528.161	3.68
528.508	3.57
528.854	3.52
529.201	3.59
529.548	3.5
529.895	3.49
530.242	3.41
530.588	3.45
530.935	3.42
531.282	3.5
531.628	3.55
531.975	3.52
532.321	3.54
532.667	3.59
533.014	3.64
533.36	3.59
533.706	3.65
534.052	3.59
534.399	3.59
534.745	3.58
535.091	3.5
535.437	3.47
535.783	3.55
536.129	3.55
536.474	3.7
536.82	3.66
537.166	3.65
537.512	3.56
537.857	3.57
538.203	3.54
538.549	3.76
538.894	3.54
539.239	3.56
539.585	3.66
539.93	3.79
540.276	3.72
540.621	3.76
540.966	3.72
541.311	3.6
541.656	3.75
542.001	3.61
542.346	3.64
542.691	3.5
543.036	3.48
543.381	3.51
543.726	3.48
544.071	3.58
544.415	3.6
544.76	3.61
545.105	3.59
545.449	3.53
545.794	3.64
546.138	3.65
546.483	3.66
546.827	3.66
547.171	3.67
547.516	3.56
547.86	3.51
548.204	3.68
548.548	3.62
548.892	3.6
549.236	3.65
549.58	3.65
549.924	3.67
550.268	3.73
550.612	3.7
550.956	3.89
551.3	3.65
551.643	3.67
551.987	3.75
552.33	3.81
552.674	3.68
553.017	3.82
553.361	3.76
553.704	3.76
554.048	3.73
554.391	3.71
554.734	3.62
555.077	3.83
555.42	3.66
555.764	3.72
556.107	3.75
556.45	3.82
556.793	3.76
557.135	3.86
557.478	3.93
557.821	3.87
558.164	3.8
558.507	3.75
558.849	3.61
559.192	3.64
559.534	3.76
559.877	3.76
560.219	3.84
560.562	3.72
560.904	3.68
561.246	3.56
561.589	3.84
561.931	3.64
562.273	3.78
562.615	3.83
562.957	3.77
563.299	3.58
563.641	3.57
563.983	3.78
564.325	3.64
564.667	3.88
565.008	3.82
565.35	3.82
565.692	3.52
566.033	3.53
566.375	3.72
566.716	3.71
567.058	3.75
567.399	3.96
567.741	3.84
568.082	3.77
568.423	3.82
568.764	3.9
569.105	3.68
569.447	3.92
569.788	3.85
570.129	3.71
570.47	3.6
570.811	3.66
571.151	3.8
571.492	3.8
571.833	3.77
572.174	3.93
572.514	3.89
572.855	3.85
573.195	3.72
573.536	3.78
573.876	3.8
574.217	3.82
574.557	3.73
574.898	3.78
575.238	3.77
575.578	3.85
575.918	3.9
576.258	3.75
576.598	3.73
576.938	3.82
577.278	3.65
577.618	3.77
577.958	3.69
578.298	3.77
578.638	3.9
578.977	3.93
579.317	3.75
579.657	4.03
579.996	3.81
580.336	3.9
580.675	3.81
581.014	3.83
581.354	3.58
581.693	3.71
582.032	3.64
582.372	3.95
582.711	3.8
583.05	3.74
583.389	3.82
583.728	3.84
584.067	4.06
584.406	3.77
584.745	3.97
585.083	3.83
585.422	3.75
585.761	3.73
586.1	3.81
586.438	3.64
586.777	3.9
587.115	3.66
587.454	3.65
587.792	3.82
588.13	3.77
588.469	3.78
588.807	3.74
589.145	3.87
589.483	3.8
589.821	3.84
590.159	3.88
590.497	3.88
590.835	3.86
591.173	4
591.511	3.65
591.849	3.76
592.187	3.77
592.524	3.71
592.862	3.77
593.2	3.84
593.537	3.66
593.875	4.01
594.212	3.84
594.55	3.85
594.887	3.7
595.224	3.74
595.561	3.78
595.899	3.59
596.236	3.88
596.573	3.83
596.91	3.99
597.247	3.78
597.584	3.7
597.921	3.93
598.258	3.73
598.594	3.8
598.931	3.65
599.268	3.65
599.604	3.81
599.941	3.79
600.277	4.04
600.614	4.05
600.95	3.74
601.287	3.7
601.623	4.35
601.959	4.11
602.296	4.04
602.632	3.85
602.968	3.96
603.304	3.78
603.64	4
603.976	4.03
604.312	3.89
604.648	3.78
604.984	3.89
605.319	3.69
605.655	3.99
605.991	3.88
606.326	3.96
606.662	3.73
606.998	3.68
607.333	3.85
607.668	3.9
608.004	3.87
608.339	3.75
608.674	4.02
609.01	3.92
609.345	3.91
609.68	3.88
610.015	3.86
610.35	3.85
610.685	3.78
611.02	3.81
611.355	3.79
611.689	3.68
612.024	3.76
612.359	3.83
612.694	3.81
613.028	3.81
613.363	4.04
613.697	4.12
614.032	3.85
614.366	3.75
614.7	3.67
615.035	3.71
615.369	3.61
615.703	3.75
616.037	3.78
616.371	3.95
616.705	3.78
617.039	4.09
617.373	3.86
617.707	3.95
618.041	4.06
618.375	3.51
618.709	3.76
619.042	4.11
619.376	4.1
619.71	4.05
620.043	3.88
620.377	3.75
620.71	3.95
621.043	3.64
621.377	4.12
621.71	3.71
622.043	4.01
622.376	3.71
622.709	3.81
623.043	3.85
623.376	3.75
623.709	4.16
624.041	3.78
624.374	3.45
624.707	4.01
625.04	4
625.373	3.69
625.705	3.81
626.038	4.08
626.37	3.91
626.703	3.77
627.035	3.93
627.368	3.73
627.7	3.75
628.032	3.94
628.365	4.07
628.697	4.03
629.029	3.75
629.361	3.74
629.693	3.76
630.025	3.85
630.357	3.78
630.689	3.7
631.021	3.98
631.353	4.01
631.684	3.91
632.016	3.8
632.348	3.77
632.679	3.5
633.011	3.82
633.342	3.97
633.674	3.91
634.005	4
634.336	4
634.668	3.97
634.999	3.9
635.33	3.98
635.661	4.19
635.992	4.03
636.323	3.87
636.654	4.03
636.985	4.1
637.316	4.11
637.647	4.2
637.977	4.19
638.308	4.01
638.639	3.87
638.969	3.51
639.3	4.08
639.63	4.08
639.961	3.65
640.291	3.91
640.622	4.12
640.952	3.96
641.282	3.46
641.612	3.9
641.943	4.11
642.273	4
642.603	4.1
642.933	4.15
643.263	3.71
643.592	4
643.922	4.31
644.252	4.15
644.582	4.07
644.911	3.8
645.241	4.05
645.571	3.6
645.9	4.4
646.23	4.29
646.559	4.47
646.888	4.09
647.218	4.05
647.547	3.94
647.876	3.56
648.205	3.98
648.534	3.79
648.863	3.81
649.192	3.97
649.521	4.11
649.85	4.45
650.179	3.96
650.508	3.95
650.837	4.07
651.165	3.81
651.494	3.87
651.822	3.49
652.151	3.54
652.479	3.62
652.808	3.87
653.136	3.75
653.465	4.37
653.793	4.17
654.121	3.59
654.449	3.5
654.777	4.45
655.105	3.92
655.433	3.71
655.761	3.81
656.089	3.77
656.417	3.65
656.745	4.06
657.073	3.58
657.4	3.59
657.728	4.15
658.056	4.78
658.383	3.83
658.711	4.26
659.038	4.13
659.365	3.69
659.693	4
660.02	4.46
660.347	3.81
660.674	4.02
661.001	4.08
661.329	3.8
661.656	4.11
661.982	4.15
662.309	4
662.636	4.13
662.963	3.91
663.29	4.41
663.616	3.57
663.943	3.9
664.27	4.18
664.596	4.32
664.923	4.34
665.249	4.28
665.576	4.37
665.902	4.12
666.228	4.22
666.554	3.94
666.881	3.81
667.207	4.12
667.533	4.28
667.859	4.09
668.185	4.42
668.511	3.87
668.837	4.39
669.162	4.04
669.488	4.21
669.814	3.84
670.139	3.98
670.465	3.63
670.791	3.64
671.116	4.08
671.442	3.8
671.767	4.55
672.092	4.17
672.418	4.07
672.743	3.82
673.068	3.91
673.393	4.59
673.718	4.14
674.043	4.25
674.368	3.8
674.693	3.6
675.018	3.43
675.343	4.05
675.667	4.57
675.992	4.95
676.317	3.4
676.641	3.47
676.966	4.89
677.29	4.1
677.615	3.58
677.939	3.38
678.264	4.05
678.588	3.82
678.912	4.19
679.236	4.01
679.56	4.37
679.885	3.97
680.209	3.97
680.532	4.5
680.856	4.48
681.18	4.26
681.504	3.91
681.828	4.3
682.152	4.15
682.475	4
682.799	4.04
683.122	4.02
683.446	4.59
683.769	4.21
684.093	4.18
684.416	4.4
684.739	4.6
685.062	4.24
685.386	4.5
685.709	4.4
686.032	4.02
686.355	3.93
686.678	4.49
687.001	4.06
687.324	4.19
687.646	4.06
687.969	4.1
688.292	4.95
688.614	3.87
688.937	3.59
689.26	3.23
689.582	4.61
689.904	4.12
690.227	4.37
690.549	3.72
690.871	3.54
691.194	3.97
691.516	3.99
691.838	4.64
692.16	3.77
692.482	3.42
692.804	3.53
693.126	3.34
