Data from 20-3_chest_Reflection__1__91.txt Node

Date: Fri Nov 11 20:52:23 CST 2022
User: ToomeyLab
Spectrometer: FLMS14357
Trigger mode: 0
Integration Time (sec): 1.000000E-2
Scans to average: 100
Electric dark correction enabled: true
Nonlinearity correction enabled: false
Boxcar width: 0
XAxis mode: Wavelengths
Number of Pixels in Spectrum: 2048
>>>>>Begin Spectral Data<<<<<
189.047	82.52
189.435	82.52
189.823	82.52
190.211	24.84
190.599	-90.43
190.987	418.44
191.375	20.85
191.763	146.01
192.151	111.04
192.538	132.93
192.926	524.04
193.314	923.52
193.702	698.77
194.089	3145.45
194.477	75.19
194.864	122.07
195.252	263.16
195.639	21.56
196.027	-149.27
196.414	2611.43
196.801	205.62
197.189	65.67
197.576	125.62
197.963	23.57
198.351	-48.81
198.738	-5.34
199.125	13.03
199.512	36
199.899	-19.47
200.286	29.09
200.673	-7.27
201.06	27.81
201.447	1.49
201.833	31.33
202.22	-13.86
202.607	5.88
202.994	20.98
203.38	20.47
203.767	14.98
204.154	-6.58
204.54	4.02
204.927	12.03
205.313	-15.29
205.699	-18.92
206.086	40.76
206.472	12.5
206.858	1.97
207.245	40.31
207.631	19.39
208.017	14.61
208.403	17.29
208.789	13.17
209.175	21.82
209.561	54.87
209.947	-9.97
210.333	-14.74
210.719	30.17
211.105	19.09
211.491	-3.21
211.876	12.2
212.262	22.55
212.648	12.69
213.034	7.65
213.419	-26.38
213.805	14.65
214.19	9.26
214.576	10.53
214.961	-48.55
215.346	-7.32
215.732	-9.49
216.117	25.53
216.502	6.58
216.888	-24.4
217.273	16.99
217.658	-16.95
218.043	11.02
218.428	16.3
218.813	4.49
219.198	1.5
219.583	17.8
219.968	0.68
220.353	9.69
220.738	-7.37
221.122	22.67
221.507	-13.08
221.892	-7.02
222.276	9.76
222.661	12.77
223.046	-17.56
223.43	-6.24
223.815	10.06
224.199	12.35
224.583	-6.66
224.968	-12.13
225.352	5.6
225.736	-2
226.121	1.94
226.505	1.64
226.889	-3.11
227.273	2.25
227.657	-2.55
228.041	-1.04
228.425	1.33
228.809	1.59
229.193	5.23
229.577	4.93
229.961	4.46
230.344	3.84
230.728	1.99
231.112	2.73
231.495	2.45
231.879	2.22
232.263	2.86
232.646	1.4
233.03	3.99
233.413	3.86
233.797	2.58
234.18	2.96
234.563	2.92
234.946	2.45
235.33	3.46
235.713	3.03
236.096	2.73
236.479	3.8
236.862	4.86
237.245	4.16
237.628	4.45
238.011	3.92
238.394	4.17
238.777	3.95
239.16	4.44
239.543	2.49
239.925	4.08
240.308	2.26
240.691	4.4
241.073	3.12
241.456	2.21
241.838	3.35
242.221	3.16
242.603	4.33
242.986	3.13
243.368	3.07
243.75	3.82
244.133	3.79
244.515	3.29
244.897	3.66
245.279	3.09
245.661	3.69
246.043	3.62
246.425	4.53
246.807	3.61
247.189	3.62
247.571	3.08
247.953	3.25
248.335	3.39
248.717	3.76
249.098	3.86
249.48	3.32
249.862	4.01
250.243	3.29
250.625	3.35
251.006	4.21
251.388	4.16
251.769	3.96
252.151	4.69
252.532	3.6
252.913	3.54
253.295	3.24
253.676	3.04
254.057	2.98
254.438	3.68
254.819	2.87
255.2	4.77
255.581	3.73
255.962	3.35
256.343	3.3
256.724	3.47
257.105	3.5
257.486	2.62
257.867	4.36
258.247	3.07
258.628	3.26
259.009	2.52
259.389	3.39
259.77	3.77
260.15	3.57
260.531	3.71
260.911	3.14
261.292	3.45
261.672	3.09
262.052	3.55
262.432	3.59
262.813	3.74
263.193	3.33
263.573	3.51
263.953	3.46
264.333	3.5
264.713	3.15
265.093	3.76
265.473	2.87
265.853	3.67
266.233	3.21
266.612	2.85
266.992	3
267.372	3.78
267.752	3.28
268.131	3.22
268.511	2.94
268.89	2.61
269.27	3.17
269.649	3.26
270.029	3.51
270.408	3.84
270.787	3.19
271.167	2.68
271.546	3.36
271.925	3.38
272.304	3.35
272.683	3.02
273.062	2.84
273.441	3.09
273.82	2.95
274.199	2.84
274.578	3.09
274.957	3.31
275.336	3.2
275.715	3.64
276.093	2.62
276.472	3.22
276.851	3.34
277.229	3.3
277.608	3.02
277.986	3.17
278.365	2.45
278.743	3.07
279.122	3.49
279.5	2.87
279.878	3.62
280.257	3.63
280.635	3.11
281.013	3.12
281.391	3.26
281.769	3.12
282.147	2.97
282.525	2.9
282.903	2.83
283.281	3.39
283.659	3.8
284.037	3.39
284.415	3.15
284.792	3.07
285.17	3.55
285.548	3.11
285.925	3.25
286.303	2.99
286.68	3.39
287.058	3.15
287.435	2.91
287.813	3.58
288.19	3.22
288.567	3.18
288.945	3.33
289.322	3.84
289.699	2.86
290.076	3.39
290.453	3.15
290.83	3.31
291.207	3.12
291.584	3.38
291.961	3.25
292.338	3.4
292.715	3.59
293.092	3.59
293.469	3.64
293.845	3.83
294.222	3.21
294.599	3.63
294.975	3.94
295.352	3.55
295.728	3.01
296.105	3.27
296.481	3.26
296.858	3.44
297.234	3.55
297.61	3.36
297.986	3.63
298.363	3.75
298.739	3.85
299.115	3.8
299.491	4.05
299.867	3.57
300.243	3.87
300.619	3.83
300.995	3.81
301.371	4.54
301.746	3.92
302.122	4.18
302.498	3.97
302.874	3.57
303.249	3.43
303.625	3.7
304	3.33
304.376	3.52
304.751	3.36
305.127	4.19
305.502	4.02
305.878	4.49
306.253	3.9
306.628	3.69
307.003	3.87
307.378	3.92
307.754	4.03
308.129	3.94
308.504	4.31
308.879	3.91
309.254	4.04
309.629	4.2
310.003	4.22
310.378	3.95
310.753	4.2
311.128	4.43
311.502	4.56
311.877	4.03
312.252	4.31
312.626	3.97
313.001	3.64
313.375	3.98
313.75	3.82
314.124	3.95
314.498	3.97
314.873	4.04
315.247	4.16
315.621	4.3
315.995	4.81
316.369	4.21
316.743	3.75
317.117	4.36
317.491	3.91
317.865	4.01
318.239	3.93
318.613	4.56
318.987	4.06
319.361	4.08
319.734	4.72
320.108	4.31
320.482	4.74
320.855	4.35
321.229	4.26
321.602	4.63
321.976	4.12
322.349	4.62
322.723	4.69
323.096	4.82
323.469	4.76
323.843	4.51
324.216	4.46
324.589	4.29
324.962	4.96
325.335	4.52
325.708	4.75
326.081	4.22
326.454	4.62
326.827	4.45
327.2	4.98
327.573	5.22
327.945	4.64
328.318	4.25
328.691	5.01
329.063	4.46
329.436	4.58
329.809	4.66
330.181	4.11
330.553	4.22
330.926	4.05
331.298	4.57
331.671	4.55
332.043	4.06
332.415	4.66
332.787	4.73
333.159	4.55
333.532	5.11
333.904	4.79
334.276	4.35
334.648	4.19
335.02	4.3
335.391	4.93
335.763	4.86
336.135	4.23
336.507	4.46
336.879	4.42
337.25	4.44
337.622	4.72
337.993	4.86
338.365	4.67
338.736	4.69
339.108	4.65
339.479	4.34
339.851	4.83
340.222	4.54
340.593	4.89
340.964	4.72
341.336	4.9
341.707	4.71
342.078	4.19
342.449	4.87
342.82	4.82
343.191	4.72
343.562	4.68
343.933	4.66
344.303	4.49
344.674	4.58
345.045	4.83
345.416	4.99
345.786	4.51
346.157	4.68
346.527	4.64
346.898	4.25
347.268	4.31
347.639	4.39
348.009	4.66
348.38	5.02
348.75	4.83
349.12	5.31
349.49	4.7
349.861	4.45
350.231	4.98
350.601	4.86
350.971	5.05
351.341	5.01
351.711	4.66
352.081	4.96
352.45	4.88
352.82	4.39
353.19	4.74
353.56	4.45
353.929	4.61
354.299	4.56
354.669	5.19
355.038	4.58
355.408	4.86
355.777	4.94
356.147	5.15
356.516	4.69
356.885	4.83
357.254	4.93
357.624	4.26
357.993	4.69
358.362	5.03
358.731	4.39
359.1	4.75
359.469	4.31
359.838	4.67
360.207	4.79
360.576	4.91
360.945	4.66
361.314	4.36
361.682	4.73
362.051	4.89
362.42	4.94
362.788	4.85
363.157	4.52
363.525	4.75
363.894	4.62
364.262	4.88
364.631	4.86
364.999	4.65
365.367	4.97
365.735	4.84
366.104	4.69
366.472	4.78
366.84	4.4
367.208	4.63
367.576	4.96
367.944	4.99
368.312	4.65
368.68	4.78
369.048	5.01
369.416	4.89
369.783	4.78
370.151	5
370.519	4.97
370.886	4.65
371.254	5.25
371.621	4.79
371.989	4.61
372.356	5.05
372.724	4.79
373.091	5.04
373.458	4.68
373.826	4.84
374.193	4.55
374.56	5.02
374.927	4.67
375.294	4.79
375.661	5.36
376.028	4.4
376.395	5.11
376.762	5.2
377.129	4.77
377.496	5
377.863	4.91
378.229	5.07
378.596	4.57
378.963	5.01
379.329	5.21
379.696	4.96
380.062	4.81
380.429	5.12
380.795	4.99
381.161	5.05
381.528	4.79
381.894	5.23
382.26	5.01
382.626	5.24
382.993	4.67
383.359	5.27
383.725	5.13
384.091	5.09
384.457	4.89
384.823	4.84
385.188	4.92
385.554	5.18
385.92	4.97
386.286	4.81
386.651	5.09
387.017	4.91
387.383	5.2
387.748	5.03
388.114	5.01
388.479	4.7
388.845	4.99
389.21	4.79
389.575	5.15
389.94	4.9
390.306	4.77
390.671	4.81
391.036	5.04
391.401	5.04
391.766	5.12
392.131	5.01
392.496	5.04
392.861	5.06
393.226	4.84
393.591	5
393.956	4.96
394.32	5
394.685	5.1
395.05	5.15
395.414	5.07
395.779	4.99
396.143	4.99
396.508	5.08
396.872	5.08
397.236	4.82
397.601	5.06
397.965	5.02
398.329	5.08
398.694	4.92
399.058	5
399.422	5.13
399.786	4.97
400.15	5.25
400.514	5.01
400.878	5.18
401.242	5.11
401.605	5.17
401.969	5.14
402.333	4.99
402.697	5.16
403.06	5.28
403.424	5.01
403.787	4.93
404.151	5.08
404.514	5.22
404.878	5.22
405.241	5.06
405.604	4.85
405.968	5.12
406.331	4.84
406.694	4.84
407.057	5.03
407.42	5.08
407.783	5.21
408.146	5.11
408.509	5.09
408.872	4.99
409.235	5.34
409.598	4.94
409.961	5.25
410.323	5.25
410.686	5.36
411.049	4.89
411.411	5.28
411.774	5.16
412.136	4.88
412.499	5.16
412.861	5.14
413.223	4.74
413.586	5.05
413.948	5.25
414.31	5.37
414.672	5.05
415.035	5.13
415.397	5.15
415.759	5.05
416.121	5.19
416.483	5.08
416.845	5.2
417.206	5
417.568	5.09
417.93	5
418.292	5.02
418.653	5.24
419.015	5.05
419.377	5.14
419.738	5.08
420.1	5.04
420.461	5.15
420.822	5.07
421.184	5.04
421.545	5.14
421.906	5.11
422.267	4.94
422.629	4.9
422.99	5.05
423.351	5.01
423.712	5.1
424.073	5
424.434	5.08
424.795	5.04
425.155	5
425.516	4.94
425.877	5.03
426.238	4.95
426.598	5
426.959	5.17
427.32	5.14
427.68	5.14
428.041	5.2
428.401	5.09
428.761	5.18
429.122	5.24
429.482	5.25
429.842	5.22
430.202	5.35
430.563	5.3
430.923	5.39
431.283	5.07
431.643	5
432.003	5.28
432.363	5.15
432.722	5.51
433.082	5.42
433.442	5.36
433.802	5.51
434.161	5.2
434.521	5.16
434.881	5.22
435.24	5.22
435.6	5.32
435.959	5.34
436.319	5.17
436.678	5.26
437.037	5.26
437.396	5.37
437.756	5.28
438.115	5.26
438.474	5.22
438.833	5.36
439.192	5.42
439.551	5.31
439.91	5.37
440.269	5.3
440.628	5.3
440.987	5.4
441.345	5.27
441.704	5.38
442.063	5.34
442.421	5.17
442.78	5.06
443.138	5.31
443.497	5.22
443.855	5.29
444.214	5.28
444.572	5.49
444.93	5.35
445.288	5.33
445.647	5.46
446.005	5.43
446.363	5.39
446.721	5.47
447.079	5.36
447.437	5.15
447.795	5.31
448.153	5.23
448.51	5.33
448.868	5.3
449.226	5.26
449.584	5.31
449.941	5.41
450.299	5.33
450.656	5.39
451.014	5.51
451.371	5.37
451.729	5.25
452.086	5.51
452.443	5.49
452.801	5.48
453.158	5.41
453.515	5.47
453.872	5.33
454.229	5.37
454.586	5.47
454.943	5.34
455.3	5.46
455.657	5.49
456.014	5.66
456.371	5.53
456.727	5.5
457.084	5.28
457.441	5.65
457.797	5.39
458.154	5.52
458.51	5.65
458.867	5.55
459.223	5.53
459.58	5.47
459.936	5.45
460.292	5.55
460.648	5.52
461.005	5.39
461.361	5.3
461.717	5.34
462.073	5.33
462.429	5.34
462.785	5.45
463.141	5.47
463.496	5.43
463.852	5.6
464.208	5.6
464.564	5.68
464.919	5.44
465.275	5.52
465.631	5.51
465.986	5.7
466.342	5.73
466.697	5.52
467.052	5.58
467.408	5.67
467.763	5.58
468.118	5.7
468.473	5.57
468.829	5.75
469.184	5.65
469.539	5.58
469.894	5.7
470.249	5.77
470.603	5.47
470.958	5.51
471.313	5.68
471.668	5.64
472.023	5.59
472.377	5.67
472.732	5.51
473.086	5.51
473.441	5.59
473.795	5.69
474.15	5.65
474.504	5.71
474.859	5.65
475.213	5.83
475.567	5.75
475.921	5.84
476.275	5.65
476.63	5.65
476.984	5.81
477.338	5.78
477.692	5.4
478.045	5.68
478.399	5.74
478.753	5.67
479.107	5.76
479.461	5.72
479.814	5.69
480.168	5.69
480.521	5.74
480.875	5.78
481.228	5.61
481.582	5.89
481.935	5.57
482.289	5.58
482.642	5.77
482.995	5.65
483.348	5.65
483.701	5.71
484.055	5.59
484.408	5.6
484.761	5.49
485.114	5.34
485.466	5.28
485.819	5.31
486.172	5.34
486.525	5.42
486.878	5.48
487.23	5.44
487.583	5.54
487.936	5.56
488.288	5.49
488.641	5.49
488.993	5.46
489.345	5.45
489.698	5.45
490.05	5.46
490.402	5.46
490.754	5.6
491.107	5.56
491.459	5.68
491.811	5.76
492.163	5.75
492.515	5.72
492.866	5.66
493.218	5.54
493.57	5.53
493.922	5.54
494.274	5.58
494.625	5.64
494.977	5.73
495.328	5.74
495.68	5.77
496.031	5.75
496.383	5.94
496.734	5.94
497.086	5.92
497.437	5.93
497.788	5.88
498.139	5.84
498.49	5.74
498.842	5.69
499.193	5.86
499.544	5.86
499.894	5.77
500.245	5.96
500.596	6.01
500.947	5.93
501.298	5.85
501.648	5.79
501.999	5.96
502.35	6.07
502.7	5.93
503.051	5.88
503.401	5.91
503.752	5.94
504.102	5.95
504.452	6.02
504.803	5.98
505.153	5.91
505.503	5.99
505.853	6.06
506.203	6.04
506.553	5.92
506.903	6.01
507.253	6.02
507.603	6.01
507.953	6.03
508.303	5.93
508.652	5.98
509.002	5.99
509.352	5.97
509.701	6.1
510.051	5.97
510.4	6.07
510.75	5.98
511.099	5.92
511.449	5.94
511.798	5.96
512.147	6.02
512.496	5.89
512.846	6.11
513.195	6.02
513.544	6.02
513.893	5.95
514.242	6.1
514.591	6.15
514.939	6.12
515.288	6.14
515.637	6.18
515.986	6.13
516.334	6.21
516.683	6.11
517.032	6.2
517.38	6.11
517.729	6.22
518.077	6.28
518.426	6.19
518.774	6.23
519.122	6.12
519.47	6.16
519.819	6.11
520.167	6.06
520.515	6
520.863	6.09
521.211	6.12
521.559	6.13
521.907	6.28
522.255	6.18
522.602	6.27
522.95	6.19
523.298	6.33
523.645	6.34
523.993	6.43
524.341	6.31
524.688	6.37
525.036	6.51
525.383	6.37
525.73	6.22
526.078	6.25
526.425	6.3
526.772	6.33
527.119	6.17
527.466	6.21
527.814	6.22
528.161	6.26
528.508	6.21
528.854	6.2
529.201	6.26
529.548	6.17
529.895	6.13
530.242	6.02
530.588	6.08
530.935	6.08
531.282	6.12
531.628	6.21
531.975	6.17
532.321	6.25
532.667	6.41
533.014	6.35
533.36	6.31
533.706	6.41
534.052	6.4
534.399	6.27
534.745	6.28
535.091	6.29
535.437	6.29
535.783	6.32
536.129	6.4
536.474	6.45
536.82	6.49
537.166	6.56
537.512	6.47
537.857	6.48
538.203	6.41
538.549	6.52
538.894	6.5
539.239	6.5
539.585	6.66
539.93	6.65
540.276	6.73
540.621	6.8
540.966	6.76
541.311	6.62
541.656	6.73
542.001	6.75
542.346	6.72
542.691	6.57
543.036	6.45
543.381	6.52
543.726	6.45
544.071	6.57
544.415	6.63
544.76	6.72
545.105	6.65
545.449	6.7
545.794	6.7
546.138	6.75
546.483	6.73
546.827	6.92
547.171	6.85
547.516	6.7
547.86	6.81
548.204	6.88
548.548	6.81
548.892	6.88
549.236	6.91
549.58	6.99
549.924	7
550.268	6.99
550.612	7.14
550.956	7.14
551.3	7.08
551.643	7.19
551.987	7.24
552.33	7.13
552.674	7
553.017	7.28
553.361	7.35
553.704	7.32
554.048	7.17
554.391	7.17
554.734	7.2
555.077	7.36
555.42	7.32
555.764	7.28
556.107	7.39
556.45	7.36
556.793	7.46
557.135	7.38
557.478	7.41
557.821	7.52
558.164	7.62
558.507	7.46
558.849	7.49
559.192	7.52
559.534	7.55
559.877	7.4
560.219	7.53
560.562	7.49
560.904	7.75
561.246	7.35
561.589	7.63
561.931	7.51
562.273	7.68
562.615	7.66
562.957	7.69
563.299	7.58
563.641	7.58
563.983	7.65
564.325	7.77
564.667	7.93
565.008	7.87
565.35	7.75
565.692	7.54
566.033	7.83
566.375	7.81
566.716	7.88
567.058	7.96
567.399	7.85
567.741	8
568.082	7.85
568.423	7.88
568.764	7.96
569.105	7.9
569.447	8
569.788	8.07
570.129	7.85
570.47	8.02
570.811	7.95
571.151	8.32
571.492	8.1
571.833	8.08
572.174	8.19
572.514	8.09
572.855	8.22
573.195	7.99
573.536	8.16
573.876	8.23
574.217	8.25
574.557	8.02
574.898	8.2
575.238	8.23
575.578	8.24
575.918	8.39
576.258	8.39
576.598	8.31
576.938	8.47
577.278	8.2
577.618	8.39
577.958	8.38
578.298	8.46
578.638	8.56
578.977	8.61
579.317	8.59
579.657	8.58
579.996	8.53
580.336	8.67
580.675	8.88
581.014	8.91
581.354	8.51
581.693	8.64
582.032	8.61
582.372	8.77
582.711	8.73
583.05	8.69
583.389	8.79
583.728	8.85
584.067	8.69
584.406	8.88
584.745	9.05
585.083	8.9
585.422	8.84
585.761	9.17
586.1	9.04
586.438	9.08
586.777	9.08
587.115	9.18
587.454	9.06
587.792	9.2
588.13	9.17
588.469	9.15
588.807	9.11
589.145	9.21
589.483	9.4
589.821	9.28
590.159	9.44
590.497	9.55
590.835	9.24
591.173	9.43
591.511	9.29
591.849	9.29
592.187	9.31
592.524	9.22
592.862	9.4
593.2	9.38
593.537	9.57
593.875	9.75
594.212	9.76
594.55	9.76
594.887	9.71
595.224	9.67
595.561	9.61
595.899	9.65
596.236	9.67
596.573	9.94
596.91	9.96
597.247	9.72
597.584	9.78
597.921	9.85
598.258	9.69
598.594	9.87
598.931	9.73
599.268	9.89
599.604	10.03
599.941	9.95
600.277	10.02
600.614	10.07
600.95	9.91
601.287	10.1
601.623	10.51
601.959	10.43
602.296	10.3
602.632	10.25
602.968	10.38
603.304	10.17
603.64	10.29
603.976	10.45
604.312	10.47
604.648	10.4
604.984	10.29
605.319	10.37
605.655	10.37
605.991	10.47
606.326	10.48
606.662	10.42
606.998	10.41
607.333	10.43
607.668	10.36
608.004	10.52
608.339	10.46
608.674	10.59
609.01	10.79
609.345	10.47
609.68	10.65
610.015	10.7
610.35	10.74
610.685	10.9
611.02	10.92
611.355	10.72
611.689	10.74
612.024	10.81
612.359	10.91
612.694	11
613.028	10.7
613.363	11.14
613.697	11.12
614.032	11.15
614.366	11.02
614.7	11.18
615.035	11.11
615.369	11.16
615.703	11.35
616.037	11.43
616.371	11.47
616.705	11.45
617.039	11.44
617.373	11.42
617.707	11.39
618.041	11.52
618.375	11.24
618.709	11.68
619.042	11.8
619.376	11.73
619.71	11.73
620.043	11.6
620.377	11.76
620.71	11.4
621.043	11.46
621.377	11.74
621.71	11.89
622.043	12.16
622.376	11.94
622.709	11.59
623.043	11.98
623.376	12.17
623.709	12.41
624.041	12.37
624.374	11.86
624.707	11.87
625.04	12.08
625.373	11.97
625.705	12.42
626.038	12.16
626.37	12.34
626.703	12.13
627.035	12.47
627.368	12.21
627.7	12.13
628.032	12.15
628.365	12.65
628.697	12.36
629.029	12.36
629.361	12.28
629.693	12.34
630.025	12.67
630.357	12.61
630.689	12.29
631.021	12.75
631.353	12.46
631.684	12.45
632.016	12.72
632.348	12.42
632.679	12.39
633.011	12.68
633.342	12.94
633.674	12.81
634.005	12.99
634.336	12.88
634.668	13.01
634.999	13.17
635.33	13.25
635.661	13.23
635.992	13.24
636.323	13.07
636.654	13.42
636.985	13.22
637.316	13.22
637.647	13.64
637.977	13.49
638.308	13.16
638.639	13.16
638.969	13.07
639.3	13.72
639.63	13.67
639.961	13.62
640.291	13.54
640.622	13.96
640.952	13.7
641.282	13.68
641.612	13.5
641.943	14.01
642.273	13.5
642.603	13.92
642.933	13.41
643.263	13.74
643.592	14.09
643.922	13.56
644.252	14.02
644.582	14.15
644.911	14
645.241	14.04
645.571	13.89
645.9	14.23
646.23	14.71
646.559	14.5
646.888	14
647.218	14.19
647.547	13.82
647.876	14.11
648.205	14.49
648.534	13.89
648.863	14.06
649.192	14.09
649.521	14.43
649.85	14.61
650.179	14.41
650.508	14.63
650.837	14.78
651.165	14.28
651.494	14.94
651.822	14.39
652.151	14.22
652.479	14.16
652.808	14.89
653.136	14.61
653.465	15.08
653.793	15.12
654.121	14.44
654.449	13.87
654.777	15
655.105	14.71
655.433	15
655.761	14.93
656.089	15.19
656.417	14.51
656.745	14.57
657.073	15.31
657.4	15.03
657.728	15.24
658.056	15.41
658.383	15.12
658.711	15.31
659.038	15.34
659.365	15.3
659.693	15.47
660.02	15.89
660.347	15.61
660.674	15.37
661.001	15.63
661.329	15.31
661.656	15.46
661.982	15.83
662.309	15.72
662.636	16.02
662.963	16.04
663.29	15.92
663.616	15.53
663.943	16.17
664.27	16.23
664.596	16.48
664.923	16.04
665.249	15.91
665.576	16.03
665.902	16.42
666.228	16.72
666.554	16.03
666.881	16.22
667.207	16.58
667.533	16.48
667.859	16.7
668.185	16.01
668.511	16.03
668.837	16.86
669.162	16.65
669.488	16.57
669.814	16.34
670.139	16.22
670.465	16.43
670.791	16.14
671.116	16
671.442	16.47
671.767	17.12
672.092	16.87
672.418	16.82
672.743	16.41
673.068	17.12
673.393	17.2
673.718	17.2
674.043	17.06
674.368	17.59
674.693	17.3
675.018	17.63
675.343	17.2
675.667	18.13
675.992	17.76
676.317	16.61
676.641	17.16
676.966	17.67
677.29	16.95
677.615	17.62
677.939	17.7
678.264	17.71
678.588	17.34
678.912	17.2
679.236	17.32
679.56	17.76
679.885	17.02
680.209	17.58
680.532	18.17
680.856	18.69
681.18	17.78
681.504	17.83
681.828	17.94
682.152	17.93
682.475	17.93
682.799	17.74
683.122	18.28
683.446	18.17
683.769	17.54
684.093	18.32
684.416	18.48
684.739	19.08
685.062	18.66
685.386	18.43
685.709	18.28
686.032	17.61
686.355	18.47
686.678	18.37
687.001	18.27
