Data from 20-3_forehead_Reflection__0__100.txt Node

Date: Fri Nov 11 20:55:09 CST 2022
User: ToomeyLab
Spectrometer: FLMS14357
Trigger mode: 0
Integration Time (sec): 1.000000E-2
Scans to average: 100
Electric dark correction enabled: true
Nonlinearity correction enabled: false
Boxcar width: 0
XAxis mode: Wavelengths
Number of Pixels in Spectrum: 2048
>>>>>Begin Spectral Data<<<<<
189.047	49.35
189.435	49.35
189.823	49.35
190.211	-72.26
190.599	16.36
190.987	134.99
191.375	-150.81
191.763	142.38
192.151	43.35
192.538	-76.19
192.926	189.02
193.314	750.42
193.702	-418.52
194.089	8887.88
194.477	12.97
194.864	1.91
195.252	224.79
195.639	-79.7
196.027	265.85
196.414	896.19
196.801	128.53
197.189	158.61
197.576	154.62
197.963	-36.47
198.351	-28.59
198.738	-15.29
199.125	39.71
199.512	15.95
199.899	-108.28
200.286	20.42
200.673	7.4
201.06	19.76
201.447	59.76
201.833	-2.04
202.22	0.28
202.607	13.38
202.994	37.53
203.38	33.31
203.767	4.72
204.154	30
204.54	7.05
204.927	1.79
205.313	-31.44
205.699	-102.78
206.086	34.76
206.472	-13.55
206.858	4.74
207.245	27.86
207.631	-11.97
208.017	0.1
208.403	21.8
208.789	3.67
209.175	9.71
209.561	48.81
209.947	31.49
210.333	-10.09
210.719	12.12
211.105	37.54
211.491	-2.98
211.876	21.82
212.262	15.08
212.648	0.04
213.034	11.92
213.419	-40.86
213.805	9.36
214.19	-9.75
214.576	15.55
214.961	-45.37
215.346	-1.07
215.732	-22.32
216.117	16.88
216.502	1.53
216.888	-18.44
217.273	3.75
217.658	-23.4
218.043	5.08
218.428	3.89
218.813	-5.3
219.198	8.49
219.583	4.14
219.968	18.78
220.353	-6.17
220.738	-12.82
221.122	12.82
221.507	-19.52
221.892	1.77
222.276	15.2
222.661	6.09
223.046	-14.45
223.43	-7.33
223.815	1.04
224.199	11.51
224.583	0.74
224.968	-4.34
225.352	4.46
225.736	3.19
226.121	2.89
226.505	0.19
226.889	-4.61
227.273	5.64
227.657	1.64
228.041	-2.22
228.425	1.54
228.809	3.76
229.193	5.77
229.577	2.11
229.961	3.21
230.344	2.53
230.728	1.43
231.112	1.28
231.495	1.24
231.879	1.09
232.263	1.26
232.646	0.04
233.03	1.77
233.413	2.21
233.797	2.56
234.18	1.85
234.563	5.5
234.946	1.92
235.33	2.45
235.713	1.18
236.096	2.2
236.479	3.74
236.862	3.43
237.245	1.24
237.628	2.64
238.011	2.08
238.394	2.13
238.777	3.61
239.16	2.82
239.543	1.54
239.925	2.38
240.308	1.35
240.691	3.97
241.073	2.86
241.456	1.67
241.838	3.25
242.221	2.61
242.603	2.27
242.986	2.13
243.368	2.47
243.75	2.29
244.133	2.38
244.515	2.17
244.897	2.57
245.279	2.4
245.661	2.84
246.043	2.6
246.425	3.42
246.807	3.02
247.189	1.98
247.571	2.36
247.953	2.76
248.335	2.8
248.717	2.94
249.098	2.99
249.48	2.57
249.862	3.03
250.243	2.63
250.625	2.31
251.006	4.27
251.388	2.97
251.769	2.62
252.151	2.53
252.532	3.06
252.913	3.64
253.295	2.37
253.676	2.1
254.057	2.84
254.438	2.55
254.819	2.62
255.2	3.57
255.581	2.99
255.962	1.98
256.343	2.76
256.724	2.12
257.105	2.42
257.486	2.58
257.867	3.05
258.247	1.77
258.628	2.59
259.009	2.52
259.389	2.04
259.77	2.75
260.15	3.12
260.531	2.5
260.911	2.71
261.292	2.91
261.672	2.46
262.052	2.69
262.432	2.63
262.813	3.06
263.193	2.47
263.573	2.84
263.953	2.89
264.333	2.45
264.713	2.05
265.093	2.99
265.473	2.07
265.853	3
266.233	2.65
266.612	2.71
266.992	2.68
267.372	3.15
267.752	2.99
268.131	2.52
268.511	2.37
268.89	2.42
269.27	2.31
269.649	1.98
270.029	2.87
270.408	2.55
270.787	2.9
271.167	1.89
271.546	2.25
271.925	2.76
272.304	2.48
272.683	2.74
273.062	2.42
273.441	2.76
273.82	2.6
274.199	2.42
274.578	2.35
274.957	2.84
275.336	2.81
275.715	2.54
276.093	2.08
276.472	2.15
276.851	2.63
277.229	2.43
277.608	2.15
277.986	2.48
278.365	2.19
278.743	2.47
279.122	2.4
279.5	2.38
279.878	2.65
280.257	2.46
280.635	2.27
281.013	2.71
281.391	2.37
281.769	2.04
282.147	3.02
282.525	2.01
282.903	2.22
283.281	2.74
283.659	2.94
284.037	2.43
284.415	2.56
284.792	2.8
285.17	3.1
285.548	2.22
285.925	2.07
286.303	2.53
286.68	2.82
287.058	2.55
287.435	2.65
287.813	2.72
288.19	2.52
288.567	2.82
288.945	2.64
289.322	2.83
289.699	2.2
290.076	2.9
290.453	2.8
290.83	2.52
291.207	2.62
291.584	3.02
291.961	2.69
292.338	2.92
292.715	2.85
293.092	2.61
293.469	2.85
293.845	3.35
294.222	2.67
294.599	3.12
294.975	3.19
295.352	3.04
295.728	2.81
296.105	2.83
296.481	3.08
296.858	3.28
297.234	3.33
297.61	2.89
297.986	3.1
298.363	3.5
298.739	3.17
299.115	3.44
299.491	3.45
299.867	3.32
300.243	3.04
300.619	3.27
300.995	3.3
301.371	3.78
301.746	3.78
302.122	3.36
302.498	3.97
302.874	3.59
303.249	3.71
303.625	3.5
304	3.54
304.376	4.15
304.751	3.89
305.127	3.59
305.502	3.86
305.878	4.38
306.253	3.93
306.628	3.99
307.003	4.38
307.378	3.87
307.754	4.39
308.129	3.89
308.504	4.12
308.879	3.9
309.254	4
309.629	4.01
310.003	4.36
310.378	4.3
310.753	4.35
311.128	4.6
311.502	4.56
311.877	4.28
312.252	4.45
312.626	4.27
313.001	4.35
313.375	4.44
313.75	4.33
314.124	4.5
314.498	4.56
314.873	4.07
315.247	4.79
315.621	5.65
315.995	4.84
316.369	5
316.743	4.7
317.117	4.55
317.491	5.08
317.865	4.86
318.239	4.86
318.613	5.01
318.987	5
319.361	5.1
319.734	5.32
320.108	4.78
320.482	5.6
320.855	4.94
321.229	5.14
321.602	5.45
321.976	5.28
322.349	5.55
322.723	5.99
323.096	5.45
323.469	5.66
323.843	5.47
324.216	5.11
324.589	5.38
324.962	5.96
325.335	5.81
325.708	5.8
326.081	5.82
326.454	5.41
326.827	5.36
327.2	5.99
327.573	6.19
327.945	5.25
328.318	5.51
328.691	5.88
329.063	5.83
329.436	5.63
329.809	5.41
330.181	5.52
330.553	5
330.926	6.29
331.298	6.03
331.671	6.31
332.043	5.53
332.415	5.96
332.787	6.13
333.159	6.13
333.532	5.95
333.904	6.12
334.276	5.54
334.648	6.05
335.02	6.41
335.391	6.71
335.763	5.78
336.135	6.06
336.507	6.18
336.879	6.21
337.25	5.89
337.622	6.4
337.993	6.36
338.365	6.61
338.736	6.17
339.108	6.2
339.479	6.28
339.851	6.22
340.222	6.2
340.593	6.68
340.964	6.43
341.336	6.71
341.707	6.1
342.078	6.11
342.449	6.64
342.82	6.79
343.191	6.62
343.562	6.18
343.933	6.35
344.303	5.96
344.674	6.49
345.045	6.37
345.416	6.57
345.786	6.45
346.157	6.42
346.527	6.84
346.898	6.09
347.268	6.34
347.639	6.42
348.009	6.48
348.38	6.85
348.75	6.35
349.12	7.2
349.49	6.73
349.861	6.83
350.231	6.64
350.601	6.72
350.971	6.75
351.341	6.89
351.711	6.81
352.081	6.58
352.45	6.83
352.82	6.52
353.19	7.13
353.56	6.4
353.929	6.8
354.299	6.64
354.669	7.15
355.038	6.84
355.408	6.89
355.777	7.12
356.147	7.03
356.516	7.08
356.885	6.95
357.254	6.83
357.624	6.68
357.993	7.01
358.362	7.26
358.731	6.89
359.1	6.83
359.469	6.67
359.838	6.89
360.207	7.35
360.576	7.19
360.945	7.44
361.314	6.83
361.682	7.07
362.051	7.09
362.42	7.14
362.788	7.39
363.157	6.9
363.525	6.97
363.894	6.87
364.262	7.14
364.631	7.5
364.999	7.23
365.367	7.33
365.735	7.47
366.104	7.19
366.472	7.55
366.84	6.84
367.208	7.37
367.576	7.58
367.944	7.62
368.312	7.35
368.68	7.55
369.048	7.46
369.416	7.36
369.783	7.51
370.151	7.69
370.519	7.4
370.886	7.32
371.254	7.61
371.621	7.58
371.989	7.32
372.356	7.67
372.724	7.82
373.091	7.99
373.458	7.44
373.826	7.3
374.193	7.47
374.56	7.48
374.927	7.81
375.294	7.69
375.661	8.04
376.028	7.64
376.395	7.89
376.762	7.92
377.129	7.84
377.496	7.9
377.863	7.74
378.229	7.94
378.596	7.72
378.963	7.96
379.329	7.94
379.696	7.85
380.062	7.95
380.429	8.13
380.795	8.29
381.161	8.03
381.528	8.15
381.894	8.26
382.26	8.31
382.626	8.06
382.993	7.97
383.359	8.17
383.725	8.22
384.091	8.24
384.457	8.07
384.823	7.92
385.188	7.98
385.554	8.01
385.92	8.16
386.286	7.99
386.651	8.16
387.017	8.05
387.383	8.13
387.748	7.97
388.114	8.2
388.479	8.05
388.845	8
389.21	8.12
389.575	8.38
389.94	8.44
390.306	8.45
390.671	8.42
391.036	8.19
391.401	8.37
391.766	8.53
392.131	8.5
392.496	8.51
392.861	8.39
393.226	8.27
393.591	8.35
393.956	8.5
394.32	8.52
394.685	8.51
395.05	8.64
395.414	8.14
395.779	8.4
396.143	8.52
396.508	8.71
396.872	8.71
397.236	8.3
397.601	8.58
397.965	8.7
398.329	8.75
398.694	8.49
399.058	8.7
399.422	8.67
399.786	8.69
400.15	8.71
400.514	8.65
400.878	8.94
401.242	8.75
401.605	8.79
401.969	8.78
402.333	8.76
402.697	8.98
403.06	8.85
403.424	8.81
403.787	8.87
404.151	8.82
404.514	8.84
404.878	8.88
405.241	8.84
405.604	8.76
405.968	8.81
406.331	8.73
406.694	8.91
407.057	8.9
407.42	9.13
407.783	8.87
408.146	9.1
408.509	9.13
408.872	9.09
409.235	9.15
409.598	9.1
409.961	9.25
410.323	8.93
410.686	9.3
411.049	9.07
411.411	9.06
411.774	9.1
412.136	9.15
412.499	9.32
412.861	9.28
413.223	9.18
413.586	9.32
413.948	9.65
414.31	9.38
414.672	9.36
415.035	9.38
415.397	9.18
415.759	9.22
416.121	9.26
416.483	9.32
416.845	9.46
417.206	9.32
417.568	9.36
417.93	9.35
418.292	9.17
418.653	9.51
419.015	9.34
419.377	9.4
419.738	9.43
420.1	9.25
420.461	9.31
420.822	9.42
421.184	9.21
421.545	9.3
421.906	9.29
422.267	9.25
422.629	9.22
422.99	9.25
423.351	9.41
423.712	9.31
424.073	9.46
424.434	9.48
424.795	9.65
425.155	9.55
425.516	9.47
425.877	9.37
426.238	9.42
426.598	9.41
426.959	9.42
427.32	9.56
427.68	9.68
428.041	9.78
428.401	9.68
428.761	9.83
429.122	9.88
429.482	9.93
429.842	9.94
430.202	9.86
430.563	10.1
430.923	9.92
431.283	9.84
431.643	9.93
432.003	10.14
432.363	10
432.722	10.26
433.082	10.12
433.442	10.13
433.802	10.19
434.161	10.17
434.521	10.06
434.881	10.08
435.24	10.16
435.6	9.99
435.959	10.17
436.319	10.03
436.678	10.28
437.037	10.29
437.396	10.29
437.756	10.13
438.115	10.25
438.474	10.21
438.833	10.21
439.192	10.39
439.551	10.24
439.91	10.39
440.269	10.33
440.628	10.44
440.987	10.34
441.345	10.34
441.704	10.39
442.063	10.23
442.421	10.31
442.78	10.15
443.138	10.34
443.497	10.27
443.855	10.49
444.214	10.57
444.572	10.72
444.93	10.64
445.288	10.69
445.647	10.76
446.005	10.58
446.363	10.62
446.721	10.5
447.079	10.71
447.437	10.51
447.795	10.49
448.153	10.38
448.51	10.46
448.868	10.59
449.226	10.57
449.584	10.58
449.941	10.76
450.299	10.6
450.656	10.65
451.014	10.95
451.371	10.85
451.729	10.82
452.086	11.01
452.443	11.01
452.801	11.09
453.158	11
453.515	10.98
453.872	10.97
454.229	10.95
454.586	10.92
454.943	11
455.3	11
455.657	11.22
456.014	11.23
456.371	11.21
456.727	11.27
457.084	10.89
457.441	11.43
457.797	11.21
458.154	11.21
458.51	11.31
458.867	11.17
459.223	11.29
459.58	11.35
459.936	11.26
460.292	11.38
460.648	11.26
461.005	11.16
461.361	11.14
461.717	10.99
462.073	11.29
462.429	11.29
462.785	11.29
463.141	11.42
463.496	11.43
463.852	11.64
464.208	11.63
464.564	11.61
464.919	11.63
465.275	11.66
465.631	11.68
465.986	11.89
466.342	11.75
466.697	11.6
467.052	11.6
467.408	11.8
467.763	11.73
468.118	11.79
468.473	11.86
468.829	11.88
469.184	11.83
469.539	11.86
469.894	11.93
470.249	12.03
470.603	11.65
470.958	11.85
471.313	12.06
471.668	12.04
472.023	11.89
472.377	12.12
472.732	12.01
473.086	12.02
473.441	11.95
473.795	12.03
474.15	12.07
474.504	12.23
474.859	12.17
475.213	12.05
475.567	12.21
475.921	12.31
476.275	12.11
476.63	12.45
476.984	12.3
477.338	12.37
477.692	12.21
478.045	12.32
478.399	12.45
478.753	12.15
479.107	12.16
479.461	12.37
479.814	12.32
480.168	12.27
480.521	12.35
480.875	12.45
481.228	12.31
481.582	12.54
481.935	12.41
482.289	12.2
482.642	12.39
482.995	12.37
483.348	12.34
483.701	12.34
484.055	12.31
484.408	12.15
484.761	12
485.114	11.78
485.466	11.64
485.819	11.67
486.172	11.76
486.525	11.98
486.878	12.1
487.23	12.18
487.583	12.24
487.936	12.3
488.288	12.29
488.641	12.16
488.993	12.14
489.345	12.06
489.698	12.12
490.05	12.11
490.402	12.27
490.754	12.42
491.107	12.48
491.459	12.54
491.811	12.63
492.163	12.67
492.515	12.66
492.866	12.48
493.218	12.33
493.57	12.33
493.922	12.44
494.274	12.54
494.625	12.77
494.977	12.93
495.328	13
495.68	12.99
496.031	13.03
496.383	13.11
496.734	13.04
497.086	13.26
497.437	13.15
497.788	12.92
498.139	13.1
498.49	12.96
498.842	12.89
499.193	13.03
499.544	13.21
499.894	13.06
500.245	13.33
500.596	13.27
500.947	13.25
501.298	13.26
501.648	13.34
501.999	13.37
502.35	13.59
502.7	13.48
503.051	13.46
503.401	13.6
503.752	13.51
504.102	13.53
504.452	13.63
504.803	13.65
505.153	13.49
505.503	13.44
505.853	13.61
506.203	13.7
506.553	13.59
506.903	13.79
507.253	13.72
507.603	13.6
507.953	13.74
508.303	13.68
508.652	13.83
509.002	13.79
509.352	13.8
509.701	13.78
510.051	13.85
510.4	13.82
510.75	13.77
511.099	13.64
511.449	13.88
511.798	13.69
512.147	13.83
512.496	13.84
512.846	13.99
513.195	13.91
513.544	13.91
513.893	13.89
514.242	13.81
514.591	13.89
514.939	14.1
515.288	14.22
515.637	14.13
515.986	14.23
516.334	14.09
516.683	14.16
517.032	14.27
517.38	14.22
517.729	14.33
518.077	14.27
518.426	14.4
518.774	14.43
519.122	14.24
519.47	14.23
519.819	14.16
520.167	14.04
520.515	14.09
520.863	14.12
521.211	14.23
521.559	14.21
521.907	14.28
522.255	14.31
522.602	14.45
522.95	14.52
523.298	14.51
523.645	14.51
523.993	14.7
524.341	14.69
524.688	14.62
525.036	14.76
525.383	14.58
525.73	14.62
526.078	14.61
526.425	14.62
526.772	14.53
527.119	14.37
527.466	14.36
527.814	14.46
528.161	14.49
528.508	14.51
528.854	14.44
529.201	14.43
529.548	14.27
529.895	14.11
530.242	13.99
530.588	14.07
530.935	14.16
531.282	14.34
531.628	14.43
531.975	14.52
532.321	14.59
532.667	14.76
533.014	14.79
533.36	14.78
533.706	14.82
534.052	14.8
534.399	14.64
534.745	14.61
535.091	14.59
535.437	14.61
535.783	14.7
536.129	14.87
536.474	15.09
536.82	14.98
537.166	15.14
537.512	15.05
537.857	15.07
538.203	14.84
538.549	15.02
538.894	15.12
539.239	15.08
539.585	15.33
539.93	15.3
540.276	15.49
540.621	15.58
540.966	15.52
541.311	15.53
541.656	15.45
542.001	15.35
542.346	15.05
542.691	15.03
543.036	14.88
543.381	14.92
543.726	15.02
544.071	15.2
544.415	15.24
544.76	15.33
545.105	15.31
545.449	15.48
545.794	15.6
546.138	15.64
546.483	15.67
546.827	15.64
547.171	15.79
547.516	15.64
547.86	15.69
548.204	15.77
548.548	15.65
548.892	15.74
549.236	15.74
549.58	15.98
549.924	16.05
550.268	15.99
550.612	16.12
550.956	16.3
551.3	16.15
551.643	16.26
551.987	16.38
552.33	16.25
552.674	16.45
553.017	16.4
553.361	16.42
553.704	16.41
554.048	16.18
554.391	16.28
554.734	16.14
555.077	16.46
555.42	16.42
555.764	16.56
556.107	16.42
556.45	16.56
556.793	16.65
557.135	16.51
557.478	16.81
557.821	16.59
558.164	16.74
558.507	16.73
558.849	16.53
559.192	16.34
559.534	16.93
559.877	16.79
560.219	16.95
560.562	16.72
560.904	16.79
561.246	16.66
561.589	16.88
561.931	16.72
562.273	16.94
562.615	16.74
562.957	17
563.299	16.89
563.641	16.81
563.983	16.87
564.325	17.08
564.667	17.08
565.008	17.19
565.35	17.07
565.692	16.99
566.033	16.97
566.375	17.12
566.716	17.23
567.058	17.08
567.399	17.34
567.741	17.09
568.082	16.98
568.423	17.02
568.764	17.28
569.105	17.21
569.447	17.4
569.788	17.34
570.129	17.27
570.47	17.39
570.811	17.31
571.151	17.49
571.492	17.51
571.833	17.44
572.174	17.51
572.514	17.56
572.855	17.49
573.195	17.26
573.536	17.37
573.876	17.43
574.217	17.51
574.557	17.52
574.898	17.46
575.238	17.57
575.578	17.39
575.918	17.74
576.258	17.59
576.598	17.72
576.938	17.72
577.278	17.61
577.618	17.52
577.958	17.69
578.298	17.9
578.638	17.76
578.977	18.01
579.317	17.88
579.657	18.07
579.996	17.81
580.336	17.73
580.675	18.04
581.014	18.14
581.354	18.07
581.693	18.08
582.032	17.99
582.372	17.97
582.711	18.14
583.05	18.27
583.389	18.42
583.728	18.31
584.067	18.56
584.406	18.2
584.745	18.38
585.083	18.49
585.422	18.38
585.761	18.4
586.1	18.18
586.438	18.3
586.777	18.38
587.115	18.4
587.454	18.3
587.792	18.55
588.13	18.52
588.469	18.55
588.807	18.51
589.145	18.53
589.483	18.46
589.821	18.63
590.159	18.78
590.497	18.9
590.835	18.57
591.173	18.46
591.511	18.43
591.849	18.75
592.187	18.57
592.524	18.49
592.862	18.63
593.2	18.72
593.537	19.03
593.875	19.06
594.212	18.92
594.55	19.15
594.887	18.59
595.224	18.7
595.561	18.67
595.899	18.84
596.236	18.44
596.573	19
596.91	19.14
597.247	18.95
597.584	18.96
597.921	18.86
598.258	18.93
598.594	18.6
598.931	18.75
599.268	18.82
599.604	18.95
599.941	19.14
600.277	19.3
600.614	19.37
600.95	19.22
601.287	19.26
601.623	19.48
601.959	19.55
602.296	19.16
602.632	19.26
602.968	19.59
603.304	19.49
603.64	19.44
603.976	19.59
604.312	19.44
604.648	19.27
604.984	19.32
605.319	19.4
605.655	19.26
605.991	19.27
606.326	19.34
606.662	19.18
606.998	19.21
607.333	19.46
607.668	19.14
608.004	19.52
608.339	19.73
608.674	19.76
609.01	19.71
609.345	19.75
609.68	19.36
610.015	19.75
610.35	19.76
610.685	19.86
611.02	19.51
611.355	19.67
611.689	19.56
612.024	19.37
612.359	19.79
612.694	19.73
613.028	19.81
613.363	20.02
613.697	20.16
614.032	19.9
614.366	19.9
614.7	20.02
615.035	19.85
615.369	20.05
615.703	20.07
616.037	20.29
616.371	20.1
616.705	20.17
617.039	19.92
617.373	20.23
617.707	20.4
618.041	20.31
618.375	19.9
618.709	20.35
619.042	20.77
619.376	20.45
619.71	20.4
620.043	20.35
620.377	20.36
620.71	20.39
621.043	20.24
621.377	20.87
621.71	20.26
622.043	20.26
622.376	20.55
622.709	20.21
623.043	20.34
623.376	20.62
623.709	20.48
624.041	20.62
624.374	20.4
624.707	20.61
625.04	20.31
625.373	20.4
625.705	20.25
626.038	20.58
626.37	20.64
626.703	20.72
627.035	20.8
627.368	20.57
627.7	20.84
628.032	20.66
628.365	21.13
628.697	20.9
629.029	20.65
629.361	20.95
629.693	21.04
630.025	20.85
630.357	20.96
630.689	20.81
631.021	20.83
631.353	21.22
631.684	20.78
632.016	21
632.348	21.09
632.679	20.91
633.011	21.33
633.342	21.1
633.674	21.3
634.005	21.13
634.336	21.07
634.668	21.51
634.999	21.38
635.33	21.15
635.661	21.49
635.992	21.26
636.323	20.99
636.654	21.88
636.985	21.25
637.316	21.41
637.647	21.85
637.977	21.4
638.308	21.75
638.639	21.39
638.969	21.26
639.3	21.58
639.63	21.79
639.961	21.6
640.291	21.5
640.622	21.66
640.952	21.15
641.282	21.12
641.612	21.46
641.943	21.82
642.273	21.8
642.603	21.78
642.933	21.87
643.263	21.83
643.592	21.67
643.922	21.86
644.252	21.9
644.582	21.88
644.911	21.81
645.241	21.69
645.571	22.13
645.9	21.99
646.23	21.9
646.559	22.08
646.888	21.82
647.218	21.91
647.547	21.97
647.876	21.89
648.205	22.21
648.534	22.35
648.863	22.16
649.192	21.84
649.521	22.01
649.85	22.4
650.179	22.06
650.508	22.6
650.837	22.06
651.165	22.17
651.494	22.67
651.822	22.21
652.151	22.07
652.479	21.96
652.808	22.03
653.136	22.06
653.465	22.87
653.793	22.51
654.121	22.3
654.449	21.84
654.777	22.7
655.105	22.35
655.433	22.35
655.761	22.41
656.089	22.6
656.417	22.55
656.745	22.55
657.073	22.16
657.4	21.87
657.728	22.57
658.056	23.03
658.383	22.53
658.711	22.28
659.038	22.9
659.365	22.58
659.693	22.64
660.02	23.08
660.347	22.94
660.674	22.82
661.001	22.9
661.329	22.51
661.656	22.72
661.982	22.89
662.309	23.39
662.636	23.15
662.963	22.99
663.29	22.61
663.616	22.81
663.943	23.36
664.27	22.99
664.596	23.92
664.923	23.15
665.249	22.74
665.576	23.08
665.902	23.13
666.228	22.76
666.554	23.33
666.881	22.69
667.207	23.24
667.533	23.41
667.859	23.57
668.185	23.29
668.511	22.99
668.837	23.33
669.162	23.25
669.488	22.86
669.814	23.56
670.139	23.84
670.465	23.05
670.791	23.67
671.116	23.49
671.442	23.48
671.767	24
672.092	23.64
672.418	24.08
672.743	23.07
673.068	23.69
673.393	24.42
673.718	23.73
674.043	24.08
674.368	24.26
674.693	23.18
675.018	23.71
675.343	23.79
675.667	24.26
675.992	24.33
676.317	23.82
