Data from 0053_chest_Reflection__3__49.txt Node

Date: Fri Dec 16 14:17:28 CST 2022
User: ToomeyLab
Spectrometer: FLMS14357
Trigger mode: 0
Integration Time (sec): 1.000000E-2
Scans to average: 100
Electric dark correction enabled: true
Nonlinearity correction enabled: false
Boxcar width: 0
XAxis mode: Wavelengths
Number of Pixels in Spectrum: 2048
>>>>>Begin Spectral Data<<<<<
189.047	-37.94
189.435	-37.94
189.823	-37.94
190.211	469.35
190.599	-6
190.987	-1172.78
191.375	147.34
191.763	65.42
192.151	56.9
192.538	161.64
192.926	-44.03
193.314	84.37
193.702	-9272
194.089	186.23
194.477	3976
194.864	-254.74
195.252	74.31
195.639	73.22
196.027	-38.64
196.414	21.86
196.801	-34.67
197.189	174.61
197.576	-129.22
197.963	-146.85
198.351	-1.55
198.738	23.47
199.125	45.49
199.512	6.35
199.899	22.47
200.286	-17.19
200.673	30.62
201.06	15.57
201.447	22.11
201.833	24.84
202.22	38.08
202.607	40.6
202.994	56.91
203.38	28.32
203.767	17.75
204.154	19.41
204.54	56.14
204.927	33.24
205.313	9.6
205.699	42.56
206.086	6.79
206.472	11.19
206.858	12.57
207.245	36.26
207.631	-9.22
208.017	44.14
208.403	19.12
208.789	-6.85
209.175	30.74
209.561	15.26
209.947	-15.44
210.333	3.93
210.719	9.08
211.105	14.33
211.491	2.87
211.876	24.42
212.262	-3.58
212.648	-42.1
213.034	-2.85
213.419	10.52
213.805	6.37
214.19	-4.59
214.576	-24.02
214.961	-23.78
215.346	-8.05
215.732	-0.86
216.117	-4.88
216.502	-23.74
216.888	-14.31
217.273	-7.47
217.658	-6.57
218.043	18.68
218.428	1.38
218.813	5.29
219.198	-19.44
219.583	5.93
219.968	-2.6
220.353	19.63
220.738	-10.58
221.122	-2.34
221.507	10.78
221.892	20.69
222.276	17.34
222.661	2.31
223.046	-3.46
223.43	-1
223.815	14.76
224.199	5.94
224.583	3.18
224.968	13.39
225.352	3.89
225.736	7.38
226.121	0.7
226.505	8.61
226.889	8.72
227.273	7.09
227.657	4.65
228.041	6.09
228.425	6.54
228.809	8.62
229.193	3.91
229.577	3.73
229.961	5.54
230.344	5.7
230.728	5.16
231.112	5.38
231.495	4.57
231.879	5.19
232.263	4.2
232.646	3.44
233.03	1.96
233.413	5.15
233.797	4.81
234.18	1.86
234.563	3.64
234.946	2.59
235.33	5.71
235.713	5.92
236.096	4.96
236.479	7.33
236.862	6.85
237.245	5.92
237.628	4.74
238.011	5.7
238.394	6.87
238.777	5.72
239.16	3.18
239.543	3.52
239.925	4.41
240.308	6.82
240.691	4.32
241.073	4.99
241.456	3.91
241.838	4.28
242.221	4.59
242.603	4.38
242.986	5.1
243.368	4.57
243.75	4.13
244.133	4.3
244.515	4.88
244.897	4.19
245.279	3.71
245.661	3.89
246.043	4.54
246.425	3.58
246.807	4.14
247.189	4.24
247.571	4.85
247.953	4.58
248.335	4.4
248.717	4.2
249.098	4.23
249.48	4.05
249.862	4.23
250.243	4.28
250.625	4.02
251.006	3.56
251.388	5.2
251.769	4
252.151	4.25
252.532	4.45
252.913	4.18
253.295	3.72
253.676	4.42
254.057	3.89
254.438	4.33
254.819	4.96
255.2	3.81
255.581	3.79
255.962	3.39
256.343	5.04
256.724	3.91
257.105	4.93
257.486	3.71
257.867	2.98
258.247	4.27
258.628	4.77
259.009	3.39
259.389	4.46
259.77	3.6
260.15	4.37
260.531	3.97
260.911	4.05
261.292	3.96
261.672	3.74
262.052	3.78
262.432	3.84
262.813	3.93
263.193	3.65
263.573	4.46
263.953	4.05
264.333	4.1
264.713	3.69
265.093	3.47
265.473	4.24
265.853	3.44
266.233	3.32
266.612	4.13
266.992	3.26
267.372	3.87
267.752	3.81
268.131	3.75
268.511	4.05
268.89	3.83
269.27	3.86
269.649	4.24
270.029	4.21
270.408	3.86
270.787	3.5
271.167	3.93
271.546	3.66
271.925	3.79
272.304	4.17
272.683	3.78
273.062	3.92
273.441	3.85
273.82	4.03
274.199	3.96
274.578	3.5
274.957	3.85
275.336	3.21
275.715	4.51
276.093	4.37
276.472	3.74
276.851	4.05
277.229	4.16
277.608	4.21
277.986	3.75
278.365	3.27
278.743	3.82
279.122	2.71
279.5	3.61
279.878	3.31
280.257	4.2
280.635	3.32
281.013	4.07
281.391	3.64
281.769	3.75
282.147	3.69
282.525	3.36
282.903	3.86
283.281	4.24
283.659	3.75
284.037	3.51
284.415	3.72
284.792	3.51
285.17	3.89
285.548	3.4
285.925	3.3
286.303	3.58
286.68	3.45
287.058	3.46
287.435	3.43
287.813	3.52
288.19	4.08
288.567	3.25
288.945	3.7
289.322	3.61
289.699	3.98
290.076	4.3
290.453	3.53
290.83	3.87
291.207	3.62
291.584	3.59
291.961	3.77
292.338	3.45
292.715	3.41
293.092	3.41
293.469	3.68
293.845	4.14
294.222	3.59
294.599	4.1
294.975	3.76
295.352	2.93
295.728	3.68
296.105	3.74
296.481	3.53
296.858	3.83
297.234	3.56
297.61	3.79
297.986	3.8
298.363	3.24
298.739	3.79
299.115	3.3
299.491	3.68
299.867	3.5
300.243	3.61
300.619	3.57
300.995	3.53
301.371	3.92
301.746	3.46
302.122	3.79
302.498	3.37
302.874	3.68
303.249	3.97
303.625	3.63
304	3.04
304.376	3.5
304.751	3.31
305.127	3.49
305.502	4.1
305.878	3.69
306.253	3.34
306.628	3.93
307.003	3.31
307.378	3.22
307.754	4.03
308.129	2.86
308.504	3.31
308.879	3.59
309.254	3.79
309.629	3.67
310.003	3.69
310.378	3.46
310.753	3.67
311.128	3.85
311.502	3.28
311.877	3.5
312.252	3.71
312.626	3.42
313.001	3.53
313.375	3.55
313.75	3.56
314.124	4.19
314.498	3.41
314.873	4.13
315.247	3.47
315.621	3.59
315.995	3.78
316.369	3.56
316.743	3.77
317.117	3.78
317.491	3.42
317.865	3.26
318.239	4.25
318.613	4.1
318.987	3.82
319.361	3.52
319.734	4.16
320.108	3.29
320.482	3.22
320.855	3.74
321.229	4.32
321.602	3.85
321.976	3.49
322.349	3.32
322.723	3.25
323.096	2.92
323.469	3.48
323.843	3.59
324.216	3.4
324.589	3.15
324.962	3.24
325.335	3.58
325.708	3.41
326.081	4.03
326.454	3.43
326.827	3.68
327.2	4.19
327.573	3.53
327.945	3.43
328.318	3.31
328.691	3.65
329.063	3.2
329.436	3.68
329.809	3.21
330.181	3.33
330.553	4.16
330.926	3.9
331.298	3.35
331.671	3.49
332.043	3.46
332.415	3.88
332.787	4.1
333.159	3.61
333.532	3.37
333.904	4.15
334.276	3.94
334.648	3.74
335.02	3.63
335.391	3.7
335.763	3.17
336.135	3.43
336.507	3.71
336.879	3.48
337.25	3.26
337.622	3.45
337.993	3.92
338.365	3.44
338.736	4.07
339.108	3.27
339.479	3.36
339.851	4
340.222	3.34
340.593	3.49
340.964	3.54
341.336	3.24
341.707	3.47
342.078	3.19
342.449	3.69
342.82	3.36
343.191	3.37
343.562	3.39
343.933	3.59
344.303	3.98
344.674	3.31
345.045	3.97
345.416	3.43
345.786	3.21
346.157	3.52
346.527	3.6
346.898	3.58
347.268	3.8
347.639	3.37
348.009	3.73
348.38	3.75
348.75	3.87
349.12	3.6
349.49	3.41
349.861	4.12
350.231	3.75
350.601	3.66
350.971	3.49
351.341	3.78
351.711	3.17
352.081	3.7
352.45	3.82
352.82	3.74
353.19	3.47
353.56	3.46
353.929	3.67
354.299	3.58
354.669	3.83
355.038	3.25
355.408	4.13
355.777	3.65
356.147	4.15
356.516	4.01
356.885	3.4
357.254	3.85
357.624	3.77
357.993	3.76
358.362	3.8
358.731	3.7
359.1	3.75
359.469	3.65
359.838	3.55
360.207	3.33
360.576	3.92
360.945	3.5
361.314	3.77
361.682	3.63
362.051	3.57
362.42	3.68
362.788	3.84
363.157	3.66
363.525	3.52
363.894	3.51
364.262	3.51
364.631	4.25
364.999	3.37
365.367	3.81
365.735	3.56
366.104	3.64
366.472	3.8
366.84	3.59
367.208	3.31
367.576	3.85
367.944	3.97
368.312	3.39
368.68	4.03
369.048	3.93
369.416	3.66
369.783	3.77
370.151	3.93
370.519	3.65
370.886	3.78
371.254	3.78
371.621	3.94
371.989	3.87
372.356	3.76
372.724	3.85
373.091	3.87
373.458	3.76
373.826	3.69
374.193	4.13
374.56	3.96
374.927	3.78
375.294	3.76
375.661	3.73
376.028	3.83
376.395	3.89
376.762	4.19
377.129	4.05
377.496	3.85
377.863	3.94
378.229	3.63
378.596	3.94
378.963	3.84
379.329	3.72
379.696	3.69
380.062	4.06
380.429	3.84
380.795	3.68
381.161	3.65
381.528	3.67
381.894	3.78
382.26	3.52
382.626	3.84
382.993	3.58
383.359	3.61
383.725	3.8
384.091	3.89
384.457	3.89
384.823	3.86
385.188	3.84
385.554	3.95
385.92	3.9
386.286	4.16
386.651	3.93
387.017	4.1
387.383	3.88
387.748	3.59
388.114	4.16
388.479	4.08
388.845	3.91
389.21	3.95
389.575	3.91
389.94	4.1
390.306	3.79
390.671	3.62
391.036	4.03
391.401	3.97
391.766	3.9
392.131	4.05
392.496	3.74
392.861	3.78
393.226	3.89
393.591	3.91
393.956	3.94
394.32	3.66
394.685	3.97
395.05	4.03
395.414	3.72
395.779	3.87
396.143	3.9
396.508	3.89
396.872	3.74
397.236	3.7
397.601	4.04
397.965	3.54
398.329	3.83
398.694	3.77
399.058	3.92
399.422	3.81
399.786	3.83
400.15	4
400.514	3.86
400.878	3.79
401.242	4.07
401.605	3.88
401.969	4.04
402.333	4.02
402.697	4.07
403.06	4.14
403.424	3.78
403.787	3.98
404.151	3.95
404.514	4.11
404.878	3.98
405.241	3.91
405.604	3.8
405.968	3.84
406.331	4.02
406.694	3.93
407.057	4.01
407.42	3.92
407.783	3.86
408.146	3.76
408.509	3.73
408.872	3.94
409.235	3.93
409.598	4.07
409.961	4.21
410.323	3.88
410.686	3.93
411.049	3.86
411.411	3.96
411.774	3.89
412.136	3.94
412.499	3.98
412.861	3.59
413.223	4.1
413.586	3.95
413.948	4.11
414.31	4.1
414.672	3.92
415.035	4.29
415.397	4.34
415.759	3.87
416.121	4.12
416.483	4.01
416.845	3.91
417.206	4.01
417.568	4.1
417.93	3.83
418.292	3.96
418.653	4.06
419.015	4.09
419.377	4.02
419.738	3.89
420.1	3.86
420.461	3.88
420.822	4.01
421.184	4.04
421.545	3.93
421.906	3.96
422.267	3.83
422.629	3.84
422.99	4.05
423.351	3.89
423.712	3.93
424.073	3.98
424.434	3.88
424.795	3.88
425.155	3.91
425.516	3.85
425.877	3.98
426.238	3.8
426.598	4.01
426.959	3.84
427.32	3.97
427.68	4.05
428.041	4.05
428.401	3.9
428.761	3.94
429.122	3.9
429.482	3.87
429.842	4
430.202	3.99
430.563	3.91
430.923	3.99
431.283	3.99
431.643	4.11
432.003	4.12
432.363	4.3
432.722	4.04
433.082	3.94
433.442	4.11
433.802	4.2
434.161	4
434.521	3.99
434.881	4.05
435.24	3.96
435.6	4.03
435.959	4.17
436.319	4.03
436.678	4.01
437.037	4.15
437.396	4.09
437.756	4.06
438.115	4.08
438.474	4.28
438.833	4.04
439.192	4.21
439.551	4.19
439.91	4.02
440.269	4.13
440.628	4.08
440.987	3.97
441.345	4.02
441.704	3.99
442.063	4.06
442.421	4.04
442.78	4.06
443.138	4.06
443.497	4.01
443.855	4.06
444.214	4.16
444.572	4.07
444.93	4.07
445.288	4.09
445.647	4.14
446.005	4
446.363	4.04
446.721	3.92
447.079	4.03
447.437	4.03
447.795	3.99
448.153	3.92
448.51	3.99
448.868	4.1
449.226	4
449.584	3.99
449.941	4.14
450.299	4.15
450.656	4.08
451.014	4.07
451.371	4.15
451.729	4.14
452.086	4.07
452.443	4.09
452.801	4.28
453.158	4.06
453.515	4.07
453.872	4.23
454.229	3.96
454.586	4.09
454.943	4.12
455.3	4.24
455.657	4.09
456.014	4.24
456.371	4.17
456.727	4.08
457.084	4.15
457.441	4.22
457.797	4.22
458.154	4.07
458.51	3.95
458.867	4.04
459.223	4.18
459.58	4.16
459.936	4.15
460.292	4.19
460.648	4.09
461.005	4.03
461.361	4.09
461.717	4.05
462.073	4.13
462.429	4.08
462.785	4.15
463.141	4.15
463.496	4.18
463.852	4.26
464.208	4.29
464.564	4.11
464.919	4.19
465.275	4.15
465.631	4.13
465.986	4.23
466.342	4.17
466.697	4.14
467.052	4.23
467.408	4.2
467.763	4.11
468.118	4.27
468.473	4.23
468.829	4.29
469.184	4.43
469.539	4.08
469.894	4.21
470.249	4.32
470.603	4.42
470.958	4.18
471.313	4.15
471.668	4.3
472.023	4.42
472.377	4.1
472.732	4.25
473.086	4.08
473.441	4.38
473.795	4.27
474.15	4.25
474.504	4.28
474.859	4.26
475.213	4.16
475.567	4.11
475.921	4.42
476.275	4.21
476.63	4.29
476.984	4.24
477.338	4.52
477.692	4.25
478.045	4.13
478.399	4.27
478.753	4.14
479.107	4.2
479.461	4.22
479.814	4.14
480.168	4.21
480.521	4.2
480.875	4.34
481.228	4.34
481.582	4.22
481.935	4.24
482.289	4.21
482.642	4.25
482.995	4.19
483.348	4.13
483.701	4.12
484.055	4.09
484.408	4.16
484.761	3.96
485.114	3.94
485.466	3.96
485.819	3.94
486.172	4
486.525	4.06
486.878	4.05
487.23	4.13
487.583	4.09
487.936	4.1
488.288	4.1
488.641	4.09
488.993	4.01
489.345	4.05
489.698	4.07
490.05	4.08
490.402	4.15
490.754	4.24
491.107	4.15
491.459	4.2
491.811	4.26
492.163	4.13
492.515	4.22
492.866	4.05
493.218	4.06
493.57	4.13
493.922	4.14
494.274	4.18
494.625	4.21
494.977	4.28
495.328	4.27
495.68	4.4
496.031	4.39
496.383	4.24
496.734	4.37
497.086	4.23
497.437	4.37
497.788	4.34
498.139	4.32
498.49	4.34
498.842	4.24
499.193	4.3
499.544	4.41
499.894	4.29
500.245	4.37
500.596	4.43
500.947	4.35
501.298	4.32
501.648	4.4
501.999	4.41
502.35	4.43
502.7	4.45
503.051	4.53
503.401	4.33
503.752	4.3
504.102	4.29
504.452	4.37
504.803	4.23
505.153	4.41
505.503	4.4
505.853	4.33
506.203	4.41
506.553	4.43
506.903	4.4
507.253	4.52
507.603	4.4
507.953	4.48
508.303	4.42
508.652	4.36
509.002	4.31
509.352	4.42
509.701	4.41
510.051	4.47
510.4	4.34
510.75	4.4
511.099	4.39
511.449	4.39
511.798	4.51
512.147	4.38
512.496	4.48
512.846	4.4
513.195	4.45
513.544	4.4
513.893	4.35
514.242	4.49
514.591	4.41
514.939	4.43
515.288	4.47
515.637	4.59
515.986	4.33
516.334	4.67
516.683	4.43
517.032	4.44
517.38	4.48
517.729	4.52
518.077	4.53
518.426	4.47
518.774	4.46
519.122	4.45
519.47	4.43
519.819	4.52
520.167	4.48
520.515	4.41
520.863	4.35
521.211	4.48
521.559	4.48
521.907	4.45
522.255	4.55
522.602	4.56
522.95	4.52
523.298	4.55
523.645	4.48
523.993	4.64
524.341	4.63
524.688	4.57
525.036	4.66
525.383	4.62
525.73	4.58
526.078	4.58
526.425	4.59
526.772	4.39
527.119	4.47
527.466	4.5
527.814	4.48
528.161	4.58
528.508	4.56
528.854	4.49
529.201	4.49
529.548	4.38
529.895	4.36
530.242	4.41
530.588	4.45
530.935	4.5
531.282	4.49
531.628	4.51
531.975	4.56
532.321	4.61
532.667	4.54
533.014	4.61
533.36	4.65
533.706	4.66
534.052	4.57
534.399	4.52
534.745	4.5
535.091	4.55
535.437	4.55
535.783	4.65
536.129	4.61
536.474	4.71
536.82	4.67
537.166	4.69
537.512	4.72
537.857	4.7
538.203	4.71
538.549	4.78
538.894	4.65
539.239	4.8
539.585	4.81
539.93	4.77
540.276	4.69
540.621	4.77
540.966	4.82
541.311	4.79
541.656	4.8
542.001	4.87
542.346	4.73
542.691	4.63
543.036	4.66
543.381	4.7
543.726	4.72
544.071	4.74
544.415	4.78
544.76	4.73
545.105	4.77
545.449	4.75
545.794	4.89
546.138	4.9
546.483	4.79
546.827	4.84
547.171	4.92
547.516	5.01
547.86	4.94
548.204	4.83
548.548	4.98
548.892	4.97
549.236	5.03
549.58	4.99
549.924	4.92
550.268	5.14
550.612	5.11
550.956	4.91
551.3	5.05
551.643	5.2
551.987	5.12
552.33	5.01
552.674	5.24
553.017	5.14
553.361	5.12
553.704	5.13
554.048	5.22
554.391	5.12
554.734	5.15
555.077	5.26
555.42	5.17
555.764	5.24
556.107	5.34
556.45	5.23
556.793	5.35
557.135	5.47
557.478	5.41
557.821	5.26
558.164	5.39
558.507	5.21
558.849	5.18
559.192	5.5
559.534	5.23
559.877	5.37
560.219	5.46
560.562	5.37
560.904	5.29
561.246	5.5
561.589	5.51
561.931	5.66
562.273	5.46
562.615	5.45
562.957	5.4
563.299	5.51
563.641	5.52
563.983	5.5
564.325	5.33
564.667	5.52
565.008	5.46
565.35	5.69
565.692	5.68
566.033	5.67
566.375	5.49
566.716	5.46
567.058	5.67
567.399	5.54
567.741	5.69
568.082	5.58
568.423	5.6
568.764	5.55
569.105	5.76
569.447	5.55
569.788	5.82
570.129	5.73
570.47	5.72
570.811	5.62
571.151	5.84
571.492	5.95
571.833	5.65
572.174	5.78
572.514	5.73
572.855	5.74
573.195	5.57
573.536	5.6
573.876	5.76
574.217	5.77
574.557	5.91
574.898	5.94
575.238	5.76
575.578	5.9
575.918	5.98
576.258	5.85
576.598	5.93
576.938	6.09
577.278	5.86
577.618	5.92
577.958	6.03
578.298	6.12
578.638	6.15
578.977	6.06
579.317	6.12
579.657	5.99
579.996	6.14
580.336	6.16
580.675	6.18
581.014	6.03
581.354	6.19
581.693	6.26
582.032	6.08
582.372	6.04
582.711	6.17
583.05	6.37
583.389	6.4
583.728	6.38
584.067	6.43
584.406	6.48
584.745	6.31
585.083	6.49
585.422	6.24
585.761	6.18
586.1	6.65
586.438	6.64
586.777	6.32
587.115	6.51
587.454	6.28
587.792	6.31
588.13	6.72
588.469	6.82
588.807	6.67
589.145	6.52
589.483	6.64
589.821	6.5
590.159	6.46
590.497	6.48
590.835	6.34
591.173	6.73
591.511	6.84
591.849	6.62
592.187	6.79
592.524	6.57
592.862	6.59
593.2	6.61
593.537	6.62
593.875	6.8
594.212	6.78
594.55	6.71
594.887	7.1
595.224	6.71
595.561	6.83
595.899	6.93
596.236	6.96
596.573	6.83
596.91	6.82
597.247	6.94
597.584	6.91
597.921	6.88
598.258	6.86
598.594	6.67
598.931	6.93
599.268	6.97
599.604	7.14
599.941	7.03
600.277	7.08
600.614	7.16
600.95	7.22
601.287	7.18
601.623	7.36
601.959	7.37
602.296	7.15
602.632	7.5
602.968	7.35
603.304	7.17
603.64	7.31
603.976	7.16
604.312	7.37
604.648	7.15
604.984	7.2
605.319	7.42
605.655	7.43
605.991	7.31
606.326	7.22
606.662	7.36
606.998	7.37
607.333	7.42
607.668	7.48
608.004	7.29
608.339	7.4
608.674	7.41
609.01	7.59
609.345	7.77
609.68	7.24
610.015	7.54
610.35	7.59
610.685	7.48
611.02	7.77
611.355	7.64
611.689	7.49
612.024	7.88
612.359	7.95
612.694	7.64
613.028	8.14
613.363	7.64
613.697	7.92
614.032	7.75
614.366	8.02
614.7	8.16
615.035	7.89
615.369	8.05
615.703	8.38
616.037	8.01
616.371	8.05
616.705	7.88
617.039	8.46
617.373	7.85
617.707	7.85
618.041	8.4
618.375	8.22
618.709	8.26
619.042	8.11
619.376	8.12
619.71	8.07
620.043	7.95
620.377	8.25
620.71	8.14
621.043	8.01
621.377	8.17
621.71	8.71
622.043	8.36
622.376	8.29
622.709	8.41
623.043	8.44
623.376	8.45
623.709	8.67
624.041	8.5
624.374	8.28
624.707	8.56
625.04	8.71
625.373	8.31
625.705	8.29
626.038	8.34
626.37	8.63
626.703	8.41
627.035	8.99
627.368	8.9
627.7	8.75
628.032	8.65
628.365	8.65
628.697	8.65
629.029	8.92
629.361	8.69
629.693	8.96
630.025	8.72
630.357	8.55
630.689	9.12
631.021	8.84
631.353	9.23
631.684	9.08
632.016	8.74
632.348	9.07
632.679	8.82
633.011	8.77
633.342	8.83
633.674	9.03
634.005	9.29
634.336	8.8
634.668	8.8
634.999	8.62
635.33	8.99
635.661	9.11
635.992	9.17
636.323	9.19
636.654	9.06
636.985	9.19
637.316	9.41
637.647	9.77
637.977	8.9
638.308	9.29
638.639	9.12
638.969	9.15
639.3	9.48
639.63	8.87
639.961	9.25
640.291	9.62
640.622	9.89
640.952	9.67
641.282	9.17
641.612	9.22
641.943	9.91
642.273	9.42
642.603	9.63
642.933	9.43
643.263	9.86
643.592	9.51
643.922	9.87
644.252	9.85
644.582	9.62
644.911	9.49
645.241	9.19
645.571	9.96
645.9	10.16
646.23	9.69
646.559	10.04
646.888	9.55
647.218	9.78
647.547	9.95
647.876	10.05
648.205	9.63
648.534	9.64
648.863	10.14
649.192	9.98
649.521	9.84
649.85	10.29
650.179	9.91
650.508	10.32
650.837	10.13
651.165	10.09
651.494	10.08
651.822	10.22
652.151	10.72
652.479	10.75
652.808	9.6
653.136	10.2
653.465	10.3
653.793	10.38
654.121	10.44
654.449	10.48
654.777	10.72
655.105	10.52
655.433	10.74
655.761	10.6
656.089	10.38
656.417	9.99
656.745	10.9
657.073	10.72
657.4	10.28
657.728	10.43
658.056	10.47
658.383	10.76
658.711	10.84
659.038	10.8
659.365	10.73
659.693	10.61
660.02	10.57
660.347	10.72
660.674	10.41
661.001	10.46
661.329	10.99
661.656	10.46
661.982	10.72
662.309	11.02
662.636	10.72
662.963	10.94
663.29	10.73
663.616	11.21
663.943	10.76
664.27	10.96
664.596	10.94
664.923	11.44
665.249	10.92
665.576	11.42
665.902	11
666.228	10.56
666.554	10.76
666.881	11.5
667.207	10.77
667.533	11.42
667.859	11.43
668.185	11.42
668.511	11.08
668.837	11.19
669.162	11.55
669.488	10.94
669.814	11.39
670.139	12.02
670.465	11.79
670.791	11.62
671.116	11.09
671.442	11.17
671.767	11.84
672.092	12.04
672.418	11.53
672.743	11.72
673.068	10.99
673.393	11.99
673.718	11.69
674.043	11.45
674.368	11.73
674.693	11.63
675.018	11.8
675.343	12.16
675.667	11.89
675.992	11.08
676.317	11.96
676.641	11.74
676.966	11.63
677.29	12.04
677.615	11.78
677.939	12.08
678.264	12.02
678.588	12.33
678.912	12.27
679.236	12.63
679.56	11.43
679.885	12.17
680.209	11.98
680.532	11.92
680.856	12.79
681.18	12.33
681.504	11.98
681.828	12.1
682.152	12.64
682.475	12.48
682.799	12
683.122	11.91
683.446	12.54
683.769	12.33
684.093	13.08
684.416	12.42
684.739	12.55
685.062	12.94
685.386	12.3
685.709	13.07
686.032	13.35
686.355	12.31
686.678	12.58
687.001	12.2
687.324	12.04
687.646	11.87
687.969	12.61
688.292	13.08
688.614	12.95
688.937	12.68
689.26	12.7
689.582	12.22
689.904	12.81
