Data from 0053_crown_Reflection__2__54.txt Node

Date: Fri Dec 16 14:19:25 CST 2022
User: ToomeyLab
Spectrometer: FLMS14357
Trigger mode: 0
Integration Time (sec): 1.000000E-2
Scans to average: 100
Electric dark correction enabled: true
Nonlinearity correction enabled: false
Boxcar width: 0
XAxis mode: Wavelengths
Number of Pixels in Spectrum: 2048
>>>>>Begin Spectral Data<<<<<
189.047	78.32
189.435	78.32
189.823	78.32
190.211	490.22
190.599	-41.72
190.987	-2082.25
191.375	156.3
191.763	160.88
192.151	-60.94
192.538	92.1
192.926	175.64
193.314	98.92
193.702	-188
194.089	-13.27
194.477	7300
194.864	-375.19
195.252	59.91
195.639	144.31
196.027	-26.37
196.414	48.9
196.801	120.83
197.189	144.61
197.576	-329.91
197.963	351.75
198.351	52.2
198.738	-19.83
199.125	22.97
199.512	-18.97
199.899	-10.95
200.286	-77.58
200.673	35.67
201.06	26.3
201.447	11.29
201.833	15.14
202.22	50.33
202.607	-68.59
202.994	39.43
203.38	3.8
203.767	-20.5
204.154	-42.41
204.54	54.17
204.927	2.46
205.313	9.27
205.699	-23.15
206.086	-19.46
206.472	-28.77
206.858	5.11
207.245	40.71
207.631	-14.91
208.017	20.76
208.403	26.65
208.789	7.83
209.175	34.47
209.561	4.59
209.947	5.01
210.333	6.3
210.719	4.06
211.105	-8.1
211.491	24.11
211.876	7.95
212.262	-3.15
212.648	-16.34
213.034	24.19
213.419	24.77
213.805	20.08
214.19	29.69
214.576	-19.34
214.961	-26.68
215.346	-18.39
215.732	-3.5
216.117	1.24
216.502	-18.35
216.888	-23.21
217.273	15.13
217.658	-11.57
218.043	23.33
218.428	-11.39
218.813	-17.73
219.198	-13.43
219.583	0.13
219.968	4.2
220.353	14.4
220.738	0.37
221.122	4.73
221.507	13.47
221.892	0.9
222.276	16.61
222.661	-0.05
223.046	6.04
223.43	7.33
223.815	-6.6
224.199	4.14
224.583	2.79
224.968	1.46
225.352	-2.99
225.736	3.03
226.121	-3.32
226.505	7.73
226.889	12.72
227.273	6.7
227.657	5.08
228.041	8.66
228.425	8.62
228.809	7.69
229.193	3.71
229.577	5.41
229.961	6.37
230.344	6.74
230.728	6.78
231.112	6.22
231.495	6.94
231.879	6.29
232.263	6.25
232.646	5.9
233.03	3.65
233.413	4.12
233.797	8.74
234.18	3.81
234.563	6.2
234.946	5.5
235.33	4.63
235.713	5.64
236.096	4.98
236.479	6.52
236.862	7.35
237.245	6.67
237.628	6.76
238.011	6.71
238.394	8.1
238.777	5.61
239.16	4.91
239.543	5.84
239.925	7.22
240.308	6.57
240.691	5.5
241.073	7.23
241.456	5.98
241.838	5.75
242.221	6.33
242.603	6.2
242.986	6.98
243.368	6.34
243.75	5.49
244.133	5.77
244.515	5.93
244.897	6.15
245.279	5.7
245.661	5.53
246.043	5.67
246.425	5.51
246.807	5.78
247.189	5.95
247.571	6.09
247.953	5.77
248.335	5.87
248.717	5.6
249.098	5.67
249.48	5.28
249.862	5.96
250.243	5.68
250.625	5.48
251.006	5.89
251.388	6.54
251.769	6.85
252.151	5.59
252.532	5.89
252.913	5.95
253.295	5.35
253.676	5.65
254.057	5.08
254.438	4.69
254.819	4.91
255.2	5.38
255.581	5.37
255.962	4.86
256.343	6.71
256.724	4.98
257.105	5.42
257.486	5.36
257.867	4.5
258.247	6.1
258.628	5.8
259.009	4.86
259.389	5.34
259.77	5.02
260.15	5.89
260.531	5.25
260.911	5.34
261.292	5.13
261.672	5.23
262.052	4.94
262.432	4.83
262.813	5.57
263.193	4.83
263.573	5.16
263.953	5.39
264.333	5.09
264.713	5.22
265.093	5.06
265.473	5.07
265.853	4.85
266.233	5.02
266.612	4.94
266.992	4.74
267.372	4.74
267.752	5
268.131	5.21
268.511	5.3
268.89	5.14
269.27	5.27
269.649	5.15
270.029	4.48
270.408	4.65
270.787	5.16
271.167	5.04
271.546	4.14
271.925	5.31
272.304	4.94
272.683	4.5
273.062	5.04
273.441	5.06
273.82	5.39
274.199	4.98
274.578	4.74
274.957	4.78
275.336	4.29
275.715	4.85
276.093	5.36
276.472	5.06
276.851	5.06
277.229	5.15
277.608	4.61
277.986	4.87
278.365	4.47
278.743	5
279.122	4.72
279.5	4.75
279.878	4.21
280.257	5.18
280.635	4.6
281.013	4.95
281.391	4.21
281.769	4.79
282.147	4.78
282.525	4.46
282.903	4.53
283.281	4.61
283.659	4.83
284.037	4.85
284.415	4.88
284.792	4.66
285.17	4.33
285.548	4.66
285.925	4.7
286.303	4.52
286.68	4.69
287.058	4.61
287.435	4.74
287.813	4.55
288.19	4.79
288.567	4.5
288.945	4.54
289.322	4.07
289.699	4.6
290.076	4.75
290.453	4.65
290.83	5.12
291.207	4.4
291.584	4.24
291.961	4.63
292.338	4.67
292.715	4.38
293.092	4.4
293.469	4.67
293.845	4.32
294.222	4.55
294.599	5.09
294.975	4.6
295.352	4.32
295.728	4.76
296.105	4.3
296.481	4.89
296.858	4.27
297.234	4.64
297.61	4.54
297.986	4.43
298.363	4.13
298.739	4.56
299.115	3.97
299.491	4.36
299.867	4.43
300.243	4.31
300.619	4.4
300.995	4.35
301.371	4.2
301.746	4.04
302.122	4.81
302.498	4.56
302.874	4.5
303.249	4.32
303.625	4.33
304	4.22
304.376	4.77
304.751	4.21
305.127	3.7
305.502	4.26
305.878	4.34
306.253	4.25
306.628	4.36
307.003	4.46
307.378	4.18
307.754	4.61
308.129	3.67
308.504	4.36
308.879	4.11
309.254	4.59
309.629	4.5
310.003	4.09
310.378	4.14
310.753	4.23
311.128	4.38
311.502	4.17
311.877	4.33
312.252	3.92
312.626	3.76
313.001	4.23
313.375	4.27
313.75	4.07
314.124	4.53
314.498	3.87
314.873	4.11
315.247	3.58
315.621	4.32
315.995	4.23
316.369	4.27
316.743	4.53
317.117	4.25
317.491	4.28
317.865	3.62
318.239	5.2
318.613	3.95
318.987	4.49
319.361	4.2
319.734	4.35
320.108	4.01
320.482	3.84
320.855	4.07
321.229	4.54
321.602	4.29
321.976	3.58
322.349	3.29
322.723	3.65
323.096	3.66
323.469	4.05
323.843	3.82
324.216	3.79
324.589	4.38
324.962	3.92
325.335	4.08
325.708	4.29
326.081	4.73
326.454	4.06
326.827	4.16
327.2	4.66
327.573	4.47
327.945	3.86
328.318	4.23
328.691	4.35
329.063	4.02
329.436	4.2
329.809	4.63
330.181	4.34
330.553	4.31
330.926	4.65
331.298	4.03
331.671	3.75
332.043	4.39
332.415	4.24
332.787	4.8
333.159	4.23
333.532	4.07
333.904	4.45
334.276	4.33
334.648	4.51
335.02	3.96
335.391	3.91
335.763	3.82
336.135	4.37
336.507	4.39
336.879	4.1
337.25	4.11
337.622	4.46
337.993	4.14
338.365	4.04
338.736	4.05
339.108	4.18
339.479	4.47
339.851	4.65
340.222	4.33
340.593	3.89
340.964	4.28
341.336	4.12
341.707	3.91
342.078	3.79
342.449	4.49
342.82	4.03
343.191	4.03
343.562	4.11
343.933	4.3
344.303	4.28
344.674	4.25
345.045	4.34
345.416	4.12
345.786	4.02
346.157	4.27
346.527	3.91
346.898	4.24
347.268	3.97
347.639	4.16
348.009	4.1
348.38	4.39
348.75	4.29
349.12	4.16
349.49	4.18
349.861	4.61
350.231	4.37
350.601	4.25
350.971	4.23
351.341	4.37
351.711	4.2
352.081	4.39
352.45	4.31
352.82	4.5
353.19	4.29
353.56	3.89
353.929	4.21
354.299	4.37
354.669	4.26
355.038	4.37
355.408	4.7
355.777	4.47
356.147	4.28
356.516	4.83
356.885	4.4
357.254	4.66
357.624	4.43
357.993	4.39
358.362	4.49
358.731	4.63
359.1	4.63
359.469	4.49
359.838	4.38
360.207	4.38
360.576	4.64
360.945	4.41
361.314	4.8
361.682	4.38
362.051	4.29
362.42	4.78
362.788	4.7
363.157	4.6
363.525	4.25
363.894	4.04
364.262	4.37
364.631	5.3
364.999	4.45
365.367	4.7
365.735	4.26
366.104	4.29
366.472	4.64
366.84	4.67
367.208	4.14
367.576	4.44
367.944	4.7
368.312	4.25
368.68	4.74
369.048	4.8
369.416	4.71
369.783	4.91
370.151	4.56
370.519	4.36
370.886	4.45
371.254	4.67
371.621	4.14
371.989	4.61
372.356	4.52
372.724	4.83
373.091	4.89
373.458	4.7
373.826	4.58
374.193	4.79
374.56	4.69
374.927	4.38
375.294	4.85
375.661	4.72
376.028	4.73
376.395	4.47
376.762	4.99
377.129	4.79
377.496	4.61
377.863	4.65
378.229	4.54
378.596	4.67
378.963	4.57
379.329	4.41
379.696	4.56
380.062	4.73
380.429	4.71
380.795	4.42
381.161	4.65
381.528	4.43
381.894	4.67
382.26	4.57
382.626	4.48
382.993	4.51
383.359	4.58
383.725	4.9
384.091	5.03
384.457	4.88
384.823	4.78
385.188	4.82
385.554	4.52
385.92	5.1
386.286	4.92
386.651	4.81
387.017	4.83
387.383	5
387.748	4.75
388.114	4.81
388.479	4.87
388.845	4.85
389.21	4.88
389.575	4.86
389.94	4.87
390.306	4.92
390.671	4.92
391.036	5
391.401	5.36
391.766	5.01
392.131	4.89
392.496	4.71
392.861	4.79
393.226	4.94
393.591	4.97
393.956	5.04
394.32	4.76
394.685	4.84
395.05	4.87
395.414	4.97
395.779	4.81
396.143	4.9
396.508	5
396.872	5.08
397.236	4.56
397.601	5.02
397.965	4.74
398.329	4.77
398.694	4.87
399.058	4.98
399.422	5.09
399.786	5.03
400.15	4.88
400.514	5.09
400.878	4.95
401.242	5.18
401.605	4.86
401.969	4.93
402.333	4.83
402.697	5.02
403.06	5.06
403.424	4.88
403.787	5.13
404.151	4.82
404.514	4.94
404.878	5.07
405.241	5.07
405.604	5.05
405.968	4.97
406.331	4.89
406.694	4.91
407.057	5.04
407.42	4.89
407.783	5.05
408.146	4.9
408.509	5.06
408.872	4.71
409.235	5.04
409.598	5.29
409.961	5.24
410.323	5.15
410.686	5.17
411.049	4.88
411.411	5.07
411.774	5.1
412.136	5.01
412.499	4.99
412.861	4.88
413.223	5.24
413.586	4.93
413.948	5.07
414.31	5.04
414.672	4.98
415.035	5.21
415.397	5.07
415.759	5.01
416.121	5.53
416.483	5.36
416.845	5.11
417.206	5.21
417.568	5.17
417.93	5.12
418.292	5.03
418.653	4.97
419.015	5.32
419.377	5.1
419.738	5.09
420.1	5.14
420.461	5.02
420.822	5.17
421.184	4.94
421.545	5.03
421.906	5
422.267	4.94
422.629	4.97
422.99	4.93
423.351	4.98
423.712	4.96
424.073	4.97
424.434	5.05
424.795	4.91
425.155	4.99
425.516	5.06
425.877	5.01
426.238	4.93
426.598	5.03
426.959	4.95
427.32	5.06
427.68	5.04
428.041	5.05
428.401	5.03
428.761	5.14
429.122	4.98
429.482	4.89
429.842	5.16
430.202	5.07
430.563	5.07
430.923	5.17
431.283	5.3
431.643	5.05
432.003	5.24
432.363	5.17
432.722	5.09
433.082	5.08
433.442	5.06
433.802	5.16
434.161	5.07
434.521	5.13
434.881	5.16
435.24	5.03
435.6	5.11
435.959	5.14
436.319	5.04
436.678	5.09
437.037	5.16
437.396	5.16
437.756	5.15
438.115	5.11
438.474	5.31
438.833	5.23
439.192	5.16
439.551	5.26
439.91	5.29
440.269	5.24
440.628	5.23
440.987	4.99
441.345	5.04
441.704	5.2
442.063	5.18
442.421	5.13
442.78	5.08
443.138	5.07
443.497	5.05
443.855	5.13
444.214	5.18
444.572	5.17
444.93	5.21
445.288	5.17
445.647	5.33
446.005	5.01
446.363	5.23
446.721	5.11
447.079	5.08
447.437	5.1
447.795	5.07
448.153	5.01
448.51	5.06
448.868	5.08
449.226	5.15
449.584	5.16
449.941	5.16
450.299	5.09
450.656	5.18
451.014	5.24
451.371	5.18
451.729	5.16
452.086	5.09
452.443	5.12
452.801	5.18
453.158	5.18
453.515	5.16
453.872	5.32
454.229	5.21
454.586	5.17
454.943	5.04
455.3	5.29
455.657	5.09
456.014	5.18
456.371	5.35
456.727	5.21
457.084	5.17
457.441	5.11
457.797	5.13
458.154	5.24
458.51	5.08
458.867	5.03
459.223	5.22
459.58	5.26
459.936	5.17
460.292	5.19
460.648	5.09
461.005	4.99
461.361	5.1
461.717	5.1
462.073	5.01
462.429	5.15
462.785	5.2
463.141	5.23
463.496	5.07
463.852	5.25
464.208	5.25
464.564	5.01
464.919	5.07
465.275	5.22
465.631	5.25
465.986	5.03
466.342	5.16
466.697	5.41
467.052	5.21
467.408	5.17
467.763	5.18
468.118	5.2
468.473	5.14
468.829	5.1
469.184	5.23
469.539	5.08
469.894	5.43
470.249	5.07
470.603	5.19
470.958	5.39
471.313	5.2
471.668	5.26
472.023	5.24
472.377	5.13
472.732	5.17
473.086	5.2
473.441	5.11
473.795	5.26
474.15	5.08
474.504	5.17
474.859	5.2
475.213	5.17
475.567	5.24
475.921	5.34
476.275	5.29
476.63	5.16
476.984	5.05
477.338	5.31
477.692	5.21
478.045	5.21
478.399	5.21
478.753	5.13
479.107	5.09
479.461	5.27
479.814	5.19
480.168	5.22
480.521	5.1
480.875	5.29
481.228	5.26
481.582	5.15
481.935	5.22
482.289	5.22
482.642	5.23
482.995	5.12
483.348	5.1
483.701	5.13
484.055	5.07
484.408	5.07
484.761	4.97
485.114	4.91
485.466	4.92
485.819	4.86
486.172	4.87
486.525	4.9
486.878	4.93
487.23	5.03
487.583	5.05
487.936	5.1
488.288	5.04
488.641	5
488.993	4.93
489.345	4.9
489.698	4.95
490.05	4.91
490.402	5.03
490.754	5.07
491.107	5.03
491.459	5.12
491.811	5.24
492.163	5.16
492.515	5.08
492.866	4.99
493.218	4.99
493.57	4.97
493.922	4.88
494.274	5
494.625	5.05
494.977	5.09
495.328	5.26
495.68	5.2
496.031	5.1
496.383	5.18
496.734	5.14
497.086	5.18
497.437	5.29
497.788	5.14
498.139	5.22
498.49	5.21
498.842	5.12
499.193	5.22
499.544	5.23
499.894	5.18
500.245	5.14
500.596	5.17
500.947	5.01
501.298	5.2
501.648	5.16
501.999	5.36
502.35	5.3
502.7	5.23
503.051	5.25
503.401	5.28
503.752	5.12
504.102	5.14
504.452	5.09
504.803	4.99
505.153	5.22
505.503	5.25
505.853	5.18
506.203	5.21
506.553	5.22
506.903	5.16
507.253	5.16
507.603	5.17
507.953	5.26
508.303	5.19
508.652	5.22
509.002	5.18
509.352	5.19
509.701	5.13
510.051	5.18
510.4	5.08
510.75	5.15
511.099	5.15
511.449	5.14
511.798	5.18
512.147	5.14
512.496	5.24
512.846	5.12
513.195	5.24
513.544	5.15
513.893	5.07
514.242	5.25
514.591	5.24
514.939	5.13
515.288	5.21
515.637	5.21
515.986	5.14
516.334	5.31
516.683	5.27
517.032	5.14
517.38	5.24
517.729	5.11
518.077	5.27
518.426	5.12
518.774	5.19
519.122	5.15
519.47	5.17
519.819	5.19
520.167	5.19
520.515	5.03
520.863	5.07
521.211	5.09
521.559	5.12
521.907	5.12
522.255	5.17
522.602	5.16
522.95	5.19
523.298	5.17
523.645	5.18
523.993	5.3
524.341	5.17
524.688	5.2
525.036	5.36
525.383	5.37
525.73	5.19
526.078	5.31
526.425	5.17
526.772	5.03
527.119	5.13
527.466	5.14
527.814	5.1
528.161	5.16
528.508	5.12
528.854	5.1
529.201	5.16
529.548	5.04
529.895	5
530.242	5
530.588	4.98
530.935	4.95
531.282	5.01
531.628	5.03
531.975	5.08
532.321	5.17
532.667	5.13
533.014	5.2
533.36	5.17
533.706	5.18
534.052	5.1
534.399	5.07
534.745	5.02
535.091	5.05
535.437	5.04
535.783	5.15
536.129	5.13
536.474	5.2
536.82	5.16
537.166	5.14
537.512	5.15
537.857	5.26
538.203	5.21
538.549	5.15
538.894	5.1
539.239	5.27
539.585	5.19
539.93	5.34
540.276	5.14
540.621	5.24
540.966	5.21
541.311	5.29
541.656	5.17
542.001	5.28
542.346	5.15
542.691	5.07
543.036	5.05
543.381	5.11
543.726	5.07
544.071	5.11
544.415	5.12
544.76	5.06
545.105	5.17
545.449	5.04
545.794	5.18
546.138	5.17
546.483	5.13
546.827	5.2
547.171	5.18
547.516	5.25
547.86	5.21
548.204	5.1
548.548	5.2
548.892	5.13
549.236	5.24
549.58	5.21
549.924	5.15
550.268	5.28
550.612	5.28
550.956	5.24
551.3	5.2
551.643	5.21
551.987	5.33
552.33	5.17
552.674	5.33
553.017	5.38
553.361	5.33
553.704	5.18
554.048	5.28
554.391	5.3
554.734	5.33
555.077	5.28
555.42	5.17
555.764	5.26
556.107	5.41
556.45	5.23
556.793	5.39
557.135	5.44
557.478	5.42
557.821	5.09
558.164	5.34
558.507	5.2
558.849	5.33
559.192	5.35
559.534	5.1
559.877	5.42
560.219	5.38
560.562	5.33
560.904	5.33
561.246	5.37
561.589	5.3
561.931	5.36
562.273	5.37
562.615	5.33
562.957	5.49
563.299	5.38
563.641	5.42
563.983	5.29
564.325	5.13
564.667	5.17
565.008	5.24
565.35	5.44
565.692	5.47
566.033	5.33
566.375	5.21
566.716	5.38
567.058	5.29
567.399	5.35
567.741	5.42
568.082	5.22
568.423	5.3
568.764	5.23
569.105	5.34
569.447	5.26
569.788	5.43
570.129	5.32
570.47	5.34
570.811	5.42
571.151	5.34
571.492	5.45
571.833	5.38
572.174	5.33
572.514	5.07
572.855	5.46
573.195	5.29
573.536	5.3
573.876	5.18
574.217	5.31
574.557	5.52
574.898	5.28
575.238	5.15
575.578	5.4
575.918	5.34
576.258	5.32
576.598	5.38
576.938	5.49
577.278	5.3
577.618	5.29
577.958	5.37
578.298	5.33
578.638	5.22
578.977	5.42
579.317	5.65
579.657	5.41
579.996	5.22
580.336	5.3
580.675	5.37
581.014	5.31
581.354	5.39
581.693	5.32
582.032	5.19
582.372	5.39
582.711	5.09
583.05	5.49
583.389	5.41
583.728	5.41
584.067	5.31
584.406	5.49
584.745	5.38
585.083	5.56
585.422	5.5
585.761	5.5
586.1	5.45
586.438	5.37
586.777	5.45
587.115	5.43
587.454	5.33
587.792	5.36
588.13	5.44
588.469	5.55
588.807	5.69
589.145	5.52
589.483	5.48
589.821	5.38
590.159	5.49
590.497	5.2
590.835	5.34
591.173	5.56
591.511	5.34
591.849	5.25
592.187	5.27
592.524	5.41
592.862	5.37
593.2	5.26
593.537	5.35
593.875	5.25
594.212	5.39
594.55	5.58
594.887	5.54
595.224	5.29
595.561	5.41
595.899	5.3
596.236	5.18
596.573	5.4
596.91	5.25
597.247	5.24
597.584	5.32
597.921	5.35
598.258	5.36
598.594	5.28
598.931	5.37
599.268	5.25
599.604	5.41
599.941	5.23
600.277	5.33
600.614	5.32
600.95	5.4
601.287	5.17
601.623	5.54
601.959	5.15
602.296	5.51
602.632	5.64
602.968	5.44
603.304	5.36
603.64	5.32
603.976	5.28
604.312	5.3
604.648	5.43
604.984	5.29
605.319	5.42
605.655	5.21
605.991	5.3
606.326	5.43
606.662	5.25
606.998	5.4
607.333	5.16
607.668	5.36
608.004	5.05
608.339	5.36
608.674	5.14
609.01	5.43
609.345	5.4
609.68	5.27
610.015	5.28
610.35	5.32
610.685	5.41
611.02	5.42
611.355	5.44
611.689	5.15
612.024	5.42
612.359	5.29
612.694	5.4
613.028	5.37
613.363	5.29
613.697	5.35
614.032	5.46
614.366	5.35
614.7	5.47
615.035	5.38
615.369	5.38
615.703	5.66
616.037	5.45
616.371	5.3
616.705	5.39
617.039	5.52
617.373	5.26
617.707	5.25
618.041	5.5
618.375	5.27
618.709	5.57
619.042	5.27
619.376	5.11
619.71	5.2
620.043	5.14
620.377	5.44
620.71	5.3
621.043	5.18
621.377	5.16
621.71	5.4
622.043	5.5
622.376	5.07
622.709	5.76
623.043	5.39
623.376	5.43
623.709	5.39
624.041	5.45
624.374	5.39
624.707	4.73
625.04	5.87
625.373	5.19
625.705	5.22
626.038	5.45
626.37	5.44
626.703	5.4
627.035	5.33
627.368	5.24
627.7	5.63
628.032	5.41
628.365	5.3
628.697	5.15
629.029	5.6
629.361	5.48
629.693	5.72
630.025	5.27
630.357	5.17
630.689	5.65
631.021	5.59
631.353	5.6
631.684	5.09
632.016	5.19
632.348	5.45
632.679	5.3
633.011	5.11
633.342	5.66
633.674	5.44
634.005	5.24
634.336	5.38
634.668	5.41
634.999	5.35
635.33	5.61
635.661	5.42
635.992	5.41
636.323	5.31
636.654	5.74
636.985	5.22
637.316	5.34
637.647	5.13
637.977	5.47
638.308	5.15
638.639	5.44
638.969	5.38
639.3	5.43
639.63	5.44
639.961	5.21
640.291	5.98
640.622	5.59
640.952	5.34
641.282	5.19
641.612	5.48
641.943	5.54
642.273	5.4
642.603	5.64
642.933	5.04
643.263	5.63
643.592	5.42
643.922	5.41
644.252	5.64
644.582	5.05
644.911	5.44
645.241	5.29
645.571	5.74
645.9	5.68
646.23	5.15
646.559	5.89
646.888	4.82
647.218	5.51
647.547	5.77
647.876	5.68
648.205	5.24
648.534	5.66
648.863	5.62
649.192	5.05
649.521	5.18
649.85	5.73
650.179	5.37
650.508	5.65
650.837	5.74
651.165	5.91
651.494	5.64
651.822	5.75
652.151	6.03
652.479	6.13
652.808	5.52
653.136	5.42
653.465	5.59
653.793	5.8
654.121	5.66
654.449	5.55
654.777	5.44
655.105	5.69
655.433	5.73
655.761	4.98
656.089	5.61
656.417	5.69
656.745	5.78
657.073	5.59
657.4	5.6
657.728	5.44
658.056	5.43
658.383	5.7
658.711	5.34
659.038	6.1
659.365	5.58
659.693	5.49
660.02	4.93
660.347	5.5
660.674	5.46
661.001	5.11
661.329	5.55
661.656	5.61
661.982	5.32
662.309	5.59
662.636	5.48
662.963	5.62
663.29	5.46
663.616	5.52
663.943	5.77
664.27	5.9
664.596	5.28
664.923	5.83
665.249	5.21
665.576	5.65
665.902	5.66
666.228	5.46
666.554	5.3
666.881	5.45
667.207	5.63
667.533	6.03
667.859	5.33
668.185	5.93
668.511	4.92
668.837	5.42
669.162	5.63
669.488	5.7
669.814	6.39
670.139	5.98
670.465	5.76
670.791	6.1
671.116	5.59
671.442	5.53
671.767	5.11
672.092	5.83
672.418	5.42
672.743	5.68
673.068	5.56
673.393	6.02
673.718	5.09
674.043	5.56
674.368	5.78
674.693	5.94
675.018	5.99
675.343	5.8
675.667	6.04
675.992	5.66
676.317	5.71
676.641	5.7
676.966	5.89
677.29	5.86
677.615	5.45
677.939	5.11
678.264	5.81
678.588	5.69
678.912	5.92
679.236	6.13
679.56	5.19
679.885	5.55
680.209	5.06
680.532	5.79
680.856	5.75
681.18	5.49
681.504	5.26
681.828	5.52
682.152	6.02
682.475	5.75
682.799	6.19
683.122	5.85
683.446	5.59
683.769	5.82
684.093	5.84
684.416	5.76
684.739	6.46
685.062	5.91
685.386	5.9
685.709	5.3
686.032	5.51
686.355	5.46
686.678	5.53
687.001	5.23
687.324	4.96
687.646	5.63
687.969	5.86
688.292	5.85
688.614	6.04
688.937	5.76
689.26	5.4
689.582	5.45
689.904	6.34
690.227	5.88
690.549	6.66
690.871	5.9
691.194	5.94
691.516	5.94
691.838	5.87
692.16	6.06
692.482	6.02
692.804	4.85
693.126	6.05
