Data from 0053_forehead_Reflection__0__57.txt Node

Date: Fri Dec 16 14:20:15 CST 2022
User: ToomeyLab
Spectrometer: FLMS14357
Trigger mode: 0
Integration Time (sec): 1.000000E-2
Scans to average: 100
Electric dark correction enabled: true
Nonlinearity correction enabled: false
Boxcar width: 0
XAxis mode: Wavelengths
Number of Pixels in Spectrum: 2048
>>>>>Begin Spectral Data<<<<<
189.047	51.95
189.435	51.95
189.823	51.95
190.211	721.87
190.599	-50.44
190.987	-223.08
191.375	-157.52
191.763	106.5
192.151	33
192.538	45.78
192.926	295.31
193.314	159.09
193.702	-1572
194.089	-45.86
194.477	-3620
194.864	236.84
195.252	-76.16
195.639	92.39
196.027	287.08
196.414	44.61
196.801	-31.94
197.189	167.67
197.576	-107.43
197.963	-120.78
198.351	41.56
198.738	11.98
199.125	67.65
199.512	4.65
199.899	10.78
200.286	11.49
200.673	58.45
201.06	76.19
201.447	43.64
201.833	11.85
202.22	48.71
202.607	-14.35
202.994	2.34
203.38	-25.88
203.767	50.88
204.154	31.52
204.54	32.73
204.927	6.04
205.313	42.93
205.699	2.33
206.086	3.41
206.472	26.25
206.858	65.78
207.245	65.84
207.631	5.34
208.017	75.12
208.403	26.1
208.789	7.67
209.175	55.21
209.561	-3.53
209.947	1.74
210.333	8.1
210.719	-12.74
211.105	-0.3
211.491	13.26
211.876	21.4
212.262	-11.27
212.648	-9.33
213.034	32.66
213.419	44.76
213.805	11.1
214.19	27.92
214.576	60.47
214.961	-2.83
215.346	-1.64
215.732	0.69
216.117	-13.69
216.502	-18.06
216.888	16.22
217.273	37.77
217.658	12.3
218.043	55.84
218.428	10.57
218.813	15.3
219.198	-1.27
219.583	25.18
219.968	27.34
220.353	13.51
220.738	5.26
221.122	7.7
221.507	20.27
221.892	-7.05
222.276	23.86
222.661	3.5
223.046	1.1
223.43	15.04
223.815	9.21
224.199	9.94
224.583	3.99
224.968	15.96
225.352	0.6
225.736	5.07
226.121	1.84
226.505	0.77
226.889	12.22
227.273	11.29
227.657	3.63
228.041	6.46
228.425	5.28
228.809	4.25
229.193	2.14
229.577	2.1
229.961	3.34
230.344	3.22
230.728	2.64
231.112	2.75
231.495	2.94
231.879	2.28
232.263	2.71
232.646	2.22
233.03	0.85
233.413	1.92
233.797	5.02
234.18	2.69
234.563	3.46
234.946	2.79
235.33	3.49
235.713	3.76
236.096	2.22
236.479	1.86
236.862	2.34
237.245	4.52
237.628	3.56
238.011	3.32
238.394	4.15
238.777	3.39
239.16	1.17
239.543	2.02
239.925	4.01
240.308	2.94
240.691	3.56
241.073	3.9
241.456	2.45
241.838	2.96
242.221	3.21
242.603	3.04
242.986	3.36
243.368	2.28
243.75	2.3
244.133	2.7
244.515	2.33
244.897	2.06
245.279	2.32
245.661	2.52
246.043	3.01
246.425	1.86
246.807	2.75
247.189	2.78
247.571	3.1
247.953	2.71
248.335	2.56
248.717	2.44
249.098	2.61
249.48	2.25
249.862	2.57
250.243	2.3
250.625	2.41
251.006	3.15
251.388	2.82
251.769	3.36
252.151	2.22
252.532	2.71
252.913	2.86
253.295	2.67
253.676	2.76
254.057	2.34
254.438	2.83
254.819	3.03
255.2	2.4
255.581	2.48
255.962	2.59
256.343	4.36
256.724	2.87
257.105	2.78
257.486	3.11
257.867	1.85
258.247	3.38
258.628	3.05
259.009	2.72
259.389	2.76
259.77	2.56
260.15	3.17
260.531	2.58
260.911	2.85
261.292	2.45
261.672	2.44
262.052	2.28
262.432	2.16
262.813	2.22
263.193	2.57
263.573	2.54
263.953	2.64
264.333	2.65
264.713	2.28
265.093	2.18
265.473	2.83
265.853	2.33
266.233	2.94
266.612	3.12
266.992	2.42
267.372	2.54
267.752	2.07
268.131	2.46
268.511	2.89
268.89	2.94
269.27	3.26
269.649	2.69
270.029	2.81
270.408	2.1
270.787	2.43
271.167	2.67
271.546	2.39
271.925	2.77
272.304	2.59
272.683	2.24
273.062	2.3
273.441	2.67
273.82	2.57
274.199	2.64
274.578	2.29
274.957	2.5
275.336	2.58
275.715	2.74
276.093	2.87
276.472	2.67
276.851	2.63
277.229	2.75
277.608	2.16
277.986	2.89
278.365	2.39
278.743	2.24
279.122	2.53
279.5	1.89
279.878	2.09
280.257	2.27
280.635	2.39
281.013	2.65
281.391	2.31
281.769	2.38
282.147	2.55
282.525	2.37
282.903	2.63
283.281	2.41
283.659	2.65
284.037	2.11
284.415	2.36
284.792	2.63
285.17	2.12
285.548	2.54
285.925	2.38
286.303	2.16
286.68	2.44
287.058	2.43
287.435	2.13
287.813	2.73
288.19	2.74
288.567	2.48
288.945	2.5
289.322	2.12
289.699	2.51
290.076	2.4
290.453	2.42
290.83	2.94
291.207	2.41
291.584	2.65
291.961	2.58
292.338	2.74
292.715	2.42
293.092	2.53
293.469	3.14
293.845	3.17
294.222	2.72
294.599	3.46
294.975	3.7
295.352	2.77
295.728	2.85
296.105	2.77
296.481	3.07
296.858	3.21
297.234	2.98
297.61	2.93
297.986	3.08
298.363	2.58
298.739	3.01
299.115	2.57
299.491	3.14
299.867	2.88
300.243	2.63
300.619	3
300.995	3.41
301.371	3.3
301.746	3.46
302.122	3.32
302.498	3.14
302.874	3.23
303.249	3.36
303.625	3.44
304	3.56
304.376	3.48
304.751	3.88
305.127	3.23
305.502	3.87
305.878	3.81
306.253	3.84
306.628	3.5
307.003	3.73
307.378	3.32
307.754	3.56
308.129	3.48
308.504	3.79
308.879	3.99
309.254	3.91
309.629	4.1
310.003	4.33
310.378	4.16
310.753	3.7
311.128	3.95
311.502	3.45
311.877	3.77
312.252	3.92
312.626	3.62
313.001	3.99
313.375	4.18
313.75	3.89
314.124	4.36
314.498	3.73
314.873	3.99
315.247	4.01
315.621	4.67
315.995	4.33
316.369	4.31
316.743	4.86
317.117	4.58
317.491	4.61
317.865	3.71
318.239	4.84
318.613	4.66
318.987	4.84
319.361	4.8
319.734	4.78
320.108	5.05
320.482	4.63
320.855	4.94
321.229	5.53
321.602	5.41
321.976	4.96
322.349	4.57
322.723	4.68
323.096	4.45
323.469	4.69
323.843	5.32
324.216	5
324.589	5.09
324.962	5.45
325.335	5.38
325.708	5.45
326.081	5.54
326.454	5.61
326.827	5.37
327.2	5.78
327.573	5.44
327.945	5.26
328.318	5.46
328.691	5.45
329.063	5.04
329.436	4.88
329.809	5.49
330.181	5.57
330.553	6.08
330.926	5.91
331.298	5.3
331.671	5.44
332.043	5.95
332.415	6.15
332.787	6.06
333.159	5.92
333.532	6.01
333.904	6
334.276	6.51
334.648	5.52
335.02	5.61
335.391	6.08
335.763	5.89
336.135	6.01
336.507	6.56
336.879	6.21
337.25	5.83
337.622	6.11
337.993	6.13
338.365	6.44
338.736	5.71
339.108	5.99
339.479	6.1
339.851	6.61
340.222	6.22
340.593	6.27
340.964	6.32
341.336	6.39
341.707	6.31
342.078	6.14
342.449	6.78
342.82	6.38
343.191	6.29
343.562	6.26
343.933	6.37
344.303	6.84
344.674	6.5
345.045	6.47
345.416	6.45
345.786	6.18
346.157	6.8
346.527	6.45
346.898	6.67
347.268	6.61
347.639	6.44
348.009	6.95
348.38	6.51
348.75	6.92
349.12	6.67
349.49	6.69
349.861	7.22
350.231	7.01
350.601	7.25
350.971	6.72
351.341	7.52
351.711	7.06
352.081	6.81
352.45	7.12
352.82	7.09
353.19	6.96
353.56	6.99
353.929	7.12
354.299	6.88
354.669	7.24
355.038	7.48
355.408	7.71
355.777	7.26
356.147	7.85
356.516	7.86
356.885	7.34
357.254	7.78
357.624	7.6
357.993	7.3
358.362	7.54
358.731	7.43
359.1	7.58
359.469	7.57
359.838	7.32
360.207	7.39
360.576	7.61
360.945	7.46
361.314	7.83
361.682	7.41
362.051	7.66
362.42	7.93
362.788	7.96
363.157	7.72
363.525	7.85
363.894	7.6
364.262	7.79
364.631	8.51
364.999	8.02
365.367	8.35
365.735	8.04
366.104	7.92
366.472	8.22
366.84	8.14
367.208	7.99
367.576	8.15
367.944	8.22
368.312	7.84
368.68	8.41
369.048	8.26
369.416	8.18
369.783	8.2
370.151	8.41
370.519	8.22
370.886	8.66
371.254	8.95
371.621	8.29
371.989	8.57
372.356	8.75
372.724	8.76
373.091	8.76
373.458	8.41
373.826	8.73
374.193	9
374.56	8.44
374.927	8.78
375.294	8.99
375.661	8.79
376.028	8.88
376.395	8.65
376.762	9.12
377.129	9.25
377.496	9.01
377.863	8.95
378.229	9.28
378.596	9.03
378.963	8.97
379.329	9.08
379.696	9.08
380.062	9.27
380.429	9.28
380.795	8.99
381.161	9.53
381.528	9.18
381.894	9.61
382.26	9.09
382.626	9.35
382.993	9.27
383.359	9.19
383.725	9.57
384.091	9.6
384.457	9.76
384.823	9.59
385.188	9.88
385.554	9.72
385.92	9.69
386.286	9.67
386.651	9.59
387.017	9.63
387.383	9.56
387.748	9.51
388.114	9.95
388.479	9.88
388.845	9.71
389.21	9.86
389.575	9.96
389.94	9.89
390.306	9.93
390.671	10.07
391.036	10.01
391.401	10.38
391.766	9.93
392.131	9.93
392.496	10.15
392.861	9.91
393.226	10.23
393.591	10.36
393.956	10.27
394.32	10.31
394.685	10.19
395.05	10.07
395.414	10.37
395.779	10.42
396.143	10.38
396.508	10.57
396.872	10.39
397.236	10.35
397.601	10.15
397.965	10.54
398.329	10.85
398.694	10.5
399.058	10.72
399.422	10.75
399.786	10.95
400.15	10.66
400.514	10.78
400.878	10.86
401.242	10.95
401.605	10.79
401.969	10.92
402.333	10.76
402.697	10.93
403.06	10.9
403.424	10.67
403.787	11.27
404.151	10.87
404.514	11.03
404.878	11.12
405.241	11.17
405.604	11.19
405.968	10.95
406.331	11.19
406.694	11.17
407.057	11.26
407.42	11.27
407.783	11.07
408.146	11.3
408.509	11.23
408.872	11.26
409.235	11.43
409.598	11.74
409.961	11.56
410.323	11.37
410.686	11.61
411.049	11.36
411.411	11.77
411.774	11.55
412.136	11.62
412.499	11.69
412.861	11.38
413.223	11.62
413.586	11.66
413.948	11.89
414.31	11.89
414.672	11.86
415.035	12.01
415.397	11.72
415.759	11.87
416.121	12.26
416.483	12.16
416.845	12.13
417.206	12.1
417.568	12.03
417.93	12.08
418.292	12.08
418.653	12.08
419.015	12.16
419.377	12.28
419.738	11.99
420.1	12.06
420.461	11.92
420.822	11.99
421.184	12.01
421.545	12.16
421.906	12.17
422.267	12.09
422.629	12.14
422.99	12.04
423.351	12.04
423.712	12.21
424.073	12.33
424.434	12.16
424.795	12.16
425.155	12.33
425.516	12.32
425.877	12.33
426.238	12.25
426.598	12.29
426.959	12.39
427.32	12.52
427.68	12.56
428.041	12.56
428.401	12.45
428.761	12.65
429.122	12.67
429.482	12.71
429.842	12.67
430.202	12.8
430.563	12.88
430.923	12.87
431.283	12.99
431.643	12.8
432.003	13.15
432.363	13.09
432.722	13.08
433.082	13.01
433.442	13.1
433.802	13.2
434.161	13.25
434.521	13.14
434.881	13.25
435.24	13.14
435.6	13.06
435.959	13.1
436.319	13.08
436.678	13.32
437.037	13.55
437.396	13.41
437.756	13.24
438.115	13.49
438.474	13.68
438.833	13.56
439.192	13.67
439.551	13.51
439.91	13.57
440.269	13.73
440.628	13.64
440.987	13.51
441.345	13.56
441.704	13.82
442.063	13.58
442.421	13.52
442.78	13.6
443.138	13.7
443.497	13.48
443.855	13.68
444.214	13.73
444.572	13.9
444.93	13.73
445.288	13.94
445.647	13.99
446.005	13.7
446.363	14.01
446.721	13.88
447.079	13.95
447.437	13.95
447.795	13.87
448.153	13.85
448.51	13.84
448.868	13.86
449.226	13.86
449.584	14.1
449.941	14.12
450.299	13.99
450.656	14.21
451.014	14.17
451.371	14.32
451.729	14.37
452.086	14.12
452.443	14.24
452.801	14.4
453.158	14.47
453.515	14.54
453.872	14.35
454.229	14.48
454.586	14.47
454.943	14.53
455.3	14.66
455.657	14.64
456.014	14.79
456.371	14.56
456.727	14.76
457.084	14.76
457.441	14.76
457.797	14.79
458.154	14.94
458.51	14.73
458.867	14.77
459.223	14.97
459.58	15.07
459.936	14.91
460.292	14.94
460.648	14.87
461.005	14.66
461.361	14.83
461.717	14.65
462.073	14.78
462.429	14.81
462.785	14.83
463.141	15.2
463.496	14.9
463.852	15.27
464.208	15.17
464.564	15.35
464.919	15.32
465.275	15.34
465.631	15.34
465.986	15.45
466.342	15.26
466.697	15.33
467.052	15.6
467.408	15.57
467.763	15.45
468.118	15.68
468.473	15.79
468.829	15.62
469.184	15.61
469.539	15.44
469.894	15.61
470.249	15.75
470.603	15.54
470.958	15.76
471.313	15.68
471.668	15.86
472.023	16.01
472.377	15.69
472.732	15.92
473.086	15.79
473.441	16.07
473.795	16.12
474.15	16.04
474.504	16.05
474.859	16.25
475.213	16.03
475.567	16.03
475.921	16.29
476.275	16.35
476.63	16.09
476.984	16.41
477.338	16.39
477.692	16.09
478.045	16.28
478.399	16.33
478.753	16.05
479.107	16.24
479.461	16.25
479.814	16.34
480.168	16.29
480.521	16.27
480.875	16.53
481.228	16.4
481.582	16.41
481.935	16.43
482.289	16.34
482.642	16.57
482.995	16.53
483.348	16.39
483.701	16.4
484.055	16.22
484.408	16.25
484.761	15.99
485.114	15.88
485.466	15.85
485.819	15.67
486.172	15.6
486.525	15.7
486.878	15.79
487.23	16.01
487.583	16.16
487.936	16.38
488.288	16.36
488.641	16.24
488.993	16.13
489.345	16.09
489.698	16.13
490.05	16.11
490.402	16.21
490.754	16.36
491.107	16.48
491.459	16.63
491.811	16.8
492.163	16.82
492.515	16.73
492.866	16.63
493.218	16.48
493.57	16.44
493.922	16.41
494.274	16.49
494.625	16.65
494.977	16.85
495.328	17.09
495.68	17.32
496.031	17.35
496.383	17.32
496.734	17.48
497.086	17.34
497.437	17.57
497.788	17.49
498.139	17.38
498.49	17.38
498.842	17.33
499.193	17.36
499.544	17.47
499.894	17.53
500.245	17.62
500.596	17.43
500.947	17.61
501.298	17.75
501.648	17.67
501.999	17.89
502.35	17.96
502.7	17.94
503.051	18.06
503.401	17.98
503.752	17.96
504.102	18.08
504.452	17.88
504.803	17.88
505.153	18.12
505.503	18
505.853	18.16
506.203	18.18
506.553	18.24
506.903	17.99
507.253	18.23
507.603	18.26
507.953	18.36
508.303	18.49
508.652	18.35
509.002	18.35
509.352	18.33
509.701	18.23
510.051	18.33
510.4	18.22
510.75	18.12
511.099	18.22
511.449	18.26
511.798	18.44
512.147	18.27
512.496	18.43
512.846	18.4
513.195	18.46
513.544	18.5
513.893	18.35
514.242	18.59
514.591	18.5
514.939	18.48
515.288	18.45
515.637	18.75
515.986	18.64
516.334	18.81
516.683	18.73
517.032	18.66
517.38	18.85
517.729	18.77
518.077	19.04
518.426	18.86
518.774	18.89
519.122	18.8
519.47	18.56
519.819	18.68
520.167	18.56
520.515	18.52
520.863	18.52
521.211	18.64
521.559	18.73
521.907	18.69
522.255	18.93
522.602	19.06
522.95	18.98
523.298	19.04
523.645	19.01
523.993	19.27
524.341	19.21
524.688	19.16
525.036	19.34
525.383	19.31
525.73	19.32
526.078	19.34
526.425	19.18
526.772	19.01
527.119	18.95
527.466	18.99
527.814	18.98
528.161	19.01
528.508	19.07
528.854	18.96
529.201	18.94
529.548	18.93
529.895	18.77
530.242	18.74
530.588	18.71
530.935	18.56
531.282	18.61
531.628	18.68
531.975	18.91
532.321	19.05
532.667	19.11
533.014	19.25
533.36	19.38
533.706	19.42
534.052	19.26
534.399	19.3
534.745	19.15
535.091	19.17
535.437	19.15
535.783	19.21
536.129	19.27
536.474	19.32
536.82	19.38
537.166	19.69
537.512	19.75
537.857	19.74
538.203	19.7
538.549	19.65
538.894	19.61
539.239	19.8
539.585	19.83
539.93	19.96
540.276	19.91
540.621	20.13
540.966	20.04
541.311	20.25
541.656	20.01
542.001	20.15
542.346	19.9
542.691	19.66
543.036	19.6
543.381	19.57
543.726	19.63
544.071	19.6
544.415	19.8
544.76	19.74
545.105	19.95
545.449	19.98
545.794	20.13
546.138	20.26
546.483	20.41
546.827	20.4
547.171	20.37
547.516	20.54
547.86	20.51
548.204	20.37
548.548	20.48
548.892	20.43
549.236	20.34
549.58	20.54
549.924	20.77
550.268	20.7
550.612	20.77
550.956	20.9
551.3	20.81
551.643	20.98
551.987	20.99
552.33	20.97
552.674	21.41
553.017	21.15
553.361	21.15
553.704	21.3
554.048	21.22
554.391	21.08
554.734	21.08
555.077	20.98
555.42	21.17
555.764	21.06
556.107	21.45
556.45	21.25
556.793	21.63
557.135	21.41
557.478	21.56
557.821	21.31
558.164	21.58
558.507	21.49
558.849	21.53
559.192	21.6
559.534	21.67
559.877	21.52
560.219	21.84
560.562	21.76
560.904	21.57
561.246	21.69
561.589	21.78
561.931	21.89
562.273	21.74
562.615	21.9
562.957	21.52
563.299	21.95
563.641	21.85
563.983	21.68
564.325	21.79
564.667	22.03
565.008	21.93
565.35	22.08
565.692	22.2
566.033	21.91
566.375	21.76
566.716	22.02
567.058	22.05
567.399	22.14
567.741	22.02
568.082	21.8
568.423	21.94
568.764	21.91
569.105	21.92
569.447	21.87
569.788	22.24
570.129	22.17
570.47	22.27
570.811	22.01
571.151	22.18
571.492	22.22
571.833	22.18
572.174	22.13
572.514	22.11
572.855	22.09
573.195	22.02
573.536	22.23
573.876	22.14
574.217	22.07
574.557	22.39
574.898	22.14
575.238	22.17
575.578	22.46
575.918	22.38
576.258	22.46
576.598	22.51
576.938	22.65
577.278	22.49
577.618	22.4
577.958	22.52
578.298	22.27
578.638	22.47
578.977	22.74
579.317	22.83
579.657	22.68
579.996	22.72
580.336	22.89
580.675	22.85
581.014	22.99
581.354	23.12
581.693	22.81
582.032	22.97
582.372	23.08
582.711	22.91
583.05	23.12
583.389	23.03
583.728	23.2
584.067	23.03
584.406	23.49
584.745	23.22
585.083	23.48
585.422	23.29
585.761	23.02
586.1	23.47
586.438	23.31
586.777	23.28
587.115	23.31
587.454	23.12
587.792	23.17
588.13	23.42
588.469	23.33
588.807	23.65
589.145	23.45
589.483	23.48
589.821	23.36
590.159	23.26
590.497	23.34
590.835	23.34
591.173	23.46
591.511	23.51
591.849	23.42
592.187	23.26
592.524	23.41
592.862	23.61
593.2	23.51
593.537	23.38
593.875	23.8
594.212	23.48
594.55	23.63
594.887	23.95
595.224	23.72
595.561	23.52
595.899	23.45
596.236	23.81
596.573	23.68
596.91	23.53
597.247	23.8
597.584	23.84
597.921	23.76
598.258	23.72
598.594	23.61
598.931	23.61
599.268	23.64
599.604	23.81
599.941	23.73
600.277	23.67
600.614	23.87
600.95	24
601.287	24.19
601.623	24.15
601.959	23.95
602.296	24.01
602.632	24.35
602.968	24.17
603.304	24.07
603.64	23.88
603.976	24.35
604.312	24.43
604.648	24.05
604.984	24.05
605.319	24.13
605.655	23.98
605.991	24.17
606.326	23.93
606.662	23.79
606.998	23.93
607.333	24.02
607.668	24.01
608.004	24.01
608.339	24.28
608.674	24.39
609.01	24.34
609.345	24.41
609.68	24.42
610.015	24.29
610.35	24.46
610.685	24.29
611.02	24.46
611.355	24.53
611.689	24.08
612.024	24.49
612.359	24.48
612.694	24.69
613.028	24.78
613.363	24.52
613.697	24.52
614.032	24.56
614.366	24.5
614.7	24.83
615.035	24.58
615.369	24.91
615.703	25.25
616.037	24.82
616.371	24.56
616.705	24.81
617.039	24.81
617.373	24.9
617.707	24.9
618.041	24.68
618.375	25.28
618.709	24.67
619.042	24.87
619.376	24.67
619.71	24.86
620.043	24.94
620.377	25.4
620.71	25.21
621.043	24.67
621.377	25.35
621.71	25.34
622.043	25.14
622.376	25.38
622.709	25.42
623.043	25.49
623.376	25.62
623.709	25.21
624.041	24.98
624.374	25.09
624.707	25.16
625.04	25.57
625.373	24.86
625.705	25.25
626.038	25.08
626.37	25.56
626.703	25.49
627.035	25.53
627.368	25.59
627.7	25.52
628.032	25.34
628.365	24.96
628.697	25.24
629.029	25.75
629.361	25.51
629.693	25.78
630.025	25.6
630.357	25.34
630.689	25.58
631.021	25.55
631.353	25.56
631.684	25.82
632.016	25.76
632.348	25.38
632.679	25.26
633.011	25.84
633.342	26
633.674	25.53
634.005	26.06
634.336	25.9
634.668	25.69
634.999	25.76
635.33	25.42
635.661	25.58
635.992	25.6
636.323	25.52
636.654	25.86
636.985	25.77
637.316	25.69
637.647	26.01
637.977	25.68
638.308	26.29
638.639	25.92
638.969	25.87
639.3	26.22
639.63	26.13
639.961	26.09
640.291	26.32
640.622	25.92
640.952	26.35
641.282	25.84
641.612	25.95
641.943	26.03
642.273	25.93
642.603	26.26
642.933	26.14
643.263	26.81
643.592	26.42
643.922	26.36
644.252	26.31
644.582	26.25
644.911	26.43
645.241	26.11
645.571	26.32
645.9	26.48
646.23	26.08
646.559	26.74
646.888	26.31
647.218	26.36
647.547	26.74
647.876	26.63
648.205	26.76
648.534	26.24
648.863	26.68
649.192	26.32
649.521	26.46
649.85	26.65
650.179	26.49
650.508	26.53
650.837	26.83
651.165	26.72
651.494	26.76
651.822	26.5
652.151	26.78
652.479	26.91
652.808	26.85
653.136	26.46
653.465	26.6
653.793	26.6
654.121	27.22
654.449	26.82
654.777	26.34
655.105	27.06
655.433	26.67
655.761	26.73
656.089	26.66
656.417	26.85
656.745	27.51
657.073	26.78
657.4	26.87
657.728	26.59
658.056	26.59
658.383	27.24
658.711	27.1
659.038	27.28
659.365	27.21
659.693	27.36
660.02	27.43
660.347	27.13
660.674	26.64
661.001	27.07
661.329	26.95
661.656	26.32
661.982	26.72
662.309	26.6
662.636	26.69
662.963	27.36
663.29	26.97
663.616	27.54
663.943	27.28
664.27	27.42
664.596	27.07
664.923	27.43
665.249	27.28
665.576	27.4
665.902	27.6
666.228	27.07
666.554	26.83
666.881	27.71
667.207	27.21
667.533	28.04
667.859	27.39
668.185	27.27
668.511	27.78
668.837	26.83
669.162	27.46
669.488	27.33
669.814	27.98
670.139	27.46
670.465	27.83
670.791	28.31
671.116	27.52
671.442	27.65
671.767	28.13
672.092	27.8
672.418	27.51
672.743	27.89
673.068	27.33
