Data from 0053_chest_Reflection__1__47.txt Node

Date: Fri Dec 16 14:17:00 CST 2022
User: ToomeyLab
Spectrometer: FLMS14357
Trigger mode: 0
Integration Time (sec): 1.000000E-2
Scans to average: 100
Electric dark correction enabled: true
Nonlinearity correction enabled: false
Boxcar width: 0
XAxis mode: Wavelengths
Number of Pixels in Spectrum: 2048
>>>>>Begin Spectral Data<<<<<
189.047	179.75
189.435	179.75
189.823	179.75
190.211	217.12
190.599	155.95
190.987	-1252.66
191.375	-3.8
191.763	262.26
192.151	-35.57
192.538	43.64
192.926	-180.33
193.314	98.11
193.702	-596
194.089	107.18
194.477	14060
194.864	215.79
195.252	-105.24
195.639	148.39
196.027	213.56
196.414	44.31
196.801	345.71
197.189	77.47
197.576	-0.98
197.963	-123.58
198.351	32.33
198.738	-10.82
199.125	28.75
199.512	32.71
199.899	-7.58
200.286	-42.55
200.673	28.63
201.06	42.02
201.447	45.02
201.833	7.94
202.22	70.62
202.607	-15.96
202.994	47.69
203.38	-26.47
203.767	-7.02
204.154	-48.42
204.54	15.87
204.927	30.34
205.313	61.2
205.699	25.32
206.086	9.04
206.472	22.15
206.858	50.67
207.245	29.65
207.631	-5.35
208.017	31.06
208.403	9.63
208.789	38.76
209.175	31.77
209.561	8.73
209.947	21.44
210.333	2.67
210.719	21.22
211.105	3.1
211.491	22.27
211.876	-16.99
212.262	-10.25
212.648	-21.83
213.034	-10.3
213.419	20.05
213.805	16.5
214.19	3.04
214.576	0.04
214.961	1.66
215.346	-2.52
215.732	4.79
216.117	2.8
216.502	0.8
216.888	-1.83
217.273	17.48
217.658	9.67
218.043	14.87
218.428	5.5
218.813	16.15
219.198	-15.29
219.583	17.29
219.968	10.18
220.353	20.47
220.738	9.21
221.122	4.62
221.507	-17.05
221.892	4.38
222.276	5.25
222.661	11.08
223.046	5.71
223.43	-5.85
223.815	22.1
224.199	2.39
224.583	9.93
224.968	5.32
225.352	-0.25
225.736	4.97
226.121	4.29
226.505	2.89
226.889	11.89
227.273	10.19
227.657	10.73
228.041	5.73
228.425	4.61
228.809	4.36
229.193	3.61
229.577	4.26
229.961	5.06
230.344	5.23
230.728	5.05
231.112	5.78
231.495	4.28
231.879	5.15
232.263	3.04
232.646	4.94
233.03	2.97
233.413	4.84
233.797	7.15
234.18	4.11
234.563	6.06
234.946	4.13
235.33	5.84
235.713	4.39
236.096	5.32
236.479	5.66
236.862	5.59
237.245	4.9
237.628	6.93
238.011	5.98
238.394	7.02
238.777	4.95
239.16	4.1
239.543	5.34
239.925	5.29
240.308	6.25
240.691	3.99
241.073	5.14
241.456	5.13
241.838	4.43
242.221	5.6
242.603	5.22
242.986	6.27
243.368	5.2
243.75	4.93
244.133	5.18
244.515	4.84
244.897	5.33
245.279	6.03
245.661	5.11
246.043	5.68
246.425	5.52
246.807	5.29
247.189	5.05
247.571	5.32
247.953	5.17
248.335	5.03
248.717	5.17
249.098	5.13
249.48	5.12
249.862	5.04
250.243	4.94
250.625	4.95
251.006	5.71
251.388	5.33
251.769	4.15
252.151	4.33
252.532	5.07
252.913	5.47
253.295	5.1
253.676	5.31
254.057	4.68
254.438	4.61
254.819	4.71
255.2	4.58
255.581	5.13
255.962	5.41
256.343	5.49
256.724	4.82
257.105	5.36
257.486	5.6
257.867	3.98
258.247	5.54
258.628	5.63
259.009	4.74
259.389	5.13
259.77	4.67
260.15	5.69
260.531	4.93
260.911	4.88
261.292	4.74
261.672	4.7
262.052	4.28
262.432	4.11
262.813	4.62
263.193	4.69
263.573	5.01
263.953	4.84
264.333	5.28
264.713	4.42
265.093	4.58
265.473	5.9
265.853	4.92
266.233	4.82
266.612	4.74
266.992	5.24
267.372	4.7
267.752	4.32
268.131	4.38
268.511	4.96
268.89	5.11
269.27	5.25
269.649	4.7
270.029	5.11
270.408	5.11
270.787	4.3
271.167	4.74
271.546	4.11
271.925	4.71
272.304	5.06
272.683	4.4
273.062	4.63
273.441	4.66
273.82	4.74
274.199	4.98
274.578	4.23
274.957	4.38
275.336	4.5
275.715	4.99
276.093	5.01
276.472	4.97
276.851	5
277.229	5.33
277.608	5.07
277.986	4.65
278.365	4.16
278.743	4.44
279.122	4.5
279.5	4.08
279.878	4.15
280.257	4.99
280.635	4.24
281.013	4.79
281.391	4.5
281.769	4.39
282.147	4.56
282.525	4.36
282.903	4.67
283.281	4.51
283.659	4.65
284.037	4.41
284.415	4.55
284.792	5
285.17	4.24
285.548	4.27
285.925	4.49
286.303	4.27
286.68	4.75
287.058	4.51
287.435	4.14
287.813	4.68
288.19	4.71
288.567	4.28
288.945	4.37
289.322	3.97
289.699	4.41
290.076	4.92
290.453	4.57
290.83	5.11
291.207	4.46
291.584	5.07
291.961	4.94
292.338	4.83
292.715	4.44
293.092	4.7
293.469	5.37
293.845	5.27
294.222	4.9
294.599	5.2
294.975	4.86
295.352	4.42
295.728	5
296.105	4.74
296.481	5
296.858	4.9
297.234	5.04
297.61	5
297.986	4.76
298.363	4.76
298.739	4.99
299.115	4.44
299.491	4.58
299.867	4.89
300.243	4.6
300.619	5.07
300.995	4.79
301.371	5.1
301.746	5.23
302.122	5.13
302.498	4.64
302.874	5.38
303.249	4.81
303.625	5.16
304	4.58
304.376	4.93
304.751	4.97
305.127	4.62
305.502	5.02
305.878	4.92
306.253	4.84
306.628	5.38
307.003	5.18
307.378	4.48
307.754	4.92
308.129	5.18
308.504	4.69
308.879	4.69
309.254	5.23
309.629	5.11
310.003	5.14
310.378	5
310.753	5.4
311.128	4.79
311.502	4.71
311.877	4.76
312.252	5.19
312.626	4.6
313.001	4.74
313.375	5.16
313.75	4.97
314.124	5.6
314.498	4.97
314.873	4.85
315.247	4.87
315.621	4.85
315.995	4.81
316.369	5.22
316.743	4.93
317.117	4.64
317.491	4.9
317.865	4.51
318.239	5.16
318.613	5.38
318.987	4.88
319.361	5.16
319.734	5.16
320.108	5.3
320.482	5.18
320.855	4.85
321.229	5.09
321.602	5.49
321.976	4.95
322.349	4.78
322.723	4.67
323.096	5.14
323.469	4.87
323.843	5.02
324.216	4.88
324.589	5.36
324.962	5.09
325.335	5.1
325.708	5.25
326.081	5.59
326.454	5.32
326.827	5.06
327.2	5.46
327.573	5.2
327.945	5.27
328.318	5.32
328.691	5.01
329.063	5.18
329.436	4.84
329.809	4.59
330.181	5.23
330.553	5.48
330.926	4.81
331.298	4.57
331.671	5.09
332.043	5.03
332.415	5.21
332.787	5.76
333.159	5.53
333.532	5.05
333.904	5.22
334.276	5.25
334.648	5.34
335.02	5.3
335.391	5.23
335.763	5.07
336.135	5.12
336.507	5.02
336.879	5.24
337.25	5.49
337.622	5.49
337.993	5.11
338.365	5.37
338.736	5.55
339.108	4.94
339.479	4.89
339.851	5.44
340.222	5.5
340.593	4.58
340.964	4.9
341.336	4.91
341.707	4.78
342.078	5.02
342.449	5.15
342.82	4.98
343.191	4.56
343.562	5.12
343.933	4.8
344.303	4.94
344.674	5.22
345.045	5.14
345.416	5.06
345.786	4.97
346.157	5.12
346.527	4.94
346.898	4.98
347.268	5.08
347.639	5.14
348.009	5.38
348.38	5.2
348.75	4.97
349.12	5.47
349.49	4.72
349.861	5.44
350.231	5.44
350.601	5.39
350.971	5.02
351.341	5.27
351.711	5.06
352.081	5.48
352.45	5.76
352.82	4.89
353.19	5
353.56	5.07
353.929	5.32
354.299	5.01
354.669	5.19
355.038	5.25
355.408	5.63
355.777	5.04
356.147	5.5
356.516	5.04
356.885	5.4
357.254	5.63
357.624	5.42
357.993	5.09
358.362	5.47
358.731	5.41
359.1	5.13
359.469	5.08
359.838	4.94
360.207	5.19
360.576	5.19
360.945	5.23
361.314	5.61
361.682	5
362.051	5.1
362.42	5.66
362.788	5.48
363.157	5.1
363.525	4.99
363.894	5.02
364.262	4.97
364.631	5.83
364.999	4.99
365.367	5.55
365.735	5.14
366.104	5.02
366.472	5.51
366.84	5.51
367.208	4.91
367.576	5.24
367.944	5.46
368.312	5.12
368.68	5.1
369.048	5.34
369.416	5.05
369.783	5.22
370.151	5.57
370.519	5.37
370.886	5.53
371.254	5.36
371.621	5.27
371.989	5.3
372.356	5.5
372.724	5.39
373.091	5.36
373.458	5.47
373.826	5.27
374.193	5.7
374.56	5.04
374.927	5.06
375.294	5.42
375.661	5.27
376.028	5.26
376.395	5.46
376.762	5.29
377.129	5.61
377.496	5.54
377.863	5.25
378.229	5.1
378.596	5.19
378.963	5.29
379.329	5.16
379.696	4.99
380.062	5.59
380.429	5.22
380.795	5.27
381.161	5.4
381.528	4.9
381.894	5.48
382.26	5.19
382.626	5.48
382.993	5.05
383.359	5.3
383.725	5.34
384.091	5.46
384.457	5.34
384.823	5.56
385.188	5.8
385.554	5.44
385.92	5.6
386.286	5.44
386.651	5.43
387.017	5.69
387.383	5.33
387.748	5.26
388.114	5.45
388.479	5.73
388.845	5.52
389.21	5.52
389.575	5.44
389.94	5.49
390.306	5.22
390.671	5.3
391.036	5.62
391.401	5.78
391.766	5.35
392.131	5.55
392.496	5.26
392.861	5.39
393.226	5.3
393.591	5.49
393.956	5.69
394.32	5.14
394.685	5.45
395.05	5.56
395.414	5.54
395.779	5.32
396.143	5.57
396.508	5.76
396.872	5.71
397.236	5.11
397.601	5.41
397.965	5.14
398.329	5.57
398.694	5.44
399.058	5.29
399.422	5.46
399.786	5.52
400.15	5.58
400.514	5.41
400.878	5.34
401.242	5.71
401.605	5.55
401.969	5.53
402.333	5.36
402.697	5.55
403.06	5.44
403.424	5.28
403.787	5.58
404.151	5.48
404.514	5.52
404.878	5.5
405.241	5.65
405.604	5.59
405.968	5.47
406.331	5.45
406.694	5.68
407.057	5.75
407.42	5.5
407.783	5.61
408.146	5.68
408.509	5.34
408.872	5.32
409.235	5.62
409.598	5.68
409.961	5.56
410.323	5.52
410.686	5.56
411.049	5.4
411.411	5.52
411.774	5.37
412.136	5.53
412.499	5.68
412.861	5.39
413.223	5.73
413.586	5.51
413.948	5.38
414.31	5.96
414.672	5.52
415.035	5.78
415.397	5.66
415.759	5.66
416.121	5.94
416.483	5.78
416.845	5.47
417.206	5.82
417.568	5.49
417.93	5.59
418.292	5.67
418.653	5.52
419.015	5.61
419.377	5.66
419.738	5.62
420.1	5.53
420.461	5.5
420.822	5.6
421.184	5.56
421.545	5.52
421.906	5.5
422.267	5.48
422.629	5.57
422.99	5.5
423.351	5.48
423.712	5.47
424.073	5.55
424.434	5.52
424.795	5.49
425.155	5.48
425.516	5.49
425.877	5.56
426.238	5.41
426.598	5.48
426.959	5.56
427.32	5.66
427.68	5.71
428.041	5.7
428.401	5.53
428.761	5.62
429.122	5.58
429.482	5.45
429.842	5.7
430.202	5.73
430.563	5.73
430.923	5.65
431.283	5.53
431.643	5.75
432.003	5.7
432.363	5.67
432.722	5.56
433.082	5.68
433.442	5.78
433.802	5.78
434.161	5.72
434.521	5.76
434.881	5.73
435.24	5.7
435.6	5.81
435.959	5.6
436.319	5.65
436.678	5.79
437.037	5.78
437.396	5.82
437.756	5.73
438.115	5.75
438.474	5.85
438.833	5.81
439.192	5.88
439.551	5.79
439.91	5.68
440.269	5.87
440.628	5.75
440.987	5.64
441.345	5.64
441.704	5.78
442.063	5.65
442.421	5.75
442.78	5.63
443.138	5.64
443.497	5.7
443.855	5.77
444.214	5.8
444.572	5.83
444.93	5.87
445.288	5.86
445.647	5.9
446.005	5.64
446.363	5.76
446.721	5.72
447.079	5.78
447.437	5.75
447.795	5.76
448.153	5.62
448.51	5.71
448.868	5.77
449.226	5.73
449.584	5.75
449.941	5.79
450.299	5.7
450.656	5.79
451.014	5.92
451.371	5.86
451.729	5.85
452.086	5.79
452.443	5.7
452.801	5.92
453.158	5.84
453.515	5.91
453.872	5.9
454.229	5.82
454.586	5.81
454.943	5.83
455.3	6.08
455.657	5.72
456.014	5.92
456.371	5.81
456.727	5.84
457.084	5.87
457.441	5.89
457.797	6.05
458.154	5.9
458.51	5.78
458.867	5.84
459.223	6.01
459.58	5.96
459.936	5.91
460.292	5.93
460.648	5.85
461.005	5.75
461.361	5.83
461.717	5.84
462.073	5.88
462.429	5.85
462.785	5.98
463.141	5.96
463.496	5.86
463.852	6.05
464.208	5.98
464.564	5.85
464.919	5.96
465.275	6.05
465.631	6
465.986	5.98
466.342	6.16
466.697	6.08
467.052	6.02
467.408	5.99
467.763	5.93
468.118	5.97
468.473	6.16
468.829	6.07
469.184	5.99
469.539	5.96
469.894	6.06
470.249	6.01
470.603	6.1
470.958	6.08
471.313	6.01
471.668	6.24
472.023	6.19
472.377	6.01
472.732	6
473.086	5.92
473.441	6.11
473.795	6.13
474.15	6.13
474.504	6.09
474.859	6.1
475.213	6.18
475.567	5.97
475.921	6.08
476.275	6.12
476.63	5.98
476.984	6.2
477.338	6.34
477.692	6.11
478.045	6.16
478.399	6.22
478.753	5.98
479.107	6.06
479.461	6.11
479.814	6.17
480.168	6.01
480.521	6.05
480.875	6.19
481.228	6.26
481.582	6.07
481.935	6.1
482.289	6.13
482.642	6.17
482.995	6.11
483.348	6.03
483.701	6.14
484.055	6.09
484.408	5.97
484.761	5.82
485.114	5.83
485.466	5.84
485.819	5.79
486.172	5.79
486.525	5.84
486.878	5.86
487.23	5.9
487.583	5.97
487.936	6.01
488.288	6.06
488.641	6
488.993	5.95
489.345	5.91
489.698	5.97
490.05	5.9
490.402	6.02
490.754	6.02
491.107	6.04
491.459	6.13
491.811	6.16
492.163	6.22
492.515	6.14
492.866	5.99
493.218	6.03
493.57	6.02
493.922	6.03
494.274	6.08
494.625	6.11
494.977	6.21
495.328	6.31
495.68	6.48
496.031	6.37
496.383	6.29
496.734	6.4
497.086	6.24
497.437	6.42
497.788	6.27
498.139	6.32
498.49	6.34
498.842	6.35
499.193	6.27
499.544	6.4
499.894	6.5
500.245	6.44
500.596	6.41
500.947	6.38
501.298	6.32
501.648	6.41
501.999	6.55
502.35	6.47
502.7	6.52
503.051	6.52
503.401	6.49
503.752	6.48
504.102	6.48
504.452	6.49
504.803	6.44
505.153	6.43
505.503	6.43
505.853	6.43
506.203	6.44
506.553	6.45
506.903	6.48
507.253	6.49
507.603	6.45
507.953	6.65
508.303	6.61
508.652	6.54
509.002	6.59
509.352	6.66
509.701	6.6
510.051	6.67
510.4	6.56
510.75	6.54
511.099	6.47
511.449	6.51
511.798	6.78
512.147	6.64
512.496	6.67
512.846	6.61
513.195	6.69
513.544	6.62
513.893	6.59
514.242	6.79
514.591	6.63
514.939	6.69
515.288	6.71
515.637	6.66
515.986	6.78
516.334	6.8
516.683	6.7
517.032	6.75
517.38	6.8
517.729	6.77
518.077	6.87
518.426	6.71
518.774	6.75
519.122	6.69
519.47	6.66
519.819	6.77
520.167	6.73
520.515	6.7
520.863	6.7
521.211	6.74
521.559	6.76
521.907	6.82
522.255	6.83
522.602	6.82
522.95	6.9
523.298	6.88
523.645	6.93
523.993	7.02
524.341	6.87
524.688	6.92
525.036	7.03
525.383	7.11
525.73	6.95
526.078	7.07
526.425	6.92
526.772	6.84
527.119	6.84
527.466	6.9
527.814	6.88
528.161	6.92
528.508	6.98
528.854	6.9
529.201	6.87
529.548	6.84
529.895	6.82
530.242	6.79
530.588	6.79
530.935	6.77
531.282	6.79
531.628	6.84
531.975	6.97
532.321	6.98
532.667	7
533.014	7.14
533.36	7.12
533.706	7.19
534.052	7.03
534.399	7.03
534.745	7.01
535.091	7.01
535.437	7.02
535.783	7.09
536.129	7.06
536.474	7.11
536.82	7.14
537.166	7.28
537.512	7.27
537.857	7.22
538.203	7.28
538.549	7.3
538.894	7.19
539.239	7.35
539.585	7.29
539.93	7.45
540.276	7.38
540.621	7.52
540.966	7.43
541.311	7.54
541.656	7.37
542.001	7.54
542.346	7.41
542.691	7.33
543.036	7.26
543.381	7.31
543.726	7.34
544.071	7.44
544.415	7.41
544.76	7.36
545.105	7.48
545.449	7.41
545.794	7.54
546.138	7.64
546.483	7.59
546.827	7.64
547.171	7.61
547.516	7.72
547.86	7.72
548.204	7.62
548.548	7.79
548.892	7.82
549.236	7.89
549.58	7.79
549.924	7.89
550.268	7.92
550.612	8
550.956	7.88
551.3	7.96
551.643	7.86
551.987	8.01
552.33	7.81
552.674	8.1
553.017	7.97
553.361	8.05
553.704	8.03
554.048	8.17
554.391	8.13
554.734	8.05
555.077	8.13
555.42	8.07
555.764	8.04
556.107	8.22
556.45	8.1
556.793	8.36
557.135	8.26
557.478	8.22
557.821	8.14
558.164	8.37
558.507	8.27
558.849	8.18
559.192	8.28
559.534	8.18
559.877	8.56
560.219	8.6
560.562	8.54
560.904	8.33
561.246	8.62
561.589	8.55
561.931	8.64
562.273	8.54
562.615	8.59
562.957	8.52
563.299	8.75
563.641	8.6
563.983	8.49
564.325	8.45
564.667	8.55
565.008	8.54
565.35	8.87
565.692	8.81
566.033	8.77
566.375	8.8
566.716	8.98
567.058	8.68
567.399	9
567.741	9
568.082	8.86
568.423	8.87
568.764	8.78
569.105	8.77
569.447	8.74
569.788	8.95
570.129	8.84
570.47	9.07
570.811	9.16
571.151	9.16
571.492	9.2
571.833	9.13
572.174	9.03
572.514	8.95
572.855	9.21
573.195	9.19
573.536	9.18
573.876	9.08
574.217	9.14
574.557	9.3
574.898	9.16
575.238	9.15
575.578	9.41
575.918	9.41
576.258	9.37
576.598	9.3
576.938	9.52
577.278	9.38
577.618	9.52
577.958	9.48
578.298	9.49
578.638	9.56
578.977	9.61
579.317	9.83
579.657	9.53
579.996	9.57
580.336	9.69
580.675	9.79
581.014	9.83
581.354	9.85
581.693	9.92
582.032	9.91
582.372	9.99
582.711	9.86
583.05	10.08
583.389	9.79
583.728	9.98
584.067	9.86
584.406	9.89
584.745	9.88
585.083	10.19
585.422	10.11
585.761	10.13
586.1	10.33
586.438	10.16
586.777	10.33
587.115	10.34
587.454	10.12
587.792	10.4
588.13	10.6
588.469	10.66
588.807	10.25
589.145	10.49
589.483	10.41
589.821	10.51
590.159	10.43
590.497	10.28
590.835	10.36
591.173	10.71
591.511	10.51
591.849	10.7
592.187	10.61
592.524	10.38
592.862	10.61
593.2	10.73
593.537	10.55
593.875	10.57
594.212	10.78
594.55	10.74
594.887	11.08
595.224	10.93
595.561	10.82
595.899	10.66
596.236	11
596.573	10.88
596.91	11.02
597.247	10.92
597.584	11.25
597.921	10.89
598.258	11.04
598.594	10.91
598.931	10.99
599.268	11.07
599.604	11.21
599.941	10.93
600.277	11.14
600.614	11.27
600.95	11.08
601.287	11.43
601.623	11.54
601.959	11.27
602.296	11.52
602.632	11.55
602.968	11.4
603.304	11.43
603.64	11.48
603.976	11.58
604.312	11.6
604.648	11.53
604.984	11.43
605.319	11.54
605.655	11.58
605.991	11.61
606.326	11.59
606.662	11.44
606.998	11.62
607.333	11.68
607.668	11.7
608.004	11.81
608.339	11.72
608.674	11.69
609.01	11.99
609.345	12.25
609.68	11.75
610.015	12.07
610.35	11.99
610.685	12.19
611.02	12.1
611.355	11.99
611.689	11.94
612.024	12.15
612.359	12.24
612.694	12.22
613.028	12.6
613.363	12.09
613.697	12.23
614.032	12.5
614.366	12.31
614.7	13.04
615.035	12.46
615.369	12.57
615.703	13
616.037	12.37
616.371	12.45
616.705	12.48
617.039	12.97
617.373	12.86
617.707	12.59
618.041	12.89
618.375	12.67
618.709	13.11
619.042	12.62
619.376	12.91
619.71	12.99
620.043	12.72
620.377	12.83
620.71	13.14
621.043	12.69
621.377	13.43
621.71	13.43
622.043	13.17
622.376	12.85
622.709	13.44
623.043	12.8
623.376	13.7
623.709	13.44
624.041	13.37
624.374	13.33
624.707	13.29
625.04	13.56
625.373	13.18
625.705	13.82
626.038	13.25
626.37	13.54
626.703	13.61
627.035	13.57
627.368	13.75
627.7	13.62
628.032	13.54
628.365	13.51
628.697	13.61
629.029	13.95
629.361	13.62
629.693	13.65
630.025	13.83
630.357	13.63
630.689	13.75
631.021	13.98
631.353	14.1
631.684	13.87
632.016	13.76
632.348	14.11
632.679	13.68
633.011	13.89
633.342	14.16
633.674	14.11
634.005	14.47
634.336	14.04
634.668	14.24
634.999	13.96
635.33	14.07
635.661	14.3
635.992	14.41
636.323	14.36
636.654	14.43
636.985	14.29
637.316	14.35
637.647	14.67
637.977	14.2
638.308	14.32
638.639	14.5
638.969	14.4
639.3	14.8
639.63	14.78
639.961	14.47
640.291	15.06
640.622	14.9
640.952	14.75
641.282	14.34
641.612	14.68
641.943	15.07
642.273	15.06
642.603	15.11
642.933	14.82
643.263	15.19
643.592	15.12
643.922	15.64
644.252	15.18
644.582	14.92
644.911	15.06
645.241	14.93
645.571	15.26
645.9	15.36
646.23	15.62
646.559	15.62
646.888	15.03
647.218	15.14
647.547	15.55
647.876	15.78
648.205	15.53
648.534	15.24
648.863	16.06
649.192	15.78
649.521	15.45
649.85	15.85
650.179	15.53
650.508	15.88
650.837	15.36
651.165	16.08
651.494	15.86
651.822	15.7
652.151	16.14
652.479	16.48
652.808	15.54
653.136	16.11
653.465	16.23
653.793	16.3
654.121	15.97
654.449	15.79
654.777	15.89
655.105	16.3
655.433	16.43
655.761	16.03
656.089	15.77
656.417	15.85
656.745	16.64
657.073	16.59
657.4	16.13
657.728	16.19
658.056	16.02
658.383	16.53
658.711	16.51
659.038	16.59
659.365	16.57
659.693	16.75
660.02	16.23
660.347	16.49
660.674	16.84
661.001	16.03
661.329	16.54
661.656	16.39
661.982	16.83
662.309	17.11
662.636	16.75
662.963	16.88
663.29	17.23
663.616	17.1
663.943	17.9
664.27	16.97
664.596	16.91
664.923	17.29
665.249	17.69
665.576	17.47
665.902	17.18
666.228	16.76
666.554	17.17
666.881	17.34
667.207	17.35
667.533	17.52
667.859	17.2
668.185	17.05
668.511	17.35
668.837	17.11
669.162	17.81
669.488	17.72
669.814	17.98
670.139	17.94
670.465	17.79
670.791	17.92
671.116	17.39
671.442	18.19
671.767	17.94
672.092	18.33
672.418	18.04
672.743	18.01
673.068	17.08
673.393	18.3
673.718	17.29
674.043	18.45
674.368	18.31
674.693	18.35
675.018	18.75
675.343	18.37
675.667	18.31
675.992	18.04
676.317	18.41
676.641	18.75
676.966	18.49
677.29	18.29
677.615	18.28
677.939	18
678.264	18.33
678.588	18.35
678.912	18.81
679.236	18.76
679.56	18.19
679.885	18.97
680.209	18.23
680.532	18.8
680.856	18.9
681.18	18
681.504	18.8
681.828	18.3
682.152	18.46
682.475	18.77
682.799	19.23
683.122	18.14
683.446	18.39
683.769	19.28
684.093	19.42
684.416	19.13
684.739	19.58
685.062	18.99
685.386	18.83
685.709	19.16
686.032	19.36
686.355	19.12
