Data from 0053_crown_Reflection__0__52.txt Node

Date: Fri Dec 16 14:19:04 CST 2022
User: ToomeyLab
Spectrometer: FLMS14357
Trigger mode: 0
Integration Time (sec): 1.000000E-2
Scans to average: 100
Electric dark correction enabled: true
Nonlinearity correction enabled: false
Boxcar width: 0
XAxis mode: Wavelengths
Number of Pixels in Spectrum: 2048
>>>>>Begin Spectral Data<<<<<
189.047	96.77
189.435	96.77
189.823	96.77
190.211	289.06
190.599	329.04
190.987	278.7
191.375	-104.05
191.763	219
192.151	-46.65
192.538	59.32
192.926	99.86
193.314	104.68
193.702	-8036
194.089	-55.83
194.477	4764
194.864	-155.34
195.252	-105.06
195.639	121.4
196.027	14.62
196.414	-49.51
196.801	103.17
197.189	51.29
197.576	-135.67
197.963	240.46
198.351	-16.52
198.738	0.18
199.125	31.21
199.512	20.43
199.899	7.33
200.286	-46.43
200.673	30.46
201.06	29.44
201.447	46.63
201.833	-30.09
202.22	74.75
202.607	13.86
202.994	44.39
203.38	1.56
203.767	-21.3
204.154	-41.31
204.54	59.69
204.927	8.89
205.313	37.23
205.699	20.34
206.086	-8.86
206.472	-5.6
206.858	39.73
207.245	32.64
207.631	-7.81
208.017	9.83
208.403	15.37
208.789	32.94
209.175	46.3
209.561	35.83
209.947	-43.57
210.333	12.57
210.719	-8.43
211.105	2.15
211.491	-21.19
211.876	4.6
212.262	-12.32
212.648	-1.86
213.034	26.07
213.419	31.07
213.805	6.62
214.19	11.07
214.576	17.38
214.961	40.3
215.346	-29.39
215.732	8.73
216.117	-1.66
216.502	-7.19
216.888	-20.24
217.273	22.22
217.658	9.89
218.043	7.74
218.428	1.61
218.813	16.68
219.198	-9.34
219.583	9.31
219.968	-6.05
220.353	23.68
220.738	3.43
221.122	12.22
221.507	-2.71
221.892	20.67
222.276	7.78
222.661	4.62
223.046	12.72
223.43	2.44
223.815	11.54
224.199	12.25
224.583	9.28
224.968	18.18
225.352	2.49
225.736	13.42
226.121	1.61
226.505	7.79
226.889	17.87
227.273	9.75
227.657	14.05
228.041	12.11
228.425	9.08
228.809	9
229.193	6.93
229.577	7.61
229.961	8.82
230.344	7.95
230.728	8.31
231.112	8.41
231.495	6.82
231.879	8.44
232.263	7.54
232.646	6.66
233.03	6.62
233.413	7.02
233.797	10.18
234.18	5.96
234.563	7.53
234.946	7.59
235.33	9.11
235.713	8.2
236.096	10.15
236.479	9.47
236.862	9.85
237.245	9.41
237.628	8.48
238.011	6.91
238.394	9.84
238.777	7.28
239.16	6.3
239.543	6.52
239.925	9.08
240.308	7.08
240.691	6.49
241.073	8.58
241.456	6.87
241.838	7.31
242.221	7.74
242.603	7.82
242.986	8.87
243.368	7.69
243.75	7.61
244.133	7.73
244.515	6.99
244.897	6.87
245.279	7.23
245.661	7.4
246.043	7.97
246.425	7
246.807	8.06
247.189	7.67
247.571	7.89
247.953	7.52
248.335	7.69
248.717	7.23
249.098	7.12
249.48	7.14
249.862	7.27
250.243	7.12
250.625	7.49
251.006	7.68
251.388	8.07
251.769	7.88
252.151	8.26
252.532	7.69
252.913	7.48
253.295	7.05
253.676	7.46
254.057	7.46
254.438	5.91
254.819	7.04
255.2	6.5
255.581	6.21
255.962	7.55
256.343	7.55
256.724	7.03
257.105	8.31
257.486	7.95
257.867	7.02
258.247	6.87
258.628	7.18
259.009	7.32
259.389	7.02
259.77	6.62
260.15	7.2
260.531	7.22
260.911	6.98
261.292	7
261.672	6.66
262.052	6.54
262.432	6.36
262.813	6.84
263.193	5.8
263.573	6.9
263.953	6.87
264.333	6.68
264.713	6.53
265.093	6.86
265.473	7.72
265.853	6.75
266.233	6.71
266.612	6.39
266.992	6.82
267.372	7.2
267.752	6.73
268.131	6.58
268.511	6.4
268.89	7.17
269.27	6.92
269.649	6.14
270.029	6.93
270.408	6.34
270.787	6.58
271.167	7
271.546	5.78
271.925	6.71
272.304	6.69
272.683	6.61
273.062	6.32
273.441	6.43
273.82	6.61
274.199	6.63
274.578	6.09
274.957	6.36
275.336	6.56
275.715	6.69
276.093	6.42
276.472	6.99
276.851	6.19
277.229	7.06
277.608	6.38
277.986	6.24
278.365	6.15
278.743	6.46
279.122	5.86
279.5	6.4
279.878	5.5
280.257	6.45
280.635	6.15
281.013	6.51
281.391	6.54
281.769	5.9
282.147	6.28
282.525	5.78
282.903	6.04
283.281	5.88
283.659	6.59
284.037	5.95
284.415	6.25
284.792	6.32
285.17	5.94
285.548	5.76
285.925	6.02
286.303	6.06
286.68	5.88
287.058	6
287.435	5.94
287.813	6.09
288.19	6.12
288.567	5.79
288.945	5.59
289.322	5.67
289.699	6.14
290.076	6.14
290.453	6.03
290.83	5.94
291.207	6.01
291.584	5.94
291.961	6.08
292.338	6.14
292.715	5.92
293.092	5.87
293.469	6.27
293.845	5.83
294.222	5.55
294.599	6.38
294.975	5.77
295.352	5.84
295.728	5.96
296.105	6.07
296.481	6.38
296.858	6.02
297.234	5.73
297.61	5.85
297.986	6.07
298.363	5.31
298.739	5.89
299.115	5.57
299.491	5.42
299.867	5.84
300.243	5.31
300.619	5.38
300.995	5.46
301.371	5.99
301.746	5.3
302.122	6.03
302.498	5.71
302.874	5.92
303.249	5.64
303.625	5.7
304	5.37
304.376	5.33
304.751	5.54
305.127	5.72
305.502	5.89
305.878	5.51
306.253	5.43
306.628	5.82
307.003	5.18
307.378	5.58
307.754	5.85
308.129	4.93
308.504	5.4
308.879	5.38
309.254	5.25
309.629	5.6
310.003	5.58
310.378	5.75
310.753	5.28
311.128	5.16
311.502	5.03
311.877	5.71
312.252	5.64
312.626	5.35
313.001	5.69
313.375	5.27
313.75	5.06
314.124	5.75
314.498	5.22
314.873	5.59
315.247	5.34
315.621	5.55
315.995	5.34
316.369	5.55
316.743	5.58
317.117	5.51
317.491	5.44
317.865	5.01
318.239	5.59
318.613	5.31
318.987	5.03
319.361	5.37
319.734	5.46
320.108	5.33
320.482	5.58
320.855	5.9
321.229	5.78
321.602	5.18
321.976	4.88
322.349	4.74
322.723	4.47
323.096	4.89
323.469	4.58
323.843	5.07
324.216	4.92
324.589	5.74
324.962	5.25
325.335	5.08
325.708	5.35
326.081	5.69
326.454	5.36
326.827	5.85
327.2	5.9
327.573	5.41
327.945	5.79
328.318	5.57
328.691	5.14
329.063	5.57
329.436	5.16
329.809	5.47
330.181	5.02
330.553	5.37
330.926	5.98
331.298	5.1
331.671	5.45
332.043	5.33
332.415	5.49
332.787	5.62
333.159	5.13
333.532	5.33
333.904	5.71
334.276	5.18
334.648	5.39
335.02	4.96
335.391	5.14
335.763	4.97
336.135	5.32
336.507	5.6
336.879	5.22
337.25	5.26
337.622	5.57
337.993	5.19
338.365	5.4
338.736	5.23
339.108	5.12
339.479	5.57
339.851	5.54
340.222	5.46
340.593	5.3
340.964	5.43
341.336	4.89
341.707	5.2
342.078	5.1
342.449	5.57
342.82	5.49
343.191	5.46
343.562	5.13
343.933	5.21
344.303	5.13
344.674	5.23
345.045	5.56
345.416	5.38
345.786	5.14
346.157	5.35
346.527	4.82
346.898	5.25
347.268	5.31
347.639	5.51
348.009	5.51
348.38	5.61
348.75	5.66
349.12	5.34
349.49	5.29
349.861	5.68
350.231	5.53
350.601	5.56
350.971	5.44
351.341	5.44
351.711	5.26
352.081	5.33
352.45	5.68
352.82	5.61
353.19	5.24
353.56	5.57
353.929	5.69
354.299	5.84
354.669	5.47
355.038	5.55
355.408	5.59
355.777	5.26
356.147	5.7
356.516	5.73
356.885	5.46
357.254	5.68
357.624	5.62
357.993	5.19
358.362	5.65
358.731	5.8
359.1	5.64
359.469	5.7
359.838	5.19
360.207	5.47
360.576	5.53
360.945	5.51
361.314	5.71
361.682	5.4
362.051	5.45
362.42	5.81
362.788	5.62
363.157	5.49
363.525	5.63
363.894	5.2
364.262	5.27
364.631	6.14
364.999	5.34
365.367	6.02
365.735	5.63
366.104	5.27
366.472	5.85
366.84	5.52
367.208	5.37
367.576	5.63
367.944	5.96
368.312	5.51
368.68	5.62
369.048	5.97
369.416	5.4
369.783	5.87
370.151	5.73
370.519	5.9
370.886	5.55
371.254	5.82
371.621	5.91
371.989	5.93
372.356	5.82
372.724	5.94
373.091	5.64
373.458	5.55
373.826	5.52
374.193	6.1
374.56	5.62
374.927	5.6
375.294	6.08
375.661	5.71
376.028	6.01
376.395	5.53
376.762	6.16
377.129	6.14
377.496	5.68
377.863	6.07
378.229	5.77
378.596	5.77
378.963	5.54
379.329	5.94
379.696	5.91
380.062	6.09
380.429	5.87
380.795	5.75
381.161	6.01
381.528	5.58
381.894	5.79
382.26	5.82
382.626	5.76
382.993	5.92
383.359	6.03
383.725	6.4
384.091	5.83
384.457	6.04
384.823	6.13
385.188	6.21
385.554	5.99
385.92	6.11
386.286	5.97
386.651	6.01
387.017	6.12
387.383	6.01
387.748	5.89
388.114	5.99
388.479	6.22
388.845	6.04
389.21	6.08
389.575	6.03
389.94	5.95
390.306	6.04
390.671	5.88
391.036	6.18
391.401	6.42
391.766	6
392.131	5.81
392.496	6.02
392.861	5.83
393.226	6.21
393.591	6.14
393.956	6.1
394.32	6.18
394.685	6.27
395.05	6
395.414	6.03
395.779	6.13
396.143	6.08
396.508	6.08
396.872	6.19
397.236	5.88
397.601	6.18
397.965	5.91
398.329	6.19
398.694	5.89
399.058	6.13
399.422	6.01
399.786	6.27
400.15	6.13
400.514	6.29
400.878	6.11
401.242	6.05
401.605	5.82
401.969	6.28
402.333	6.09
402.697	6.36
403.06	6.4
403.424	6.21
403.787	6.46
404.151	6.01
404.514	6.32
404.878	6.07
405.241	6.46
405.604	6.31
405.968	6.23
406.331	6.23
406.694	6.08
407.057	6.48
407.42	6.09
407.783	6.05
408.146	6.08
408.509	6.19
408.872	6.17
409.235	6.05
409.598	6.44
409.961	6.15
410.323	6.16
410.686	6.23
411.049	6.23
411.411	6.25
411.774	6.21
412.136	6.13
412.499	6.23
412.861	5.95
413.223	6.5
413.586	6.21
413.948	6.39
414.31	6.54
414.672	6.41
415.035	6.35
415.397	6.44
415.759	6.31
416.121	6.38
416.483	6.59
416.845	6.43
417.206	6.37
417.568	6.27
417.93	6.37
418.292	6.31
418.653	6.31
419.015	6.31
419.377	6.39
419.738	6.23
420.1	6.24
420.461	6.16
420.822	6.22
421.184	6.23
421.545	6.17
421.906	6.22
422.267	6.17
422.629	6.2
422.99	6.09
423.351	6.22
423.712	6.16
424.073	6.31
424.434	6.1
424.795	6.33
425.155	6.2
425.516	6.18
425.877	6.26
426.238	6.06
426.598	6.31
426.959	6.22
427.32	6.24
427.68	6.19
428.041	6.28
428.401	6.3
428.761	6.15
429.122	6.16
429.482	6.3
429.842	6.49
430.202	6.33
430.563	6.28
430.923	6.35
431.283	6.44
431.643	6.39
432.003	6.27
432.363	6.48
432.722	6.37
433.082	6.28
433.442	6.47
433.802	6.38
434.161	6.3
434.521	6.47
434.881	6.5
435.24	6.26
435.6	6.33
435.959	6.32
436.319	6.31
436.678	6.47
437.037	6.42
437.396	6.41
437.756	6.45
438.115	6.36
438.474	6.49
438.833	6.56
439.192	6.5
439.551	6.57
439.91	6.63
440.269	6.64
440.628	6.4
440.987	6.31
441.345	6.42
441.704	6.42
442.063	6.4
442.421	6.34
442.78	6.36
443.138	6.28
443.497	6.27
443.855	6.27
444.214	6.42
444.572	6.41
444.93	6.37
445.288	6.55
445.647	6.54
446.005	6.41
446.363	6.39
446.721	6.32
447.079	6.38
447.437	6.37
447.795	6.34
448.153	6.36
448.51	6.28
448.868	6.38
449.226	6.47
449.584	6.46
449.941	6.45
450.299	6.35
450.656	6.44
451.014	6.41
451.371	6.51
451.729	6.41
452.086	6.45
452.443	6.29
452.801	6.48
453.158	6.39
453.515	6.43
453.872	6.46
454.229	6.53
454.586	6.45
454.943	6.36
455.3	6.53
455.657	6.41
456.014	6.6
456.371	6.61
456.727	6.45
457.084	6.37
457.441	6.46
457.797	6.53
458.154	6.48
458.51	6.45
458.867	6.46
459.223	6.54
459.58	6.51
459.936	6.34
460.292	6.42
460.648	6.43
461.005	6.41
461.361	6.39
461.717	6.35
462.073	6.37
462.429	6.29
462.785	6.52
463.141	6.55
463.496	6.43
463.852	6.54
464.208	6.46
464.564	6.36
464.919	6.53
465.275	6.57
465.631	6.51
465.986	6.46
466.342	6.58
466.697	6.48
467.052	6.48
467.408	6.68
467.763	6.58
468.118	6.65
468.473	6.6
468.829	6.66
469.184	6.64
469.539	6.45
469.894	6.51
470.249	6.62
470.603	6.54
470.958	6.63
471.313	6.51
471.668	6.58
472.023	6.63
472.377	6.5
472.732	6.56
473.086	6.44
473.441	6.71
473.795	6.73
474.15	6.58
474.504	6.61
474.859	6.45
475.213	6.53
475.567	6.56
475.921	6.79
476.275	6.67
476.63	6.6
476.984	6.49
477.338	6.75
477.692	6.6
478.045	6.45
478.399	6.46
478.753	6.39
479.107	6.46
479.461	6.7
479.814	6.52
480.168	6.57
480.521	6.47
480.875	6.58
481.228	6.56
481.582	6.41
481.935	6.52
482.289	6.52
482.642	6.61
482.995	6.51
483.348	6.46
483.701	6.44
484.055	6.42
484.408	6.44
484.761	6.4
485.114	6.32
485.466	6.26
485.819	6.11
486.172	6.11
486.525	6.11
486.878	6.17
487.23	6.3
487.583	6.35
487.936	6.44
488.288	6.4
488.641	6.38
488.993	6.32
489.345	6.25
489.698	6.29
490.05	6.24
490.402	6.24
490.754	6.31
491.107	6.35
491.459	6.45
491.811	6.49
492.163	6.46
492.515	6.5
492.866	6.36
493.218	6.36
493.57	6.33
493.922	6.25
494.274	6.31
494.625	6.36
494.977	6.43
495.328	6.57
495.68	6.55
496.031	6.62
496.383	6.54
496.734	6.67
497.086	6.53
497.437	6.53
497.788	6.59
498.139	6.67
498.49	6.61
498.842	6.49
499.193	6.53
499.544	6.61
499.894	6.64
500.245	6.59
500.596	6.47
500.947	6.55
501.298	6.58
501.648	6.59
501.999	6.76
502.35	6.77
502.7	6.71
503.051	6.7
503.401	6.66
503.752	6.5
504.102	6.52
504.452	6.51
504.803	6.51
505.153	6.51
505.503	6.64
505.853	6.65
506.203	6.55
506.553	6.6
506.903	6.58
507.253	6.67
507.603	6.59
507.953	6.78
508.303	6.73
508.652	6.66
509.002	6.73
509.352	6.69
509.701	6.56
510.051	6.62
510.4	6.65
510.75	6.6
511.099	6.62
511.449	6.7
511.798	6.7
512.147	6.57
512.496	6.64
512.846	6.48
513.195	6.65
513.544	6.63
513.893	6.48
514.242	6.68
514.591	6.63
514.939	6.6
515.288	6.61
515.637	6.8
515.986	6.68
516.334	6.68
516.683	6.55
517.032	6.64
517.38	6.65
517.729	6.64
518.077	6.61
518.426	6.64
518.774	6.67
519.122	6.66
519.47	6.62
519.819	6.62
520.167	6.62
520.515	6.5
520.863	6.47
521.211	6.49
521.559	6.57
521.907	6.48
522.255	6.69
522.602	6.57
522.95	6.7
523.298	6.58
523.645	6.48
523.993	6.79
524.341	6.76
524.688	6.57
525.036	6.72
525.383	6.68
525.73	6.76
526.078	6.76
526.425	6.67
526.772	6.54
527.119	6.58
527.466	6.54
527.814	6.46
528.161	6.58
528.508	6.65
528.854	6.51
529.201	6.49
529.548	6.55
529.895	6.49
530.242	6.45
530.588	6.38
530.935	6.28
531.282	6.33
531.628	6.34
531.975	6.42
532.321	6.47
532.667	6.53
533.014	6.53
533.36	6.51
533.706	6.68
534.052	6.56
534.399	6.59
534.745	6.56
535.091	6.46
535.437	6.45
535.783	6.51
536.129	6.4
536.474	6.53
536.82	6.52
537.166	6.61
537.512	6.66
537.857	6.71
538.203	6.67
538.549	6.6
538.894	6.49
539.239	6.66
539.585	6.65
539.93	6.65
540.276	6.56
540.621	6.65
540.966	6.7
541.311	6.69
541.656	6.62
542.001	6.74
542.346	6.68
542.691	6.59
543.036	6.47
543.381	6.45
543.726	6.47
544.071	6.52
544.415	6.46
544.76	6.51
545.105	6.57
545.449	6.5
545.794	6.57
546.138	6.61
546.483	6.65
546.827	6.74
547.171	6.67
547.516	6.88
547.86	6.69
548.204	6.68
548.548	6.72
548.892	6.75
549.236	6.68
549.58	6.64
549.924	6.61
550.268	6.75
550.612	6.71
550.956	6.69
551.3	6.76
551.643	6.8
551.987	6.7
552.33	6.7
552.674	6.85
553.017	6.78
553.361	6.74
553.704	6.77
554.048	6.87
554.391	6.8
554.734	6.84
555.077	6.78
555.42	6.68
555.764	6.68
556.107	6.66
556.45	6.72
556.793	6.89
557.135	6.88
557.478	6.82
557.821	6.68
558.164	6.86
558.507	6.61
558.849	6.76
559.192	6.85
559.534	6.61
559.877	6.78
560.219	6.83
560.562	6.9
560.904	6.79
561.246	6.86
561.589	6.77
561.931	6.93
562.273	6.89
562.615	6.75
562.957	6.77
563.299	6.88
563.641	6.94
563.983	6.82
564.325	6.56
564.667	6.79
565.008	6.9
565.35	7.09
565.692	6.95
566.033	6.88
566.375	6.86
566.716	6.96
567.058	6.82
567.399	6.84
567.741	6.9
568.082	6.63
568.423	6.63
568.764	6.7
569.105	6.75
569.447	6.73
569.788	6.74
570.129	6.74
570.47	6.81
570.811	6.82
571.151	6.83
571.492	6.86
571.833	6.73
572.174	6.65
572.514	6.7
572.855	6.72
573.195	6.67
573.536	6.68
573.876	6.63
574.217	6.78
574.557	6.86
574.898	6.55
575.238	6.78
575.578	6.8
575.918	6.67
576.258	6.61
576.598	6.71
576.938	6.86
577.278	6.73
577.618	6.72
577.958	6.63
578.298	6.69
578.638	6.7
578.977	6.89
579.317	6.8
579.657	6.6
579.996	6.57
580.336	6.83
580.675	6.77
581.014	6.9
581.354	6.78
581.693	6.87
582.032	6.83
582.372	6.92
582.711	6.82
583.05	6.97
583.389	6.78
583.728	6.96
584.067	6.7
584.406	6.89
584.745	6.8
585.083	7.08
585.422	6.65
585.761	7.03
586.1	6.95
586.438	6.89
586.777	6.94
587.115	6.85
587.454	6.8
587.792	6.68
588.13	6.91
588.469	7.08
588.807	6.76
589.145	6.84
589.483	6.71
589.821	6.93
590.159	6.68
590.497	6.7
590.835	6.68
591.173	6.73
591.511	6.85
591.849	6.84
592.187	6.88
592.524	6.71
592.862	6.61
593.2	6.61
593.537	6.84
593.875	6.71
594.212	6.75
594.55	6.91
594.887	7.04
595.224	6.77
595.561	6.57
595.899	6.77
596.236	6.76
596.573	6.46
596.91	6.81
597.247	6.66
597.584	6.84
597.921	6.7
598.258	6.83
598.594	6.53
598.931	6.64
599.268	6.58
599.604	6.8
599.941	6.62
600.277	6.69
600.614	6.75
600.95	6.64
601.287	6.6
601.623	6.73
601.959	6.56
602.296	6.84
602.632	6.79
602.968	6.72
603.304	6.48
603.64	6.57
603.976	6.64
604.312	6.96
604.648	6.87
604.984	6.75
605.319	6.58
605.655	6.76
605.991	6.55
606.326	6.47
606.662	6.55
606.998	6.72
607.333	6.56
607.668	6.49
608.004	6.44
608.339	6.86
608.674	6.64
609.01	6.76
609.345	6.76
609.68	6.66
610.015	6.61
610.35	7.01
610.685	6.73
611.02	6.78
611.355	6.86
611.689	6.51
612.024	6.89
612.359	6.77
612.694	6.62
613.028	6.96
613.363	6.38
613.697	6.73
614.032	6.77
614.366	6.5
614.7	6.92
615.035	6.58
615.369	6.82
615.703	6.93
616.037	6.8
616.371	6.55
616.705	6.81
617.039	6.56
617.373	6.54
617.707	6.49
618.041	6.81
618.375	6.76
618.709	6.81
619.042	6.71
619.376	6.61
619.71	6.78
620.043	6.71
620.377	6.39
620.71	6.63
621.043	6.53
621.377	6.43
621.71	6.89
622.043	6.9
622.376	6.47
622.709	7.04
623.043	6.74
623.376	6.65
623.709	7
624.041	6.33
624.374	6.72
624.707	6.61
625.04	7.01
625.373	6.49
625.705	6.78
626.038	6.9
626.37	6.57
626.703	6.73
627.035	6.79
627.368	6.72
627.7	6.95
628.032	6.95
628.365	6.39
628.697	6.43
629.029	7.07
629.361	6.68
629.693	6.59
630.025	6.97
630.357	6.59
630.689	6.6
631.021	6.8
631.353	7.01
631.684	6.79
632.016	6.34
632.348	6.69
632.679	6.6
633.011	6.76
633.342	6.63
633.674	6.55
634.005	6.75
634.336	6.74
634.668	6.67
634.999	6.97
635.33	6.63
635.661	6.77
635.992	6.51
636.323	6.75
636.654	6.72
636.985	6.54
637.316	6.62
637.647	6.77
637.977	6.45
638.308	6.49
638.639	6.53
638.969	6.79
639.3	6.79
639.63	6.51
639.961	6.71
640.291	7.27
640.622	6.4
640.952	6.77
641.282	6.26
641.612	6.78
641.943	7.01
642.273	6.69
642.603	6.67
642.933	6.68
643.263	7.01
643.592	7.18
643.922	7.29
644.252	6.8
644.582	6.28
644.911	6.53
645.241	6.37
645.571	6.76
645.9	6.91
646.23	6.69
646.559	6.91
646.888	6.77
647.218	6.72
647.547	6.8
647.876	7.02
648.205	6.65
648.534	6.61
648.863	6.66
649.192	6.55
649.521	6.29
649.85	7.11
650.179	6.6
650.508	7.04
650.837	6.65
651.165	6.93
651.494	6.31
651.822	6.77
652.151	7.24
652.479	7.15
652.808	6.35
653.136	6.54
653.465	6.99
653.793	6.64
654.121	6.92
654.449	6.47
654.777	6.68
655.105	7.11
655.433	7.29
655.761	6.7
656.089	6.63
656.417	6.57
656.745	7.45
657.073	6.92
657.4	6.39
657.728	6.64
658.056	6.53
658.383	6.88
658.711	6.67
659.038	6.47
659.365	6.84
659.693	6.75
660.02	6.36
660.347	6.93
660.674	6.58
661.001	6.45
661.329	6.84
661.656	6.72
661.982	7.08
662.309	6.61
662.636	6.61
662.963	6.87
663.29	6.69
663.616	7.02
663.943	6.89
664.27	7.16
664.596	6.4
664.923	7.31
665.249	6.32
665.576	6.31
665.902	6.31
666.228	6.56
666.554	6.97
666.881	6.88
667.207	6.79
667.533	7.26
667.859	6.82
668.185	7.09
668.511	6.38
668.837	6.07
669.162	6.65
669.488	6.35
669.814	7.23
670.139	7.09
670.465	7.37
670.791	6.78
671.116	6.54
671.442	6.9
671.767	6.84
672.092	6.76
672.418	6.75
672.743	6.85
673.068	6.75
673.393	6.7
673.718	6.71
674.043	6.58
674.368	7.28
674.693	6.84
675.018	7.08
675.343	7.22
675.667	6.73
675.992	6.24
676.317	6.75
676.641	6.94
676.966	6.92
677.29	6.8
677.615	6.75
677.939	6.92
678.264	6.79
678.588	7.35
678.912	7.04
679.236	7.16
679.56	6.53
679.885	6.72
680.209	6.6
680.532	6.53
680.856	7.11
681.18	6.64
681.504	6.63
681.828	6.77
682.152	6.5
682.475	7.02
682.799	6.5
683.122	6.53
683.446	6.38
683.769	6.95
684.093	7.07
684.416	6.77
684.739	6.93
685.062	7.46
685.386	6.76
685.709	7.11
686.032	6.95
686.355	6.7
686.678	6.86
687.001	5.78
687.324	6.57
687.646	6.43
687.969	7.06
688.292	7.43
688.614	7.09
688.937	6.16
689.26	6.29
689.582	6.65
689.904	7.24
690.227	6.92
690.549	7.16
690.871	7.02
691.194	7.18
691.516	6.57
691.838	7.04
692.16	7.08
692.482	6.46
