Data from 0053_forehead_Reflection__2__59.txt Node

Date: Fri Dec 16 14:20:38 CST 2022
User: ToomeyLab
Spectrometer: FLMS14357
Trigger mode: 0
Integration Time (sec): 1.000000E-2
Scans to average: 100
Electric dark correction enabled: true
Nonlinearity correction enabled: false
Boxcar width: 0
XAxis mode: Wavelengths
Number of Pixels in Spectrum: 2048
>>>>>Begin Spectral Data<<<<<
189.047	52.36
189.435	52.36
189.823	52.36
190.211	699.14
190.599	214.23
190.987	-1199.41
191.375	149.62
191.763	4.05
192.151	-120.5
192.538	17.74
192.926	-63.7
193.314	135.94
193.702	-6636
194.089	-34.52
194.477	16404
194.864	-148.42
195.252	-3.84
195.639	12.63
196.027	-197.59
196.414	120.1
196.801	140.89
197.189	38.2
197.576	-102.32
197.963	496
198.351	-2.72
198.738	14.24
199.125	41.27
199.512	-16.38
199.899	1.39
200.286	37.38
200.673	78.05
201.06	51.09
201.447	15.93
201.833	36.6
202.22	76.92
202.607	4.06
202.994	87.58
203.38	-50.74
203.767	37.84
204.154	6.02
204.54	51.29
204.927	26.48
205.313	20.56
205.699	18.21
206.086	20.1
206.472	-2
206.858	29.51
207.245	36.48
207.631	20.35
208.017	43.24
208.403	20.4
208.789	48.51
209.175	28.8
209.561	27.77
209.947	6.54
210.333	-0.83
210.719	4.03
211.105	3.4
211.491	47.71
211.876	19.43
212.262	-20.59
212.648	-1.01
213.034	1.44
213.419	51.34
213.805	31.2
214.19	13.23
214.576	-28.34
214.961	14.92
215.346	26.01
215.732	21.02
216.117	-27.53
216.502	15.45
216.888	11.88
217.273	43.06
217.658	-7.16
218.043	11.15
218.428	8.67
218.813	19.01
219.198	-4.72
219.583	14.92
219.968	9.94
220.353	14.45
220.738	4.45
221.122	14.2
221.507	12.66
221.892	25.88
222.276	21.3
222.661	3.8
223.046	15.79
223.43	13.38
223.815	9.22
224.199	7.6
224.583	11.29
224.968	11.82
225.352	10.63
225.736	9.98
226.121	-0.64
226.505	3.97
226.889	9.25
227.273	11.02
227.657	7.59
228.041	6.13
228.425	8.73
228.809	6.98
229.193	3.75
229.577	5.32
229.961	4.67
230.344	4.25
230.728	4.9
231.112	4.56
231.495	5.38
231.879	4.21
232.263	3.52
232.646	4.42
233.03	5
233.413	5.61
233.797	6.13
234.18	2.09
234.563	6.42
234.946	5.09
235.33	4.33
235.713	5.25
236.096	5.43
236.479	6.34
236.862	5.36
237.245	6.15
237.628	6.71
238.011	4.87
238.394	5.73
238.777	5.34
239.16	2.72
239.543	4.03
239.925	5.7
240.308	5.28
240.691	5.24
241.073	4.84
241.456	5.13
241.838	5.3
242.221	4.43
242.603	3.8
242.986	5.68
243.368	4.46
243.75	4.1
244.133	4.25
244.515	4.43
244.897	4.53
245.279	5.3
245.661	5.36
246.043	4.61
246.425	4.67
246.807	4.8
247.189	4.75
247.571	4.8
247.953	4.6
248.335	4.66
248.717	4.62
249.098	4.7
249.48	4.54
249.862	4.6
250.243	4.44
250.625	4.86
251.006	4.72
251.388	5.87
251.769	5.62
252.151	4.95
252.532	5.11
252.913	5
253.295	5.09
253.676	5.19
254.057	4.58
254.438	4.13
254.819	4.47
255.2	4.69
255.581	5.48
255.962	4.56
256.343	5.41
256.724	4.71
257.105	4.68
257.486	4.99
257.867	4.15
258.247	5.41
258.628	4.75
259.009	4.7
259.389	5.59
259.77	4.7
260.15	5.37
260.531	4.92
260.911	4.67
261.292	4.48
261.672	4.31
262.052	4.4
262.432	4.56
262.813	4.55
263.193	4.51
263.573	4.68
263.953	4.47
264.333	4.81
264.713	4.8
265.093	4.58
265.473	5.13
265.853	4.44
266.233	5.47
266.612	4.93
266.992	5.25
267.372	4.87
267.752	4.02
268.131	4.49
268.511	4.56
268.89	5.13
269.27	5.08
269.649	4.51
270.029	4.67
270.408	4.39
270.787	4.1
271.167	4.91
271.546	3.84
271.925	4.46
272.304	4.92
272.683	4.21
273.062	4.65
273.441	4.81
273.82	4.98
274.199	4.66
274.578	3.93
274.957	4.85
275.336	4.08
275.715	5.16
276.093	4.91
276.472	4.79
276.851	4.41
277.229	5.07
277.608	4.17
277.986	4.06
278.365	4.19
278.743	4.55
279.122	4.44
279.5	4.18
279.878	3.71
280.257	4.94
280.635	4.09
281.013	4.41
281.391	4.42
281.769	4.31
282.147	4.97
282.525	4.59
282.903	4.41
283.281	4.38
283.659	4.8
284.037	4.73
284.415	4.57
284.792	4.18
285.17	4.04
285.548	4.24
285.925	4.15
286.303	4.27
286.68	4.73
287.058	4.52
287.435	4.19
287.813	4.42
288.19	4.67
288.567	4.47
288.945	4.59
289.322	4.48
289.699	4.59
290.076	4.57
290.453	4.36
290.83	4.74
291.207	4.81
291.584	4.74
291.961	4.9
292.338	4.56
292.715	4.95
293.092	4.89
293.469	5.35
293.845	5.69
294.222	4.72
294.599	5.5
294.975	4.99
295.352	5.18
295.728	5.5
296.105	5.34
296.481	5.86
296.858	4.93
297.234	4.97
297.61	5.01
297.986	5.43
298.363	4.96
298.739	5.39
299.115	4.83
299.491	5.06
299.867	5.76
300.243	5.56
300.619	5.42
300.995	5.82
301.371	5.56
301.746	5.64
302.122	5.79
302.498	6.01
302.874	5.73
303.249	5.71
303.625	6.02
304	5.5
304.376	5.78
304.751	6.2
305.127	5.92
305.502	6.16
305.878	5.86
306.253	5.78
306.628	5.99
307.003	6.51
307.378	5.76
307.754	6.44
308.129	6.05
308.504	5.86
308.879	5.94
309.254	6.96
309.629	6.21
310.003	7.05
310.378	6.75
310.753	6.88
311.128	6.34
311.502	6.49
311.877	6.61
312.252	6.32
312.626	6.58
313.001	6.67
313.375	6.94
313.75	6.82
314.124	7.15
314.498	6.96
314.873	7.14
315.247	6.95
315.621	7.6
315.995	7.52
316.369	7.49
316.743	7.74
317.117	7.57
317.491	7.86
317.865	7.39
318.239	7.74
318.613	8.24
318.987	7.86
319.361	7.33
319.734	8.03
320.108	8.3
320.482	7.87
320.855	8.04
321.229	8.78
321.602	7.68
321.976	8.48
322.349	7.78
322.723	7.94
323.096	7.95
323.469	8.75
323.843	8.12
324.216	8.33
324.589	8.87
324.962	8.81
325.335	8.62
325.708	8.45
326.081	8.96
326.454	8.76
326.827	9.25
327.2	9.44
327.573	8.8
327.945	8.84
328.318	9.01
328.691	9.01
329.063	9.06
329.436	8.98
329.809	9.2
330.181	9.44
330.553	9.83
330.926	9.85
331.298	9.38
331.671	9.39
332.043	9.28
332.415	9.76
332.787	10
333.159	9.81
333.532	9.53
333.904	10.18
334.276	9.78
334.648	9.43
335.02	9.71
335.391	9.93
335.763	10.54
336.135	10.06
336.507	10.82
336.879	10.03
337.25	10.49
337.622	9.93
337.993	10.44
338.365	10.33
338.736	10.29
339.108	10.06
339.479	10.7
339.851	10.44
340.222	10.72
340.593	10.2
340.964	10.5
341.336	10.16
341.707	10.77
342.078	10.71
342.449	11.45
342.82	10.8
343.191	10.67
343.562	10.86
343.933	11.1
344.303	11.11
344.674	11.25
345.045	11.18
345.416	11.15
345.786	10.83
346.157	10.9
346.527	11.1
346.898	11.26
347.268	11.09
347.639	11.47
348.009	11.55
348.38	11.51
348.75	11.56
349.12	11.43
349.49	11.31
349.861	12.05
350.231	11.49
350.601	11.84
350.971	12.26
351.341	11.91
351.711	11.69
352.081	11.97
352.45	12.36
352.82	12.48
353.19	12.14
353.56	11.93
353.929	12.03
354.299	11.91
354.669	12.35
355.038	12.49
355.408	12.8
355.777	12.24
356.147	12.72
356.516	12.78
356.885	12.65
357.254	12.54
357.624	12.66
357.993	12.67
358.362	12.83
358.731	12.66
359.1	12.84
359.469	12.69
359.838	12.91
360.207	12.82
360.576	13.19
360.945	12.95
361.314	13.41
361.682	13.14
362.051	13.18
362.42	13.39
362.788	13.52
363.157	13.38
363.525	13.16
363.894	13.22
364.262	13.09
364.631	14.27
364.999	13.57
365.367	14.05
365.735	13.37
366.104	13.33
366.472	13.73
366.84	13.82
367.208	13.46
367.576	14.01
367.944	14.25
368.312	13.99
368.68	14.37
369.048	14
369.416	13.93
369.783	14.08
370.151	14.38
370.519	14.33
370.886	14.25
371.254	14.56
371.621	14.51
371.989	14.55
372.356	14.97
372.724	14.68
373.091	14.83
373.458	14.77
373.826	14.46
374.193	14.81
374.56	14.57
374.927	14.79
375.294	15.17
375.661	14.96
376.028	15
376.395	14.93
376.762	15.43
377.129	15.4
377.496	15.49
377.863	15.23
378.229	15.23
378.596	15.41
378.963	15.31
379.329	15.35
379.696	15.71
380.062	15.98
380.429	15.7
380.795	15.23
381.161	15.63
381.528	15.43
381.894	15.97
382.26	15.7
382.626	16.02
382.993	16.03
383.359	15.94
383.725	16.41
384.091	15.83
384.457	16.32
384.823	16.42
385.188	16.62
385.554	16.21
385.92	16.45
386.286	16.63
386.651	16.79
387.017	16.64
387.383	16.56
387.748	16.56
388.114	17.05
388.479	16.98
388.845	17.02
389.21	17.15
389.575	17.08
389.94	17.21
390.306	17.22
390.671	17.15
391.036	17.23
391.401	17.61
391.766	17.2
392.131	17.16
392.496	17.57
392.861	17.13
393.226	17.48
393.591	17.55
393.956	17.72
394.32	17.45
394.685	17.73
395.05	17.5
395.414	17.67
395.779	17.68
396.143	17.51
396.508	17.65
396.872	17.71
397.236	17.65
397.601	18
397.965	17.51
398.329	18.08
398.694	17.84
399.058	17.97
399.422	18.19
399.786	18.12
400.15	18.46
400.514	18.53
400.878	18.28
401.242	18.5
401.605	18.4
401.969	18.54
402.333	18.27
402.697	18.75
403.06	18.76
403.424	18.49
403.787	18.96
404.151	18.88
404.514	18.61
404.878	19.16
405.241	18.73
405.604	19
405.968	18.82
406.331	18.93
406.694	19.23
407.057	19.5
407.42	19.1
407.783	19.17
408.146	19.23
408.509	19.18
408.872	19.37
409.235	19.64
409.598	19.95
409.961	19.58
410.323	19.41
410.686	19.82
411.049	19.51
411.411	19.9
411.774	19.8
412.136	19.84
412.499	19.91
412.861	19.83
413.223	20.25
413.586	20.14
413.948	19.75
414.31	20.03
414.672	20.1
415.035	20.24
415.397	20.37
415.759	20.21
416.121	20.56
416.483	20.72
416.845	20.38
417.206	20.49
417.568	20.36
417.93	20.33
418.292	20.51
418.653	20.52
419.015	20.61
419.377	20.5
419.738	20.56
420.1	20.49
420.461	20.65
420.822	20.69
421.184	20.61
421.545	20.57
421.906	20.61
422.267	20.51
422.629	20.59
422.99	20.53
423.351	20.76
423.712	20.94
424.073	20.9
424.434	21.01
424.795	20.87
425.155	20.89
425.516	20.88
425.877	21.02
426.238	20.93
426.598	21.22
426.959	21.32
427.32	21.32
427.68	21.4
428.041	21.57
428.401	21.46
428.761	21.93
429.122	22.02
429.482	22.06
429.842	21.93
430.202	21.99
430.563	22
430.923	22.11
431.283	22.35
431.643	21.92
432.003	22.3
432.363	22.44
432.722	22.3
433.082	22.42
433.442	22.47
433.802	22.58
434.161	22.41
434.521	22.61
434.881	22.54
435.24	22.42
435.6	22.67
435.959	22.59
436.319	22.65
436.678	22.82
437.037	22.8
437.396	22.84
437.756	23.04
438.115	22.9
438.474	23
438.833	22.94
439.192	22.98
439.551	23.12
439.91	23.07
440.269	23.16
440.628	23.11
440.987	23.07
441.345	23
441.704	23.21
442.063	23.13
442.421	23.07
442.78	23.17
443.138	23.16
443.497	23.29
443.855	23.41
444.214	23.48
444.572	23.57
444.93	23.87
445.288	23.82
445.647	23.76
446.005	23.65
446.363	23.63
446.721	23.53
447.079	23.59
447.437	23.55
447.795	23.67
448.153	23.54
448.51	23.65
448.868	23.71
449.226	23.81
449.584	23.99
449.941	23.96
450.299	24.2
450.656	24.5
451.014	24.29
451.371	24.42
451.729	24.5
452.086	24.34
452.443	24.54
452.801	24.64
453.158	24.49
453.515	24.71
453.872	24.71
454.229	24.72
454.586	24.85
454.943	24.85
455.3	25.02
455.657	24.88
456.014	25.01
456.371	25.29
456.727	25.11
457.084	24.82
457.441	25.41
457.797	25.31
458.154	25.27
458.51	25.29
458.867	25.32
459.223	25.48
459.58	25.38
459.936	25.49
460.292	25.4
460.648	25.28
461.005	24.95
461.361	25.17
461.717	25.24
462.073	25.2
462.429	25.5
462.785	25.66
463.141	25.8
463.496	25.71
463.852	25.87
464.208	25.77
464.564	25.99
464.919	26.26
465.275	26.23
465.631	26.32
465.986	26.36
466.342	26.2
466.697	26.34
467.052	26.25
467.408	26.5
467.763	26.44
468.118	26.31
468.473	26.4
468.829	26.61
469.184	26.63
469.539	26.52
469.894	26.58
470.249	26.72
470.603	26.81
470.958	26.99
471.313	26.85
471.668	27.12
472.023	27.03
472.377	26.85
472.732	27.25
473.086	26.99
473.441	27.22
473.795	27.48
474.15	27.28
474.504	27.22
474.859	27.44
475.213	27.31
475.567	27.37
475.921	27.54
476.275	27.51
476.63	27.36
476.984	27.58
477.338	27.74
477.692	27.39
478.045	27.8
478.399	27.81
478.753	27.53
479.107	27.59
479.461	27.73
479.814	27.8
480.168	27.86
480.521	27.82
480.875	28.08
481.228	27.95
481.582	27.84
481.935	27.92
482.289	27.92
482.642	27.95
482.995	27.93
483.348	27.87
483.701	27.69
484.055	27.58
484.408	27.42
484.761	27.17
485.114	27.07
485.466	27.11
485.819	27.11
486.172	27.22
486.525	27.39
486.878	27.55
487.23	27.67
487.583	27.8
487.936	27.97
488.288	27.77
488.641	27.65
488.993	27.71
489.345	27.63
489.698	27.72
490.05	27.89
490.402	28.03
490.754	28.19
491.107	28.22
491.459	28.5
491.811	28.63
492.163	28.52
492.515	28.35
492.866	28.22
493.218	28.19
493.57	28.31
493.922	28.4
494.274	28.66
494.625	28.79
494.977	29.02
495.328	29.24
495.68	29.43
496.031	29.58
496.383	29.64
496.734	29.55
497.086	29.66
497.437	29.69
497.788	29.71
498.139	29.42
498.49	29.38
498.842	29.49
499.193	29.74
499.544	29.75
499.894	29.8
500.245	29.88
500.596	30.01
500.947	30.08
501.298	30.15
501.648	30.26
501.999	30.43
502.35	30.57
502.7	30.69
503.051	30.37
503.401	30.57
503.752	30.54
504.102	30.6
504.452	30.59
504.803	30.49
505.153	30.63
505.503	30.47
505.853	30.73
506.203	30.8
506.553	30.74
506.903	30.83
507.253	30.73
507.603	31.03
507.953	31.11
508.303	30.98
508.652	31.16
509.002	31.12
509.352	31.14
509.701	31.06
510.051	31
510.4	30.96
510.75	31.08
511.099	31.05
511.449	31.07
511.798	31.23
512.147	31.09
512.496	31.26
512.846	31.22
513.195	31.35
513.544	31.45
513.893	31.15
514.242	31.56
514.591	31.5
514.939	31.56
515.288	31.81
515.637	31.71
515.986	31.78
516.334	31.85
516.683	31.94
517.032	31.69
517.38	32.01
517.729	32.04
518.077	32.02
518.426	31.93
518.774	31.97
519.122	31.91
519.47	31.65
519.819	31.7
520.167	31.67
520.515	31.67
520.863	31.77
521.211	31.95
521.559	32.13
521.907	31.97
522.255	32.27
522.602	32.37
522.95	32.33
523.298	32.42
523.645	32.36
523.993	32.84
524.341	32.53
524.688	32.82
525.036	32.77
525.383	32.82
525.73	32.66
526.078	32.66
526.425	32.42
526.772	32.15
527.119	32.25
527.466	32.34
527.814	32.47
528.161	32.45
528.508	32.35
528.854	32.26
529.201	32.16
529.548	31.92
529.895	31.98
530.242	32.02
530.588	32.06
530.935	32.11
531.282	32.23
531.628	32.41
531.975	32.55
532.321	32.84
532.667	32.82
533.014	33.02
533.36	32.89
533.706	32.93
534.052	32.76
534.399	32.67
534.745	32.54
535.091	32.78
535.437	32.93
535.783	33.13
536.129	33.23
536.474	33.27
536.82	33.37
537.166	33.54
537.512	33.53
537.857	33.43
538.203	33.31
538.549	33.43
538.894	33.53
539.239	33.82
539.585	33.74
539.93	34.01
540.276	34.06
540.621	34.23
540.966	33.97
541.311	34.14
541.656	33.9
542.001	33.91
542.346	33.57
542.691	33.38
543.036	33.5
543.381	33.51
543.726	33.76
544.071	33.78
544.415	33.97
544.76	33.94
545.105	34.04
545.449	34.03
545.794	34.35
546.138	34.59
546.483	34.7
546.827	34.88
547.171	34.57
547.516	34.7
547.86	34.67
548.204	34.54
548.548	34.76
548.892	34.72
549.236	34.88
549.58	35.06
549.924	35.36
550.268	35.12
550.612	35.62
550.956	35.49
551.3	35.68
551.643	35.63
551.987	35.38
552.33	35.74
552.674	35.9
553.017	35.81
553.361	35.65
553.704	35.74
554.048	35.59
554.391	35.46
554.734	35.69
555.077	36
555.42	35.94
555.764	35.65
556.107	35.93
556.45	36.18
556.793	36.2
557.135	36.39
557.478	36.3
557.821	36.4
558.164	36.32
558.507	36.08
558.849	36.14
559.192	36.37
559.534	36.35
559.877	36.73
560.219	36.76
560.562	36.54
560.904	36.5
561.246	36.41
561.589	36.85
561.931	36.76
562.273	36.44
562.615	36.85
562.957	36.65
563.299	36.94
563.641	36.87
563.983	37.04
564.325	36.78
564.667	36.84
565.008	36.82
565.35	37.25
565.692	36.97
566.033	37.1
566.375	36.73
566.716	37
567.058	37.1
567.399	36.85
567.741	37.06
568.082	36.96
568.423	37.16
568.764	37.14
569.105	37.03
569.447	37.16
569.788	37.44
570.129	37.33
570.47	37.49
570.811	37.46
571.151	37.4
571.492	37.68
571.833	37.46
572.174	37.51
572.514	37.71
572.855	37.69
573.195	37.35
573.536	37.37
573.876	37.28
574.217	37.61
574.557	37.59
574.898	37.63
575.238	37.74
575.578	37.86
575.918	37.85
576.258	37.71
576.598	37.62
576.938	38.15
577.278	38.12
577.618	38.04
577.958	37.96
578.298	38.21
578.638	37.97
578.977	38.3
579.317	38.2
579.657	38.17
579.996	38.82
580.336	38.43
580.675	38.67
581.014	38.68
581.354	38.52
581.693	38.76
582.032	38.73
582.372	38.77
582.711	38.62
583.05	38.87
583.389	38.78
583.728	38.85
584.067	38.54
584.406	39.11
584.745	39
585.083	39.01
585.422	39
585.761	39.17
586.1	39.37
586.438	39.34
586.777	39.2
587.115	39.3
587.454	39.29
587.792	39.28
588.13	39.35
588.469	39.68
588.807	39.19
589.145	39.56
589.483	39.64
589.821	39.22
590.159	39.42
590.497	39.36
590.835	39.35
591.173	39.3
591.511	39.27
591.849	39.77
592.187	39.58
592.524	39.47
592.862	39.31
593.2	39.54
593.537	39.65
593.875	39.6
594.212	39.69
594.55	39.55
594.887	40.05
595.224	39.87
595.561	39.79
595.899	39.89
596.236	39.92
596.573	39.8
596.91	40.02
597.247	40.03
597.584	40.27
597.921	39.93
598.258	39.75
598.594	39.74
598.931	39.62
599.268	39.81
599.604	40.12
599.941	39.98
600.277	40.49
600.614	40.3
600.95	40.3
601.287	40.56
601.623	40.44
601.959	40.71
602.296	40.3
602.632	40.58
602.968	40.62
603.304	40.7
603.64	40.32
603.976	40.7
604.312	40.63
604.648	40.36
604.984	40.37
605.319	40.35
605.655	40.38
605.991	40.15
606.326	40.32
606.662	40.32
606.998	40.26
607.333	40.28
607.668	40.5
608.004	40.48
608.339	40.67
608.674	40.52
609.01	40.96
609.345	40.86
609.68	40.83
610.015	40.81
610.35	41.06
610.685	40.81
611.02	40.77
611.355	40.85
611.689	40.81
612.024	40.94
612.359	41.28
612.694	41.34
613.028	41.41
613.363	41.17
613.697	41.27
614.032	41.55
614.366	41.5
614.7	41.59
615.035	41.46
615.369	41.68
615.703	42.39
616.037	41.58
616.371	41.42
616.705	42.14
617.039	41.83
617.373	41.35
617.707	41.65
618.041	42.19
618.375	42.23
618.709	42.33
619.042	42
619.376	41.84
619.71	42.08
620.043	42.22
620.377	41.82
620.71	42.08
621.043	41.93
621.377	42.49
621.71	42.51
622.043	41.86
622.376	42.22
622.709	42.37
623.043	42.46
623.376	42.21
623.709	42.34
624.041	42.17
624.374	42.51
624.707	42.39
625.04	42.72
625.373	42.59
625.705	42.55
626.038	42.25
626.37	42
626.703	42.54
627.035	42.57
627.368	42.43
627.7	42.54
628.032	42.53
628.365	42.18
628.697	42.37
629.029	42.83
629.361	42.52
629.693	42.93
630.025	42.79
630.357	42.47
630.689	42.83
631.021	42.96
631.353	42.93
631.684	42.8
632.016	42.89
632.348	43.15
632.679	43.42
633.011	43.21
633.342	43.18
633.674	43.37
634.005	43.14
634.336	43.17
634.668	43.16
634.999	43.08
635.33	42.76
635.661	43.19
635.992	43.21
636.323	43.47
636.654	43.12
636.985	43.53
637.316	43.59
637.647	43.49
637.977	43.15
638.308	43.33
638.639	43.32
638.969	43.29
639.3	43.82
639.63	43.55
639.961	43.59
640.291	43.75
640.622	43.97
640.952	43.55
641.282	43.08
641.612	43.74
641.943	43.87
642.273	43.85
642.603	43.71
642.933	43.6
643.263	43.74
643.592	44.06
643.922	43.58
644.252	43.55
644.582	44.63
644.911	43.79
645.241	43.92
645.571	43.86
645.9	43.98
646.23	44.61
646.559	43.78
646.888	43.98
647.218	44.26
647.547	44.34
647.876	44.12
648.205	43.76
648.534	43.61
648.863	44.43
649.192	44.14
649.521	44.12
649.85	44.55
650.179	44.48
650.508	44.29
650.837	44.53
651.165	44.55
651.494	44.08
651.822	44.53
652.151	44.86
652.479	44.77
652.808	44.53
653.136	44.73
653.465	44.52
653.793	44.9
654.121	44.92
654.449	44.74
654.777	44.78
655.105	44.68
655.433	44.87
655.761	44.81
656.089	44.76
656.417	44.9
656.745	44.99
657.073	44.7
657.4	45.39
657.728	44.61
658.056	44.85
658.383	44.84
658.711	45.17
659.038	44.96
659.365	45.29
659.693	44.93
660.02	44.63
660.347	44.95
660.674	44.49
661.001	45.12
661.329	44.98
661.656	45.06
661.982	44.84
662.309	44.75
662.636	44.98
662.963	45.44
663.29	45.75
663.616	46.03
663.943	45.35
664.27	45.34
664.596	45.43
664.923	45.83
665.249	45.38
665.576	45.69
665.902	45.06
666.228	45.18
666.554	45.3
666.881	45.68
667.207	46.22
667.533	46.06
667.859	46.28
668.185	45.72
668.511	45.86
668.837	45.87
669.162	45.92
669.488	45.32
669.814	46.04
670.139	46.16
670.465	46.01
670.791	45.61
