Data from 0053_forehead_Reflection__1__58.txt Node

Date: Fri Dec 16 14:20:27 CST 2022
User: ToomeyLab
Spectrometer: FLMS14357
Trigger mode: 0
Integration Time (sec): 1.000000E-2
Scans to average: 100
Electric dark correction enabled: true
Nonlinearity correction enabled: false
Boxcar width: 0
XAxis mode: Wavelengths
Number of Pixels in Spectrum: 2048
>>>>>Begin Spectral Data<<<<<
189.047	117.92
189.435	117.92
189.823	117.92
190.211	-240.29
190.599	-131.07
190.987	-971.6
191.375	-42.43
191.763	189.14
192.151	-89.16
192.538	94.95
192.926	-101.17
193.314	164.68
193.702	-17896
194.089	-33.07
194.477	6872
194.864	320.9
195.252	-46.5
195.639	163.99
196.027	-67.06
196.414	62.36
196.801	331.81
197.189	102.4
197.576	30.75
197.963	-98.5
198.351	42.2
198.738	9.4
199.125	24.92
199.512	71.65
199.899	-21.7
200.286	61.77
200.673	83.32
201.06	65.28
201.447	38.79
201.833	18.08
202.22	70.68
202.607	30.96
202.994	39.75
203.38	51.35
203.767	-9.86
204.154	33.69
204.54	37.31
204.927	43.29
205.313	41.31
205.699	25.12
206.086	30.54
206.472	31.95
206.858	38.13
207.245	43.51
207.631	19.21
208.017	59.12
208.403	49.13
208.789	6.47
209.175	47.1
209.561	53.34
209.947	2.23
210.333	18.36
210.719	14.56
211.105	25.22
211.491	18.23
211.876	28.82
212.262	1.43
212.648	1.06
213.034	14.84
213.419	25.46
213.805	32.52
214.19	38.35
214.576	4.63
214.961	29.76
215.346	15.78
215.732	-0.25
216.117	-3.76
216.502	12.26
216.888	28.65
217.273	27.5
217.658	11.63
218.043	20.89
218.428	38.56
218.813	11.89
219.198	21.54
219.583	23.52
219.968	30.78
220.353	32.68
220.738	12.57
221.122	4.49
221.507	3.76
221.892	21.88
222.276	17.81
222.661	12.06
223.046	21.01
223.43	9.29
223.815	8.42
224.199	13.41
224.583	7.48
224.968	18.06
225.352	16.61
225.736	16.03
226.121	3.26
226.505	11.72
226.889	7.14
227.273	8.3
227.657	2.52
228.041	10.68
228.425	9.33
228.809	7.79
229.193	4.44
229.577	4.91
229.961	5.87
230.344	5.32
230.728	4.92
231.112	5.06
231.495	4.49
231.879	5.69
232.263	5.21
232.646	4.09
233.03	2.64
233.413	6.04
233.797	8.47
234.18	1.81
234.563	6.97
234.946	4.61
235.33	6.02
235.713	5.81
236.096	6.03
236.479	5.98
236.862	5.33
237.245	6.81
237.628	5.7
238.011	6.36
238.394	6.45
238.777	6.47
239.16	3.73
239.543	5.74
239.925	6.53
240.308	6.24
240.691	3.87
241.073	6.89
241.456	5.03
241.838	4.63
242.221	4.9
242.603	5.44
242.986	6.03
243.368	4.78
243.75	4.68
244.133	4.81
244.515	5.01
244.897	4.68
245.279	4.39
245.661	4.99
246.043	5.4
246.425	4.75
246.807	4.99
247.189	4.68
247.571	5.21
247.953	4.76
248.335	4.79
248.717	4.54
249.098	4.61
249.48	4.26
249.862	4.8
250.243	4.85
250.625	5.15
251.006	5.12
251.388	5.66
251.769	5.11
252.151	4.71
252.532	5.23
252.913	5.18
253.295	4.62
253.676	5.24
254.057	4.3
254.438	4.85
254.819	4.77
255.2	5.04
255.581	4.54
255.962	5.51
256.343	5.99
256.724	5.05
257.105	4.24
257.486	5.15
257.867	3.42
258.247	5.42
258.628	5.43
259.009	4.88
259.389	5.51
259.77	4.53
260.15	5.15
260.531	4.66
260.911	4.78
261.292	4.46
261.672	4.42
262.052	4.36
262.432	4.62
262.813	4.75
263.193	4.24
263.573	4.83
263.953	4.78
264.333	4.24
264.713	4.35
265.093	5.42
265.473	5.53
265.853	4.84
266.233	4.33
266.612	4.9
266.992	4.38
267.372	4.72
267.752	4.61
268.131	4.46
268.511	4.76
268.89	5.09
269.27	4.57
269.649	5.01
270.029	4.44
270.408	4.82
270.787	4.63
271.167	4.96
271.546	4.09
271.925	4.57
272.304	4.69
272.683	4.3
273.062	5.05
273.441	4.63
273.82	4.79
274.199	4.65
274.578	3.97
274.957	4.57
275.336	4.36
275.715	4.95
276.093	4.68
276.472	4.54
276.851	5.09
277.229	5.02
277.608	4.68
277.986	4.74
278.365	4.45
278.743	4.72
279.122	4.4
279.5	4.32
279.878	3.75
280.257	4.5
280.635	4.4
281.013	4.96
281.391	4.57
281.769	4.08
282.147	4.71
282.525	4.59
282.903	4.65
283.281	4.71
283.659	4.83
284.037	4.45
284.415	4.72
284.792	4.43
285.17	4.6
285.548	4.1
285.925	4.04
286.303	4.14
286.68	4.36
287.058	4.46
287.435	4.16
287.813	4.4
288.19	4.64
288.567	4.24
288.945	4.32
289.322	4.43
289.699	4.5
290.076	4.68
290.453	4.24
290.83	4.45
291.207	4.32
291.584	4.44
291.961	4.64
292.338	4.45
292.715	4.99
293.092	4.59
293.469	5.03
293.845	4.94
294.222	5.19
294.599	5.37
294.975	5.35
295.352	4.45
295.728	4.99
296.105	4.91
296.481	5.46
296.858	5.22
297.234	5.24
297.61	4.97
297.986	5.09
298.363	4.45
298.739	5.08
299.115	4.6
299.491	4.99
299.867	4.9
300.243	5.28
300.619	4.55
300.995	5.05
301.371	5.41
301.746	4.7
302.122	5.56
302.498	5.48
302.874	5.27
303.249	5.69
303.625	5.62
304	5.03
304.376	5.41
304.751	5.26
305.127	5.35
305.502	5.69
305.878	5.32
306.253	5.1
306.628	5.74
307.003	5.72
307.378	5.47
307.754	6.03
308.129	5.36
308.504	5.82
308.879	5.53
309.254	6.43
309.629	6.17
310.003	6.48
310.378	6.12
310.753	5.79
311.128	6.02
311.502	6.2
311.877	5.82
312.252	6.14
312.626	6.19
313.001	6.08
313.375	6.1
313.75	6.45
314.124	6.76
314.498	6.2
314.873	6.72
315.247	6.17
315.621	6.81
315.995	6.24
316.369	6.91
316.743	6.9
317.117	6.79
317.491	6.63
317.865	6.2
318.239	7.28
318.613	6.9
318.987	6.85
319.361	7.62
319.734	6.93
320.108	7.15
320.482	6.93
320.855	7.38
321.229	7.28
321.602	7.11
321.976	7.01
322.349	7.12
322.723	6.97
323.096	7.51
323.469	6.63
323.843	7.66
324.216	7.76
324.589	7.34
324.962	7.42
325.335	7.48
325.708	7.43
326.081	7.87
326.454	7.82
326.827	8.35
327.2	8.17
327.573	8.2
327.945	7.61
328.318	7.89
328.691	7.99
329.063	7.67
329.436	7.62
329.809	7.15
330.181	8.18
330.553	8.07
330.926	8.22
331.298	7.81
331.671	7.97
332.043	8.35
332.415	8.35
332.787	8.63
333.159	8.56
333.532	8.55
333.904	8.86
334.276	8.52
334.648	8.33
335.02	8.19
335.391	8.98
335.763	8.53
336.135	8.92
336.507	8.59
336.879	8.99
337.25	8.85
337.622	8.59
337.993	9.25
338.365	9.01
338.736	9.05
339.108	8.42
339.479	8.82
339.851	9.19
340.222	9.16
340.593	8.7
340.964	9.13
341.336	8.87
341.707	9.23
342.078	8.67
342.449	9.73
342.82	9.06
343.191	8.89
343.562	9.19
343.933	9.59
344.303	9.59
344.674	9.24
345.045	9.69
345.416	9.29
345.786	9.23
346.157	9.83
346.527	9.61
346.898	9.63
347.268	9.51
347.639	9.72
348.009	10.02
348.38	9.89
348.75	9.83
349.12	9.76
349.49	10.15
349.861	10.45
350.231	10.47
350.601	10.39
350.971	10.25
351.341	10.2
351.711	10.04
352.081	10.03
352.45	10.37
352.82	10.07
353.19	10.42
353.56	10.4
353.929	10.8
354.299	10.23
354.669	10.62
355.038	11.04
355.408	10.99
355.777	10.3
356.147	10.8
356.516	11.15
356.885	10.8
357.254	10.97
357.624	11.01
357.993	10.96
358.362	11.12
358.731	11.41
359.1	11.07
359.469	11.02
359.838	10.88
360.207	11
360.576	11.33
360.945	11.21
361.314	11.55
361.682	11.2
362.051	11.17
362.42	11.5
362.788	11.47
363.157	11.29
363.525	11.37
363.894	11.22
364.262	11.53
364.631	12.22
364.999	11.32
365.367	12.09
365.735	11.59
366.104	11.69
366.472	11.81
366.84	11.91
367.208	11.8
367.576	12.08
367.944	12.39
368.312	11.96
368.68	12.26
369.048	12.32
369.416	12.33
369.783	12.56
370.151	12.56
370.519	12.26
370.886	12.59
371.254	12.56
371.621	12.56
371.989	12.81
372.356	12.89
372.724	12.79
373.091	12.65
373.458	12.57
373.826	12.84
374.193	12.86
374.56	12.78
374.927	12.73
375.294	13.42
375.661	13.12
376.028	13.25
376.395	13.31
376.762	13.51
377.129	13.7
377.496	13.39
377.863	13.3
378.229	13.36
378.596	13.4
378.963	13.36
379.329	13.29
379.696	13.83
380.062	13.76
380.429	13.74
380.795	13.83
381.161	13.92
381.528	13.41
381.894	13.94
382.26	13.78
382.626	13.99
382.993	13.62
383.359	14.14
383.725	14.54
384.091	14.2
384.457	14.48
384.823	14.25
385.188	14.47
385.554	14.36
385.92	14.72
386.286	14.6
386.651	14.5
387.017	14.71
387.383	14.6
387.748	14.78
388.114	14.97
388.479	14.93
388.845	14.72
389.21	15.18
389.575	15.18
389.94	14.92
390.306	14.97
390.671	14.77
391.036	15.27
391.401	15.41
391.766	15.54
392.131	15.34
392.496	15.34
392.861	15.31
393.226	15.4
393.591	15.38
393.956	15.49
394.32	15.42
394.685	15.78
395.05	15.68
395.414	15.72
395.779	15.68
396.143	15.76
396.508	15.89
396.872	15.99
397.236	15.69
397.601	16.19
397.965	15.72
398.329	16.1
398.694	15.94
399.058	16.18
399.422	16.31
399.786	16.41
400.15	16.36
400.514	16.4
400.878	16.19
401.242	16.61
401.605	16.34
401.969	16.56
402.333	16.5
402.697	16.86
403.06	16.61
403.424	16.58
403.787	16.78
404.151	16.65
404.514	16.89
404.878	17.22
405.241	17.04
405.604	16.87
405.968	16.96
406.331	16.97
406.694	16.81
407.057	17.39
407.42	17.13
407.783	17.03
408.146	17.26
408.509	17.31
408.872	17.09
409.235	17.4
409.598	17.62
409.961	17.7
410.323	17.6
410.686	17.7
411.049	17.49
411.411	17.81
411.774	17.6
412.136	17.58
412.499	17.89
412.861	17.85
413.223	18.19
413.586	18.22
413.948	17.95
414.31	18.3
414.672	18.24
415.035	18.26
415.397	18.59
415.759	18.45
416.121	18.45
416.483	18.65
416.845	18.41
417.206	18.6
417.568	18.56
417.93	18.66
418.292	18.49
418.653	18.47
419.015	18.64
419.377	18.77
419.738	18.53
420.1	18.52
420.461	18.5
420.822	18.66
421.184	18.58
421.545	18.81
421.906	18.71
422.267	18.63
422.629	18.59
422.99	18.66
423.351	18.52
423.712	18.69
424.073	18.93
424.434	18.97
424.795	19.02
425.155	19.09
425.516	19.05
425.877	19
426.238	18.88
426.598	19.08
426.959	19.14
427.32	19.36
427.68	19.33
428.041	19.59
428.401	19.51
428.761	19.77
429.122	19.86
429.482	19.87
429.842	20.06
430.202	20.16
430.563	20.07
430.923	20.23
431.283	20.18
431.643	20.43
432.003	20.31
432.363	20.37
432.722	20.28
433.082	20.42
433.442	20.45
433.802	20.52
434.161	20.59
434.521	20.57
434.881	20.62
435.24	20.49
435.6	20.59
435.959	20.63
436.319	20.65
436.678	20.98
437.037	20.74
437.396	20.87
437.756	20.98
438.115	20.95
438.474	21.25
438.833	21.25
439.192	21.29
439.551	21.19
439.91	21.38
440.269	21.19
440.628	21.14
440.987	21.28
441.345	21.27
441.704	21.32
442.063	21.32
442.421	21.25
442.78	21.39
443.138	21.33
443.497	21.41
443.855	21.58
444.214	21.58
444.572	21.75
444.93	21.97
445.288	21.98
445.647	22
446.005	21.73
446.363	21.94
446.721	21.82
447.079	21.92
447.437	21.74
447.795	21.71
448.153	21.7
448.51	21.81
448.868	21.77
449.226	21.97
449.584	22.22
449.941	22.15
450.299	22.22
450.656	22.43
451.014	22.51
451.371	22.5
451.729	22.66
452.086	22.67
452.443	22.83
452.801	22.8
453.158	22.88
453.515	23.06
453.872	22.97
454.229	22.79
454.586	22.85
454.943	23.03
455.3	23.17
455.657	23.13
456.014	23.35
456.371	23.23
456.727	23.55
457.084	23.3
457.441	23.2
457.797	23.48
458.154	23.69
458.51	23.52
458.867	23.71
459.223	23.6
459.58	23.75
459.936	23.8
460.292	23.76
460.648	23.6
461.005	23.41
461.361	23.45
461.717	23.42
462.073	23.22
462.429	23.5
462.785	23.72
463.141	24.08
463.496	23.87
463.852	24.23
464.208	24.16
464.564	24.23
464.919	24.35
465.275	24.68
465.631	24.57
465.986	24.66
466.342	24.55
466.697	24.61
467.052	24.61
467.408	24.57
467.763	24.6
468.118	24.89
468.473	24.75
468.829	24.87
469.184	24.7
469.539	24.77
469.894	25
470.249	24.9
470.603	25.07
470.958	25.13
471.313	25.22
471.668	25.36
472.023	25.31
472.377	25.37
472.732	25.47
473.086	25.53
473.441	25.62
473.795	25.71
474.15	25.73
474.504	25.74
474.859	25.45
475.213	25.53
475.567	25.66
475.921	25.89
476.275	25.92
476.63	25.85
476.984	26.14
477.338	26.2
477.692	26.07
478.045	26.29
478.399	25.97
478.753	25.89
479.107	26.11
479.461	26.36
479.814	26.31
480.168	26.14
480.521	26.2
480.875	26.59
481.228	26.3
481.582	26.43
481.935	26.56
482.289	26.42
482.642	26.66
482.995	26.43
483.348	26.53
483.701	26.31
484.055	26.31
484.408	26.16
484.761	26
485.114	25.99
485.466	25.79
485.819	25.41
486.172	25.31
486.525	25.38
486.878	25.61
487.23	25.97
487.583	26.19
487.936	26.38
488.288	26.53
488.641	26.47
488.993	26.27
489.345	26.06
489.698	26.18
490.05	26.05
490.402	26.19
490.754	26.51
491.107	26.64
491.459	26.97
491.811	27.12
492.163	27.22
492.515	27.25
492.866	27.06
493.218	26.85
493.57	26.68
493.922	26.55
494.274	26.83
494.625	26.93
494.977	27.34
495.328	27.62
495.68	27.86
496.031	28.01
496.383	28.16
496.734	28.23
497.086	28.22
497.437	28.31
497.788	28.43
498.139	28.17
498.49	28.19
498.842	28.07
499.193	28.19
499.544	28.23
499.894	28.51
500.245	28.47
500.596	28.53
500.947	28.64
501.298	28.53
501.648	28.66
501.999	28.86
502.35	29.08
502.7	29.11
503.051	29.09
503.401	29.13
503.752	29.17
504.102	29.16
504.452	29.19
504.803	29.33
505.153	29.5
505.503	29.23
505.853	29.36
506.203	29.4
506.553	29.3
506.903	29.46
507.253	29.48
507.603	29.5
507.953	29.7
508.303	29.77
508.652	29.83
509.002	29.9
509.352	29.77
509.701	29.77
510.051	29.83
510.4	29.69
510.75	29.68
511.099	29.83
511.449	29.9
511.798	30.02
512.147	29.94
512.496	30.03
512.846	29.97
513.195	30.01
513.544	30.16
513.893	29.95
514.242	30.22
514.591	30.23
514.939	30.23
515.288	30.63
515.637	30.69
515.986	30.32
516.334	30.62
516.683	30.77
517.032	30.52
517.38	30.66
517.729	30.76
518.077	30.93
518.426	31.12
518.774	31.03
519.122	30.71
519.47	30.63
519.819	30.7
520.167	30.48
520.515	30.37
520.863	30.38
521.211	30.49
521.559	30.73
521.907	30.81
522.255	31
522.602	31.21
522.95	31.15
523.298	31.44
523.645	31.3
523.993	31.49
524.341	31.44
524.688	31.59
525.036	31.77
525.383	31.65
525.73	31.68
526.078	31.72
526.425	31.7
526.772	31.53
527.119	31.4
527.466	31.34
527.814	31.41
528.161	31.39
528.508	31.37
528.854	31.45
529.201	31.59
529.548	31.52
529.895	31.57
530.242	31.39
530.588	30.91
530.935	30.64
531.282	30.65
531.628	30.78
531.975	31.26
532.321	31.53
532.667	31.7
533.014	31.94
533.36	31.87
533.706	31.87
534.052	32.04
534.399	32.07
534.745	32.01
535.091	31.77
535.437	31.65
535.783	31.67
536.129	31.77
536.474	31.98
536.82	32.27
537.166	32.53
537.512	32.66
537.857	32.75
538.203	32.66
538.549	32.55
538.894	32.28
539.239	32.55
539.585	32.6
539.93	33
540.276	32.98
540.621	33.42
540.966	33.19
541.311	33.4
541.656	33.43
542.001	33.3
542.346	33.24
542.691	33.02
543.036	32.78
543.381	32.63
543.726	32.45
544.071	32.45
544.415	32.8
544.76	33
545.105	33.06
545.449	33.05
545.794	33.3
546.138	33.44
546.483	33.57
546.827	33.74
547.171	33.84
547.516	33.96
547.86	33.95
548.204	33.82
548.548	34.01
548.892	33.96
549.236	33.86
549.58	34.08
549.924	34.07
550.268	34.4
550.612	34.63
550.956	34.54
551.3	34.7
551.643	34.76
551.987	34.73
552.33	34.95
552.674	35.27
553.017	35.08
553.361	35.19
553.704	34.98
554.048	35.05
554.391	35.01
554.734	35.09
555.077	34.99
555.42	35.09
555.764	34.97
556.107	35.28
556.45	35.4
556.793	35.44
557.135	35.54
557.478	35.55
557.821	35.56
558.164	35.67
558.507	35.53
558.849	35.52
559.192	35.51
559.534	35.71
559.877	35.7
560.219	35.9
560.562	35.96
560.904	35.91
561.246	36.06
561.589	35.96
561.931	35.83
562.273	36.12
562.615	36.24
562.957	36.05
563.299	36.23
563.641	35.92
563.983	36.26
564.325	36.24
564.667	36.12
565.008	36.37
565.35	36.56
565.692	36.51
566.033	36.69
566.375	36.31
566.716	36.62
567.058	36.75
567.399	36.16
567.741	36.44
568.082	36.42
568.423	36.36
568.764	36.28
569.105	36.31
569.447	36.5
569.788	36.68
570.129	36.77
570.47	36.76
570.811	37.01
571.151	36.79
571.492	36.95
571.833	36.8
572.174	37.03
572.514	37
572.855	37.19
573.195	36.83
573.536	36.88
573.876	36.94
574.217	37
574.557	37.02
574.898	36.85
575.238	36.91
575.578	37.11
575.918	37.32
576.258	37.31
576.598	37.27
576.938	37.44
577.278	37.08
577.618	37.3
577.958	37.35
578.298	37.61
578.638	37.59
578.977	37.72
579.317	37.67
579.657	37.5
579.996	37.72
580.336	37.93
580.675	37.8
581.014	38.25
581.354	37.99
581.693	38.22
582.032	38.3
582.372	38.49
582.711	38.18
583.05	38.5
583.389	38.37
583.728	38.48
584.067	38.23
584.406	38.5
584.745	38.46
585.083	38.41
585.422	38.65
585.761	38.51
586.1	38.7
586.438	38.77
586.777	38.93
587.115	39.04
587.454	38.71
587.792	38.89
588.13	38.86
588.469	39.07
588.807	39.04
589.145	38.99
589.483	38.83
589.821	38.81
590.159	38.9
590.497	38.79
590.835	39.23
591.173	38.99
591.511	39.08
591.849	39.11
592.187	39.23
592.524	39.15
592.862	39.25
593.2	39.27
593.537	39.08
593.875	39.19
594.212	39.23
594.55	39.24
594.887	39.71
595.224	39.59
595.561	39.71
595.899	39.51
596.236	39.7
596.573	39.55
596.91	39.4
597.247	39.74
597.584	39.77
597.921	39.6
598.258	39.64
598.594	39.61
598.931	39.52
599.268	39.3
599.604	39.41
599.941	39.19
600.277	39.57
600.614	39.61
600.95	39.85
601.287	40.1
601.623	40.04
601.959	40.42
602.296	40.22
602.632	40.63
602.968	40.37
603.304	40.3
603.64	40.35
603.976	40.34
604.312	40.65
604.648	40.7
604.984	40.42
605.319	40.22
605.655	40.27
605.991	40.44
606.326	40.43
606.662	40.2
606.998	40.18
607.333	40.04
607.668	40
608.004	40.22
608.339	40.75
608.674	40.58
609.01	40.5
609.345	40.78
609.68	40.73
610.015	41.06
610.35	40.96
610.685	41.12
611.02	40.79
611.355	40.74
611.689	40.28
612.024	40.65
612.359	40.99
612.694	41.02
613.028	40.83
613.363	40.91
613.697	41
614.032	40.99
614.366	41.36
614.7	41.6
615.035	41.29
615.369	41.73
615.703	41.87
616.037	41.49
616.371	41.01
616.705	41.82
617.039	41.51
617.373	41.67
617.707	41.18
618.041	41.78
618.375	41.83
618.709	41.66
619.042	42.06
619.376	41.8
619.71	41.76
620.043	42
620.377	42.16
620.71	41.9
621.043	42.03
621.377	42.22
621.71	42.21
622.043	42.18
622.376	42.2
622.709	42.6
623.043	42.46
623.376	42.56
623.709	41.75
624.041	42.31
624.374	42.66
624.707	42.04
625.04	42.78
625.373	42.52
625.705	42.76
626.038	42.47
626.37	42.3
626.703	42.57
627.035	42.59
627.368	42.81
627.7	42.53
628.032	42.75
628.365	42.53
628.697	42.9
629.029	42.94
629.361	42.49
629.693	42.85
630.025	42.69
630.357	42.28
630.689	42.63
631.021	42.84
631.353	43.02
631.684	43.07
632.016	42.91
632.348	43.15
632.679	42.81
633.011	42.87
633.342	42.89
633.674	42.92
634.005	43.33
634.336	43.6
634.668	43.42
634.999	43.15
635.33	43.14
635.661	43.38
635.992	43.24
636.323	43.05
636.654	42.98
636.985	43.41
637.316	43.51
637.647	43.58
637.977	43.43
638.308	43.29
638.639	43.97
638.969	43.35
639.3	43.39
639.63	43.95
639.961	43.52
640.291	44.07
640.622	43.5
640.952	43.71
641.282	43.97
641.612	43.88
641.943	43.9
642.273	43.78
642.603	44.05
642.933	43.68
643.263	44.42
643.592	43.85
643.922	44.24
644.252	44.21
644.582	43.88
644.911	43.74
645.241	44.44
645.571	43.84
645.9	44.84
646.23	44.06
646.559	44.03
646.888	44.08
647.218	44.84
647.547	44.54
647.876	44.86
648.205	43.97
648.534	44.05
648.863	44.35
649.192	44.21
649.521	44.5
649.85	44.35
650.179	44.57
650.508	44.97
650.837	44.64
651.165	45.07
651.494	44.75
651.822	44.86
652.151	45.2
652.479	45.48
652.808	45.12
653.136	44.66
653.465	45.08
653.793	44.79
654.121	45.21
654.449	44.82
654.777	44.96
655.105	44.77
655.433	45.4
655.761	44.77
656.089	44.92
656.417	44.92
656.745	45.22
657.073	45.6
657.4	45.82
657.728	44.87
658.056	45.42
658.383	45.45
658.711	44.79
659.038	45.53
659.365	45.26
659.693	45.4
660.02	44.89
660.347	45.74
660.674	45.88
661.001	45.66
661.329	45.54
661.656	45.25
661.982	45.26
662.309	44.88
662.636	45.19
662.963	45.87
663.29	45.62
663.616	45.73
663.943	45.89
664.27	45.96
664.596	45.63
664.923	45.86
665.249	45.53
665.576	45.61
665.902	45.59
666.228	46.16
666.554	45.94
666.881	45.47
667.207	46
667.533	46.41
667.859	46.55
668.185	45.63
668.511	46.3
668.837	45.51
669.162	46.77
669.488	46.16
669.814	46.28
670.139	46.5
670.465	46.07
670.791	46.7
671.116	46.54
671.442	46.1
671.767	46.85
