Data from 0053_crown_Reflection__3__55.txt Node

Date: Fri Dec 16 14:19:35 CST 2022
User: ToomeyLab
Spectrometer: FLMS14357
Trigger mode: 0
Integration Time (sec): 1.000000E-2
Scans to average: 100
Electric dark correction enabled: true
Nonlinearity correction enabled: false
Boxcar width: 0
XAxis mode: Wavelengths
Number of Pixels in Spectrum: 2048
>>>>>Begin Spectral Data<<<<<
189.047	25.26
189.435	25.26
189.823	25.26
190.211	108.92
190.599	289.16
190.987	318.93
191.375	-97.77
191.763	201.74
192.151	-7.82
192.538	147.45
192.926	-72.12
193.314	121.6
193.702	2732
194.089	-13.92
194.477	6188
194.864	198.95
195.252	110.74
195.639	27.36
196.027	-52.32
196.414	-8.61
196.801	-61.65
197.189	193.85
197.576	183.33
197.963	188.11
198.351	20.34
198.738	-16.25
199.125	43.99
199.512	15.68
199.899	-1.63
200.286	-34.27
200.673	8.69
201.06	27.23
201.447	-18.26
201.833	-14.85
202.22	22.22
202.607	-21.66
202.994	4.52
203.38	-42.45
203.767	-29.32
204.154	-45.09
204.54	49.64
204.927	-3.58
205.313	10.24
205.699	-14.75
206.086	-17.03
206.472	11.26
206.858	30.63
207.245	0.16
207.631	-10.31
208.017	-17.22
208.403	4.7
208.789	-5.7
209.175	8.21
209.561	8.98
209.947	-10.01
210.333	10.43
210.719	14.16
211.105	8.13
211.491	-24.49
211.876	-8.37
212.262	-26.4
212.648	41.29
213.034	-4.85
213.419	15.38
213.805	-2.64
214.19	-59.2
214.576	-19.67
214.961	-36.26
215.346	-3.25
215.732	-0.28
216.117	9.48
216.502	-1.61
216.888	4.69
217.273	22.97
217.658	-36.89
218.043	10.22
218.428	-13.36
218.813	-7.68
219.198	-25.17
219.583	1.09
219.968	3.38
220.353	3.97
220.738	-3.76
221.122	37.14
221.507	-2.11
221.892	3.41
222.276	19.1
222.661	1.37
223.046	0.27
223.43	-3.99
223.815	10.54
224.199	10.85
224.583	-0.32
224.968	1.73
225.352	3.61
225.736	3.73
226.121	0.27
226.505	4.03
226.889	11.62
227.273	8.86
227.657	5.51
228.041	12.02
228.425	7.48
228.809	8.56
229.193	6.76
229.577	8.02
229.961	10.33
230.344	9.76
230.728	9.07
231.112	8.73
231.495	8.03
231.879	7.52
232.263	7.49
232.646	8.7
233.03	8.39
233.413	7.79
233.797	9.78
234.18	6.56
234.563	8.73
234.946	8.03
235.33	9.11
235.713	9.02
236.096	7.92
236.479	8.83
236.862	9.45
237.245	8.99
237.628	10.12
238.011	9.08
238.394	8.65
238.777	9.2
239.16	4.57
239.543	7.87
239.925	8.77
240.308	5.99
240.691	8.17
241.073	8.46
241.456	8.08
241.838	8.69
242.221	8.71
242.603	8.48
242.986	8.86
243.368	8.27
243.75	8.14
244.133	7.94
244.515	8.37
244.897	8.23
245.279	8.38
245.661	8.11
246.043	7.96
246.425	7.65
246.807	7.65
247.189	7.71
247.571	8.16
247.953	8.1
248.335	8.05
248.717	7.96
249.098	8.19
249.48	7.15
249.862	7.95
250.243	7.68
250.625	7.74
251.006	7.53
251.388	8.05
251.769	7.1
252.151	8.07
252.532	8.03
252.913	7.61
253.295	8.19
253.676	7.75
254.057	7.33
254.438	7.53
254.819	8.47
255.2	7.04
255.581	7.84
255.962	7.93
256.343	7.7
256.724	7.83
257.105	7.62
257.486	7.29
257.867	6.44
258.247	7.25
258.628	8.06
259.009	6.93
259.389	7.45
259.77	7.53
260.15	7.81
260.531	7.46
260.911	7.36
261.292	7.17
261.672	7.19
262.052	7.03
262.432	7.08
262.813	7.37
263.193	7.36
263.573	7.1
263.953	6.85
264.333	6.67
264.713	6.96
265.093	7.05
265.473	7.69
265.853	6.44
266.233	6
266.612	6.21
266.992	6.83
267.372	6.94
267.752	6.8
268.131	6.81
268.511	7.28
268.89	7.23
269.27	7.16
269.649	7.16
270.029	6.33
270.408	6.7
270.787	6.66
271.167	6.94
271.546	6.33
271.925	7.11
272.304	6.92
272.683	6.83
273.062	6.98
273.441	7.1
273.82	6.82
274.199	6.98
274.578	6.59
274.957	6.81
275.336	6.44
275.715	6.87
276.093	6.78
276.472	7.14
276.851	6.38
277.229	7.18
277.608	6.23
277.986	6.58
278.365	6.1
278.743	6.94
279.122	5.72
279.5	6.41
279.878	6.29
280.257	6.36
280.635	6.45
281.013	7.16
281.391	6.72
281.769	6.41
282.147	6.81
282.525	6.29
282.903	6.5
283.281	6.52
283.659	6.38
284.037	6.28
284.415	6.57
284.792	6.66
285.17	5.78
285.548	6.1
285.925	6.31
286.303	6.12
286.68	6.21
287.058	6.29
287.435	6.14
287.813	6.42
288.19	6.52
288.567	5.9
288.945	5.88
289.322	6.05
289.699	6.15
290.076	6.69
290.453	6.02
290.83	6.51
291.207	6.01
291.584	6.04
291.961	6.37
292.338	5.82
292.715	6.06
293.092	6
293.469	6.49
293.845	6.22
294.222	6.5
294.599	6.45
294.975	6
295.352	5.57
295.728	6.34
296.105	6.22
296.481	6.11
296.858	6.21
297.234	5.91
297.61	5.98
297.986	6.02
298.363	5.76
298.739	6.16
299.115	5.77
299.491	5.74
299.867	5.78
300.243	5.93
300.619	5.64
300.995	5.91
301.371	6.44
301.746	5.63
302.122	5.73
302.498	6.35
302.874	6.04
303.249	5.97
303.625	5.64
304	5.38
304.376	5.47
304.751	5.24
305.127	5.63
305.502	6.02
305.878	5.76
306.253	5.65
306.628	6.05
307.003	5.67
307.378	5.24
307.754	5.47
308.129	5.27
308.504	5.77
308.879	5.87
309.254	5.78
309.629	5.44
310.003	6.24
310.378	6.05
310.753	5.4
311.128	6.05
311.502	5.27
311.877	5.73
312.252	5.42
312.626	5.35
313.001	5.53
313.375	5.59
313.75	5.65
314.124	5.99
314.498	5.21
314.873	5.33
315.247	5.64
315.621	5.68
315.995	5.14
316.369	5.98
316.743	6.06
317.117	5.49
317.491	5.82
317.865	4.92
318.239	6.48
318.613	6.22
318.987	5.4
319.361	5.33
319.734	5.42
320.108	5.41
320.482	5.53
320.855	5.34
321.229	5.73
321.602	5.59
321.976	5.66
322.349	4.95
322.723	5.46
323.096	5.86
323.469	5.23
323.843	5.14
324.216	5.7
324.589	5.78
324.962	5.56
325.335	5.84
325.708	5.24
326.081	6.24
326.454	5.44
326.827	5.46
327.2	6.14
327.573	5.68
327.945	5.42
328.318	6.03
328.691	5.68
329.063	5.74
329.436	5.39
329.809	5.27
330.181	5.54
330.553	5.91
330.926	5.53
331.298	5.24
331.671	5.36
332.043	5.67
332.415	5.92
332.787	6.29
333.159	5.62
333.532	5.42
333.904	5.63
334.276	5.75
334.648	5.35
335.02	5.54
335.391	5.87
335.763	5.78
336.135	5.46
336.507	5.47
336.879	5.46
337.25	5.65
337.622	5.71
337.993	5.69
338.365	5.81
338.736	5.68
339.108	5.49
339.479	5.59
339.851	5.83
340.222	5.62
340.593	5.81
340.964	5.64
341.336	5.5
341.707	5.81
342.078	5.64
342.449	6.17
342.82	6.09
343.191	5.23
343.562	5.67
343.933	5.79
344.303	5.72
344.674	5.74
345.045	6.09
345.416	5.81
345.786	5.5
346.157	5.79
346.527	5.62
346.898	5.81
347.268	5.54
347.639	5.76
348.009	6.18
348.38	5.73
348.75	5.68
349.12	5.68
349.49	5.71
349.861	6.02
350.231	5.93
350.601	5.86
350.971	5.86
351.341	6.2
351.711	5.5
352.081	5.91
352.45	5.89
352.82	5.95
353.19	6.07
353.56	5.82
353.929	6.07
354.299	5.8
354.669	5.85
355.038	5.96
355.408	6.33
355.777	5.87
356.147	6.34
356.516	6.25
356.885	6.06
357.254	6.05
357.624	5.89
357.993	5.87
358.362	6.19
358.731	5.9
359.1	6.37
359.469	6.1
359.838	6.2
360.207	5.92
360.576	5.97
360.945	6.07
361.314	5.99
361.682	6
362.051	6
362.42	6.37
362.788	6.18
363.157	6
363.525	6.14
363.894	5.86
364.262	6.02
364.631	6.39
364.999	5.95
365.367	6.49
365.735	5.96
366.104	6
366.472	6.21
366.84	6.04
367.208	5.66
367.576	6.08
367.944	6.38
368.312	6.1
368.68	6.3
369.048	6.36
369.416	6.34
369.783	6.23
370.151	6.28
370.519	6.19
370.886	6.39
371.254	6.16
371.621	6.09
371.989	6.3
372.356	6.34
372.724	6.38
373.091	6.24
373.458	6.29
373.826	6.19
374.193	6.71
374.56	6.57
374.927	6.42
375.294	6.54
375.661	5.95
376.028	6.33
376.395	6.35
376.762	6.8
377.129	6.44
377.496	6.42
377.863	6.28
378.229	6.16
378.596	6.7
378.963	6.29
379.329	6.24
379.696	6.17
380.062	6.58
380.429	6.59
380.795	5.99
381.161	6.39
381.528	6.08
381.894	6.51
382.26	6.36
382.626	6.4
382.993	6.03
383.359	6.17
383.725	6.73
384.091	6.34
384.457	6.75
384.823	6.45
385.188	6.57
385.554	6.66
385.92	6.5
386.286	6.76
386.651	6.59
387.017	6.75
387.383	6.47
387.748	6.47
388.114	6.57
388.479	6.44
388.845	6.7
389.21	6.54
389.575	6.62
389.94	6.65
390.306	6.45
390.671	6.48
391.036	6.75
391.401	6.83
391.766	6.78
392.131	6.59
392.496	6.66
392.861	6.32
393.226	6.81
393.591	6.76
393.956	6.69
394.32	6.45
394.685	6.66
395.05	6.52
395.414	6.67
395.779	6.51
396.143	6.71
396.508	6.83
396.872	6.55
397.236	6.45
397.601	6.67
397.965	6.65
398.329	6.98
398.694	6.48
399.058	6.79
399.422	6.88
399.786	6.62
400.15	6.64
400.514	6.91
400.878	6.76
401.242	6.89
401.605	6.73
401.969	6.87
402.333	6.78
402.697	6.9
403.06	6.89
403.424	6.77
403.787	6.81
404.151	6.56
404.514	6.61
404.878	6.98
405.241	6.88
405.604	6.91
405.968	6.82
406.331	6.88
406.694	6.73
407.057	7.14
407.42	6.77
407.783	6.91
408.146	6.73
408.509	6.84
408.872	6.47
409.235	6.81
409.598	7.08
409.961	6.91
410.323	6.91
410.686	6.84
411.049	6.83
411.411	6.93
411.774	6.69
412.136	6.96
412.499	6.62
412.861	6.83
413.223	7.15
413.586	6.89
413.948	7.04
414.31	6.95
414.672	6.81
415.035	7
415.397	7.01
415.759	6.77
416.121	7.08
416.483	7.03
416.845	6.94
417.206	7.07
417.568	6.9
417.93	6.85
418.292	6.94
418.653	6.89
419.015	6.92
419.377	7.07
419.738	6.82
420.1	6.83
420.461	6.69
420.822	6.96
421.184	6.83
421.545	6.91
421.906	6.89
422.267	6.79
422.629	6.9
422.99	6.8
423.351	6.8
423.712	6.82
424.073	6.91
424.434	6.81
424.795	6.88
425.155	6.92
425.516	6.92
425.877	6.87
426.238	6.68
426.598	6.92
426.959	6.8
427.32	6.86
427.68	6.92
428.041	6.97
428.401	6.96
428.761	6.81
429.122	6.79
429.482	6.98
429.842	6.89
430.202	6.95
430.563	6.88
430.923	6.93
431.283	7.08
431.643	6.99
432.003	6.91
432.363	7.07
432.722	6.83
433.082	7.01
433.442	7.03
433.802	7.13
434.161	6.93
434.521	7.02
434.881	6.94
435.24	6.91
435.6	7
435.959	6.97
436.319	6.85
436.678	7
437.037	6.91
437.396	7.06
437.756	7.05
438.115	6.95
438.474	7.2
438.833	7.11
439.192	7.01
439.551	7.11
439.91	7.11
440.269	7.09
440.628	7.03
440.987	7.02
441.345	6.99
441.704	7.07
442.063	6.96
442.421	6.88
442.78	6.97
443.138	6.95
443.497	6.85
443.855	6.91
444.214	6.97
444.572	6.87
444.93	7.18
445.288	7
445.647	7.29
446.005	6.93
446.363	7.03
446.721	6.88
447.079	6.95
447.437	6.99
447.795	6.91
448.153	6.86
448.51	6.92
448.868	7.09
449.226	6.93
449.584	6.93
449.941	7.02
450.299	6.88
450.656	7.07
451.014	6.97
451.371	7.02
451.729	7.04
452.086	6.85
452.443	6.93
452.801	7.07
453.158	7
453.515	7.05
453.872	7.07
454.229	7
454.586	7.08
454.943	6.99
455.3	7.11
455.657	6.95
456.014	7.1
456.371	7.1
456.727	7.03
457.084	7
457.441	6.92
457.797	7.03
458.154	6.89
458.51	7.03
458.867	7.09
459.223	7.04
459.58	7.07
459.936	7.07
460.292	7.17
460.648	7.01
461.005	6.98
461.361	6.95
461.717	6.86
462.073	6.86
462.429	7
462.785	6.96
463.141	7
463.496	7.02
463.852	7.19
464.208	6.91
464.564	6.97
464.919	6.92
465.275	7.12
465.631	7.12
465.986	7.1
466.342	7.03
466.697	6.99
467.052	6.87
467.408	6.99
467.763	6.84
468.118	7.03
468.473	7.09
468.829	7.04
469.184	7.11
469.539	6.79
469.894	6.86
470.249	6.92
470.603	6.98
470.958	7.15
471.313	6.88
471.668	7.17
472.023	7.22
472.377	7.11
472.732	6.95
473.086	6.94
473.441	7.12
473.795	7.16
474.15	7.13
474.504	7.03
474.859	7.06
475.213	6.81
475.567	7.08
475.921	7.1
476.275	7.01
476.63	7.03
476.984	7.08
477.338	7.31
477.692	6.98
478.045	7
478.399	7.08
478.753	6.85
479.107	7.01
479.461	7.05
479.814	6.93
480.168	6.93
480.521	6.78
480.875	7.11
481.228	7
481.582	6.95
481.935	7.03
482.289	7.05
482.642	7.08
482.995	6.98
483.348	6.91
483.701	6.85
484.055	6.89
484.408	6.95
484.761	6.83
485.114	6.82
485.466	6.74
485.819	6.58
486.172	6.56
486.525	6.59
486.878	6.65
487.23	6.79
487.583	6.75
487.936	6.9
488.288	6.92
488.641	6.82
488.993	6.71
489.345	6.72
489.698	6.74
490.05	6.69
490.402	6.68
490.754	6.72
491.107	6.82
491.459	6.91
491.811	6.93
492.163	7.01
492.515	6.92
492.866	6.8
493.218	6.78
493.57	6.74
493.922	6.71
494.274	6.76
494.625	6.75
494.977	6.82
495.328	6.95
495.68	7.08
496.031	7.03
496.383	6.86
496.734	7.09
497.086	6.92
497.437	7.04
497.788	7.01
498.139	7.02
498.49	6.99
498.842	6.91
499.193	6.9
499.544	6.97
499.894	7.04
500.245	6.97
500.596	6.96
500.947	6.96
501.298	7.04
501.648	6.91
501.999	7.1
502.35	7.07
502.7	7.09
503.051	7.08
503.401	7.06
503.752	6.99
504.102	7.02
504.452	6.95
504.803	6.81
505.153	7.06
505.503	7.02
505.853	7.08
506.203	6.97
506.553	6.96
506.903	6.94
507.253	7.07
507.603	6.96
507.953	7.15
508.303	7.04
508.652	7.07
509.002	7.03
509.352	7.07
509.701	7.05
510.051	7.03
510.4	6.95
510.75	6.96
511.099	6.95
511.449	6.93
511.798	7.01
512.147	6.94
512.496	6.96
512.846	6.99
513.195	6.94
513.544	7.05
513.893	6.87
514.242	7.02
514.591	6.98
514.939	6.89
515.288	7
515.637	7.19
515.986	6.98
516.334	6.99
516.683	7.04
517.032	6.9
517.38	6.97
517.729	6.99
518.077	7.12
518.426	7
518.774	7.02
519.122	6.92
519.47	7.01
519.819	7
520.167	6.99
520.515	6.81
520.863	6.88
521.211	6.91
521.559	6.92
521.907	6.82
522.255	6.87
522.602	7.06
522.95	6.94
523.298	6.92
523.645	6.96
523.993	7.08
524.341	7.02
524.688	6.93
525.036	7.23
525.383	7.1
525.73	7.03
526.078	6.99
526.425	7.05
526.772	6.88
527.119	6.91
527.466	6.9
527.814	6.89
528.161	6.88
528.508	6.88
528.854	6.88
529.201	6.9
529.548	6.83
529.895	6.83
530.242	6.77
530.588	6.71
530.935	6.69
531.282	6.66
531.628	6.69
531.975	6.78
532.321	6.79
532.667	6.91
533.014	6.93
533.36	6.89
533.706	6.93
534.052	6.87
534.399	6.81
534.745	6.84
535.091	6.77
535.437	6.78
535.783	6.84
536.129	6.74
536.474	6.81
536.82	6.86
537.166	6.9
537.512	6.97
537.857	6.99
538.203	6.99
538.549	6.97
538.894	6.72
539.239	6.94
539.585	6.96
539.93	6.96
540.276	6.95
540.621	6.96
540.966	6.94
541.311	6.99
541.656	7.06
542.001	7.07
542.346	6.98
542.691	6.8
543.036	6.82
543.381	6.79
543.726	6.75
544.071	6.78
544.415	6.75
544.76	6.79
545.105	6.85
545.449	6.83
545.794	6.93
546.138	6.78
546.483	6.98
546.827	6.93
547.171	6.91
547.516	7
547.86	6.97
548.204	6.92
548.548	7.04
548.892	6.93
549.236	7.02
549.58	6.91
549.924	6.91
550.268	6.93
550.612	7.07
550.956	6.9
551.3	6.97
551.643	7.1
551.987	6.89
552.33	6.86
552.674	7.17
553.017	6.89
553.361	6.92
553.704	6.95
554.048	7.02
554.391	6.91
554.734	6.94
555.077	6.97
555.42	6.95
555.764	6.92
556.107	7.07
556.45	6.96
556.793	7.23
557.135	6.98
557.478	6.88
557.821	6.8
558.164	7.03
558.507	6.76
558.849	6.84
559.192	7.03
559.534	6.78
559.877	7.05
560.219	7.08
560.562	7.02
560.904	6.89
561.246	7.28
561.589	7.14
561.931	7.25
562.273	7.03
562.615	7.02
562.957	6.94
563.299	7.08
563.641	6.94
563.983	6.89
564.325	6.82
564.667	6.95
565.008	6.93
565.35	7.18
565.692	7.16
566.033	7.08
566.375	6.93
566.716	7.13
567.058	7.07
567.399	7.03
567.741	6.96
568.082	6.74
568.423	6.92
568.764	6.88
569.105	6.94
569.447	6.82
569.788	7.06
570.129	6.9
570.47	7.02
570.811	6.82
571.151	7.01
571.492	7.05
571.833	6.94
572.174	7
572.514	6.77
572.855	7.04
573.195	6.83
573.536	6.91
573.876	7.02
574.217	6.96
574.557	6.94
574.898	6.82
575.238	6.77
575.578	7.01
575.918	6.84
576.258	6.98
576.598	6.84
576.938	7.03
577.278	6.99
577.618	6.88
577.958	6.82
578.298	7.04
578.638	6.9
578.977	7
579.317	6.83
579.657	6.98
579.996	6.95
580.336	7.05
580.675	6.91
581.014	6.75
581.354	7.14
581.693	6.96
582.032	7.03
582.372	6.84
582.711	6.91
583.05	6.99
583.389	7.01
583.728	6.87
584.067	6.96
584.406	7.09
584.745	6.77
585.083	7.15
585.422	6.87
585.761	7.05
586.1	7.16
586.438	7.02
586.777	6.94
587.115	7.01
587.454	6.71
587.792	6.63
588.13	7.2
588.469	7.14
588.807	7.12
589.145	7.01
589.483	6.81
589.821	6.98
590.159	6.72
590.497	6.57
590.835	6.8
591.173	6.8
591.511	7.05
591.849	7.14
592.187	6.85
592.524	6.67
592.862	7.07
593.2	6.7
593.537	6.89
593.875	6.82
594.212	6.89
594.55	6.8
594.887	6.97
595.224	6.87
595.561	6.81
595.899	6.81
596.236	6.88
596.573	6.68
596.91	6.97
597.247	6.79
597.584	6.89
597.921	7.02
598.258	6.89
598.594	6.77
598.931	6.92
599.268	6.74
599.604	7.01
599.941	6.75
600.277	6.67
600.614	6.85
600.95	6.86
601.287	6.99
601.623	7.04
601.959	6.88
602.296	6.9
602.632	6.92
602.968	6.77
603.304	6.79
603.64	6.8
603.976	6.93
604.312	6.87
604.648	6.98
604.984	6.87
605.319	6.83
605.655	6.86
605.991	6.81
606.326	6.74
606.662	6.65
606.998	6.76
607.333	6.79
607.668	6.78
608.004	6.61
608.339	6.76
608.674	6.62
609.01	6.98
609.345	6.86
609.68	6.53
610.015	6.89
610.35	6.94
610.685	6.93
611.02	6.83
611.355	6.92
611.689	6.53
612.024	6.93
612.359	6.92
612.694	6.87
613.028	6.94
613.363	6.42
613.697	6.92
614.032	6.85
614.366	6.62
614.7	7.11
615.035	6.47
615.369	6.84
615.703	7.15
616.037	6.87
616.371	6.61
616.705	6.6
617.039	6.89
617.373	6.79
617.707	6.39
618.041	7.1
618.375	6.66
618.709	6.86
619.042	6.55
619.376	6.65
619.71	6.65
620.043	6.71
620.377	6.56
620.71	6.54
621.043	6.14
621.377	6.5
621.71	6.77
622.043	6.91
622.376	6.48
622.709	6.98
623.043	6.5
623.376	6.85
623.709	6.67
624.041	6.59
624.374	6.59
624.707	6.57
625.04	6.8
625.373	6.57
625.705	6.64
626.038	6.91
626.37	6.71
626.703	6.72
627.035	6.79
627.368	6.71
627.7	6.64
628.032	6.68
628.365	6.6
628.697	6.68
629.029	6.89
629.361	6.54
629.693	6.96
630.025	6.59
630.357	6.67
630.689	6.88
631.021	6.68
631.353	6.92
631.684	6.74
632.016	6.72
632.348	6.63
632.679	6.54
633.011	6.56
633.342	6.7
633.674	6.46
634.005	6.5
634.336	6.66
634.668	6.71
634.999	6.41
635.33	6.51
635.661	6.77
635.992	6.42
636.323	6.72
636.654	6.64
636.985	6.56
637.316	6.69
637.647	6.73
637.977	6.39
638.308	6.41
638.639	6.42
638.969	6.28
639.3	6.79
639.63	6.53
639.961	6.54
640.291	6.96
640.622	6.71
640.952	6.4
641.282	6.33
641.612	6.62
641.943	6.66
642.273	6.61
642.603	6.54
642.933	6.58
643.263	7.18
643.592	6.73
643.922	6.97
644.252	6.45
644.582	6.67
644.911	6.39
645.241	6.2
645.571	6.33
645.9	6.69
646.23	6.64
646.559	6.76
646.888	6.03
647.218	6.59
647.547	6.48
647.876	6.74
648.205	6.46
648.534	6.56
648.863	6.85
649.192	6.33
649.521	6.27
649.85	6.69
650.179	6.07
650.508	6.63
650.837	6.6
651.165	6.85
651.494	6.38
651.822	6.7
652.151	6.97
652.479	6.76
652.808	6.31
653.136	6.66
653.465	6.52
653.793	6.47
654.121	7.16
654.449	6.34
654.777	6.41
655.105	7
655.433	6.64
655.761	6.47
656.089	6.84
656.417	6.48
656.745	6.86
657.073	6.84
657.4	6.84
657.728	6.6
658.056	6.64
658.383	6.72
658.711	6.4
659.038	6.69
659.365	6.61
659.693	6.58
660.02	6.46
660.347	6.47
660.674	6.82
661.001	6.44
661.329	6.7
661.656	6.59
661.982	6.77
662.309	6.5
662.636	6.43
662.963	6.44
663.29	6.34
663.616	7.15
663.943	6.9
664.27	6.53
664.596	6.42
664.923	6.87
665.249	6.77
665.576	6.73
665.902	6.44
666.228	6.14
666.554	6.34
666.881	6.71
667.207	6.37
667.533	6.59
667.859	6.32
668.185	6.74
668.511	6.23
668.837	6.06
669.162	7.03
669.488	6.83
669.814	6.69
670.139	7.09
670.465	6.67
670.791	6.74
671.116	6.58
671.442	6.08
671.767	6.53
672.092	6.69
672.418	6.7
672.743	6.34
673.068	6.03
673.393	6.73
673.718	6.23
674.043	6.55
674.368	6.89
674.693	7.02
675.018	6.74
675.343	6.86
675.667	5.78
675.992	6.1
676.317	6.42
676.641	6.35
676.966	6.97
677.29	6.35
677.615	7.08
677.939	6.31
678.264	6.37
678.588	7.6
678.912	7.37
679.236	7.26
679.56	5.78
679.885	7.04
680.209	5.93
680.532	6.61
680.856	7.16
681.18	6.32
681.504	6.52
681.828	6.4
682.152	6.49
682.475	6.73
682.799	6.48
683.122	6.59
683.446	6.57
683.769	6.96
684.093	6.12
684.416	5.99
684.739	6.58
685.062	6.82
685.386	6.68
685.709	6.19
686.032	6.43
686.355	6.5
686.678	6.15
687.001	6.05
687.324	5.68
687.646	6.29
687.969	6.66
688.292	6.89
688.614	6.74
688.937	6.64
689.26	6.45
689.582	6.49
689.904	6.73
690.227	6.75
690.549	6.91
690.871	6.69
691.194	6.92
691.516	6.38
691.838	7.09
692.16	7.23
692.482	6.99
692.804	6.58
