Data from 0053_forehead_Reflection__3__60.txt Node

Date: Fri Dec 16 14:20:48 CST 2022
User: ToomeyLab
Spectrometer: FLMS14357
Trigger mode: 0
Integration Time (sec): 1.000000E-2
Scans to average: 100
Electric dark correction enabled: true
Nonlinearity correction enabled: false
Boxcar width: 0
XAxis mode: Wavelengths
Number of Pixels in Spectrum: 2048
>>>>>Begin Spectral Data<<<<<
189.047	94.03
189.435	94.03
189.823	94.03
190.211	522.73
190.599	-45.01
190.987	-1553.25
191.375	-151.44
191.763	328.3
192.151	3.99
192.538	87.53
192.926	-142.51
193.314	131.11
193.702	-9476
194.089	75.96
194.477	-836
194.864	115.34
195.252	-125.64
195.639	113.17
196.027	-199.12
196.414	-10.12
196.801	32.57
197.189	200.64
197.576	-95.17
197.963	43.06
198.351	33.07
198.738	-6.36
199.125	70.69
199.512	-0.55
199.899	-5.11
200.286	-87.49
200.673	49.5
201.06	21.25
201.447	49.94
201.833	39.88
202.22	139
202.607	91.62
202.994	8.2
203.38	1.65
203.767	-25.56
204.154	-59.47
204.54	12.25
204.927	16.73
205.313	53.43
205.699	55.35
206.086	13.81
206.472	37.71
206.858	3.96
207.245	13.46
207.631	1.04
208.017	44.04
208.403	45.36
208.789	16.33
209.175	28.82
209.561	1.5
209.947	18.3
210.333	19.34
210.719	14.13
211.105	8.84
211.491	40.8
211.876	47
212.262	-1.25
212.648	21.88
213.034	30.79
213.419	13.78
213.805	44.94
214.19	65.97
214.576	3.17
214.961	33.29
215.346	-12.65
215.732	-0.2
216.117	20.91
216.502	-3.73
216.888	20.1
217.273	11.2
217.658	-3.85
218.043	4.21
218.428	21.91
218.813	-10.68
219.198	9.15
219.583	17.34
219.968	10.94
220.353	15.8
220.738	0.19
221.122	-0.72
221.507	-1.15
221.892	13.14
222.276	27.57
222.661	1.16
223.046	18.22
223.43	3.25
223.815	24.15
224.199	6.53
224.583	6.87
224.968	18.68
225.352	2.73
225.736	8.22
226.121	0.97
226.505	1.14
226.889	8.82
227.273	6.96
227.657	3.73
228.041	6.46
228.425	6.7
228.809	5
229.193	1.7
229.577	2.06
229.961	3.72
230.344	3.21
230.728	3.76
231.112	3.79
231.495	3.45
231.879	3.68
232.263	3.87
232.646	2
233.03	1.52
233.413	4.85
233.797	6.29
234.18	4.37
234.563	1.29
234.946	4.13
235.33	3.71
235.713	3.55
236.096	3.47
236.479	5.19
236.862	5.44
237.245	4.52
237.628	3.91
238.011	3.64
238.394	4.35
238.777	3.45
239.16	4.03
239.543	3.06
239.925	4.88
240.308	4.57
240.691	3.43
241.073	2.55
241.456	3.82
241.838	3.47
242.221	3.19
242.603	3.77
242.986	4.07
243.368	3.18
243.75	3.11
244.133	3.09
244.515	3.71
244.897	3.49
245.279	3.49
245.661	2.96
246.043	3.56
246.425	3.32
246.807	4.27
247.189	3.31
247.571	3.85
247.953	3.6
248.335	3.43
248.717	3.49
249.098	3.96
249.48	3.34
249.862	3.61
250.243	3.5
250.625	3.26
251.006	4.02
251.388	4.99
251.769	3.79
252.151	3.67
252.532	4.1
252.913	4.56
253.295	4.06
253.676	3.91
254.057	3.99
254.438	3.79
254.819	3.93
255.2	4.55
255.581	3.87
255.962	3.99
256.343	3.67
256.724	3.56
257.105	3.72
257.486	3.93
257.867	2.99
258.247	3.73
258.628	4.02
259.009	4.11
259.389	4.25
259.77	4.02
260.15	4.47
260.531	3.59
260.911	3.35
261.292	3.55
261.672	3.58
262.052	3.7
262.432	3.73
262.813	3.67
263.193	3.41
263.573	3.66
263.953	3.2
264.333	3.83
264.713	3.72
265.093	4.02
265.473	4.09
265.853	3.84
266.233	3.01
266.612	4.09
266.992	3.4
267.372	3.74
267.752	3.07
268.131	3.52
268.511	4.24
268.89	3.54
269.27	3.99
269.649	4.12
270.029	3.4
270.408	3.19
270.787	3.79
271.167	3.12
271.546	3.25
271.925	3.62
272.304	3.79
272.683	3.5
273.062	3.51
273.441	3.62
273.82	3.4
274.199	3.53
274.578	3.63
274.957	3.4
275.336	3.52
275.715	4.08
276.093	3.74
276.472	3.33
276.851	3.35
277.229	3.82
277.608	3.21
277.986	3.4
278.365	3.61
278.743	3.7
279.122	4.2
279.5	3.33
279.878	2.85
280.257	3.94
280.635	3.35
281.013	3.83
281.391	3.28
281.769	3.19
282.147	4.05
282.525	3.88
282.903	3.75
283.281	3.4
283.659	3.52
284.037	3.8
284.415	3.9
284.792	3.35
285.17	3.29
285.548	3.28
285.925	3.35
286.303	3.57
286.68	3.78
287.058	3.13
287.435	3.46
287.813	3.61
288.19	4.14
288.567	3.44
288.945	3.44
289.322	3.2
289.699	4.09
290.076	3.86
290.453	3.69
290.83	3.69
291.207	3.68
291.584	3.35
291.961	3.83
292.338	3.77
292.715	4.11
293.092	3.76
293.469	4.71
293.845	4.32
294.222	3.9
294.599	4.45
294.975	4.1
295.352	3.71
295.728	4.5
296.105	4.15
296.481	4.37
296.858	4.2
297.234	4.28
297.61	4.24
297.986	4.15
298.363	4.01
298.739	4.32
299.115	4.04
299.491	4.39
299.867	4.37
300.243	4.47
300.619	4.33
300.995	4.86
301.371	4.86
301.746	4.75
302.122	4.6
302.498	4.87
302.874	5.04
303.249	4.92
303.625	4.85
304	4.89
304.376	4.47
304.751	4.8
305.127	4.93
305.502	4.93
305.878	5.04
306.253	5.34
306.628	5.71
307.003	4.71
307.378	4.91
307.754	4.78
308.129	4.94
308.504	5.01
308.879	5.05
309.254	5.55
309.629	5.47
310.003	5.92
310.378	5.35
310.753	5.7
311.128	5.44
311.502	5.34
311.877	5.66
312.252	5.58
312.626	5.46
313.001	5.69
313.375	5.63
313.75	5.74
314.124	6.01
314.498	5.72
314.873	5.48
315.247	5.52
315.621	6.2
315.995	6.07
316.369	6.35
316.743	6.25
317.117	6.2
317.491	6.43
317.865	6.15
318.239	6.81
318.613	6.64
318.987	6.75
319.361	6.32
319.734	6.67
320.108	6.88
320.482	6.09
320.855	6.81
321.229	6.94
321.602	6.9
321.976	6.47
322.349	6.58
322.723	6.25
323.096	6.37
323.469	6.49
323.843	7.02
324.216	6.8
324.589	7.02
324.962	7.08
325.335	6.83
325.708	7.42
326.081	7.17
326.454	7.44
326.827	6.96
327.2	7.83
327.573	7.57
327.945	6.97
328.318	7.55
328.691	7.51
329.063	7.12
329.436	7.25
329.809	7.22
330.181	7.24
330.553	7.77
330.926	7.57
331.298	7.52
331.671	7.66
332.043	7.42
332.415	7.61
332.787	8.35
333.159	7.56
333.532	7.93
333.904	8.36
334.276	8.27
334.648	8.32
335.02	8.01
335.391	8.04
335.763	7.97
336.135	8.17
336.507	8.38
336.879	7.9
337.25	7.98
337.622	8.25
337.993	8.18
338.365	8.57
338.736	8.35
339.108	8.17
339.479	8.02
339.851	8.53
340.222	8.4
340.593	8.09
340.964	8.5
341.336	8.62
341.707	8.63
342.078	8.31
342.449	8.84
342.82	8.41
343.191	8.35
343.562	8.74
343.933	8.92
344.303	8.61
344.674	8.89
345.045	9.23
345.416	8.75
345.786	8.55
346.157	8.71
346.527	8.69
346.898	8.96
347.268	9.06
347.639	9.07
348.009	9.04
348.38	8.73
348.75	9.15
349.12	9.4
349.49	9.18
349.861	10.07
350.231	9.56
350.601	9.11
350.971	9.57
351.341	9.37
351.711	9.41
352.081	9.16
352.45	9.78
352.82	9.43
353.19	9.62
353.56	9.59
353.929	9.98
354.299	9.84
354.669	9.84
355.038	9.58
355.408	10.11
355.777	9.53
356.147	10.11
356.516	9.98
356.885	9.83
357.254	9.92
357.624	9.91
357.993	9.82
358.362	9.64
358.731	9.95
359.1	10.01
359.469	9.97
359.838	9.84
360.207	10.04
360.576	10.02
360.945	9.99
361.314	10.15
361.682	9.84
362.051	9.94
362.42	10.53
362.788	10.21
363.157	10.13
363.525	10.02
363.894	10.3
364.262	10.55
364.631	11.05
364.999	10.23
365.367	10.7
365.735	10.39
366.104	10.24
366.472	10.99
366.84	10.75
367.208	10.43
367.576	10.7
367.944	10.74
368.312	10.74
368.68	10.96
369.048	10.89
369.416	10.92
369.783	10.98
370.151	10.99
370.519	10.96
370.886	11.25
371.254	11.4
371.621	11.31
371.989	11.01
372.356	11.32
372.724	10.98
373.091	11.28
373.458	11.56
373.826	11.42
374.193	11.96
374.56	11.12
374.927	11.35
375.294	11.69
375.661	11.59
376.028	11.6
376.395	11.31
376.762	11.71
377.129	12.1
377.496	11.5
377.863	11.44
378.229	11.63
378.596	11.67
378.963	11.7
379.329	11.9
379.696	11.67
380.062	12.04
380.429	11.9
380.795	11.75
381.161	12.2
381.528	11.81
381.894	12.02
382.26	11.92
382.626	12.19
382.993	11.97
383.359	12.25
383.725	12.46
384.091	12.1
384.457	12.7
384.823	12.38
385.188	12.53
385.554	12.25
385.92	12.46
386.286	12.85
386.651	12.68
387.017	12.71
387.383	12.63
387.748	12.49
388.114	12.47
388.479	12.67
388.845	12.9
389.21	12.92
389.575	12.97
389.94	12.79
390.306	12.78
390.671	12.8
391.036	12.89
391.401	13.24
391.766	12.93
392.131	12.93
392.496	13.02
392.861	12.72
393.226	13
393.591	13.42
393.956	13.38
394.32	13.23
394.685	13.25
395.05	13.16
395.414	13.33
395.779	13.32
396.143	13.31
396.508	13.68
396.872	13.45
397.236	13.35
397.601	13.54
397.965	13.25
398.329	13.71
398.694	13.54
399.058	13.57
399.422	13.83
399.786	13.65
400.15	13.68
400.514	13.64
400.878	13.7
401.242	14.05
401.605	13.7
401.969	14.02
402.333	14.13
402.697	14.3
403.06	14.19
403.424	13.94
403.787	14.03
404.151	13.89
404.514	14.38
404.878	14.16
405.241	14.3
405.604	14.35
405.968	14.13
406.331	14.32
406.694	14.47
407.057	14.6
407.42	14.71
407.783	14.5
408.146	14.39
408.509	14.51
408.872	14.47
409.235	14.59
409.598	15.12
409.961	14.59
410.323	14.51
410.686	14.74
411.049	14.58
411.411	14.66
411.774	14.66
412.136	14.88
412.499	14.83
412.861	14.96
413.223	15.09
413.586	14.92
413.948	15.13
414.31	15.44
414.672	14.97
415.035	15.09
415.397	15.31
415.759	15.12
416.121	15.45
416.483	15.29
416.845	15.09
417.206	15.27
417.568	15.3
417.93	15.19
418.292	15.13
418.653	15.19
419.015	15.12
419.377	15.19
419.738	15.36
420.1	15.18
420.461	15.15
420.822	15.24
421.184	15.37
421.545	15.36
421.906	15.29
422.267	15.18
422.629	15.3
422.99	15.38
423.351	15.43
423.712	15.57
424.073	15.63
424.434	15.62
424.795	15.49
425.155	15.48
425.516	15.47
425.877	15.62
426.238	15.59
426.598	15.78
426.959	15.73
427.32	15.94
427.68	16.1
428.041	16.18
428.401	16.04
428.761	16.21
429.122	16.26
429.482	16.35
429.842	16.42
430.202	16.25
430.563	16.21
430.923	16.38
431.283	16.48
431.643	16.49
432.003	16.68
432.363	16.81
432.722	16.46
433.082	16.5
433.442	16.59
433.802	16.48
434.161	16.33
434.521	16.44
434.881	16.54
435.24	16.62
435.6	16.8
435.959	16.82
436.319	16.8
436.678	16.96
437.037	17.01
437.396	16.87
437.756	17.03
438.115	16.86
438.474	17.03
438.833	17.13
439.192	17.3
439.551	16.99
439.91	17.12
440.269	17.23
440.628	17.06
440.987	17.03
441.345	17.01
441.704	17.02
442.063	17.02
442.421	16.98
442.78	17.24
443.138	17.42
443.497	17.29
443.855	17.49
444.214	17.56
444.572	17.67
444.93	17.6
445.288	17.59
445.647	17.7
446.005	17.37
446.363	17.62
446.721	17.25
447.079	17.47
447.437	17.37
447.795	17.35
448.153	17.35
448.51	17.53
448.868	17.71
449.226	17.65
449.584	17.82
449.941	17.98
450.299	17.89
450.656	18.04
451.014	18.06
451.371	18.2
451.729	18.35
452.086	18.12
452.443	18.15
452.801	18.37
453.158	18.19
453.515	18.28
453.872	18.41
454.229	18.2
454.586	18.45
454.943	18.57
455.3	18.66
455.657	18.53
456.014	18.62
456.371	18.7
456.727	18.73
457.084	18.62
457.441	18.83
457.797	18.69
458.154	18.97
458.51	18.67
458.867	18.8
459.223	18.68
459.58	18.7
459.936	18.74
460.292	18.66
460.648	18.4
461.005	18.2
461.361	18.37
461.717	18.76
462.073	18.9
462.429	19.07
462.785	19.14
463.141	19.36
463.496	19.36
463.852	19.39
464.208	19.26
464.564	19.37
464.919	19.47
465.275	19.52
465.631	19.42
465.986	19.42
466.342	19.48
466.697	19.58
467.052	19.76
467.408	19.79
467.763	19.48
468.118	19.62
468.473	19.66
468.829	19.87
469.184	19.72
469.539	19.81
469.894	19.88
470.249	19.97
470.603	19.97
470.958	19.94
471.313	19.83
471.668	20.16
472.023	20.18
472.377	19.99
472.732	20.04
473.086	20.06
473.441	20.14
473.795	20.41
474.15	20.08
474.504	20.03
474.859	20.22
475.213	20.17
475.567	20.44
475.921	20.59
476.275	20.49
476.63	20.45
476.984	20.48
477.338	20.63
477.692	20.35
478.045	20.24
478.399	20.46
478.753	20.3
479.107	20.54
479.461	20.48
479.814	20.46
480.168	20.68
480.521	20.66
480.875	20.81
481.228	20.75
481.582	20.67
481.935	20.69
482.289	20.67
482.642	20.66
482.995	20.52
483.348	20.52
483.701	20.4
484.055	20.24
484.408	19.98
484.761	19.44
485.114	19.25
485.466	19.64
485.819	20.06
486.172	20.5
486.525	20.74
486.878	20.75
487.23	20.83
487.583	20.51
487.936	20.48
488.288	20.21
488.641	20.14
488.993	20.2
489.345	20.32
489.698	20.55
490.05	20.74
490.402	21
490.754	21.24
491.107	21.25
491.459	21.4
491.811	21.26
492.163	21.13
492.515	20.66
492.866	20.37
493.218	20.5
493.57	20.97
493.922	21.27
494.274	21.56
494.625	21.82
494.977	21.69
495.328	22
495.68	22.14
496.031	22.17
496.383	22.12
496.734	22.04
497.086	21.95
497.437	22.03
497.788	21.9
498.139	21.88
498.49	21.94
498.842	21.86
499.193	22.17
499.544	22.2
499.894	22.21
500.245	22.45
500.596	22.41
500.947	22.51
501.298	22.54
501.648	22.54
501.999	22.68
502.35	22.81
502.7	22.67
503.051	22.89
503.401	23.07
503.752	22.77
504.102	22.86
504.452	22.92
504.803	22.74
505.153	22.79
505.503	22.84
505.853	22.84
506.203	23.05
506.553	22.98
506.903	23.18
507.253	23.08
507.603	23.05
507.953	23.14
508.303	23.25
508.652	23.2
509.002	23.3
509.352	23.06
509.701	22.96
510.051	23.09
510.4	23.05
510.75	23.09
511.099	23.21
511.449	23.35
511.798	23.49
512.147	23.43
512.496	23.38
512.846	23.42
513.195	23.36
513.544	23.33
513.893	23.23
514.242	23.55
514.591	23.74
514.939	23.76
515.288	23.82
515.637	23.77
515.986	23.77
516.334	23.93
516.683	23.86
517.032	23.94
517.38	23.86
517.729	24.01
518.077	23.96
518.426	23.84
518.774	23.9
519.122	23.56
519.47	23.57
519.819	23.4
520.167	23.56
520.515	23.8
520.863	23.88
521.211	24.11
521.559	24.29
521.907	24.1
522.255	24.31
522.602	24.39
522.95	24.37
523.298	24.47
523.645	24.61
523.993	24.56
524.341	24.54
524.688	24.48
525.036	24.57
525.383	24.73
525.73	24.43
526.078	24.5
526.425	24.18
526.772	23.99
527.119	23.96
527.466	24.19
527.814	24.36
528.161	24.46
528.508	24.46
528.854	24.18
529.201	23.93
529.548	23.45
529.895	23.31
530.242	23.65
530.588	24.11
530.935	24.39
531.282	24.62
531.628	24.7
531.975	24.72
532.321	24.99
532.667	25.04
533.014	24.96
533.36	24.93
533.706	24.85
534.052	24.57
534.399	24.3
534.745	24.14
535.091	24.47
535.437	24.83
535.783	25.33
536.129	25.28
536.474	25.38
536.82	25.41
537.166	25.43
537.512	25.17
537.857	24.94
538.203	25.14
538.549	25.28
538.894	25.51
539.239	25.87
539.585	25.76
539.93	26.05
540.276	25.88
540.621	25.94
540.966	25.67
541.311	25.65
541.656	25.47
542.001	25.31
542.346	24.95
542.691	24.64
543.036	24.9
543.381	25.42
543.726	25.68
544.071	25.77
544.415	25.7
544.76	25.75
545.105	25.82
545.449	25.9
545.794	26.3
546.138	26.46
546.483	26.38
546.827	26.34
547.171	26.25
547.516	26.31
547.86	26.27
548.204	25.99
548.548	26.53
548.892	26.38
549.236	26.69
549.58	26.97
549.924	26.91
550.268	27.09
550.612	27.05
550.956	27.03
551.3	27.06
551.643	27.4
551.987	27.14
552.33	27.32
552.674	27.23
553.017	27.46
553.361	27.11
553.704	27.07
554.048	26.91
554.391	27.09
554.734	27.29
555.077	27.36
555.42	27.57
555.764	27.48
556.107	27.42
556.45	27.65
556.793	27.82
557.135	27.96
557.478	27.9
557.821	27.7
558.164	27.9
558.507	27.63
558.849	27.78
559.192	27.81
559.534	28.14
559.877	28
560.219	28.31
560.562	28.09
560.904	27.97
561.246	28.18
561.589	28.12
561.931	28.15
562.273	28.22
562.615	28.12
562.957	28.17
563.299	28.35
563.641	28.31
563.983	28.44
564.325	28.32
564.667	28.35
565.008	28.41
565.35	28.59
565.692	28.6
566.033	28.54
566.375	28.44
566.716	28.33
567.058	28.5
567.399	28.22
567.741	28.33
568.082	28.27
568.423	28.29
568.764	28.72
569.105	28.64
569.447	28.7
569.788	28.9
570.129	28.97
570.47	29.02
570.811	28.85
571.151	28.74
571.492	28.94
571.833	28.76
572.174	28.75
572.514	28.84
572.855	28.83
573.195	28.56
573.536	28.56
573.876	28.91
574.217	28.83
574.557	29.3
574.898	29.13
575.238	29.12
575.578	29.12
575.918	29.27
576.258	29.1
576.598	29.1
576.938	29.3
577.278	29.24
577.618	29.26
577.958	29.64
578.298	29.45
578.638	29.47
578.977	29.74
579.317	29.68
579.657	29.78
579.996	29.78
580.336	29.83
580.675	29.74
581.014	29.85
581.354	30.3
581.693	29.73
582.032	29.91
582.372	30.17
582.711	30.32
583.05	30.34
583.389	30.35
583.728	30.25
584.067	30.18
584.406	30.06
584.745	30.12
585.083	30.39
585.422	30.62
585.761	30.51
586.1	30.37
586.438	30.49
586.777	30.67
587.115	30.53
587.454	30.44
587.792	30.73
588.13	30.8
588.469	30.86
588.807	30.58
589.145	30.69
589.483	30.6
589.821	30.55
590.159	30.6
590.497	30.32
590.835	30.45
591.173	30.61
591.511	30.75
591.849	30.82
592.187	30.91
592.524	30.82
592.862	31
593.2	30.76
593.537	30.84
593.875	30.65
594.212	30.64
594.55	31
594.887	31.2
595.224	30.99
595.561	31.04
595.899	30.99
596.236	31.25
596.573	31.18
596.91	31.06
597.247	30.95
597.584	31.34
597.921	30.92
598.258	30.82
598.594	30.47
598.931	30.96
599.268	31.17
599.604	31.3
599.941	31.39
600.277	31.48
600.614	31.37
600.95	31.75
601.287	31.53
601.623	31.66
601.959	31.79
602.296	31.74
602.632	31.82
602.968	31.31
603.304	31.9
603.64	31.95
603.976	32.02
604.312	31.91
604.648	31.53
604.984	31.34
605.319	31.39
605.655	31.34
605.991	31.44
606.326	31.39
606.662	31.63
606.998	32.02
607.333	31.75
607.668	32
608.004	32.14
608.339	32.21
608.674	32.07
609.01	32.15
609.345	32.2
609.68	32.02
610.015	31.93
610.35	31.99
610.685	31.92
611.02	31.7
611.355	32.05
611.689	31.88
612.024	32.37
612.359	32.4
612.694	32.67
613.028	32.46
613.363	32.67
613.697	32.5
614.032	32.66
614.366	32.43
614.7	32.85
615.035	32.54
615.369	33.04
615.703	33.19
616.037	32.77
616.371	33.11
616.705	33.2
617.039	32.93
617.373	33.01
617.707	32.71
618.041	33.05
618.375	33.28
618.709	33.06
619.042	32.68
619.376	33.24
619.71	33.14
620.043	32.98
620.377	32.97
620.71	33.38
621.043	33.42
621.377	33.36
621.71	33.36
622.043	33.08
622.376	33.45
622.709	33.35
623.043	33.24
623.376	33.79
623.709	33.29
624.041	33.43
624.374	33.61
624.707	33.21
625.04	33.85
625.373	33.68
625.705	33.59
626.038	33.27
626.37	33.43
626.703	33.47
627.035	33.41
627.368	33.61
627.7	33.19
628.032	33.53
628.365	33.44
628.697	33.52
629.029	33.81
629.361	33.45
629.693	34.06
630.025	33.86
630.357	33.63
630.689	33.92
631.021	33.83
631.353	33.94
631.684	33.84
632.016	33.83
632.348	33.95
632.679	33.87
633.011	34
633.342	34.28
633.674	34.04
634.005	34.21
634.336	33.91
634.668	34.18
634.999	33.88
635.33	33.55
635.661	33.75
635.992	34.04
636.323	34.22
636.654	34.26
636.985	34.24
637.316	34.46
637.647	34.41
637.977	34.19
638.308	34.47
638.639	34.28
638.969	34.18
639.3	34.71
639.63	34.28
639.961	34.73
640.291	34.85
640.622	34.16
640.952	34.61
641.282	34.65
641.612	34.67
641.943	34.94
642.273	34.76
642.603	35.1
642.933	34.65
643.263	35.16
643.592	35.06
643.922	35.17
644.252	35.1
644.582	35.1
644.911	34.67
645.241	34.7
645.571	34.82
645.9	35.53
646.23	34.83
646.559	34.61
646.888	34.97
647.218	35.34
647.547	34.81
647.876	35.35
648.205	34.95
648.534	34.89
648.863	34.9
649.192	35.65
649.521	35.02
649.85	35.46
650.179	35.24
650.508	35.65
650.837	34.98
651.165	35.41
651.494	35.53
651.822	35.2
652.151	35.38
652.479	35.16
652.808	35.15
653.136	35.53
653.465	35.55
653.793	35.48
654.121	35.28
654.449	35.37
654.777	35.95
655.105	35.63
655.433	35.82
655.761	35.36
656.089	35.92
656.417	35.68
656.745	36.52
657.073	35.28
657.4	35.95
657.728	35.64
658.056	35.66
658.383	35.71
658.711	35.68
659.038	36.13
659.365	35.84
659.693	35.56
660.02	35.32
660.347	35.95
660.674	35.55
661.001	35.7
661.329	35.92
661.656	35.61
661.982	36.01
662.309	35.93
662.636	35.92
662.963	36.7
663.29	36.07
663.616	36.63
663.943	36.67
664.27	36.47
664.596	35.97
664.923	36.64
665.249	36.62
665.576	36.43
665.902	36.41
666.228	36.35
666.554	36.57
666.881	36.59
667.207	36.34
667.533	36.75
667.859	36.68
668.185	36.57
668.511	36.5
668.837	36.44
669.162	36.68
669.488	36.62
669.814	36.87
670.139	36.99
670.465	36.88
670.791	36.19
671.116	36.66
671.442	36.77
671.767	36.98
672.092	37.55
