Data from 0053_crown_Reflection__4__56.txt Node

Date: Fri Dec 16 14:19:45 CST 2022
User: ToomeyLab
Spectrometer: FLMS14357
Trigger mode: 0
Integration Time (sec): 1.000000E-2
Scans to average: 100
Electric dark correction enabled: true
Nonlinearity correction enabled: false
Boxcar width: 0
XAxis mode: Wavelengths
Number of Pixels in Spectrum: 2048
>>>>>Begin Spectral Data<<<<<
189.047	58.26
189.435	58.26
189.823	58.26
190.211	-113.09
190.599	-63.31
190.987	-93.49
191.375	86.58
191.763	134.49
192.151	29.15
192.538	-34.7
192.926	130.43
193.314	32.73
193.702	-5752
194.089	118.79
194.477	-5880
194.864	-261.95
195.252	-5.15
195.639	94.92
196.027	-11.39
196.414	104.67
196.801	152.25
197.189	140.05
197.576	-40.04
197.963	145.65
198.351	29.21
198.738	28.31
199.125	56.53
199.512	33.9
199.899	4.86
200.286	38.24
200.673	42.51
201.06	15.57
201.447	12.12
201.833	16.81
202.22	16.69
202.607	-33.93
202.994	33.66
203.38	-4.02
203.767	-30.49
204.154	-28.68
204.54	31.16
204.927	10.35
205.313	38.61
205.699	3.09
206.086	26.63
206.472	-2.62
206.858	43.73
207.245	2.33
207.631	4.33
208.017	43.39
208.403	24.05
208.789	8.37
209.175	46.85
209.561	10.54
209.947	21.5
210.333	-11.98
210.719	8.6
211.105	2.68
211.491	22.82
211.876	-10.3
212.262	-6.31
212.648	-5
213.034	21.23
213.419	16.45
213.805	34.93
214.19	1.27
214.576	6.81
214.961	1.72
215.346	6.07
215.732	7.6
216.117	-2.4
216.502	-0.56
216.888	-3.12
217.273	29.77
217.658	5.77
218.043	3.74
218.428	-4.62
218.813	-0.44
219.198	-21.42
219.583	27.8
219.968	1.42
220.353	10.1
220.738	6.98
221.122	14.5
221.507	11.27
221.892	12.88
222.276	17.34
222.661	17.72
223.046	10.92
223.43	2.25
223.815	10.07
224.199	8.93
224.583	11
224.968	12.85
225.352	7.87
225.736	13.23
226.121	2.56
226.505	9.11
226.889	14.96
227.273	8.59
227.657	10.3
228.041	12.22
228.425	15.13
228.809	10.63
229.193	7.79
229.577	10.3
229.961	10.25
230.344	10.5
230.728	9.76
231.112	9.39
231.495	9.98
231.879	11.02
232.263	8.56
232.646	8.92
233.03	9.17
233.413	10.06
233.797	9.9
234.18	8.98
234.563	9.18
234.946	8.71
235.33	10.22
235.713	10.01
236.096	9.21
236.479	11.3
236.862	10.18
237.245	9.7
237.628	11.68
238.011	9.52
238.394	11.71
238.777	9.59
239.16	8.04
239.543	9.66
239.925	9.96
240.308	10.83
240.691	8.78
241.073	9.85
241.456	9.68
241.838	9.48
242.221	10.1
242.603	9.72
242.986	10.13
243.368	9.09
243.75	8.67
244.133	9.11
244.515	9.04
244.897	9.41
245.279	9.22
245.661	8.6
246.043	9.91
246.425	9.2
246.807	9.31
247.189	9.15
247.571	8.92
247.953	9.17
248.335	9.01
248.717	8.6
249.098	8.64
249.48	8.56
249.862	9.17
250.243	8.79
250.625	9.2
251.006	8.92
251.388	8.81
251.769	8.69
252.151	9.11
252.532	9.63
252.913	8.73
253.295	8.63
253.676	8.9
254.057	8.06
254.438	8.99
254.819	8.46
255.2	8.64
255.581	8.46
255.962	9.13
256.343	8.6
256.724	9.15
257.105	8.21
257.486	8.56
257.867	7.39
258.247	8.63
258.628	9.37
259.009	8.4
259.389	8.44
259.77	8.01
260.15	8.48
260.531	8.36
260.911	8.53
261.292	8.1
261.672	7.94
262.052	7.71
262.432	7.88
262.813	8.01
263.193	7.56
263.573	8.16
263.953	8.55
264.333	8.42
264.713	7.71
265.093	8.1
265.473	8.36
265.853	8.07
266.233	8.22
266.612	8.6
266.992	7.9
267.372	7.65
267.752	7.51
268.131	7.86
268.511	8.3
268.89	8.11
269.27	8.08
269.649	8.59
270.029	7.66
270.408	7.36
270.787	7.43
271.167	7.68
271.546	7.28
271.925	8.38
272.304	7.71
272.683	7.53
273.062	7.5
273.441	7.83
273.82	7.94
274.199	7.5
274.578	7.11
274.957	7.6
275.336	7.67
275.715	8.57
276.093	8.02
276.472	7.64
276.851	7.93
277.229	8.42
277.608	7.24
277.986	7.88
278.365	7.04
278.743	8.01
279.122	7.28
279.5	7.23
279.878	7.11
280.257	7.47
280.635	7.44
281.013	7.78
281.391	7.47
281.769	7
282.147	7.5
282.525	7.52
282.903	7.65
283.281	7.23
283.659	7.17
284.037	7.14
284.415	7.24
284.792	7.04
285.17	6.78
285.548	7.25
285.925	7.26
286.303	6.74
286.68	7.32
287.058	6.92
287.435	6.74
287.813	6.81
288.19	7.31
288.567	6.85
288.945	7.16
289.322	6.6
289.699	7.18
290.076	6.95
290.453	6.88
290.83	6.97
291.207	6.92
291.584	6.98
291.961	7.44
292.338	6.62
292.715	6.72
293.092	6.62
293.469	7.04
293.845	7.23
294.222	6.74
294.599	6.88
294.975	7.13
295.352	6.3
295.728	6.79
296.105	7.02
296.481	7.06
296.858	7.33
297.234	6.73
297.61	6.78
297.986	6.72
298.363	6.31
298.739	6.69
299.115	6.37
299.491	6.47
299.867	6.71
300.243	6.36
300.619	6.55
300.995	6.94
301.371	6.64
301.746	6.7
302.122	6.97
302.498	6.86
302.874	6.41
303.249	6.63
303.625	6.08
304	6.21
304.376	6.7
304.751	6.26
305.127	6.46
305.502	6.76
305.878	6.22
306.253	6.2
306.628	6.83
307.003	6.24
307.378	6.28
307.754	6.59
308.129	5.68
308.504	6.28
308.879	6.27
309.254	6.42
309.629	6.2
310.003	6.92
310.378	6.72
310.753	6.21
311.128	6.27
311.502	6.34
311.877	6.41
312.252	6.46
312.626	6.07
313.001	6.27
313.375	6.35
313.75	5.9
314.124	6.51
314.498	5.98
314.873	6.24
315.247	6.02
315.621	6.47
315.995	6.44
316.369	6.43
316.743	6.94
317.117	6.29
317.491	6.63
317.865	5.86
318.239	6.28
318.613	6.14
318.987	6.18
319.361	6.08
319.734	6.41
320.108	6.05
320.482	5.99
320.855	5.99
321.229	6.36
321.602	6.19
321.976	6.26
322.349	5.54
322.723	6.18
323.096	5.95
323.469	6.11
323.843	6.25
324.216	5.91
324.589	6.24
324.962	6.49
325.335	6.2
325.708	6.28
326.081	6.05
326.454	6.18
326.827	6.03
327.2	6.35
327.573	6.42
327.945	6.01
328.318	6.22
328.691	6.06
329.063	5.93
329.436	6.19
329.809	5.64
330.181	6.34
330.553	6.31
330.926	6.08
331.298	5.59
331.671	5.94
332.043	6.28
332.415	6.03
332.787	6.32
333.159	6.03
333.532	5.95
333.904	5.97
334.276	6.48
334.648	6.04
335.02	5.94
335.391	6.02
335.763	5.77
336.135	6.21
336.507	6.55
336.879	6.2
337.25	6.14
337.622	6.38
337.993	5.87
338.365	6.05
338.736	6.26
339.108	5.88
339.479	5.95
339.851	6.4
340.222	6.41
340.593	6.06
340.964	6.27
341.336	5.65
341.707	5.94
342.078	5.92
342.449	6.35
342.82	6.39
343.191	5.83
343.562	5.98
343.933	6.2
344.303	5.84
344.674	6.24
345.045	6.19
345.416	6.34
345.786	5.89
346.157	6.19
346.527	6
346.898	6.11
347.268	6
347.639	6.03
348.009	6.19
348.38	6.16
348.75	6.19
349.12	6.11
349.49	5.77
349.861	6.63
350.231	6.33
350.601	6.35
350.971	6.31
351.341	6.54
351.711	6.57
352.081	6.23
352.45	6.2
352.82	6.22
353.19	6.45
353.56	6.43
353.929	6.02
354.299	6.46
354.669	6.72
355.038	6.63
355.408	6.53
355.777	6.22
356.147	6.57
356.516	6.51
356.885	6.26
357.254	6.34
357.624	6.53
357.993	6.12
358.362	6.42
358.731	6.4
359.1	6.39
359.469	6.16
359.838	6.2
360.207	6.31
360.576	6.39
360.945	6.64
361.314	7.03
361.682	6.35
362.051	6.37
362.42	6.66
362.788	6.51
363.157	6.45
363.525	6.35
363.894	6.18
364.262	6.33
364.631	7.14
364.999	6.12
365.367	6.83
365.735	6.4
366.104	6.14
366.472	6.55
366.84	6.38
367.208	6.28
367.576	6.46
367.944	6.7
368.312	6.19
368.68	6.67
369.048	6.47
369.416	6.34
369.783	6.55
370.151	6.5
370.519	6.48
370.886	6.16
371.254	6.69
371.621	6.34
371.989	6.77
372.356	6.84
372.724	6.53
373.091	6.31
373.458	6.52
373.826	6.41
374.193	6.99
374.56	6.62
374.927	6.38
375.294	7.1
375.661	6.83
376.028	6.85
376.395	6.43
376.762	6.69
377.129	7.09
377.496	6.86
377.863	6.9
378.229	6.9
378.596	6.89
378.963	6.84
379.329	6.77
379.696	6.7
380.062	6.94
380.429	6.68
380.795	6.75
381.161	7.06
381.528	6.26
381.894	7.02
382.26	6.88
382.626	6.66
382.993	6.43
383.359	6.75
383.725	6.74
384.091	6.71
384.457	6.89
384.823	7.02
385.188	7.14
385.554	6.79
385.92	6.78
386.286	7.11
386.651	6.68
387.017	7.18
387.383	7.09
387.748	6.61
388.114	7.04
388.479	6.95
388.845	7.3
389.21	7.12
389.575	7.14
389.94	7.11
390.306	7.11
390.671	6.87
391.036	6.97
391.401	7.35
391.766	6.91
392.131	7.05
392.496	7.14
392.861	6.96
393.226	6.82
393.591	7.2
393.956	7.22
394.32	7.06
394.685	7.1
395.05	6.94
395.414	7.11
395.779	7.1
396.143	7.11
396.508	7.12
396.872	7.15
397.236	6.8
397.601	7.3
397.965	6.88
398.329	7.2
398.694	6.59
399.058	7.14
399.422	7.07
399.786	7.18
400.15	7.03
400.514	7.23
400.878	7.09
401.242	7.34
401.605	7.18
401.969	7.22
402.333	7.19
402.697	7.27
403.06	7.36
403.424	7.11
403.787	7.44
404.151	7.25
404.514	7.26
404.878	7.52
405.241	7.29
405.604	7.31
405.968	7.43
406.331	7.17
406.694	7.21
407.057	7.51
407.42	7.33
407.783	7.28
408.146	7.31
408.509	7.01
408.872	7.18
409.235	7.23
409.598	7.38
409.961	7.37
410.323	7.38
410.686	7.35
411.049	7.08
411.411	7.4
411.774	7.26
412.136	7.26
412.499	7.38
412.861	7.39
413.223	7.44
413.586	7.44
413.948	7.33
414.31	7.7
414.672	7.1
415.035	7.21
415.397	7.39
415.759	7.27
416.121	7.68
416.483	7.57
416.845	7.45
417.206	7.42
417.568	7.36
417.93	7.37
418.292	7.38
418.653	7.46
419.015	7.29
419.377	7.47
419.738	7.31
420.1	7.37
420.461	7.34
420.822	7.35
421.184	7.24
421.545	7.27
421.906	7.22
422.267	7.17
422.629	7.24
422.99	7.26
423.351	7.23
423.712	7.21
424.073	7.23
424.434	7.33
424.795	7.33
425.155	7.33
425.516	7.26
425.877	7.32
426.238	7.23
426.598	7.33
426.959	7.23
427.32	7.16
427.68	7.47
428.041	7.5
428.401	7.34
428.761	7.27
429.122	7.23
429.482	7.47
429.842	7.61
430.202	7.39
430.563	7.52
430.923	7.45
431.283	7.65
431.643	7.38
432.003	7.47
432.363	7.56
432.722	7.35
433.082	7.36
433.442	7.56
433.802	7.61
434.161	7.55
434.521	7.68
434.881	7.58
435.24	7.52
435.6	7.54
435.959	7.49
436.319	7.38
436.678	7.5
437.037	7.64
437.396	7.47
437.756	7.61
438.115	7.48
438.474	7.55
438.833	7.74
439.192	7.83
439.551	7.53
439.91	7.74
440.269	7.72
440.628	7.59
440.987	7.41
441.345	7.58
441.704	7.53
442.063	7.51
442.421	7.56
442.78	7.44
443.138	7.49
443.497	7.36
443.855	7.49
444.214	7.59
444.572	7.38
444.93	7.65
445.288	7.6
445.647	7.66
446.005	7.41
446.363	7.61
446.721	7.44
447.079	7.66
447.437	7.55
447.795	7.42
448.153	7.45
448.51	7.35
448.868	7.57
449.226	7.4
449.584	7.47
449.941	7.51
450.299	7.53
450.656	7.61
451.014	7.61
451.371	7.61
451.729	7.61
452.086	7.38
452.443	7.42
452.801	7.58
453.158	7.75
453.515	7.57
453.872	7.7
454.229	7.46
454.586	7.51
454.943	7.62
455.3	7.75
455.657	7.5
456.014	7.72
456.371	7.54
456.727	7.39
457.084	7.63
457.441	7.55
457.797	7.52
458.154	7.75
458.51	7.66
458.867	7.58
459.223	7.66
459.58	7.64
459.936	7.59
460.292	7.65
460.648	7.57
461.005	7.51
461.361	7.59
461.717	7.58
462.073	7.48
462.429	7.53
462.785	7.61
463.141	7.51
463.496	7.54
463.852	7.74
464.208	7.57
464.564	7.61
464.919	7.56
465.275	7.69
465.631	7.58
465.986	7.6
466.342	7.71
466.697	7.66
467.052	7.67
467.408	7.67
467.763	7.58
468.118	7.64
468.473	7.7
468.829	7.75
469.184	7.75
469.539	7.58
469.894	7.6
470.249	7.61
470.603	7.66
470.958	7.89
471.313	7.7
471.668	7.71
472.023	7.81
472.377	7.63
472.732	7.63
473.086	7.5
473.441	7.78
473.795	7.66
474.15	7.76
474.504	7.64
474.859	7.58
475.213	7.53
475.567	7.51
475.921	7.66
476.275	7.72
476.63	7.74
476.984	7.62
477.338	7.88
477.692	7.61
478.045	7.74
478.399	7.66
478.753	7.66
479.107	7.66
479.461	7.73
479.814	7.61
480.168	7.61
480.521	7.67
480.875	7.81
481.228	7.64
481.582	7.61
481.935	7.65
482.289	7.69
482.642	7.68
482.995	7.63
483.348	7.76
483.701	7.67
484.055	7.52
484.408	7.6
484.761	7.51
485.114	7.44
485.466	7.4
485.819	7.16
486.172	7.09
486.525	7.14
486.878	7.21
487.23	7.38
487.583	7.42
487.936	7.5
488.288	7.52
488.641	7.52
488.993	7.39
489.345	7.34
489.698	7.38
490.05	7.28
490.402	7.37
490.754	7.38
491.107	7.32
491.459	7.4
491.811	7.6
492.163	7.58
492.515	7.61
492.866	7.55
493.218	7.46
493.57	7.38
493.922	7.3
494.274	7.37
494.625	7.41
494.977	7.49
495.328	7.57
495.68	7.63
496.031	7.69
496.383	7.62
496.734	7.64
497.086	7.51
497.437	7.79
497.788	7.73
498.139	7.75
498.49	7.63
498.842	7.61
499.193	7.56
499.544	7.64
499.894	7.72
500.245	7.71
500.596	7.69
500.947	7.66
501.298	7.66
501.648	7.69
501.999	7.85
502.35	7.73
502.7	7.78
503.051	7.91
503.401	7.69
503.752	7.81
504.102	7.74
504.452	7.67
504.803	7.73
505.153	7.69
505.503	7.82
505.853	7.66
506.203	7.77
506.553	7.75
506.903	7.69
507.253	7.79
507.603	7.7
507.953	7.69
508.303	7.76
508.652	7.76
509.002	7.68
509.352	7.72
509.701	7.79
510.051	7.84
510.4	7.77
510.75	7.66
511.099	7.7
511.449	7.72
511.798	7.82
512.147	7.7
512.496	7.74
512.846	7.66
513.195	7.8
513.544	7.83
513.893	7.68
514.242	7.81
514.591	7.73
514.939	7.67
515.288	7.73
515.637	7.76
515.986	7.78
516.334	7.82
516.683	7.74
517.032	7.81
517.38	7.8
517.729	7.77
518.077	7.84
518.426	7.85
518.774	7.86
519.122	7.81
519.47	7.79
519.819	7.76
520.167	7.74
520.515	7.61
520.863	7.59
521.211	7.63
521.559	7.63
521.907	7.62
522.255	7.81
522.602	7.83
522.95	7.8
523.298	7.94
523.645	7.84
523.993	7.91
524.341	7.82
524.688	7.79
525.036	7.95
525.383	7.78
525.73	7.91
526.078	7.96
526.425	7.87
526.772	7.73
527.119	7.79
527.466	7.69
527.814	7.68
528.161	7.68
528.508	7.75
528.854	7.69
529.201	7.66
529.548	7.7
529.895	7.64
530.242	7.61
530.588	7.47
530.935	7.38
531.282	7.38
531.628	7.45
531.975	7.55
532.321	7.64
532.667	7.56
533.014	7.68
533.36	7.74
533.706	7.75
534.052	7.72
534.399	7.76
534.745	7.63
535.091	7.66
535.437	7.57
535.783	7.59
536.129	7.51
536.474	7.64
536.82	7.63
537.166	7.79
537.512	7.84
537.857	7.84
538.203	7.73
538.549	7.7
538.894	7.67
539.239	7.78
539.585	7.6
539.93	7.77
540.276	7.67
540.621	7.9
540.966	7.75
541.311	7.82
541.656	7.74
542.001	7.82
542.346	7.83
542.691	7.7
543.036	7.59
543.381	7.61
543.726	7.52
544.071	7.6
544.415	7.7
544.76	7.61
545.105	7.75
545.449	7.57
545.794	7.71
546.138	7.77
546.483	7.67
546.827	7.86
547.171	7.86
547.516	7.96
547.86	7.82
548.204	7.81
548.548	7.89
548.892	7.8
549.236	7.81
549.58	7.79
549.924	7.82
550.268	7.88
550.612	7.87
550.956	7.7
551.3	7.88
551.643	8.01
551.987	7.75
552.33	7.85
552.674	8.05
553.017	8.01
553.361	7.81
553.704	7.79
554.048	8.05
554.391	7.85
554.734	7.88
555.077	7.9
555.42	7.93
555.764	7.86
556.107	7.92
556.45	7.68
556.793	7.97
557.135	7.92
557.478	7.89
557.821	7.83
558.164	8.06
558.507	7.77
558.849	7.87
559.192	8.09
559.534	8.1
559.877	7.94
560.219	7.99
560.562	7.99
560.904	7.84
561.246	7.89
561.589	8.01
561.931	8.14
562.273	7.96
562.615	8.17
562.957	7.91
563.299	8.04
563.641	8.01
563.983	7.97
564.325	7.7
564.667	7.92
565.008	7.78
565.35	7.98
565.692	8.25
566.033	8.11
566.375	7.91
566.716	7.92
567.058	7.93
567.399	7.92
567.741	7.96
568.082	7.89
568.423	7.73
568.764	7.93
569.105	7.76
569.447	7.8
569.788	7.89
570.129	7.99
570.47	7.98
570.811	8.05
571.151	8.01
571.492	8.08
571.833	7.98
572.174	7.79
572.514	7.82
572.855	8.01
573.195	7.71
573.536	7.89
573.876	7.81
574.217	7.91
574.557	7.82
574.898	7.65
575.238	7.81
575.578	7.96
575.918	7.85
576.258	7.8
576.598	7.91
576.938	8.01
577.278	7.84
577.618	7.73
577.958	7.89
578.298	7.88
578.638	7.95
578.977	7.79
579.317	8.04
579.657	7.87
579.996	7.73
580.336	7.86
580.675	8.02
581.014	8.02
581.354	7.99
581.693	8
582.032	7.7
582.372	7.92
582.711	7.82
583.05	8.12
583.389	8.04
583.728	8.02
584.067	7.81
584.406	7.82
584.745	7.97
585.083	8.2
585.422	7.79
585.761	7.82
586.1	8.05
586.438	8
586.777	7.89
587.115	8.02
587.454	7.7
587.792	7.86
588.13	8.17
588.469	8.04
588.807	7.95
589.145	7.86
589.483	8.04
589.821	7.88
590.159	7.93
590.497	7.59
590.835	7.97
591.173	7.9
591.511	7.86
591.849	7.94
592.187	7.98
592.524	7.89
592.862	7.72
593.2	7.82
593.537	8.03
593.875	7.77
594.212	8.05
594.55	7.86
594.887	7.93
595.224	7.89
595.561	7.8
595.899	7.73
596.236	7.9
596.573	7.71
596.91	7.85
597.247	7.94
597.584	7.99
597.921	8.01
598.258	7.86
598.594	7.77
598.931	7.66
599.268	7.77
599.604	7.83
599.941	7.73
600.277	7.82
600.614	7.76
600.95	7.7
601.287	7.75
601.623	8.11
601.959	7.8
602.296	7.82
602.632	7.83
602.968	7.81
603.304	7.77
603.64	7.84
603.976	7.89
604.312	7.85
604.648	7.97
604.984	7.83
605.319	7.74
605.655	7.82
605.991	8
606.326	7.75
606.662	7.61
606.998	7.8
607.333	7.65
607.668	7.5
608.004	7.65
608.339	7.66
608.674	7.82
609.01	7.7
609.345	8.07
609.68	7.57
610.015	7.69
610.35	7.78
610.685	7.71
611.02	7.66
611.355	7.89
611.689	7.38
612.024	7.87
612.359	7.68
612.694	7.86
613.028	7.88
613.363	7.66
613.697	7.79
614.032	7.73
614.366	7.61
614.7	7.87
615.035	7.59
615.369	7.92
615.703	7.92
616.037	7.69
616.371	7.72
616.705	7.73
617.039	8.04
617.373	7.56
617.707	7.48
618.041	8.05
618.375	7.82
618.709	7.68
619.042	7.89
619.376	7.59
619.71	7.81
620.043	7.88
620.377	7.44
620.71	7.69
621.043	7.76
621.377	7.59
621.71	7.94
622.043	7.7
622.376	7.71
622.709	7.9
623.043	7.66
623.376	8.1
623.709	7.81
624.041	7.85
624.374	7.81
624.707	7.3
625.04	7.76
625.373	7.5
625.705	7.8
626.038	7.5
626.37	7.97
626.703	7.72
627.035	7.92
627.368	7.7
627.7	7.84
628.032	7.78
628.365	7.36
628.697	7.35
629.029	7.99
629.361	7.42
629.693	8.06
630.025	7.8
630.357	7.66
630.689	7.88
631.021	7.83
631.353	7.91
631.684	7.52
632.016	7.35
632.348	7.61
632.679	7.49
633.011	7.79
633.342	7.61
633.674	7.62
634.005	7.72
634.336	7.73
634.668	7.71
634.999	7.49
635.33	7.58
635.661	7.67
635.992	7.7
636.323	7.51
636.654	7.61
636.985	7.77
637.316	7.87
637.647	7.8
637.977	7.56
638.308	7.62
638.639	7.55
638.969	7.13
639.3	7.81
639.63	7.52
639.961	7.56
640.291	7.98
640.622	7.74
640.952	7.94
641.282	7.51
641.612	7.34
641.943	7.69
642.273	7.6
642.603	7.63
642.933	7.81
643.263	7.94
643.592	7.69
643.922	7.9
644.252	7.62
644.582	7.26
644.911	7.75
645.241	7.4
645.571	7.38
645.9	7.63
646.23	7.35
646.559	7.43
646.888	7.2
647.218	7.96
647.547	7.68
647.876	7.99
648.205	7.56
648.534	7.24
648.863	7.83
649.192	7.71
649.521	7.37
649.85	7.95
650.179	7.22
650.508	7.86
650.837	7.93
651.165	7.78
651.494	7.23
651.822	7.58
652.151	8.09
652.479	7.86
652.808	7.44
653.136	7.25
653.465	7.71
653.793	8.01
654.121	7.74
654.449	7.54
654.777	7.72
655.105	8.2
655.433	8.02
655.761	7.35
656.089	7.59
656.417	7.62
656.745	8.09
657.073	7.67
657.4	7.95
657.728	8.19
658.056	7.06
658.383	7.82
658.711	7.57
659.038	8.31
659.365	7.64
659.693	7.86
660.02	7.52
660.347	7.73
660.674	7.44
661.001	7.23
661.329	7.34
661.656	7.25
661.982	7.31
662.309	7.61
662.636	7.86
662.963	7.74
663.29	7.42
663.616	7.63
663.943	7.94
664.27	7.82
664.596	7.69
664.923	7.76
665.249	7.76
665.576	7.21
665.902	7.71
666.228	7.19
666.554	7.19
666.881	7.82
667.207	7.37
667.533	8
667.859	7.85
668.185	7.39
668.511	7.45
668.837	7.29
669.162	7.21
669.488	7.86
669.814	8.04
670.139	8.28
670.465	7.6
670.791	7.88
671.116	7.6
671.442	7.35
671.767	7.8
672.092	7.89
672.418	7.42
672.743	7.72
673.068	7.25
673.393	8.11
673.718	7.48
674.043	7.86
674.368	7.83
674.693	7.93
675.018	7.87
675.343	7.86
675.667	7.55
675.992	7.18
676.317	7.92
676.641	7.92
676.966	7.73
677.29	7.47
677.615	7.17
677.939	7.52
678.264	7.66
678.588	7.82
678.912	7.61
679.236	7.77
679.56	7.81
679.885	7.87
680.209	6.84
680.532	7.76
680.856	7.87
681.18	7.55
681.504	7.14
681.828	7.18
682.152	7.35
682.475	7.11
682.799	7.95
683.122	7.07
683.446	7.32
683.769	7.28
684.093	7.53
684.416	7.4
684.739	7.84
685.062	7.4
685.386	8.07
685.709	7.08
686.032	7.45
686.355	7.23
686.678	7.18
687.001	6.34
687.324	7.45
687.646	7.51
687.969	7.41
688.292	7.98
688.614	8.32
688.937	7.76
689.26	7.31
689.582	7.8
689.904	7.82
690.227	7.67
690.549	8.07
690.871	8.16
691.194	7.87
691.516	7.54
691.838	7.78
692.16	7.47
692.482	8
692.804	7.21
