Data from 0053_chest_Reflection__2__48.txt Node

Date: Fri Dec 16 14:17:17 CST 2022
User: ToomeyLab
Spectrometer: FLMS14357
Trigger mode: 0
Integration Time (sec): 1.000000E-2
Scans to average: 100
Electric dark correction enabled: true
Nonlinearity correction enabled: false
Boxcar width: 0
XAxis mode: Wavelengths
Number of Pixels in Spectrum: 2048
>>>>>Begin Spectral Data<<<<<
189.047	88.5
189.435	88.5
189.823	88.5
190.211	-191.37
190.599	237.17
190.987	-756.21
191.375	-158.08
191.763	133.07
192.151	11.13
192.538	132.75
192.926	14.49
193.314	109.1
193.702	-312
194.089	-26.54
194.477	-5880
194.864	26.77
195.252	55.53
195.639	54.93
196.027	13.04
196.414	49.33
196.801	-48.89
197.189	72.34
197.576	174.73
197.963	-12.59
198.351	7.13
198.738	-20.08
199.125	16.33
199.512	-32.82
199.899	-28.1
200.286	-43.88
200.673	13.56
201.06	14.58
201.447	43.85
201.833	-19.69
202.22	-12.66
202.607	46.29
202.994	3.51
203.38	-37.45
203.767	-25.59
204.154	-4.74
204.54	17.92
204.927	0.08
205.313	4.58
205.699	-6.34
206.086	9.09
206.472	-6.52
206.858	25.29
207.245	36.14
207.631	-10.15
208.017	49.14
208.403	14.53
208.789	-10.83
209.175	41.26
209.561	9.79
209.947	-32.53
210.333	-44.86
210.719	11.95
211.105	-13.38
211.491	-5.07
211.876	-30.64
212.262	-24.14
212.648	-58.57
213.034	14.18
213.419	-4.92
213.805	21.12
214.19	-25.14
214.576	-7.85
214.961	5.09
215.346	-26.55
215.732	-3.19
216.117	-7.84
216.502	-30.55
216.888	-40.31
217.273	6.89
217.658	-15.34
218.043	10.81
218.428	12.33
218.813	-17.08
219.198	-18.21
219.583	-11.55
219.968	-8.94
220.353	-0.88
220.738	5.72
221.122	5.39
221.507	-12.2
221.892	-27.6
222.276	0.24
222.661	-3.44
223.046	5.17
223.43	-7.53
223.815	-0.54
224.199	0.95
224.583	-3.55
224.968	8.39
225.352	-7.88
225.736	0.35
226.121	-1.54
226.505	2.38
226.889	4.86
227.273	-1.04
227.657	-0.88
228.041	0.18
228.425	3.32
228.809	2.43
229.193	-1.88
229.577	0.94
229.961	2.07
230.344	0.93
230.728	1.08
231.112	0.61
231.495	0.53
231.879	1.59
232.263	-1.13
232.646	0.53
233.03	-0.65
233.413	-0.39
233.797	0.23
234.18	-1.28
234.563	3.3
234.946	0.36
235.33	1.45
235.713	1.15
236.096	0.51
236.479	0.11
236.862	0.82
237.245	1.95
237.628	2.43
238.011	1.03
238.394	2.89
238.777	0.01
239.16	0.54
239.543	-0.82
239.925	2.16
240.308	1.17
240.691	0.22
241.073	0.95
241.456	0.41
241.838	0.25
242.221	1.41
242.603	1.53
242.986	1.43
243.368	1
243.75	0.91
244.133	1.24
244.515	1.35
244.897	1.46
245.279	1.17
245.661	0.71
246.043	1.26
246.425	0.38
246.807	0.96
247.189	1.31
247.571	1.32
247.953	1.04
248.335	1.3
248.717	1.24
249.098	1.34
249.48	0.99
249.862	1.13
250.243	1.11
250.625	1.17
251.006	0.97
251.388	1.69
251.769	0.77
252.151	1.31
252.532	0.92
252.913	1.52
253.295	1.29
253.676	1.73
254.057	0.86
254.438	0.99
254.819	1.05
255.2	0.96
255.581	0.74
255.962	1.15
256.343	1.62
256.724	0.43
257.105	0.34
257.486	0.74
257.867	0.5
258.247	1.24
258.628	0.83
259.009	0.45
259.389	1.96
259.77	1.71
260.15	1.72
260.531	1.17
260.911	1.3
261.292	1.13
261.672	1.18
262.052	1.02
262.432	1.2
262.813	1.5
263.193	1.32
263.573	1.03
263.953	0.88
264.333	1.28
264.713	1.28
265.093	1.3
265.473	1.17
265.853	0.72
266.233	0.67
266.612	1.41
266.992	1.04
267.372	0.93
267.752	0.73
268.131	1.04
268.511	1.37
268.89	1.49
269.27	1.25
269.649	1.56
270.029	1.19
270.408	0.89
270.787	0.58
271.167	1.54
271.546	0.61
271.925	1
272.304	0.89
272.683	1.16
273.062	1.14
273.441	1.29
273.82	1.35
274.199	1.26
274.578	0.88
274.957	1
275.336	1.03
275.715	1.45
276.093	1.48
276.472	1.81
276.851	0.82
277.229	1.72
277.608	0.68
277.986	0.85
278.365	1.19
278.743	1.27
279.122	0.84
279.5	1.14
279.878	0.44
280.257	1.22
280.635	0.44
281.013	1.46
281.391	0.85
281.769	1.38
282.147	1.54
282.525	0.52
282.903	1.13
283.281	0.96
283.659	1.08
284.037	1.14
284.415	1.3
284.792	1.33
285.17	1.12
285.548	0.71
285.925	0.82
286.303	1.05
286.68	1.09
287.058	1.16
287.435	1.1
287.813	0.94
288.19	1.43
288.567	0.82
288.945	1.37
289.322	0.89
289.699	0.59
290.076	1.71
290.453	0.89
290.83	1.2
291.207	1.13
291.584	0.97
291.961	1.26
292.338	1.08
292.715	0.85
293.092	0.94
293.469	1.12
293.845	1.2
294.222	1.41
294.599	1.08
294.975	1.58
295.352	0.99
295.728	1.19
296.105	1.34
296.481	1.64
296.858	1.41
297.234	1.58
297.61	1.06
297.986	1.37
298.363	1.18
298.739	1.59
299.115	1.1
299.491	1.42
299.867	1.26
300.243	1.11
300.619	1.09
300.995	1.57
301.371	1.58
301.746	1.01
302.122	1.26
302.498	1.24
302.874	1.12
303.249	1.35
303.625	1.46
304	1.08
304.376	1.05
304.751	1.29
305.127	1.62
305.502	1.64
305.878	1.41
306.253	1.41
306.628	1.64
307.003	0.99
307.378	1.27
307.754	1.7
308.129	1.06
308.504	0.88
308.879	1.33
309.254	1.73
309.629	1.53
310.003	1.57
310.378	1.72
310.753	1.35
311.128	1.45
311.502	1.33
311.877	1.43
312.252	1.26
312.626	1.14
313.001	1.45
313.375	1.32
313.75	1.32
314.124	1.76
314.498	1.17
314.873	1.85
315.247	1.35
315.621	1.98
315.995	1.74
316.369	1.38
316.743	1.45
317.117	1.34
317.491	1.58
317.865	1.08
318.239	1.98
318.613	1.29
318.987	1.41
319.361	1.77
319.734	1.63
320.108	2.24
320.482	1.78
320.855	1.89
321.229	2.48
321.602	1.82
321.976	1.14
322.349	0.89
322.723	1.21
323.096	1.49
323.469	1.33
323.843	1.51
324.216	0.95
324.589	1.73
324.962	1.43
325.335	1.36
325.708	1.83
326.081	1.9
326.454	1.79
326.827	1.54
327.2	2.32
327.573	1.9
327.945	2.02
328.318	2.1
328.691	1.58
329.063	1.58
329.436	1.29
329.809	1.34
330.181	1.37
330.553	2.18
330.926	2.04
331.298	1.29
331.671	1.95
332.043	1.93
332.415	2.14
332.787	1.93
333.159	1.79
333.532	1.72
333.904	1.83
334.276	2.28
334.648	1.75
335.02	1.24
335.391	1.86
335.763	1.65
336.135	1.96
336.507	1.95
336.879	1.66
337.25	1.54
337.622	1.86
337.993	1.78
338.365	2.19
338.736	2
339.108	1.55
339.479	1.66
339.851	2.08
340.222	1.77
340.593	1.58
340.964	1.88
341.336	1.49
341.707	1.86
342.078	1.46
342.449	1.94
342.82	1.5
343.191	1.83
343.562	1.78
343.933	1.85
344.303	1.71
344.674	1.7
345.045	2.05
345.416	1.83
345.786	1.5
346.157	1.97
346.527	1.42
346.898	1.81
347.268	1.73
347.639	1.88
348.009	1.97
348.38	1.73
348.75	1.64
349.12	1.98
349.49	1.84
349.861	1.95
350.231	1.89
350.601	1.95
350.971	1.63
351.341	1.97
351.711	1.49
352.081	1.92
352.45	1.74
352.82	1.97
353.19	1.57
353.56	1.54
353.929	1.87
354.299	1.59
354.669	1.83
355.038	1.66
355.408	2.12
355.777	1.66
356.147	1.81
356.516	2.46
356.885	1.86
357.254	2.03
357.624	1.97
357.993	1.71
358.362	1.68
358.731	1.69
359.1	1.98
359.469	1.78
359.838	2.04
360.207	1.56
360.576	2.18
360.945	1.97
361.314	1.95
361.682	1.46
362.051	1.77
362.42	2.26
362.788	1.83
363.157	1.64
363.525	1.77
363.894	1.63
364.262	1.86
364.631	2.18
364.999	1.5
365.367	2.12
365.735	1.52
366.104	1.56
366.472	1.82
366.84	1.95
367.208	1.62
367.576	1.51
367.944	1.95
368.312	1.54
368.68	1.83
369.048	2.12
369.416	1.85
369.783	1.98
370.151	1.83
370.519	1.92
370.886	1.87
371.254	2.14
371.621	2.04
371.989	2.03
372.356	1.95
372.724	2.01
373.091	2.06
373.458	1.81
373.826	1.93
374.193	2.24
374.56	1.78
374.927	1.98
375.294	2.13
375.661	2.09
376.028	1.92
376.395	2.01
376.762	2.07
377.129	2.08
377.496	2.22
377.863	2.13
378.229	1.92
378.596	2.09
378.963	1.75
379.329	1.72
379.696	2.04
380.062	2.23
380.429	1.91
380.795	1.86
381.161	1.98
381.528	1.78
381.894	1.93
382.26	1.78
382.626	1.85
382.993	1.88
383.359	2
383.725	2.27
384.091	2.06
384.457	2.12
384.823	2.05
385.188	2.27
385.554	2.2
385.92	2.25
386.286	2.21
386.651	1.96
387.017	2.07
387.383	1.92
387.748	1.9
388.114	2.2
388.479	2.09
388.845	2.07
389.21	2
389.575	2
389.94	2.16
390.306	1.69
390.671	2.25
391.036	2.26
391.401	2.34
391.766	1.86
392.131	2
392.496	2.07
392.861	1.94
393.226	1.97
393.591	2.19
393.956	2.3
394.32	2.23
394.685	2.18
395.05	1.96
395.414	2
395.779	2.11
396.143	2.14
396.508	2.39
396.872	2.16
397.236	1.81
397.601	2.41
397.965	1.97
398.329	2.27
398.694	1.89
399.058	2.18
399.422	2.32
399.786	2.12
400.15	2.09
400.514	2.09
400.878	2.18
401.242	2.33
401.605	2.01
401.969	2.33
402.333	2.21
402.697	2.3
403.06	2.31
403.424	2.31
403.787	2.37
404.151	2.1
404.514	2.17
404.878	2.21
405.241	2.29
405.604	2.26
405.968	2.19
406.331	2.36
406.694	2.21
407.057	2.35
407.42	2.26
407.783	2.17
408.146	2.24
408.509	2.22
408.872	2.09
409.235	2.29
409.598	2.39
409.961	2.27
410.323	2.46
410.686	2.25
411.049	2.18
411.411	2.31
411.774	2.05
412.136	2.32
412.499	2.19
412.861	2
413.223	2.23
413.586	1.99
413.948	2.36
414.31	2.26
414.672	2.33
415.035	2.25
415.397	2.18
415.759	2.16
416.121	2.49
416.483	2.44
416.845	2.22
417.206	2.32
417.568	2.29
417.93	2.1
418.292	2.33
418.653	2.27
419.015	2.36
419.377	2.34
419.738	2.08
420.1	2.22
420.461	2.17
420.822	2.36
421.184	2.32
421.545	2.26
421.906	2.33
422.267	2.08
422.629	2.23
422.99	2.33
423.351	2.32
423.712	2.3
424.073	2.46
424.434	2.19
424.795	2.29
425.155	2.24
425.516	2.22
425.877	2.33
426.238	2.24
426.598	2.28
426.959	2.25
427.32	2.36
427.68	2.37
428.041	2.38
428.401	2.28
428.761	2.26
429.122	2.31
429.482	2.27
429.842	2.27
430.202	2.29
430.563	2.51
430.923	2.36
431.283	2.42
431.643	2.41
432.003	2.44
432.363	2.44
432.722	2.29
433.082	2.32
433.442	2.27
433.802	2.36
434.161	2.42
434.521	2.45
434.881	2.33
435.24	2.36
435.6	2.36
435.959	2.49
436.319	2.35
436.678	2.59
437.037	2.45
437.396	2.52
437.756	2.33
438.115	2.52
438.474	2.44
438.833	2.48
439.192	2.48
439.551	2.58
439.91	2.51
440.269	2.52
440.628	2.41
440.987	2.32
441.345	2.43
441.704	2.48
442.063	2.4
442.421	2.45
442.78	2.41
443.138	2.44
443.497	2.4
443.855	2.46
444.214	2.52
444.572	2.35
444.93	2.51
445.288	2.56
445.647	2.45
446.005	2.37
446.363	2.4
446.721	2.36
447.079	2.46
447.437	2.48
447.795	2.39
448.153	2.44
448.51	2.48
448.868	2.53
449.226	2.49
449.584	2.51
449.941	2.52
450.299	2.42
450.656	2.53
451.014	2.54
451.371	2.58
451.729	2.53
452.086	2.45
452.443	2.5
452.801	2.68
453.158	2.32
453.515	2.4
453.872	2.69
454.229	2.55
454.586	2.51
454.943	2.53
455.3	2.77
455.657	2.46
456.014	2.6
456.371	2.57
456.727	2.6
457.084	2.5
457.441	2.44
457.797	2.46
458.154	2.62
458.51	2.5
458.867	2.59
459.223	2.54
459.58	2.58
459.936	2.59
460.292	2.51
460.648	2.53
461.005	2.48
461.361	2.49
461.717	2.52
462.073	2.63
462.429	2.69
462.785	2.58
463.141	2.72
463.496	2.46
463.852	2.71
464.208	2.68
464.564	2.66
464.919	2.52
465.275	2.77
465.631	2.69
465.986	2.62
466.342	2.68
466.697	2.6
467.052	2.84
467.408	2.54
467.763	2.63
468.118	2.67
468.473	2.82
468.829	2.71
469.184	2.7
469.539	2.55
469.894	2.74
470.249	2.84
470.603	2.9
470.958	2.79
471.313	2.64
471.668	2.8
472.023	2.82
472.377	2.66
472.732	2.57
473.086	2.47
473.441	2.8
473.795	2.96
474.15	2.69
474.504	2.77
474.859	2.71
475.213	2.8
475.567	2.75
475.921	2.88
476.275	2.79
476.63	2.78
476.984	2.61
477.338	3.06
477.692	2.77
478.045	2.68
478.399	2.78
478.753	2.72
479.107	2.74
479.461	2.83
479.814	2.96
480.168	2.85
480.521	2.72
480.875	3.02
481.228	2.92
481.582	2.77
481.935	2.81
482.289	2.72
482.642	2.86
482.995	2.86
483.348	2.87
483.701	2.79
484.055	2.76
484.408	2.74
484.761	2.56
485.114	2.59
485.466	2.63
485.819	2.66
486.172	2.77
486.525	2.83
486.878	2.8
487.23	2.8
487.583	2.78
487.936	2.8
488.288	2.8
488.641	2.76
488.993	2.69
489.345	2.72
489.698	2.81
490.05	2.8
490.402	2.89
490.754	2.91
491.107	2.88
491.459	2.93
491.811	2.95
492.163	2.98
492.515	2.92
492.866	2.76
493.218	2.77
493.57	2.86
493.922	2.93
494.274	2.99
494.625	2.95
494.977	3.01
495.328	2.99
495.68	3.16
496.031	3.1
496.383	2.96
496.734	3.17
497.086	2.94
497.437	3.09
497.788	2.94
498.139	3.14
498.49	3.01
498.842	3.02
499.193	3.04
499.544	3.16
499.894	3.08
500.245	3.09
500.596	3.08
500.947	3.06
501.298	3.11
501.648	3.15
501.999	3.33
502.35	3.27
502.7	3.27
503.051	3.24
503.401	3.26
503.752	3.08
504.102	3.27
504.452	3.09
504.803	2.85
505.153	3.21
505.503	3.08
505.853	3.14
506.203	3.15
506.553	3.27
506.903	3.23
507.253	3.24
507.603	3.13
507.953	3.42
508.303	3.26
508.652	3.23
509.002	3.28
509.352	3.27
509.701	3.31
510.051	3.21
510.4	3.29
510.75	3.27
511.099	3.27
511.449	3.27
511.798	3.44
512.147	3.3
512.496	3.31
512.846	3.34
513.195	3.34
513.544	3.28
513.893	3.23
514.242	3.41
514.591	3.4
514.939	3.29
515.288	3.45
515.637	3.51
515.986	3.32
516.334	3.45
516.683	3.41
517.032	3.35
517.38	3.44
517.729	3.36
518.077	3.44
518.426	3.33
518.774	3.47
519.122	3.41
519.47	3.45
519.819	3.41
520.167	3.37
520.515	3.37
520.863	3.47
521.211	3.48
521.559	3.47
521.907	3.51
522.255	3.63
522.602	3.49
522.95	3.51
523.298	3.5
523.645	3.47
523.993	3.62
524.341	3.56
524.688	3.72
525.036	3.69
525.383	3.71
525.73	3.66
526.078	3.59
526.425	3.54
526.772	3.41
527.119	3.45
527.466	3.52
527.814	3.61
528.161	3.64
528.508	3.64
528.854	3.48
529.201	3.5
529.548	3.46
529.895	3.43
530.242	3.44
530.588	3.51
530.935	3.53
531.282	3.64
531.628	3.65
531.975	3.71
532.321	3.69
532.667	3.74
533.014	3.77
533.36	3.67
533.706	3.75
534.052	3.69
534.399	3.6
534.745	3.61
535.091	3.64
535.437	3.75
535.783	3.9
536.129	3.82
536.474	3.85
536.82	3.81
537.166	3.97
537.512	3.88
537.857	3.86
538.203	3.86
538.549	3.88
538.894	3.92
539.239	4
539.585	4
539.93	4.05
540.276	3.98
540.621	4.01
540.966	4.06
541.311	4.01
541.656	4
542.001	4.05
542.346	3.96
542.691	3.81
543.036	3.9
543.381	3.96
543.726	4.03
544.071	4.05
544.415	4.04
544.76	4
545.105	4.08
545.449	4.05
545.794	4.2
546.138	4.24
546.483	4.19
546.827	4.24
547.171	4.25
547.516	4.34
547.86	4.22
548.204	4.18
548.548	4.33
548.892	4.35
549.236	4.34
549.58	4.46
549.924	4.33
550.268	4.48
550.612	4.67
550.956	4.24
551.3	4.46
551.643	4.52
551.987	4.33
552.33	4.38
552.674	4.55
553.017	4.49
553.361	4.48
553.704	4.38
554.048	4.47
554.391	4.53
554.734	4.54
555.077	4.64
555.42	4.52
555.764	4.69
556.107	4.59
556.45	4.55
556.793	4.87
557.135	4.75
557.478	4.77
557.821	4.77
558.164	4.79
558.507	4.74
558.849	4.85
559.192	4.95
559.534	4.65
559.877	4.95
560.219	5.1
560.562	4.8
560.904	4.9
561.246	4.9
561.589	5.06
561.931	5.02
562.273	4.94
562.615	4.92
562.957	4.98
563.299	4.91
563.641	5.12
563.983	4.95
564.325	5.01
564.667	5.04
565.008	4.91
565.35	5.12
565.692	5.36
566.033	5.32
566.375	5.03
566.716	5.19
567.058	5.38
567.399	5.22
567.741	5.28
568.082	5.16
568.423	5.18
568.764	5.28
569.105	5.41
569.447	5.42
569.788	5.32
570.129	5.45
570.47	5.45
570.811	5.32
571.151	5.41
571.492	5.59
571.833	5.34
572.174	5.33
572.514	5.33
572.855	5.5
573.195	5.39
573.536	5.48
573.876	5.55
574.217	5.45
574.557	5.7
574.898	5.51
575.238	5.56
575.578	5.79
575.918	5.66
576.258	5.66
576.598	5.6
576.938	5.85
577.278	5.68
577.618	5.63
577.958	5.77
578.298	5.8
578.638	5.77
578.977	6
579.317	6.01
579.657	6
579.996	5.98
580.336	6.01
580.675	6.08
581.014	5.95
581.354	6.06
581.693	5.96
582.032	5.95
582.372	6.12
582.711	6.11
583.05	6.31
583.389	6.3
583.728	6.51
584.067	6.39
584.406	6.34
584.745	6.32
585.083	6.45
585.422	6.25
585.761	6.26
586.1	6.48
586.438	6.38
586.777	6.45
587.115	6.47
587.454	6.61
587.792	6.22
588.13	6.76
588.469	6.64
588.807	6.59
589.145	6.41
589.483	6.5
589.821	6.5
590.159	6.69
590.497	6.6
590.835	6.72
591.173	6.64
591.511	6.76
591.849	6.7
592.187	6.65
592.524	6.99
592.862	6.85
593.2	6.62
593.537	6.85
593.875	6.96
594.212	6.78
594.55	6.97
594.887	6.94
595.224	6.85
595.561	7.04
595.899	6.93
596.236	7.11
596.573	7.05
596.91	7.08
597.247	7.07
597.584	7.2
597.921	6.99
598.258	7.1
598.594	6.7
598.931	7.13
599.268	7.24
599.604	7.34
599.941	7.36
600.277	7.33
600.614	7.23
600.95	7.43
601.287	7.23
601.623	7.57
601.959	7.43
602.296	7.5
602.632	7.66
602.968	7.43
603.304	7.46
603.64	7.53
603.976	7.47
604.312	7.62
604.648	7.75
604.984	7.5
605.319	7.62
605.655	7.7
605.991	7.69
606.326	7.68
606.662	7.68
606.998	7.72
607.333	7.79
607.668	7.69
608.004	7.86
608.339	7.82
608.674	7.9
609.01	8.13
609.345	8.12
609.68	7.87
610.015	7.99
610.35	8.07
610.685	8.05
611.02	8.17
611.355	8.13
611.689	7.98
612.024	8.36
612.359	8.32
612.694	8.5
613.028	8.58
613.363	8.11
613.697	8.44
614.032	8.47
614.366	8.42
614.7	8.8
615.035	8.36
615.369	8.8
615.703	8.89
616.037	8.46
616.371	8.46
616.705	8.57
617.039	8.83
617.373	8.78
617.707	8.81
618.041	8.94
618.375	8.63
618.709	8.78
619.042	8.81
619.376	8.93
619.71	8.78
620.043	8.67
620.377	8.91
620.71	8.95
621.043	8.83
621.377	8.65
621.71	8.81
622.043	9.22
622.376	8.83
622.709	9.4
623.043	8.93
623.376	9.27
623.709	9
624.041	9.09
624.374	9.32
624.707	9.11
625.04	9.63
625.373	9.16
625.705	9.68
626.038	9.19
626.37	8.94
626.703	9.32
627.035	9.56
627.368	9.43
627.7	9.43
628.032	9.24
628.365	9.16
628.697	9.48
629.029	9.81
629.361	9.3
629.693	9.86
630.025	9.75
630.357	9.42
630.689	9.72
631.021	9.85
631.353	9.95
631.684	9.69
632.016	9.8
632.348	9.98
632.679	9.92
633.011	9.78
633.342	10.1
633.674	10.13
634.005	9.88
634.336	9.91
634.668	10
634.999	10.06
635.33	9.95
635.661	9.86
635.992	9.95
636.323	10.26
636.654	10.28
636.985	10.34
637.316	10.05
637.647	10.4
637.977	10.14
638.308	10.27
638.639	10.15
638.969	10.36
639.3	10.71
639.63	10.2
639.961	10.32
640.291	10.82
640.622	10.63
640.952	10.71
641.282	10.3
641.612	10.74
641.943	10.61
642.273	11.06
642.603	10.53
642.933	10.62
643.263	11.35
643.592	10.82
643.922	11.14
644.252	10.67
644.582	10.87
644.911	10.36
645.241	10.7
645.571	10.82
645.9	11.37
646.23	11.02
646.559	11.43
646.888	10.75
647.218	11.21
647.547	11.28
647.876	11.46
648.205	10.92
648.534	11.14
648.863	11.5
649.192	11.46
649.521	11.22
649.85	11.82
650.179	11.55
650.508	11.48
650.837	11.4
651.165	11.31
651.494	11.37
651.822	11.68
652.151	11.94
652.479	12.09
652.808	11.28
653.136	11.21
653.465	11.64
653.793	11.93
654.121	11.63
654.449	11.78
654.777	11.75
655.105	12.13
655.433	12.1
655.761	11.55
656.089	11.97
656.417	11.75
656.745	12.95
657.073	12.13
657.4	12.27
657.728	11.94
658.056	12.22
658.383	12.8
658.711	12.05
659.038	12.31
659.365	12.51
659.693	12.24
660.02	11.72
660.347	12.17
660.674	12.19
661.001	11.73
661.329	12.17
661.656	12.23
661.982	12.42
662.309	12.37
662.636	12.12
662.963	12.51
663.29	12.19
663.616	12.74
663.943	12.78
664.27	12.87
664.596	12.43
664.923	13
665.249	12.63
665.576	12.82
665.902	12.7
666.228	12.71
666.554	12.77
666.881	13.04
667.207	12.69
667.533	13.01
667.859	13.25
668.185	13.28
668.511	13.39
668.837	12.44
669.162	13.57
669.488	13.21
669.814	13.45
670.139	13.4
670.465	13.38
670.791	13.44
671.116	13.43
671.442	13.13
671.767	13.64
672.092	13.79
672.418	13.15
672.743	13.49
673.068	13.95
673.393	13.78
673.718	13.31
674.043	13.22
674.368	13.69
674.693	13.48
675.018	13.84
675.343	14.01
675.667	14.06
675.992	13.27
676.317	14.52
676.641	13.88
676.966	13.59
677.29	14.01
677.615	13.95
677.939	13.65
678.264	13.78
678.588	14.62
678.912	13.81
679.236	14.09
679.56	13.93
679.885	14.13
680.209	13.81
680.532	13.52
680.856	14.26
681.18	13.99
681.504	13.68
681.828	13.78
682.152	14.28
682.475	14.41
682.799	14.41
683.122	14.22
683.446	14.4
683.769	14.52
684.093	14.68
684.416	14.92
684.739	14.96
685.062	14.56
685.386	14.58
685.709	14.89
686.032	14.56
686.355	15.23
686.678	14.29
687.001	13.52
687.324	14.61
687.646	14.82
687.969	14.91
688.292	15.03
688.614	15.53
