Data from 0053_chest_Reflection__0__46.txt Node

Date: Fri Dec 16 14:16:49 CST 2022
User: ToomeyLab
Spectrometer: FLMS14357
Trigger mode: 0
Integration Time (sec): 1.000000E-2
Scans to average: 100
Electric dark correction enabled: true
Nonlinearity correction enabled: false
Boxcar width: 0
XAxis mode: Wavelengths
Number of Pixels in Spectrum: 2048
>>>>>Begin Spectral Data<<<<<
189.047	112.12
189.435	112.12
189.823	112.12
190.211	429.78
190.599	316.46
190.987	-2468.05
191.375	75.9
191.763	234.76
192.151	-92.39
192.538	185.19
192.926	93.1
193.314	124.5
193.702	-172
194.089	117.93
194.477	-9580
194.864	234.14
195.252	-190.93
195.639	134.7
196.027	38.23
196.414	-79.45
196.801	406.03
197.189	163.39
197.576	-68.88
197.963	-60.24
198.351	5.7
198.738	-3.69
199.125	31.77
199.512	0.93
199.899	-4.2
200.286	4.07
200.673	31.32
201.06	42.06
201.447	28.53
201.833	-11.82
202.22	34.73
202.607	6.65
202.994	74.18
203.38	-14.59
203.767	5.38
204.154	7.99
204.54	24.21
204.927	18.88
205.313	17.07
205.699	-13.4
206.086	22.59
206.472	-5.25
206.858	33.02
207.245	26.86
207.631	-11.41
208.017	27.98
208.403	15.21
208.789	20.49
209.175	32.86
209.561	21.69
209.947	8.33
210.333	28.1
210.719	28.57
211.105	15.17
211.491	-4.99
211.876	20.86
212.262	-6.96
212.648	-47.66
213.034	27
213.419	14.78
213.805	2.26
214.19	-9.47
214.576	-12.55
214.961	20.02
215.346	-27.79
215.732	3.35
216.117	3.03
216.502	8.09
216.888	6.39
217.273	1.81
217.658	-26.83
218.043	11.86
218.428	15.79
218.813	-3.66
219.198	10.18
219.583	10.38
219.968	11.5
220.353	12.88
220.738	6.15
221.122	-1.63
221.507	5.16
221.892	6.58
222.276	18.68
222.661	5.39
223.046	9.83
223.43	-11.86
223.815	-7.79
224.199	2.2
224.583	3.24
224.968	10.42
225.352	2.75
225.736	8.85
226.121	-1.84
226.505	5.96
226.889	7.74
227.273	7.99
227.657	1.47
228.041	1.18
228.425	1.74
228.809	4.94
229.193	0.57
229.577	2.07
229.961	2.4
230.344	2.77
230.728	1.87
231.112	1.91
231.495	1.51
231.879	1.72
232.263	2.53
232.646	0.91
233.03	2.02
233.413	3.01
233.797	5.93
234.18	0.05
234.563	2.24
234.946	0.71
235.33	4.02
235.713	2.2
236.096	1.37
236.479	1.38
236.862	2.29
237.245	2.87
237.628	2.19
238.011	2.02
238.394	2.84
238.777	1.57
239.16	1.23
239.543	1.97
239.925	2.73
240.308	1.95
240.691	2.61
241.073	2.44
241.456	2.07
241.838	1.02
242.221	1.76
242.603	2.19
242.986	2.94
243.368	1.92
243.75	1.63
244.133	2.11
244.515	2.1
244.897	1.94
245.279	2.23
245.661	1.94
246.043	2.68
246.425	1.66
246.807	2.23
247.189	2.1
247.571	1.76
247.953	1.6
248.335	1.94
248.717	1.64
249.098	1.96
249.48	1.47
249.862	2.18
250.243	1.75
250.625	1.94
251.006	1.96
251.388	2.35
251.769	2.14
252.151	1.19
252.532	2.34
252.913	1.75
253.295	1.89
253.676	2.17
254.057	1.6
254.438	1.89
254.819	1.36
255.2	2.86
255.581	2.25
255.962	2.1
256.343	2.88
256.724	1.5
257.105	1.49
257.486	2.22
257.867	0.84
258.247	2.09
258.628	2.22
259.009	2.26
259.389	2.47
259.77	1.17
260.15	2.29
260.531	2
260.911	1.71
261.292	1.78
261.672	1.63
262.052	1.65
262.432	1.82
262.813	2.21
263.193	1.2
263.573	2.01
263.953	1.54
264.333	1.91
264.713	1.47
265.093	1.66
265.473	2.48
265.853	1.88
266.233	1.9
266.612	1.63
266.992	1.73
267.372	1.65
267.752	1.62
268.131	1.67
268.511	1.73
268.89	1.97
269.27	1.61
269.649	1.87
270.029	1.85
270.408	1.04
270.787	1.42
271.167	1.89
271.546	1.08
271.925	1.65
272.304	1.52
272.683	1.14
273.062	2.01
273.441	1.76
273.82	2.03
274.199	1.76
274.578	1.89
274.957	1.81
275.336	1.56
275.715	1.64
276.093	2.28
276.472	1.66
276.851	2.09
277.229	2.05
277.608	1.51
277.986	1.85
278.365	1.67
278.743	2.16
279.122	1.36
279.5	0.99
279.878	1.01
280.257	1.95
280.635	1.68
281.013	2.28
281.391	1.88
281.769	1.45
282.147	1.82
282.525	1.6
282.903	1.91
283.281	1.34
283.659	1.63
284.037	1.48
284.415	1.74
284.792	2.12
285.17	1.06
285.548	1.59
285.925	1.39
286.303	1.34
286.68	1.9
287.058	1.33
287.435	1.41
287.813	2
288.19	2.29
288.567	1.37
288.945	1.42
289.322	1.65
289.699	1.8
290.076	2.15
290.453	1.65
290.83	1.84
291.207	1.84
291.584	1.23
291.961	2
292.338	1.66
292.715	1.72
293.092	1.55
293.469	2.11
293.845	2.04
294.222	1.43
294.599	2.28
294.975	1.98
295.352	1.32
295.728	1.92
296.105	1.81
296.481	2.15
296.858	2.14
297.234	1.67
297.61	1.79
297.986	1.89
298.363	1.28
298.739	2.06
299.115	1.41
299.491	2.14
299.867	1.72
300.243	1.75
300.619	1.67
300.995	1.82
301.371	2.13
301.746	1.81
302.122	1.79
302.498	1.51
302.874	2.12
303.249	2.06
303.625	1.8
304	1.82
304.376	1.47
304.751	1.84
305.127	1.79
305.502	1.94
305.878	1.98
306.253	1.72
306.628	1.95
307.003	1.91
307.378	1.78
307.754	2.22
308.129	1.46
308.504	1.68
308.879	1.87
309.254	1.94
309.629	1.72
310.003	2.33
310.378	1.97
310.753	2.04
311.128	1.89
311.502	1.6
311.877	1.67
312.252	1.74
312.626	1.9
313.001	1.79
313.375	1.71
313.75	1.74
314.124	2.41
314.498	1.55
314.873	1.94
315.247	1.41
315.621	2.22
315.995	2.13
316.369	1.93
316.743	2.36
317.117	1.91
317.491	2.18
317.865	1.64
318.239	2.06
318.613	1.85
318.987	1.83
319.361	2.4
319.734	1.91
320.108	2.37
320.482	2.07
320.855	2.08
321.229	2.73
321.602	2.51
321.976	2.04
322.349	1.61
322.723	1.78
323.096	1.77
323.469	1.81
323.843	2.03
324.216	2.23
324.589	2.18
324.962	2.06
325.335	1.92
325.708	2.02
326.081	2.43
326.454	2
326.827	2.45
327.2	2.22
327.573	2.21
327.945	1.88
328.318	1.98
328.691	2.11
329.063	1.86
329.436	1.76
329.809	1.83
330.181	1.75
330.553	1.93
330.926	2.27
331.298	2.02
331.671	2.17
332.043	1.97
332.415	2.08
332.787	2.62
333.159	1.6
333.532	1.98
333.904	2.11
334.276	2.11
334.648	2.2
335.02	2.36
335.391	2.53
335.763	2.1
336.135	1.88
336.507	2.05
336.879	1.91
337.25	2.27
337.622	1.93
337.993	2.27
338.365	2.44
338.736	1.88
339.108	1.58
339.479	2.07
339.851	2.69
340.222	1.71
340.593	1.8
340.964	2.43
341.336	1.42
341.707	2.03
342.078	1.72
342.449	2.42
342.82	1.67
343.191	1.56
343.562	2.06
343.933	2.31
344.303	1.84
344.674	1.8
345.045	2.64
345.416	2.17
345.786	1.3
346.157	2.17
346.527	1.8
346.898	1.72
347.268	1.82
347.639	1.93
348.009	2.34
348.38	2.07
348.75	1.88
349.12	2.18
349.49	2.08
349.861	2.34
350.231	2.21
350.601	1.99
350.971	2.09
351.341	2.15
351.711	2.16
352.081	2.15
352.45	2.25
352.82	2.39
353.19	1.91
353.56	1.85
353.929	2.55
354.299	1.87
354.669	2.21
355.038	1.83
355.408	2.37
355.777	1.91
356.147	2.18
356.516	2.64
356.885	2
357.254	2.15
357.624	1.86
357.993	1.83
358.362	2.14
358.731	1.66
359.1	2.4
359.469	2.18
359.838	2.16
360.207	1.89
360.576	2.26
360.945	2.19
361.314	2.24
361.682	1.68
362.051	2.01
362.42	2.42
362.788	2.24
363.157	1.91
363.525	1.98
363.894	1.84
364.262	2.02
364.631	2.49
364.999	1.79
365.367	2.33
365.735	1.63
366.104	1.55
366.472	2.37
366.84	2.07
367.208	1.61
367.576	2.27
367.944	2.28
368.312	1.75
368.68	2.05
369.048	2.23
369.416	2.2
369.783	2.07
370.151	2.31
370.519	2.01
370.886	2.08
371.254	2
371.621	2.25
371.989	2.08
372.356	1.99
372.724	1.91
373.091	2.08
373.458	2.23
373.826	2.1
374.193	2.54
374.56	2.19
374.927	1.79
375.294	2.3
375.661	2.14
376.028	2.04
376.395	2.34
376.762	2.08
377.129	2.3
377.496	2.21
377.863	2.41
378.229	2.23
378.596	2.04
378.963	2.11
379.329	2.33
379.696	2.23
380.062	2.42
380.429	2.2
380.795	2.08
381.161	2.21
381.528	1.91
381.894	2.51
382.26	1.95
382.626	2.24
382.993	2.04
383.359	2.31
383.725	2.17
384.091	2.37
384.457	2.44
384.823	2.23
385.188	2.39
385.554	2.19
385.92	2.33
386.286	2.41
386.651	2.15
387.017	2.6
387.383	2.24
387.748	1.98
388.114	2.39
388.479	2.15
388.845	2.1
389.21	2.06
389.575	2.38
389.94	2.04
390.306	2.19
390.671	2.41
391.036	2.26
391.401	2.28
391.766	2.13
392.131	2.31
392.496	2.21
392.861	2.05
393.226	2.31
393.591	2.17
393.956	2.45
394.32	2.23
394.685	2.51
395.05	2.03
395.414	2.22
395.779	2.08
396.143	2.31
396.508	2.51
396.872	2.47
397.236	2.05
397.601	2.46
397.965	1.97
398.329	2.31
398.694	2.03
399.058	2.49
399.422	2.35
399.786	2.41
400.15	2.11
400.514	2.36
400.878	2.28
401.242	2.54
401.605	2.39
401.969	2.42
402.333	2.24
402.697	2.67
403.06	2.33
403.424	2.26
403.787	2.43
404.151	2.26
404.514	2.13
404.878	2.31
405.241	2.32
405.604	2.4
405.968	2.31
406.331	2.17
406.694	2.24
407.057	2.41
407.42	2.28
407.783	2.35
408.146	2.31
408.509	2.29
408.872	2.29
409.235	2.48
409.598	2.59
409.961	2.38
410.323	2.37
410.686	2.19
411.049	2.11
411.411	2.4
411.774	2.18
412.136	2.49
412.499	2.33
412.861	2.23
413.223	2.7
413.586	2.35
413.948	2.46
414.31	2.62
414.672	2.39
415.035	2.42
415.397	2.46
415.759	2.3
416.121	2.48
416.483	2.58
416.845	2.56
417.206	2.44
417.568	2.55
417.93	2.35
418.292	2.35
418.653	2.4
419.015	2.36
419.377	2.4
419.738	2.25
420.1	2.33
420.461	2.19
420.822	2.31
421.184	2.33
421.545	2.32
421.906	2.26
422.267	2.19
422.629	2.26
422.99	2.34
423.351	2.37
423.712	2.34
424.073	2.47
424.434	2.2
424.795	2.4
425.155	2.36
425.516	2.31
425.877	2.34
426.238	2.24
426.598	2.41
426.959	2.29
427.32	2.38
427.68	2.32
428.041	2.4
428.401	2.31
428.761	2.42
429.122	2.47
429.482	2.29
429.842	2.46
430.202	2.36
430.563	2.51
430.923	2.45
431.283	2.46
431.643	2.31
432.003	2.59
432.363	2.63
432.722	2.4
433.082	2.43
433.442	2.35
433.802	2.46
434.161	2.36
434.521	2.41
434.881	2.53
435.24	2.29
435.6	2.43
435.959	2.32
436.319	2.35
436.678	2.59
437.037	2.53
437.396	2.49
437.756	2.47
438.115	2.57
438.474	2.57
438.833	2.47
439.192	2.62
439.551	2.59
439.91	2.51
440.269	2.64
440.628	2.43
440.987	2.37
441.345	2.44
441.704	2.52
442.063	2.48
442.421	2.47
442.78	2.44
443.138	2.4
443.497	2.35
443.855	2.45
444.214	2.52
444.572	2.53
444.93	2.45
445.288	2.6
445.647	2.54
446.005	2.32
446.363	2.51
446.721	2.41
447.079	2.47
447.437	2.44
447.795	2.41
448.153	2.47
448.51	2.41
448.868	2.5
449.226	2.5
449.584	2.5
449.941	2.56
450.299	2.43
450.656	2.68
451.014	2.36
451.371	2.52
451.729	2.55
452.086	2.5
452.443	2.44
452.801	2.68
453.158	2.52
453.515	2.42
453.872	2.52
454.229	2.5
454.586	2.52
454.943	2.5
455.3	2.63
455.657	2.56
456.014	2.72
456.371	2.73
456.727	2.54
457.084	2.64
457.441	2.57
457.797	2.62
458.154	2.62
458.51	2.57
458.867	2.54
459.223	2.58
459.58	2.58
459.936	2.55
460.292	2.48
460.648	2.45
461.005	2.45
461.361	2.49
461.717	2.52
462.073	2.6
462.429	2.57
462.785	2.6
463.141	2.73
463.496	2.59
463.852	2.7
464.208	2.74
464.564	2.66
464.919	2.69
465.275	2.57
465.631	2.53
465.986	2.51
466.342	2.73
466.697	2.57
467.052	2.79
467.408	2.64
467.763	2.52
468.118	2.64
468.473	2.7
468.829	2.57
469.184	2.66
469.539	2.5
469.894	2.7
470.249	2.6
470.603	2.75
470.958	2.75
471.313	2.68
471.668	2.88
472.023	2.87
472.377	2.56
472.732	2.67
473.086	2.57
473.441	2.69
473.795	2.84
474.15	2.48
474.504	2.64
474.859	2.61
475.213	2.56
475.567	2.62
475.921	2.85
476.275	2.89
476.63	2.67
476.984	2.63
477.338	3.02
477.692	2.82
478.045	2.61
478.399	2.79
478.753	2.61
479.107	2.59
479.461	2.77
479.814	2.61
480.168	2.82
480.521	2.63
480.875	2.84
481.228	2.73
481.582	2.67
481.935	2.66
482.289	2.64
482.642	2.73
482.995	2.71
483.348	2.66
483.701	2.68
484.055	2.65
484.408	2.66
484.761	2.49
485.114	2.48
485.466	2.47
485.819	2.51
486.172	2.57
486.525	2.63
486.878	2.65
487.23	2.69
487.583	2.62
487.936	2.69
488.288	2.63
488.641	2.61
488.993	2.56
489.345	2.55
489.698	2.6
490.05	2.64
490.402	2.71
490.754	2.77
491.107	2.66
491.459	2.77
491.811	2.77
492.163	2.78
492.515	2.69
492.866	2.58
493.218	2.6
493.57	2.7
493.922	2.71
494.274	2.82
494.625	2.83
494.977	2.78
495.328	2.83
495.68	2.9
496.031	2.85
496.383	2.82
496.734	2.89
497.086	2.74
497.437	2.86
497.788	2.76
498.139	2.8
498.49	2.83
498.842	2.75
499.193	2.84
499.544	2.99
499.894	2.91
500.245	2.83
500.596	2.93
500.947	2.89
501.298	2.86
501.648	2.95
501.999	3.12
502.35	3.07
502.7	2.93
503.051	3.12
503.401	3
503.752	2.82
504.102	2.94
504.452	2.87
504.803	2.83
505.153	2.96
505.503	2.86
505.853	2.94
506.203	2.91
506.553	2.98
506.903	2.94
507.253	3.06
507.603	2.89
507.953	2.99
508.303	3.04
508.652	2.95
509.002	2.95
509.352	3.04
509.701	2.96
510.051	2.98
510.4	2.97
510.75	2.98
511.099	3
511.449	2.98
511.798	3.17
512.147	2.94
512.496	3.05
512.846	2.92
513.195	3.13
513.544	2.98
513.893	2.97
514.242	3.12
514.591	3.06
514.939	2.97
515.288	3.09
515.637	3.11
515.986	3.1
516.334	3.07
516.683	3.02
517.032	3.09
517.38	3.16
517.729	3.09
518.077	3.13
518.426	3.14
518.774	3.04
519.122	3.05
519.47	3.08
519.819	3.09
520.167	3.11
520.515	3.08
520.863	3.04
521.211	3.05
521.559	3.14
521.907	3.14
522.255	3.13
522.602	3.19
522.95	3.21
523.298	3.13
523.645	3.14
523.993	3.28
524.341	3.19
524.688	3.15
525.036	3.3
525.383	3.31
525.73	3.21
526.078	3.26
526.425	3.17
526.772	3.04
527.119	3.12
527.466	3.13
527.814	3.09
528.161	3.13
528.508	3.2
528.854	3.15
529.201	3.16
529.548	3.09
529.895	3.03
530.242	3.06
530.588	3.09
530.935	3.15
531.282	3.15
531.628	3.18
531.975	3.27
532.321	3.26
532.667	3.3
533.014	3.29
533.36	3.27
533.706	3.27
534.052	3.23
534.399	3.22
534.745	3.18
535.091	3.24
535.437	3.26
535.783	3.34
536.129	3.3
536.474	3.39
536.82	3.28
537.166	3.38
537.512	3.45
537.857	3.37
538.203	3.34
538.549	3.38
538.894	3.39
539.239	3.5
539.585	3.45
539.93	3.47
540.276	3.5
540.621	3.6
540.966	3.48
541.311	3.46
541.656	3.49
542.001	3.55
542.346	3.42
542.691	3.3
543.036	3.31
543.381	3.39
543.726	3.47
544.071	3.53
544.415	3.5
544.76	3.46
545.105	3.47
545.449	3.51
545.794	3.61
546.138	3.66
546.483	3.67
546.827	3.72
547.171	3.67
547.516	3.76
547.86	3.66
548.204	3.63
548.548	3.78
548.892	3.66
549.236	3.72
549.58	3.75
549.924	3.8
550.268	3.81
550.612	3.79
550.956	3.75
551.3	3.82
551.643	3.97
551.987	3.84
552.33	3.76
552.674	3.97
553.017	3.97
553.361	3.95
553.704	3.88
554.048	3.95
554.391	3.85
554.734	3.95
555.077	3.96
555.42	3.99
555.764	4.02
556.107	4.03
556.45	3.84
556.793	4.28
557.135	3.99
557.478	4.25
557.821	4.04
558.164	4.2
558.507	4.07
558.849	4.14
559.192	4.11
559.534	4.09
559.877	4.15
560.219	4.31
560.562	4.28
560.904	4.06
561.246	4.39
561.589	4.21
561.931	4.39
562.273	4.13
562.615	4.34
562.957	4.34
563.299	4.32
563.641	4.31
563.983	4.23
564.325	4.2
564.667	4.28
565.008	4.25
565.35	4.6
565.692	4.45
566.033	4.38
566.375	4.22
566.716	4.26
567.058	4.34
567.399	4.38
567.741	4.43
568.082	4.43
568.423	4.39
568.764	4.45
569.105	4.47
569.447	4.4
569.788	4.44
570.129	4.54
570.47	4.62
570.811	4.57
571.151	4.53
571.492	4.76
571.833	4.58
572.174	4.56
572.514	4.53
572.855	4.64
573.195	4.46
573.536	4.45
573.876	4.58
574.217	4.6
574.557	4.76
574.898	4.66
575.238	4.67
575.578	4.88
575.918	4.75
576.258	4.61
576.598	4.71
576.938	4.88
577.278	4.78
577.618	4.8
577.958	4.8
578.298	4.88
578.638	4.83
578.977	5.02
579.317	5.09
579.657	4.86
579.996	4.99
580.336	4.94
580.675	5.02
581.014	4.94
581.354	5.12
581.693	5.01
582.032	4.81
582.372	5.08
582.711	5.04
583.05	5.19
583.389	5.25
583.728	5.29
584.067	5.23
584.406	5.35
584.745	5.32
585.083	5.63
585.422	5.34
585.761	5.37
586.1	5.31
586.438	5.45
586.777	5.35
587.115	5.53
587.454	5.33
587.792	5.31
588.13	5.63
588.469	5.55
588.807	5.65
589.145	5.52
589.483	5.38
589.821	5.62
590.159	5.41
590.497	5.26
590.835	5.44
591.173	5.53
591.511	5.57
591.849	5.66
592.187	5.83
592.524	5.6
592.862	5.53
593.2	5.62
593.537	5.52
593.875	5.57
594.212	5.56
594.55	5.64
594.887	5.8
595.224	5.56
595.561	5.83
595.899	5.7
596.236	5.93
596.573	5.78
596.91	5.63
597.247	5.74
597.584	5.82
597.921	5.73
598.258	5.83
598.594	5.56
598.931	5.85
599.268	5.81
599.604	5.81
599.941	5.81
600.277	5.85
600.614	5.87
600.95	6.21
601.287	6.24
601.623	6.16
601.959	5.99
602.296	6.03
602.632	6.4
602.968	6.13
603.304	6.11
603.64	6.11
603.976	6.17
604.312	6.32
604.648	6.41
604.984	6.18
605.319	6.11
605.655	6.15
605.991	6.31
606.326	6.12
606.662	6.1
606.998	6.11
607.333	6.28
607.668	6.32
608.004	6.3
608.339	6.32
608.674	6.29
609.01	6.56
609.345	6.52
609.68	6.4
610.015	6.62
610.35	6.44
610.685	6.47
611.02	6.52
611.355	6.62
611.689	6.36
612.024	6.88
612.359	6.58
612.694	6.86
613.028	6.88
613.363	6.62
613.697	6.59
614.032	6.67
614.366	6.8
614.7	6.86
615.035	6.68
615.369	6.79
615.703	7.27
616.037	6.75
616.371	6.95
616.705	6.87
617.039	7.33
617.373	6.81
617.707	6.91
618.041	7.4
618.375	7.12
618.709	6.94
619.042	7.26
619.376	7.25
619.71	7.08
620.043	7.18
620.377	7.05
620.71	7.14
621.043	7.05
621.377	7.14
621.71	7.45
622.043	7.32
622.376	7.06
622.709	7.69
623.043	7.34
623.376	7.64
623.709	7.64
624.041	7.26
624.374	7.43
624.707	7.35
625.04	7.71
625.373	7.37
625.705	7.24
626.038	7.39
626.37	7.37
626.703	7.37
627.035	7.32
627.368	7.74
627.7	7.5
628.032	7.61
628.365	7.28
628.697	7.6
629.029	7.99
629.361	7.4
629.693	7.73
630.025	7.67
630.357	7.56
630.689	8.08
631.021	7.85
631.353	8.11
631.684	8.06
632.016	7.7
632.348	7.76
632.679	7.74
633.011	8
633.342	7.88
633.674	7.61
634.005	8.16
634.336	7.81
634.668	7.97
634.999	7.99
635.33	7.99
635.661	8.41
635.992	8.1
636.323	7.98
636.654	8.13
636.985	8.29
637.316	8.12
637.647	8.06
637.977	7.93
638.308	7.82
638.639	7.82
638.969	8.18
639.3	8.42
639.63	8.36
639.961	8.51
640.291	8.81
640.622	8.14
640.952	8.52
641.282	8.09
641.612	8.38
641.943	8.6
642.273	8.73
642.603	8.6
642.933	8.61
643.263	8.86
643.592	8.35
643.922	9.03
644.252	8.85
644.582	8.66
644.911	8.34
645.241	8.52
645.571	8.44
645.9	8.72
646.23	8.63
646.559	8.42
646.888	8.39
647.218	8.8
647.547	8.88
647.876	8.81
648.205	8.84
648.534	8.74
648.863	8.86
649.192	8.88
649.521	8.39
649.85	8.74
650.179	8.36
650.508	9.37
650.837	9.1
651.165	8.98
651.494	9.07
651.822	8.96
652.151	9.05
652.479	9.51
652.808	8.92
653.136	9.39
653.465	9.14
653.793	9.86
654.121	9.52
654.449	9.1
654.777	9.18
655.105	9.81
655.433	9.52
655.761	9
656.089	9.83
656.417	9.55
656.745	9.53
657.073	9.56
657.4	9.46
657.728	9.71
658.056	9.79
658.383	9.73
658.711	9.37
659.038	10.08
659.365	9.73
659.693	10
660.02	9.2
660.347	9.52
660.674	9.32
661.001	9.14
661.329	9.8
661.656	9.14
661.982	9.52
662.309	9.64
662.636	9.41
662.963	10.19
663.29	9.62
663.616	10.17
663.943	10.08
664.27	9.82
664.596	9.64
664.923	10.44
665.249	10
665.576	10.09
665.902	10.19
666.228	10.27
666.554	9.83
666.881	10.52
667.207	9.95
667.533	10.34
667.859	10.47
668.185	10.05
668.511	9.81
668.837	9.68
669.162	10.26
669.488	10.51
669.814	11.03
670.139	10.29
670.465	10.84
670.791	10.51
671.116	10.45
671.442	10.69
671.767	10.38
672.092	10.5
672.418	10.97
672.743	10.28
673.068	9.92
673.393	10.38
673.718	10.58
674.043	11.2
674.368	10.71
674.693	10.55
675.018	11.13
675.343	10.9
675.667	11.02
675.992	10.2
676.317	11.09
676.641	10.95
676.966	10.7
677.29	10.74
677.615	11.03
677.939	10.25
678.264	10.49
678.588	11.32
678.912	11.35
679.236	10.91
679.56	10.66
679.885	11.37
680.209	10.52
680.532	10.69
680.856	11.4
681.18	11.05
681.504	10.37
681.828	10.45
682.152	10.9
682.475	11.28
682.799	11.47
683.122	11.07
683.446	10.63
683.769	11.12
684.093	11.08
684.416	10.19
684.739	10.71
685.062	11.18
685.386	11.55
685.709	11.24
686.032	11.68
686.355	11.26
686.678	11.16
687.001	11.11
687.324	10.89
687.646	11.22
687.969	11.12
688.292	11.26
688.614	11.93
688.937	10.97
689.26	11.03
689.582	11.35
689.904	11.83
690.227	10.96
690.549	11.41
690.871	11.94
