Data from 0053_crown_Reflection__1__53.txt Node

Date: Fri Dec 16 14:19:14 CST 2022
User: ToomeyLab
Spectrometer: FLMS14357
Trigger mode: 0
Integration Time (sec): 1.000000E-2
Scans to average: 100
Electric dark correction enabled: true
Nonlinearity correction enabled: false
Boxcar width: 0
XAxis mode: Wavelengths
Number of Pixels in Spectrum: 2048
>>>>>Begin Spectral Data<<<<<
189.047	50.33
189.435	50.33
189.823	50.33
190.211	-11.22
190.599	-122.56
190.987	-86.39
191.375	-101.16
191.763	88.38
192.151	18.43
192.538	63.13
192.926	-141.48
193.314	87.54
193.702	-5832
194.089	1.84
194.477	760
194.864	-123.01
195.252	140.23
195.639	180.59
196.027	-105.11
196.414	1.16
196.801	156.57
197.189	100.11
197.576	-123.46
197.963	167.63
198.351	-24.24
198.738	-22.29
199.125	55.79
199.512	-16.04
199.899	-43.3
200.286	7.68
200.673	37.5
201.06	28.5
201.447	20.92
201.833	7.52
202.22	32.1
202.607	43.51
202.994	9.14
203.38	-27.23
203.767	12.35
204.154	-36.68
204.54	9.05
204.927	25.19
205.313	17.28
205.699	-29.56
206.086	-14.27
206.472	29.76
206.858	48.89
207.245	14.7
207.631	-25.65
208.017	16.53
208.403	29
208.789	23.62
209.175	17.98
209.561	18.27
209.947	-20.43
210.333	-39.43
210.719	23
211.105	-21.32
211.491	2.69
211.876	-30.39
212.262	-2.29
212.648	-28.5
213.034	-19.41
213.419	11.96
213.805	11.25
214.19	-8.41
214.576	-5.04
214.961	-17.38
215.346	-28.96
215.732	20.74
216.117	-27.01
216.502	-5.04
216.888	-4.75
217.273	7.61
217.658	-3.65
218.043	13.42
218.428	-0.25
218.813	-1.73
219.198	-34.82
219.583	20.48
219.968	2.66
220.353	10.41
220.738	9.07
221.122	-4
221.507	-0.97
221.892	2.25
222.276	0.78
222.661	-7.24
223.046	-3.75
223.43	-2.13
223.815	9.88
224.199	2.04
224.583	-4.5
224.968	10.57
225.352	2.38
225.736	0.69
226.121	-5.69
226.505	1.81
226.889	10.14
227.273	9.59
227.657	4.28
228.041	6.12
228.425	5.95
228.809	6.22
229.193	3.04
229.577	5.33
229.961	6.03
230.344	5.04
230.728	5.08
231.112	5.21
231.495	3.76
231.879	4.88
232.263	5.4
232.646	3.98
233.03	4.06
233.413	3.15
233.797	7.27
234.18	3.95
234.563	2.71
234.946	4.57
235.33	5.08
235.713	5.54
236.096	4.69
236.479	3.7
236.862	4.97
237.245	4.98
237.628	5.81
238.011	3.67
238.394	5.98
238.777	3.89
239.16	2.87
239.543	4.24
239.925	6.96
240.308	5.15
240.691	3.13
241.073	4.16
241.456	4.8
241.838	3.81
242.221	4.37
242.603	5.02
242.986	5.28
243.368	4.6
243.75	4.52
244.133	4.43
244.515	4.6
244.897	4.47
245.279	4.89
245.661	4.43
246.043	5.34
246.425	5.2
246.807	5.23
247.189	4.43
247.571	4.79
247.953	4.63
248.335	4.73
248.717	4.85
249.098	4.71
249.48	4.43
249.862	4.97
250.243	4.82
250.625	4.62
251.006	4.45
251.388	5.23
251.769	4.27
252.151	4.33
252.532	4.36
252.913	4.59
253.295	4.14
253.676	4.44
254.057	4.7
254.438	4.46
254.819	3.86
255.2	4.81
255.581	4.58
255.962	4.12
256.343	5.52
256.724	4.25
257.105	4.36
257.486	4.45
257.867	4.03
258.247	4.28
258.628	4.86
259.009	4.61
259.389	5.27
259.77	4.53
260.15	4.48
260.531	4.5
260.911	4.39
261.292	4.19
261.672	4.38
262.052	4.48
262.432	4.38
262.813	4.56
263.193	4.16
263.573	4.55
263.953	4.11
264.333	4.16
264.713	4.14
265.093	3.97
265.473	4.69
265.853	4.5
266.233	3.63
266.612	4.78
266.992	4.12
267.372	4.47
267.752	4.29
268.131	4.33
268.511	4.06
268.89	4.13
269.27	4.32
269.649	4.52
270.029	4.03
270.408	4.07
270.787	3.94
271.167	4.23
271.546	3.88
271.925	4.3
272.304	4.32
272.683	4.05
273.062	4.41
273.441	4.4
273.82	4.71
274.199	4.31
274.578	4.19
274.957	4.16
275.336	3.84
275.715	4.63
276.093	4.08
276.472	4.82
276.851	4.01
277.229	4.13
277.608	3.96
277.986	4.19
278.365	4.22
278.743	4.35
279.122	4.14
279.5	3.97
279.878	3.15
280.257	4.54
280.635	3.94
281.013	4.53
281.391	4.38
281.769	3.85
282.147	4.19
282.525	4.55
282.903	4.2
283.281	4.07
283.659	4.06
284.037	3.84
284.415	4.02
284.792	4.35
285.17	3.6
285.548	3.84
285.925	3.95
286.303	3.91
286.68	3.99
287.058	3.9
287.435	3.95
287.813	3.89
288.19	4.29
288.567	3.74
288.945	4.05
289.322	3.87
289.699	3.82
290.076	4.31
290.453	3.65
290.83	4.13
291.207	3.88
291.584	3.76
291.961	3.68
292.338	3.94
292.715	4.26
293.092	3.78
293.469	4.05
293.845	4.15
294.222	3.89
294.599	4.2
294.975	4.18
295.352	3.62
295.728	4.04
296.105	3.66
296.481	4.01
296.858	3.78
297.234	3.88
297.61	4
297.986	3.87
298.363	3.51
298.739	4.04
299.115	3.68
299.491	3.6
299.867	4.04
300.243	3.51
300.619	3.46
300.995	3.66
301.371	3.94
301.746	3.49
302.122	3.74
302.498	3.82
302.874	4.04
303.249	3.94
303.625	3.62
304	3.65
304.376	3.67
304.751	3.74
305.127	3.75
305.502	3.68
305.878	3.38
306.253	3.35
306.628	4.16
307.003	3.95
307.378	3.78
307.754	4.22
308.129	3.45
308.504	3.65
308.879	3.83
309.254	4.13
309.629	3.87
310.003	4.03
310.378	3.95
310.753	3.95
311.128	3.43
311.502	3.29
311.877	3.44
312.252	3.58
312.626	3.36
313.001	3.66
313.375	3.64
313.75	3.16
314.124	3.81
314.498	3.47
314.873	3.63
315.247	3.43
315.621	3.71
315.995	3.35
316.369	3.97
316.743	3.61
317.117	3.84
317.491	3.52
317.865	3.24
318.239	4.16
318.613	3.77
318.987	3.78
319.361	3.46
319.734	3.83
320.108	3.59
320.482	3.26
320.855	3.66
321.229	3.54
321.602	3.3
321.976	3.76
322.349	2.77
322.723	3.43
323.096	3.14
323.469	3.29
323.843	3.74
324.216	2.85
324.589	3.51
324.962	3.6
325.335	3.33
325.708	4.07
326.081	3.95
326.454	4.13
326.827	3.49
327.2	4.14
327.573	3.92
327.945	3.52
328.318	3.37
328.691	3.62
329.063	3.75
329.436	3.59
329.809	3.16
330.181	3.59
330.553	3.82
330.926	4.03
331.298	3.04
331.671	3.75
332.043	3.84
332.415	3.55
332.787	4.02
333.159	3.27
333.532	3.55
333.904	3.82
334.276	3.58
334.648	3.34
335.02	3.59
335.391	4.04
335.763	3.68
336.135	3.03
336.507	3.67
336.879	3.48
337.25	3.6
337.622	3.59
337.993	3.55
338.365	3.86
338.736	3.72
339.108	3.19
339.479	3.67
339.851	4.19
340.222	3.82
340.593	3.51
340.964	3.65
341.336	2.91
341.707	3.53
342.078	3.27
342.449	4.15
342.82	3.64
343.191	3.09
343.562	3.54
343.933	3.35
344.303	3.73
344.674	3.89
345.045	3.82
345.416	3.61
345.786	3.2
346.157	3.77
346.527	3.35
346.898	3.29
347.268	3.57
347.639	3.75
348.009	3.56
348.38	3.79
348.75	3.37
349.12	3.42
349.49	3.46
349.861	4.2
350.231	3.8
350.601	3.47
350.971	3.53
351.341	3.21
351.711	3.71
352.081	3.48
352.45	3.45
352.82	3.69
353.19	3.56
353.56	3.31
353.929	3.88
354.299	3.47
354.669	3.54
355.038	3.33
355.408	3.61
355.777	3.62
356.147	3.7
356.516	3.94
356.885	3.89
357.254	3.49
357.624	3.79
357.993	3.55
358.362	3.91
358.731	3.82
359.1	3.63
359.469	3.54
359.838	3.47
360.207	3.47
360.576	3.51
360.945	3.39
361.314	3.69
361.682	3.51
362.051	3.6
362.42	4.02
362.788	3.92
363.157	3.51
363.525	3.35
363.894	3.33
364.262	3.43
364.631	4.25
364.999	3.45
365.367	3.92
365.735	3.47
366.104	3.6
366.472	3.43
366.84	3.7
367.208	3.41
367.576	3.63
367.944	3.84
368.312	3.51
368.68	3.71
369.048	3.82
369.416	3.93
369.783	3.96
370.151	3.83
370.519	3.3
370.886	3.42
371.254	3.58
371.621	3.77
371.989	3.79
372.356	3.55
372.724	3.65
373.091	3.62
373.458	3.65
373.826	3.56
374.193	4.13
374.56	3.31
374.927	3.65
375.294	3.89
375.661	3.86
376.028	3.93
376.395	3.59
376.762	3.63
377.129	3.97
377.496	3.77
377.863	4.11
378.229	3.73
378.596	3.77
378.963	3.68
379.329	3.9
379.696	3.66
380.062	3.91
380.429	3.98
380.795	3.67
381.161	3.71
381.528	3.5
381.894	4.04
382.26	3.67
382.626	3.39
382.993	3.56
383.359	3.68
383.725	4.22
384.091	3.56
384.457	3.95
384.823	3.62
385.188	3.95
385.554	3.87
385.92	3.98
386.286	4.1
386.651	3.76
387.017	4.02
387.383	4.05
387.748	3.93
388.114	3.94
388.479	3.85
388.845	3.87
389.21	3.82
389.575	3.74
389.94	3.77
390.306	3.94
390.671	3.84
391.036	4.04
391.401	4.07
391.766	3.87
392.131	3.84
392.496	3.91
392.861	3.62
393.226	4.06
393.591	3.9
393.956	3.95
394.32	3.77
394.685	3.98
395.05	3.74
395.414	3.98
395.779	3.79
396.143	3.89
396.508	4.02
396.872	4.15
397.236	3.66
397.601	4.03
397.965	3.61
398.329	3.93
398.694	3.72
399.058	3.96
399.422	3.8
399.786	3.94
400.15	3.92
400.514	4.32
400.878	3.71
401.242	4.06
401.605	3.95
401.969	4.06
402.333	3.7
402.697	4.14
403.06	4
403.424	3.89
403.787	4.13
404.151	4
404.514	4.01
404.878	4.02
405.241	4.01
405.604	3.87
405.968	3.93
406.331	4.08
406.694	3.97
407.057	4.25
407.42	4.1
407.783	3.93
408.146	4.06
408.509	3.92
408.872	3.86
409.235	3.95
409.598	4.17
409.961	3.94
410.323	4.04
410.686	4.1
411.049	3.92
411.411	4.12
411.774	3.95
412.136	4.12
412.499	4.02
412.861	3.69
413.223	4.42
413.586	4.07
413.948	4.08
414.31	4.22
414.672	3.87
415.035	4.2
415.397	4.04
415.759	3.98
416.121	4.18
416.483	4.38
416.845	4.03
417.206	4.19
417.568	4.2
417.93	4.1
418.292	3.97
418.653	4.1
419.015	4.12
419.377	4.09
419.738	3.96
420.1	4.12
420.461	4.05
420.822	3.96
421.184	4.12
421.545	3.94
421.906	4.09
422.267	3.99
422.629	3.95
422.99	4.04
423.351	4.06
423.712	4.12
424.073	4.12
424.434	4.03
424.795	3.97
425.155	3.98
425.516	4.07
425.877	4.04
426.238	3.97
426.598	4.09
426.959	4.1
427.32	4.18
427.68	4.19
428.041	4.18
428.401	4.07
428.761	3.99
429.122	4.14
429.482	4.08
429.842	4.2
430.202	3.86
430.563	4.12
430.923	4.06
431.283	4.15
431.643	4.05
432.003	4.19
432.363	4.25
432.722	4.13
433.082	4
433.442	4.26
433.802	4.21
434.161	4.14
434.521	4.12
434.881	4.32
435.24	4.24
435.6	4.16
435.959	4.15
436.319	4.18
436.678	4.16
437.037	4.28
437.396	4.32
437.756	4.29
438.115	4.17
438.474	4.17
438.833	4.3
439.192	4.39
439.551	4.27
439.91	4.36
440.269	4.37
440.628	4.2
440.987	4.1
441.345	4.2
441.704	4.22
442.063	4.13
442.421	4.08
442.78	4.18
443.138	4.13
443.497	4.09
443.855	4.14
444.214	4.25
444.572	4.25
444.93	4.29
445.288	4.31
445.647	4.34
446.005	4.09
446.363	4.2
446.721	4.13
447.079	4.19
447.437	4.13
447.795	4.24
448.153	4.09
448.51	4.1
448.868	4.3
449.226	4.17
449.584	4.21
449.941	4.28
450.299	4.28
450.656	4.28
451.014	4.23
451.371	4.31
451.729	4.2
452.086	4.23
452.443	4.26
452.801	4.45
453.158	4.11
453.515	4.21
453.872	4.43
454.229	4.08
454.586	4.36
454.943	4.28
455.3	4.54
455.657	4.16
456.014	4.27
456.371	4.27
456.727	4.31
457.084	4.27
457.441	4.18
457.797	4.28
458.154	4.26
458.51	4.28
458.867	4.1
459.223	4.32
459.58	4.23
459.936	4.09
460.292	4.31
460.648	4.12
461.005	4.16
461.361	4.14
461.717	4.15
462.073	4.25
462.429	4.21
462.785	4.38
463.141	4.46
463.496	4.3
463.852	4.36
464.208	4.06
464.564	4.18
464.919	4.26
465.275	4.27
465.631	4.19
465.986	4.11
466.342	4.4
466.697	4.41
467.052	4.3
467.408	4.31
467.763	4.16
468.118	4.37
468.473	4.44
468.829	4.36
469.184	4.44
469.539	4.31
469.894	4.26
470.249	4.36
470.603	4.21
470.958	4.42
471.313	4.3
471.668	4.54
472.023	4.39
472.377	4.34
472.732	4.34
473.086	4.15
473.441	4.34
473.795	4.4
474.15	4.3
474.504	4.32
474.859	4.23
475.213	4.21
475.567	4.2
475.921	4.47
476.275	4.43
476.63	4.46
476.984	4.21
477.338	4.54
477.692	4.41
478.045	4.36
478.399	4.32
478.753	4.21
479.107	4.27
479.461	4.44
479.814	4.43
480.168	4.36
480.521	4.29
480.875	4.53
481.228	4.44
481.582	4.28
481.935	4.27
482.289	4.27
482.642	4.32
482.995	4.33
483.348	4.2
483.701	4.25
484.055	4.26
484.408	4.16
484.761	4.05
485.114	3.98
485.466	4.04
485.819	4.1
486.172	4.19
486.525	4.23
486.878	4.21
487.23	4.2
487.583	4.21
487.936	4.28
488.288	4.2
488.641	4.09
488.993	4.09
489.345	4.14
489.698	4.18
490.05	4.2
490.402	4.29
490.754	4.41
491.107	4.29
491.459	4.35
491.811	4.42
492.163	4.3
492.515	4.26
492.866	4.11
493.218	4.11
493.57	4.22
493.922	4.32
494.274	4.35
494.625	4.26
494.977	4.39
495.328	4.46
495.68	4.49
496.031	4.42
496.383	4.36
496.734	4.54
497.086	4.34
497.437	4.46
497.788	4.43
498.139	4.39
498.49	4.47
498.842	4.36
499.193	4.34
499.544	4.42
499.894	4.37
500.245	4.52
500.596	4.53
500.947	4.4
501.298	4.33
501.648	4.44
501.999	4.56
502.35	4.57
502.7	4.43
503.051	4.6
503.401	4.55
503.752	4.44
504.102	4.43
504.452	4.46
504.803	4.28
505.153	4.42
505.503	4.39
505.853	4.43
506.203	4.5
506.553	4.47
506.903	4.44
507.253	4.4
507.603	4.4
507.953	4.53
508.303	4.52
508.652	4.4
509.002	4.49
509.352	4.5
509.701	4.47
510.051	4.55
510.4	4.45
510.75	4.45
511.099	4.55
511.449	4.39
511.798	4.49
512.147	4.42
512.496	4.53
512.846	4.47
513.195	4.47
513.544	4.43
513.893	4.29
514.242	4.6
514.591	4.5
514.939	4.47
515.288	4.5
515.637	4.57
515.986	4.45
516.334	4.54
516.683	4.43
517.032	4.47
517.38	4.52
517.729	4.47
518.077	4.47
518.426	4.31
518.774	4.43
519.122	4.44
519.47	4.37
519.819	4.41
520.167	4.37
520.515	4.36
520.863	4.41
521.211	4.49
521.559	4.5
521.907	4.46
522.255	4.48
522.602	4.45
522.95	4.57
523.298	4.42
523.645	4.5
523.993	4.65
524.341	4.46
524.688	4.66
525.036	4.71
525.383	4.49
525.73	4.58
526.078	4.5
526.425	4.45
526.772	4.36
527.119	4.35
527.466	4.47
527.814	4.37
528.161	4.55
528.508	4.46
528.854	4.39
529.201	4.35
529.548	4.29
529.895	4.26
530.242	4.26
530.588	4.36
530.935	4.33
531.282	4.43
531.628	4.45
531.975	4.47
532.321	4.49
532.667	4.44
533.014	4.5
533.36	4.39
533.706	4.46
534.052	4.38
534.399	4.39
534.745	4.37
535.091	4.4
535.437	4.42
535.783	4.54
536.129	4.51
536.474	4.52
536.82	4.51
537.166	4.55
537.512	4.48
537.857	4.43
538.203	4.46
538.549	4.55
538.894	4.48
539.239	4.63
539.585	4.65
539.93	4.68
540.276	4.56
540.621	4.6
540.966	4.48
541.311	4.58
541.656	4.51
542.001	4.62
542.346	4.41
542.691	4.37
543.036	4.37
543.381	4.43
543.726	4.57
544.071	4.54
544.415	4.5
544.76	4.42
545.105	4.57
545.449	4.45
545.794	4.48
546.138	4.66
546.483	4.54
546.827	4.57
547.171	4.56
547.516	4.61
547.86	4.52
548.204	4.48
548.548	4.6
548.892	4.57
549.236	4.53
549.58	4.68
549.924	4.57
550.268	4.73
550.612	4.77
550.956	4.46
551.3	4.62
551.643	4.64
551.987	4.67
552.33	4.75
552.674	4.79
553.017	4.75
553.361	4.67
553.704	4.51
554.048	4.63
554.391	4.63
554.734	4.67
555.077	4.78
555.42	4.68
555.764	4.78
556.107	4.78
556.45	4.57
556.793	4.67
557.135	4.65
557.478	4.69
557.821	4.53
558.164	4.72
558.507	4.68
558.849	4.65
559.192	4.77
559.534	4.46
559.877	4.88
560.219	4.75
560.562	4.73
560.904	4.67
561.246	4.73
561.589	4.72
561.931	4.87
562.273	4.55
562.615	4.77
562.957	4.77
563.299	4.76
563.641	4.78
563.983	4.68
564.325	4.61
564.667	4.81
565.008	4.57
565.35	4.88
565.692	4.88
566.033	4.7
566.375	4.5
566.716	4.87
567.058	4.72
567.399	4.62
567.741	4.82
568.082	4.62
568.423	4.7
568.764	4.79
569.105	4.73
569.447	4.65
569.788	4.85
570.129	4.65
570.47	4.64
570.811	4.7
571.151	4.84
571.492	4.85
571.833	4.71
572.174	4.73
572.514	4.63
572.855	4.62
573.195	4.6
573.536	4.68
573.876	4.62
574.217	4.68
574.557	4.69
574.898	4.54
575.238	4.64
575.578	4.85
575.918	4.54
576.258	4.69
576.598	4.58
576.938	4.92
577.278	4.72
577.618	4.81
577.958	4.68
578.298	4.7
578.638	4.58
578.977	4.87
579.317	4.95
579.657	4.69
579.996	4.68
580.336	4.55
580.675	4.6
581.014	4.78
581.354	4.61
581.693	4.82
582.032	4.66
582.372	4.65
582.711	4.5
583.05	4.83
583.389	5
583.728	4.86
584.067	4.73
584.406	4.88
584.745	4.79
585.083	5.03
585.422	4.71
585.761	4.9
586.1	5.05
586.438	4.95
586.777	4.77
587.115	4.88
587.454	4.71
587.792	4.66
588.13	4.91
588.469	4.66
588.807	4.85
589.145	4.67
589.483	4.74
589.821	4.66
590.159	4.77
590.497	4.52
590.835	4.73
591.173	4.82
591.511	4.75
591.849	4.81
592.187	4.89
592.524	4.87
592.862	4.74
593.2	4.71
593.537	4.85
593.875	4.67
594.212	4.8
594.55	4.63
594.887	4.9
595.224	4.78
595.561	4.75
595.899	4.79
596.236	4.88
596.573	4.73
596.91	4.87
597.247	4.76
597.584	4.85
597.921	4.91
598.258	4.86
598.594	4.58
598.931	4.76
599.268	4.86
599.604	4.99
599.941	4.69
600.277	4.66
600.614	4.83
600.95	4.89
601.287	4.69
601.623	4.95
601.959	4.86
602.296	4.85
602.632	5
602.968	4.62
603.304	4.8
603.64	4.88
603.976	4.78
604.312	4.74
604.648	4.93
604.984	4.74
605.319	4.78
605.655	4.85
605.991	4.75
606.326	4.73
606.662	4.86
606.998	4.84
607.333	4.69
607.668	5.05
608.004	4.66
608.339	4.94
608.674	4.59
609.01	5.14
609.345	4.85
609.68	4.59
610.015	4.89
610.35	4.76
610.685	4.99
611.02	4.85
611.355	4.79
611.689	4.79
612.024	4.91
612.359	4.97
612.694	5.02
613.028	5.22
613.363	4.88
613.697	4.96
614.032	4.68
614.366	4.81
614.7	4.92
615.035	4.55
615.369	4.96
615.703	5.05
616.037	4.77
616.371	4.86
616.705	4.82
617.039	4.91
617.373	4.78
617.707	4.89
618.041	4.97
618.375	4.69
618.709	5.28
619.042	4.71
619.376	4.64
619.71	4.82
620.043	4.89
620.377	4.79
620.71	5.18
621.043	4.3
621.377	4.89
621.71	4.9
622.043	4.75
622.376	4.7
622.709	5.25
623.043	4.63
623.376	4.8
623.709	4.87
624.041	4.91
624.374	4.81
624.707	4.7
625.04	5.06
625.373	4.75
625.705	4.49
626.038	4.9
626.37	5.06
626.703	4.92
627.035	4.99
627.368	4.91
627.7	4.86
628.032	4.9
628.365	4.8
628.697	4.74
629.029	5.08
629.361	4.61
629.693	5.28
630.025	4.69
630.357	5.05
630.689	5.3
631.021	4.93
631.353	4.86
631.684	4.96
632.016	4.59
632.348	4.76
632.679	4.69
633.011	4.8
633.342	4.94
633.674	4.71
634.005	4.72
634.336	4.88
634.668	4.89
634.999	5.13
635.33	4.77
635.661	4.92
635.992	4.86
636.323	4.8
636.654	4.97
636.985	4.59
637.316	4.89
637.647	4.81
637.977	4.75
638.308	4.51
638.639	5
638.969	4.84
639.3	5.02
639.63	4.77
639.961	4.91
640.291	5.41
640.622	4.97
640.952	4.96
641.282	4.48
641.612	4.89
641.943	5.17
642.273	5.37
642.603	5.04
642.933	4.98
643.263	5.1
643.592	4.78
643.922	5.49
644.252	5.33
644.582	4.52
644.911	4.37
645.241	5.01
645.571	4.58
645.9	5.32
646.23	4.5
646.559	4.72
646.888	4.8
647.218	4.66
647.547	5.23
647.876	5.2
648.205	4.84
648.534	4.79
648.863	5.4
649.192	4.68
649.521	4.59
649.85	5.42
650.179	4.88
650.508	4.89
650.837	4.97
651.165	4.68
651.494	4.96
651.822	4.99
652.151	5.46
652.479	5.32
652.808	4.5
653.136	4.98
653.465	4.95
653.793	5.36
654.121	5.17
654.449	4.99
654.777	4.94
655.105	4.92
655.433	5
655.761	4.7
656.089	5.26
656.417	4.71
656.745	5.53
657.073	5.44
657.4	4.5
657.728	5.03
658.056	4.92
658.383	5.25
658.711	4.65
659.038	5.72
659.365	5.12
659.693	4.8
660.02	4.7
660.347	5.12
660.674	4.87
661.001	4.49
661.329	5.07
661.656	4.88
661.982	5
662.309	4.89
662.636	4.99
662.963	5.36
663.29	4.78
663.616	4.97
663.943	5.32
664.27	5.04
664.596	4.51
664.923	5.3
665.249	4.93
665.576	5.19
665.902	5.04
666.228	4.89
666.554	4.53
666.881	5.19
667.207	5.45
667.533	4.87
667.859	4.95
668.185	4.98
668.511	5.03
668.837	4.73
669.162	5.4
669.488	4.81
669.814	5.41
670.139	5.79
670.465	5.49
670.791	5.09
671.116	5.1
671.442	5.15
671.767	4.72
672.092	5.28
672.418	5.22
672.743	4.64
673.068	4.98
673.393	5.1
673.718	4.83
674.043	5.27
674.368	5.25
674.693	5.21
675.018	5.27
675.343	4.88
675.667	5.72
675.992	4.53
676.317	5.31
676.641	5.18
676.966	5.4
677.29	4.77
677.615	5.46
677.939	4.67
678.264	5.23
678.588	5.38
678.912	5.46
679.236	5.4
679.56	4.45
679.885	5.43
680.209	4.35
680.532	4.62
680.856	5.56
681.18	5.17
681.504	4.57
681.828	4.83
682.152	4.7
682.475	4.83
682.799	4.9
683.122	5.26
683.446	4.61
683.769	4.98
684.093	5.45
684.416	5.34
684.739	5.11
685.062	5.6
685.386	5.41
685.709	5.12
686.032	5.25
686.355	5.14
686.678	4.91
687.001	4.31
687.324	4.09
687.646	4.48
687.969	5.19
688.292	4.96
688.614	5.28
688.937	4.83
689.26	4.93
689.582	4.58
689.904	5.8
690.227	5.23
690.549	5.24
690.871	5.41
691.194	5.87
691.516	4.95
691.838	4.66
692.16	4.69
692.482	5.61
692.804	4.9
