Data from 0063_forehead_Reflection__3__221.txt Node

Date: Fri Dec 16 15:41:01 CST 2022
User: ToomeyLab
Spectrometer: FLMS14357
Trigger mode: 0
Integration Time (sec): 1.000000E-2
Scans to average: 100
Electric dark correction enabled: true
Nonlinearity correction enabled: false
Boxcar width: 0
XAxis mode: Wavelengths
Number of Pixels in Spectrum: 2048
>>>>>Begin Spectral Data<<<<<
189.047	-128.29
189.435	-128.29
189.823	-128.29
190.211	-26.5
190.599	-20.24
190.987	159.52
191.375	128.74
191.763	-254.83
192.151	-23.52
192.538	102.05
192.926	432.6
193.314	88.91
193.702	223.44
194.089	185.98
194.477	-123.83
194.864	103.04
195.252	-321.78
195.639	94.86
196.027	243.52
196.414	-511.7
196.801	-160.62
197.189	53.39
197.576	117.73
197.963	76.01
198.351	18.69
198.738	-21.72
199.125	37.15
199.512	-1.1
199.899	37.96
200.286	-60.43
200.673	25.72
201.06	33.13
201.447	29.39
201.833	60.9
202.22	1.29
202.607	178.01
202.994	6.22
203.38	9.1
203.767	-25.76
204.154	-42.04
204.54	33.91
204.927	28.75
205.313	28.57
205.699	-4.14
206.086	0.76
206.472	-44.6
206.858	5.08
207.245	15.85
207.631	5.21
208.017	45.99
208.403	35.78
208.789	58.51
209.175	54.43
209.561	2.6
209.947	-28.73
210.333	-22.59
210.719	26.7
211.105	11.18
211.491	-25.73
211.876	0.75
212.262	-60.2
212.648	10.58
213.034	-7.61
213.419	19.65
213.805	13.38
214.19	-9.84
214.576	-10.55
214.961	0.08
215.346	-41.64
215.732	29.68
216.117	13.61
216.502	-3.17
216.888	-55.07
217.273	17.61
217.658	-8.28
218.043	11.24
218.428	33.97
218.813	-18.78
219.198	-21.89
219.583	12.44
219.968	-29.67
220.353	2.03
220.738	-28.03
221.122	7.42
221.507	8.79
221.892	5.71
222.276	17.13
222.661	-5.42
223.046	-3.41
223.43	8.83
223.815	-1.73
224.199	7.26
224.583	2.18
224.968	13.5
225.352	6.86
225.736	11.42
226.121	-5.56
226.505	13.36
226.889	16.17
227.273	1.46
227.657	8.49
228.041	6.86
228.425	4.82
228.809	3.45
229.193	5
229.577	4.1
229.961	5.37
230.344	5.65
230.728	4.68
231.112	4.5
231.495	3.85
231.879	3.73
232.263	2.89
232.646	4.96
233.03	2.49
233.413	5.35
233.797	6.49
234.18	0.84
234.563	3.31
234.946	3.83
235.33	3.15
235.713	4.02
236.096	4.74
236.479	4.43
236.862	5.46
237.245	6.41
237.628	5
238.011	5.28
238.394	5.81
238.777	5.57
239.16	2.79
239.543	3.01
239.925	7.03
240.308	5.77
240.691	4.9
241.073	4.1
241.456	4.78
241.838	4.35
242.221	4.28
242.603	4.45
242.986	5.39
243.368	5.16
243.75	4.89
244.133	5.11
244.515	5.11
244.897	4.78
245.279	4.27
245.661	4.8
246.043	4.96
246.425	4.89
246.807	6.22
247.189	5.06
247.571	5.49
247.953	5.07
248.335	5.47
248.717	5.02
249.098	5.21
249.48	5.16
249.862	5.61
250.243	5.05
250.625	5.44
251.006	5.3
251.388	6.34
251.769	5.39
252.151	5.56
252.532	5.28
252.913	5.5
253.295	5.79
253.676	5.66
254.057	5.36
254.438	5.18
254.819	5.92
255.2	5.85
255.581	5.54
255.962	6.45
256.343	6.15
256.724	6.19
257.105	5.86
257.486	5.16
257.867	4.85
258.247	4.87
258.628	5.02
259.009	5.13
259.389	6.36
259.77	6
260.15	5.87
260.531	5.68
260.911	5.43
261.292	5.18
261.672	5.25
262.052	5.17
262.432	4.87
262.813	5.08
263.193	4.68
263.573	5.63
263.953	4.54
264.333	5.01
264.713	4.81
265.093	5.51
265.473	5.89
265.853	4.97
266.233	4.25
266.612	5.63
266.992	4.43
267.372	5.4
267.752	4.48
268.131	5.4
268.511	4.95
268.89	5.41
269.27	5.69
269.649	5.54
270.029	4.49
270.408	4.99
270.787	4.68
271.167	5.49
271.546	4.57
271.925	4.66
272.304	4.7
272.683	4.83
273.062	5.16
273.441	5.27
273.82	5.22
274.199	5.2
274.578	5.03
274.957	5.1
275.336	4.63
275.715	5.22
276.093	6.5
276.472	5.01
276.851	5.48
277.229	5.29
277.608	5.06
277.986	5.52
278.365	4.13
278.743	5.09
279.122	4.89
279.5	4.56
279.878	4.45
280.257	4.71
280.635	4.57
281.013	5.48
281.391	5.13
281.769	5.32
282.147	5.15
282.525	5.22
282.903	5.18
283.281	4.99
283.659	4.78
284.037	4.64
284.415	5.59
284.792	5.14
285.17	4.71
285.548	5.35
285.925	4.93
286.303	4.51
286.68	5.3
287.058	5.39
287.435	4.97
287.813	5.35
288.19	5.59
288.567	5.22
288.945	5.35
289.322	5.03
289.699	5.58
290.076	5.41
290.453	5.43
290.83	5.66
291.207	5.27
291.584	5.45
291.961	5.7
292.338	5.78
292.715	6.14
293.092	5.69
293.469	6.5
293.845	6.38
294.222	5.86
294.599	6.12
294.975	6.69
295.352	5.9
295.728	6.43
296.105	6.11
296.481	7.11
296.858	6.54
297.234	6.77
297.61	6.71
297.986	6.47
298.363	6.44
298.739	6.68
299.115	6.17
299.491	6.53
299.867	6.69
300.243	6.81
300.619	6.84
300.995	7.28
301.371	6.45
301.746	6.43
302.122	7.04
302.498	7.63
302.874	7.35
303.249	7.12
303.625	7.24
304	6.94
304.376	7.08
304.751	7.05
305.127	7.41
305.502	7.55
305.878	7.35
306.253	7.43
306.628	7.97
307.003	7.95
307.378	6.97
307.754	7.58
308.129	6.99
308.504	7.73
308.879	8.38
309.254	8.24
309.629	8.36
310.003	8.39
310.378	8.17
310.753	8.16
311.128	8.17
311.502	7.79
311.877	8.15
312.252	8.26
312.626	8.11
313.001	8.25
313.375	8.17
313.75	7.79
314.124	8.61
314.498	7.67
314.873	8.59
315.247	8.84
315.621	8.81
315.995	8.71
316.369	8.96
316.743	9.45
317.117	8.87
317.491	8.63
317.865	7.94
318.239	9.59
318.613	8.7
318.987	8.87
319.361	9.12
319.734	8.92
320.108	9.51
320.482	9.42
320.855	9.29
321.229	10.16
321.602	9.15
321.976	9.84
322.349	8.66
322.723	9.14
323.096	9.04
323.469	8.67
323.843	9.6
324.216	9.18
324.589	9.65
324.962	10.01
325.335	9.7
325.708	9.48
326.081	9.93
326.454	9.72
326.827	10.05
327.2	10.08
327.573	10.04
327.945	10.06
328.318	9.75
328.691	10.03
329.063	9.42
329.436	9.4
329.809	10.14
330.181	10.32
330.553	10.19
330.926	10.49
331.298	9.19
331.671	9.68
332.043	10.46
332.415	10.72
332.787	10.99
333.159	10.2
333.532	10.06
333.904	10.24
334.276	9.92
334.648	10.07
335.02	10.33
335.391	10.35
335.763	10.21
336.135	10.73
336.507	10.51
336.879	10.63
337.25	10.74
337.622	10.61
337.993	10.94
338.365	10.96
338.736	10.34
339.108	10.55
339.479	10.73
339.851	10.85
340.222	10.83
340.593	10.27
340.964	11.1
341.336	10.44
341.707	10.5
342.078	10.84
342.449	10.99
342.82	10.94
343.191	10.63
343.562	10.77
343.933	10.75
344.303	11.18
344.674	11.08
345.045	11.14
345.416	11.27
345.786	11.06
346.157	11.22
346.527	11.03
346.898	11.05
347.268	11.08
347.639	11.38
348.009	11.19
348.38	11.34
348.75	11.42
349.12	11.5
349.49	11.45
349.861	11.77
350.231	12.04
350.601	11.89
350.971	11.65
351.341	11.38
351.711	11.54
352.081	12.01
352.45	11.8
352.82	11.75
353.19	11.43
353.56	11.64
353.929	11.78
354.299	11.58
354.669	12.11
355.038	11.59
355.408	12.45
355.777	11.59
356.147	12.2
356.516	12.06
356.885	11.98
357.254	12.18
357.624	12.03
357.993	12.09
358.362	12.48
358.731	12.01
359.1	12.31
359.469	12.22
359.838	11.95
360.207	12.37
360.576	12.37
360.945	12.2
361.314	12.44
361.682	12.21
362.051	12.21
362.42	12.46
362.788	12.62
363.157	12.23
363.525	12.37
363.894	12.14
364.262	12.35
364.631	12.99
364.999	12.27
365.367	12.79
365.735	12.1
366.104	12.79
366.472	12.37
366.84	12.71
367.208	12.73
367.576	12.92
367.944	13
368.312	12.69
368.68	13.21
369.048	12.98
369.416	13.02
369.783	12.71
370.151	13.21
370.519	12.81
370.886	13.08
371.254	13
371.621	12.94
371.989	13.16
372.356	13.21
372.724	13.33
373.091	13.08
373.458	13.24
373.826	13.32
374.193	13.76
374.56	13.09
374.927	13.3
375.294	13.5
375.661	13.68
376.028	13.55
376.395	13.43
376.762	13.6
377.129	13.55
377.496	13.45
377.863	13.7
378.229	13.67
378.596	13.67
378.963	13.68
379.329	13.55
379.696	13.8
380.062	13.91
380.429	14.1
380.795	13.6
381.161	13.87
381.528	13.67
381.894	13.91
382.26	14.01
382.626	13.74
382.993	13.85
383.359	14.54
383.725	14.23
384.091	14.25
384.457	14.09
384.823	14.25
385.188	14.23
385.554	14.24
385.92	14.31
386.286	14.38
386.651	14.38
387.017	14.63
387.383	14.41
387.748	14.33
388.114	14.52
388.479	14.35
388.845	14.56
389.21	14.53
389.575	14.53
389.94	14.39
390.306	14.89
390.671	14.72
391.036	14.69
391.401	14.76
391.766	14.52
392.131	14.75
392.496	14.62
392.861	14.43
393.226	15.12
393.591	14.97
393.956	14.76
394.32	14.79
394.685	15.27
395.05	14.86
395.414	15.2
395.779	14.89
396.143	15.09
396.508	15.05
396.872	15.3
397.236	14.92
397.601	15.46
397.965	15.01
398.329	15.49
398.694	15.17
399.058	15.04
399.422	15.26
399.786	15.18
400.15	15.11
400.514	15.35
400.878	15.32
401.242	15.38
401.605	15.13
401.969	15.31
402.333	15.51
402.697	15.73
403.06	15.55
403.424	15.55
403.787	15.69
404.151	15.71
404.514	15.75
404.878	15.63
405.241	15.61
405.604	15.77
405.968	15.68
406.331	15.91
406.694	15.9
407.057	15.96
407.42	15.84
407.783	15.8
408.146	16.01
408.509	16.05
408.872	15.86
409.235	16.16
409.598	16.18
409.961	16.01
410.323	16.11
410.686	16.1
411.049	16.09
411.411	16.13
411.774	16.11
412.136	16.41
412.499	16.23
412.861	16.04
413.223	16.21
413.586	16.46
413.948	16.31
414.31	16.43
414.672	16.4
415.035	16.51
415.397	16.5
415.759	16.36
416.121	16.69
416.483	16.79
416.845	16.3
417.206	16.49
417.568	16.33
417.93	16.45
418.292	16.35
418.653	16.7
419.015	16.65
419.377	16.58
419.738	16.42
420.1	16.59
420.461	16.42
420.822	16.64
421.184	16.67
421.545	16.6
421.906	16.71
422.267	16.51
422.629	16.53
422.99	16.53
423.351	16.75
423.712	16.76
424.073	16.81
424.434	16.74
424.795	16.75
425.155	16.84
425.516	16.68
425.877	16.83
426.238	16.76
426.598	16.97
426.959	16.78
427.32	17.07
427.68	17.19
428.041	17.19
428.401	17.14
428.761	17.15
429.122	17.32
429.482	17.36
429.842	17.32
430.202	17.37
430.563	17.47
430.923	17.45
431.283	17.46
431.643	17.5
432.003	17.53
432.363	17.44
432.722	17.53
433.082	17.71
433.442	17.55
433.802	17.67
434.161	17.57
434.521	17.65
434.881	17.64
435.24	17.58
435.6	17.64
435.959	17.7
436.319	17.69
436.678	17.85
437.037	17.85
437.396	17.94
437.756	18.04
438.115	17.95
438.474	18.02
438.833	18.05
439.192	18.05
439.551	18.05
439.91	18.11
440.269	18.08
440.628	18.02
440.987	17.94
441.345	17.98
441.704	18.1
442.063	18.05
442.421	17.98
442.78	18.05
443.138	18.09
443.497	18.05
443.855	18.2
444.214	18.34
444.572	18.28
444.93	18.29
445.288	18.42
445.647	18.37
446.005	18.24
446.363	18.51
446.721	18.32
447.079	18.36
447.437	18.3
447.795	18.18
448.153	18.29
448.51	18.31
448.868	18.48
449.226	18.38
449.584	18.54
449.941	18.65
450.299	18.68
450.656	18.91
451.014	18.73
451.371	18.84
451.729	18.83
452.086	18.81
452.443	18.87
452.801	19.15
453.158	18.96
453.515	18.86
453.872	19.09
454.229	18.78
454.586	18.99
454.943	19.15
455.3	19.22
455.657	19.2
456.014	19.14
456.371	19.16
456.727	19.11
457.084	19.28
457.441	19.28
457.797	19.52
458.154	19.54
458.51	19.45
458.867	19.34
459.223	19.63
459.58	19.49
459.936	19.35
460.292	19.66
460.648	19.31
461.005	19.09
461.361	19.15
461.717	19.33
462.073	19.28
462.429	19.54
462.785	19.63
463.141	19.75
463.496	19.54
463.852	19.89
464.208	20.02
464.564	19.77
464.919	20
465.275	19.94
465.631	19.89
465.986	19.82
466.342	20.01
466.697	20.08
467.052	20.17
467.408	20
467.763	20.05
468.118	20.11
468.473	20.08
468.829	20.2
469.184	20.45
469.539	20.16
469.894	20.19
470.249	20.34
470.603	20.59
470.958	20.38
471.313	20.33
471.668	20.53
472.023	20.43
472.377	20.32
472.732	20.34
473.086	20.47
473.441	20.56
473.795	20.81
474.15	20.49
474.504	20.56
474.859	20.66
475.213	20.54
475.567	20.59
475.921	20.83
476.275	20.63
476.63	20.56
476.984	20.77
477.338	21.13
477.692	20.85
478.045	20.76
478.399	20.9
478.753	20.84
479.107	20.67
479.461	20.79
479.814	20.78
480.168	20.94
480.521	20.96
480.875	21.15
481.228	20.99
481.582	20.97
481.935	21.01
482.289	21
482.642	21.08
482.995	20.91
483.348	20.95
483.701	20.85
484.055	20.7
484.408	20.65
484.761	20.27
485.114	20.24
485.466	20.3
485.819	20.41
486.172	20.6
486.525	20.71
486.878	20.87
487.23	20.85
487.583	20.99
487.936	21.02
488.288	20.69
488.641	20.69
488.993	20.59
489.345	20.75
489.698	20.83
490.05	20.88
490.402	21.04
490.754	21.29
491.107	21.43
491.459	21.52
491.811	21.56
492.163	21.41
492.515	21.22
492.866	21.02
493.218	21.06
493.57	21.24
493.922	21.37
494.274	21.61
494.625	21.6
494.977	21.82
495.328	21.88
495.68	22.1
496.031	22.03
496.383	22
496.734	22.15
497.086	22.11
497.437	22.22
497.788	22.15
498.139	21.94
498.49	22.17
498.842	22.09
499.193	22.29
499.544	22.33
499.894	22.27
500.245	22.36
500.596	22.44
500.947	22.48
501.298	22.38
501.648	22.52
501.999	22.63
502.35	22.71
502.7	22.72
503.051	22.87
503.401	22.72
503.752	22.72
504.102	22.84
504.452	22.78
504.803	22.71
505.153	22.83
505.503	22.83
505.853	22.85
506.203	22.88
506.553	22.89
506.903	22.92
507.253	22.95
507.603	22.99
507.953	23.24
508.303	23.01
508.652	23.07
509.002	23.08
509.352	23.16
509.701	22.95
510.051	23.1
510.4	23.09
510.75	23.08
511.099	23.05
511.449	23.19
511.798	23.46
512.147	23.25
512.496	23.32
512.846	23.33
513.195	23.39
513.544	23.32
513.893	23.32
514.242	23.55
514.591	23.49
514.939	23.31
515.288	23.64
515.637	23.77
515.986	23.63
516.334	23.81
516.683	23.66
517.032	23.73
517.38	23.89
517.729	23.64
518.077	23.75
518.426	23.68
518.774	23.75
519.122	23.62
519.47	23.56
519.819	23.66
520.167	23.66
520.515	23.7
520.863	23.63
521.211	23.93
521.559	23.9
521.907	23.95
522.255	24.11
522.602	24.19
522.95	24.17
523.298	24.27
523.645	24.22
523.993	24.39
524.341	24.27
524.688	24.34
525.036	24.36
525.383	24.51
525.73	24.37
526.078	24.47
526.425	24.26
526.772	24.16
527.119	23.95
527.466	24.13
527.814	24.14
528.161	24.26
528.508	24.3
528.854	24.18
529.201	24.18
529.548	23.9
529.895	23.74
530.242	23.89
530.588	24.02
530.935	24.13
531.282	24.21
531.628	24.24
531.975	24.42
532.321	24.47
532.667	24.61
533.014	24.69
533.36	24.68
533.706	24.74
534.052	24.54
534.399	24.3
534.745	24.29
535.091	24.47
535.437	24.59
535.783	24.67
536.129	24.93
536.474	25.05
536.82	25.06
537.166	25.2
537.512	25.03
537.857	25.11
538.203	24.96
538.549	25.04
538.894	25.12
539.239	25.43
539.585	25.39
539.93	25.48
540.276	25.43
540.621	25.52
540.966	25.61
541.311	25.73
541.656	25.35
542.001	25.25
542.346	25.05
542.691	24.95
543.036	25.01
543.381	25.15
543.726	25.22
544.071	25.31
544.415	25.49
544.76	25.49
545.105	25.53
545.449	25.82
545.794	25.71
546.138	25.92
546.483	26.03
546.827	26.04
547.171	26.07
547.516	26.09
547.86	25.99
548.204	25.99
548.548	25.99
548.892	26.09
549.236	26.16
549.58	26.36
549.924	26.48
550.268	26.52
550.612	26.51
550.956	26.48
551.3	26.72
551.643	26.46
551.987	26.69
552.33	26.64
552.674	26.73
553.017	26.82
553.361	26.74
553.704	26.69
554.048	26.6
554.391	26.73
554.734	26.8
555.077	26.79
555.42	27
555.764	27.16
556.107	27.2
556.45	26.9
556.793	27.16
557.135	27.25
557.478	27.36
557.821	27.11
558.164	27.52
558.507	27.33
558.849	27.56
559.192	27.75
559.534	27.25
559.877	27.39
560.219	27.52
560.562	27.72
560.904	27.61
561.246	27.62
561.589	27.6
561.931	27.71
562.273	27.61
562.615	27.65
562.957	27.58
563.299	27.71
563.641	27.6
563.983	27.81
564.325	27.56
564.667	27.73
565.008	27.74
565.35	28.15
565.692	28.15
566.033	27.73
566.375	27.67
566.716	28
567.058	27.96
567.399	27.92
567.741	27.95
568.082	27.94
568.423	27.88
568.764	27.89
569.105	28.18
569.447	28.01
569.788	28.08
570.129	28.17
570.47	28.33
570.811	28.28
571.151	28.26
571.492	28.38
571.833	28.17
572.174	28.13
572.514	28.34
572.855	28.27
573.195	28
573.536	28.44
573.876	28.26
574.217	28.42
574.557	28.58
574.898	28.52
575.238	28.5
575.578	28.77
575.918	28.68
576.258	28.73
576.598	28.58
576.938	28.78
577.278	28.64
577.618	28.68
577.958	28.8
578.298	28.76
578.638	28.88
578.977	29.01
579.317	29.05
579.657	29.03
579.996	29.07
580.336	28.95
580.675	29.37
581.014	29.31
581.354	29.44
581.693	29.05
582.032	29.24
582.372	29.45
582.711	29.47
583.05	29.35
583.389	29.44
583.728	29.56
584.067	29.67
584.406	29.62
584.745	29.24
585.083	29.73
585.422	29.57
585.761	29.54
586.1	29.64
586.438	29.61
586.777	29.7
587.115	29.76
587.454	29.49
587.792	29.58
588.13	29.64
588.469	29.92
588.807	29.84
589.145	29.93
589.483	29.58
589.821	29.97
590.159	29.97
590.497	29.68
590.835	29.83
591.173	29.79
591.511	30.04
591.849	30.01
592.187	29.91
592.524	30.12
592.862	30.1
593.2	30.21
593.537	29.94
593.875	30.2
594.212	30.33
594.55	30.17
594.887	30.38
595.224	30.16
595.561	30.33
595.899	30.43
596.236	30.41
596.573	30.24
596.91	30.36
597.247	30.32
597.584	30.51
597.921	30.51
598.258	30.34
598.594	30.21
598.931	30.28
599.268	30.36
599.604	30.33
599.941	30.32
600.277	30.44
600.614	30.78
600.95	30.8
601.287	30.64
601.623	30.79
601.959	30.73
602.296	30.79
602.632	30.69
602.968	30.86
603.304	30.99
603.64	30.68
603.976	30.73
604.312	31.01
604.648	30.69
604.984	30.8
605.319	30.85
605.655	30.82
605.991	30.74
606.326	30.65
606.662	30.74
606.998	30.9
607.333	30.98
607.668	30.86
608.004	31.25
608.339	31.21
608.674	31.19
609.01	31.22
609.345	31.32
609.68	31.29
610.015	31.56
610.35	31.71
610.685	31.32
611.02	31.53
611.355	31.42
611.689	31.16
612.024	31.65
612.359	31.67
612.694	31.65
613.028	31.62
613.363	31.59
613.697	31.69
614.032	31.7
614.366	31.73
614.7	32.28
615.035	31.55
615.369	31.63
615.703	31.8
616.037	31.67
616.371	31.79
616.705	32.04
617.039	32.03
617.373	31.47
617.707	32.03
618.041	31.99
618.375	31.95
618.709	31.94
619.042	32.09
619.376	32.04
619.71	32.13
620.043	32.04
620.377	32.18
620.71	32.1
621.043	32.21
621.377	32.31
621.71	32.74
622.043	32.27
622.376	32.06
622.709	32.65
623.043	32.29
623.376	32.55
623.709	32.34
624.041	32.25
624.374	32.39
624.707	32.69
625.04	32.52
625.373	32.66
625.705	32.63
626.038	32.4
626.37	32.18
626.703	32.21
627.035	32.42
627.368	32.7
627.7	32.93
628.032	32.83
628.365	32.34
628.697	32.55
629.029	32.72
629.361	32.66
629.693	33
630.025	32.51
630.357	32.56
630.689	32.93
631.021	33.02
631.353	33.06
631.684	32.96
632.016	32.77
632.348	33.04
632.679	33.03
633.011	32.93
633.342	32.76
633.674	33.09
634.005	32.85
634.336	33.16
634.668	32.97
634.999	33.01
635.33	32.97
635.661	32.98
635.992	33.23
636.323	33.14
636.654	33.24
636.985	33.35
637.316	33.2
637.647	33.29
637.977	33.01
638.308	32.78
638.639	33.28
638.969	33.26
639.3	32.91
639.63	33.25
639.961	33.7
640.291	33.24
640.622	33.95
640.952	33.46
641.282	33.73
641.612	33.31
641.943	33.16
642.273	33.35
642.603	33.65
642.933	33.8
643.263	33.8
643.592	34.18
643.922	33.98
644.252	34.1
644.582	33.62
644.911	33.65
645.241	34.04
645.571	33.74
645.9	34.38
646.23	33.51
646.559	34.09
646.888	33.86
647.218	33.78
647.547	33.89
647.876	33.87
648.205	33.7
648.534	34.05
648.863	34.13
649.192	33.62
649.521	33.77
649.85	34.18
650.179	34.04
650.508	34.06
650.837	34.32
651.165	34.52
651.494	33.74
651.822	34.4
652.151	34.18
652.479	34.28
652.808	34.5
653.136	34.5
653.465	34.1
653.793	34.4
654.121	34.64
654.449	34.81
654.777	34.23
655.105	34.51
655.433	34.37
655.761	34.48
656.089	34.66
656.417	34.67
656.745	35.08
657.073	34.74
657.4	34.72
657.728	34.21
658.056	34.41
658.383	35.04
658.711	34.59
659.038	35.06
659.365	34.06
659.693	34.98
660.02	34.37
660.347	34.65
660.674	34.64
661.001	34.13
661.329	34.71
661.656	34.8
661.982	34.85
662.309	34.56
662.636	34.61
662.963	35.2
663.29	34.91
663.616	34.96
663.943	35.38
664.27	35.48
664.596	35.25
664.923	35.93
665.249	35.4
665.576	35.41
665.902	34.86
666.228	35.02
666.554	34.73
666.881	34.91
667.207	35.09
667.533	35.61
667.859	34.72
668.185	35.24
668.511	35.18
668.837	34.96
669.162	35.71
669.488	35.66
