Data from 0063_chest_Reflection__3__211.txt Node

Date: Fri Dec 16 15:38:18 CST 2022
User: ToomeyLab
Spectrometer: FLMS14357
Trigger mode: 0
Integration Time (sec): 1.000000E-2
Scans to average: 100
Electric dark correction enabled: true
Nonlinearity correction enabled: false
Boxcar width: 0
XAxis mode: Wavelengths
Number of Pixels in Spectrum: 2048
>>>>>Begin Spectral Data<<<<<
189.047	-178.78
189.435	-178.78
189.823	-178.78
190.211	230.34
190.599	81.57
190.987	23.36
191.375	10.78
191.763	329.79
192.151	51.45
192.538	44.77
192.926	-115.93
193.314	65.27
193.702	267.71
194.089	264.02
194.477	-25.87
194.864	82.9
195.252	-81.94
195.639	125.33
196.027	-214.76
196.414	-66.28
196.801	209.89
197.189	120.89
197.576	-138.67
197.963	-201.7
198.351	-29.76
198.738	3.69
199.125	34.19
199.512	-22.31
199.899	-24.22
200.286	-34.4
200.673	2.52
201.06	24.93
201.447	8.71
201.833	6.96
202.22	21.53
202.607	-151.43
202.994	2.49
203.38	-43.69
203.767	-3.49
204.154	-69.9
204.54	13.43
204.927	18.24
205.313	44.37
205.699	-27.49
206.086	-11.81
206.472	-33.93
206.858	8.24
207.245	7.62
207.631	-78.43
208.017	-2.35
208.403	32.33
208.789	-11.23
209.175	25.97
209.561	-15.17
209.947	-12.02
210.333	-15.94
210.719	-5.61
211.105	-64.34
211.491	22.2
211.876	-11.15
212.262	-27.2
212.648	-45.06
213.034	-6
213.419	29.37
213.805	31.63
214.19	-12.75
214.576	-24.32
214.961	1.63
215.346	-43.35
215.732	-25.11
216.117	3.27
216.502	-38.61
216.888	-51.7
217.273	3.66
217.658	-26.72
218.043	-37.02
218.428	-21.63
218.813	-42.39
219.198	-49.05
219.583	13.87
219.968	-29.08
220.353	3.92
220.738	-16.06
221.122	-12.74
221.507	-21.9
221.892	-19.83
222.276	-1.51
222.661	-20.6
223.046	7.33
223.43	0.19
223.815	4.06
224.199	12.1
224.583	5.7
224.968	-0.43
225.352	-0.37
225.736	0.26
226.121	-13.44
226.505	7.54
226.889	9.82
227.273	0.36
227.657	-0.38
228.041	0.91
228.425	7.78
228.809	4.64
229.193	2.51
229.577	2.89
229.961	5.04
230.344	5.04
230.728	5.8
231.112	4.01
231.495	3.65
231.879	5.95
232.263	3.35
232.646	3.18
233.03	2.8
233.413	3.31
233.797	6.24
234.18	4.38
234.563	3.52
234.946	4.04
235.33	5.4
235.713	5.21
236.096	4.01
236.479	4.24
236.862	2.93
237.245	5.72
237.628	4.08
238.011	3.92
238.394	6.58
238.777	3.5
239.16	1.48
239.543	3.9
239.925	4.27
240.308	4.92
240.691	4.27
241.073	4.32
241.456	4
241.838	3.74
242.221	3.71
242.603	5.27
242.986	5.65
243.368	4.58
243.75	4.19
244.133	4.57
244.515	4.68
244.897	3.86
245.279	4.7
245.661	3.69
246.043	5.69
246.425	3.38
246.807	4.5
247.189	3.97
247.571	4.81
247.953	4.34
248.335	4.56
248.717	4.62
249.098	4.41
249.48	4.45
249.862	4.67
250.243	4.43
250.625	4.29
251.006	4.98
251.388	4.15
251.769	4.36
252.151	4.41
252.532	4.46
252.913	4.11
253.295	4.62
253.676	4.59
254.057	4.03
254.438	3.95
254.819	3.75
255.2	4.17
255.581	5.55
255.962	4.95
256.343	4.05
256.724	4.08
257.105	4.54
257.486	4.55
257.867	3.21
258.247	4.44
258.628	4.7
259.009	3.97
259.389	4.4
259.77	4.18
260.15	4.86
260.531	4.35
260.911	4.36
261.292	4.13
261.672	4.24
262.052	4.22
262.432	3.89
262.813	4.32
263.193	3.48
263.573	3.88
263.953	3.92
264.333	3.87
264.713	3.86
265.093	4.24
265.473	4.78
265.853	3.42
266.233	3.15
266.612	3.31
266.992	3.56
267.372	4.97
267.752	3.99
268.131	4.11
268.511	4.25
268.89	4.11
269.27	4.51
269.649	4.62
270.029	3.97
270.408	3.69
270.787	4.15
271.167	4.36
271.546	3.78
271.925	3.98
272.304	3.64
272.683	3.86
273.062	4.13
273.441	4.09
273.82	4.21
274.199	4.33
274.578	3.72
274.957	4.15
275.336	4.08
275.715	3.72
276.093	4.34
276.472	4.15
276.851	4.11
277.229	4.18
277.608	3.59
277.986	3.85
278.365	3.87
278.743	4.4
279.122	3.4
279.5	3.32
279.878	3.3
280.257	4.31
280.635	3.47
281.013	3.92
281.391	4.29
281.769	3.45
282.147	4.31
282.525	3.38
282.903	4.1
283.281	3.61
283.659	4.34
284.037	4.22
284.415	3.94
284.792	3.7
285.17	3.5
285.548	3.38
285.925	3.74
286.303	3.66
286.68	4.29
287.058	4.05
287.435	3.65
287.813	3.62
288.19	4.42
288.567	3.68
288.945	3.94
289.322	3.54
289.699	3.58
290.076	4.24
290.453	3.85
290.83	4.3
291.207	3.85
291.584	3.43
291.961	4.01
292.338	3.63
292.715	3.74
293.092	4.02
293.469	4.15
293.845	4.25
294.222	4.07
294.599	4.15
294.975	3.86
295.352	3.61
295.728	3.79
296.105	3.61
296.481	4.15
296.858	4.07
297.234	3.62
297.61	4.04
297.986	3.9
298.363	3.6
298.739	4.19
299.115	3.47
299.491	4.03
299.867	3.97
300.243	3.81
300.619	3.92
300.995	4.34
301.371	3.9
301.746	3.64
302.122	3.82
302.498	3.85
302.874	3.91
303.249	4.38
303.625	4.27
304	3.62
304.376	4.07
304.751	3.61
305.127	3.76
305.502	4.08
305.878	3.61
306.253	4.1
306.628	4.03
307.003	3.93
307.378	3.61
307.754	4.48
308.129	3.16
308.504	3.77
308.879	4.17
309.254	3.84
309.629	3.59
310.003	4.36
310.378	3.95
310.753	4.07
311.128	4.37
311.502	3.82
311.877	3.93
312.252	3.7
312.626	3.79
313.001	4.16
313.375	4.09
313.75	3.87
314.124	4.65
314.498	3.6
314.873	3.98
315.247	3.7
315.621	4.07
315.995	3.84
316.369	4.25
316.743	4.18
317.117	4.22
317.491	3.53
317.865	3.4
318.239	4.28
318.613	3.93
318.987	4.02
319.361	3.75
319.734	4.16
320.108	3.68
320.482	3.73
320.855	3.64
321.229	4.42
321.602	3.87
321.976	3.62
322.349	3.07
322.723	3.14
323.096	3.5
323.469	3.89
323.843	3.61
324.216	3.15
324.589	4.03
324.962	4.06
325.335	3.76
325.708	4.08
326.081	3.85
326.454	4.03
326.827	3.96
327.2	4.4
327.573	4.02
327.945	4.13
328.318	3.84
328.691	3.9
329.063	3.36
329.436	3.67
329.809	3.37
330.181	3.41
330.553	3.75
330.926	4.21
331.298	3.7
331.671	3.8
332.043	4.19
332.415	3.84
332.787	4.47
333.159	3.68
333.532	3.81
333.904	4.14
334.276	3.66
334.648	4.04
335.02	3.27
335.391	4.29
335.763	3.85
336.135	4
336.507	4.41
336.879	4.07
337.25	3.99
337.622	3.68
337.993	4.02
338.365	4.01
338.736	4.08
339.108	3.96
339.479	3.87
339.851	4.3
340.222	4.26
340.593	4.1
340.964	3.96
341.336	3.28
341.707	3.53
342.078	4.01
342.449	4.3
342.82	3.37
343.191	4.17
343.562	3.8
343.933	3.51
344.303	3.68
344.674	4.31
345.045	3.91
345.416	3.82
345.786	3.38
346.157	3.93
346.527	3.6
346.898	3.6
347.268	3.29
347.639	3.79
348.009	4.01
348.38	3.65
348.75	3.7
349.12	4.13
349.49	3.57
349.861	4.52
350.231	4.12
350.601	4.15
350.971	3.52
351.341	4.05
351.711	3.51
352.081	3.99
352.45	3.87
352.82	3.87
353.19	3.8
353.56	4.09
353.929	4.37
354.299	3.8
354.669	4.12
355.038	3.61
355.408	4.34
355.777	4.01
356.147	4.34
356.516	3.99
356.885	3.92
357.254	4.27
357.624	3.84
357.993	3.63
358.362	3.71
358.731	4.1
359.1	4.07
359.469	4.32
359.838	3.92
360.207	3.69
360.576	4.09
360.945	3.86
361.314	4.23
361.682	3.66
362.051	4.04
362.42	4.05
362.788	4.06
363.157	3.94
363.525	3.9
363.894	3.59
364.262	3.79
364.631	4.62
364.999	3.78
365.367	4.06
365.735	3.5
366.104	3.44
366.472	4
366.84	3.91
367.208	3.69
367.576	4.2
367.944	4.09
368.312	3.57
368.68	3.95
369.048	3.82
369.416	3.98
369.783	4.03
370.151	4.12
370.519	3.52
370.886	3.93
371.254	3.93
371.621	3.78
371.989	4.06
372.356	4.18
372.724	3.88
373.091	4.05
373.458	4.08
373.826	3.83
374.193	4.41
374.56	3.94
374.927	3.93
375.294	4.32
375.661	3.93
376.028	4.21
376.395	3.78
376.762	3.83
377.129	4.25
377.496	3.81
377.863	4.05
378.229	3.92
378.596	4.11
378.963	3.74
379.329	4.15
379.696	3.79
380.062	4.32
380.429	4.41
380.795	4.01
381.161	3.77
381.528	3.73
381.894	4.08
382.26	3.82
382.626	3.98
382.993	3.92
383.359	3.87
383.725	3.93
384.091	3.95
384.457	4.29
384.823	4.23
385.188	3.86
385.554	4.03
385.92	4.39
386.286	4.03
386.651	4.07
387.017	4.49
387.383	4.23
387.748	3.99
388.114	4.25
388.479	4.08
388.845	4.23
389.21	3.9
389.575	4.07
389.94	4.29
390.306	3.89
390.671	3.86
391.036	3.78
391.401	4.33
391.766	4.18
392.131	3.98
392.496	4.15
392.861	3.95
393.226	4.26
393.591	4.2
393.956	4.16
394.32	4.2
394.685	4.29
395.05	3.76
395.414	4.17
395.779	4.13
396.143	4.11
396.508	4.26
396.872	4.08
397.236	3.66
397.601	4.27
397.965	3.86
398.329	4.07
398.694	4.05
399.058	4.07
399.422	4.19
399.786	4.04
400.15	4.31
400.514	4.3
400.878	4.16
401.242	4.11
401.605	4.31
401.969	4.04
402.333	3.94
402.697	4.23
403.06	4.1
403.424	4.12
403.787	4.16
404.151	3.94
404.514	4.39
404.878	4.15
405.241	4.19
405.604	4.18
405.968	4.17
406.331	4.22
406.694	4.26
407.057	4.45
407.42	4.15
407.783	4.23
408.146	4.19
408.509	4.12
408.872	3.96
409.235	4.22
409.598	4.2
409.961	4.39
410.323	4.24
410.686	4.03
411.049	4.14
411.411	4.23
411.774	3.95
412.136	4.35
412.499	4.14
412.861	3.85
413.223	4.29
413.586	4.04
413.948	4.22
414.31	4.25
414.672	4.18
415.035	4.36
415.397	4.27
415.759	4.21
416.121	4.28
416.483	4.48
416.845	4.17
417.206	4.29
417.568	4.36
417.93	4.09
418.292	4.32
418.653	4.18
419.015	4.3
419.377	4.27
419.738	4.07
420.1	4.23
420.461	4.04
420.822	4.16
421.184	4.07
421.545	4.17
421.906	4.22
422.267	4.19
422.629	4.14
422.99	4.18
423.351	4.13
423.712	4.12
424.073	4.32
424.434	4.17
424.795	4.15
425.155	4.09
425.516	4.11
425.877	4.23
426.238	4.03
426.598	4.2
426.959	4.06
427.32	4.2
427.68	4.27
428.041	4.24
428.401	4.27
428.761	4.13
429.122	4.17
429.482	4.04
429.842	4.2
430.202	4.33
430.563	4.2
430.923	4.23
431.283	4.3
431.643	4.26
432.003	4.34
432.363	4.27
432.722	4.17
433.082	4.37
433.442	4.11
433.802	4.32
434.161	4.29
434.521	4.34
434.881	4.4
435.24	4.17
435.6	4.36
435.959	4.34
436.319	4.35
436.678	4.42
437.037	4.35
437.396	4.26
437.756	4.4
438.115	4.36
438.474	4.38
438.833	4.32
439.192	4.58
439.551	4.45
439.91	4.34
440.269	4.38
440.628	4.24
440.987	4.25
441.345	4.21
441.704	4.41
442.063	4.27
442.421	4.38
442.78	4.28
443.138	4.2
443.497	4.24
443.855	4.24
444.214	4.32
444.572	4.29
444.93	4.5
445.288	4.47
445.647	4.37
446.005	4.18
446.363	4.35
446.721	4.16
447.079	4.28
447.437	4.18
447.795	4.22
448.153	4.23
448.51	4.28
448.868	4.39
449.226	4.28
449.584	4.22
449.941	4.43
450.299	4.34
450.656	4.48
451.014	4.45
451.371	4.45
451.729	4.29
452.086	4.26
452.443	4.4
452.801	4.41
453.158	4.35
453.515	4.31
453.872	4.5
454.229	4.25
454.586	4.39
454.943	4.37
455.3	4.4
455.657	4.27
456.014	4.54
456.371	4.64
456.727	4.35
457.084	4.26
457.441	4.28
457.797	4.36
458.154	4.31
458.51	4.35
458.867	4.35
459.223	4.51
459.58	4.27
459.936	4.36
460.292	4.38
460.648	4.38
461.005	4.27
461.361	4.33
461.717	4.45
462.073	4.34
462.429	4.29
462.785	4.4
463.141	4.54
463.496	4.46
463.852	4.48
464.208	4.42
464.564	4.41
464.919	4.41
465.275	4.33
465.631	4.33
465.986	4.39
466.342	4.61
466.697	4.42
467.052	4.42
467.408	4.47
467.763	4.28
468.118	4.54
468.473	4.59
468.829	4.51
469.184	4.57
469.539	4.35
469.894	4.46
470.249	4.5
470.603	4.5
470.958	4.6
471.313	4.49
471.668	4.54
472.023	4.59
472.377	4.59
472.732	4.4
473.086	4.52
473.441	4.51
473.795	4.8
474.15	4.41
474.504	4.41
474.859	4.41
475.213	4.64
475.567	4.46
475.921	4.64
476.275	4.61
476.63	4.49
476.984	4.52
477.338	4.83
477.692	4.56
478.045	4.65
478.399	4.6
478.753	4.53
479.107	4.72
479.461	4.53
479.814	4.51
480.168	4.54
480.521	4.4
480.875	4.65
481.228	4.65
481.582	4.54
481.935	4.54
482.289	4.4
482.642	4.55
482.995	4.5
483.348	4.51
483.701	4.44
484.055	4.47
484.408	4.44
484.761	4.31
485.114	4.29
485.466	4.3
485.819	4.32
486.172	4.38
486.525	4.44
486.878	4.39
487.23	4.48
487.583	4.46
487.936	4.49
488.288	4.41
488.641	4.44
488.993	4.32
489.345	4.34
489.698	4.45
490.05	4.45
490.402	4.5
490.754	4.55
491.107	4.56
491.459	4.58
491.811	4.64
492.163	4.61
492.515	4.54
492.866	4.41
493.218	4.4
493.57	4.43
493.922	4.45
494.274	4.55
494.625	4.55
494.977	4.57
495.328	4.68
495.68	4.86
496.031	4.74
496.383	4.67
496.734	4.73
497.086	4.6
497.437	4.85
497.788	4.64
498.139	4.69
498.49	4.69
498.842	4.66
499.193	4.72
499.544	4.74
499.894	4.76
500.245	4.77
500.596	4.71
500.947	4.79
501.298	4.62
501.648	4.75
501.999	4.8
502.35	4.87
502.7	4.84
503.051	4.83
503.401	4.82
503.752	4.73
504.102	4.78
504.452	4.7
504.803	4.57
505.153	4.89
505.503	4.71
505.853	4.78
506.203	4.76
506.553	4.87
506.903	4.75
507.253	4.85
507.603	4.74
507.953	4.96
508.303	4.87
508.652	4.94
509.002	4.82
509.352	4.83
509.701	4.75
510.051	4.87
510.4	4.93
510.75	4.95
511.099	4.82
511.449	4.75
511.798	4.97
512.147	4.87
512.496	4.87
512.846	4.93
513.195	4.87
513.544	4.86
513.893	4.89
514.242	5
514.591	5.04
514.939	4.91
515.288	4.94
515.637	5.07
515.986	4.95
516.334	5.08
516.683	4.95
517.032	4.95
517.38	5.05
517.729	4.94
518.077	5.09
518.426	4.91
518.774	5.03
519.122	4.93
519.47	4.91
519.819	4.98
520.167	4.97
520.515	4.94
520.863	4.96
521.211	4.96
521.559	5.07
521.907	4.89
522.255	4.96
522.602	5.12
522.95	5.12
523.298	5.1
523.645	5.11
523.993	5.15
524.341	5.1
524.688	5.09
525.036	5.16
525.383	5.18
525.73	5.18
526.078	5.22
526.425	5.15
526.772	4.96
527.119	5.06
527.466	5.11
527.814	5.01
528.161	5.16
528.508	5.07
528.854	5.03
529.201	5.07
529.548	5
529.895	4.9
530.242	4.95
530.588	5.02
530.935	5.01
531.282	5.1
531.628	5.09
531.975	5.2
532.321	5.19
532.667	5.21
533.014	5.2
533.36	5.25
533.706	5.16
534.052	5.23
534.399	5.15
534.745	5.14
535.091	5.13
535.437	5.2
535.783	5.25
536.129	5.25
536.474	5.31
536.82	5.3
537.166	5.33
537.512	5.34
537.857	5.36
538.203	5.37
538.549	5.43
538.894	5.27
539.239	5.47
539.585	5.53
539.93	5.47
540.276	5.48
540.621	5.46
540.966	5.48
541.311	5.52
541.656	5.37
542.001	5.48
542.346	5.41
542.691	5.3
543.036	5.32
543.381	5.38
543.726	5.43
544.071	5.52
544.415	5.48
544.76	5.47
545.105	5.56
545.449	5.57
545.794	5.52
546.138	5.7
546.483	5.55
546.827	5.61
547.171	5.64
547.516	5.69
547.86	5.62
548.204	5.56
548.548	5.73
548.892	5.68
549.236	5.84
549.58	5.73
549.924	5.82
550.268	5.95
550.612	5.99
550.956	5.79
551.3	5.84
551.643	5.85
551.987	5.9
552.33	5.86
552.674	6.06
553.017	5.93
553.361	5.84
553.704	5.97
554.048	5.97
554.391	5.86
554.734	5.97
555.077	6
555.42	6.03
555.764	6
556.107	6.11
556.45	6.15
556.793	6.19
557.135	6.09
557.478	6.24
557.821	6.14
558.164	6.08
558.507	6.16
558.849	6.15
559.192	6.19
559.534	6.07
559.877	6.4
560.219	6.54
560.562	6.41
560.904	6.13
561.246	6.28
561.589	6.3
561.931	6.44
562.273	6.39
562.615	6.55
562.957	6.26
563.299	6.53
563.641	6.42
563.983	6.49
564.325	6.3
564.667	6.5
565.008	6.33
565.35	6.45
565.692	6.61
566.033	6.59
566.375	6.39
566.716	6.51
567.058	6.69
567.399	6.59
567.741	6.62
568.082	6.53
568.423	6.51
568.764	6.65
569.105	6.6
569.447	6.65
569.788	6.63
570.129	6.81
570.47	6.87
570.811	6.79
571.151	6.77
571.492	6.83
571.833	6.9
572.174	6.73
572.514	6.67
572.855	6.83
573.195	6.77
573.536	6.84
573.876	6.91
574.217	6.95
574.557	7.05
574.898	6.85
575.238	6.9
575.578	7.27
575.918	7.08
576.258	7.04
576.598	7.09
576.938	7.24
577.278	7.09
577.618	7.08
577.958	7.24
578.298	7.37
578.638	7.06
578.977	7.31
579.317	7.3
579.657	7.21
579.996	7.15
580.336	7.22
580.675	7.56
581.014	7.3
581.354	7.68
581.693	7.45
582.032	7.45
582.372	7.55
582.711	7.42
583.05	7.66
583.389	7.58
583.728	7.46
584.067	7.54
584.406	7.79
584.745	7.62
585.083	7.99
585.422	7.8
585.761	7.74
586.1	7.67
586.438	7.85
586.777	7.69
587.115	7.77
587.454	7.8
587.792	7.69
588.13	8.2
588.469	7.85
588.807	8.04
589.145	7.95
589.483	7.79
589.821	7.9
590.159	7.95
590.497	7.76
590.835	8.03
591.173	8.07
591.511	8.33
591.849	8.05
592.187	8.32
592.524	8.14
592.862	8
593.2	8.25
593.537	8.2
593.875	8.3
594.212	8.18
594.55	8.27
594.887	8.5
595.224	8.17
595.561	8.37
595.899	8.36
596.236	8.53
596.573	8.21
596.91	8.57
597.247	8.21
597.584	8.6
597.921	8.65
598.258	8.55
598.594	8.47
598.931	8.55
599.268	8.53
599.604	8.75
599.941	8.57
600.277	8.83
600.614	8.8
600.95	8.99
601.287	8.79
601.623	8.73
601.959	8.69
602.296	8.9
602.632	8.94
602.968	8.73
603.304	8.88
603.64	9.18
603.976	8.89
604.312	9.13
604.648	9.26
604.984	9.06
605.319	9.28
605.655	9.14
605.991	8.98
606.326	9.14
606.662	9
606.998	9.16
607.333	9.17
607.668	9.19
608.004	9.15
608.339	9.3
608.674	9.44
609.01	9.6
609.345	9.58
609.68	9.12
610.015	9.35
610.35	9.54
610.685	9.6
611.02	9.66
611.355	9.54
611.689	9.38
612.024	9.72
612.359	9.79
612.694	9.82
613.028	9.83
613.363	9.62
613.697	9.99
614.032	9.7
614.366	9.63
614.7	10.11
615.035	9.86
615.369	10.19
615.703	10.32
616.037	9.84
616.371	9.93
616.705	10.35
617.039	10.04
617.373	10.08
617.707	9.96
618.041	10.19
618.375	10.19
618.709	10.43
619.042	10.55
619.376	9.86
619.71	10.18
620.043	10.33
620.377	10.11
620.71	10.2
621.043	10.03
621.377	10.39
621.71	10.51
622.043	10.66
622.376	10.71
622.709	10.76
623.043	10.46
623.376	10.92
623.709	10.46
624.041	10.78
624.374	10.32
624.707	10.69
625.04	11.01
625.373	10.67
625.705	10.87
626.038	10.83
626.37	10.9
626.703	10.87
627.035	11.12
627.368	10.95
627.7	11.24
628.032	11.1
628.365	10.65
628.697	11.14
629.029	11.08
629.361	10.97
629.693	11.38
630.025	11.28
630.357	11.15
630.689	11.31
631.021	11.49
631.353	11.2
631.684	11.42
632.016	11.08
632.348	11.48
632.679	11.51
633.011	11.79
633.342	11.59
633.674	11.79
634.005	11.7
634.336	11.78
634.668	11.32
634.999	11.69
635.33	11.48
635.661	11.84
635.992	11.44
636.323	11.72
636.654	11.86
636.985	11.74
637.316	11.89
637.647	11.78
637.977	11.86
638.308	11.87
638.639	11.72
638.969	11.82
639.3	11.82
639.63	11.69
639.961	12.06
640.291	12.16
640.622	12.26
640.952	12.41
641.282	11.93
641.612	11.91
641.943	12.32
642.273	12.49
642.603	12.42
642.933	12.34
643.263	12.63
643.592	12.62
643.922	12.56
644.252	12.88
644.582	12.56
644.911	12.44
645.241	12.26
645.571	12.3
645.9	13.04
646.23	12.34
646.559	12.9
646.888	12.43
647.218	12.73
647.547	13.02
647.876	13.14
648.205	12.47
648.534	12.68
648.863	12.85
649.192	12.9
649.521	12.97
649.85	12.84
650.179	13.03
650.508	13.14
650.837	12.95
651.165	13.03
651.494	12.91
651.822	13.52
652.151	13.77
652.479	13.38
652.808	12.99
653.136	13.29
653.465	13.74
653.793	13.86
654.121	13.56
654.449	13.68
654.777	13.45
655.105	13.66
655.433	13.26
655.761	13.73
656.089	13.87
656.417	13.84
656.745	14.3
657.073	14.12
657.4	13.97
657.728	13.81
658.056	13.75
658.383	13.74
658.711	13.74
659.038	14.26
659.365	14.14
659.693	13.88
660.02	13.86
660.347	14.06
660.674	13.9
661.001	13.69
661.329	14.29
661.656	14.07
661.982	14.39
662.309	14.01
662.636	14.25
662.963	14.69
663.29	14.25
663.616	14.29
663.943	14.53
664.27	14.26
664.596	14.19
664.923	14.93
665.249	14.4
665.576	14.61
665.902	14.58
666.228	14.24
666.554	14.47
666.881	14.58
667.207	14.68
667.533	15.07
667.859	14.38
668.185	14.9
668.511	14.53
668.837	14.22
669.162	14.58
669.488	14.99
669.814	15.65
670.139	15.23
670.465	14.99
670.791	15.31
671.116	15.1
671.442	15.02
671.767	15.13
672.092	15.92
672.418	15.62
672.743	15.44
673.068	14.94
673.393	15.66
673.718	15.43
674.043	15.64
674.368	15.55
674.693	15.59
675.018	16.04
675.343	15.81
675.667	16.01
675.992	15.16
676.317	16.03
676.641	15.86
676.966	15.46
677.29	15.43
677.615	15.77
677.939	16.18
678.264	15.19
678.588	15.78
678.912	15.79
679.236	16.52
679.56	15.83
679.885	16.03
680.209	15.98
680.532	16.32
680.856	16.46
681.18	16.36
681.504	15.87
681.828	15.74
682.152	16.12
682.475	16.21
682.799	16.34
683.122	15.98
683.446	16.1
683.769	17.04
684.093	16.6
684.416	16.06
684.739	16.85
685.062	16.84
685.386	16.58
685.709	16.65
686.032	16.9
686.355	16.73
686.678	16.81
687.001	15.88
