Data from 0063_crown_Reflection__0__213.txt Node

Date: Fri Dec 16 15:39:18 CST 2022
User: ToomeyLab
Spectrometer: FLMS14357
Trigger mode: 0
Integration Time (sec): 1.000000E-2
Scans to average: 100
Electric dark correction enabled: true
Nonlinearity correction enabled: false
Boxcar width: 0
XAxis mode: Wavelengths
Number of Pixels in Spectrum: 2048
>>>>>Begin Spectral Data<<<<<
189.047	-54.8
189.435	-54.8
189.823	-54.8
190.211	194.36
190.599	24.33
190.987	-359.52
191.375	137.69
191.763	113.08
192.151	-214.42
192.538	290.36
192.926	990.84
193.314	1.44
193.702	221.42
194.089	-55.51
194.477	-59.28
194.864	-31.16
195.252	223.41
195.639	70.34
196.027	-377.28
196.414	-44.53
196.801	-403.81
197.189	97.47
197.576	85.55
197.963	-191.73
198.351	1.8
198.738	-44.71
199.125	24.1
199.512	-14.19
199.899	-99.95
200.286	-115.96
200.673	28.62
201.06	30.08
201.447	6.87
201.833	-61.08
202.22	-11.49
202.607	-6.59
202.994	-14.45
203.38	22.39
203.767	-64.74
204.154	-168.5
204.54	-4.3
204.927	-6.12
205.313	24.57
205.699	-32.76
206.086	-43.39
206.472	23.59
206.858	-0.81
207.245	-12.67
207.631	-68.38
208.017	10.72
208.403	1.53
208.789	-38.96
209.175	31.06
209.561	-51.76
209.947	-31.85
210.333	-67.14
210.719	-40.58
211.105	-43.14
211.491	-26.16
211.876	-15.87
212.262	-61.9
212.648	-42.79
213.034	-3.64
213.419	13
213.805	-26.85
214.19	-10.82
214.576	-33.7
214.961	-28.41
215.346	-11.76
215.732	-11.05
216.117	-53.81
216.502	-24.33
216.888	-42.79
217.273	-1.56
217.658	-23.97
218.043	1.92
218.428	-25.69
218.813	-32.14
219.198	-40.82
219.583	3.81
219.968	-10.81
220.353	2.06
220.738	-24.76
221.122	1.61
221.507	-11.67
221.892	-11.76
222.276	-8.11
222.661	4.86
223.046	16.84
223.43	-12.4
223.815	-10.36
224.199	-7.99
224.583	-13.32
224.968	9.79
225.352	-5.67
225.736	0.88
226.121	-8.25
226.505	4.63
226.889	8.01
227.273	6.85
227.657	0.5
228.041	6.06
228.425	5.45
228.809	1.46
229.193	3.39
229.577	3.66
229.961	6.12
230.344	6.49
230.728	6.09
231.112	5.02
231.495	3.66
231.879	6.13
232.263	5.01
232.646	3.65
233.03	3.58
233.413	4.29
233.797	6.19
234.18	3.83
234.563	4.35
234.946	3.9
235.33	6.15
235.713	5.82
236.096	4.65
236.479	6.92
236.862	3.68
237.245	5.3
237.628	5
238.011	3.62
238.394	6.58
238.777	4.07
239.16	2.73
239.543	2.47
239.925	6.28
240.308	4.28
240.691	3.75
241.073	4.91
241.456	4.16
241.838	4.43
242.221	4.75
242.603	5
242.986	5.27
243.368	4.89
243.75	4.75
244.133	5.47
244.515	5.62
244.897	5.52
245.279	4.75
245.661	4.82
246.043	6.02
246.425	3.73
246.807	4.94
247.189	5.08
247.571	5.52
247.953	5.31
248.335	5.58
248.717	5.08
249.098	5.34
249.48	4.62
249.862	5.11
250.243	5.17
250.625	5.07
251.006	5.32
251.388	4.85
251.769	4.54
252.151	3.64
252.532	5.21
252.913	4.39
253.295	4.76
253.676	4.98
254.057	4.35
254.438	4.57
254.819	6.04
255.2	5.38
255.581	3.45
255.962	4.38
256.343	4.86
256.724	4.5
257.105	4.82
257.486	4.32
257.867	3.35
258.247	4.86
258.628	5.36
259.009	5.16
259.389	4.64
259.77	3.95
260.15	5.27
260.531	4.98
260.911	4.87
261.292	4.91
261.672	4.82
262.052	4.85
262.432	4.03
262.813	4.37
263.193	3.28
263.573	4.53
263.953	4.89
264.333	4.99
264.713	3.98
265.093	4.43
265.473	4.72
265.853	3.94
266.233	4.55
266.612	4.63
266.992	4.54
267.372	4.23
267.752	4.39
268.131	4.36
268.511	4.84
268.89	4.58
269.27	4.63
269.649	4.68
270.029	4.69
270.408	3.8
270.787	4.29
271.167	4.5
271.546	4.32
271.925	4.03
272.304	4.56
272.683	3.89
273.062	4.71
273.441	4.86
273.82	4.95
274.199	4.67
274.578	4.47
274.957	4.41
275.336	4.75
275.715	4.83
276.093	4.87
276.472	4.69
276.851	4.26
277.229	4.88
277.608	4.11
277.986	4.41
278.365	4.09
278.743	4.57
279.122	4.24
279.5	3.5
279.878	3.58
280.257	4.09
280.635	4.4
281.013	4.96
281.391	3.9
281.769	3.78
282.147	4.9
282.525	4.13
282.903	4.53
283.281	4.75
283.659	4.49
284.037	4.16
284.415	4.49
284.792	3.7
285.17	4.01
285.548	3.56
285.925	4.19
286.303	4.33
286.68	4.5
287.058	4.07
287.435	4.22
287.813	4.05
288.19	4.59
288.567	3.88
288.945	4.25
289.322	4.03
289.699	3.99
290.076	4.45
290.453	4.09
290.83	4.16
291.207	4.03
291.584	4
291.961	3.97
292.338	3.92
292.715	4.5
293.092	3.92
293.469	4.07
293.845	3.97
294.222	4.31
294.599	4.22
294.975	4.5
295.352	3.75
295.728	4.2
296.105	4.07
296.481	4.54
296.858	3.61
297.234	3.79
297.61	3.97
297.986	4.33
298.363	3.75
298.739	3.95
299.115	3.55
299.491	3.98
299.867	4.36
300.243	4.24
300.619	4.36
300.995	4.13
301.371	3.98
301.746	3.94
302.122	4.33
302.498	4.25
302.874	4.24
303.249	4.21
303.625	4.16
304	3.7
304.376	4.29
304.751	3.66
305.127	4.47
305.502	4.02
305.878	3.67
306.253	4.09
306.628	4.37
307.003	3.58
307.378	3.94
307.754	4.42
308.129	3.32
308.504	3.8
308.879	3.96
309.254	3.97
309.629	3.83
310.003	4.52
310.378	3.8
310.753	3.84
311.128	3.75
311.502	4.4
311.877	3.9
312.252	4.21
312.626	3.59
313.001	3.76
313.375	3.79
313.75	3.8
314.124	4.53
314.498	3.28
314.873	4.12
315.247	3.74
315.621	4.6
315.995	3.89
316.369	4.03
316.743	3.93
317.117	3.75
317.491	3.86
317.865	3.91
318.239	3.99
318.613	3.72
318.987	3.61
319.361	3.65
319.734	4.16
320.108	3.99
320.482	3.73
320.855	3.73
321.229	4.18
321.602	3.57
321.976	3.57
322.349	2.74
322.723	3.17
323.096	3.65
323.469	3.14
323.843	4.04
324.216	3.16
324.589	3.89
324.962	3.61
325.335	3.59
325.708	3.64
326.081	3.93
326.454	3.66
326.827	4.05
327.2	4.38
327.573	3.77
327.945	3.53
328.318	3.8
328.691	3.56
329.063	3.55
329.436	3.56
329.809	3.52
330.181	3.52
330.553	3.51
330.926	3.98
331.298	3.24
331.671	3.89
332.043	4.01
332.415	3.76
332.787	4.12
333.159	3.44
333.532	4.17
333.904	3.96
334.276	3.52
334.648	3.51
335.02	3.68
335.391	4.07
335.763	3.72
336.135	3.56
336.507	3.9
336.879	3.76
337.25	3.87
337.622	3.19
337.993	4.16
338.365	4.07
338.736	4.05
339.108	3.4
339.479	3.6
339.851	4.11
340.222	3.4
340.593	3.55
340.964	3.54
341.336	3.04
341.707	3.45
342.078	3.59
342.449	3.83
342.82	3.97
343.191	3.65
343.562	3.75
343.933	3.82
344.303	4.04
344.674	3.95
345.045	4.13
345.416	3.71
345.786	3.19
346.157	3.87
346.527	3.58
346.898	3.85
347.268	3.81
347.639	3.95
348.009	3.99
348.38	3.71
348.75	3.63
349.12	3.66
349.49	3.7
349.861	4
350.231	4.46
350.601	3.96
350.971	3.47
351.341	3.77
351.711	3.83
352.081	3.49
352.45	3.87
352.82	4
353.19	3.1
353.56	3.38
353.929	3.91
354.299	4.18
354.669	3.71
355.038	3.98
355.408	4.25
355.777	3.74
356.147	3.89
356.516	4.03
356.885	3.41
357.254	3.92
357.624	4.08
357.993	3.81
358.362	3.89
358.731	3.9
359.1	4.29
359.469	3.6
359.838	3.64
360.207	3.66
360.576	3.93
360.945	3.73
361.314	4.12
361.682	3.69
362.051	3.84
362.42	4.14
362.788	4.01
363.157	3.64
363.525	3.72
363.894	3.63
364.262	3.71
364.631	4.33
364.999	3.71
365.367	3.97
365.735	3.37
366.104	3.67
366.472	3.89
366.84	3.75
367.208	3.72
367.576	4.07
367.944	4
368.312	3.73
368.68	4.19
369.048	3.7
369.416	3.76
369.783	3.64
370.151	3.82
370.519	3.88
370.886	3.69
371.254	4.18
371.621	3.71
371.989	4.02
372.356	3.72
372.724	3.91
373.091	3.74
373.458	4
373.826	3.94
374.193	4.2
374.56	3.58
374.927	3.95
375.294	4.1
375.661	3.83
376.028	4.07
376.395	3.98
376.762	4.26
377.129	3.9
377.496	4.01
377.863	3.95
378.229	3.96
378.596	3.89
378.963	3.99
379.329	4.01
379.696	4.03
380.062	4.19
380.429	4.21
380.795	3.89
381.161	3.83
381.528	3.75
381.894	4.07
382.26	3.83
382.626	3.87
382.993	3.88
383.359	3.96
383.725	4.13
384.091	4.13
384.457	4.11
384.823	3.93
385.188	4.3
385.554	4.21
385.92	4.25
386.286	4.09
386.651	3.88
387.017	4.07
387.383	4.01
387.748	3.85
388.114	4.18
388.479	3.95
388.845	3.86
389.21	4.16
389.575	4.02
389.94	3.88
390.306	4.09
390.671	4.02
391.036	3.97
391.401	4.33
391.766	4.01
392.131	3.95
392.496	3.89
392.861	3.91
393.226	3.98
393.591	4.04
393.956	4.11
394.32	4.15
394.685	4.31
395.05	3.95
395.414	4.24
395.779	4.06
396.143	4.05
396.508	3.99
396.872	4.2
397.236	3.93
397.601	4.18
397.965	3.79
398.329	4.46
398.694	3.82
399.058	3.99
399.422	4.29
399.786	4.1
400.15	4.01
400.514	4.05
400.878	4.13
401.242	4.16
401.605	3.79
401.969	4.15
402.333	4.01
402.697	4.19
403.06	4.1
403.424	4.27
403.787	4.24
404.151	3.77
404.514	4.3
404.878	4.29
405.241	4.23
405.604	4.24
405.968	4.19
406.331	4.2
406.694	3.98
407.057	4.37
407.42	4.1
407.783	4.1
408.146	4.07
408.509	4.05
408.872	4.17
409.235	4.16
409.598	4.54
409.961	4.22
410.323	4.11
410.686	4.21
411.049	4.05
411.411	4.16
411.774	4.09
412.136	4.29
412.499	4.11
412.861	4.06
413.223	4.33
413.586	3.98
413.948	4.31
414.31	4.4
414.672	4.12
415.035	4.47
415.397	4.3
415.759	3.99
416.121	4.67
416.483	4.38
416.845	4.13
417.206	4.23
417.568	4.22
417.93	4.18
418.292	4.26
418.653	4.19
419.015	4.27
419.377	4.21
419.738	4.1
420.1	4.18
420.461	4.09
420.822	4.12
421.184	4.14
421.545	4.12
421.906	4.23
422.267	4.07
422.629	4.11
422.99	4.1
423.351	4.16
423.712	4.2
424.073	4.15
424.434	4.12
424.795	4.12
425.155	4.12
425.516	4.06
425.877	4.14
426.238	4.02
426.598	4.22
426.959	4.1
427.32	4.17
427.68	4.3
428.041	4.29
428.401	4.13
428.761	4.21
429.122	4.21
429.482	4.25
429.842	4.28
430.202	4.03
430.563	4.3
430.923	4.22
431.283	4.23
431.643	4.16
432.003	4.27
432.363	4.32
432.722	4.14
433.082	4.18
433.442	4.19
433.802	4.33
434.161	4.2
434.521	4.2
434.881	4.19
435.24	4.14
435.6	4.29
435.959	4.15
436.319	4.21
436.678	4.2
437.037	4.36
437.396	4.09
437.756	4.14
438.115	4.19
438.474	4.15
438.833	4.28
439.192	4.45
439.551	4.27
439.91	4.4
440.269	4.4
440.628	4.08
440.987	4.16
441.345	4.11
441.704	4.28
442.063	4.16
442.421	4.3
442.78	4.22
443.138	4.29
443.497	4.12
443.855	4.23
444.214	4.23
444.572	4.32
444.93	4.3
445.288	4.32
445.647	4.31
446.005	4.13
446.363	4.29
446.721	4.06
447.079	4.25
447.437	4.12
447.795	4.14
448.153	4.18
448.51	4.16
448.868	4.3
449.226	4.24
449.584	4.25
449.941	4.42
450.299	4.25
450.656	4.16
451.014	4.16
451.371	4.36
451.729	4.28
452.086	4.08
452.443	4.18
452.801	4.43
453.158	4.29
453.515	4.21
453.872	4.32
454.229	4.2
454.586	4.22
454.943	4.2
455.3	4.33
455.657	4.17
456.014	4.34
456.371	4.45
456.727	4.17
457.084	4.22
457.441	4.26
457.797	4.24
458.154	4.23
458.51	4.07
458.867	4.11
459.223	4.29
459.58	4.22
459.936	4.18
460.292	4.36
460.648	4.18
461.005	4.15
461.361	4.12
461.717	4.18
462.073	4.24
462.429	4.21
462.785	4.31
463.141	4.34
463.496	4.22
463.852	4.4
464.208	4.29
464.564	4.1
464.919	4.26
465.275	4.35
465.631	4.15
465.986	4.24
466.342	4.26
466.697	4.27
467.052	4.26
467.408	4.11
467.763	4.21
468.118	4.26
468.473	4.41
468.829	4.17
469.184	4.38
469.539	4.18
469.894	4.37
470.249	4.24
470.603	4.31
470.958	4.29
471.313	4.18
471.668	4.43
472.023	4.35
472.377	4.19
472.732	4.39
473.086	4.21
473.441	4.44
473.795	4.34
474.15	4.18
474.504	4.34
474.859	4.33
475.213	4.24
475.567	4.24
475.921	4.37
476.275	4.42
476.63	4.33
476.984	4.29
477.338	4.44
477.692	4.34
478.045	4.32
478.399	4.39
478.753	4.1
479.107	4.18
479.461	4.34
479.814	4.17
480.168	4.3
480.521	4.26
480.875	4.34
481.228	4.3
481.582	4.19
481.935	4.14
482.289	4.18
482.642	4.3
482.995	4.24
483.348	4.29
483.701	4.25
484.055	4.14
484.408	4.15
484.761	3.98
485.114	3.98
485.466	3.98
485.819	4.01
486.172	4.07
486.525	4.12
486.878	4.14
487.23	4.2
487.583	4.15
487.936	4.18
488.288	4.08
488.641	4.12
488.993	4
489.345	4.05
489.698	4.12
490.05	4.17
490.402	4.16
490.754	4.28
491.107	4.2
491.459	4.28
491.811	4.29
492.163	4.26
492.515	4.18
492.866	4.08
493.218	4.09
493.57	4.16
493.922	4.14
494.274	4.22
494.625	4.17
494.977	4.25
495.328	4.39
495.68	4.33
496.031	4.37
496.383	4.28
496.734	4.29
497.086	4.22
497.437	4.35
497.788	4.21
498.139	4.27
498.49	4.31
498.842	4.23
499.193	4.31
499.544	4.35
499.894	4.25
500.245	4.23
500.596	4.22
500.947	4.31
501.298	4.26
501.648	4.33
501.999	4.45
502.35	4.4
502.7	4.4
503.051	4.4
503.401	4.27
503.752	4.31
504.102	4.33
504.452	4.34
504.803	4.25
505.153	4.38
505.503	4.18
505.853	4.22
506.203	4.26
506.553	4.4
506.903	4.38
507.253	4.28
507.603	4.23
507.953	4.37
508.303	4.32
508.652	4.33
509.002	4.37
509.352	4.27
509.701	4.31
510.051	4.32
510.4	4.37
510.75	4.32
511.099	4.34
511.449	4.3
511.798	4.45
512.147	4.31
512.496	4.29
512.846	4.3
513.195	4.34
513.544	4.21
513.893	4.18
514.242	4.21
514.591	4.32
514.939	4.29
515.288	4.37
515.637	4.41
515.986	4.26
516.334	4.34
516.683	4.49
517.032	4.37
517.38	4.38
517.729	4.3
518.077	4.33
518.426	4.23
518.774	4.41
519.122	4.21
519.47	4.32
519.819	4.33
520.167	4.21
520.515	4.24
520.863	4.26
521.211	4.27
521.559	4.32
521.907	4.21
522.255	4.31
522.602	4.32
522.95	4.3
523.298	4.27
523.645	4.29
523.993	4.53
524.341	4.35
524.688	4.44
525.036	4.44
525.383	4.37
525.73	4.35
526.078	4.44
526.425	4.21
526.772	4.15
527.119	4.23
527.466	4.28
527.814	4.25
528.161	4.28
528.508	4.23
528.854	4.17
529.201	4.23
529.548	4.12
529.895	4.07
530.242	4.08
530.588	4.15
530.935	4.17
531.282	4.21
531.628	4.2
531.975	4.26
532.321	4.23
532.667	4.26
533.014	4.29
533.36	4.22
533.706	4.35
534.052	4.23
534.399	4.18
534.745	4.13
535.091	4.15
535.437	4.23
535.783	4.32
536.129	4.28
536.474	4.37
536.82	4.35
537.166	4.27
537.512	4.26
537.857	4.37
538.203	4.22
538.549	4.32
538.894	4.31
539.239	4.47
539.585	4.43
539.93	4.36
540.276	4.36
540.621	4.38
540.966	4.38
541.311	4.34
541.656	4.29
542.001	4.34
542.346	4.2
542.691	4.11
543.036	4.21
543.381	4.24
543.726	4.27
544.071	4.27
544.415	4.24
544.76	4.22
545.105	4.36
545.449	4.31
545.794	4.31
546.138	4.34
546.483	4.34
546.827	4.36
547.171	4.33
547.516	4.39
547.86	4.3
548.204	4.26
548.548	4.42
548.892	4.37
549.236	4.44
549.58	4.34
549.924	4.41
550.268	4.39
550.612	4.44
550.956	4.41
551.3	4.46
551.643	4.53
551.987	4.28
552.33	4.29
552.674	4.41
553.017	4.48
553.361	4.29
553.704	4.27
554.048	4.54
554.391	4.38
554.734	4.38
555.077	4.46
555.42	4.36
555.764	4.5
556.107	4.49
556.45	4.37
556.793	4.62
557.135	4.6
557.478	4.46
557.821	4.31
558.164	4.47
558.507	4.41
558.849	4.33
559.192	4.51
559.534	4.26
559.877	4.51
560.219	4.4
560.562	4.43
560.904	4.35
561.246	4.36
561.589	4.5
561.931	4.49
562.273	4.36
562.615	4.54
562.957	4.41
563.299	4.44
563.641	4.47
563.983	4.5
564.325	4.39
564.667	4.46
565.008	4.35
565.35	4.6
565.692	4.71
566.033	4.47
566.375	4.34
566.716	4.51
567.058	4.42
567.399	4.26
567.741	4.5
568.082	4.37
568.423	4.39
568.764	4.43
569.105	4.39
569.447	4.49
569.788	4.42
570.129	4.48
570.47	4.57
570.811	4.64
571.151	4.44
571.492	4.48
571.833	4.41
572.174	4.4
572.514	4.28
572.855	4.59
573.195	4.35
573.536	4.4
573.876	4.34
574.217	4.52
574.557	4.42
574.898	4.45
575.238	4.4
575.578	4.54
575.918	4.26
576.258	4.51
576.598	4.5
576.938	4.58
577.278	4.5
577.618	4.45
577.958	4.43
578.298	4.58
578.638	4.33
578.977	4.48
579.317	4.52
579.657	4.4
579.996	4.58
580.336	4.43
580.675	4.46
581.014	4.33
581.354	4.63
581.693	4.51
582.032	4.37
582.372	4.58
582.711	4.57
583.05	4.81
583.389	4.62
583.728	4.5
584.067	4.59
584.406	4.76
584.745	4.42
585.083	4.47
585.422	4.54
585.761	4.64
586.1	4.64
586.438	4.51
586.777	4.43
587.115	4.39
587.454	4.48
587.792	4.56
588.13	4.64
588.469	4.72
588.807	4.71
589.145	4.7
589.483	4.35
589.821	4.68
590.159	4.38
590.497	4.28
590.835	4.4
591.173	4.47
591.511	4.51
591.849	4.52
592.187	4.47
592.524	4.41
592.862	4.55
593.2	4.51
593.537	4.44
593.875	4.51
594.212	4.51
594.55	4.52
594.887	4.53
595.224	4.39
595.561	4.68
595.899	4.37
596.236	4.48
596.573	4.35
596.91	4.55
597.247	4.4
597.584	4.73
597.921	4.59
598.258	4.4
598.594	4.19
598.931	4.46
599.268	4.36
599.604	4.64
599.941	4.46
600.277	4.44
600.614	4.57
600.95	4.62
601.287	4.56
601.623	4.8
601.959	4.59
602.296	4.75
602.632	4.81
602.968	4.48
603.304	4.5
603.64	4.69
603.976	4.4
604.312	4.59
604.648	4.57
604.984	4.67
605.319	4.57
605.655	4.58
605.991	4.56
606.326	4.48
606.662	4.39
606.998	4.36
607.333	4.37
607.668	4.6
608.004	4.55
608.339	4.44
608.674	4.46
609.01	4.47
609.345	4.71
609.68	4.52
610.015	4.46
610.35	4.62
610.685	4.6
611.02	4.53
611.355	4.56
611.689	4.35
612.024	4.71
612.359	4.57
612.694	4.74
613.028	4.83
613.363	4.74
613.697	4.59
614.032	4.46
614.366	4.32
614.7	4.94
615.035	4.6
615.369	4.63
615.703	4.86
616.037	4.6
616.371	4.45
616.705	4.64
617.039	4.68
617.373	4.56
617.707	4.43
618.041	4.7
618.375	4.38
618.709	4.44
619.042	4.53
619.376	4.48
619.71	4.29
620.043	4.71
620.377	4.38
620.71	4.58
621.043	4.48
621.377	4.74
621.71	4.69
622.043	4.62
622.376	4.42
622.709	4.98
623.043	4.33
623.376	4.76
623.709	4.65
624.041	4.59
624.374	4.47
624.707	4.29
625.04	4.7
625.373	4.32
625.705	4.73
626.038	4.66
626.37	4.55
626.703	4.65
627.035	4.71
627.368	4.78
627.7	4.64
628.032	4.82
628.365	4.26
628.697	4.69
629.029	4.9
629.361	4.22
629.693	4.7
630.025	4.71
630.357	4.67
630.689	4.82
631.021	4.7
631.353	4.8
631.684	5.08
632.016	4.49
632.348	4.6
632.679	4.76
633.011	4.9
633.342	5.02
633.674	4.72
634.005	4.55
634.336	4.48
634.668	4.68
634.999	4.65
635.33	4.54
635.661	4.79
635.992	4.73
636.323	4.93
636.654	4.66
636.985	4.37
637.316	4.61
637.647	4.41
637.977	4.62
638.308	4.72
638.639	4.26
638.969	4.75
639.3	4.84
639.63	4.47
639.961	4.58
640.291	4.71
640.622	4.89
640.952	4.91
641.282	4.41
641.612	4.92
641.943	4.91
642.273	4.69
642.603	4.72
642.933	4.58
643.263	4.86
643.592	4.64
643.922	5.21
644.252	4.65
644.582	4.42
644.911	4.14
645.241	4.56
645.571	4.45
645.9	5.05
646.23	4.6
646.559	4.7
646.888	4.96
647.218	4.9
647.547	4.92
647.876	4.89
648.205	4.11
648.534	4.5
648.863	5.33
649.192	4.59
649.521	4.34
649.85	5.01
650.179	4.23
650.508	4.95
650.837	4.92
651.165	4.69
651.494	4.86
651.822	5.05
652.151	5.1
652.479	5.3
652.808	4.12
653.136	4.95
653.465	5.08
653.793	4.82
654.121	4.96
654.449	4.68
654.777	4.71
655.105	4.96
655.433	5.19
655.761	4.47
656.089	4.96
656.417	4.53
656.745	5.58
657.073	4.85
657.4	4.78
657.728	4.93
658.056	4.63
658.383	4.71
658.711	4.83
659.038	5.38
659.365	4.53
659.693	4.52
660.02	4.66
660.347	4.84
660.674	4.75
661.001	4.67
661.329	4.86
661.656	4.84
661.982	4.75
662.309	4.7
662.636	4.79
662.963	4.95
663.29	4.83
663.616	4.76
663.943	5.1
664.27	4.84
664.596	4.65
664.923	5.06
665.249	4.79
665.576	4.99
665.902	5.02
666.228	4.71
666.554	4.62
666.881	5.16
667.207	4.34
667.533	4.76
667.859	4.83
668.185	4.94
668.511	4.64
668.837	4.36
669.162	4.88
669.488	5.01
669.814	5.09
670.139	5
670.465	4.87
670.791	5.03
671.116	4.84
671.442	4.83
671.767	4.95
672.092	5.17
672.418	4.9
672.743	4.84
673.068	4.59
673.393	5.22
673.718	4.82
674.043	5.12
674.368	4.92
674.693	5.05
675.018	4.88
675.343	4.87
675.667	4.75
675.992	4.53
676.317	4.72
676.641	5
676.966	5.28
677.29	5.03
677.615	4.94
677.939	4.86
678.264	5.11
678.588	5.29
678.912	5.27
679.236	5.16
679.56	4.36
679.885	5.02
680.209	4.45
680.532	4.61
680.856	4.75
681.18	4.84
681.504	4.66
681.828	4.51
682.152	4.85
682.475	4.94
682.799	5.79
683.122	4.77
683.446	4.78
683.769	4.8
684.093	5.29
684.416	4.62
684.739	4.87
685.062	4.73
685.386	4.79
685.709	5.06
686.032	4.99
686.355	4.8
686.678	5.12
687.001	4.17
687.324	4.76
687.646	4.4
687.969	5.01
688.292	5.66
688.614	5.28
688.937	4.73
689.26	4.62
689.582	5.1
689.904	5.32
690.227	4.68
690.549	5.23
690.871	5.04
691.194	5.49
691.516	4.54
691.838	5.18
