Data from 0063_chest_Reflection__2__210.txt Node

Date: Fri Dec 16 15:38:00 CST 2022
User: ToomeyLab
Spectrometer: FLMS14357
Trigger mode: 0
Integration Time (sec): 1.000000E-2
Scans to average: 100
Electric dark correction enabled: true
Nonlinearity correction enabled: false
Boxcar width: 0
XAxis mode: Wavelengths
Number of Pixels in Spectrum: 2048
>>>>>Begin Spectral Data<<<<<
189.047	-261.95
189.435	-261.95
189.823	-261.95
190.211	390.26
190.599	82.73
190.987	180.97
191.375	-39.22
191.763	391.53
192.151	-118.2
192.538	242.56
192.926	-362.27
193.314	142.75
193.702	-165.43
194.089	-307.1
194.477	-18.55
194.864	236.59
195.252	135.93
195.639	86.58
196.027	165.82
196.414	-736.13
196.801	-492.74
197.189	129.49
197.576	18.88
197.963	-315.88
198.351	-21.56
198.738	-23.51
199.125	42.11
199.512	25.44
199.899	-109.55
200.286	-35.64
200.673	28.9
201.06	35.52
201.447	18.22
201.833	-7.81
202.22	29.06
202.607	-53.34
202.994	-18.51
203.38	-54.41
203.767	-2.65
204.154	-64.64
204.54	11.32
204.927	11.65
205.313	28.55
205.699	13.27
206.086	16.78
206.472	15.08
206.858	-4.52
207.245	-0.72
207.631	-59.17
208.017	14.91
208.403	-3.7
208.789	-10.81
209.175	42.54
209.561	-12.8
209.947	-1.15
210.333	-57.74
210.719	5.71
211.105	-11.86
211.491	2.77
211.876	2.72
212.262	-74.24
212.648	-56.31
213.034	2.19
213.419	4.27
213.805	-4.38
214.19	-15.96
214.576	-18.63
214.961	12.56
215.346	-40
215.732	-50.29
216.117	-3.15
216.502	-17.4
216.888	-49.55
217.273	24.28
217.658	-27.79
218.043	12.8
218.428	-11.25
218.813	2.13
219.198	-34.95
219.583	15.85
219.968	5.1
220.353	7.46
220.738	12.91
221.122	-12.22
221.507	-12.61
221.892	0.25
222.276	12.88
222.661	-5.85
223.046	8.88
223.43	0.19
223.815	3.05
224.199	9
224.583	5.79
224.968	7.13
225.352	-3.9
225.736	-3.17
226.121	-7.49
226.505	5.8
226.889	1.6
227.273	3.29
227.657	-1.1
228.041	1.81
228.425	0.55
228.809	1.07
229.193	1.36
229.577	3.01
229.961	2.86
230.344	3.07
230.728	3.14
231.112	3.22
231.495	2.33
231.879	2.35
232.263	0.6
232.646	2
233.03	0.42
233.413	1.84
233.797	4.33
234.18	-0.15
234.563	3.45
234.946	0.92
235.33	3.34
235.713	2.33
236.096	1.04
236.479	3.26
236.862	4.55
237.245	5.69
237.628	4.12
238.011	1.04
238.394	3.99
238.777	3.07
239.16	1.12
239.543	2.81
239.925	2.63
240.308	2.6
240.691	2.01
241.073	3.78
241.456	2.22
241.838	2.28
242.221	3.21
242.603	3.31
242.986	4.2
243.368	3.12
243.75	2.96
244.133	2.98
244.515	3.36
244.897	2.78
245.279	2.46
245.661	2.63
246.043	2.9
246.425	2.43
246.807	2.24
247.189	2.48
247.571	2.96
247.953	3.02
248.335	3.3
248.717	3.19
249.098	3.01
249.48	2.86
249.862	3.36
250.243	3
250.625	3.45
251.006	3.03
251.388	2.97
251.769	1.67
252.151	3.12
252.532	2.33
252.913	3.09
253.295	3.28
253.676	3.54
254.057	2.72
254.438	2.62
254.819	2.56
255.2	2.42
255.581	2.15
255.962	2.25
256.343	3.4
256.724	2.09
257.105	2.51
257.486	1.93
257.867	1.19
258.247	3.01
258.628	4.14
259.009	2.58
259.389	2.69
259.77	3.29
260.15	3.68
260.531	3.21
260.911	2.84
261.292	2.81
261.672	2.7
262.052	2.72
262.432	2.45
262.813	2.95
263.193	2.63
263.573	2.96
263.953	2.52
264.333	2.51
264.713	2.81
265.093	2.44
265.473	4.12
265.853	2.59
266.233	3.16
266.612	2.92
266.992	2.64
267.372	3.2
267.752	2.57
268.131	2.6
268.511	2.85
268.89	3.26
269.27	2.93
269.649	3.45
270.029	2.71
270.408	2.44
270.787	3.06
271.167	2.5
271.546	1.99
271.925	2.47
272.304	2.89
272.683	2.48
273.062	2.96
273.441	2.93
273.82	2.69
274.199	2.56
274.578	2.26
274.957	3.12
275.336	2.55
275.715	3.25
276.093	3.33
276.472	2.89
276.851	3.02
277.229	3.54
277.608	2.46
277.986	2.5
278.365	2.43
278.743	2.68
279.122	2.39
279.5	2.53
279.878	2.26
280.257	2.71
280.635	2.79
281.013	2.91
281.391	2.49
281.769	2.22
282.147	2.86
282.525	2.64
282.903	2.98
283.281	2.64
283.659	2.85
284.037	2.31
284.415	2.87
284.792	2.45
285.17	2.17
285.548	2.49
285.925	3.21
286.303	2.49
286.68	2.83
287.058	2.59
287.435	2.62
287.813	3.18
288.19	3.06
288.567	2.42
288.945	2.69
289.322	2.51
289.699	2.73
290.076	2.71
290.453	2.65
290.83	3.1
291.207	2.47
291.584	2.59
291.961	2.77
292.338	2.79
292.715	2.63
293.092	2.42
293.469	2.65
293.845	3.03
294.222	2.74
294.599	2.95
294.975	2.66
295.352	2.75
295.728	2.74
296.105	2.68
296.481	2.73
296.858	2.92
297.234	2.53
297.61	2.72
297.986	2.64
298.363	2.57
298.739	2.7
299.115	2.46
299.491	2.47
299.867	2.7
300.243	2.7
300.619	2.23
300.995	2.66
301.371	2.9
301.746	2.71
302.122	2.87
302.498	2.86
302.874	2.76
303.249	3.01
303.625	3.07
304	2.45
304.376	2.73
304.751	2.63
305.127	2.86
305.502	3.1
305.878	2.59
306.253	2.93
306.628	2.87
307.003	2.92
307.378	2.68
307.754	2.35
308.129	2.46
308.504	2.54
308.879	2.99
309.254	2.93
309.629	2.58
310.003	2.66
310.378	2.62
310.753	2.78
311.128	2.39
311.502	2.55
311.877	2.81
312.252	2.55
312.626	2.53
313.001	2.67
313.375	2.65
313.75	2.24
314.124	3.31
314.498	2.52
314.873	2.61
315.247	2.28
315.621	2.62
315.995	2.38
316.369	2.46
316.743	2.97
317.117	2.61
317.491	2.64
317.865	2.06
318.239	3.4
318.613	3.07
318.987	2.52
319.361	2.35
319.734	2.42
320.108	2.46
320.482	2.3
320.855	2.76
321.229	3.42
321.602	2.31
321.976	2.79
322.349	2.03
322.723	2.46
323.096	2.5
323.469	2.45
323.843	2.5
324.216	2.48
324.589	3.17
324.962	2.92
325.335	2.56
325.708	2.86
326.081	3.07
326.454	2.92
326.827	2.58
327.2	3.4
327.573	2.74
327.945	2.87
328.318	2.85
328.691	2.7
329.063	2.24
329.436	2.54
329.809	2.34
330.181	3.11
330.553	2.9
330.926	2.56
331.298	2.73
331.671	2.68
332.043	2.97
332.415	3.06
332.787	3.01
333.159	2.95
333.532	3.18
333.904	2.77
334.276	2.67
334.648	2.67
335.02	2.61
335.391	2.99
335.763	2.79
336.135	2.67
336.507	2.46
336.879	3.24
337.25	3.56
337.622	3.02
337.993	2.99
338.365	3.06
338.736	2.87
339.108	2.67
339.479	2.67
339.851	3.14
340.222	2.98
340.593	2.92
340.964	2.58
341.336	2.41
341.707	2.61
342.078	2.51
342.449	2.75
342.82	2.63
343.191	2.46
343.562	2.49
343.933	2.71
344.303	2.76
344.674	2.57
345.045	3.1
345.416	2.9
345.786	2.24
346.157	2.57
346.527	2.51
346.898	2.88
347.268	2.65
347.639	2.88
348.009	3.23
348.38	2.84
348.75	2.39
349.12	2.87
349.49	2.73
349.861	3.12
350.231	3.26
350.601	2.92
350.971	2.78
351.341	2.82
351.711	2.52
352.081	2.92
352.45	2.73
352.82	3.2
353.19	2.85
353.56	2.59
353.929	2.72
354.299	2.57
354.669	2.83
355.038	2.46
355.408	3.5
355.777	2.84
356.147	3.13
356.516	3.05
356.885	2.59
357.254	2.98
357.624	3.02
357.993	2.51
358.362	2.8
358.731	2.84
359.1	3.01
359.469	2.76
359.838	2.79
360.207	2.99
360.576	2.84
360.945	2.72
361.314	3.2
361.682	2.52
362.051	2.97
362.42	3.04
362.788	2.83
363.157	2.86
363.525	2.8
363.894	2.64
364.262	2.88
364.631	3.45
364.999	2.68
365.367	3.03
365.735	2.63
366.104	2.6
366.472	2.89
366.84	2.64
367.208	2.64
367.576	2.72
367.944	2.96
368.312	2.57
368.68	3.05
369.048	2.92
369.416	2.77
369.783	2.91
370.151	2.71
370.519	2.83
370.886	2.77
371.254	2.78
371.621	3.1
371.989	3.03
372.356	3.02
372.724	2.97
373.091	2.86
373.458	2.83
373.826	2.85
374.193	3.26
374.56	2.64
374.927	2.86
375.294	3.05
375.661	2.76
376.028	3.04
376.395	2.74
376.762	2.96
377.129	2.89
377.496	2.64
377.863	2.81
378.229	2.68
378.596	2.82
378.963	2.78
379.329	2.8
379.696	2.93
380.062	3.23
380.429	2.86
380.795	2.91
381.161	2.79
381.528	2.61
381.894	2.89
382.26	2.94
382.626	2.81
382.993	2.84
383.359	2.94
383.725	3.07
384.091	2.71
384.457	3.1
384.823	3.01
385.188	3.03
385.554	3.1
385.92	3.31
386.286	3.11
386.651	2.86
387.017	3.02
387.383	2.83
387.748	2.83
388.114	2.96
388.479	3.03
388.845	2.81
389.21	3.06
389.575	3.04
389.94	2.9
390.306	2.85
390.671	2.81
391.036	2.99
391.401	3.16
391.766	2.92
392.131	2.94
392.496	3.1
392.861	2.67
393.226	3.07
393.591	3.02
393.956	3.17
394.32	2.98
394.685	3.04
395.05	2.82
395.414	2.95
395.779	3.06
396.143	3.09
396.508	3.16
396.872	3.02
397.236	2.72
397.601	3.12
397.965	2.67
398.329	3.07
398.694	2.77
399.058	2.86
399.422	3.03
399.786	3.01
400.15	2.92
400.514	3.1
400.878	3.17
401.242	3.14
401.605	3.01
401.969	3.15
402.333	3.01
402.697	3.31
403.06	3.36
403.424	3.05
403.787	3.33
404.151	2.91
404.514	3.18
404.878	3.1
405.241	3.2
405.604	2.97
405.968	3.06
406.331	3.17
406.694	3.1
407.057	3.24
407.42	3.13
407.783	2.95
408.146	3.02
408.509	2.97
408.872	2.99
409.235	3.18
409.598	3.1
409.961	3.06
410.323	3.1
410.686	2.97
411.049	3.05
411.411	2.93
411.774	2.91
412.136	3.19
412.499	2.98
412.861	2.87
413.223	3.23
413.586	2.95
413.948	3.11
414.31	3.3
414.672	3.01
415.035	3.18
415.397	3.09
415.759	2.97
416.121	3.27
416.483	3.27
416.845	3.05
417.206	3.03
417.568	3.1
417.93	3.18
418.292	3.21
418.653	3.19
419.015	3.17
419.377	3.09
419.738	3.09
420.1	3.03
420.461	3.07
420.822	3.13
421.184	3.1
421.545	3.03
421.906	3.08
422.267	2.97
422.629	3.06
422.99	3.08
423.351	3.08
423.712	3.02
424.073	3.1
424.434	2.97
424.795	3.03
425.155	3.03
425.516	3.01
425.877	3.07
426.238	2.97
426.598	3.2
426.959	3.04
427.32	3.1
427.68	3.15
428.041	3.18
428.401	3.14
428.761	3
429.122	3
429.482	2.95
429.842	3.21
430.202	3.18
430.563	3.02
430.923	3.12
431.283	3.17
431.643	3.29
432.003	3.24
432.363	3.25
432.722	3.13
433.082	3.08
433.442	3.06
433.802	3.15
434.161	2.98
434.521	3.03
434.881	3.22
435.24	3.03
435.6	3.12
435.959	3.22
436.319	3.06
436.678	3.1
437.037	3.23
437.396	3.23
437.756	3.23
438.115	3.14
438.474	3.26
438.833	3.24
439.192	3.42
439.551	3.2
439.91	3.29
440.269	3.35
440.628	3.24
440.987	3.02
441.345	3.24
441.704	3.28
442.063	3.14
442.421	3.27
442.78	3.14
443.138	3.13
443.497	3.21
443.855	3.11
444.214	3.19
444.572	3.3
444.93	3.2
445.288	3.27
445.647	3.25
446.005	3.08
446.363	3.13
446.721	3.04
447.079	3.25
447.437	3.23
447.795	3.08
448.153	3.15
448.51	3.11
448.868	3.27
449.226	3.3
449.584	3.17
449.941	3.34
450.299	3.21
450.656	3.17
451.014	3.21
451.371	3.36
451.729	3.03
452.086	3.21
452.443	3.21
452.801	3.32
453.158	3.22
453.515	3.16
453.872	3.38
454.229	3.21
454.586	3.28
454.943	3.19
455.3	3.27
455.657	3.23
456.014	3.31
456.371	3.32
456.727	3.31
457.084	3.02
457.441	3.27
457.797	3.39
458.154	3.38
458.51	3.17
458.867	3.11
459.223	3.27
459.58	3.21
459.936	3.23
460.292	3.3
460.648	3.23
461.005	3.29
461.361	3.17
461.717	3.22
462.073	3.25
462.429	3.32
462.785	3.34
463.141	3.43
463.496	3.33
463.852	3.47
464.208	3.35
464.564	3.2
464.919	3.3
465.275	3.38
465.631	3.41
465.986	3.22
466.342	3.31
466.697	3.24
467.052	3.38
467.408	3.27
467.763	3.19
468.118	3.26
468.473	3.46
468.829	3.39
469.184	3.41
469.539	3.28
469.894	3.2
470.249	3.41
470.603	3.3
470.958	3.36
471.313	3.26
471.668	3.47
472.023	3.54
472.377	3.14
472.732	3.37
473.086	3.31
473.441	3.39
473.795	3.47
474.15	3.3
474.504	3.3
474.859	3.44
475.213	3.27
475.567	3.26
475.921	3.56
476.275	3.41
476.63	3.41
476.984	3.3
477.338	3.67
477.692	3.37
478.045	3.35
478.399	3.45
478.753	3.3
479.107	3.31
479.461	3.41
479.814	3.34
480.168	3.32
480.521	3.29
480.875	3.55
481.228	3.4
481.582	3.3
481.935	3.32
482.289	3.36
482.642	3.39
482.995	3.43
483.348	3.23
483.701	3.39
484.055	3.26
484.408	3.28
484.761	3.12
485.114	3.16
485.466	3.16
485.819	3.23
486.172	3.28
486.525	3.33
486.878	3.32
487.23	3.38
487.583	3.3
487.936	3.33
488.288	3.25
488.641	3.26
488.993	3.17
489.345	3.24
489.698	3.32
490.05	3.33
490.402	3.42
490.754	3.47
491.107	3.36
491.459	3.48
491.811	3.5
492.163	3.35
492.515	3.33
492.866	3.24
493.218	3.28
493.57	3.38
493.922	3.39
494.274	3.43
494.625	3.43
494.977	3.38
495.328	3.61
495.68	3.6
496.031	3.6
496.383	3.39
496.734	3.6
497.086	3.38
497.437	3.48
497.788	3.41
498.139	3.48
498.49	3.52
498.842	3.56
499.193	3.46
499.544	3.55
499.894	3.58
500.245	3.44
500.596	3.53
500.947	3.48
501.298	3.55
501.648	3.62
501.999	3.75
502.35	3.82
502.7	3.73
503.051	3.71
503.401	3.6
503.752	3.63
504.102	3.5
504.452	3.45
504.803	3.4
505.153	3.58
505.503	3.59
505.853	3.52
506.203	3.63
506.553	3.47
506.903	3.53
507.253	3.58
507.603	3.5
507.953	3.64
508.303	3.67
508.652	3.55
509.002	3.6
509.352	3.57
509.701	3.53
510.051	3.59
510.4	3.58
510.75	3.62
511.099	3.57
511.449	3.62
511.798	3.73
512.147	3.66
512.496	3.6
512.846	3.69
513.195	3.64
513.544	3.61
513.893	3.53
514.242	3.73
514.591	3.77
514.939	3.72
515.288	3.75
515.637	3.73
515.986	3.74
516.334	3.8
516.683	3.78
517.032	3.64
517.38	3.68
517.729	3.58
518.077	3.65
518.426	3.63
518.774	3.73
519.122	3.72
519.47	3.71
519.819	3.75
520.167	3.74
520.515	3.64
520.863	3.73
521.211	3.71
521.559	3.8
521.907	3.69
522.255	3.79
522.602	3.74
522.95	3.92
523.298	3.76
523.645	3.78
523.993	3.97
524.341	3.8
524.688	3.72
525.036	3.82
525.383	3.93
525.73	3.84
526.078	3.81
526.425	3.84
526.772	3.73
527.119	3.7
527.466	3.81
527.814	3.79
528.161	3.76
528.508	3.86
528.854	3.66
529.201	3.7
529.548	3.67
529.895	3.58
530.242	3.63
530.588	3.7
530.935	3.75
531.282	3.78
531.628	3.82
531.975	3.81
532.321	3.9
532.667	3.86
533.014	3.86
533.36	3.89
533.706	3.89
534.052	3.85
534.399	3.79
534.745	3.78
535.091	3.81
535.437	3.9
535.783	3.9
536.129	3.92
536.474	4.01
536.82	4.01
537.166	3.95
537.512	4.03
537.857	3.97
538.203	3.91
538.549	4.09
538.894	3.99
539.239	4.19
539.585	3.99
539.93	4.13
540.276	4.04
540.621	4.1
540.966	4.08
541.311	4.14
541.656	4.05
542.001	4.01
542.346	3.97
542.691	3.9
543.036	3.97
543.381	4
543.726	4.01
544.071	4.09
544.415	4.09
544.76	4.02
545.105	4.05
545.449	4.12
545.794	4.2
546.138	4.24
546.483	4.15
546.827	4.13
547.171	4.17
547.516	4.28
547.86	4.1
548.204	4.15
548.548	4.27
548.892	4.28
549.236	4.31
549.58	4.24
549.924	4.25
550.268	4.33
550.612	4.41
550.956	4.19
551.3	4.37
551.643	4.41
551.987	4.36
552.33	4.43
552.674	4.53
553.017	4.48
553.361	4.37
553.704	4.38
554.048	4.38
554.391	4.29
554.734	4.41
555.077	4.28
555.42	4.44
555.764	4.39
556.107	4.52
556.45	4.3
556.793	4.68
557.135	4.51
557.478	4.57
557.821	4.44
558.164	4.6
558.507	4.6
558.849	4.4
559.192	4.6
559.534	4.41
559.877	4.62
560.219	4.67
560.562	4.53
560.904	4.56
561.246	4.75
561.589	4.6
561.931	4.66
562.273	4.54
562.615	4.7
562.957	4.62
563.299	4.68
563.641	4.7
563.983	4.72
564.325	4.58
564.667	4.66
565.008	4.66
565.35	4.77
565.692	4.89
566.033	4.87
566.375	4.65
566.716	4.78
567.058	4.86
567.399	4.78
567.741	4.77
568.082	4.84
568.423	4.75
568.764	4.93
569.105	4.92
569.447	4.88
569.788	4.91
570.129	4.88
570.47	4.87
570.811	4.94
571.151	4.75
571.492	4.85
571.833	4.91
572.174	4.88
572.514	4.86
572.855	5
573.195	4.8
573.536	4.85
573.876	4.85
574.217	5.12
574.557	5.03
574.898	5.09
575.238	4.96
575.578	5.19
575.918	4.93
576.258	5
576.598	4.97
576.938	5.16
577.278	5.08
577.618	5.1
577.958	5.08
578.298	5.23
578.638	5.18
578.977	5.33
579.317	5.23
579.657	5.21
579.996	5.13
580.336	5.1
580.675	5.13
581.014	5.27
581.354	5.2
581.693	5.3
582.032	4.94
582.372	5.28
582.711	5.32
583.05	5.48
583.389	5.47
583.728	5.55
584.067	5.4
584.406	5.55
584.745	5.24
585.083	5.49
585.422	5.46
585.761	5.68
586.1	5.44
586.438	5.44
586.777	5.32
587.115	5.4
587.454	5.62
587.792	5.29
588.13	5.7
588.469	5.6
588.807	5.83
589.145	5.78
589.483	5.38
589.821	5.78
590.159	5.49
590.497	5.38
590.835	5.74
591.173	5.85
591.511	5.69
591.849	5.81
592.187	5.71
592.524	5.72
592.862	5.72
593.2	5.81
593.537	5.59
593.875	5.82
594.212	5.84
594.55	5.88
594.887	5.98
595.224	5.81
595.561	5.8
595.899	5.85
596.236	5.94
596.573	5.92
596.91	6.04
597.247	5.77
597.584	6.07
597.921	6.01
598.258	6.15
598.594	5.75
598.931	5.83
599.268	5.91
599.604	6.02
599.941	5.96
600.277	5.82
600.614	6.15
600.95	6.18
601.287	6.1
601.623	6.04
601.959	6.03
602.296	6.3
602.632	6.21
602.968	5.95
603.304	6.2
603.64	6.19
603.976	6.05
604.312	6.15
604.648	6.49
604.984	6.1
605.319	6.23
605.655	6.27
605.991	6.14
606.326	6.29
606.662	6.12
606.998	6.29
607.333	6.27
607.668	6.43
608.004	6.38
608.339	6.17
608.674	6.3
609.01	6.4
609.345	6.68
609.68	6.4
610.015	6.55
610.35	6.56
610.685	6.65
611.02	6.63
611.355	6.62
611.689	6.35
612.024	6.63
612.359	6.74
612.694	6.7
613.028	6.9
613.363	6.49
613.697	6.94
614.032	6.8
614.366	6.69
614.7	7.04
615.035	6.76
615.369	6.86
615.703	7.06
616.037	6.75
616.371	6.5
616.705	6.97
617.039	7.17
617.373	6.89
617.707	6.93
618.041	6.91
618.375	7.01
618.709	6.98
619.042	6.95
619.376	6.87
619.71	7.08
620.043	6.78
620.377	7.35
620.71	6.97
621.043	7.05
621.377	6.87
621.71	7.12
622.043	7.52
622.376	6.87
622.709	7.27
623.043	7.1
623.376	7.2
623.709	7.22
624.041	7.11
624.374	7.12
624.707	7.12
625.04	7.61
625.373	7.29
625.705	7.41
626.038	7.22
626.37	7.09
626.703	7.45
627.035	7.47
627.368	7.55
627.7	7.56
628.032	7.52
628.365	7
628.697	7.15
629.029	7.64
629.361	7.31
629.693	7.74
630.025	7.28
630.357	7.54
630.689	7.79
631.021	7.84
631.353	7.84
631.684	7.59
632.016	7.61
632.348	7.86
632.679	7.27
633.011	7.4
633.342	7.52
633.674	7.89
634.005	7.93
634.336	7.85
634.668	7.7
634.999	7.74
635.33	7.75
635.661	7.75
635.992	7.75
636.323	7.71
636.654	7.73
636.985	7.56
637.316	8.09
637.647	7.88
637.977	7.84
638.308	7.82
638.639	7.87
638.969	8.04
639.3	7.97
639.63	7.68
639.961	8
640.291	8.5
640.622	8.29
640.952	7.82
641.282	7.47
641.612	8.23
641.943	7.97
642.273	8.09
642.603	7.98
642.933	7.97
643.263	8.35
643.592	8.31
643.922	8.67
644.252	8.48
644.582	7.99
644.911	8.38
645.241	8.43
645.571	8.1
645.9	8.42
646.23	8.21
646.559	8.2
646.888	7.99
647.218	8.45
647.547	8.35
647.876	8.54
648.205	8.58
648.534	8.44
648.863	8.98
649.192	8.44
649.521	8.13
649.85	8.84
650.179	8.21
650.508	8.57
650.837	8.59
651.165	9.08
651.494	8.75
651.822	8.6
652.151	9.73
652.479	9.26
652.808	8.46
653.136	8.74
653.465	9.03
653.793	9.13
654.121	8.88
654.449	8.95
654.777	9.01
655.105	9.06
655.433	8.96
655.761	8.87
656.089	9.36
656.417	8.88
656.745	9.77
657.073	9.54
657.4	9.34
657.728	8.71
658.056	9.04
658.383	8.98
658.711	9.07
659.038	9.51
659.365	9.51
659.693	8.57
660.02	8.86
660.347	9.21
660.674	9.72
661.001	8.95
661.329	9.28
661.656	9.33
661.982	9.14
662.309	9.49
662.636	9.32
662.963	9.87
663.29	9.4
663.616	9.63
663.943	9.77
664.27	9.47
664.596	9.3
664.923	9.87
665.249	9.48
665.576	9.38
665.902	9.27
666.228	9.32
666.554	8.94
666.881	9.88
667.207	9.05
667.533	10.23
667.859	9.81
668.185	10.01
668.511	9.42
668.837	9.17
669.162	9.84
669.488	9.35
669.814	10.32
670.139	10.04
670.465	9.71
670.791	9.97
671.116	10.19
671.442	10.06
671.767	10.05
672.092	10.27
672.418	9.67
672.743	9.74
673.068	9.71
673.393	9.86
673.718	9.77
674.043	9.99
674.368	10.48
674.693	10.45
675.018	10.07
675.343	10.2
675.667	9.73
675.992	9.88
676.317	10.59
676.641	9.91
676.966	10.88
677.29	9.95
677.615	10.32
677.939	10.25
678.264	10.13
678.588	10.56
678.912	10.7
679.236	10.51
679.56	9.74
679.885	11.06
680.209	10.16
680.532	10.3
680.856	11.11
681.18	10.52
681.504	10.5
681.828	10.05
682.152	10.57
682.475	10.73
682.799	11.04
683.122	10.62
683.446	10.79
683.769	10.83
684.093	10.73
684.416	10.39
684.739	11.18
685.062	10.06
685.386	11.29
685.709	10.8
686.032	11.01
686.355	10.49
686.678	10.6
687.001	10.21
687.324	10.41
687.646	10.66
687.969	10.82
688.292	11.32
688.614	11.64
688.937	11.24
689.26	10.42
689.582	10.88
689.904	11.05
690.227	10.89
690.549	11.21
690.871	11.85
691.194	10.75
