Data from 0063_crown_Reflection__4__217.txt Node

Date: Fri Dec 16 15:39:59 CST 2022
User: ToomeyLab
Spectrometer: FLMS14357
Trigger mode: 0
Integration Time (sec): 1.000000E-2
Scans to average: 100
Electric dark correction enabled: true
Nonlinearity correction enabled: false
Boxcar width: 0
XAxis mode: Wavelengths
Number of Pixels in Spectrum: 2048
>>>>>Begin Spectral Data<<<<<
189.047	-225.45
189.435	-225.45
189.823	-225.45
190.211	186.41
190.599	-57.99
190.987	-275.95
191.375	182.16
191.763	163.22
192.151	-84.95
192.538	62.1
192.926	595.79
193.314	71.41
193.702	471.25
194.089	36.92
194.477	219.23
194.864	29.8
195.252	430.76
195.639	98.99
196.027	-29.41
196.414	-235.5
196.801	-327.13
197.189	80.25
197.576	-35.06
197.963	12.07
198.351	-13.36
198.738	-40.05
199.125	-0.48
199.512	-19.17
199.899	-99.36
200.286	-78.36
200.673	34.93
201.06	1.88
201.447	27.93
201.833	20.04
202.22	17.14
202.607	-70.33
202.994	-8.28
203.38	-34.73
203.767	-6.06
204.154	-20.06
204.54	12.86
204.927	-9.79
205.313	11.79
205.699	-14.63
206.086	-27.9
206.472	-56.34
206.858	-0.37
207.245	20.55
207.631	-44.01
208.017	37.12
208.403	1.34
208.789	-33.04
209.175	51.48
209.561	2.03
209.947	-1.82
210.333	-10.82
210.719	-7.79
211.105	-20.39
211.491	5.96
211.876	-21.98
212.262	-46.79
212.648	-44.11
213.034	-9.42
213.419	3.18
213.805	-20.17
214.19	-1.52
214.576	-47.81
214.961	-42.6
215.346	-3.65
215.732	-11.43
216.117	-29.38
216.502	-11.03
216.888	-27.15
217.273	18.76
217.658	-16.45
218.043	-0.72
218.428	-12.04
218.813	-8.91
219.198	-52.73
219.583	-2.5
219.968	23.65
220.353	11.84
220.738	-13.66
221.122	-17.87
221.507	-6.41
221.892	0.46
222.276	11.15
222.661	-20.3
223.046	11.38
223.43	-7.44
223.815	-1.83
224.199	9.46
224.583	-5.16
224.968	12.31
225.352	-1.62
225.736	11.13
226.121	-0.49
226.505	9.99
226.889	12.22
227.273	7.29
227.657	0.43
228.041	4.71
228.425	5.09
228.809	5.08
229.193	3.96
229.577	6.07
229.961	6.34
230.344	6.8
230.728	6.04
231.112	5.68
231.495	6.32
231.879	6.93
232.263	5.11
232.646	6.28
233.03	4.95
233.413	4.61
233.797	9.03
234.18	2.1
234.563	4.75
234.946	6.7
235.33	6.93
235.713	5.97
236.096	4.51
236.479	7.81
236.862	5.19
237.245	8
237.628	6.66
238.011	8.12
238.394	7.89
238.777	6.88
239.16	3.68
239.543	2.89
239.925	8.2
240.308	6.53
240.691	3.83
241.073	5.51
241.456	5.07
241.838	5.12
242.221	6.2
242.603	6.73
242.986	7.29
243.368	6.28
243.75	6.32
244.133	6.08
244.515	6.72
244.897	5.62
245.279	5.53
245.661	6.52
246.043	7.03
246.425	5.31
246.807	6.47
247.189	5.51
247.571	6.1
247.953	6.08
248.335	6.23
248.717	6.01
249.098	5.94
249.48	5.55
249.862	6.62
250.243	5.72
250.625	6.02
251.006	6.2
251.388	6.06
251.769	5.47
252.151	6.65
252.532	5.62
252.913	5.44
253.295	6.49
253.676	5.74
254.057	5.72
254.438	5.24
254.819	5.6
255.2	5.17
255.581	5.47
255.962	6.19
256.343	6.39
256.724	5.29
257.105	6.23
257.486	6.08
257.867	3.99
258.247	6.3
258.628	6.62
259.009	5.19
259.389	5.66
259.77	5.23
260.15	6.23
260.531	5.57
260.911	5.88
261.292	5.47
261.672	5.35
262.052	5.34
262.432	5.04
262.813	5.26
263.193	5.07
263.573	5.48
263.953	5.33
264.333	4.98
264.713	5.45
265.093	5.41
265.473	5.79
265.853	5.46
266.233	5.65
266.612	6.07
266.992	4.2
267.372	5.41
267.752	4.86
268.131	5.32
268.511	5.36
268.89	5.58
269.27	5.8
269.649	5.66
270.029	5.18
270.408	5.06
270.787	5.68
271.167	5.01
271.546	4.31
271.925	5.37
272.304	5.47
272.683	5.39
273.062	5.28
273.441	5.54
273.82	5.13
274.199	5.64
274.578	5.3
274.957	4.97
275.336	4.88
275.715	5.39
276.093	5.92
276.472	5.53
276.851	5.49
277.229	6
277.608	5.26
277.986	5.44
278.365	5.06
278.743	5.4
279.122	4.34
279.5	4.76
279.878	3.86
280.257	5.02
280.635	4.66
281.013	4.99
281.391	4.56
281.769	4.93
282.147	5.17
282.525	4.8
282.903	4.93
283.281	5.36
283.659	5.4
284.037	5
284.415	5.39
284.792	5.19
285.17	4.75
285.548	5.27
285.925	4.93
286.303	4.85
286.68	5.27
287.058	4.92
287.435	4.79
287.813	5.22
288.19	5.34
288.567	4.68
288.945	5.14
289.322	4.94
289.699	5.34
290.076	5.18
290.453	4.61
290.83	4.92
291.207	4.82
291.584	4.66
291.961	5.26
292.338	4.98
292.715	4.61
293.092	4.76
293.469	5.19
293.845	4.49
294.222	5.22
294.599	5.2
294.975	4.76
295.352	4.7
295.728	5.08
296.105	4.81
296.481	5.19
296.858	4.98
297.234	4.87
297.61	5.03
297.986	5.01
298.363	4.49
298.739	5.04
299.115	4.36
299.491	4.6
299.867	4.75
300.243	4.7
300.619	4.97
300.995	4.68
301.371	5.35
301.746	4.56
302.122	4.94
302.498	4.52
302.874	4.72
303.249	4.89
303.625	4.8
304	4.44
304.376	4.67
304.751	4.99
305.127	4.7
305.502	4.87
305.878	4.67
306.253	4.85
306.628	5.1
307.003	4.09
307.378	4.43
307.754	4.86
308.129	4.27
308.504	4.53
308.879	4.77
309.254	4.72
309.629	5
310.003	4.91
310.378	5.01
310.753	4.8
311.128	4.8
311.502	4.08
311.877	4.79
312.252	4.6
312.626	4.54
313.001	4.57
313.375	4.37
313.75	4.28
314.124	5.36
314.498	4.51
314.873	4.48
315.247	4.6
315.621	4.78
315.995	4.54
316.369	5.03
316.743	4.87
317.117	4.57
317.491	4.56
317.865	4.02
318.239	5.06
318.613	4.4
318.987	4.51
319.361	4.09
319.734	4.58
320.108	4.63
320.482	4.51
320.855	4.69
321.229	5.52
321.602	4.43
321.976	4.19
322.349	3.96
322.723	3.57
323.096	4.32
323.469	4.14
323.843	4.47
324.216	4.07
324.589	5.06
324.962	4.47
325.335	4.45
325.708	4.82
326.081	5.13
326.454	5.13
326.827	4.72
327.2	4.65
327.573	4.77
327.945	4.49
328.318	4.28
328.691	4.35
329.063	3.89
329.436	3.95
329.809	4.13
330.181	4.37
330.553	5.28
330.926	4.55
331.298	3.88
331.671	4.06
332.043	4.38
332.415	4.63
332.787	5.14
333.159	4.34
333.532	4.57
333.904	4.68
334.276	4.54
334.648	4.21
335.02	4.59
335.391	4.48
335.763	4.27
336.135	4.77
336.507	4.83
336.879	5.06
337.25	4.55
337.622	4.77
337.993	4.7
338.365	4.54
338.736	4.82
339.108	4.31
339.479	4.25
339.851	5.24
340.222	4.77
340.593	4.12
340.964	4.29
341.336	3.71
341.707	4.38
342.078	4.38
342.449	4.45
342.82	4.6
343.191	4.26
343.562	4.47
343.933	4.63
344.303	4.61
344.674	4.12
345.045	4.71
345.416	4.39
345.786	3.83
346.157	4.33
346.527	4.47
346.898	4.44
347.268	4.46
347.639	4.28
348.009	4.61
348.38	4.4
348.75	4.64
349.12	4.54
349.49	4.28
349.861	4.55
350.231	4.61
350.601	4.57
350.971	4.25
351.341	4.49
351.711	4.78
352.081	4.45
352.45	4.86
352.82	4.49
353.19	4.03
353.56	4.33
353.929	4.72
354.299	4.71
354.669	4.56
355.038	4.67
355.408	4.93
355.777	4.76
356.147	4.6
356.516	4.99
356.885	4.38
357.254	4.52
357.624	4.63
357.993	4.36
358.362	4.67
358.731	4.85
359.1	4.73
359.469	4.55
359.838	4.11
360.207	4.28
360.576	4.39
360.945	4.53
361.314	4.57
361.682	4.36
362.051	4.48
362.42	4.88
362.788	4.69
363.157	4.51
363.525	4.44
363.894	4.4
364.262	4.29
364.631	5.17
364.999	4.28
365.367	4.9
365.735	4.2
366.104	4.52
366.472	4.77
366.84	4.56
367.208	4.39
367.576	4.58
367.944	5.02
368.312	4.22
368.68	4.72
369.048	4.74
369.416	4.48
369.783	4.44
370.151	4.67
370.519	4.35
370.886	4.63
371.254	4.69
371.621	4.97
371.989	4.62
372.356	4.73
372.724	4.51
373.091	4.55
373.458	4.64
373.826	4.61
374.193	5.02
374.56	4.23
374.927	4.35
375.294	4.97
375.661	4.67
376.028	4.81
376.395	4.7
376.762	4.94
377.129	4.98
377.496	4.54
377.863	4.82
378.229	4.82
378.596	4.61
378.963	4.36
379.329	4.49
379.696	4.73
380.062	4.75
380.429	4.83
380.795	4.61
381.161	4.5
381.528	4.36
381.894	4.76
382.26	4.84
382.626	4.62
382.993	4.48
383.359	4.65
383.725	4.88
384.091	4.66
384.457	4.64
384.823	4.86
385.188	4.82
385.554	4.68
385.92	5.04
386.286	4.83
386.651	4.64
387.017	5
387.383	4.63
387.748	4.47
388.114	4.85
388.479	4.78
388.845	5.13
389.21	5
389.575	4.86
389.94	4.69
390.306	4.55
390.671	4.59
391.036	4.95
391.401	4.99
391.766	4.79
392.131	4.76
392.496	4.66
392.861	4.46
393.226	4.74
393.591	4.77
393.956	4.77
394.32	4.63
394.685	4.93
395.05	4.69
395.414	4.76
395.779	4.75
396.143	4.79
396.508	4.75
396.872	4.85
397.236	4.41
397.601	4.83
397.965	4.44
398.329	5.06
398.694	4.71
399.058	4.58
399.422	5.09
399.786	5.09
400.15	4.53
400.514	4.63
400.878	4.76
401.242	4.87
401.605	4.74
401.969	4.89
402.333	4.89
402.697	4.95
403.06	4.79
403.424	4.74
403.787	5.08
404.151	4.72
404.514	4.76
404.878	4.79
405.241	4.83
405.604	4.9
405.968	4.67
406.331	5.02
406.694	4.81
407.057	5.11
407.42	4.88
407.783	4.7
408.146	4.83
408.509	4.63
408.872	4.45
409.235	4.86
409.598	4.89
409.961	4.87
410.323	4.8
410.686	4.66
411.049	4.61
411.411	4.89
411.774	4.72
412.136	4.9
412.499	4.87
412.861	4.66
413.223	4.92
413.586	4.7
413.948	4.99
414.31	5.09
414.672	4.79
415.035	4.88
415.397	5.04
415.759	4.8
416.121	5
416.483	4.9
416.845	4.88
417.206	5.05
417.568	4.73
417.93	4.79
418.292	4.85
418.653	4.81
419.015	4.79
419.377	4.91
419.738	4.82
420.1	4.84
420.461	4.73
420.822	4.78
421.184	4.83
421.545	4.72
421.906	4.85
422.267	4.69
422.629	4.81
422.99	4.86
423.351	4.72
423.712	4.79
424.073	4.83
424.434	4.8
424.795	4.82
425.155	4.91
425.516	4.74
425.877	4.86
426.238	4.71
426.598	4.8
426.959	4.72
427.32	4.88
427.68	4.89
428.041	4.82
428.401	4.71
428.761	4.68
429.122	4.77
429.482	4.86
429.842	4.8
430.202	4.84
430.563	5.05
430.923	4.92
431.283	4.89
431.643	4.84
432.003	4.89
432.363	5.01
432.722	4.77
433.082	4.83
433.442	4.92
433.802	4.77
434.161	4.8
434.521	4.91
434.881	5.03
435.24	4.89
435.6	4.85
435.959	4.92
436.319	4.67
436.678	4.78
437.037	5.06
437.396	4.96
437.756	4.94
438.115	4.99
438.474	4.99
438.833	4.97
439.192	5.08
439.551	4.9
439.91	4.96
440.269	4.95
440.628	4.95
440.987	4.81
441.345	4.95
441.704	4.87
442.063	4.84
442.421	4.85
442.78	4.87
443.138	4.87
443.497	4.74
443.855	4.86
444.214	4.92
444.572	4.88
444.93	5.09
445.288	4.96
445.647	5
446.005	4.84
446.363	4.94
446.721	4.88
447.079	4.93
447.437	4.89
447.795	4.79
448.153	4.86
448.51	4.76
448.868	5.02
449.226	4.87
449.584	4.91
449.941	5.01
450.299	4.99
450.656	4.9
451.014	4.98
451.371	4.87
451.729	4.78
452.086	4.81
452.443	4.88
452.801	5
453.158	4.84
453.515	4.83
453.872	5.17
454.229	4.87
454.586	4.98
454.943	4.85
455.3	5
455.657	5.01
456.014	4.95
456.371	4.96
456.727	4.95
457.084	4.92
457.441	4.87
457.797	4.97
458.154	4.96
458.51	4.87
458.867	5.01
459.223	5
459.58	4.86
459.936	4.82
460.292	4.84
460.648	4.87
461.005	4.9
461.361	4.82
461.717	4.82
462.073	4.82
462.429	4.83
462.785	5.09
463.141	5.08
463.496	4.84
463.852	5.03
464.208	4.98
464.564	4.82
464.919	4.69
465.275	4.99
465.631	4.95
465.986	4.92
466.342	4.82
466.697	4.94
467.052	5.04
467.408	4.9
467.763	5
468.118	4.93
468.473	5.12
468.829	4.89
469.184	4.96
469.539	4.71
469.894	5.01
470.249	4.94
470.603	5.09
470.958	5.08
471.313	5.06
471.668	5.02
472.023	5.04
472.377	4.97
472.732	4.84
473.086	4.85
473.441	4.94
473.795	5.22
474.15	4.91
474.504	4.97
474.859	4.88
475.213	4.94
475.567	5.05
475.921	5.11
476.275	5.01
476.63	4.94
476.984	4.84
477.338	5.1
477.692	4.85
478.045	4.98
478.399	5.12
478.753	4.89
479.107	4.96
479.461	5.15
479.814	4.86
480.168	5.08
480.521	4.94
480.875	5.16
481.228	4.94
481.582	4.77
481.935	4.98
482.289	4.86
482.642	5.01
482.995	5.04
483.348	4.95
483.701	4.96
484.055	4.82
484.408	4.91
484.761	4.78
485.114	4.71
485.466	4.67
485.819	4.66
486.172	4.69
486.525	4.75
486.878	4.75
487.23	4.79
487.583	4.77
487.936	4.82
488.288	4.81
488.641	4.74
488.993	4.74
489.345	4.69
489.698	4.72
490.05	4.75
490.402	4.83
490.754	4.89
491.107	4.89
491.459	4.91
491.811	4.98
492.163	4.95
492.515	4.88
492.866	4.74
493.218	4.71
493.57	4.75
493.922	4.79
494.274	4.83
494.625	4.84
494.977	4.83
495.328	4.92
495.68	5.03
496.031	4.95
496.383	4.97
496.734	5.05
497.086	4.82
497.437	4.98
497.788	4.9
498.139	4.95
498.49	4.96
498.842	4.95
499.193	4.9
499.544	5.05
499.894	5.03
500.245	5
500.596	4.93
500.947	5.01
501.298	4.92
501.648	5.07
501.999	5.17
502.35	5.07
502.7	5.12
503.051	4.93
503.401	4.98
503.752	5.02
504.102	5.04
504.452	4.86
504.803	4.91
505.153	5.1
505.503	5.02
505.853	5.05
506.203	5.01
506.553	4.91
506.903	4.97
507.253	4.98
507.603	5.03
507.953	5.12
508.303	5.08
508.652	4.95
509.002	5.05
509.352	4.97
509.701	5.02
510.051	4.98
510.4	5.01
510.75	5
511.099	5.01
511.449	5
511.798	4.97
512.147	5.04
512.496	5
512.846	4.98
513.195	5.08
513.544	4.95
513.893	4.86
514.242	5
514.591	5.01
514.939	4.91
515.288	4.95
515.637	4.99
515.986	4.97
516.334	5.18
516.683	5.01
517.032	4.94
517.38	5.08
517.729	5.08
518.077	5.02
518.426	5.01
518.774	4.95
519.122	4.91
519.47	5.04
519.819	5
520.167	4.98
520.515	4.87
520.863	4.96
521.211	4.94
521.559	4.94
521.907	5.04
522.255	5.02
522.602	5.07
522.95	5.13
523.298	5.01
523.645	5.01
523.993	5.07
524.341	4.99
524.688	5
525.036	5.25
525.383	5.16
525.73	5.08
526.078	5.15
526.425	5.08
526.772	4.97
527.119	4.94
527.466	4.9
527.814	4.83
528.161	4.99
528.508	4.91
528.854	4.85
529.201	4.97
529.548	4.85
529.895	4.8
530.242	4.81
530.588	4.82
530.935	4.81
531.282	4.82
531.628	4.94
531.975	4.91
532.321	4.98
532.667	5
533.014	5.04
533.36	4.97
533.706	4.99
534.052	4.93
534.399	4.85
534.745	4.89
535.091	4.87
535.437	4.88
535.783	4.97
536.129	4.96
536.474	4.99
536.82	4.94
537.166	5.04
537.512	5.05
537.857	5.01
538.203	4.88
538.549	5.08
538.894	4.96
539.239	5.11
539.585	5.01
539.93	4.98
540.276	5.02
540.621	5.03
540.966	5
541.311	5.09
541.656	5.06
542.001	5.03
542.346	5.03
542.691	4.91
543.036	4.91
543.381	4.97
543.726	4.91
544.071	5.01
544.415	5.01
544.76	4.94
545.105	5.03
545.449	4.94
545.794	5.01
546.138	5.05
546.483	5.02
546.827	5.13
547.171	5.05
547.516	5.16
547.86	5.05
548.204	4.96
548.548	5.17
548.892	5.11
549.236	5.14
549.58	5.12
549.924	5.15
550.268	5.15
550.612	5.25
550.956	5.05
551.3	5.08
551.643	5.23
551.987	5.17
552.33	5.16
552.674	5.18
553.017	5.21
553.361	5.1
553.704	4.97
554.048	5.22
554.391	5.13
554.734	5.17
555.077	5.05
555.42	5.13
555.764	5.25
556.107	5.23
556.45	5.14
556.793	5.38
557.135	5.24
557.478	5.36
557.821	5.17
558.164	5.37
558.507	5.11
558.849	5.2
559.192	5.11
559.534	5.11
559.877	5.22
560.219	5.27
560.562	5.33
560.904	5.11
561.246	5.41
561.589	5.26
561.931	5.5
562.273	5.13
562.615	5.2
562.957	5.23
563.299	5.31
563.641	5.26
563.983	5.28
564.325	5.15
564.667	5.29
565.008	5.22
565.35	5.45
565.692	5.42
566.033	5.21
566.375	5.14
566.716	5.33
567.058	5.4
567.399	5.38
567.741	5.14
568.082	5.29
568.423	5.16
568.764	5.33
569.105	5.3
569.447	5.23
569.788	5.31
570.129	5.3
570.47	5.36
570.811	5.46
571.151	5.3
571.492	5.4
571.833	5.28
572.174	5.17
572.514	5.18
572.855	5.34
573.195	5.21
573.536	5.32
573.876	5.17
574.217	5.27
574.557	5.44
574.898	5.23
575.238	5.16
575.578	5.43
575.918	5.28
576.258	5.26
576.598	5.25
576.938	5.42
577.278	5.3
577.618	5.28
577.958	5.24
578.298	5.44
578.638	5.28
578.977	5.41
579.317	5.29
579.657	5.34
579.996	5.37
580.336	5.26
580.675	5.48
581.014	5.36
581.354	5.31
581.693	5.49
582.032	5.36
582.372	5.29
582.711	5.44
583.05	5.58
583.389	5.53
583.728	5.39
584.067	5.39
584.406	5.61
584.745	5.25
585.083	5.61
585.422	5.33
585.761	5.63
586.1	5.37
586.438	5.27
586.777	5.49
587.115	5.57
587.454	5.38
587.792	5.43
588.13	5.46
588.469	5.56
588.807	5.72
589.145	5.22
589.483	5.35
589.821	5.51
590.159	5.27
590.497	5.21
590.835	5.3
591.173	5.36
591.511	5.52
591.849	5.49
592.187	5.44
592.524	5.44
592.862	5.46
593.2	5.13
593.537	5.41
593.875	5.37
594.212	5.48
594.55	5.32
594.887	5.63
595.224	5.57
595.561	5.38
595.899	5.46
596.236	5.45
596.573	5.17
596.91	5.36
597.247	5.36
597.584	5.54
597.921	5.48
598.258	5.46
598.594	5.24
598.931	5.35
599.268	5.4
599.604	5.61
599.941	5.49
600.277	5.36
600.614	5.52
600.95	5.6
601.287	5.51
601.623	5.68
601.959	5.41
602.296	5.3
602.632	5.72
602.968	5.32
603.304	5.38
603.64	5.47
603.976	5.52
604.312	5.47
604.648	5.62
604.984	5.54
605.319	5.58
605.655	5.46
605.991	5.46
606.326	5.43
606.662	5.38
606.998	5.51
607.333	5.46
607.668	5.59
608.004	5.47
608.339	5.42
608.674	5.34
609.01	5.47
609.345	5.77
609.68	5.23
610.015	5.58
610.35	5.6
610.685	5.28
611.02	5.75
611.355	5.58
611.689	5.3
612.024	5.67
612.359	5.51
612.694	5.5
613.028	5.93
613.363	5.24
613.697	5.63
614.032	5.62
614.366	5.33
614.7	5.97
615.035	5.49
615.369	5.67
615.703	5.92
616.037	5.55
616.371	5.73
616.705	5.75
617.039	5.78
617.373	5.6
617.707	5.41
618.041	5.86
618.375	5.55
618.709	5.41
619.042	5.8
619.376	5.34
619.71	5.24
620.043	5.47
620.377	5.47
620.71	5.5
621.043	5.44
621.377	5.37
621.71	5.62
622.043	5.56
622.376	5.49
622.709	5.85
623.043	5.5
623.376	5.5
623.709	5.71
624.041	5.52
624.374	5.63
624.707	5.69
625.04	5.47
625.373	5.66
625.705	5.84
626.038	5.67
626.37	5.58
626.703	5.47
627.035	5.71
627.368	5.77
627.7	5.9
628.032	5.54
628.365	5.69
628.697	5.49
629.029	5.91
629.361	5.46
629.693	5.65
630.025	5.57
630.357	5.4
630.689	5.91
631.021	5.55
631.353	5.9
631.684	5.94
632.016	5.65
632.348	5.77
632.679	5.61
633.011	5.65
633.342	5.93
633.674	5.92
634.005	5.55
634.336	5.86
634.668	5.66
634.999	5.62
635.33	5.6
635.661	5.94
635.992	5.45
636.323	5.62
636.654	5.82
636.985	5.41
637.316	5.88
637.647	6.06
637.977	5.79
638.308	5.58
638.639	5.66
638.969	5.78
639.3	5.85
639.63	5.47
639.961	5.63
640.291	6.08
640.622	6.11
640.952	6.19
641.282	5.44
641.612	5.69
641.943	6.14
642.273	5.66
642.603	5.91
642.933	5.47
643.263	6
643.592	6.04
643.922	6.13
644.252	5.5
644.582	5.61
644.911	5.61
645.241	5.89
645.571	5.69
645.9	6.35
646.23	5.82
646.559	6.03
646.888	5.46
647.218	5.52
647.547	6.18
647.876	5.89
648.205	5.84
648.534	5.95
648.863	6.25
649.192	5.99
649.521	5.89
649.85	6.13
650.179	5.24
650.508	5.87
650.837	6.05
651.165	6.11
651.494	5.77
651.822	5.74
652.151	6.23
652.479	5.97
652.808	5.54
653.136	5.78
653.465	6.16
653.793	6.23
654.121	6.37
654.449	5.85
654.777	5.91
655.105	5.84
655.433	5.96
655.761	6.01
656.089	5.96
656.417	5.56
656.745	6.31
657.073	6.05
657.4	5.9
657.728	6.1
658.056	5.66
658.383	5.96
658.711	5.94
659.038	6.27
659.365	6.16
659.693	5.98
660.02	6.17
660.347	6.43
660.674	6.2
661.001	5.49
661.329	5.84
661.656	6.14
661.982	5.87
662.309	6.07
662.636	5.64
662.963	6.16
663.29	6.03
663.616	6.06
663.943	6.47
664.27	6.02
664.596	5.95
664.923	6.38
665.249	6.16
665.576	6.59
665.902	6.06
666.228	5.66
666.554	6.02
666.881	6.05
667.207	5.95
667.533	6.51
667.859	6.26
668.185	6.11
668.511	5.76
668.837	5.61
669.162	6.19
669.488	6.07
669.814	6.42
670.139	6.44
670.465	6.34
670.791	6.28
671.116	6.03
671.442	6.39
671.767	6.21
672.092	6.05
672.418	6.05
672.743	5.95
673.068	5.91
673.393	6.08
673.718	5.61
674.043	6.26
674.368	6.63
674.693	6.09
675.018	5.96
675.343	6.6
675.667	6.06
675.992	5.44
676.317	6.12
676.641	5.95
676.966	6.29
677.29	5.97
677.615	6.33
677.939	6.31
678.264	6.04
678.588	6.71
678.912	6
679.236	6.53
679.56	6.08
679.885	6.36
680.209	5.51
680.532	5.8
680.856	6.83
681.18	6.36
681.504	5.88
681.828	5.7
682.152	5.91
682.475	6
682.799	6.77
683.122	5.96
683.446	6.24
683.769	6.54
684.093	6.76
684.416	5.72
684.739	6.84
685.062	6.15
685.386	6.29
685.709	6.19
686.032	6.92
686.355	6.51
686.678	6.1
687.001	5.65
687.324	5.67
687.646	6.28
687.969	6.03
688.292	6.61
688.614	6.84
688.937	6.59
689.26	5.61
689.582	6.61
689.904	6.39
690.227	6.84
690.549	6.25
690.871	6.9
691.194	6.19
691.516	6.43
691.838	6.6
692.16	6.29
