Data from 0063_chest_Reflection__0__208.txt Node

Date: Fri Dec 16 15:37:23 CST 2022
User: ToomeyLab
Spectrometer: FLMS14357
Trigger mode: 0
Integration Time (sec): 1.000000E-2
Scans to average: 100
Electric dark correction enabled: true
Nonlinearity correction enabled: false
Boxcar width: 0
XAxis mode: Wavelengths
Number of Pixels in Spectrum: 2048
>>>>>Begin Spectral Data<<<<<
189.047	-363.82
189.435	-363.82
189.823	-363.82
190.211	472.74
190.599	-87.91
190.987	705.02
191.375	272.03
191.763	-235.74
192.151	-44.39
192.538	147.95
192.926	-422.89
193.314	108.86
193.702	203.29
194.089	203.83
194.477	113.8
194.864	13.63
195.252	38.2
195.639	76.05
196.027	-19.85
196.414	308.78
196.801	45.46
197.189	65.5
197.576	161.17
197.963	-165.07
198.351	5.43
198.738	-4.17
199.125	10.13
199.512	-11.36
199.899	-26.77
200.286	-66.58
200.673	50.88
201.06	35.21
201.447	41.01
201.833	10.99
202.22	12.59
202.607	35.66
202.994	19.04
203.38	-45.94
203.767	-14.1
204.154	-35.8
204.54	57.15
204.927	27.53
205.313	15.78
205.699	-11.14
206.086	32.08
206.472	-54.58
206.858	23.25
207.245	11.62
207.631	-50.18
208.017	41.05
208.403	13.49
208.789	-2.9
209.175	27.9
209.561	-4.94
209.947	-43.59
210.333	12.15
210.719	-5.22
211.105	-28.05
211.491	25.62
211.876	-22.07
212.262	-0.95
212.648	-58.38
213.034	16.86
213.419	11.48
213.805	-13.34
214.19	-27.07
214.576	-3.93
214.961	-7.81
215.346	-57.45
215.732	-21.06
216.117	-40.76
216.502	-7.07
216.888	-39.92
217.273	6.59
217.658	-49.92
218.043	-12.96
218.428	-7.83
218.813	-12.11
219.198	-45.49
219.583	0.51
219.968	-2.52
220.353	7.27
220.738	-34.64
221.122	-23.27
221.507	12.37
221.892	-8.78
222.276	17.69
222.661	6.88
223.046	-2.59
223.43	-12.87
223.815	12.81
224.199	16.24
224.583	-0.79
224.968	8.81
225.352	-3.24
225.736	14.14
226.121	3.61
226.505	-3.65
226.889	1.96
227.273	5.85
227.657	3.93
228.041	7.42
228.425	7.18
228.809	0.23
229.193	1.11
229.577	2.12
229.961	4.49
230.344	3.52
230.728	3.42
231.112	2.58
231.495	0.63
231.879	3.34
232.263	1.93
232.646	1.7
233.03	0.24
233.413	2.87
233.797	5.37
234.18	-3.09
234.563	1.3
234.946	2.86
235.33	2.86
235.713	3.08
236.096	2.44
236.479	2.28
236.862	4
237.245	2.95
237.628	2.94
238.011	1.25
238.394	5.47
238.777	1.58
239.16	2.18
239.543	1.93
239.925	3.6
240.308	3.63
240.691	1.85
241.073	1.97
241.456	2.69
241.838	4.13
242.221	4.2
242.603	3.28
242.986	3.7
243.368	3.41
243.75	3.04
244.133	3.36
244.515	3.3
244.897	2.77
245.279	3.58
245.661	3.33
246.043	3.15
246.425	3.01
246.807	2.74
247.189	2.7
247.571	3.36
247.953	3.25
248.335	3.49
248.717	3.13
249.098	3.83
249.48	3.5
249.862	3.38
250.243	3.44
250.625	2.88
251.006	3.56
251.388	3.44
251.769	3.81
252.151	2.62
252.532	3.33
252.913	3.61
253.295	3.33
253.676	3.68
254.057	3.11
254.438	3.21
254.819	2.85
255.2	2.25
255.581	1.87
255.962	2.4
256.343	3.11
256.724	2.78
257.105	2.9
257.486	2.61
257.867	2.43
258.247	3.96
258.628	3.89
259.009	3.16
259.389	3.49
259.77	3.1
260.15	4.14
260.531	3.28
260.911	3.38
261.292	2.98
261.672	3.16
262.052	3.06
262.432	2.79
262.813	3.05
263.193	2.2
263.573	3.38
263.953	3.15
264.333	2.92
264.713	3.02
265.093	2.91
265.473	4.31
265.853	3.38
266.233	2.12
266.612	3.18
266.992	2.89
267.372	3.33
267.752	2.68
268.131	3.36
268.511	3.02
268.89	3.38
269.27	3.25
269.649	3.46
270.029	3.18
270.408	3.4
270.787	3.12
271.167	3.21
271.546	1.92
271.925	2.69
272.304	3.38
272.683	2.86
273.062	3.12
273.441	2.88
273.82	3.02
274.199	3.09
274.578	2.8
274.957	2.85
275.336	2.2
275.715	3.03
276.093	3.24
276.472	3.09
276.851	3.41
277.229	3.53
277.608	3.28
277.986	2.33
278.365	3.29
278.743	3.08
279.122	2.85
279.5	2.2
279.878	1.93
280.257	3.76
280.635	2.59
281.013	3.13
281.391	2.42
281.769	3.06
282.147	3.06
282.525	3.18
282.903	3.19
283.281	2.58
283.659	3.06
284.037	2.99
284.415	3.61
284.792	3.26
285.17	2.76
285.548	2.75
285.925	2.81
286.303	3.18
286.68	3.23
287.058	3.16
287.435	3.02
287.813	3.18
288.19	3.32
288.567	2.53
288.945	3.06
289.322	3.09
289.699	3.47
290.076	3.28
290.453	2.96
290.83	3.36
291.207	3.2
291.584	3.08
291.961	3.5
292.338	2.9
292.715	3.22
293.092	3.61
293.469	3.94
293.845	3.93
294.222	3.26
294.599	3.71
294.975	3.64
295.352	2.97
295.728	3.27
296.105	3.34
296.481	3.86
296.858	3.68
297.234	3.88
297.61	3.65
297.986	3.52
298.363	3.01
298.739	3.59
299.115	3.01
299.491	3.54
299.867	3.58
300.243	3.1
300.619	3.38
300.995	3.7
301.371	4.15
301.746	3.27
302.122	4.18
302.498	4.01
302.874	3.08
303.249	3.88
303.625	3.53
304	3.42
304.376	3.31
304.751	2.85
305.127	3.65
305.502	3.82
305.878	3.76
306.253	3.37
306.628	3.6
307.003	3.71
307.378	3.22
307.754	3.86
308.129	3.31
308.504	3.48
308.879	3.84
309.254	3.88
309.629	3.81
310.003	3.77
310.378	4.08
310.753	4
311.128	3.76
311.502	3.5
311.877	3.97
312.252	3.38
312.626	3.64
313.001	3.76
313.375	3.67
313.75	3.5
314.124	3.94
314.498	3.51
314.873	3.75
315.247	3.68
315.621	4.27
315.995	3.96
316.369	3.84
316.743	4.31
317.117	3.44
317.491	4.13
317.865	3.29
318.239	3.93
318.613	3.7
318.987	4.05
319.361	4.14
319.734	4.1
320.108	4
320.482	4.09
320.855	3.92
321.229	4.12
321.602	4.5
321.976	4.25
322.349	3.72
322.723	4.1
323.096	3.43
323.469	4.16
323.843	4.21
324.216	4.02
324.589	4.29
324.962	4.19
325.335	3.7
325.708	3.89
326.081	4.27
326.454	3.85
326.827	3.97
327.2	4.14
327.573	3.99
327.945	4.08
328.318	4.33
328.691	3.84
329.063	4.18
329.436	3.97
329.809	3.78
330.181	3.57
330.553	4.17
330.926	4.38
331.298	3.82
331.671	4.34
332.043	4.14
332.415	4.42
332.787	4.69
333.159	4.16
333.532	3.8
333.904	4.14
334.276	4.27
334.648	4.24
335.02	3.92
335.391	4.06
335.763	4.21
336.135	4.2
336.507	4.55
336.879	4.14
337.25	3.69
337.622	3.73
337.993	4.01
338.365	4.52
338.736	3.97
339.108	3.68
339.479	3.65
339.851	4.57
340.222	3.93
340.593	3.96
340.964	3.99
341.336	3.25
341.707	3.6
342.078	3.64
342.449	4.41
342.82	3.82
343.191	3.78
343.562	3.84
343.933	3.97
344.303	3.84
344.674	4.02
345.045	4.42
345.416	3.93
345.786	3.25
346.157	4.03
346.527	3.66
346.898	4.16
347.268	4.12
347.639	3.86
348.009	4.59
348.38	4.3
348.75	4.12
349.12	4.04
349.49	3.64
349.861	4.26
350.231	4.16
350.601	4.02
350.971	4.14
351.341	3.92
351.711	3.9
352.081	3.93
352.45	3.97
352.82	4.36
353.19	3.65
353.56	3.89
353.929	4.08
354.299	4.28
354.669	3.95
355.038	4.03
355.408	4.21
355.777	3.94
356.147	4.18
356.516	4.4
356.885	3.71
357.254	4.3
357.624	4.18
357.993	4.29
358.362	4.33
358.731	4.04
359.1	4.27
359.469	4.12
359.838	3.69
360.207	3.8
360.576	4.29
360.945	4.12
361.314	4.4
361.682	3.94
362.051	4.03
362.42	4.31
362.788	4.34
363.157	4.01
363.525	4.11
363.894	3.91
364.262	4.27
364.631	4.75
364.999	3.78
365.367	4.44
365.735	3.93
366.104	3.97
366.472	4.03
366.84	4.11
367.208	3.76
367.576	4.22
367.944	4.48
368.312	3.85
368.68	4.3
369.048	4.39
369.416	4.2
369.783	4.35
370.151	4.25
370.519	3.89
370.886	4.18
371.254	4.25
371.621	4.01
371.989	3.96
372.356	4.44
372.724	4.25
373.091	4.61
373.458	3.99
373.826	4.34
374.193	4.6
374.56	4.16
374.927	4.28
375.294	4.53
375.661	4.42
376.028	4.58
376.395	4.07
376.762	4.43
377.129	4.31
377.496	4.21
377.863	4.35
378.229	4.3
378.596	4.32
378.963	4.17
379.329	4.07
379.696	4.34
380.062	4.54
380.429	3.99
380.795	4.21
381.161	4.12
381.528	3.74
381.894	4.24
382.26	4.1
382.626	4.2
382.993	4.15
383.359	4.65
383.725	4.65
384.091	4.42
384.457	4.58
384.823	4.31
385.188	4.7
385.554	4.26
385.92	4.45
386.286	4.62
386.651	4.38
387.017	4.68
387.383	4.1
387.748	4.4
388.114	4.88
388.479	4.28
388.845	4.27
389.21	4.16
389.575	4.25
389.94	4.42
390.306	4.26
390.671	4.57
391.036	4.43
391.401	4.71
391.766	4.27
392.131	4.37
392.496	4.36
392.861	4.51
393.226	4.42
393.591	4.33
393.956	4.3
394.32	4.15
394.685	4.42
395.05	4.4
395.414	4.49
395.779	4.45
396.143	4.58
396.508	4.88
396.872	4.59
397.236	4.02
397.601	4.66
397.965	4.13
398.329	4.67
398.694	4.42
399.058	4.51
399.422	4.55
399.786	4.57
400.15	4.53
400.514	4.47
400.878	4.4
401.242	4.87
401.605	4.7
401.969	4.47
402.333	4.41
402.697	4.77
403.06	4.62
403.424	4.44
403.787	4.97
404.151	4.34
404.514	4.54
404.878	4.7
405.241	4.77
405.604	4.72
405.968	4.56
406.331	4.65
406.694	4.55
407.057	4.56
407.42	4.44
407.783	4.59
408.146	4.43
408.509	4.36
408.872	4.59
409.235	4.66
409.598	4.75
409.961	4.39
410.323	4.54
410.686	4.57
411.049	4.54
411.411	4.58
411.774	4.43
412.136	4.56
412.499	4.55
412.861	4.4
413.223	4.7
413.586	4.68
413.948	4.51
414.31	4.86
414.672	4.68
415.035	4.81
415.397	4.75
415.759	4.45
416.121	4.84
416.483	4.73
416.845	4.63
417.206	4.64
417.568	4.67
417.93	4.69
418.292	4.62
418.653	4.74
419.015	4.77
419.377	4.66
419.738	4.6
420.1	4.69
420.461	4.57
420.822	4.73
421.184	4.58
421.545	4.7
421.906	4.72
422.267	4.58
422.629	4.67
422.99	4.74
423.351	4.7
423.712	4.57
424.073	4.7
424.434	4.71
424.795	4.64
425.155	4.71
425.516	4.67
425.877	4.6
426.238	4.59
426.598	4.78
426.959	4.63
427.32	4.7
427.68	4.84
428.041	4.77
428.401	4.69
428.761	4.77
429.122	4.75
429.482	4.58
429.842	4.82
430.202	4.69
430.563	4.78
430.923	4.82
431.283	4.88
431.643	4.7
432.003	4.88
432.363	4.9
432.722	4.71
433.082	4.75
433.442	4.87
433.802	4.73
434.161	4.71
434.521	4.65
434.881	4.87
435.24	4.77
435.6	4.85
435.959	4.72
436.319	4.75
436.678	4.85
437.037	4.88
437.396	4.88
437.756	4.77
438.115	4.78
438.474	5.02
438.833	5.03
439.192	4.88
439.551	4.92
439.91	4.96
440.269	4.96
440.628	4.75
440.987	4.87
441.345	4.79
441.704	4.99
442.063	4.95
442.421	4.88
442.78	4.91
443.138	4.83
443.497	4.85
443.855	4.87
444.214	5.06
444.572	4.83
444.93	4.99
445.288	4.92
445.647	4.97
446.005	4.88
446.363	5.01
446.721	4.74
447.079	4.88
447.437	4.87
447.795	4.83
448.153	4.98
448.51	4.83
448.868	4.97
449.226	4.93
449.584	4.97
449.941	5.06
450.299	4.98
450.656	5.06
451.014	4.99
451.371	5.06
451.729	5.01
452.086	4.96
452.443	4.94
452.801	5.04
453.158	5.01
453.515	4.99
453.872	5.13
454.229	4.95
454.586	5.06
454.943	5.03
455.3	5.18
455.657	5.11
456.014	5.08
456.371	5.17
456.727	5.08
457.084	4.95
457.441	5.21
457.797	5.08
458.154	5.19
458.51	5.08
458.867	4.97
459.223	5.14
459.58	5.1
459.936	5.03
460.292	5.23
460.648	4.98
461.005	5.02
461.361	5.05
461.717	5.05
462.073	5.08
462.429	5.11
462.785	5.2
463.141	5.29
463.496	5.28
463.852	5.2
464.208	5.16
464.564	5.08
464.919	5.16
465.275	5.2
465.631	5.23
465.986	5.11
466.342	5.24
466.697	5.33
467.052	5.26
467.408	5.26
467.763	5.13
468.118	5.23
468.473	5.37
468.829	5.22
469.184	5.41
469.539	5.08
469.894	5.29
470.249	5.26
470.603	5.34
470.958	5.46
471.313	5.15
471.668	5.33
472.023	5.44
472.377	5.25
472.732	5.14
473.086	5.21
473.441	5.48
473.795	5.51
474.15	5.4
474.504	5.4
474.859	5.41
475.213	5.34
475.567	5.37
475.921	5.4
476.275	5.36
476.63	5.3
476.984	5.37
477.338	5.54
477.692	5.34
478.045	5.32
478.399	5.43
478.753	5.28
479.107	5.21
479.461	5.4
479.814	5.31
480.168	5.57
480.521	5.38
480.875	5.45
481.228	5.45
481.582	5.31
481.935	5.46
482.289	5.32
482.642	5.4
482.995	5.4
483.348	5.41
483.701	5.45
484.055	5.27
484.408	5.31
484.761	5.19
485.114	5.14
485.466	5.12
485.819	5.16
486.172	5.23
486.525	5.26
486.878	5.26
487.23	5.33
487.583	5.3
487.936	5.36
488.288	5.3
488.641	5.35
488.993	5.26
489.345	5.26
489.698	5.34
490.05	5.3
490.402	5.4
490.754	5.45
491.107	5.4
491.459	5.55
491.811	5.54
492.163	5.56
492.515	5.53
492.866	5.36
493.218	5.39
493.57	5.42
493.922	5.39
494.274	5.49
494.625	5.5
494.977	5.57
495.328	5.61
495.68	5.72
496.031	5.75
496.383	5.55
496.734	5.75
497.086	5.63
497.437	5.77
497.788	5.62
498.139	5.7
498.49	5.76
498.842	5.68
499.193	5.72
499.544	5.7
499.894	5.74
500.245	5.7
500.596	5.74
500.947	5.74
501.298	5.74
501.648	5.71
501.999	5.91
502.35	5.78
502.7	5.85
503.051	5.86
503.401	5.82
503.752	5.81
504.102	5.87
504.452	5.72
504.803	5.75
505.153	5.91
505.503	5.85
505.853	5.78
506.203	5.86
506.553	5.83
506.903	5.83
507.253	5.99
507.603	5.86
507.953	6.08
508.303	5.95
508.652	5.86
509.002	6.03
509.352	5.95
509.701	5.92
510.051	5.93
510.4	5.91
510.75	5.93
511.099	5.95
511.449	5.96
511.798	6.1
512.147	5.98
512.496	6.06
512.846	6.01
513.195	6.02
513.544	5.95
513.893	5.9
514.242	6.11
514.591	6.05
514.939	6.02
515.288	6.12
515.637	6.14
515.986	6.09
516.334	6.31
516.683	6.11
517.032	6.18
517.38	6.37
517.729	6.14
518.077	6.37
518.426	6.2
518.774	6.23
519.122	6.13
519.47	6.24
519.819	6.2
520.167	6.16
520.515	6.12
520.863	6.15
521.211	6.22
521.559	6.32
521.907	6.25
522.255	6.39
522.602	6.45
522.95	6.3
523.298	6.3
523.645	6.34
523.993	6.51
524.341	6.36
524.688	6.51
525.036	6.48
525.383	6.57
525.73	6.45
526.078	6.54
526.425	6.43
526.772	6.28
527.119	6.33
527.466	6.42
527.814	6.34
528.161	6.42
528.508	6.39
528.854	6.48
529.201	6.45
529.548	6.33
529.895	6.27
530.242	6.25
530.588	6.33
530.935	6.34
531.282	6.39
531.628	6.44
531.975	6.56
532.321	6.52
532.667	6.65
533.014	6.6
533.36	6.63
533.706	6.59
534.052	6.59
534.399	6.49
534.745	6.49
535.091	6.54
535.437	6.62
535.783	6.71
536.129	6.76
536.474	6.78
536.82	6.7
537.166	6.83
537.512	6.83
537.857	6.87
538.203	6.73
538.549	6.79
538.894	6.89
539.239	6.98
539.585	6.87
539.93	6.98
540.276	6.99
540.621	6.97
540.966	6.91
541.311	7.04
541.656	6.98
542.001	6.94
542.346	6.94
542.691	6.85
543.036	6.84
543.381	6.87
543.726	6.92
544.071	7.02
544.415	7.01
544.76	7.08
545.105	7.11
545.449	6.98
545.794	7.12
546.138	7.27
546.483	7.31
546.827	7.24
547.171	7.17
547.516	7.36
547.86	7.25
548.204	7.17
548.548	7.41
548.892	7.26
549.236	7.36
549.58	7.46
549.924	7.46
550.268	7.57
550.612	7.56
550.956	7.41
551.3	7.59
551.643	7.42
551.987	7.53
552.33	7.67
552.674	7.75
553.017	7.66
553.361	7.62
553.704	7.63
554.048	7.73
554.391	7.56
554.734	7.61
555.077	7.74
555.42	7.56
555.764	7.81
556.107	7.73
556.45	7.82
556.793	7.97
557.135	8.03
557.478	7.86
557.821	7.87
558.164	7.9
558.507	7.77
558.849	7.97
559.192	8.1
559.534	7.94
559.877	8.32
560.219	8.25
560.562	8.03
560.904	8.05
561.246	8.32
561.589	8.25
561.931	8.35
562.273	8.18
562.615	8.18
562.957	8.26
563.299	8.22
563.641	8.25
563.983	8.39
564.325	8.13
564.667	8.29
565.008	8.16
565.35	8.4
565.692	8.49
566.033	8.5
566.375	8.33
566.716	8.36
567.058	8.58
567.399	8.51
567.741	8.56
568.082	8.55
568.423	8.41
568.764	8.58
569.105	8.68
569.447	8.67
569.788	8.63
570.129	8.61
570.47	8.66
570.811	8.89
571.151	8.87
571.492	8.94
571.833	8.87
572.174	8.85
572.514	8.81
572.855	8.74
573.195	8.8
573.536	8.83
573.876	8.9
574.217	9
574.557	9.05
574.898	8.75
575.238	8.83
575.578	9.1
575.918	8.9
576.258	9.08
576.598	9.1
576.938	9.39
577.278	9.12
577.618	9.09
577.958	9.22
578.298	9.13
578.638	9.35
578.977	9.37
579.317	9.43
579.657	9.42
579.996	9.43
580.336	9.3
580.675	9.48
581.014	9.37
581.354	9.56
581.693	9.4
582.032	9.41
582.372	9.62
582.711	9.59
583.05	9.78
583.389	9.86
583.728	9.76
584.067	9.71
584.406	9.81
584.745	9.55
585.083	10.1
585.422	9.61
585.761	9.91
586.1	9.93
586.438	10.04
586.777	9.88
587.115	10.03
587.454	9.94
587.792	9.59
588.13	10.11
588.469	10.12
588.807	10.17
589.145	10.09
589.483	9.96
589.821	10.23
590.159	10.07
590.497	10.33
590.835	10.21
591.173	10.41
591.511	10.44
591.849	10.15
592.187	10.11
592.524	10.35
592.862	10.25
593.2	10.49
593.537	10.2
593.875	10.3
594.212	10.54
594.55	10.42
594.887	10.61
595.224	10.62
595.561	10.49
595.899	10.55
596.236	10.48
596.573	10.52
596.91	10.41
597.247	10.7
597.584	10.68
597.921	10.87
598.258	10.78
598.594	10.51
598.931	10.64
599.268	10.76
599.604	11.07
599.941	10.72
600.277	11.01
600.614	10.95
600.95	11.01
601.287	11.23
601.623	11.25
601.959	10.91
602.296	11.15
602.632	11.32
602.968	11.23
603.304	11.03
603.64	11.15
603.976	11.18
604.312	11.39
604.648	11.39
604.984	11.15
605.319	11.17
605.655	11.27
605.991	11.29
606.326	11.2
606.662	11.23
606.998	11.47
607.333	11.32
607.668	11.65
608.004	11.53
608.339	11.63
608.674	11.76
609.01	11.68
609.345	11.79
609.68	11.53
610.015	11.9
610.35	11.67
610.685	11.97
611.02	11.76
611.355	11.86
611.689	11.68
612.024	12.01
612.359	12.11
612.694	12.15
613.028	12
613.363	11.88
613.697	11.8
614.032	12.21
614.366	12.04
614.7	12.48
615.035	12.11
615.369	12.17
615.703	12.77
616.037	12.07
616.371	12.09
616.705	12.34
617.039	12.53
617.373	12.48
617.707	12.31
618.041	12.66
618.375	12.24
618.709	12.31
619.042	12.48
619.376	12.39
619.71	12.4
620.043	12.41
620.377	12.35
620.71	12.73
621.043	12.51
621.377	12.73
621.71	12.77
622.043	12.78
622.376	12.69
622.709	12.92
623.043	12.48
623.376	13.07
623.709	13.03
624.041	12.53
624.374	13.08
624.707	12.64
625.04	13.19
625.373	13.06
625.705	13.02
626.038	13.05
626.37	13.13
626.703	12.93
627.035	13.12
627.368	13.44
627.7	13.29
628.032	13.2
628.365	13.06
628.697	13.03
629.029	13.43
629.361	13.27
629.693	13.72
630.025	13.45
630.357	13.58
630.689	13.46
631.021	13.66
631.353	13.78
631.684	13.6
632.016	13.42
632.348	13.99
632.679	13.77
633.011	13.87
633.342	13.68
633.674	13.47
634.005	13.28
634.336	13.74
634.668	13.97
634.999	14
635.33	13.67
635.661	13.73
635.992	13.81
636.323	14.02
636.654	13.73
636.985	13.99
637.316	13.67
637.647	13.99
637.977	14.02
638.308	14.05
638.639	14.07
638.969	13.85
639.3	14.1
639.63	14.27
639.961	13.82
640.291	14.57
640.622	14.51
640.952	13.98
641.282	13.88
641.612	13.84
641.943	14.71
642.273	14.28
642.603	14.44
642.933	14.44
643.263	15.25
643.592	14.39
643.922	15.11
644.252	14.71
644.582	14.93
644.911	14.78
645.241	14.97
645.571	14.37
645.9	15.05
646.23	14.75
646.559	15.09
646.888	14.54
647.218	14.63
647.547	14.88
647.876	14.6
648.205	14.46
648.534	14.59
648.863	14.89
649.192	14.81
649.521	14.78
649.85	15.28
650.179	14.93
650.508	15.4
650.837	15.18
651.165	15.19
651.494	15.29
651.822	15.21
652.151	15.68
652.479	15.85
652.808	15.19
653.136	15.11
653.465	15.48
653.793	15.5
654.121	15.4
654.449	15.39
654.777	15.38
655.105	16.34
655.433	15.35
655.761	15.29
656.089	15.72
656.417	15.32
656.745	16.28
657.073	15.87
657.4	15.89
657.728	15.7
658.056	15.52
658.383	16.19
658.711	15.62
659.038	15.63
659.365	16.18
659.693	15.68
660.02	15.29
660.347	15.79
660.674	15.85
661.001	15.69
661.329	15.87
661.656	16.04
661.982	15.89
662.309	15.63
662.636	16.13
662.963	16.4
663.29	15.9
663.616	15.86
663.943	16.43
664.27	15.85
664.596	15.83
664.923	16.06
665.249	15.84
665.576	15.99
665.902	16.63
666.228	16.18
666.554	16.33
666.881	16.46
667.207	16.29
667.533	16.89
667.859	16.13
668.185	16.41
668.511	16.64
668.837	16.27
669.162	16.33
669.488	16.48
669.814	17.35
670.139	17.4
670.465	16.21
670.791	16.85
671.116	16.63
671.442	16.45
671.767	16.71
672.092	16.92
672.418	17.15
672.743	16.75
673.068	16.45
673.393	16.73
673.718	16.97
674.043	16.96
674.368	17.12
674.693	16.78
675.018	17.42
675.343	17.34
675.667	17.32
675.992	16.36
676.317	18.01
676.641	16.94
676.966	17.49
677.29	16.48
677.615	17.13
677.939	17.24
678.264	16.34
678.588	17.31
678.912	17.65
679.236	17.88
679.56	17.4
679.885	17.24
680.209	17.15
680.532	17.51
680.856	17.56
681.18	17.28
681.504	17.27
681.828	17.39
682.152	17.65
682.475	17.31
682.799	17.79
683.122	17.4
683.446	17.14
683.769	17.71
684.093	17.81
684.416	17.2
684.739	17.89
