Data from 0063_chest_Reflection__1__209.txt Node

Date: Fri Dec 16 15:37:35 CST 2022
User: ToomeyLab
Spectrometer: FLMS14357
Trigger mode: 0
Integration Time (sec): 1.000000E-2
Scans to average: 100
Electric dark correction enabled: true
Nonlinearity correction enabled: false
Boxcar width: 0
XAxis mode: Wavelengths
Number of Pixels in Spectrum: 2048
>>>>>Begin Spectral Data<<<<<
189.047	-319.59
189.435	-319.59
189.823	-319.59
190.211	85.73
190.599	10.41
190.987	1408.13
191.375	97.7
191.763	370.51
192.151	-147.39
192.538	265.28
192.926	104.58
193.314	112.23
193.702	147.98
194.089	-104.21
194.477	12.44
194.864	-246.09
195.252	438.93
195.639	65.77
196.027	290.98
196.414	-6.74
196.801	-122.96
197.189	44.79
197.576	-96.31
197.963	16.45
198.351	-33.96
198.738	-6.3
199.125	58.5
199.512	-23.33
199.899	-2.28
200.286	-63.5
200.673	29.3
201.06	25.08
201.447	21.21
201.833	-26.11
202.22	37.64
202.607	65.17
202.994	13.66
203.38	-39.06
203.767	-0.19
204.154	-56.65
204.54	2.73
204.927	4.88
205.313	51.26
205.699	-9.35
206.086	51.49
206.472	49.2
206.858	9.94
207.245	19.44
207.631	-6.34
208.017	-5.93
208.403	30.34
208.789	51.33
209.175	24.69
209.561	8.83
209.947	7.79
210.333	-24.48
210.719	14.06
211.105	-30.48
211.491	43.69
211.876	3.56
212.262	-19.98
212.648	-20.21
213.034	10.55
213.419	24.57
213.805	29.59
214.19	6.06
214.576	-14.05
214.961	-22.76
215.346	0.62
215.732	-20.23
216.117	12.51
216.502	-1.47
216.888	-24.46
217.273	17.22
217.658	-14.06
218.043	-3.26
218.428	19.7
218.813	11.86
219.198	-42.78
219.583	-5.36
219.968	-0.03
220.353	6.13
220.738	13.83
221.122	17.45
221.507	-7.34
221.892	-0.02
222.276	8.28
222.661	-8.29
223.046	6.13
223.43	11.33
223.815	12.55
224.199	-10.59
224.583	-8.35
224.968	9.37
225.352	-4.96
225.736	8.8
226.121	-8.11
226.505	1.21
226.889	6.22
227.273	7.71
227.657	6.63
228.041	1.1
228.425	2.97
228.809	3.65
229.193	-0.47
229.577	1.41
229.961	2.43
230.344	2.3
230.728	1.97
231.112	1.92
231.495	2.09
231.879	2.33
232.263	-0.35
232.646	1.33
233.03	0.79
233.413	1.76
233.797	4.1
234.18	0.73
234.563	1.03
234.946	-0.28
235.33	1.67
235.713	0.53
236.096	1.68
236.479	1.51
236.862	2.77
237.245	2.25
237.628	2.25
238.011	2.68
238.394	2.08
238.777	2.87
239.16	-0.1
239.543	0.33
239.925	1.97
240.308	3.92
240.691	1.39
241.073	3.67
241.456	-0.07
241.838	0.91
242.221	1.7
242.603	1.68
242.986	2.19
243.368	1.65
243.75	1.51
244.133	1.75
244.515	1.52
244.897	1.19
245.279	1.56
245.661	0.84
246.043	1.92
246.425	0.83
246.807	1.84
247.189	1.38
247.571	2.21
247.953	1.87
248.335	1.88
248.717	1.72
249.098	1.95
249.48	1.48
249.862	1.69
250.243	1.54
250.625	1.54
251.006	1.96
251.388	1.93
251.769	1.54
252.151	1.25
252.532	1.73
252.913	1.82
253.295	1.8
253.676	2.08
254.057	1.34
254.438	1.5
254.819	1.99
255.2	1.24
255.581	1.09
255.962	0.99
256.343	3.41
256.724	1.47
257.105	2.28
257.486	0.85
257.867	0.07
258.247	1.39
258.628	2.19
259.009	1.93
259.389	2.19
259.77	1.33
260.15	2.64
260.531	2.13
260.911	1.78
261.292	1.78
261.672	1.72
262.052	1.57
262.432	1.17
262.813	1.22
263.193	0.76
263.573	1.29
263.953	1.32
264.333	1.85
264.713	1.68
265.093	1.82
265.473	2.16
265.853	2.18
266.233	1.78
266.612	1.67
266.992	1.68
267.372	1.56
267.752	1.05
268.131	1.7
268.511	1.35
268.89	2.08
269.27	1.63
269.649	2.09
270.029	1.52
270.408	2.23
270.787	1.47
271.167	1.89
271.546	1.09
271.925	1.81
272.304	1.39
272.683	1.55
273.062	1.96
273.441	2.07
273.82	2
274.199	1.32
274.578	1.71
274.957	1.7
275.336	1.77
275.715	1.77
276.093	1.88
276.472	1.7
276.851	1.77
277.229	2.27
277.608	1.52
277.986	1.76
278.365	1.51
278.743	1.84
279.122	1.51
279.5	1.69
279.878	0.99
280.257	2.53
280.635	1.44
281.013	1.86
281.391	1.22
281.769	1.31
282.147	1.75
282.525	2
282.903	1.36
283.281	1.8
283.659	1.72
284.037	1.44
284.415	1.92
284.792	1.89
285.17	1.6
285.548	1.67
285.925	1.37
286.303	1.56
286.68	2.12
287.058	1.57
287.435	1.64
287.813	1.63
288.19	1.89
288.567	1.4
288.945	1.3
289.322	1.29
289.699	1.39
290.076	1.74
290.453	1.6
290.83	1.63
291.207	1.4
291.584	1.15
291.961	1.88
292.338	1.67
292.715	1.55
293.092	1.37
293.469	1.98
293.845	1.98
294.222	1.94
294.599	2.22
294.975	1.79
295.352	1.1
295.728	1.91
296.105	1.68
296.481	1.94
296.858	2.23
297.234	1.88
297.61	1.54
297.986	1.44
298.363	1.39
298.739	1.65
299.115	1.21
299.491	1.64
299.867	1.69
300.243	1.69
300.619	1.41
300.995	2.34
301.371	1.8
301.746	1.62
302.122	2.12
302.498	1.75
302.874	2.02
303.249	2.11
303.625	1.8
304	1.53
304.376	2.2
304.751	1.65
305.127	1.88
305.502	1.88
305.878	1.52
306.253	1.69
306.628	1.93
307.003	1.85
307.378	1.45
307.754	2.04
308.129	1.15
308.504	1.51
308.879	2.24
309.254	2.01
309.629	2.02
310.003	1.95
310.378	2.04
310.753	1.87
311.128	1.41
311.502	2.06
311.877	1.58
312.252	1.69
312.626	1.33
313.001	1.73
313.375	1.51
313.75	1.98
314.124	2.38
314.498	1.68
314.873	1.95
315.247	1.84
315.621	2.28
315.995	1.68
316.369	1.68
316.743	1.78
317.117	1.75
317.491	1.83
317.865	1.31
318.239	2.58
318.613	2.25
318.987	1.89
319.361	1.49
319.734	1.94
320.108	2.38
320.482	1.45
320.855	1.27
321.229	2.56
321.602	1.92
321.976	1.88
322.349	1.19
322.723	1.41
323.096	1.83
323.469	1.76
323.843	1.82
324.216	1.73
324.589	1.94
324.962	2.01
325.335	1.57
325.708	1.88
326.081	2.47
326.454	1.78
326.827	2.02
327.2	2.14
327.573	2.07
327.945	1.91
328.318	1.95
328.691	1.94
329.063	1.79
329.436	1.94
329.809	1.58
330.181	1.61
330.553	2.07
330.926	2.38
331.298	1.23
331.671	2.15
332.043	2.1
332.415	2.11
332.787	2.01
333.159	1.63
333.532	1.65
333.904	1.91
334.276	1.65
334.648	1.93
335.02	2.09
335.391	2.16
335.763	2.1
336.135	1.78
336.507	1.64
336.879	1.88
337.25	1.67
337.622	2.06
337.993	2.23
338.365	2.1
338.736	2.1
339.108	1.85
339.479	1.91
339.851	2.33
340.222	1.97
340.593	1.56
340.964	1.71
341.336	1.51
341.707	2.07
342.078	1.64
342.449	2.14
342.82	1.85
343.191	1.62
343.562	1.9
343.933	2.1
344.303	2.17
344.674	1.85
345.045	2.24
345.416	1.95
345.786	1.47
346.157	1.86
346.527	1.69
346.898	1.72
347.268	2.02
347.639	2.09
348.009	2.04
348.38	1.66
348.75	1.99
349.12	1.94
349.49	1.5
349.861	2.35
350.231	1.9
350.601	1.9
350.971	1.94
351.341	2.35
351.711	2.13
352.081	1.99
352.45	2.19
352.82	1.84
353.19	1.87
353.56	1.82
353.929	2.04
354.299	1.63
354.669	1.83
355.038	2.13
355.408	2.56
355.777	1.97
356.147	2.03
356.516	2.38
356.885	1.89
357.254	1.87
357.624	2.14
357.993	1.9
358.362	2.08
358.731	2.06
359.1	2.14
359.469	2.04
359.838	1.99
360.207	1.72
360.576	1.83
360.945	2.06
361.314	1.91
361.682	1.77
362.051	1.94
362.42	2.07
362.788	1.98
363.157	1.87
363.525	1.86
363.894	1.61
364.262	1.81
364.631	2.47
364.999	1.55
365.367	2.07
365.735	1.59
366.104	1.78
366.472	2.09
366.84	2.05
367.208	1.66
367.576	1.83
367.944	2.27
368.312	1.46
368.68	2.15
369.048	2.22
369.416	2.12
369.783	1.92
370.151	2.1
370.519	1.84
370.886	2.2
371.254	1.88
371.621	1.68
371.989	1.97
372.356	2.08
372.724	1.91
373.091	1.99
373.458	2
373.826	1.69
374.193	2.46
374.56	1.74
374.927	1.71
375.294	2.08
375.661	2.15
376.028	2.06
376.395	1.81
376.762	2.57
377.129	2.34
377.496	2.18
377.863	1.98
378.229	2.07
378.596	1.95
378.963	1.75
379.329	1.84
379.696	1.89
380.062	1.8
380.429	2.01
380.795	1.73
381.161	2.01
381.528	1.71
381.894	1.93
382.26	1.99
382.626	1.91
382.993	1.63
383.359	1.95
383.725	2.15
384.091	2.13
384.457	2.03
384.823	1.9
385.188	2.19
385.554	2.12
385.92	2.23
386.286	2.33
386.651	1.83
387.017	2.19
387.383	2.04
387.748	2.04
388.114	2.05
388.479	2.38
388.845	2.11
389.21	2.23
389.575	2.19
389.94	2.05
390.306	2.04
390.671	2.15
391.036	2.27
391.401	2.41
391.766	2.25
392.131	2.07
392.496	2.05
392.861	2.08
393.226	2.01
393.591	2.2
393.956	2.08
394.32	1.9
394.685	2.22
395.05	2.11
395.414	2.14
395.779	1.97
396.143	2.26
396.508	2.29
396.872	2.27
397.236	1.74
397.601	2.08
397.965	1.72
398.329	2.21
398.694	2.06
399.058	2.21
399.422	2.19
399.786	2.32
400.15	2.15
400.514	2.02
400.878	2.09
401.242	2.17
401.605	1.97
401.969	2.01
402.333	2.27
402.697	2.15
403.06	2.07
403.424	1.95
403.787	2.15
404.151	2.14
404.514	2.25
404.878	2.14
405.241	2.38
405.604	2.23
405.968	2.32
406.331	2.39
406.694	2.15
407.057	2.43
407.42	2.13
407.783	2.21
408.146	2.22
408.509	2.29
408.872	2.09
409.235	2.3
409.598	2.53
409.961	2.55
410.323	2.13
410.686	2.15
411.049	2.01
411.411	2.26
411.774	2.1
412.136	2.37
412.499	2.16
412.861	2.12
413.223	2.34
413.586	2.27
413.948	2.05
414.31	2.33
414.672	2.25
415.035	2.28
415.397	2.22
415.759	2.18
416.121	2.26
416.483	2.42
416.845	2.04
417.206	2.33
417.568	2.22
417.93	2.22
418.292	2.22
418.653	2.32
419.015	2.39
419.377	2.22
419.738	2.09
420.1	2.24
420.461	2.17
420.822	2.23
421.184	2.17
421.545	2.28
421.906	2.31
422.267	2.09
422.629	2.24
422.99	2.14
423.351	2.14
423.712	2.11
424.073	2.3
424.434	2.18
424.795	2.15
425.155	2.21
425.516	2.21
425.877	2.27
426.238	2.17
426.598	2.34
426.959	2.24
427.32	2.28
427.68	2.28
428.041	2.21
428.401	2.22
428.761	2.18
429.122	2.13
429.482	2.17
429.842	2.43
430.202	2.18
430.563	2.13
430.923	2.36
431.283	2.38
431.643	2.25
432.003	2.38
432.363	2.39
432.722	2.34
433.082	2.31
433.442	2.15
433.802	2.4
434.161	2.3
434.521	2.43
434.881	2.48
435.24	2.25
435.6	2.17
435.959	2.24
436.319	2.22
436.678	2.39
437.037	2.37
437.396	2.36
437.756	2.28
438.115	2.32
438.474	2.38
438.833	2.39
439.192	2.43
439.551	2.41
439.91	2.28
440.269	2.39
440.628	2.33
440.987	2.22
441.345	2.26
441.704	2.36
442.063	2.33
442.421	2.37
442.78	2.3
443.138	2.3
443.497	2.35
443.855	2.39
444.214	2.37
444.572	2.33
444.93	2.37
445.288	2.39
445.647	2.42
446.005	2.22
446.363	2.35
446.721	2.22
447.079	2.39
447.437	2.31
447.795	2.33
448.153	2.25
448.51	2.29
448.868	2.37
449.226	2.39
449.584	2.36
449.941	2.39
450.299	2.37
450.656	2.37
451.014	2.29
451.371	2.41
451.729	2.38
452.086	2.26
452.443	2.44
452.801	2.48
453.158	2.39
453.515	2.36
453.872	2.47
454.229	2.38
454.586	2.46
454.943	2.48
455.3	2.62
455.657	2.31
456.014	2.56
456.371	2.5
456.727	2.32
457.084	2.53
457.441	2.38
457.797	2.33
458.154	2.51
458.51	2.38
458.867	2.36
459.223	2.43
459.58	2.41
459.936	2.4
460.292	2.46
460.648	2.24
461.005	2.36
461.361	2.3
461.717	2.38
462.073	2.44
462.429	2.38
462.785	2.55
463.141	2.55
463.496	2.4
463.852	2.53
464.208	2.49
464.564	2.44
464.919	2.49
465.275	2.52
465.631	2.48
465.986	2.37
466.342	2.34
466.697	2.5
467.052	2.47
467.408	2.39
467.763	2.44
468.118	2.49
468.473	2.53
468.829	2.51
469.184	2.55
469.539	2.34
469.894	2.42
470.249	2.52
470.603	2.64
470.958	2.44
471.313	2.49
471.668	2.65
472.023	2.65
472.377	2.5
472.732	2.5
473.086	2.34
473.441	2.52
473.795	2.58
474.15	2.42
474.504	2.55
474.859	2.53
475.213	2.44
475.567	2.45
475.921	2.59
476.275	2.56
476.63	2.58
476.984	2.39
477.338	2.7
477.692	2.61
478.045	2.51
478.399	2.56
478.753	2.5
479.107	2.51
479.461	2.61
479.814	2.4
480.168	2.52
480.521	2.53
480.875	2.75
481.228	2.76
481.582	2.51
481.935	2.48
482.289	2.48
482.642	2.61
482.995	2.62
483.348	2.53
483.701	2.51
484.055	2.55
484.408	2.5
484.761	2.42
485.114	2.35
485.466	2.37
485.819	2.38
486.172	2.47
486.525	2.46
486.878	2.48
487.23	2.53
487.583	2.53
487.936	2.55
488.288	2.48
488.641	2.51
488.993	2.4
489.345	2.43
489.698	2.49
490.05	2.52
490.402	2.55
490.754	2.54
491.107	2.55
491.459	2.68
491.811	2.61
492.163	2.63
492.515	2.6
492.866	2.46
493.218	2.47
493.57	2.55
493.922	2.56
494.274	2.55
494.625	2.59
494.977	2.64
495.328	2.74
495.68	2.81
496.031	2.75
496.383	2.74
496.734	2.74
497.086	2.62
497.437	2.7
497.788	2.62
498.139	2.76
498.49	2.75
498.842	2.61
499.193	2.69
499.544	2.74
499.894	2.79
500.245	2.67
500.596	2.71
500.947	2.62
501.298	2.73
501.648	2.79
501.999	2.87
502.35	2.71
502.7	2.8
503.051	2.86
503.401	2.76
503.752	2.76
504.102	2.66
504.452	2.73
504.803	2.63
505.153	2.72
505.503	2.75
505.853	2.63
506.203	2.73
506.553	2.95
506.903	2.8
507.253	2.84
507.603	2.79
507.953	2.84
508.303	2.79
508.652	2.77
509.002	2.88
509.352	2.78
509.701	2.72
510.051	2.89
510.4	2.92
510.75	2.94
511.099	2.88
511.449	2.9
511.798	3.01
512.147	2.87
512.496	2.97
512.846	2.83
513.195	2.81
513.544	2.89
513.893	2.74
514.242	3
514.591	2.93
514.939	2.8
515.288	2.87
515.637	3.04
515.986	2.88
516.334	2.93
516.683	2.89
517.032	2.87
517.38	2.98
517.729	3.01
518.077	2.99
518.426	2.87
518.774	2.94
519.122	2.86
519.47	2.95
519.819	2.91
520.167	2.98
520.515	2.89
520.863	2.93
521.211	3.04
521.559	2.94
521.907	2.99
522.255	2.95
522.602	3.06
522.95	3
523.298	3.15
523.645	3.07
523.993	3.1
524.341	3.06
524.688	3.05
525.036	3.13
525.383	3.17
525.73	3.15
526.078	3.16
526.425	3.09
526.772	2.98
527.119	2.98
527.466	3.07
527.814	3
528.161	3.07
528.508	3.06
528.854	2.97
529.201	3.02
529.548	2.97
529.895	2.93
530.242	2.91
530.588	3
530.935	3.01
531.282	3.09
531.628	3.11
531.975	3.16
532.321	3.02
532.667	3.1
533.014	3.19
533.36	3.15
533.706	3.17
534.052	3.18
534.399	3.08
534.745	3.09
535.091	3.09
535.437	3.12
535.783	3.23
536.129	3.24
536.474	3.33
536.82	3.23
537.166	3.29
537.512	3.28
537.857	3.26
538.203	3.17
538.549	3.36
538.894	3.28
539.239	3.38
539.585	3.34
539.93	3.32
540.276	3.25
540.621	3.41
540.966	3.27
541.311	3.34
541.656	3.35
542.001	3.4
542.346	3.33
542.691	3.26
543.036	3.27
543.381	3.32
543.726	3.36
544.071	3.4
544.415	3.45
544.76	3.29
545.105	3.37
545.449	3.47
545.794	3.42
546.138	3.43
546.483	3.51
546.827	3.6
547.171	3.54
547.516	3.6
547.86	3.47
548.204	3.51
548.548	3.59
548.892	3.54
549.236	3.63
549.58	3.63
549.924	3.63
550.268	3.73
550.612	3.75
550.956	3.61
551.3	3.61
551.643	3.63
551.987	3.73
552.33	3.7
552.674	3.91
553.017	3.79
553.361	3.67
553.704	3.72
554.048	3.81
554.391	3.76
554.734	3.79
555.077	3.9
555.42	3.8
555.764	3.82
556.107	3.96
556.45	3.78
556.793	4.12
557.135	4.15
557.478	4.08
557.821	3.92
558.164	3.91
558.507	3.86
558.849	3.87
559.192	4.03
559.534	3.93
559.877	4.09
560.219	4.28
560.562	4.09
560.904	4.07
561.246	4.2
561.589	4.13
561.931	4.26
562.273	4.01
562.615	4.23
562.957	4.05
563.299	4.11
563.641	4.22
563.983	4.09
564.325	4.11
564.667	4.17
565.008	3.99
565.35	4.31
565.692	4.4
566.033	4.31
566.375	4.05
566.716	4.47
567.058	4.35
567.399	4.37
567.741	4.47
568.082	4.27
568.423	4.29
568.764	4.39
569.105	4.46
569.447	4.45
569.788	4.45
570.129	4.48
570.47	4.42
570.811	4.67
571.151	4.52
571.492	4.6
571.833	4.56
572.174	4.4
572.514	4.41
572.855	4.55
573.195	4.49
573.536	4.52
573.876	4.65
574.217	4.67
574.557	4.74
574.898	4.63
575.238	4.54
575.578	4.71
575.918	4.78
576.258	4.85
576.598	4.63
576.938	4.76
577.278	4.68
577.618	4.67
577.958	4.63
578.298	4.73
578.638	4.67
578.977	4.92
579.317	5.09
579.657	4.98
579.996	5.07
580.336	4.81
580.675	5.02
581.014	5.1
581.354	5.23
581.693	5.09
582.032	4.87
582.372	5.16
582.711	5.03
583.05	5.2
583.389	5.13
583.728	5.02
584.067	5.34
584.406	5.57
584.745	5.31
585.083	5.54
585.422	5.44
585.761	5.32
586.1	5.23
586.438	5.46
586.777	5.3
587.115	5.39
587.454	5.36
587.792	5.21
588.13	5.67
588.469	5.47
588.807	5.55
589.145	5.37
589.483	5.25
589.821	5.5
590.159	5.35
590.497	5.23
590.835	5.41
591.173	5.83
591.511	5.67
591.849	5.86
592.187	5.63
592.524	5.62
592.862	5.65
593.2	5.63
593.537	5.83
593.875	5.79
594.212	5.77
594.55	5.79
594.887	6.02
595.224	5.86
595.561	5.99
595.899	5.83
596.236	5.78
596.573	5.76
596.91	5.93
597.247	5.7
597.584	5.97
597.921	5.78
598.258	5.84
598.594	5.8
598.931	6.03
599.268	5.98
599.604	6.15
599.941	5.99
600.277	6.05
600.614	6.03
600.95	6.32
601.287	6.11
601.623	6.48
601.959	6.05
602.296	6.32
602.632	6.38
602.968	6.21
603.304	6.45
603.64	6.28
603.976	6.12
604.312	6.51
604.648	6.4
604.984	6.3
605.319	6.3
605.655	6.45
605.991	6.42
606.326	6.28
606.662	6.48
606.998	6.5
607.333	6.32
607.668	6.64
608.004	6.4
608.339	6.5
608.674	6.69
609.01	6.8
609.345	6.76
609.68	6.52
610.015	6.79
610.35	6.7
610.685	6.84
611.02	6.82
611.355	6.97
611.689	6.64
612.024	6.83
612.359	6.93
612.694	7
613.028	7.11
613.363	6.89
613.697	6.91
614.032	7.17
614.366	7.06
614.7	7.25
615.035	7.1
615.369	7.11
615.703	7.61
616.037	6.89
616.371	7.09
616.705	7.24
617.039	7.41
617.373	7.32
617.707	6.9
618.041	7.6
618.375	7.01
618.709	7.46
619.042	7.45
619.376	7.22
619.71	7.23
620.043	7.15
620.377	7.32
620.71	7.45
621.043	7.2
621.377	7.35
621.71	8.09
622.043	7.83
622.376	7.42
622.709	7.82
623.043	7.65
623.376	7.93
623.709	8.16
624.041	7.93
624.374	7.75
624.707	7.79
625.04	8.24
625.373	7.58
625.705	7.82
626.038	7.81
626.37	7.98
626.703	7.81
627.035	7.87
627.368	8.28
627.7	8.18
628.032	7.88
628.365	7.92
628.697	7.81
629.029	8.21
629.361	8.02
629.693	8.52
630.025	8.26
630.357	8.05
630.689	8.51
631.021	8.45
631.353	8.46
631.684	8.32
632.016	8.13
632.348	8.49
632.679	8.16
633.011	8.65
633.342	8.58
633.674	8.42
634.005	8.31
634.336	8.43
634.668	8.54
634.999	8.5
635.33	8.64
635.661	8.54
635.992	8.46
636.323	8.77
636.654	8.35
636.985	8.54
637.316	8.67
637.647	9.02
637.977	8.49
638.308	8.45
638.639	8.96
638.969	8.89
639.3	8.74
639.63	8.57
639.961	8.94
640.291	9.29
640.622	9.07
640.952	9.11
641.282	9.11
641.612	9.36
641.943	9.09
642.273	8.71
642.603	9
642.933	9.39
643.263	9.53
643.592	9.31
643.922	9.48
644.252	9.04
644.582	9.41
644.911	9.36
645.241	9.26
645.571	9.12
645.9	9.94
646.23	9.26
646.559	9.75
646.888	9.28
647.218	9.6
647.547	9.62
647.876	9.73
648.205	9.37
648.534	9.53
648.863	9.66
649.192	9.72
649.521	9.25
649.85	10.14
650.179	9.06
650.508	9.99
650.837	9.72
651.165	9.78
651.494	9.64
651.822	9.7
652.151	10.55
652.479	10.04
652.808	9.48
653.136	9.64
653.465	10.26
653.793	10.11
654.121	10.01
654.449	10.03
654.777	10.4
655.105	10.45
655.433	10.23
655.761	9.83
656.089	10.32
656.417	10.01
656.745	10.83
657.073	10.72
657.4	10.27
657.728	10.72
658.056	10.27
658.383	10.07
658.711	10.16
659.038	10.19
659.365	10.48
659.693	10.31
660.02	10.45
660.347	10.74
660.674	10.42
661.001	10.21
661.329	10.48
661.656	10.82
661.982	10.63
662.309	10.73
662.636	10.53
662.963	10.97
663.29	10.43
663.616	10.95
663.943	11.22
664.27	11.02
664.596	10.94
664.923	11.34
665.249	11.19
665.576	10.82
665.902	11.26
666.228	10.93
666.554	10.71
666.881	11.39
667.207	10.8
667.533	11.52
667.859	10.77
668.185	11.15
668.511	10.57
668.837	10.71
669.162	10.96
669.488	11.04
669.814	11.9
670.139	11.5
670.465	11.43
670.791	11.41
671.116	11.54
671.442	11.66
671.767	11.49
672.092	12.25
672.418	11.78
672.743	11.53
673.068	11.25
673.393	11.91
673.718	11.93
674.043	11.79
674.368	12.12
674.693	11.59
675.018	11.99
675.343	12.03
675.667	12.34
675.992	11.41
676.317	11.61
676.641	12.24
676.966	11.65
677.29	11.67
677.615	12.34
677.939	11.5
678.264	12.19
678.588	12.05
678.912	11.87
679.236	11.92
679.56	11.59
679.885	12.22
680.209	11.37
680.532	11.99
680.856	12.8
681.18	12.08
681.504	11.79
681.828	11.79
682.152	12.02
682.475	11.96
682.799	12.29
683.122	12.59
683.446	12.1
683.769	12.52
684.093	12.54
684.416	12.16
684.739	13.46
685.062	12.59
685.386	12.74
685.709	12.58
686.032	12.58
686.355	12.16
686.678	12.53
687.001	11.71
687.324	12.21
687.646	12.6
687.969	12.82
688.292	13.32
688.614	14.16
688.937	12.95
689.26	12.82
