Data from 0063_crown_Reflection__1__214.txt Node

Date: Fri Dec 16 15:39:30 CST 2022
User: ToomeyLab
Spectrometer: FLMS14357
Trigger mode: 0
Integration Time (sec): 1.000000E-2
Scans to average: 100
Electric dark correction enabled: true
Nonlinearity correction enabled: false
Boxcar width: 0
XAxis mode: Wavelengths
Number of Pixels in Spectrum: 2048
>>>>>Begin Spectral Data<<<<<
189.047	-648.94
189.435	-648.94
189.823	-648.94
190.211	136.58
190.599	-48.12
190.987	492.39
191.375	-20.85
191.763	392.12
192.151	61.08
192.538	338.15
192.926	606.23
193.314	88.7
193.702	227.82
194.089	468.22
194.477	157.01
194.864	-25.3
195.252	322.5
195.639	47.32
196.027	80.04
196.414	-152.93
196.801	-314.88
197.189	98.8
197.576	-38.26
197.963	-473.42
198.351	2.58
198.738	-28.46
199.125	21.12
199.512	-40.27
199.899	-18.94
200.286	-60.79
200.673	3.81
201.06	18.19
201.447	7.32
201.833	-10.36
202.22	-3.98
202.607	-89.3
202.994	6.13
203.38	-21.43
203.767	-28.85
204.154	-44.62
204.54	9.06
204.927	-15.3
205.313	31.3
205.699	-16.66
206.086	-46.78
206.472	-82.39
206.858	-7.51
207.245	24.6
207.631	-40.74
208.017	14.57
208.403	23.29
208.789	-72.34
209.175	75.46
209.561	-25.71
209.947	-41.58
210.333	-20.63
210.719	-4.71
211.105	-31.81
211.491	2.85
211.876	-18.3
212.262	-67.33
212.648	-26.76
213.034	8.05
213.419	-3.75
213.805	-5.69
214.19	-33.45
214.576	-19.08
214.961	-0.38
215.346	-23.59
215.732	-11.91
216.117	-56.49
216.502	-35.3
216.888	-32.01
217.273	0.7
217.658	-12
218.043	31.08
218.428	-24.04
218.813	-10.57
219.198	-46.55
219.583	-30.03
219.968	-9.55
220.353	-11.05
220.738	-21.12
221.122	-2.47
221.507	-26
221.892	18.16
222.276	1.65
222.661	-20.63
223.046	14.53
223.43	-17.7
223.815	4.47
224.199	3.66
224.583	1.09
224.968	1.33
225.352	-3.4
225.736	9.43
226.121	-1.17
226.505	4.1
226.889	4.75
227.273	7.5
227.657	-4.38
228.041	2.95
228.425	2.39
228.809	0.36
229.193	-1.45
229.577	0.54
229.961	2.58
230.344	2.24
230.728	1.57
231.112	2.07
231.495	0.65
231.879	1.08
232.263	0.64
232.646	0.88
233.03	-1.83
233.413	1.12
233.797	2.47
234.18	-1.26
234.563	0.84
234.946	0.17
235.33	1.41
235.713	1.73
236.096	1.84
236.479	2.23
236.862	2.5
237.245	2.81
237.628	2.6
238.011	1.35
238.394	1.03
238.777	1.72
239.16	-0.82
239.543	0.14
239.925	1.31
240.308	2.42
240.691	1.79
241.073	0.91
241.456	1.14
241.838	0.75
242.221	1.89
242.603	1.57
242.986	2.45
243.368	1.52
243.75	1.38
244.133	1.68
244.515	1.94
244.897	1.9
245.279	2.08
245.661	2.04
246.043	2.44
246.425	0.7
246.807	1.57
247.189	1.52
247.571	2.52
247.953	1.54
248.335	2.02
248.717	1.79
249.098	1.95
249.48	0.95
249.862	1.64
250.243	1.95
250.625	2.11
251.006	1.24
251.388	1.47
251.769	0.32
252.151	1.7
252.532	1.36
252.913	1.7
253.295	1.72
253.676	2.13
254.057	1.38
254.438	1.26
254.819	2.05
255.2	1.35
255.581	1.68
255.962	2.65
256.343	2.07
256.724	0.86
257.105	0.95
257.486	2.02
257.867	-0.78
258.247	1.58
258.628	2.5
259.009	1.9
259.389	2.11
259.77	1.48
260.15	2.2
260.531	1.85
260.911	1.71
261.292	1.67
261.672	1.7
262.052	1.81
262.432	1.5
262.813	1.86
263.193	1.18
263.573	1.77
263.953	0.92
264.333	1.39
264.713	0.96
265.093	1.46
265.473	2.3
265.853	1.88
266.233	1.43
266.612	1.62
266.992	0.98
267.372	1.54
267.752	1.55
268.131	1.73
268.511	2.04
268.89	1.99
269.27	1.63
269.649	2.08
270.029	1.18
270.408	1.41
270.787	1.67
271.167	1.18
271.546	1.02
271.925	1.2
272.304	1.62
272.683	1.38
273.062	1.89
273.441	2.02
273.82	1.74
274.199	1.9
274.578	1.76
274.957	1.31
275.336	1.51
275.715	0.98
276.093	2.08
276.472	1.53
276.851	1.55
277.229	1.75
277.608	2.3
277.986	1.62
278.365	1.3
278.743	1.63
279.122	1.4
279.5	1.34
279.878	0.37
280.257	1.94
280.635	1.31
281.013	1.68
281.391	1.6
281.769	2.01
282.147	1.5
282.525	1.26
282.903	1.27
283.281	1.31
283.659	1.99
284.037	1.47
284.415	1.48
284.792	1.45
285.17	1.3
285.548	0.99
285.925	1.14
286.303	1.55
286.68	1.87
287.058	1.79
287.435	1.62
287.813	1.86
288.19	1.81
288.567	1.35
288.945	1.23
289.322	1.62
289.699	1.33
290.076	1.83
290.453	1.25
290.83	1.86
291.207	1.67
291.584	1.31
291.961	1.89
292.338	1.67
292.715	1.55
293.092	1.59
293.469	1.95
293.845	1.98
294.222	1.4
294.599	1.37
294.975	1.31
295.352	1.3
295.728	1.75
296.105	1.21
296.481	2.02
296.858	1.68
297.234	1.68
297.61	1.49
297.986	2.02
298.363	1.64
298.739	1.49
299.115	1.16
299.491	1.36
299.867	1.68
300.243	1.37
300.619	1.64
300.995	2
301.371	1.78
301.746	1.2
302.122	2.06
302.498	1.58
302.874	1.62
303.249	1.95
303.625	1.56
304	0.79
304.376	1.32
304.751	1.47
305.127	1.26
305.502	2.44
305.878	1.65
306.253	1.8
306.628	1.47
307.003	1.8
307.378	1.32
307.754	1.25
308.129	1.41
308.504	1.35
308.879	1.24
309.254	1.9
309.629	1.67
310.003	1.99
310.378	2.06
310.753	1.36
311.128	1.8
311.502	1.52
311.877	1.79
312.252	1.5
312.626	1.29
313.001	1.31
313.375	1.56
313.75	1.57
314.124	1.75
314.498	1.56
314.873	1.29
315.247	1.33
315.621	2.04
315.995	1.24
316.369	1.61
316.743	2.1
317.117	1.56
317.491	1.62
317.865	1.02
318.239	1.92
318.613	1.5
318.987	1.76
319.361	1.46
319.734	1.92
320.108	1.99
320.482	1.41
320.855	1.48
321.229	2.2
321.602	1.74
321.976	0.66
322.349	0.7
322.723	1.31
323.096	1.79
323.469	0.91
323.843	1.54
324.216	1.2
324.589	1.54
324.962	1.44
325.335	1.52
325.708	1.93
326.081	1.93
326.454	1.92
326.827	1.5
327.2	1.75
327.573	1.9
327.945	1.83
328.318	1.71
328.691	1.57
329.063	1.33
329.436	1.47
329.809	1.07
330.181	1.31
330.553	1.84
330.926	1.72
331.298	1.34
331.671	1.42
332.043	1.86
332.415	1.8
332.787	1.66
333.159	1.23
333.532	1.5
333.904	1.88
334.276	1.62
334.648	1.5
335.02	1.34
335.391	1.81
335.763	1.01
336.135	1.66
336.507	2.07
336.879	1.62
337.25	1.32
337.622	1.71
337.993	1.62
338.365	2.25
338.736	1.32
339.108	1.39
339.479	1.57
339.851	2.17
340.222	1.72
340.593	1.52
340.964	1.81
341.336	1.14
341.707	1.78
342.078	1.81
342.449	1.86
342.82	1.48
343.191	1.37
343.562	1.52
343.933	2.06
344.303	1.79
344.674	1.83
345.045	2.07
345.416	1.58
345.786	1.07
346.157	1.62
346.527	1.36
346.898	1.36
347.268	1.47
347.639	1.57
348.009	1.8
348.38	1.47
348.75	1.45
349.12	2.16
349.49	1.56
349.861	1.84
350.231	1.8
350.601	1.61
350.971	1.67
351.341	1.96
351.711	1.61
352.081	1.51
352.45	1.91
352.82	1.53
353.19	1.63
353.56	1.64
353.929	2.01
354.299	1.44
354.669	1.72
355.038	1.65
355.408	2.45
355.777	1.94
356.147	1.99
356.516	1.97
356.885	1.8
357.254	1.88
357.624	2.01
357.993	1.56
358.362	1.83
358.731	1.55
359.1	1.73
359.469	1.83
359.838	1.74
360.207	1.69
360.576	1.79
360.945	1.72
361.314	1.8
361.682	1.67
362.051	1.71
362.42	1.9
362.788	1.81
363.157	1.58
363.525	1.72
363.894	1.58
364.262	1.56
364.631	2.15
364.999	1.56
365.367	2.08
365.735	1.53
366.104	1.59
366.472	1.63
366.84	1.74
367.208	1.3
367.576	1.72
367.944	1.95
368.312	1.46
368.68	1.87
369.048	2.1
369.416	1.73
369.783	1.5
370.151	1.76
370.519	1.6
370.886	1.74
371.254	1.69
371.621	2.08
371.989	1.59
372.356	1.81
372.724	2.04
373.091	1.89
373.458	1.52
373.826	1.75
374.193	2.05
374.56	1.66
374.927	1.66
375.294	1.86
375.661	1.82
376.028	1.79
376.395	1.7
376.762	2.02
377.129	1.91
377.496	1.93
377.863	1.76
378.229	1.79
378.596	1.77
378.963	1.64
379.329	1.8
379.696	1.67
380.062	2.03
380.429	1.92
380.795	1.46
381.161	1.87
381.528	1.57
381.894	1.67
382.26	1.66
382.626	1.73
382.993	1.62
383.359	1.69
383.725	1.97
384.091	1.7
384.457	1.93
384.823	1.89
385.188	2.07
385.554	1.57
385.92	1.85
386.286	1.67
386.651	1.81
387.017	1.83
387.383	1.88
387.748	1.67
388.114	1.84
388.479	1.73
388.845	1.95
389.21	1.93
389.575	1.77
389.94	1.82
390.306	1.86
390.671	1.77
391.036	1.82
391.401	2.28
391.766	1.76
392.131	1.92
392.496	2.08
392.861	1.94
393.226	1.98
393.591	1.81
393.956	2.05
394.32	1.76
394.685	1.94
395.05	1.7
395.414	2.07
395.779	1.83
396.143	1.86
396.508	1.9
396.872	2.01
397.236	1.26
397.601	2.07
397.965	1.78
398.329	2.14
398.694	1.88
399.058	2.05
399.422	2.11
399.786	1.94
400.15	1.96
400.514	2.05
400.878	1.91
401.242	2.24
401.605	1.86
401.969	2.03
402.333	1.69
402.697	2.18
403.06	2.17
403.424	1.82
403.787	2.18
404.151	1.98
404.514	1.91
404.878	1.88
405.241	2.32
405.604	1.82
405.968	2.09
406.331	1.98
406.694	2.07
407.057	2.23
407.42	1.97
407.783	1.83
408.146	1.98
408.509	1.89
408.872	1.88
409.235	1.79
409.598	2.13
409.961	2.04
410.323	2.01
410.686	2.1
411.049	1.79
411.411	1.99
411.774	2.08
412.136	2.12
412.499	2
412.861	1.85
413.223	2.08
413.586	1.95
413.948	2.01
414.31	2.1
414.672	1.97
415.035	2.02
415.397	2.2
415.759	1.98
416.121	2.17
416.483	2.05
416.845	1.97
417.206	2.3
417.568	1.93
417.93	1.9
418.292	2.16
418.653	2.11
419.015	2.13
419.377	2.11
419.738	1.93
420.1	1.97
420.461	2.02
420.822	2.14
421.184	2.04
421.545	1.96
421.906	2.03
422.267	1.88
422.629	2.05
422.99	2.02
423.351	2.03
423.712	1.97
424.073	2.06
424.434	1.9
424.795	1.88
425.155	2.04
425.516	1.94
425.877	2.02
426.238	1.94
426.598	2.06
426.959	1.95
427.32	2.05
427.68	2.11
428.041	2.06
428.401	2.04
428.761	2.04
429.122	1.99
429.482	1.99
429.842	2.01
430.202	2.01
430.563	2.05
430.923	2.05
431.283	2.21
431.643	2.11
432.003	2.14
432.363	2.33
432.722	1.94
433.082	2.07
433.442	2.1
433.802	2.06
434.161	1.96
434.521	2.1
434.881	2.17
435.24	2.03
435.6	2.1
435.959	2.04
436.319	2.06
436.678	2.11
437.037	2.01
437.396	2.1
437.756	2.08
438.115	1.98
438.474	2.06
438.833	1.98
439.192	2.14
439.551	2.09
439.91	2.16
440.269	2.23
440.628	2
440.987	2
441.345	1.99
441.704	2.19
442.063	2.07
442.421	2.14
442.78	2
443.138	2.04
443.497	2.07
443.855	2.03
444.214	2.21
444.572	2.04
444.93	2.03
445.288	2.14
445.647	2.15
446.005	1.98
446.363	2.04
446.721	1.98
447.079	2.06
447.437	2.09
447.795	2.04
448.153	2
448.51	2.06
448.868	2.17
449.226	2.05
449.584	2.08
449.941	2.19
450.299	2.09
450.656	2.12
451.014	2.13
451.371	2.19
451.729	2.11
452.086	1.98
452.443	2.17
452.801	2.29
453.158	2.05
453.515	2.15
453.872	2.09
454.229	2.01
454.586	2.13
454.943	2.14
455.3	2.33
455.657	2.07
456.014	2.16
456.371	2.08
456.727	1.89
457.084	2.01
457.441	2.1
457.797	2.19
458.154	2.15
458.51	1.94
458.867	2.07
459.223	2.16
459.58	2
459.936	2.09
460.292	2.25
460.648	2.03
461.005	1.98
461.361	2.07
461.717	2.18
462.073	2.08
462.429	2.23
462.785	2.19
463.141	2.31
463.496	2.19
463.852	2.24
464.208	2.28
464.564	2.15
464.919	2.13
465.275	2.2
465.631	2.3
465.986	2.1
466.342	2.05
466.697	2.15
467.052	2.15
467.408	2.04
467.763	1.95
468.118	2.29
468.473	2.33
468.829	2.03
469.184	2.22
469.539	2.15
469.894	2.2
470.249	2.12
470.603	2.2
470.958	2.24
471.313	2.04
471.668	2.22
472.023	2.19
472.377	2.14
472.732	2.14
473.086	1.97
473.441	2.1
473.795	2.38
474.15	2.05
474.504	2.2
474.859	2.32
475.213	2.06
475.567	2.09
475.921	2.34
476.275	2.24
476.63	2.28
476.984	2.03
477.338	2.42
477.692	2.21
478.045	2.1
478.399	2.23
478.753	2.14
479.107	2.15
479.461	2.24
479.814	2.16
480.168	2.17
480.521	2.17
480.875	2.32
481.228	2.22
481.582	2.12
481.935	2.27
482.289	2.08
482.642	2.15
482.995	2.16
483.348	2.16
483.701	2.17
484.055	2.13
484.408	2.13
484.761	1.95
485.114	1.95
485.466	2.03
485.819	2.08
486.172	2.16
486.525	2.21
486.878	2.15
487.23	2.23
487.583	2.16
487.936	2.2
488.288	2.1
488.641	2.1
488.993	2.05
489.345	2.11
489.698	2.17
490.05	2.14
490.402	2.27
490.754	2.2
491.107	2.17
491.459	2.26
491.811	2.29
492.163	2.23
492.515	2.19
492.866	2.06
493.218	2.08
493.57	2.17
493.922	2.17
494.274	2.28
494.625	2.25
494.977	2.21
495.328	2.37
495.68	2.38
496.031	2.23
496.383	2.27
496.734	2.2
497.086	2.11
497.437	2.36
497.788	2.29
498.139	2.18
498.49	2.27
498.842	2.22
499.193	2.24
499.544	2.29
499.894	2.33
500.245	2.18
500.596	2.19
500.947	2.27
501.298	2.21
501.648	2.31
501.999	2.37
502.35	2.45
502.7	2.29
503.051	2.41
503.401	2.4
503.752	2.24
504.102	2.25
504.452	2.21
504.803	2.26
505.153	2.37
505.503	2.19
505.853	2.23
506.203	2.21
506.553	2.33
506.903	2.29
507.253	2.27
507.603	2.24
507.953	2.41
508.303	2.26
508.652	2.29
509.002	2.33
509.352	2.25
509.701	2.33
510.051	2.27
510.4	2.26
510.75	2.28
511.099	2.22
511.449	2.24
511.798	2.45
512.147	2.34
512.496	2.45
512.846	2.29
513.195	2.28
513.544	2.22
513.893	2.13
514.242	2.35
514.591	2.42
514.939	2.31
515.288	2.38
515.637	2.36
515.986	2.42
516.334	2.35
516.683	2.25
517.032	2.26
517.38	2.38
517.729	2.18
518.077	2.42
518.426	2.24
518.774	2.24
519.122	2.24
519.47	2.27
519.819	2.3
520.167	2.25
520.515	2.26
520.863	2.3
521.211	2.32
521.559	2.36
521.907	2.31
522.255	2.46
522.602	2.39
522.95	2.34
523.298	2.31
523.645	2.29
523.993	2.41
524.341	2.32
524.688	2.44
525.036	2.45
525.383	2.35
525.73	2.4
526.078	2.32
526.425	2.24
526.772	2.22
527.119	2.24
527.466	2.3
527.814	2.28
528.161	2.35
528.508	2.31
528.854	2.2
529.201	2.23
529.548	2.18
529.895	2.12
530.242	2.16
530.588	2.25
530.935	2.23
531.282	2.35
531.628	2.32
531.975	2.41
532.321	2.29
532.667	2.29
533.014	2.33
533.36	2.32
533.706	2.32
534.052	2.21
534.399	2.26
534.745	2.23
535.091	2.27
535.437	2.27
535.783	2.42
536.129	2.37
536.474	2.46
536.82	2.45
537.166	2.49
537.512	2.39
537.857	2.35
538.203	2.26
538.549	2.36
538.894	2.36
539.239	2.44
539.585	2.52
539.93	2.45
540.276	2.36
540.621	2.41
540.966	2.38
541.311	2.43
541.656	2.29
542.001	2.4
542.346	2.29
542.691	2.21
543.036	2.22
543.381	2.35
543.726	2.41
544.071	2.39
544.415	2.42
544.76	2.36
545.105	2.41
545.449	2.39
545.794	2.35
546.138	2.43
546.483	2.33
546.827	2.45
547.171	2.44
547.516	2.39
547.86	2.38
548.204	2.38
548.548	2.39
548.892	2.46
549.236	2.48
549.58	2.45
549.924	2.5
550.268	2.58
550.612	2.44
550.956	2.5
551.3	2.5
551.643	2.4
551.987	2.5
552.33	2.35
552.674	2.55
553.017	2.42
553.361	2.45
553.704	2.37
554.048	2.45
554.391	2.4
554.734	2.43
555.077	2.59
555.42	2.55
555.764	2.5
556.107	2.58
556.45	2.5
556.793	2.59
557.135	2.7
557.478	2.6
557.821	2.4
558.164	2.45
558.507	2.48
558.849	2.37
559.192	2.55
559.534	2.38
559.877	2.68
560.219	2.54
560.562	2.64
560.904	2.44
561.246	2.73
561.589	2.59
561.931	2.7
562.273	2.51
562.615	2.56
562.957	2.49
563.299	2.58
563.641	2.48
563.983	2.66
564.325	2.38
564.667	2.45
565.008	2.37
565.35	2.79
565.692	2.63
566.033	2.47
566.375	2.48
566.716	2.62
567.058	2.47
567.399	2.57
567.741	2.61
568.082	2.57
568.423	2.43
568.764	2.57
569.105	2.54
569.447	2.59
569.788	2.55
570.129	2.57
570.47	2.74
570.811	2.52
571.151	2.53
571.492	2.81
571.833	2.5
572.174	2.56
572.514	2.47
572.855	2.53
573.195	2.52
573.536	2.52
573.876	2.63
574.217	2.6
574.557	2.64
574.898	2.44
575.238	2.49
575.578	2.65
575.918	2.53
576.258	2.58
576.598	2.5
576.938	2.69
577.278	2.63
577.618	2.66
577.958	2.63
578.298	2.64
578.638	2.41
578.977	2.71
579.317	2.62
579.657	2.58
579.996	2.56
580.336	2.39
580.675	2.84
581.014	2.76
581.354	2.61
581.693	2.57
582.032	2.64
582.372	2.76
582.711	2.49
583.05	2.67
583.389	2.66
583.728	2.71
584.067	2.57
584.406	2.84
584.745	2.61
585.083	2.84
585.422	2.61
585.761	2.78
586.1	2.87
586.438	2.58
586.777	2.65
587.115	2.58
587.454	2.69
587.792	2.5
588.13	2.88
588.469	2.84
588.807	2.7
589.145	2.88
589.483	2.48
589.821	2.73
590.159	2.64
590.497	2.5
590.835	2.81
591.173	2.89
591.511	2.96
591.849	2.81
592.187	2.78
592.524	2.5
592.862	2.77
593.2	2.75
593.537	2.66
593.875	2.75
594.212	2.71
594.55	2.62
594.887	2.76
595.224	2.71
595.561	2.83
595.899	2.71
596.236	2.75
596.573	2.7
596.91	2.63
597.247	2.64
597.584	2.87
597.921	2.83
598.258	2.65
598.594	2.6
598.931	2.6
599.268	2.75
599.604	2.78
599.941	2.72
600.277	2.87
600.614	2.8
600.95	2.65
601.287	2.56
601.623	2.94
601.959	2.6
602.296	2.68
602.632	3.09
602.968	2.82
603.304	2.77
603.64	2.54
603.976	2.66
604.312	2.91
604.648	2.84
604.984	2.7
605.319	2.63
605.655	2.9
605.991	2.91
606.326	2.71
606.662	2.68
606.998	2.96
607.333	2.73
607.668	2.82
608.004	2.77
608.339	2.94
608.674	2.89
609.01	2.72
609.345	3.06
609.68	2.83
610.015	2.94
610.35	2.75
610.685	2.85
611.02	2.82
611.355	2.78
611.689	2.7
612.024	3.03
612.359	2.93
612.694	3.01
613.028	3.1
613.363	2.72
613.697	2.83
614.032	3.01
614.366	2.62
614.7	3.08
615.035	2.92
615.369	2.94
615.703	3.01
616.037	2.86
616.371	2.99
616.705	2.72
617.039	3.27
617.373	2.95
617.707	2.54
618.041	3.2
618.375	2.73
618.709	3.07
619.042	2.68
619.376	2.95
619.71	2.94
620.043	2.95
620.377	2.83
620.71	3.14
621.043	2.78
621.377	2.95
621.71	3.04
622.043	2.94
622.376	2.87
622.709	3.09
623.043	2.87
623.376	3.41
623.709	3.23
624.041	2.78
624.374	2.85
624.707	2.97
625.04	3.23
625.373	3.11
625.705	3.36
626.038	3.02
626.37	3.03
626.703	3.02
627.035	3.03
627.368	2.96
627.7	3.14
628.032	2.89
628.365	2.76
628.697	3
629.029	3.07
629.361	2.76
629.693	3.07
630.025	3.19
630.357	2.78
630.689	3.26
631.021	3.32
631.353	3.29
631.684	2.98
632.016	3.02
632.348	2.81
632.679	3.14
633.011	3.14
633.342	2.82
633.674	3.05
634.005	2.71
634.336	2.84
634.668	2.62
634.999	2.81
635.33	3.06
635.661	2.76
635.992	2.93
636.323	3.01
636.654	2.91
636.985	2.86
637.316	3.01
637.647	2.94
637.977	3.15
638.308	3.23
638.639	3.18
638.969	3.13
639.3	3.09
639.63	2.98
639.961	3.05
640.291	3.27
640.622	3.2
640.952	2.94
641.282	2.82
641.612	2.87
641.943	3.48
642.273	3.23
642.603	3.29
642.933	2.67
643.263	2.94
643.592	2.9
643.922	3.54
644.252	3.07
644.582	2.87
644.911	2.95
645.241	2.94
645.571	3.15
645.9	3.12
646.23	2.86
646.559	3.36
646.888	2.89
647.218	2.68
647.547	2.97
647.876	2.75
648.205	3.35
648.534	2.77
648.863	3.2
649.192	2.96
649.521	3.18
649.85	3.67
650.179	3.07
650.508	3.24
650.837	2.84
651.165	3.2
651.494	3.29
651.822	3.28
652.151	3.4
652.479	3.2
652.808	2.62
653.136	3.1
653.465	3.48
653.793	3.4
654.121	3.32
654.449	3.15
654.777	2.71
655.105	3.57
655.433	3.29
655.761	3.35
656.089	3.46
656.417	3.01
656.745	3.85
657.073	3.59
657.4	3.51
657.728	2.95
658.056	3.03
658.383	3.33
658.711	2.67
659.038	3.7
659.365	3.17
659.693	3.34
660.02	3.04
660.347	3.15
660.674	3.18
661.001	2.93
661.329	3.53
661.656	3.03
661.982	3.34
662.309	3.14
662.636	3.22
662.963	3.92
663.29	3.45
663.616	3.04
663.943	3.82
664.27	3.38
664.596	2.85
664.923	3.71
665.249	3.08
665.576	3.41
665.902	3.31
666.228	3.3
666.554	3.14
666.881	3.49
667.207	2.95
667.533	3.72
667.859	2.94
668.185	3.77
668.511	3.55
668.837	2.8
669.162	3.39
669.488	3.05
669.814	3.74
670.139	3.89
670.465	3.48
670.791	3.22
671.116	2.87
671.442	3.41
671.767	3.43
672.092	3.4
672.418	3.68
672.743	3.55
673.068	3.08
673.393	3.77
673.718	2.97
674.043	3.63
674.368	3.59
674.693	3.38
675.018	2.97
675.343	3.44
675.667	3.33
675.992	2.67
676.317	3.74
676.641	4.07
676.966	3.51
677.29	3.05
677.615	3.37
677.939	3.41
678.264	3.59
678.588	3.49
678.912	3.38
679.236	3.28
679.56	3.38
679.885	3.24
680.209	2.92
680.532	2.97
680.856	4.12
681.18	3.57
681.504	3.13
681.828	3.62
682.152	3.54
682.475	3.49
682.799	3.66
683.122	3.3
683.446	2.55
683.769	3.73
684.093	4.16
684.416	3.31
684.739	3.57
685.062	2.95
685.386	3.15
685.709	3.06
686.032	3.02
686.355	4.15
686.678	3.74
687.001	3.16
687.324	3.1
687.646	3.26
687.969	3.55
688.292	3.41
688.614	3.92
688.937	3.09
689.26	3.16
689.582	3.42
689.904	3.35
690.227	3.79
690.549	3.89
690.871	3.46
691.194	3.93
691.516	3.14
691.838	3.22
692.16	3.35
