Data from 0063_crown_Reflection__2__215.txt Node

Date: Fri Dec 16 15:39:41 CST 2022
User: ToomeyLab
Spectrometer: FLMS14357
Trigger mode: 0
Integration Time (sec): 1.000000E-2
Scans to average: 100
Electric dark correction enabled: true
Nonlinearity correction enabled: false
Boxcar width: 0
XAxis mode: Wavelengths
Number of Pixels in Spectrum: 2048
>>>>>Begin Spectral Data<<<<<
189.047	-319.11
189.435	-319.11
189.823	-319.11
190.211	-41.97
190.599	8.8
190.987	299.83
191.375	34.22
191.763	230.98
192.151	227.15
192.538	136.77
192.926	352.56
193.314	-4.97
193.702	202.78
194.089	-259.16
194.477	253.02
194.864	-17.97
195.252	122.96
195.639	105
196.027	-70.17
196.414	-247.71
196.801	-65.79
197.189	60.8
197.576	307.8
197.963	-147.41
198.351	26.3
198.738	16.58
199.125	42.3
199.512	-17.85
199.899	30.66
200.286	-64.6
200.673	33.7
201.06	13.51
201.447	7.27
201.833	14.8
202.22	6.85
202.607	49.17
202.994	5.16
203.38	-42.19
203.767	-20.12
204.154	-8.56
204.54	8.22
204.927	5.06
205.313	41.96
205.699	-10.06
206.086	18.01
206.472	-5.4
206.858	30.41
207.245	8.24
207.631	32.84
208.017	35.91
208.403	22.53
208.789	-12.78
209.175	54.6
209.561	-30.15
209.947	-3.01
210.333	17.23
210.719	-27.43
211.105	-46.36
211.491	-0.12
211.876	-2.36
212.262	-34.59
212.648	-55.74
213.034	-29.59
213.419	25.91
213.805	-8.13
214.19	-19.37
214.576	-5.02
214.961	-1.91
215.346	-18.63
215.732	3.92
216.117	-30.77
216.502	-14.15
216.888	-32.56
217.273	7.03
217.658	-22.77
218.043	8.4
218.428	4.2
218.813	-3.11
219.198	-39.03
219.583	1.11
219.968	8.19
220.353	0.73
220.738	6.11
221.122	-19.26
221.507	18.07
221.892	13.71
222.276	6.85
222.661	4.63
223.046	5.84
223.43	-7.05
223.815	8.49
224.199	10.7
224.583	2.53
224.968	14.9
225.352	7.45
225.736	13.15
226.121	2.97
226.505	2.64
226.889	12.53
227.273	5.34
227.657	3.52
228.041	4.45
228.425	7.82
228.809	5.37
229.193	5.25
229.577	5.29
229.961	6.6
230.344	6.6
230.728	6.47
231.112	6.29
231.495	6.71
231.879	7.62
232.263	5.65
232.646	5.94
233.03	4.08
233.413	6.84
233.797	7.69
234.18	6.4
234.563	4.9
234.946	5.67
235.33	5.58
235.713	7.06
236.096	3.67
236.479	7.78
236.862	5.49
237.245	5.58
237.628	6.06
238.011	5.44
238.394	5.76
238.777	5.23
239.16	4.66
239.543	5.6
239.925	6.4
240.308	7.27
240.691	4.22
241.073	4.99
241.456	5.99
241.838	5.07
242.221	6.06
242.603	5.68
242.986	6.54
243.368	5.44
243.75	5.96
244.133	5.9
244.515	6.46
244.897	5.59
245.279	5.81
245.661	6.07
246.043	5.47
246.425	6.26
246.807	4.88
247.189	5.54
247.571	5.43
247.953	5.55
248.335	5.56
248.717	5.64
249.098	5.81
249.48	5.53
249.862	5.83
250.243	5.31
250.625	5.71
251.006	5.25
251.388	5.65
251.769	5.75
252.151	5.07
252.532	5.41
252.913	5.59
253.295	5.74
253.676	5.55
254.057	4.86
254.438	4.51
254.819	4.7
255.2	5.19
255.581	4.78
255.962	4.88
256.343	6.7
256.724	5.11
257.105	5.83
257.486	4.93
257.867	4.42
258.247	4.84
258.628	5.22
259.009	5.54
259.389	5.44
259.77	4.96
260.15	5.78
260.531	5.35
260.911	5.12
261.292	5.29
261.672	5.03
262.052	5.45
262.432	5.27
262.813	5.27
263.193	4.96
263.573	5
263.953	5.01
264.333	5.56
264.713	4.37
265.093	4.7
265.473	5.05
265.853	5.44
266.233	4.26
266.612	4.98
266.992	4.71
267.372	4.57
267.752	4.29
268.131	4.8
268.511	5.28
268.89	5.67
269.27	5.03
269.649	5.5
270.029	4.62
270.408	4.16
270.787	5.06
271.167	4.92
271.546	4.26
271.925	5.17
272.304	4.83
272.683	4.48
273.062	5.25
273.441	5.06
273.82	5.25
274.199	5.33
274.578	4.37
274.957	4.63
275.336	4.88
275.715	5.07
276.093	5.14
276.472	4.77
276.851	5.43
277.229	5.55
277.608	4.74
277.986	4.45
278.365	4.55
278.743	4.48
279.122	4.61
279.5	4.4
279.878	3.92
280.257	4.8
280.635	4.63
281.013	5.24
281.391	4.43
281.769	4.68
282.147	5.22
282.525	4.53
282.903	4.7
283.281	4.82
283.659	5.21
284.037	4.76
284.415	5.02
284.792	4.79
285.17	4.83
285.548	4.7
285.925	4.51
286.303	4.69
286.68	4.86
287.058	4.68
287.435	4.48
287.813	4.63
288.19	5.18
288.567	4.75
288.945	5.1
289.322	4.72
289.699	4.73
290.076	5.35
290.453	4.49
290.83	4.81
291.207	4.47
291.584	4.05
291.961	4.77
292.338	4.42
292.715	4.67
293.092	4.48
293.469	4.5
293.845	4.56
294.222	4.92
294.599	5.02
294.975	4.77
295.352	4.28
295.728	4.79
296.105	4.44
296.481	4.85
296.858	4.61
297.234	4.44
297.61	4.67
297.986	4.85
298.363	3.87
298.739	4.82
299.115	4.18
299.491	4.58
299.867	4.44
300.243	4.34
300.619	4.3
300.995	4.75
301.371	4.5
301.746	4.29
302.122	4.57
302.498	4.3
302.874	4.78
303.249	4.38
303.625	4.53
304	4.1
304.376	4.06
304.751	4.18
305.127	4.58
305.502	4.56
305.878	4.38
306.253	3.71
306.628	4.65
307.003	4.48
307.378	4.3
307.754	4.38
308.129	3.53
308.504	4.24
308.879	4.33
309.254	4.46
309.629	4.25
310.003	4.84
310.378	4.41
310.753	4.53
311.128	4.25
311.502	4.36
311.877	4.56
312.252	4.38
312.626	4.11
313.001	4.16
313.375	3.98
313.75	4.35
314.124	4.91
314.498	4.36
314.873	4.46
315.247	4.22
315.621	4.4
315.995	4.64
316.369	4.77
316.743	4.36
317.117	4.04
317.491	4.01
317.865	4.14
318.239	4.32
318.613	4.08
318.987	4.63
319.361	3.89
319.734	3.81
320.108	4.1
320.482	4.36
320.855	3.71
321.229	5.04
321.602	4.22
321.976	4.14
322.349	3.46
322.723	3.38
323.096	4.03
323.469	3.97
323.843	3.84
324.216	3.44
324.589	4.47
324.962	4.52
325.335	4.17
325.708	4.42
326.081	4.7
326.454	4.58
326.827	4.74
327.2	4.53
327.573	4.12
327.945	3.96
328.318	4.03
328.691	4.27
329.063	4.11
329.436	3.94
329.809	3.57
330.181	4.28
330.553	4.69
330.926	4.46
331.298	4.14
331.671	4.38
332.043	4.07
332.415	4.39
332.787	4.79
333.159	4.09
333.532	3.54
333.904	4.36
334.276	4.22
334.648	3.79
335.02	3.58
335.391	4.57
335.763	3.91
336.135	4.26
336.507	4.17
336.879	4.1
337.25	3.97
337.622	3.98
337.993	4.28
338.365	4.34
338.736	4.05
339.108	3.81
339.479	3.85
339.851	4.59
340.222	4.36
340.593	4.26
340.964	3.98
341.336	3.99
341.707	3.93
342.078	3.55
342.449	4.38
342.82	4.13
343.191	4.17
343.562	4.04
343.933	4.09
344.303	3.87
344.674	4
345.045	4.76
345.416	3.92
345.786	3.78
346.157	4.22
346.527	3.99
346.898	4.36
347.268	4.25
347.639	4.02
348.009	4.35
348.38	3.89
348.75	4.39
349.12	4.44
349.49	4.37
349.861	4.61
350.231	4.14
350.601	4.28
350.971	3.84
351.341	3.77
351.711	4.12
352.081	4.34
352.45	4.36
352.82	4.04
353.19	3.91
353.56	4.16
353.929	4.49
354.299	4.1
354.669	4.11
355.038	4.37
355.408	4.74
355.777	3.48
356.147	4.48
356.516	4.59
356.885	4.08
357.254	4.28
357.624	4.45
357.993	4.23
358.362	4.32
358.731	4.11
359.1	4.12
359.469	4.44
359.838	3.96
360.207	4.01
360.576	4.05
360.945	3.97
361.314	4.41
361.682	3.81
362.051	4
362.42	4.48
362.788	4.25
363.157	3.93
363.525	4
363.894	4.06
364.262	4.02
364.631	4.8
364.999	4.17
365.367	4.44
365.735	3.85
366.104	4.07
366.472	4.45
366.84	4.39
367.208	4.14
367.576	4.09
367.944	4.43
368.312	3.7
368.68	4.57
369.048	4.65
369.416	4.31
369.783	4.4
370.151	4.63
370.519	4.1
370.886	4.18
371.254	4.51
371.621	4.23
371.989	4.29
372.356	4.08
372.724	4.53
373.091	4.11
373.458	4
373.826	4
374.193	4.51
374.56	3.92
374.927	4.21
375.294	4.39
375.661	4.27
376.028	4.37
376.395	3.94
376.762	4.45
377.129	4.3
377.496	4.36
377.863	4.31
378.229	4.16
378.596	4.24
378.963	4.06
379.329	4.16
379.696	4.19
380.062	4.26
380.429	4.52
380.795	4.13
381.161	4.25
381.528	3.97
381.894	4.52
382.26	3.96
382.626	4.26
382.993	4.01
383.359	4.3
383.725	4.41
384.091	4.35
384.457	4.05
384.823	4.66
385.188	4.6
385.554	4.35
385.92	4.33
386.286	4.29
386.651	4.22
387.017	4.48
387.383	4.17
387.748	4.31
388.114	4.42
388.479	4.44
388.845	4.44
389.21	4.48
389.575	4.3
389.94	4.36
390.306	4.14
390.671	4.09
391.036	4.47
391.401	4.51
391.766	4.24
392.131	4.25
392.496	4.29
392.861	4.26
393.226	4.29
393.591	4.41
393.956	4.45
394.32	4.44
394.685	4.33
395.05	4.27
395.414	4.49
395.779	4.12
396.143	4.3
396.508	4.67
396.872	4.48
397.236	4.25
397.601	4.52
397.965	4.11
398.329	4.63
398.694	4.16
399.058	4.47
399.422	4.16
399.786	4.34
400.15	4.2
400.514	4.41
400.878	4.48
401.242	4.46
401.605	4.46
401.969	4.36
402.333	4.24
402.697	4.59
403.06	4.39
403.424	4.52
403.787	4.61
404.151	4.33
404.514	4.34
404.878	4.34
405.241	4.36
405.604	4.4
405.968	4.26
406.331	4.59
406.694	4.29
407.057	4.62
407.42	4.32
407.783	4.34
408.146	4.36
408.509	4.17
408.872	4.3
409.235	4.4
409.598	4.48
409.961	4.45
410.323	4.26
410.686	4.17
411.049	4.37
411.411	4.36
411.774	4.65
412.136	4.47
412.499	4.38
412.861	4.19
413.223	4.67
413.586	4.23
413.948	4.33
414.31	4.52
414.672	4.48
415.035	4.34
415.397	4.41
415.759	4.43
416.121	4.64
416.483	4.6
416.845	4.45
417.206	4.51
417.568	4.3
417.93	4.41
418.292	4.44
418.653	4.47
419.015	4.41
419.377	4.7
419.738	4.37
420.1	4.26
420.461	4.32
420.822	4.46
421.184	4.41
421.545	4.39
421.906	4.37
422.267	4.19
422.629	4.35
422.99	4.37
423.351	4.43
423.712	4.35
424.073	4.34
424.434	4.3
424.795	4.23
425.155	4.39
425.516	4.32
425.877	4.31
426.238	4.26
426.598	4.44
426.959	4.29
427.32	4.53
427.68	4.43
428.041	4.48
428.401	4.32
428.761	4.31
429.122	4.36
429.482	4.36
429.842	4.35
430.202	4.21
430.563	4.31
430.923	4.41
431.283	4.55
431.643	4.62
432.003	4.41
432.363	4.44
432.722	4.3
433.082	4.39
433.442	4.36
433.802	4.43
434.161	4.51
434.521	4.35
434.881	4.53
435.24	4.37
435.6	4.43
435.959	4.56
436.319	4.5
436.678	4.38
437.037	4.48
437.396	4.51
437.756	4.28
438.115	4.43
438.474	4.56
438.833	4.53
439.192	4.45
439.551	4.45
439.91	4.41
440.269	4.47
440.628	4.46
440.987	4.3
441.345	4.39
441.704	4.51
442.063	4.38
442.421	4.41
442.78	4.45
443.138	4.43
443.497	4.38
443.855	4.32
444.214	4.42
444.572	4.33
444.93	4.5
445.288	4.43
445.647	4.53
446.005	4.38
446.363	4.28
446.721	4.33
447.079	4.42
447.437	4.45
447.795	4.38
448.153	4.41
448.51	4.32
448.868	4.56
449.226	4.36
449.584	4.37
449.941	4.44
450.299	4.24
450.656	4.52
451.014	4.38
451.371	4.51
451.729	4.45
452.086	4.54
452.443	4.35
452.801	4.45
453.158	4.43
453.515	4.33
453.872	4.52
454.229	4.35
454.586	4.31
454.943	4.53
455.3	4.73
455.657	4.42
456.014	4.53
456.371	4.54
456.727	4.43
457.084	4.34
457.441	4.33
457.797	4.51
458.154	4.46
458.51	4.42
458.867	4.34
459.223	4.37
459.58	4.51
459.936	4.42
460.292	4.49
460.648	4.32
461.005	4.32
461.361	4.37
461.717	4.42
462.073	4.41
462.429	4.46
462.785	4.43
463.141	4.52
463.496	4.4
463.852	4.61
464.208	4.37
464.564	4.4
464.919	4.46
465.275	4.38
465.631	4.54
465.986	4.37
466.342	4.39
466.697	4.6
467.052	4.4
467.408	4.42
467.763	4.46
468.118	4.38
468.473	4.53
468.829	4.52
469.184	4.45
469.539	4.41
469.894	4.4
470.249	4.47
470.603	4.63
470.958	4.54
471.313	4.38
471.668	4.54
472.023	4.55
472.377	4.53
472.732	4.62
473.086	4.11
473.441	4.59
473.795	4.54
474.15	4.37
474.504	4.39
474.859	4.45
475.213	4.47
475.567	4.38
475.921	4.55
476.275	4.57
476.63	4.51
476.984	4.38
477.338	4.57
477.692	4.49
478.045	4.44
478.399	4.49
478.753	4.29
479.107	4.43
479.461	4.48
479.814	4.46
480.168	4.51
480.521	4.41
480.875	4.52
481.228	4.52
481.582	4.44
481.935	4.36
482.289	4.31
482.642	4.53
482.995	4.42
483.348	4.46
483.701	4.35
484.055	4.36
484.408	4.22
484.761	4.11
485.114	4.11
485.466	4.13
485.819	4.19
486.172	4.31
486.525	4.38
486.878	4.36
487.23	4.38
487.583	4.36
487.936	4.37
488.288	4.29
488.641	4.24
488.993	4.16
489.345	4.19
489.698	4.31
490.05	4.34
490.402	4.43
490.754	4.48
491.107	4.46
491.459	4.51
491.811	4.54
492.163	4.43
492.515	4.33
492.866	4.22
493.218	4.25
493.57	4.36
493.922	4.34
494.274	4.51
494.625	4.4
494.977	4.45
495.328	4.52
495.68	4.53
496.031	4.48
496.383	4.52
496.734	4.47
497.086	4.53
497.437	4.52
497.788	4.38
498.139	4.51
498.49	4.48
498.842	4.44
499.193	4.46
499.544	4.6
499.894	4.54
500.245	4.45
500.596	4.47
500.947	4.47
501.298	4.43
501.648	4.5
501.999	4.66
502.35	4.59
502.7	4.46
503.051	4.56
503.401	4.51
503.752	4.57
504.102	4.49
504.452	4.45
504.803	4.39
505.153	4.55
505.503	4.43
505.853	4.42
506.203	4.38
506.553	4.51
506.903	4.39
507.253	4.55
507.603	4.57
507.953	4.72
508.303	4.57
508.652	4.52
509.002	4.55
509.352	4.53
509.701	4.45
510.051	4.46
510.4	4.54
510.75	4.51
511.099	4.43
511.449	4.44
511.798	4.57
512.147	4.57
512.496	4.58
512.846	4.49
513.195	4.46
513.544	4.42
513.893	4.38
514.242	4.57
514.591	4.55
514.939	4.5
515.288	4.57
515.637	4.6
515.986	4.46
516.334	4.5
516.683	4.56
517.032	4.56
517.38	4.57
517.729	4.43
518.077	4.58
518.426	4.43
518.774	4.6
519.122	4.44
519.47	4.5
519.819	4.41
520.167	4.51
520.515	4.45
520.863	4.46
521.211	4.41
521.559	4.54
521.907	4.46
522.255	4.53
522.602	4.54
522.95	4.62
523.298	4.55
523.645	4.42
523.993	4.68
524.341	4.58
524.688	4.48
525.036	4.63
525.383	4.69
525.73	4.56
526.078	4.59
526.425	4.5
526.772	4.32
527.119	4.32
527.466	4.51
527.814	4.47
528.161	4.53
528.508	4.41
528.854	4.37
529.201	4.39
529.548	4.3
529.895	4.21
530.242	4.25
530.588	4.37
530.935	4.39
531.282	4.47
531.628	4.47
531.975	4.51
532.321	4.47
532.667	4.52
533.014	4.54
533.36	4.47
533.706	4.48
534.052	4.39
534.399	4.32
534.745	4.31
535.091	4.37
535.437	4.44
535.783	4.58
536.129	4.53
536.474	4.61
536.82	4.52
537.166	4.53
537.512	4.5
537.857	4.5
538.203	4.43
538.549	4.56
538.894	4.55
539.239	4.63
539.585	4.64
539.93	4.64
540.276	4.52
540.621	4.47
540.966	4.59
541.311	4.64
541.656	4.43
542.001	4.55
542.346	4.43
542.691	4.32
543.036	4.32
543.381	4.46
543.726	4.51
544.071	4.58
544.415	4.5
544.76	4.43
545.105	4.52
545.449	4.59
545.794	4.55
546.138	4.56
546.483	4.53
546.827	4.63
547.171	4.57
547.516	4.66
547.86	4.49
548.204	4.42
548.548	4.65
548.892	4.62
549.236	4.65
549.58	4.64
549.924	4.67
550.268	4.71
550.612	4.65
550.956	4.52
551.3	4.66
551.643	4.62
551.987	4.59
552.33	4.49
552.674	4.63
553.017	4.72
553.361	4.7
553.704	4.73
554.048	4.79
554.391	4.64
554.734	4.55
555.077	4.71
555.42	4.64
555.764	4.74
556.107	4.69
556.45	4.62
556.793	4.8
557.135	4.71
557.478	4.85
557.821	4.6
558.164	4.74
558.507	4.51
558.849	4.71
559.192	4.71
559.534	4.71
559.877	4.77
560.219	4.82
560.562	4.64
560.904	4.54
561.246	4.7
561.589	4.73
561.931	4.81
562.273	4.71
562.615	4.73
562.957	4.73
563.299	4.69
563.641	4.67
563.983	4.72
564.325	4.67
564.667	4.62
565.008	4.78
565.35	4.82
565.692	4.94
566.033	4.71
566.375	4.6
566.716	4.67
567.058	4.72
567.399	4.85
567.741	4.72
568.082	4.81
568.423	4.71
568.764	4.83
569.105	4.81
569.447	4.75
569.788	4.82
570.129	4.72
570.47	4.79
570.811	4.81
571.151	4.82
571.492	4.81
571.833	4.84
572.174	4.62
572.514	4.72
572.855	4.83
573.195	4.6
573.536	4.64
573.876	4.81
574.217	4.82
574.557	4.84
574.898	4.68
575.238	4.59
575.578	4.77
575.918	4.67
576.258	4.89
576.598	4.63
576.938	4.73
577.278	4.77
577.618	4.66
577.958	4.65
578.298	4.86
578.638	4.82
578.977	4.78
579.317	4.93
579.657	4.8
579.996	4.72
580.336	4.57
580.675	4.79
581.014	4.59
581.354	5.01
581.693	4.84
582.032	4.58
582.372	4.89
582.711	4.8
583.05	4.95
583.389	4.98
583.728	4.82
584.067	4.81
584.406	5.12
584.745	4.78
585.083	5.04
585.422	4.93
585.761	4.96
586.1	5.06
586.438	4.84
586.777	4.79
587.115	4.78
587.454	4.88
587.792	4.63
588.13	5.05
588.469	4.93
588.807	4.98
589.145	4.94
589.483	4.92
589.821	4.81
590.159	4.75
590.497	4.48
590.835	4.77
591.173	4.98
591.511	4.74
591.849	4.82
592.187	5.14
592.524	4.91
592.862	4.9
593.2	4.87
593.537	5.11
593.875	4.77
594.212	4.76
594.55	4.84
594.887	5.11
595.224	4.84
595.561	4.76
595.899	4.97
596.236	5.12
596.573	4.86
596.91	5.06
597.247	4.92
597.584	4.9
597.921	4.95
598.258	4.85
598.594	4.76
598.931	4.83
599.268	4.83
599.604	5.02
599.941	4.83
600.277	4.91
600.614	5.08
600.95	5.05
601.287	5.08
601.623	5.06
601.959	4.68
602.296	4.8
602.632	4.86
602.968	4.69
603.304	4.98
603.64	4.92
603.976	5.03
604.312	5.11
604.648	5.16
604.984	4.91
605.319	4.99
605.655	4.92
605.991	4.74
606.326	4.9
606.662	4.72
606.998	5.08
607.333	4.88
607.668	4.74
608.004	4.84
608.339	5.08
608.674	4.91
609.01	4.9
609.345	5.14
609.68	4.83
610.015	5.02
610.35	4.81
610.685	5.11
611.02	5.1
611.355	5.07
611.689	4.81
612.024	5.34
612.359	5.1
612.694	5.18
613.028	5.06
613.363	4.88
613.697	5.22
614.032	5.06
614.366	4.82
614.7	5.21
615.035	4.9
615.369	5.07
615.703	5.33
616.037	5.18
616.371	5.01
616.705	5.19
617.039	5.41
617.373	5.14
617.707	5.02
618.041	5.32
618.375	5.1
618.709	5.22
619.042	5.11
619.376	5.15
619.71	5.18
620.043	5.02
620.377	5.08
620.71	5.26
621.043	4.72
621.377	4.91
621.71	5.18
622.043	4.9
622.376	4.9
622.709	5.49
623.043	4.86
623.376	5.5
623.709	5.28
624.041	4.9
624.374	5.03
624.707	5.03
625.04	5.74
625.373	4.94
625.705	5.39
626.038	5.35
626.37	5.03
626.703	5.07
627.035	5.11
627.368	5.27
627.7	5.14
628.032	4.96
628.365	4.92
628.697	4.91
629.029	5.41
629.361	5.04
629.693	5.12
630.025	5.1
630.357	5.13
630.689	5.44
631.021	5.36
631.353	5.12
631.684	5.21
632.016	5.05
632.348	5.11
632.679	5.13
633.011	4.92
633.342	5.17
633.674	5.16
634.005	5.3
634.336	5.15
634.668	5.21
634.999	5.16
635.33	5.3
635.661	5.44
635.992	5.14
636.323	5.1
636.654	5.12
636.985	5.2
637.316	5.26
637.647	5.31
637.977	4.96
638.308	5.18
638.639	5.18
638.969	5.34
639.3	5.25
639.63	4.8
639.961	5.12
640.291	5.38
640.622	5.37
640.952	5.13
641.282	4.95
641.612	5.27
641.943	5.34
642.273	5.46
642.603	5.35
642.933	5.53
643.263	5.4
643.592	5.64
643.922	5.62
644.252	5.42
644.582	5.07
644.911	4.98
645.241	4.92
645.571	4.97
645.9	5.74
646.23	5.33
646.559	5.37
646.888	5
647.218	5.55
647.547	5.73
647.876	5.79
648.205	5.29
648.534	5.36
648.863	5.56
649.192	5.07
649.521	5.13
649.85	5.88
650.179	5.19
650.508	5.24
650.837	4.88
651.165	5.73
651.494	5.6
651.822	5.56
652.151	6.02
652.479	5.58
652.808	4.97
653.136	5.39
653.465	5.55
653.793	5.63
654.121	5.17
654.449	5.54
654.777	5.57
655.105	5.84
655.433	5.62
655.761	5.11
656.089	5.39
656.417	5.02
656.745	5.92
657.073	5.73
657.4	5.54
657.728	5.83
658.056	5.32
658.383	5.65
658.711	5.16
659.038	5.43
659.365	5.88
659.693	5.09
660.02	5.15
660.347	5.45
660.674	5.15
661.001	5.13
661.329	5.39
661.656	5.38
661.982	5.68
662.309	5.91
662.636	5.26
662.963	5.65
663.29	5.38
663.616	5.81
663.943	5.53
664.27	5.86
664.596	5.56
664.923	5.33
665.249	5.59
665.576	5.55
665.902	5.45
666.228	5.33
666.554	5.26
666.881	5.72
667.207	5.25
667.533	5.97
667.859	5.25
668.185	5.27
668.511	5.57
668.837	5.06
669.162	5.42
669.488	5.8
669.814	6.02
670.139	5.87
670.465	5.58
670.791	5.53
671.116	5.56
671.442	5.89
671.767	5.54
672.092	5.78
672.418	6.06
672.743	5.54
673.068	5.74
673.393	6.06
673.718	6.22
674.043	5.58
674.368	6.3
674.693	5.46
675.018	5.52
675.343	5.76
675.667	5.51
675.992	5.48
676.317	5.44
676.641	5.43
676.966	5.68
677.29	5.63
677.615	5.98
677.939	5.32
678.264	5.51
678.588	5.92
678.912	5.64
679.236	6.01
679.56	5.43
679.885	5.71
680.209	4.94
680.532	5.67
680.856	5.83
681.18	5.97
681.504	5.32
681.828	5.25
682.152	5.67
682.475	5.74
682.799	5.96
683.122	5.36
683.446	5.49
683.769	5.89
684.093	5.97
684.416	5.51
684.739	6.1
685.062	6.18
685.386	5.85
685.709	5.49
686.032	5.49
686.355	5.44
686.678	5.39
687.001	4.95
687.324	5.13
687.646	5.25
687.969	5.94
688.292	6.11
688.614	6.4
688.937	5.56
689.26	4.77
689.582	5.83
689.904	6.19
690.227	6.01
690.549	5.88
690.871	5.64
691.194	6.09
691.516	5.62
691.838	5.69
692.16	6.19
