Data from 0063_chest_Reflection__4__212.txt Node

Date: Fri Dec 16 15:38:30 CST 2022
User: ToomeyLab
Spectrometer: FLMS14357
Trigger mode: 0
Integration Time (sec): 1.000000E-2
Scans to average: 100
Electric dark correction enabled: true
Nonlinearity correction enabled: false
Boxcar width: 0
XAxis mode: Wavelengths
Number of Pixels in Spectrum: 2048
>>>>>Begin Spectral Data<<<<<
189.047	-109.35
189.435	-109.35
189.823	-109.35
190.211	228.46
190.599	29.79
190.987	515.05
191.375	99
191.763	54.75
192.151	-128.51
192.538	312.56
192.926	-49.63
193.314	57.58
193.702	193
194.089	22.34
194.477	-45.93
194.864	57.38
195.252	-267.24
195.639	122.89
196.027	-304.14
196.414	-282.82
196.801	-289.02
197.189	70.21
197.576	-107.64
197.963	-56.97
198.351	-5.87
198.738	-40.71
199.125	11.08
199.512	-43.14
199.899	-31.15
200.286	-15.18
200.673	-11.83
201.06	28.8
201.447	36.29
201.833	37.66
202.22	25.26
202.607	5.92
202.994	27.02
203.38	-31.91
203.767	-6.67
204.154	-69.03
204.54	8.3
204.927	-20.41
205.313	10.31
205.699	8.65
206.086	35.29
206.472	-56.87
206.858	-45.06
207.245	25.77
207.631	23.38
208.017	2.55
208.403	-22.49
208.789	19.4
209.175	49.25
209.561	-14.56
209.947	1.73
210.333	-32.23
210.719	-15.17
211.105	-36.66
211.491	-25.32
211.876	-35.9
212.262	-14.17
212.648	-63.73
213.034	4.29
213.419	8.67
213.805	15.38
214.19	-32.39
214.576	-50.57
214.961	-11.41
215.346	-36.35
215.732	-19.35
216.117	-34.02
216.502	-36.97
216.888	-60.88
217.273	1.74
217.658	-29.65
218.043	-15.33
218.428	1.57
218.813	8.66
219.198	-28.21
219.583	-5.78
219.968	-17.78
220.353	5.17
220.738	-25.22
221.122	-1.38
221.507	-11.68
221.892	-4.63
222.276	2.96
222.661	-15.94
223.046	1.9
223.43	-26.32
223.815	15.55
224.199	10.01
224.583	-8.97
224.968	2.11
225.352	9.63
225.736	1.68
226.121	-2.49
226.505	5.79
226.889	10.12
227.273	5.03
227.657	-0.05
228.041	3.47
228.425	3.26
228.809	1.46
229.193	0.84
229.577	2.9
229.961	5.08
230.344	5.49
230.728	5.45
231.112	4.42
231.495	2.74
231.879	5.13
232.263	2.88
232.646	4.82
233.03	4.79
233.413	4.87
233.797	6.17
234.18	1.5
234.563	6.12
234.946	2.26
235.33	5.31
235.713	4.13
236.096	3.83
236.479	5.75
236.862	6.52
237.245	2.92
237.628	5.3
238.011	4.34
238.394	3.44
238.777	2.86
239.16	2.36
239.543	3.89
239.925	4.44
240.308	5.81
240.691	3.01
241.073	4.34
241.456	3.5
241.838	4.95
242.221	5.73
242.603	5.08
242.986	5.82
243.368	4.58
243.75	4.98
244.133	4.46
244.515	4.98
244.897	4.78
245.279	4.19
245.661	4.87
246.043	5.51
246.425	4.46
246.807	5.5
247.189	4.61
247.571	4.72
247.953	4.86
248.335	5.07
248.717	4.73
249.098	4.77
249.48	4.54
249.862	4.56
250.243	4.3
250.625	4.17
251.006	4.81
251.388	5.27
251.769	3.28
252.151	4.96
252.532	4.16
252.913	4.59
253.295	4.82
253.676	5.07
254.057	4.46
254.438	4.13
254.819	5.78
255.2	3.95
255.581	2.87
255.962	4.02
256.343	5.82
256.724	3.35
257.105	4.2
257.486	4.26
257.867	3.55
258.247	4.42
258.628	5.29
259.009	4.15
259.389	4.41
259.77	4.48
260.15	5.07
260.531	4.24
260.911	4.72
261.292	4.52
261.672	4.35
262.052	4.22
262.432	4.14
262.813	4.03
263.193	4.74
263.573	4.16
263.953	4.53
264.333	4.12
264.713	3.88
265.093	4.33
265.473	5.61
265.853	3.89
266.233	3.79
266.612	4.78
266.992	4.03
267.372	4.28
267.752	3.75
268.131	4.39
268.511	4.6
268.89	4.17
269.27	4.46
269.649	4.66
270.029	4.32
270.408	3.61
270.787	3.96
271.167	4.61
271.546	3.57
271.925	3.83
272.304	4.48
272.683	3.57
273.062	4.57
273.441	4.24
273.82	4.47
274.199	4.62
274.578	3.53
274.957	3.92
275.336	4.08
275.715	4.54
276.093	4.68
276.472	3.65
276.851	4.58
277.229	4.8
277.608	4.23
277.986	4.33
278.365	3.65
278.743	4.35
279.122	3.25
279.5	3.83
279.878	3.28
280.257	5.5
280.635	3.86
281.013	4.41
281.391	3.84
281.769	4
282.147	4.35
282.525	4.1
282.903	4.66
283.281	4.09
283.659	4.39
284.037	3.8
284.415	4.51
284.792	4.2
285.17	4
285.548	4.13
285.925	4.12
286.303	3.67
286.68	4.12
287.058	4
287.435	3.99
287.813	4.24
288.19	4.66
288.567	4.11
288.945	3.75
289.322	3.83
289.699	3.97
290.076	4.22
290.453	4.06
290.83	3.89
291.207	4.04
291.584	3.66
291.961	4.28
292.338	4.22
292.715	4.28
293.092	4.13
293.469	4.1
293.845	4.36
294.222	4.27
294.599	4.07
294.975	4.07
295.352	3.39
295.728	4.15
296.105	3.92
296.481	4.44
296.858	4.31
297.234	3.64
297.61	4.4
297.986	4.34
298.363	3.78
298.739	4.39
299.115	3.86
299.491	4.07
299.867	4.18
300.243	3.87
300.619	3.65
300.995	4.32
301.371	4.33
301.746	4.14
302.122	4.28
302.498	4.39
302.874	4.19
303.249	3.96
303.625	3.58
304	3.91
304.376	3.98
304.751	3.6
305.127	3.92
305.502	4.21
305.878	3.74
306.253	3.99
306.628	4.18
307.003	3.75
307.378	3.47
307.754	3.95
308.129	4.03
308.504	4.16
308.879	3.87
309.254	3.99
309.629	3.65
310.003	4.51
310.378	4.07
310.753	3.94
311.128	3.95
311.502	3.91
311.877	4.04
312.252	3.9
312.626	3.54
313.001	4.08
313.375	4.29
313.75	4.06
314.124	4.38
314.498	3.49
314.873	3.97
315.247	3.48
315.621	4.09
315.995	3.73
316.369	3.75
316.743	3.88
317.117	3.71
317.491	4.01
317.865	3.54
318.239	4.24
318.613	3.9
318.987	3.78
319.361	3.92
319.734	3.98
320.108	3.81
320.482	3.21
320.855	4.11
321.229	4.07
321.602	3.68
321.976	3.72
322.349	3.06
322.723	3.68
323.096	3.51
323.469	3.19
323.843	3.76
324.216	3.08
324.589	3.78
324.962	3.89
325.335	3.96
325.708	3.91
326.081	4.02
326.454	3.73
326.827	3.71
327.2	4.54
327.573	3.88
327.945	3.79
328.318	4.07
328.691	4.22
329.063	3.53
329.436	3.49
329.809	3.51
330.181	3.69
330.553	3.8
330.926	3.92
331.298	3.76
331.671	3.77
332.043	3.72
332.415	4.02
332.787	4.23
333.159	3.91
333.532	3.56
333.904	3.76
334.276	3.85
334.648	3.92
335.02	3.74
335.391	4.12
335.763	3.64
336.135	3.97
336.507	3.97
336.879	3.3
337.25	3.83
337.622	3.98
337.993	3.91
338.365	3.46
338.736	3.98
339.108	3.64
339.479	3.46
339.851	4.17
340.222	3.88
340.593	3.83
340.964	3.98
341.336	2.96
341.707	3.99
342.078	3.88
342.449	3.79
342.82	3.64
343.191	3.36
343.562	3.87
343.933	3.82
344.303	3.69
344.674	3.74
345.045	4.04
345.416	3.73
345.786	3.6
346.157	3.81
346.527	3.28
346.898	3.53
347.268	3.69
347.639	3.66
348.009	3.81
348.38	3.37
348.75	4.17
349.12	3.71
349.49	3.42
349.861	4.25
350.231	4.14
350.601	3.6
350.971	4.15
351.341	4.27
351.711	3.5
352.081	3.55
352.45	3.89
352.82	3.84
353.19	3.97
353.56	3.46
353.929	3.85
354.299	3.65
354.669	3.52
355.038	3.5
355.408	4.12
355.777	3.49
356.147	4.13
356.516	3.99
356.885	3.83
357.254	4.03
357.624	3.98
357.993	3.49
358.362	3.91
358.731	4.03
359.1	4.2
359.469	3.98
359.838	3.63
360.207	3.69
360.576	3.86
360.945	3.7
361.314	3.79
361.682	3.82
362.051	3.69
362.42	3.96
362.788	4
363.157	3.6
363.525	3.86
363.894	3.37
364.262	3.88
364.631	4.51
364.999	3.57
365.367	4.31
365.735	3.67
366.104	3.63
366.472	3.96
366.84	3.92
367.208	3.66
367.576	3.66
367.944	3.72
368.312	3.46
368.68	4
369.048	3.97
369.416	3.86
369.783	4.04
370.151	3.99
370.519	3.63
370.886	3.73
371.254	3.88
371.621	3.78
371.989	4.01
372.356	3.89
372.724	3.88
373.091	4.03
373.458	3.83
373.826	3.79
374.193	4.25
374.56	3.99
374.927	3.94
375.294	4.02
375.661	3.85
376.028	3.91
376.395	4.1
376.762	4.27
377.129	4.03
377.496	4.15
377.863	3.97
378.229	3.86
378.596	3.86
378.963	3.66
379.329	3.76
379.696	3.82
380.062	4.04
380.429	4.06
380.795	3.78
381.161	4.02
381.528	3.69
381.894	4.07
382.26	3.69
382.626	3.73
382.993	3.73
383.359	3.8
383.725	4.05
384.091	3.71
384.457	3.96
384.823	3.66
385.188	3.92
385.554	4.06
385.92	4.32
386.286	4.01
386.651	3.62
387.017	3.79
387.383	3.8
387.748	3.67
388.114	4.28
388.479	3.98
388.845	4.01
389.21	3.84
389.575	4.1
389.94	3.76
390.306	3.95
390.671	3.85
391.036	3.91
391.401	4.11
391.766	3.9
392.131	3.91
392.496	3.77
392.861	3.65
393.226	3.85
393.591	3.93
393.956	4.02
394.32	4.04
394.685	4.08
395.05	3.86
395.414	4
395.779	3.9
396.143	3.92
396.508	3.97
396.872	4.09
397.236	3.64
397.601	4.2
397.965	3.74
398.329	4.02
398.694	3.74
399.058	4.01
399.422	4.18
399.786	4.09
400.15	3.92
400.514	3.97
400.878	3.86
401.242	4.3
401.605	4.05
401.969	3.84
402.333	4.09
402.697	4.12
403.06	4.05
403.424	4.13
403.787	4.21
404.151	4.02
404.514	4.25
404.878	4.08
405.241	4.13
405.604	4.22
405.968	4.01
406.331	4.19
406.694	3.98
407.057	4.21
407.42	4.1
407.783	3.94
408.146	3.98
408.509	3.89
408.872	4.09
409.235	4.2
409.598	3.98
409.961	3.96
410.323	3.9
410.686	4.11
411.049	3.91
411.411	4.22
411.774	4.05
412.136	4.07
412.499	3.96
412.861	4.01
413.223	4.29
413.586	3.77
413.948	4.25
414.31	4.1
414.672	4.16
415.035	4.32
415.397	4.2
415.759	4
416.121	4.15
416.483	4.17
416.845	4.07
417.206	4.11
417.568	4.07
417.93	4.11
418.292	4.07
418.653	4.18
419.015	4
419.377	4.17
419.738	4.05
420.1	4.05
420.461	3.96
420.822	3.99
421.184	4.06
421.545	3.99
421.906	4.07
422.267	3.9
422.629	4.09
422.99	4.05
423.351	4.03
423.712	4.03
424.073	4.1
424.434	4.04
424.795	4.1
425.155	4.02
425.516	4.04
425.877	4.08
426.238	4
426.598	4.06
426.959	3.99
427.32	4.1
427.68	4.13
428.041	4.17
428.401	4.13
428.761	4.06
429.122	3.93
429.482	4.01
429.842	4.14
430.202	4.18
430.563	4.22
430.923	4.01
431.283	4.23
431.643	4.09
432.003	4.19
432.363	4.25
432.722	4.16
433.082	4.3
433.442	4.19
433.802	4.22
434.161	4.27
434.521	4.23
434.881	4.15
435.24	4.18
435.6	4.12
435.959	4.21
436.319	4.05
436.678	4.1
437.037	4.22
437.396	4.26
437.756	4.14
438.115	4.13
438.474	4.1
438.833	4.15
439.192	4.24
439.551	4.19
439.91	4.28
440.269	4.34
440.628	4.14
440.987	4.19
441.345	4.17
441.704	4.25
442.063	4.27
442.421	4.19
442.78	4.11
443.138	4.1
443.497	4.08
443.855	4.19
444.214	4.28
444.572	4.07
444.93	4.23
445.288	4.32
445.647	4.22
446.005	4.12
446.363	4.24
446.721	4.03
447.079	4.18
447.437	4.23
447.795	4.12
448.153	4.19
448.51	4.13
448.868	4.29
449.226	4.21
449.584	4.14
449.941	4.33
450.299	4.21
450.656	4.25
451.014	4.17
451.371	4.35
451.729	4.21
452.086	4.16
452.443	4.31
452.801	4.34
453.158	4.26
453.515	4.27
453.872	4.4
454.229	4.17
454.586	4.17
454.943	4.3
455.3	4.3
455.657	4.23
456.014	4.27
456.371	4.24
456.727	4.18
457.084	4.16
457.441	4.14
457.797	4.28
458.154	4.3
458.51	4.13
458.867	4.2
459.223	4.41
459.58	4.26
459.936	4.19
460.292	4.37
460.648	4.21
461.005	4.17
461.361	4.23
461.717	4.18
462.073	4.3
462.429	4.38
462.785	4.28
463.141	4.26
463.496	4.07
463.852	4.35
464.208	4.39
464.564	4.27
464.919	4.19
465.275	4.43
465.631	4.17
465.986	4.19
466.342	4.43
466.697	4.45
467.052	4.38
467.408	4.42
467.763	4.25
468.118	4.26
468.473	4.56
468.829	4.28
469.184	4.41
469.539	4.42
469.894	4.23
470.249	4.31
470.603	4.43
470.958	4.43
471.313	4.16
471.668	4.51
472.023	4.57
472.377	4.31
472.732	4.27
473.086	4.13
473.441	4.47
473.795	4.4
474.15	4.33
474.504	4.33
474.859	4.53
475.213	4.32
475.567	4.3
475.921	4.57
476.275	4.38
476.63	4.31
476.984	4.29
477.338	4.66
477.692	4.49
478.045	4.41
478.399	4.39
478.753	4.23
479.107	4.33
479.461	4.47
479.814	4.49
480.168	4.42
480.521	4.31
480.875	4.63
481.228	4.42
481.582	4.27
481.935	4.35
482.289	4.41
482.642	4.41
482.995	4.45
483.348	4.32
483.701	4.29
484.055	4.39
484.408	4.38
484.761	4.26
485.114	4.23
485.466	4.22
485.819	4.18
486.172	4.22
486.525	4.24
486.878	4.2
487.23	4.35
487.583	4.34
487.936	4.39
488.288	4.33
488.641	4.32
488.993	4.25
489.345	4.26
489.698	4.31
490.05	4.3
490.402	4.38
490.754	4.44
491.107	4.36
491.459	4.46
491.811	4.5
492.163	4.47
492.515	4.49
492.866	4.35
493.218	4.35
493.57	4.33
493.922	4.33
494.274	4.37
494.625	4.4
494.977	4.52
495.328	4.52
495.68	4.68
496.031	4.59
496.383	4.48
496.734	4.63
497.086	4.56
497.437	4.62
497.788	4.51
498.139	4.56
498.49	4.63
498.842	4.58
499.193	4.53
499.544	4.62
499.894	4.6
500.245	4.49
500.596	4.62
500.947	4.47
501.298	4.53
501.648	4.63
501.999	4.73
502.35	4.67
502.7	4.7
503.051	4.78
503.401	4.65
503.752	4.62
504.102	4.53
504.452	4.48
504.803	4.55
505.153	4.72
505.503	4.57
505.853	4.59
506.203	4.64
506.553	4.76
506.903	4.61
507.253	4.72
507.603	4.75
507.953	4.8
508.303	4.77
508.652	4.65
509.002	4.75
509.352	4.58
509.701	4.63
510.051	4.8
510.4	4.69
510.75	4.69
511.099	4.71
511.449	4.7
511.798	4.86
512.147	4.72
512.496	4.8
512.846	4.77
513.195	4.73
513.544	4.81
513.893	4.84
514.242	4.83
514.591	4.79
514.939	4.68
515.288	4.74
515.637	4.93
515.986	4.75
516.334	4.82
516.683	4.88
517.032	4.78
517.38	4.83
517.729	4.9
518.077	4.87
518.426	4.82
518.774	4.87
519.122	4.77
519.47	4.88
519.819	4.84
520.167	4.83
520.515	4.78
520.863	4.86
521.211	4.85
521.559	4.86
521.907	4.9
522.255	4.89
522.602	4.95
522.95	5.01
523.298	4.93
523.645	4.9
523.993	5.13
524.341	4.92
524.688	4.95
525.036	5.07
525.383	5.04
525.73	5.07
526.078	4.94
526.425	4.96
526.772	4.88
527.119	4.91
527.466	4.98
527.814	4.89
528.161	5
528.508	4.98
528.854	4.95
529.201	4.92
529.548	4.87
529.895	4.86
530.242	4.83
530.588	4.82
530.935	4.87
531.282	4.95
531.628	4.96
531.975	4.99
532.321	5.05
532.667	5.04
533.014	5.08
533.36	5.02
533.706	5.11
534.052	5.03
534.399	5
534.745	4.98
535.091	5.04
535.437	5.09
535.783	5.12
536.129	5.04
536.474	5.17
536.82	5.09
537.166	5.17
537.512	5.22
537.857	5.17
538.203	5.12
538.549	5.29
538.894	5.19
539.239	5.38
539.585	5.23
539.93	5.34
540.276	5.36
540.621	5.31
540.966	5.43
541.311	5.44
541.656	5.23
542.001	5.37
542.346	5.35
542.691	5.25
543.036	5.24
543.381	5.27
543.726	5.34
544.071	5.39
544.415	5.3
544.76	5.27
545.105	5.31
545.449	5.36
545.794	5.35
546.138	5.54
546.483	5.41
546.827	5.58
547.171	5.57
547.516	5.61
547.86	5.56
548.204	5.42
548.548	5.6
548.892	5.54
549.236	5.62
549.58	5.63
549.924	5.56
550.268	5.73
550.612	5.8
550.956	5.51
551.3	5.78
551.643	5.8
551.987	5.69
552.33	5.81
552.674	5.85
553.017	5.77
553.361	5.83
553.704	5.78
554.048	5.77
554.391	5.87
554.734	5.77
555.077	6
555.42	5.77
555.764	5.97
556.107	5.9
556.45	5.86
556.793	6.05
557.135	6.23
557.478	6.02
557.821	5.94
558.164	6.1
558.507	5.85
558.849	5.88
559.192	6.1
559.534	5.94
559.877	6.17
560.219	6.28
560.562	6.15
560.904	6.13
561.246	6.22
561.589	6.15
561.931	6.15
562.273	6.19
562.615	6.22
562.957	6.22
563.299	6.27
563.641	6.22
563.983	6.21
564.325	6.13
564.667	6.34
565.008	6.29
565.35	6.48
565.692	6.46
566.033	6.36
566.375	6.2
566.716	6.46
567.058	6.51
567.399	6.37
567.741	6.61
568.082	6.46
568.423	6.42
568.764	6.46
569.105	6.58
569.447	6.47
569.788	6.51
570.129	6.71
570.47	6.74
570.811	6.74
571.151	6.67
571.492	6.72
571.833	6.63
572.174	6.59
572.514	6.68
572.855	6.79
573.195	6.57
573.536	6.76
573.876	6.8
574.217	6.81
574.557	6.99
574.898	6.73
575.238	6.7
575.578	7.05
575.918	6.9
576.258	7
576.598	6.82
576.938	7.17
577.278	6.9
577.618	6.97
577.958	7.13
578.298	7.13
578.638	6.99
578.977	7.15
579.317	7.23
579.657	7.1
579.996	7.17
580.336	7.16
580.675	7.34
581.014	7.26
581.354	7.33
581.693	7.33
582.032	7.2
582.372	7.44
582.711	7.47
583.05	7.54
583.389	7.42
583.728	7.57
584.067	7.46
584.406	7.76
584.745	7.42
585.083	7.6
585.422	7.64
585.761	7.71
586.1	7.65
586.438	7.7
586.777	7.78
587.115	7.67
587.454	7.7
587.792	7.41
588.13	8.12
588.469	7.84
588.807	7.95
589.145	7.98
589.483	7.78
589.821	7.92
590.159	7.73
590.497	7.55
590.835	7.89
591.173	8.07
591.511	7.92
591.849	8.06
592.187	7.88
592.524	7.83
592.862	7.82
593.2	8.09
593.537	8.03
593.875	8
594.212	8.03
594.55	8.2
594.887	8.17
595.224	8.37
595.561	8.3
595.899	8.3
596.236	8.13
596.573	8.14
596.91	8.38
597.247	8.21
597.584	8.25
597.921	8.4
598.258	8.42
598.594	8.4
598.931	8.39
599.268	8.38
599.604	8.47
599.941	8.4
600.277	8.65
600.614	8.5
600.95	8.59
601.287	8.76
601.623	8.85
601.959	8.55
602.296	8.81
602.632	8.91
602.968	8.88
603.304	8.63
603.64	8.88
603.976	8.98
604.312	9.04
604.648	9.08
604.984	8.94
605.319	8.86
605.655	8.83
605.991	9.02
606.326	8.95
606.662	8.97
606.998	8.99
607.333	9.02
607.668	8.99
608.004	9.17
608.339	9.2
608.674	9.13
609.01	9.34
609.345	9.43
609.68	9.2
610.015	9.51
610.35	9.28
610.685	9.46
611.02	9.63
611.355	9.56
611.689	9.23
612.024	9.5
612.359	9.38
612.694	9.46
613.028	9.74
613.363	9.76
613.697	9.72
614.032	9.49
614.366	9.74
614.7	10.14
615.035	9.49
615.369	9.83
615.703	9.92
616.037	9.65
616.371	9.62
616.705	9.91
617.039	10.1
617.373	10.12
617.707	9.86
618.041	9.8
618.375	9.73
618.709	10.15
619.042	10.24
619.376	10.01
619.71	10.03
620.043	10.36
620.377	10.42
620.71	10.14
621.043	9.77
621.377	10.17
621.71	10.49
622.043	10.4
622.376	10.11
622.709	10.61
623.043	10.29
623.376	10.78
623.709	10.66
624.041	10.1
624.374	10.19
624.707	10.11
625.04	10.69
625.373	10.42
625.705	10.76
626.038	10.93
626.37	10.55
626.703	10.74
627.035	10.71
627.368	10.9
627.7	10.76
628.032	10.82
628.365	10.45
628.697	11.07
629.029	10.99
629.361	10.77
629.693	11.23
630.025	10.97
630.357	11.05
630.689	11.35
631.021	11.08
631.353	11.18
631.684	11.22
632.016	11.17
632.348	11.39
632.679	11.24
633.011	11.05
633.342	11.34
633.674	11.11
634.005	11.46
634.336	11.38
634.668	11.29
634.999	11.54
635.33	11.07
635.661	11.59
635.992	11.48
636.323	11.5
636.654	11.49
636.985	11.64
637.316	11.32
637.647	11.74
637.977	11.85
638.308	11.74
638.639	12
638.969	11.75
639.3	11.91
639.63	11.69
639.961	11.59
640.291	11.98
640.622	11.84
640.952	11.6
641.282	11.85
641.612	11.88
641.943	12.06
642.273	11.88
642.603	12.14
642.933	12.03
643.263	12.27
643.592	12.18
643.922	12.61
644.252	12.28
644.582	12
644.911	12.05
645.241	12.37
645.571	12.33
645.9	13
646.23	12.4
646.559	12.86
646.888	12.3
647.218	12.52
647.547	12.7
647.876	12.89
648.205	12.89
648.534	12.97
648.863	12.77
649.192	12.56
649.521	12.19
649.85	12.49
650.179	12.57
650.508	12.48
650.837	12.5
651.165	12.88
651.494	12.88
651.822	13.26
652.151	12.99
652.479	13.42
652.808	12.57
653.136	13.34
653.465	13.35
653.793	13.28
654.121	13.71
654.449	12.93
654.777	13.23
655.105	13.53
655.433	13.39
655.761	13.34
656.089	13.26
656.417	13.17
656.745	13.59
657.073	13.28
657.4	13.56
657.728	13.2
658.056	13.27
658.383	13.53
658.711	13.74
659.038	13.58
659.365	13.43
659.693	13.39
660.02	13.55
660.347	13.63
660.674	13.69
661.001	13.15
661.329	13.57
661.656	13.6
661.982	13.98
662.309	14.04
662.636	13.68
662.963	14.25
663.29	14.32
663.616	14.31
663.943	13.99
664.27	14.12
664.596	13.81
664.923	13.93
665.249	14.12
665.576	13.83
665.902	13.85
666.228	14.04
666.554	14.2
666.881	14.02
667.207	14.37
667.533	14.64
667.859	14.16
668.185	14.15
668.511	13.83
668.837	13.72
669.162	14.41
669.488	14.17
669.814	14.83
670.139	15.11
670.465	15.13
670.791	14.84
671.116	14.66
671.442	14.17
671.767	14.68
672.092	14.71
672.418	14.97
672.743	14.48
673.068	14.24
673.393	15.04
673.718	14.73
674.043	14.75
674.368	15.26
674.693	14.97
675.018	14.91
675.343	14.78
675.667	14.7
675.992	14.58
676.317	14.83
676.641	15.21
676.966	15.58
677.29	15.18
677.615	15.14
677.939	15.12
678.264	15
678.588	15.68
678.912	15.56
679.236	16.29
679.56	15.71
679.885	15.63
680.209	15.17
680.532	15.38
680.856	16.01
681.18	15.54
681.504	15.48
681.828	15.17
682.152	15.79
682.475	15.68
682.799	16.46
683.122	15.66
683.446	15.14
683.769	16.08
684.093	15.75
684.416	15.44
684.739	15.91
685.062	16
685.386	15.61
685.709	15.88
686.032	15.54
686.355	15.65
686.678	15.6
687.001	15.6
687.324	16.17
687.646	16.06
