Data from 0063_forehead_Reflection__2__220.txt Node

Date: Fri Dec 16 15:40:51 CST 2022
User: ToomeyLab
Spectrometer: FLMS14357
Trigger mode: 0
Integration Time (sec): 1.000000E-2
Scans to average: 100
Electric dark correction enabled: true
Nonlinearity correction enabled: false
Boxcar width: 0
XAxis mode: Wavelengths
Number of Pixels in Spectrum: 2048
>>>>>Begin Spectral Data<<<<<
189.047	-474.23
189.435	-474.23
189.823	-474.23
190.211	-3.33
190.599	105.61
190.987	654.84
191.375	57.07
191.763	297.85
192.151	83.3
192.538	132.46
192.926	136.45
193.314	145.05
193.702	-26.22
194.089	233.93
194.477	-343.36
194.864	-247.94
195.252	112.43
195.639	49.13
196.027	335.35
196.414	-385.62
196.801	235.84
197.189	128.43
197.576	767.9
197.963	-362.32
198.351	1.17
198.738	6.96
199.125	30.13
199.512	38.62
199.899	-6.02
200.286	-73.58
200.673	14
201.06	19.42
201.447	17.38
201.833	22.83
202.22	25.72
202.607	69.92
202.994	9.03
203.38	-14.42
203.767	-40.96
204.154	-8.5
204.54	42.31
204.927	47.15
205.313	25.55
205.699	7.1
206.086	31.42
206.472	24.17
206.858	31
207.245	48.65
207.631	0.14
208.017	15.74
208.403	-0.55
208.789	36.93
209.175	63.37
209.561	33.58
209.947	10.3
210.333	28.73
210.719	4.89
211.105	-9.26
211.491	-1.76
211.876	36.38
212.262	-17.85
212.648	19.1
213.034	-13.04
213.419	43.65
213.805	19.6
214.19	12.34
214.576	-26.38
214.961	-8.92
215.346	13.9
215.732	-3.1
216.117	2.17
216.502	0.33
216.888	-28.81
217.273	20.28
217.658	-30.02
218.043	19.36
218.428	0.59
218.813	-4.32
219.198	-30.18
219.583	9.09
219.968	-7.25
220.353	4.99
220.738	-16.85
221.122	-14.33
221.507	18.48
221.892	-0.47
222.276	12.76
222.661	-15.85
223.046	19.98
223.43	2.31
223.815	12.89
224.199	10.5
224.583	12.89
224.968	0.18
225.352	5.96
225.736	3.03
226.121	3.07
226.505	4.73
226.889	12.54
227.273	7.12
227.657	2.07
228.041	11.36
228.425	10.45
228.809	7.72
229.193	7.6
229.577	5.46
229.961	5.47
230.344	6.31
230.728	5.89
231.112	6.5
231.495	6.4
231.879	5.2
232.263	4.27
232.646	4.24
233.03	5.47
233.413	7.6
233.797	10.2
234.18	2.26
234.563	6.34
234.946	4.94
235.33	6.17
235.713	5.99
236.096	7.1
236.479	8.22
236.862	7.1
237.245	7.22
237.628	5.38
238.011	5.84
238.394	6.82
238.777	7.62
239.16	2.74
239.543	4.69
239.925	6.62
240.308	7.86
240.691	6.08
241.073	5.94
241.456	6.25
241.838	5.42
242.221	6.24
242.603	6.87
242.986	7.55
243.368	6.11
243.75	6.12
244.133	6.82
244.515	6.32
244.897	6.89
245.279	6.08
245.661	6.5
246.043	7.77
246.425	5.77
246.807	6.6
247.189	7.07
247.571	7.26
247.953	6.7
248.335	6.59
248.717	6.53
249.098	6.81
249.48	6.87
249.862	6.65
250.243	6.34
250.625	6.54
251.006	7.21
251.388	7.18
251.769	7.17
252.151	6.57
252.532	6.21
252.913	7.66
253.295	6.44
253.676	7.08
254.057	6.32
254.438	7.54
254.819	7.3
255.2	6.94
255.581	6.52
255.962	5.1
256.343	8.33
256.724	6.18
257.105	7.48
257.486	7.35
257.867	5.94
258.247	7.21
258.628	7.22
259.009	7.42
259.389	7.7
259.77	7.13
260.15	7.6
260.531	6.82
260.911	6.57
261.292	6.64
261.672	6.18
262.052	6.26
262.432	6.61
262.813	6.32
263.193	6.84
263.573	6.5
263.953	6.5
264.333	6.13
264.713	6.3
265.093	6.07
265.473	6.99
265.853	6.46
266.233	6.59
266.612	7.1
266.992	5.94
267.372	6.45
267.752	6.15
268.131	6.44
268.511	7.01
268.89	6.47
269.27	6.81
269.649	7.1
270.029	6.5
270.408	6.75
270.787	6.02
271.167	7.33
271.546	5.93
271.925	6.58
272.304	6.4
272.683	5.83
273.062	6.76
273.441	6.36
273.82	6.65
274.199	6.53
274.578	6.28
274.957	6.52
275.336	5.71
275.715	6.42
276.093	6.64
276.472	6.68
276.851	7.09
277.229	6.95
277.608	6.32
277.986	6.59
278.365	6.17
278.743	6.34
279.122	5.98
279.5	6.2
279.878	5.38
280.257	6.47
280.635	6.05
281.013	6.44
281.391	6.23
281.769	5.94
282.147	6.43
282.525	6.52
282.903	6.55
283.281	6.32
283.659	6.2
284.037	6.11
284.415	6.24
284.792	6.1
285.17	5.82
285.548	6.18
285.925	5.86
286.303	6.41
286.68	6.54
287.058	6.6
287.435	6.16
287.813	6.39
288.19	7.11
288.567	6.26
288.945	6.35
289.322	6.36
289.699	6.43
290.076	7.15
290.453	6.58
290.83	7.04
291.207	6.78
291.584	6.46
291.961	6.99
292.338	6.6
292.715	7.26
293.092	7.16
293.469	7.41
293.845	8.12
294.222	7.63
294.599	7.14
294.975	7.56
295.352	6.75
295.728	7.25
296.105	7.52
296.481	8.17
296.858	7.82
297.234	7.7
297.61	8.02
297.986	7.46
298.363	7.63
298.739	8.1
299.115	7.58
299.491	7.71
299.867	7.49
300.243	8.05
300.619	8.01
300.995	8.25
301.371	7.66
301.746	8.06
302.122	8.54
302.498	9.05
302.874	8.74
303.249	8.5
303.625	8.29
304	7.97
304.376	8.39
304.751	8.33
305.127	8.18
305.502	9.07
305.878	8.27
306.253	8.66
306.628	9.29
307.003	9.19
307.378	8.83
307.754	9.36
308.129	9.04
308.504	9.13
308.879	8.82
309.254	8.82
309.629	9.61
310.003	9.68
310.378	9.42
310.753	9.34
311.128	9.26
311.502	9.06
311.877	9.2
312.252	9.14
312.626	9.28
313.001	9.59
313.375	9.9
313.75	9.48
314.124	10.35
314.498	9.08
314.873	9.71
315.247	9.5
315.621	9.93
315.995	10.02
316.369	10.38
316.743	10.43
317.117	10.17
317.491	9.65
317.865	9.55
318.239	10.64
318.613	10.54
318.987	10.37
319.361	10.47
319.734	10.66
320.108	10.32
320.482	10.73
320.855	10.68
321.229	11.28
321.602	10.19
321.976	11.16
322.349	9.98
322.723	10.5
323.096	10.43
323.469	10.64
323.843	10.78
324.216	10.51
324.589	11.39
324.962	11.2
325.335	10.75
325.708	10.63
326.081	11.7
326.454	11.15
326.827	11.41
327.2	12.07
327.573	11.24
327.945	11.17
328.318	11.35
328.691	11.54
329.063	11.44
329.436	11.56
329.809	10.9
330.181	11.94
330.553	12.06
330.926	11.29
331.298	11.15
331.671	11.92
332.043	12.16
332.415	12.25
332.787	12.16
333.159	12.1
333.532	12.48
333.904	12.44
334.276	11.91
334.648	12.27
335.02	12.05
335.391	12.42
335.763	11.96
336.135	12.52
336.507	12.67
336.879	12.18
337.25	13.04
337.622	12.7
337.993	12.81
338.365	12.87
338.736	12.77
339.108	11.87
339.479	12.72
339.851	12.57
340.222	13.05
340.593	12.86
340.964	12.89
341.336	12.46
341.707	12.54
342.078	12.52
342.449	12.92
342.82	13.08
343.191	12.78
343.562	12.72
343.933	13.03
344.303	12.81
344.674	13.12
345.045	13.54
345.416	13.55
345.786	12.85
346.157	13.22
346.527	13.02
346.898	13.53
347.268	13.17
347.639	13.6
348.009	13.49
348.38	13.51
348.75	13.72
349.12	13.92
349.49	13.38
349.861	13.9
350.231	14.11
350.601	14.08
350.971	13.81
351.341	13.99
351.711	13.7
352.081	14
352.45	14.36
352.82	14.27
353.19	14.23
353.56	13.98
353.929	14.61
354.299	14.16
354.669	14.14
355.038	14.19
355.408	14.6
355.777	14.33
356.147	14.73
356.516	14.72
356.885	14.71
357.254	14.71
357.624	14.76
357.993	14.62
358.362	14.74
358.731	14.8
359.1	15.25
359.469	14.64
359.838	14.95
360.207	14.69
360.576	15.06
360.945	15.28
361.314	15.4
361.682	15.13
362.051	15.13
362.42	15.34
362.788	15.4
363.157	15.24
363.525	15.23
363.894	14.91
364.262	15.15
364.631	15.78
364.999	15.39
365.367	15.85
365.735	15.07
366.104	15.38
366.472	15.51
366.84	16.07
367.208	15.34
367.576	16.11
367.944	16.07
368.312	15.53
368.68	16.17
369.048	16.08
369.416	16.16
369.783	16.1
370.151	16.16
370.519	16.3
370.886	15.86
371.254	16.46
371.621	16.54
371.989	16.58
372.356	17.11
372.724	16.35
373.091	16.54
373.458	16.7
373.826	16.51
374.193	16.82
374.56	16.29
374.927	16.89
375.294	17
375.661	17
376.028	16.95
376.395	16.64
376.762	16.99
377.129	17.01
377.496	16.85
377.863	17.2
378.229	17.2
378.596	17.2
378.963	17.15
379.329	17.54
379.696	17.15
380.062	17.26
380.429	17.42
380.795	17.31
381.161	17.28
381.528	17.44
381.894	17.89
382.26	17.72
382.626	17.89
382.993	17.51
383.359	17.64
383.725	18.02
384.091	17.94
384.457	17.93
384.823	17.98
385.188	18.15
385.554	18.02
385.92	18.05
386.286	18.57
386.651	18.17
387.017	18.38
387.383	18.34
387.748	17.91
388.114	18.78
388.479	18.57
388.845	18.44
389.21	18.31
389.575	18.54
389.94	18.56
390.306	18.56
390.671	18.5
391.036	18.59
391.401	18.98
391.766	18.86
392.131	18.9
392.496	18.89
392.861	18.65
393.226	18.86
393.591	19.05
393.956	19.28
394.32	18.89
394.685	19.29
395.05	19.02
395.414	19.34
395.779	18.99
396.143	19.28
396.508	19.21
396.872	19.52
397.236	19.11
397.601	19.32
397.965	19.19
398.329	19.58
398.694	19.73
399.058	19.7
399.422	19.71
399.786	19.94
400.15	19.95
400.514	19.8
400.878	19.61
401.242	20.28
401.605	20.01
401.969	19.66
402.333	19.8
402.697	19.99
403.06	20.11
403.424	19.98
403.787	20.25
404.151	20.15
404.514	20.1
404.878	20.08
405.241	20.4
405.604	20.26
405.968	20.07
406.331	20.32
406.694	20.23
407.057	20.61
407.42	20.63
407.783	20.6
408.146	20.33
408.509	20.61
408.872	20.57
409.235	20.89
409.598	20.91
409.961	20.88
410.323	20.99
410.686	20.8
411.049	20.93
411.411	21.17
411.774	20.9
412.136	20.93
412.499	21.07
412.861	20.92
413.223	21.23
413.586	21.09
413.948	21.29
414.31	21.45
414.672	21.68
415.035	21.54
415.397	21.49
415.759	21.5
416.121	21.64
416.483	21.68
416.845	21.43
417.206	21.76
417.568	21.56
417.93	21.78
418.292	21.81
418.653	21.7
419.015	21.7
419.377	21.73
419.738	21.62
420.1	21.8
420.461	21.53
420.822	21.69
421.184	21.79
421.545	21.82
421.906	21.73
422.267	21.67
422.629	21.64
422.99	21.69
423.351	21.84
423.712	21.95
424.073	21.92
424.434	21.92
424.795	22.01
425.155	22.05
425.516	21.99
425.877	21.85
426.238	21.9
426.598	22.14
426.959	22.18
427.32	22.31
427.68	22.41
428.041	22.5
428.401	22.59
428.761	22.49
429.122	22.73
429.482	22.77
429.842	22.86
430.202	22.78
430.563	22.95
430.923	23.08
431.283	23.16
431.643	23.11
432.003	23.17
432.363	23.03
432.722	23.23
433.082	23.19
433.442	23.12
433.802	23.39
434.161	23.18
434.521	23.24
434.881	23.5
435.24	23.19
435.6	23.45
435.959	23.43
436.319	23.23
436.678	23.58
437.037	23.76
437.396	23.89
437.756	23.5
438.115	23.87
438.474	23.96
438.833	23.87
439.192	23.86
439.551	23.91
439.91	24.11
440.269	24.03
440.628	23.88
440.987	23.91
441.345	23.64
441.704	24.07
442.063	24.01
442.421	24.03
442.78	23.89
443.138	24.09
443.497	24.13
443.855	24.18
444.214	24.32
444.572	24.27
444.93	24.45
445.288	24.52
445.647	24.55
446.005	24.5
446.363	24.43
446.721	24.4
447.079	24.48
447.437	24.46
447.795	24.27
448.153	24.45
448.51	24.37
448.868	24.43
449.226	24.47
449.584	24.66
449.941	24.67
450.299	25.07
450.656	24.95
451.014	24.99
451.371	24.98
451.729	24.9
452.086	25.24
452.443	25.19
452.801	25.39
453.158	25.29
453.515	25.45
453.872	25.58
454.229	25.23
454.586	25.45
454.943	25.45
455.3	25.45
455.657	25.6
456.014	25.52
456.371	25.72
456.727	25.64
457.084	25.74
457.441	25.78
457.797	26.08
458.154	25.73
458.51	26.01
458.867	25.99
459.223	26.2
459.58	25.89
459.936	26.12
460.292	26.07
460.648	26.18
461.005	25.76
461.361	25.95
461.717	25.78
462.073	25.81
462.429	26.05
462.785	26.07
463.141	26.33
463.496	26.3
463.852	26.51
464.208	26.76
464.564	26.46
464.919	26.71
465.275	26.57
465.631	26.79
465.986	26.81
466.342	26.64
466.697	26.89
467.052	26.95
467.408	26.84
467.763	26.78
468.118	26.91
468.473	27.11
468.829	26.77
469.184	27
469.539	26.94
469.894	27.38
470.249	27.04
470.603	27.43
470.958	27.14
471.313	27.18
471.668	27.59
472.023	27.35
472.377	27.49
472.732	27.56
473.086	27.5
473.441	27.7
473.795	27.85
474.15	27.66
474.504	27.67
474.859	27.63
475.213	27.63
475.567	27.63
475.921	27.99
476.275	27.92
476.63	27.92
476.984	27.9
477.338	28.17
477.692	28.01
478.045	28.18
478.399	28.07
478.753	28.06
479.107	28.12
479.461	28.04
479.814	28.01
480.168	28
480.521	28.3
480.875	28.23
481.228	28.42
481.582	28.3
481.935	28.3
482.289	28.28
482.642	28.38
482.995	28.45
483.348	28.38
483.701	28.23
484.055	28.27
484.408	28.19
484.761	27.88
485.114	28
485.466	27.9
485.819	27.6
486.172	27.53
486.525	27.64
486.878	27.83
487.23	28.06
487.583	28.29
487.936	28.57
488.288	28.33
488.641	28.4
488.993	28.11
489.345	28.05
489.698	28.18
490.05	28.27
490.402	28.29
490.754	28.52
491.107	28.71
491.459	28.85
491.811	29.11
492.163	29.06
492.515	29.03
492.866	28.9
493.218	28.74
493.57	28.72
493.922	28.6
494.274	28.72
494.625	28.98
494.977	29.26
495.328	29.49
495.68	29.75
496.031	29.72
496.383	29.92
496.734	30.15
497.086	30.14
497.437	30.16
497.788	29.99
498.139	29.99
498.49	29.91
498.842	30.02
499.193	29.85
499.544	30.04
499.894	30.19
500.245	30.04
500.596	30.23
500.947	30.26
501.298	30.41
501.648	30.7
501.999	30.57
502.35	30.88
502.7	30.64
503.051	30.86
503.401	30.87
503.752	30.75
504.102	30.87
504.452	30.8
504.803	30.8
505.153	30.94
505.503	30.89
505.853	31.02
506.203	31.03
506.553	31.08
506.903	31.17
507.253	31.14
507.603	31.33
507.953	31.34
508.303	31.48
508.652	31.46
509.002	31.41
509.352	31.38
509.701	31.36
510.051	31.33
510.4	31.47
510.75	31.46
511.099	31.5
511.449	31.44
511.798	31.62
512.147	31.63
512.496	31.68
512.846	31.8
513.195	31.83
513.544	31.65
513.893	31.91
514.242	31.97
514.591	31.79
514.939	31.87
515.288	32.02
515.637	32.08
515.986	32.17
516.334	32.15
516.683	32.31
517.032	32.33
517.38	32.5
517.729	32.53
518.077	32.57
518.426	32.53
518.774	32.71
519.122	32.45
519.47	32.42
519.819	32.4
520.167	32.28
520.515	32.25
520.863	32.1
521.211	32.28
521.559	32.45
521.907	32.46
522.255	32.66
522.602	32.89
522.95	32.99
523.298	32.93
523.645	33.14
523.993	33.14
524.341	33.13
524.688	33.14
525.036	33.35
525.383	33.51
525.73	33.23
526.078	33.3
526.425	33.26
526.772	33.13
527.119	33.08
527.466	32.95
527.814	32.97
528.161	33
528.508	33.09
528.854	33.16
529.201	33.29
529.548	33.11
529.895	32.99
530.242	32.94
530.588	32.84
530.935	32.56
531.282	32.6
531.628	32.84
531.975	33.1
532.321	33.24
532.667	33.39
533.014	33.52
533.36	33.72
533.706	33.76
534.052	33.81
534.399	33.72
534.745	33.64
535.091	33.48
535.437	33.52
535.783	33.49
536.129	33.81
536.474	33.92
536.82	33.96
537.166	34.24
537.512	34.46
537.857	34.46
538.203	34.24
538.549	34.2
538.894	34.08
539.239	34.32
539.585	34.44
539.93	34.68
540.276	34.83
540.621	34.9
540.966	35.05
541.311	35.15
541.656	35
542.001	34.81
542.346	34.84
542.691	34.62
543.036	34.57
543.381	34.41
543.726	34.39
544.071	34.53
544.415	34.56
544.76	34.73
545.105	34.93
545.449	35
545.794	35.13
546.138	35.34
546.483	35.48
546.827	35.63
547.171	35.67
547.516	35.61
547.86	35.47
548.204	35.49
548.548	35.7
548.892	35.62
549.236	35.67
549.58	35.72
549.924	36.01
550.268	36.1
550.612	36.04
550.956	36.11
551.3	36.41
551.643	36.46
551.987	36.44
552.33	36.64
552.674	36.34
553.017	36.76
553.361	36.7
553.704	36.64
554.048	36.64
554.391	36.76
554.734	36.63
555.077	36.55
555.42	36.55
555.764	36.87
556.107	36.76
556.45	36.8
556.793	36.95
557.135	37.17
557.478	37.02
557.821	37.11
558.164	37.27
558.507	37.26
558.849	37.19
559.192	37.42
559.534	37.29
559.877	37.44
560.219	37.45
560.562	37.76
560.904	37.34
561.246	37.56
561.589	37.68
561.931	37.82
562.273	37.58
562.615	37.73
562.957	37.61
563.299	37.59
563.641	37.62
563.983	37.89
564.325	37.68
564.667	37.94
565.008	37.82
565.35	38.06
565.692	38.18
566.033	37.92
566.375	38.29
566.716	38.25
567.058	38.09
567.399	38.17
567.741	38.21
568.082	38.14
568.423	38.04
568.764	38.29
569.105	38.28
569.447	38.38
569.788	38.46
570.129	38.68
570.47	38.87
570.811	38.76
571.151	38.65
571.492	38.79
571.833	38.87
572.174	38.73
572.514	38.75
572.855	38.68
573.195	38.78
573.536	38.93
573.876	38.82
574.217	38.76
574.557	38.96
574.898	38.9
575.238	38.97
575.578	39.33
575.918	38.93
576.258	39.02
576.598	38.95
576.938	39.26
577.278	38.89
577.618	39.3
577.958	39.26
578.298	39.08
578.638	39.43
578.977	39.6
579.317	39.42
579.657	39.63
579.996	39.55
580.336	39.21
580.675	39.64
581.014	39.61
581.354	39.94
581.693	39.71
582.032	39.7
582.372	40.29
582.711	39.92
583.05	40.08
583.389	40.19
583.728	40.23
584.067	40.09
584.406	40.56
584.745	40.12
585.083	40.15
585.422	40.08
585.761	40.44
586.1	40.91
586.438	40.51
586.777	40.52
587.115	40.56
587.454	40.78
587.792	40.52
588.13	40.82
588.469	40.61
588.807	41.03
589.145	40.79
589.483	40.77
589.821	40.88
590.159	40.92
590.497	40.56
590.835	41.01
591.173	40.88
591.511	40.88
591.849	41.07
592.187	40.75
592.524	41.2
592.862	41.1
593.2	41.13
593.537	40.72
593.875	41.3
594.212	41.28
594.55	41.21
594.887	41.42
595.224	41.4
595.561	41.26
595.899	41.59
596.236	41.56
596.573	41.72
596.91	41.6
597.247	41.41
597.584	41.6
597.921	41.6
598.258	41.9
598.594	41.56
598.931	41.29
599.268	41.37
599.604	41.62
599.941	41.3
600.277	41.4
600.614	41.66
600.95	42.21
601.287	41.68
601.623	42.08
601.959	41.9
602.296	42.13
602.632	42.22
602.968	42.52
603.304	42.12
603.64	42.1
603.976	42.25
604.312	42.4
604.648	42.61
604.984	42.48
605.319	42.4
605.655	42.09
605.991	42.39
606.326	42.47
606.662	42.17
606.998	42.14
607.333	42.07
607.668	42.44
608.004	42.49
608.339	42.43
608.674	42.69
609.01	42.72
609.345	42.84
609.68	42.75
610.015	42.89
610.35	43.12
610.685	42.87
611.02	43.19
611.355	42.93
611.689	42.75
612.024	43.53
612.359	42.83
612.694	43.29
613.028	43.1
613.363	43.17
613.697	43.16
614.032	43.11
614.366	43.09
614.7	43.84
615.035	43.15
615.369	43.23
615.703	43.82
616.037	43.28
616.371	43.48
616.705	44.02
617.039	44
617.373	43.6
617.707	43.98
618.041	43.5
618.375	43.48
618.709	43.89
619.042	43.85
619.376	43.78
619.71	43.88
620.043	43.64
620.377	43.91
620.71	44.22
621.043	43.63
621.377	43.72
621.71	44.59
622.043	44.15
622.376	44.29
622.709	44.34
623.043	44.36
623.376	44.52
623.709	44.57
624.041	44.54
624.374	44.09
624.707	44.36
625.04	44.64
625.373	44.76
625.705	44.72
626.038	44.87
626.37	44.29
626.703	44.71
627.035	44.89
627.368	44.8
627.7	44.9
628.032	45.06
628.365	44.93
628.697	44.79
629.029	45.09
629.361	44.7
629.693	45.19
630.025	44.7
630.357	44.85
630.689	45.43
631.021	45.24
631.353	45.12
631.684	45.16
632.016	44.83
632.348	45.35
632.679	45.48
633.011	45.16
633.342	45.17
633.674	45.44
634.005	45.12
634.336	45.7
634.668	45.41
634.999	45.58
635.33	45.67
635.661	45.77
635.992	45.77
636.323	45.31
636.654	45.52
636.985	45.52
637.316	45.52
637.647	45.53
637.977	45.81
638.308	45.88
638.639	46.01
638.969	46.37
639.3	45.88
639.63	45.78
639.961	45.54
640.291	45.78
640.622	46
640.952	45.94
641.282	45.74
641.612	46.06
641.943	46.4
642.273	46.45
642.603	46.29
642.933	46.31
643.263	46.91
643.592	46.41
643.922	47.08
644.252	46.63
644.582	46.2
644.911	45.86
645.241	46.42
645.571	46.54
645.9	47.39
646.23	46.64
646.559	46.95
646.888	46.04
647.218	46.67
647.547	47.05
647.876	46.92
648.205	46.47
648.534	46.61
648.863	46.57
649.192	46.94
649.521	46.56
649.85	46.81
650.179	46.82
650.508	46.95
650.837	47.14
651.165	47.77
651.494	46.8
651.822	47.2
652.151	47.16
652.479	47.55
652.808	47.15
653.136	47.29
653.465	47.35
653.793	47.43
654.121	47.26
654.449	47.33
654.777	47.43
655.105	47.63
655.433	47.02
655.761	47.45
656.089	47.39
656.417	47.24
656.745	47.59
657.073	48.26
657.4	47.38
657.728	47.04
658.056	47.6
658.383	47.83
658.711	47.95
659.038	48.01
659.365	47.76
659.693	47.83
660.02	47.73
660.347	48.07
660.674	48.52
661.001	47.92
661.329	48.22
661.656	47.9
661.982	47.98
662.309	48.13
662.636	48.19
662.963	48.38
663.29	48.29
663.616	47.68
663.943	48.65
664.27	48.46
664.596	48.27
664.923	48.66
665.249	48.47
665.576	47.57
665.902	48.1
666.228	48.77
666.554	48.44
666.881	48.24
667.207	48.93
667.533	48.48
667.859	49.07
668.185	48.65
668.511	48.37
668.837	48.45
669.162	48.45
669.488	49.12
