Data from 0063_crown_Reflection__3__216.txt Node

Date: Fri Dec 16 15:39:50 CST 2022
User: ToomeyLab
Spectrometer: FLMS14357
Trigger mode: 0
Integration Time (sec): 1.000000E-2
Scans to average: 100
Electric dark correction enabled: true
Nonlinearity correction enabled: false
Boxcar width: 0
XAxis mode: Wavelengths
Number of Pixels in Spectrum: 2048
>>>>>Begin Spectral Data<<<<<
189.047	-272.85
189.435	-272.85
189.823	-272.85
190.211	144.62
190.599	72.3
190.987	-152.94
191.375	350.29
191.763	168.5
192.151	-22.65
192.538	354.67
192.926	-598.53
193.314	146.23
193.702	880.61
194.089	167.85
194.477	60.63
194.864	-133.98
195.252	20.69
195.639	112.09
196.027	-55.63
196.414	1.53
196.801	131.03
197.189	150.11
197.576	183.58
197.963	-590.28
198.351	10.5
198.738	-4.92
199.125	14.2
199.512	-25.03
199.899	-24.72
200.286	-101.67
200.673	44.72
201.06	27.27
201.447	41.97
201.833	-13.69
202.22	-7.56
202.607	12.08
202.994	9.7
203.38	-37.13
203.767	6.36
204.154	-137.91
204.54	26.3
204.927	21.84
205.313	36.91
205.699	11.05
206.086	-35.12
206.472	-31
206.858	11.06
207.245	-14.9
207.631	-52.57
208.017	15.76
208.403	5.93
208.789	-34.47
209.175	25.7
209.561	-3.08
209.947	6.74
210.333	-11.3
210.719	-34.48
211.105	-36.97
211.491	-31.79
211.876	-1.77
212.262	-31.1
212.648	-83.75
213.034	-55.13
213.419	20.05
213.805	-15.13
214.19	-17.67
214.576	-44.25
214.961	27.67
215.346	-43.97
215.732	15.32
216.117	-15.51
216.502	18.06
216.888	-21.36
217.273	6.2
217.658	0.29
218.043	-6.07
218.428	-22.89
218.813	-25.14
219.198	-48.6
219.583	-3.91
219.968	-16.51
220.353	9.46
220.738	-11.92
221.122	-9.73
221.507	-5.19
221.892	-10.76
222.276	11.91
222.661	-24.89
223.046	5.26
223.43	-10.03
223.815	18.48
224.199	9.12
224.583	3.83
224.968	0.84
225.352	-2.76
225.736	8.34
226.121	-5.96
226.505	5.5
226.889	5.51
227.273	6.95
227.657	2.9
228.041	8.64
228.425	8.26
228.809	7.56
229.193	6.39
229.577	8.29
229.961	8.51
230.344	8.75
230.728	8.95
231.112	9.27
231.495	6.57
231.879	8.19
232.263	5.05
232.646	5.9
233.03	6.46
233.413	7.47
233.797	9.8
234.18	6.08
234.563	7.59
234.946	7.17
235.33	8.42
235.713	9.3
236.096	7.1
236.479	8.58
236.862	9
237.245	8.25
237.628	6.83
238.011	6.95
238.394	8.05
238.777	9.24
239.16	4.32
239.543	5.28
239.925	6.97
240.308	7.7
240.691	5.75
241.073	7.13
241.456	7.54
241.838	7.43
242.221	7.21
242.603	7.01
242.986	8.83
243.368	7.2
243.75	7.39
244.133	7.54
244.515	7.68
244.897	6.76
245.279	6.89
245.661	6.91
246.043	8.07
246.425	7.24
246.807	6.73
247.189	6.76
247.571	6.87
247.953	7.53
248.335	7.59
248.717	7.22
249.098	6.99
249.48	7.12
249.862	7.13
250.243	7.43
250.625	6.86
251.006	7.14
251.388	7.39
251.769	7.2
252.151	6.22
252.532	6.43
252.913	7.05
253.295	7.38
253.676	7.3
254.057	6.7
254.438	6.76
254.819	6.73
255.2	5.95
255.581	6.05
255.962	6.29
256.343	6.98
256.724	6.93
257.105	6.26
257.486	6.15
257.867	3.92
258.247	6.24
258.628	7.11
259.009	6.3
259.389	7.03
259.77	6.75
260.15	7.4
260.531	7.08
260.911	6.65
261.292	6.82
261.672	6.43
262.052	6.22
262.432	6.58
262.813	6.67
263.193	5.59
263.573	6.46
263.953	6.61
264.333	6.37
264.713	5.84
265.093	5.22
265.473	6.82
265.853	6.32
266.233	5.85
266.612	6.62
266.992	6.18
267.372	6.17
267.752	6.43
268.131	6.13
268.511	6.51
268.89	6.44
269.27	6.21
269.649	6.64
270.029	6.16
270.408	6.32
270.787	5.92
271.167	6.93
271.546	5.48
271.925	6.02
272.304	6.52
272.683	5.95
273.062	6.63
273.441	6.78
273.82	6.49
274.199	6.19
274.578	6.1
274.957	6.2
275.336	6.12
275.715	6.24
276.093	6.6
276.472	6.36
276.851	6.71
277.229	6.52
277.608	6.28
277.986	5.96
278.365	5.73
278.743	5.92
279.122	6.01
279.5	5.81
279.878	5.47
280.257	6.44
280.635	5.93
281.013	6.2
281.391	5.42
281.769	5.74
282.147	6.08
282.525	6.07
282.903	5.75
283.281	5.62
283.659	6.32
284.037	5.9
284.415	6.01
284.792	5.98
285.17	5.52
285.548	5.91
285.925	5.91
286.303	5.9
286.68	6.15
287.058	5.73
287.435	5.48
287.813	6.14
288.19	5.97
288.567	5.49
288.945	6.22
289.322	5.33
289.699	5.87
290.076	5.69
290.453	5.64
290.83	5.76
291.207	5.97
291.584	5.43
291.961	5.88
292.338	5.97
292.715	5.86
293.092	6
293.469	5.63
293.845	5.7
294.222	5.49
294.599	5.86
294.975	5.78
295.352	5.73
295.728	5.84
296.105	5.63
296.481	5.75
296.858	5.55
297.234	5.61
297.61	5.51
297.986	5.61
298.363	5.24
298.739	5.39
299.115	5.23
299.491	5.19
299.867	5.18
300.243	5.26
300.619	5.27
300.995	5.65
301.371	5.37
301.746	5.04
302.122	5.78
302.498	5.54
302.874	5.8
303.249	5.82
303.625	5.5
304	4.87
304.376	5.24
304.751	5.16
305.127	4.98
305.502	5.97
305.878	4.95
306.253	5.16
306.628	5.92
307.003	5.42
307.378	4.78
307.754	5.14
308.129	4.79
308.504	4.79
308.879	5.05
309.254	5.71
309.629	5.12
310.003	5.78
310.378	5.29
310.753	5.25
311.128	5.12
311.502	4.9
311.877	5.4
312.252	4.92
312.626	5.19
313.001	5.06
313.375	5.34
313.75	4.79
314.124	5.31
314.498	5.1
314.873	5.18
315.247	4.73
315.621	5
315.995	5.2
316.369	5.4
316.743	5.62
317.117	4.73
317.491	5.15
317.865	4.81
318.239	5.56
318.613	4.84
318.987	5.29
319.361	4.94
319.734	5.03
320.108	5.34
320.482	4.67
320.855	4.93
321.229	5.36
321.602	5.04
321.976	5.17
322.349	4.17
322.723	4.39
323.096	4.7
323.469	4.76
323.843	5.2
324.216	4.8
324.589	5.27
324.962	5.01
325.335	4.68
325.708	5.48
326.081	5.26
326.454	5.27
326.827	4.94
327.2	5.38
327.573	5.4
327.945	5.31
328.318	5.25
328.691	5.01
329.063	4.43
329.436	4.47
329.809	4.22
330.181	4.91
330.553	4.89
330.926	4.92
331.298	4.68
331.671	5.33
332.043	4.84
332.415	5.31
332.787	5.25
333.159	4.92
333.532	5.45
333.904	5.2
334.276	5.01
334.648	4.86
335.02	4.67
335.391	4.85
335.763	4.63
336.135	5.4
336.507	5.49
336.879	4.96
337.25	4.93
337.622	4.84
337.993	4.97
338.365	5.23
338.736	5.03
339.108	4.82
339.479	4.67
339.851	5.5
340.222	5.08
340.593	4.58
340.964	4.5
341.336	4.41
341.707	5.09
342.078	4.43
342.449	5.37
342.82	4.74
343.191	4.74
343.562	4.92
343.933	4.95
344.303	4.68
344.674	4.85
345.045	4.74
345.416	4.94
345.786	4.63
346.157	5.36
346.527	4.91
346.898	5.21
347.268	4.94
347.639	4.83
348.009	5.05
348.38	5.1
348.75	5.12
349.12	5.26
349.49	4.88
349.861	5.42
350.231	5.19
350.601	4.71
350.971	4.74
351.341	5.38
351.711	4.76
352.081	4.92
352.45	5.15
352.82	5.62
353.19	4.8
353.56	5.08
353.929	5.04
354.299	5.21
354.669	4.99
355.038	4.84
355.408	5.38
355.777	4.74
356.147	5.34
356.516	5.18
356.885	4.73
357.254	5
357.624	5
357.993	4.97
358.362	5.11
358.731	4.92
359.1	5.25
359.469	5.1
359.838	5.03
360.207	4.88
360.576	5.05
360.945	5.13
361.314	5.25
361.682	4.89
362.051	4.84
362.42	5.38
362.788	5.34
363.157	4.91
363.525	4.92
363.894	4.68
364.262	5.06
364.631	5.63
364.999	4.91
365.367	5.5
365.735	4.68
366.104	4.88
366.472	5.4
366.84	5.38
367.208	5
367.576	5.06
367.944	5.48
368.312	4.79
368.68	5.31
369.048	5.16
369.416	5.38
369.783	5
370.151	5.23
370.519	5.01
370.886	5.06
371.254	4.98
371.621	5.26
371.989	5.36
372.356	5.25
372.724	5.02
373.091	5.18
373.458	5.15
373.826	4.9
374.193	5.72
374.56	4.88
374.927	5.21
375.294	5.68
375.661	5.29
376.028	4.89
376.395	5.29
376.762	5.33
377.129	5.26
377.496	5.41
377.863	5.08
378.229	5.28
378.596	5.05
378.963	5.3
379.329	5.34
379.696	5.2
380.062	5.48
380.429	5.43
380.795	5.05
381.161	5.19
381.528	5.2
381.894	5.36
382.26	5.07
382.626	5.36
382.993	5.18
383.359	4.94
383.725	5.37
384.091	5.24
384.457	5.46
384.823	5.23
385.188	5.34
385.554	5.29
385.92	5.66
386.286	5.3
386.651	5.28
387.017	5.45
387.383	5.11
387.748	5.18
388.114	5.4
388.479	5.79
388.845	5.32
389.21	5.45
389.575	5.29
389.94	5.36
390.306	5.58
390.671	5.34
391.036	5.36
391.401	5.41
391.766	5.41
392.131	5.47
392.496	5.43
392.861	5.27
393.226	5.36
393.591	5.51
393.956	5.42
394.32	5.17
394.685	5.41
395.05	5.24
395.414	5.53
395.779	5.33
396.143	5.37
396.508	5.51
396.872	5.4
397.236	4.94
397.601	5.61
397.965	5.3
398.329	5.64
398.694	5.24
399.058	5.38
399.422	5.55
399.786	5.48
400.15	5.4
400.514	5.61
400.878	5.38
401.242	5.39
401.605	5.32
401.969	5.56
402.333	5.43
402.697	5.46
403.06	5.7
403.424	5.47
403.787	5.57
404.151	5.52
404.514	5.54
404.878	5.3
405.241	5.43
405.604	5.72
405.968	5.57
406.331	5.34
406.694	5.46
407.057	5.66
407.42	5.58
407.783	5.45
408.146	5.58
408.509	5.41
408.872	5.16
409.235	5.44
409.598	5.48
409.961	5.46
410.323	5.44
410.686	5.58
411.049	5.54
411.411	5.57
411.774	5.44
412.136	5.6
412.499	5.42
412.861	5.3
413.223	5.65
413.586	5.52
413.948	5.59
414.31	5.45
414.672	5.66
415.035	5.57
415.397	5.63
415.759	5.48
416.121	5.58
416.483	5.66
416.845	5.46
417.206	5.72
417.568	5.46
417.93	5.48
418.292	5.59
418.653	5.64
419.015	5.74
419.377	5.51
419.738	5.57
420.1	5.5
420.461	5.46
420.822	5.49
421.184	5.54
421.545	5.5
421.906	5.54
422.267	5.52
422.629	5.51
422.99	5.47
423.351	5.44
423.712	5.43
424.073	5.53
424.434	5.42
424.795	5.53
425.155	5.52
425.516	5.49
425.877	5.46
426.238	5.36
426.598	5.55
426.959	5.49
427.32	5.44
427.68	5.46
428.041	5.63
428.401	5.56
428.761	5.5
429.122	5.52
429.482	5.62
429.842	5.68
430.202	5.67
430.563	5.66
430.923	5.68
431.283	5.76
431.643	5.8
432.003	5.57
432.363	5.68
432.722	5.41
433.082	5.38
433.442	5.62
433.802	5.61
434.161	5.64
434.521	5.65
434.881	5.76
435.24	5.63
435.6	5.52
435.959	5.48
436.319	5.54
436.678	5.66
437.037	5.73
437.396	5.67
437.756	5.54
438.115	5.65
438.474	5.75
438.833	5.63
439.192	5.77
439.551	5.68
439.91	5.62
440.269	5.78
440.628	5.77
440.987	5.58
441.345	5.6
441.704	5.62
442.063	5.65
442.421	5.68
442.78	5.55
443.138	5.56
443.497	5.57
443.855	5.58
444.214	5.56
444.572	5.63
444.93	5.67
445.288	5.72
445.647	5.83
446.005	5.57
446.363	5.65
446.721	5.5
447.079	5.64
447.437	5.64
447.795	5.56
448.153	5.52
448.51	5.4
448.868	5.6
449.226	5.55
449.584	5.62
449.941	5.65
450.299	5.63
450.656	5.74
451.014	5.62
451.371	5.59
451.729	5.55
452.086	5.63
452.443	5.69
452.801	5.66
453.158	5.6
453.515	5.65
453.872	5.87
454.229	5.67
454.586	5.72
454.943	5.48
455.3	5.75
455.657	5.71
456.014	5.75
456.371	5.58
456.727	5.63
457.084	5.64
457.441	5.55
457.797	5.6
458.154	5.73
458.51	5.47
458.867	5.52
459.223	5.56
459.58	5.68
459.936	5.58
460.292	5.57
460.648	5.58
461.005	5.53
461.361	5.71
461.717	5.57
462.073	5.53
462.429	5.56
462.785	5.55
463.141	5.67
463.496	5.5
463.852	5.8
464.208	5.55
464.564	5.59
464.919	5.64
465.275	5.71
465.631	5.79
465.986	5.61
466.342	5.59
466.697	5.62
467.052	5.66
467.408	5.66
467.763	5.71
468.118	5.67
468.473	5.71
468.829	5.73
469.184	5.67
469.539	5.6
469.894	5.79
470.249	5.71
470.603	5.72
470.958	5.64
471.313	5.55
471.668	5.58
472.023	5.76
472.377	5.58
472.732	5.73
473.086	5.34
473.441	5.78
473.795	5.82
474.15	5.64
474.504	5.74
474.859	5.74
475.213	5.76
475.567	5.72
475.921	5.82
476.275	5.92
476.63	5.74
476.984	5.64
477.338	5.9
477.692	5.69
478.045	5.75
478.399	5.62
478.753	5.68
479.107	5.6
479.461	5.81
479.814	5.66
480.168	5.66
480.521	5.53
480.875	5.79
481.228	5.68
481.582	5.72
481.935	5.52
482.289	5.66
482.642	5.7
482.995	5.61
483.348	5.63
483.701	5.66
484.055	5.54
484.408	5.57
484.761	5.5
485.114	5.47
485.466	5.37
485.819	5.32
486.172	5.34
486.525	5.43
486.878	5.38
487.23	5.49
487.583	5.44
487.936	5.54
488.288	5.52
488.641	5.55
488.993	5.39
489.345	5.4
489.698	5.45
490.05	5.41
490.402	5.53
490.754	5.58
491.107	5.58
491.459	5.62
491.811	5.69
492.163	5.6
492.515	5.6
492.866	5.5
493.218	5.46
493.57	5.43
493.922	5.42
494.274	5.49
494.625	5.48
494.977	5.43
495.328	5.66
495.68	5.64
496.031	5.71
496.383	5.61
496.734	5.85
497.086	5.72
497.437	5.58
497.788	5.53
498.139	5.67
498.49	5.66
498.842	5.61
499.193	5.77
499.544	5.75
499.894	5.73
500.245	5.59
500.596	5.75
500.947	5.66
501.298	5.72
501.648	5.67
501.999	5.79
502.35	5.75
502.7	5.91
503.051	5.9
503.401	5.82
503.752	5.74
504.102	5.75
504.452	5.67
504.803	5.56
505.153	5.85
505.503	5.67
505.853	5.59
506.203	5.78
506.553	5.7
506.903	5.65
507.253	5.68
507.603	5.62
507.953	5.85
508.303	5.71
508.652	5.7
509.002	5.74
509.352	5.71
509.701	5.63
510.051	5.66
510.4	5.77
510.75	5.66
511.099	5.64
511.449	5.67
511.798	5.79
512.147	5.69
512.496	5.78
512.846	5.56
513.195	5.7
513.544	5.67
513.893	5.59
514.242	5.78
514.591	5.8
514.939	5.58
515.288	5.69
515.637	5.77
515.986	5.77
516.334	5.78
516.683	5.65
517.032	5.7
517.38	5.8
517.729	5.69
518.077	5.75
518.426	5.7
518.774	5.79
519.122	5.66
519.47	5.75
519.819	5.71
520.167	5.71
520.515	5.6
520.863	5.57
521.211	5.64
521.559	5.64
521.907	5.56
522.255	5.82
522.602	5.75
522.95	5.74
523.298	5.66
523.645	5.72
523.993	5.82
524.341	5.72
524.688	5.88
525.036	5.83
525.383	5.84
525.73	5.77
526.078	5.79
526.425	5.69
526.772	5.62
527.119	5.63
527.466	5.63
527.814	5.62
528.161	5.66
528.508	5.64
528.854	5.61
529.201	5.65
529.548	5.62
529.895	5.58
530.242	5.52
530.588	5.49
530.935	5.5
531.282	5.51
531.628	5.58
531.975	5.65
532.321	5.65
532.667	5.73
533.014	5.72
533.36	5.7
533.706	5.72
534.052	5.72
534.399	5.65
534.745	5.64
535.091	5.64
535.437	5.58
535.783	5.61
536.129	5.7
536.474	5.69
536.82	5.65
537.166	5.69
537.512	5.78
537.857	5.67
538.203	5.73
538.549	5.8
538.894	5.72
539.239	5.73
539.585	5.7
539.93	5.79
540.276	5.75
540.621	5.72
540.966	5.76
541.311	5.78
541.656	5.66
542.001	5.81
542.346	5.68
542.691	5.63
543.036	5.61
543.381	5.64
543.726	5.62
544.071	5.57
544.415	5.64
544.76	5.53
545.105	5.72
545.449	5.68
545.794	5.64
546.138	5.73
546.483	5.65
546.827	5.74
547.171	5.81
547.516	5.85
547.86	5.74
548.204	5.71
548.548	5.8
548.892	5.74
549.236	5.78
549.58	5.77
549.924	5.76
550.268	5.78
550.612	5.85
550.956	5.77
551.3	5.95
551.643	6.04
551.987	5.84
552.33	5.82
552.674	5.93
553.017	5.99
553.361	5.85
553.704	5.84
554.048	5.88
554.391	5.82
554.734	5.88
555.077	5.83
555.42	5.78
555.764	5.92
556.107	5.89
556.45	5.79
556.793	6.04
557.135	5.97
557.478	5.95
557.821	5.81
558.164	5.96
558.507	5.86
558.849	5.95
559.192	5.91
559.534	5.79
559.877	5.98
560.219	5.91
560.562	6.02
560.904	5.8
561.246	5.98
561.589	5.88
561.931	6.06
562.273	5.83
562.615	5.9
562.957	5.91
563.299	5.94
563.641	5.98
563.983	5.85
564.325	5.81
564.667	5.73
565.008	5.83
565.35	5.92
565.692	5.9
566.033	5.84
566.375	5.83
566.716	6.01
567.058	5.84
567.399	5.94
567.741	6.12
568.082	5.78
568.423	5.94
568.764	5.85
569.105	6.02
569.447	5.86
569.788	5.9
570.129	5.87
570.47	5.98
570.811	5.99
571.151	5.79
571.492	5.97
571.833	5.87
572.174	5.82
572.514	5.93
572.855	6.02
573.195	5.77
573.536	5.83
573.876	5.95
574.217	5.93
574.557	6.04
574.898	5.78
575.238	5.74
575.578	5.98
575.918	5.92
576.258	5.94
576.598	5.91
576.938	6.13
577.278	6.01
577.618	5.85
577.958	5.92
578.298	6.07
578.638	6.04
578.977	5.98
579.317	5.91
579.657	6.06
579.996	5.93
580.336	5.93
580.675	5.86
581.014	6
581.354	6.02
581.693	5.97
582.032	5.91
582.372	6.16
582.711	5.98
583.05	6.01
583.389	5.96
583.728	5.96
584.067	6.04
584.406	6.26
584.745	5.92
585.083	6.2
585.422	5.86
585.761	6
586.1	6.08
586.438	6.12
586.777	5.95
587.115	6.23
587.454	6.02
587.792	5.84
588.13	6.25
588.469	5.94
588.807	6.19
589.145	6.14
589.483	5.84
589.821	5.96
590.159	5.93
590.497	5.65
590.835	5.99
591.173	6.19
591.511	6.01
591.849	6.13
592.187	5.94
592.524	5.91
592.862	6
593.2	6.05
593.537	5.86
593.875	6.22
594.212	6.02
594.55	5.86
594.887	6.25
595.224	5.77
595.561	6.04
595.899	6.17
596.236	5.99
596.573	6.03
596.91	6.02
597.247	5.97
597.584	6
597.921	6
598.258	6.01
598.594	5.78
598.931	5.86
599.268	5.74
599.604	5.96
599.941	6.05
600.277	5.71
600.614	6.18
600.95	5.95
601.287	6.07
601.623	6.22
601.959	5.82
602.296	6.21
602.632	6.2
602.968	5.94
603.304	5.9
603.64	5.82
603.976	5.88
604.312	6.07
604.648	6.1
604.984	6.08
605.319	6.08
605.655	5.96
605.991	6.05
606.326	5.87
606.662	5.99
606.998	6.06
607.333	5.94
607.668	5.95
608.004	5.87
608.339	6.07
608.674	5.96
609.01	6.26
609.345	6.05
609.68	6.03
610.015	6.06
610.35	5.99
610.685	6.16
611.02	6.07
611.355	6.22
611.689	5.83
612.024	6.28
612.359	6.15
612.694	6.17
613.028	6.06
613.363	6.32
613.697	6.19
614.032	6.25
614.366	6.24
614.7	6.07
615.035	5.84
615.369	6.24
615.703	6.53
616.037	6.11
616.371	6.02
616.705	6.28
617.039	6.33
617.373	5.95
617.707	6.07
618.041	6.28
618.375	5.84
618.709	6.23
619.042	5.9
619.376	6.03
619.71	6.08
620.043	6.18
620.377	6.04
620.71	6.53
621.043	5.65
621.377	6.19
621.71	6.07
622.043	6.13
622.376	5.92
622.709	6.25
623.043	5.82
623.376	6.13
623.709	6.11
624.041	6.15
624.374	6.04
624.707	5.63
625.04	6.04
625.373	6.14
625.705	6.14
626.038	6.43
626.37	6.37
626.703	6.12
627.035	6.41
627.368	6.22
627.7	6.3
628.032	6.21
628.365	6.18
628.697	6.16
629.029	6.36
629.361	6.17
629.693	6.52
630.025	6.08
630.357	6.06
630.689	6.32
631.021	6
631.353	6.25
631.684	6.09
632.016	6.07
632.348	6.51
632.679	6.05
633.011	6.02
633.342	6.06
633.674	5.92
634.005	6.14
634.336	6.11
634.668	6.13
634.999	6.07
635.33	5.93
635.661	6.31
635.992	6.35
636.323	6.19
636.654	6.04
636.985	6.16
637.316	5.98
637.647	6.23
637.977	6.12
638.308	5.88
638.639	5.93
638.969	5.67
639.3	6.21
639.63	5.83
639.961	6.05
640.291	6.4
640.622	6.3
640.952	6.23
641.282	5.91
641.612	5.66
641.943	6.18
642.273	6.24
642.603	6.09
642.933	6.2
643.263	6.49
643.592	6.33
643.922	6.3
644.252	6.6
644.582	6.3
644.911	6.13
645.241	6.32
645.571	6.05
645.9	6.96
646.23	5.85
646.559	6.08
646.888	6.02
647.218	6.44
647.547	6.55
647.876	6.51
648.205	5.97
648.534	6.07
648.863	6.72
649.192	6.12
649.521	6.15
649.85	6.63
650.179	5.89
650.508	6.34
650.837	6.46
651.165	6.39
651.494	6.24
651.822	6.3
652.151	6.57
652.479	6.66
652.808	5.68
653.136	6.13
653.465	6.33
653.793	6.48
654.121	6.5
654.449	6.55
654.777	6.24
655.105	6.58
655.433	6.48
655.761	5.81
656.089	6.71
656.417	6.22
656.745	6.74
657.073	6.83
657.4	6.27
657.728	6.46
658.056	6.36
658.383	6.28
658.711	6.11
659.038	6.44
659.365	6.38
659.693	6.52
660.02	6.56
660.347	6.41
660.674	6.16
661.001	6.37
661.329	6.31
661.656	5.9
661.982	6.55
662.309	6.21
662.636	5.85
662.963	6.56
663.29	6.39
663.616	6.67
663.943	6.81
664.27	6.42
664.596	6.43
664.923	6.85
665.249	6.48
665.576	6.91
665.902	6.6
666.228	6.2
666.554	6.05
666.881	6.33
667.207	6.05
667.533	6.38
667.859	6.25
668.185	6.38
668.511	6.11
668.837	5.65
669.162	6.26
669.488	6.37
669.814	6.72
670.139	6.8
670.465	6.84
670.791	6.47
671.116	6.53
671.442	6.46
671.767	6.35
672.092	6.88
672.418	6.85
672.743	6.13
673.068	6.17
673.393	6.19
673.718	6.46
674.043	6.69
674.368	6.79
674.693	6.35
675.018	5.95
675.343	6.39
675.667	6.78
675.992	6.35
676.317	6.19
676.641	6.7
676.966	6.4
677.29	6.67
677.615	6.59
677.939	5.87
678.264	6.71
678.588	6.7
678.912	6.48
679.236	6.51
679.56	6.54
679.885	6.6
680.209	6.32
680.532	6.22
680.856	7.4
681.18	6.56
681.504	6.07
681.828	5.97
682.152	6.62
682.475	6.65
682.799	6.98
683.122	6.65
683.446	6.15
683.769	6.63
684.093	7.02
684.416	6.36
684.739	6.52
685.062	6.67
685.386	6.48
685.709	6.12
686.032	6.8
686.355	6.4
686.678	6.32
687.001	5.83
687.324	6.26
687.646	5.72
687.969	6.49
688.292	6.63
688.614	7.09
688.937	5.87
689.26	5.91
689.582	6.85
689.904	6.59
690.227	6.81
690.549	7.09
690.871	7.13
691.194	6.97
691.516	6.78
691.838	7.14
692.16	6.74
