Data from 1710-3_chest_Reflection__2__138.txt Node

Date: Fri Sep 30 19:12:23 CDT 2022
User: ToomeyLab
Spectrometer: FLMS14357
Trigger mode: 0
Integration Time (sec): 1.000000E-2
Scans to average: 100
Electric dark correction enabled: true
Nonlinearity correction enabled: false
Boxcar width: 0
XAxis mode: Wavelengths
Number of Pixels in Spectrum: 2048
>>>>>Begin Spectral Data<<<<<
189.047	-374.25
189.435	-374.25
189.823	-374.25
190.211	13.43
190.599	-1917.41
190.987	1149.58
191.375	-525.18
191.763	62.69
192.151	-145.1
192.538	54.06
192.926	-6.97
193.314	-3.72
193.702	5556.25
194.089	145.89
194.477	102.72
194.864	59.79
195.252	317.39
195.639	313.65
196.027	139.95
196.414	34556.25
196.801	-55.12
197.189	133.38
197.576	182.61
197.963	16.72
198.351	-1.94
198.738	-50.99
199.125	-20.99
199.512	8.07
199.899	-88.7
200.286	-5.76
200.673	-23.38
201.06	-21.99
201.447	-67.39
201.833	30.08
202.22	-93.05
202.607	-12.55
202.994	1.46
203.38	-26.26
203.767	-6.38
204.154	9.32
204.54	25.02
204.927	-53.88
205.313	30.05
205.699	26.67
206.086	26.97
206.472	24.8
206.858	31.08
207.245	-62.22
207.631	-18.01
208.017	14.38
208.403	10.16
208.789	64.48
209.175	21.04
209.561	2.39
209.947	19.26
210.333	8.65
210.719	24.38
211.105	0.98
211.491	15.35
211.876	25.34
212.262	12.56
212.648	-21.62
213.034	4.7
213.419	-4.86
213.805	21.42
214.19	41.76
214.576	-12.97
214.961	22.82
215.346	22.97
215.732	41.82
216.117	27.03
216.502	-16.28
216.888	9.16
217.273	18.14
217.658	4.3
218.043	30
218.428	15.86
218.813	2.13
219.198	5.91
219.583	14.41
219.968	-4.36
220.353	-12.18
220.738	8.66
221.122	-8.61
221.507	-9.21
221.892	-1.86
222.276	0.49
222.661	-0.25
223.046	-14.34
223.43	4.91
223.815	0.05
224.199	13.72
224.583	11.22
224.968	0.53
225.352	7.85
225.736	-2.37
226.121	18.91
226.505	8.78
226.889	3.76
227.273	0.7
227.657	-3.8
228.041	5.14
228.425	-0.58
228.809	6.5
229.193	1.15
229.577	4.36
229.961	2.92
230.344	3.07
230.728	3.12
231.112	2.91
231.495	2.9
231.879	4.63
232.263	3.76
232.646	3.46
233.03	2.89
233.413	2.8
233.797	1.11
234.18	-0.14
234.563	3.61
234.946	2.09
235.33	1.32
235.713	0.83
236.096	3.35
236.479	2.32
236.862	2.83
237.245	2.8
237.628	3.76
238.011	1.49
238.394	2.02
238.777	1.17
239.16	0.6
239.543	1.59
239.925	1.12
240.308	1.49
240.691	0.25
241.073	2.06
241.456	2.01
241.838	2.83
242.221	3.71
242.603	3.38
242.986	3.09
243.368	2.63
243.75	2.34
244.133	1.99
244.515	2.19
244.897	2.31
245.279	2.02
245.661	2.5
246.043	3.01
246.425	2.36
246.807	2.51
247.189	2.71
247.571	2.48
247.953	2.3
248.335	2.84
248.717	2.25
249.098	2.49
249.48	2.78
249.862	1.93
250.243	2.63
250.625	2.3
251.006	2.61
251.388	2.45
251.769	2.04
252.151	2.38
252.532	1.78
252.913	1.43
253.295	3.13
253.676	2.65
254.057	2.43
254.438	2.13
254.819	3.06
255.2	2.93
255.581	2.93
255.962	3.51
256.343	1.18
256.724	3.29
257.105	2.1
257.486	1.61
257.867	3.54
258.247	2.15
258.628	2.64
259.009	2.47
259.389	2.3
259.77	2.21
260.15	2.19
260.531	2.34
260.911	2.31
261.292	2.59
261.672	2.31
262.052	2.38
262.432	2.72
262.813	3.45
263.193	2.95
263.573	2.41
263.953	2.37
264.333	2.53
264.713	2.3
265.093	2.24
265.473	2.5
265.853	2.3
266.233	2
266.612	2.16
266.992	2.51
267.372	2.63
267.752	1.97
268.131	2.94
268.511	2.03
268.89	2.53
269.27	2.44
269.649	2.34
270.029	2.19
270.408	2.26
270.787	2.35
271.167	1.91
271.546	1.68
271.925	2.24
272.304	2.34
272.683	2.33
273.062	2.33
273.441	1.85
273.82	2.55
274.199	2.73
274.578	2.41
274.957	2.22
275.336	2.06
275.715	2.24
276.093	1.91
276.472	1.74
276.851	3.26
277.229	2.37
277.608	1.85
277.986	2.02
278.365	2.37
278.743	3.02
279.122	1.46
279.5	2.7
279.878	2.77
280.257	2.38
280.635	2.29
281.013	2.46
281.391	2.25
281.769	1.96
282.147	2.06
282.525	2.49
282.903	2.54
283.281	2.55
283.659	2.66
284.037	2.15
284.415	1.97
284.792	2.06
285.17	2.51
285.548	2.11
285.925	2.13
286.303	2.23
286.68	2.28
287.058	2.33
287.435	2.12
287.813	2.31
288.19	2.04
288.567	2.46
288.945	1.89
289.322	2.46
289.699	2.2
290.076	2.79
290.453	2.9
290.83	2.06
291.207	2.91
291.584	2.55
291.961	2.44
292.338	2.31
292.715	2.66
293.092	2.43
293.469	2.46
293.845	2.8
294.222	2.6
294.599	2.55
294.975	2.62
295.352	3.06
295.728	2.67
296.105	3.07
296.481	2.95
296.858	2.11
297.234	2.02
297.61	2.99
297.986	3.11
298.363	2.6
298.739	2.97
299.115	2.71
299.491	2.9
299.867	2.69
300.243	3.17
300.619	2.92
300.995	3.05
301.371	2.93
301.746	3.37
302.122	3.58
302.498	2.54
302.874	2.75
303.249	2.95
303.625	2.95
304	3.18
304.376	2.75
304.751	3.28
305.127	3.16
305.502	3.1
305.878	2.82
306.253	3.74
306.628	3.23
307.003	3.4
307.378	3.14
307.754	3.24
308.129	3.36
308.504	3.28
308.879	3.54
309.254	2.98
309.629	2.95
310.003	2.78
310.378	3.53
310.753	3.08
311.128	2.86
311.502	3.37
311.877	2.86
312.252	3.21
312.626	2.83
313.001	3.07
313.375	3.07
313.75	3.32
314.124	2.95
314.498	3.29
314.873	3.39
315.247	3.07
315.621	3.08
315.995	3.29
316.369	3.11
316.743	3.44
317.117	3.38
317.491	3.34
317.865	3.29
318.239	3.02
318.613	3.29
318.987	3.39
319.361	3.11
319.734	3.42
320.108	3.15
320.482	3.47
320.855	3.67
321.229	3.3
321.602	3.69
321.976	3.95
322.349	3.07
322.723	3.29
323.096	2.91
323.469	3.9
323.843	3.64
324.216	3.34
324.589	3.7
324.962	3.71
325.335	3.98
325.708	3.75
326.081	3.9
326.454	3.93
326.827	3.65
327.2	3.65
327.573	3.63
327.945	3.87
328.318	4.1
328.691	3.73
329.063	3.65
329.436	3.92
329.809	3.71
330.181	3.68
330.553	4.3
330.926	3.94
331.298	4.1
331.671	4.07
332.043	3.57
332.415	3.54
332.787	3.81
333.159	3.97
333.532	4
333.904	3.49
334.276	4.15
334.648	3.81
335.02	4.09
335.391	4.12
335.763	3.87
336.135	3.66
336.507	3.78
336.879	3.92
337.25	4
337.622	3.94
337.993	3.47
338.365	4.61
338.736	3.59
339.108	4.05
339.479	4.05
339.851	4.26
340.222	3.76
340.593	3.93
340.964	4.15
341.336	3.9
341.707	3.7
342.078	3.89
342.449	3.82
342.82	3.57
343.191	3.89
343.562	3.95
343.933	3.98
344.303	4.02
344.674	4.52
345.045	3.57
345.416	3.68
345.786	3.54
346.157	3.15
346.527	4.01
346.898	3.97
347.268	3.8
347.639	3.65
348.009	3.73
348.38	3.98
348.75	3.63
349.12	3.82
349.49	3.69
349.861	4.07
350.231	3.95
350.601	4.03
350.971	3.91
351.341	4.13
351.711	3.83
352.081	3.53
352.45	4.09
352.82	3.78
353.19	3.59
353.56	3.67
353.929	3.84
354.299	3.89
354.669	4.14
355.038	3.99
355.408	3.85
355.777	3.82
356.147	3.75
356.516	4.04
356.885	3.63
357.254	4.18
357.624	3.82
357.993	3.93
358.362	3.63
358.731	3.54
359.1	3.56
359.469	3.72
359.838	3.91
360.207	3.99
360.576	4.27
360.945	3.75
361.314	3.55
361.682	4.13
362.051	4.14
362.42	3.62
362.788	3.89
363.157	3.74
363.525	3.97
363.894	4.03
364.262	3.77
364.631	4.1
364.999	4.3
365.367	3.7
365.735	3.96
366.104	3.68
366.472	4.02
366.84	3.97
367.208	4.12
367.576	4.15
367.944	3.95
368.312	3.96
368.68	3.85
369.048	4
369.416	3.93
369.783	3.88
370.151	3.81
370.519	3.97
370.886	4.15
371.254	4.18
371.621	4.31
371.989	3.99
372.356	3.87
372.724	3.79
373.091	4.04
373.458	3.61
373.826	3.92
374.193	4.19
374.56	4.19
374.927	4.14
375.294	3.72
375.661	3.98
376.028	4.19
376.395	4.05
376.762	4.07
377.129	4.04
377.496	4.01
377.863	4.05
378.229	4.07
378.596	4.02
378.963	3.89
379.329	4.05
379.696	4.09
380.062	4.19
380.429	4.02
380.795	3.55
381.161	4.06
381.528	4.01
381.894	4.16
382.26	4.31
382.626	4.05
382.993	4.07
383.359	3.83
383.725	4.09
384.091	4.04
384.457	4.34
384.823	4.31
385.188	4.48
385.554	4.07
385.92	3.97
386.286	4.01
386.651	4.43
387.017	4.11
387.383	4.4
387.748	4.41
388.114	4.07
388.479	4.3
388.845	3.96
389.21	4.08
389.575	4.12
389.94	3.99
390.306	4.13
390.671	4
391.036	4.12
391.401	3.95
391.766	4.07
392.131	4.07
392.496	3.97
392.861	4.28
393.226	4.11
393.591	4.05
393.956	4.19
394.32	4.01
394.685	4
395.05	3.87
395.414	4.05
395.779	4.38
396.143	3.98
396.508	3.96
396.872	4.21
397.236	4.12
397.601	4.37
397.965	4.41
398.329	4.06
398.694	4.14
399.058	4.4
399.422	4.25
399.786	4.21
400.15	4.16
400.514	4.52
400.878	4.14
401.242	4.36
401.605	4.35
401.969	4.15
402.333	4.23
402.697	4.35
403.06	4.25
403.424	4.23
403.787	4.22
404.151	4.18
404.514	4.15
404.878	4.11
405.241	4.51
405.604	4.29
405.968	4.28
406.331	4.22
406.694	4.26
407.057	4.09
407.42	4.42
407.783	4.47
408.146	4.21
408.509	4.57
408.872	4.04
409.235	4.37
409.598	4.24
409.961	4.33
410.323	4.23
410.686	4.23
411.049	3.97
411.411	4.19
411.774	4.29
412.136	4.41
412.499	4.25
412.861	4.24
413.223	4.36
413.586	4.34
413.948	4.36
414.31	4.3
414.672	4.62
415.035	4.36
415.397	3.91
415.759	4.42
416.121	4.37
416.483	4.12
416.845	4.44
417.206	4.39
417.568	4.55
417.93	4.21
418.292	4.13
418.653	4.28
419.015	4.28
419.377	4.19
419.738	4.2
420.1	4.14
420.461	4.24
420.822	4.22
421.184	4.19
421.545	4.19
421.906	4.18
422.267	4.3
422.629	4.19
422.99	4.2
423.351	4.27
423.712	4.33
424.073	4.31
424.434	4.32
424.795	4.25
425.155	4.24
425.516	4.17
425.877	4.2
426.238	4.2
426.598	4.15
426.959	4.37
427.32	4.4
427.68	4.41
428.041	4.27
428.401	4.57
428.761	4.41
429.122	4.33
429.482	4.56
429.842	4.48
430.202	4.37
430.563	4.44
430.923	4.54
431.283	4.39
431.643	4.61
432.003	4.46
432.363	4.34
432.722	4.26
433.082	4.42
433.442	4.35
433.802	4.28
434.161	4.49
434.521	4.24
434.881	4.37
435.24	4.26
435.6	4.43
435.959	4.55
436.319	4.32
436.678	4.5
437.037	4.62
437.396	4.42
437.756	4.46
438.115	4.4
438.474	4.46
438.833	4.51
439.192	4.47
439.551	4.77
439.91	4.4
440.269	4.41
440.628	4.37
440.987	4.46
441.345	4.32
441.704	4.46
442.063	4.42
442.421	4.4
442.78	4.37
443.138	4.47
443.497	4.53
443.855	4.62
444.214	4.5
444.572	4.57
444.93	4.55
445.288	4.64
445.647	4.48
446.005	4.46
446.363	4.49
446.721	4.42
447.079	4.33
447.437	4.46
447.795	4.44
448.153	4.49
448.51	4.47
448.868	4.51
449.226	4.52
449.584	4.53
449.941	4.5
450.299	4.6
450.656	4.61
451.014	4.56
451.371	4.67
451.729	4.49
452.086	4.63
452.443	4.72
452.801	4.62
453.158	4.45
453.515	4.29
453.872	4.63
454.229	4.58
454.586	4.44
454.943	4.56
455.3	4.68
455.657	4.75
456.014	4.75
456.371	4.64
456.727	4.6
457.084	4.75
457.441	4.65
457.797	4.65
458.154	4.79
458.51	4.71
458.867	4.62
459.223	4.66
459.58	4.67
459.936	4.66
460.292	4.85
460.648	4.64
461.005	4.45
461.361	4.5
461.717	4.44
462.073	4.6
462.429	4.68
462.785	4.71
463.141	4.83
463.496	4.82
463.852	4.86
464.208	4.87
464.564	4.71
464.919	4.69
465.275	4.74
465.631	4.77
465.986	4.76
466.342	4.74
466.697	4.59
467.052	4.63
467.408	4.75
467.763	4.79
468.118	4.56
468.473	4.79
468.829	4.69
469.184	4.69
469.539	4.77
469.894	4.91
470.249	5
470.603	5.03
470.958	4.87
471.313	4.65
471.668	4.89
472.023	4.94
472.377	4.83
472.732	4.81
473.086	4.9
473.441	4.69
473.795	4.81
474.15	4.79
474.504	4.7
474.859	4.83
475.213	4.87
475.567	4.68
475.921	5.01
476.275	4.93
476.63	4.88
476.984	4.87
477.338	4.9
477.692	4.94
478.045	4.85
478.399	4.94
478.753	4.88
479.107	4.9
479.461	4.85
479.814	5.02
480.168	4.79
480.521	4.87
480.875	4.99
481.228	4.91
481.582	5.03
481.935	4.87
482.289	4.79
482.642	5.03
482.995	4.87
483.348	4.81
483.701	4.76
484.055	4.84
484.408	4.77
484.761	4.65
485.114	4.46
485.466	4.42
485.819	4.52
486.172	4.65
486.525	4.83
486.878	4.92
487.23	5.01
487.583	4.98
487.936	4.91
488.288	4.82
488.641	4.69
488.993	4.64
489.345	4.7
489.698	4.69
490.05	4.8
490.402	4.8
490.754	4.97
491.107	4.98
491.459	4.95
491.811	5.11
492.163	5
492.515	4.79
492.866	4.8
493.218	4.66
493.57	4.68
493.922	4.79
494.274	5.04
494.625	5.13
494.977	5.14
495.328	5.05
495.68	5.27
496.031	5.05
496.383	5.17
496.734	5.17
497.086	5.1
497.437	5.07
497.788	5.03
498.139	5.09
498.49	5.08
498.842	5.21
499.193	5.06
499.544	5.1
499.894	5.25
500.245	5.22
500.596	5.08
500.947	5.33
501.298	5.33
501.648	5.33
501.999	5.24
502.35	5.28
502.7	5.49
503.051	5.34
503.401	5.31
503.752	5.16
504.102	5.21
504.452	5.22
504.803	5.21
505.153	5.23
505.503	5.19
505.853	5.2
506.203	5.32
506.553	5.34
506.903	5.37
507.253	5.36
507.603	5.35
507.953	5.3
508.303	5.33
508.652	5.32
509.002	5.29
509.352	5.44
509.701	5.34
510.051	5.29
510.4	5.32
510.75	5.3
511.099	5.36
511.449	5.31
511.798	5.39
512.147	5.37
512.496	5.45
512.846	5.47
513.195	5.42
513.544	5.49
513.893	5.44
514.242	5.34
514.591	5.39
514.939	5.47
515.288	5.56
515.637	5.48
515.986	5.49
516.334	5.53
516.683	5.49
517.032	5.59
517.38	5.58
517.729	5.56
518.077	5.64
518.426	5.57
518.774	5.57
519.122	5.43
519.47	5.52
519.819	5.46
520.167	5.39
520.515	5.36
520.863	5.54
521.211	5.65
521.559	5.56
521.907	5.67
522.255	5.72
522.602	5.76
522.95	5.72
523.298	5.71
523.645	5.82
523.993	5.68
524.341	5.61
524.688	5.66
525.036	5.54
525.383	5.8
525.73	5.72
526.078	5.7
526.425	5.6
526.772	5.61
527.119	5.53
527.466	5.49
527.814	5.61
528.161	5.71
528.508	5.84
528.854	5.79
529.201	5.62
529.548	5.5
529.895	5.42
530.242	5.31
530.588	5.37
530.935	5.49
531.282	5.66
531.628	5.81
531.975	5.88
532.321	5.88
532.667	6
533.014	5.93
533.36	5.95
533.706	5.88
534.052	5.85
534.399	5.67
534.745	5.64
535.091	5.66
535.437	5.74
535.783	5.86
536.129	5.98
536.474	6.04
536.82	5.98
537.166	5.97
537.512	6.05
537.857	5.96
538.203	5.89
538.549	5.87
538.894	6.01
539.239	6.06
539.585	6.22
539.93	6.21
540.276	6.31
540.621	6.24
540.966	6.23
541.311	6.09
541.656	6.07
542.001	6.11
542.346	5.96
542.691	5.84
543.036	5.75
543.381	5.93
543.726	6.07
544.071	6.09
544.415	6.35
544.76	6.26
545.105	6.27
545.449	6.26
545.794	6.31
546.138	6.3
546.483	6.39
546.827	6.4
547.171	6.46
547.516	6.38
547.86	6.33
548.204	6.27
548.548	6.33
548.892	6.49
549.236	6.3
549.58	6.51
549.924	6.51
550.268	6.64
550.612	6.66
550.956	6.72
551.3	6.8
551.643	6.65
551.987	6.51
552.33	6.86
552.674	6.8
553.017	6.57
553.361	6.77
553.704	6.68
554.048	6.62
554.391	6.78
554.734	6.6
555.077	6.6
555.42	6.89
555.764	6.97
556.107	6.88
556.45	7.13
556.793	6.97
557.135	6.92
557.478	6.9
557.821	6.96
558.164	6.96
558.507	7.13
558.849	7.09
559.192	7.2
559.534	7.07
559.877	7.29
560.219	7.15
560.562	7.15
560.904	7.19
561.246	7.18
561.589	7.11
561.931	7.19
562.273	7.22
562.615	7.23
562.957	7.13
563.299	7.29
563.641	7.22
563.983	7.3
564.325	7.24
564.667	7.34
565.008	7.33
565.35	7.41
565.692	7.28
566.033	7.37
566.375	7.28
566.716	7.56
567.058	7.61
567.399	7.24
567.741	7.16
568.082	7.4
568.423	7.35
568.764	7.43
569.105	7.54
569.447	7.38
569.788	7.69
570.129	7.63
570.47	7.5
570.811	7.42
571.151	7.46
571.492	7.69
571.833	7.57
572.174	7.55
572.514	7.68
572.855	7.64
573.195	7.65
573.536	7.72
573.876	7.46
574.217	7.58
574.557	7.94
574.898	7.7
575.238	7.66
575.578	7.72
575.918	7.86
576.258	7.72
576.598	7.81
576.938	7.86
577.278	7.73
577.618	7.98
577.958	7.82
578.298	7.98
578.638	8.03
578.977	8.01
579.317	7.97
579.657	7.86
579.996	8.11
580.336	8.34
580.675	8.19
581.014	8.11
581.354	8.2
581.693	8.42
582.032	8.32
582.372	8.16
582.711	8.13
583.05	8.53
583.389	8.1
583.728	8.42
584.067	8.46
584.406	8.46
584.745	8.34
585.083	8.63
585.422	8.5
585.761	8.59
586.1	8.59
586.438	8.38
586.777	8.25
587.115	8.48
587.454	8.58
587.792	8.91
588.13	8.79
588.469	8.46
588.807	8.77
589.145	8.95
589.483	8.78
589.821	8.81
590.159	8.72
590.497	8.91
590.835	8.94
591.173	8.84
591.511	8.75
591.849	8.73
592.187	8.84
592.524	8.99
592.862	8.75
593.2	8.95
593.537	9.09
593.875	8.9
594.212	9.02
594.55	8.94
594.887	9.05
595.224	9.02
595.561	9.01
595.899	9.2
596.236	9.1
596.573	9.19
596.91	9.3
597.247	9.17
597.584	9.17
597.921	9.08
598.258	9.21
598.594	8.9
598.931	9.01
599.268	9.13
599.604	9.32
599.941	9.25
600.277	9.53
600.614	9.58
600.95	9.28
601.287	9.37
601.623	9.33
601.959	9.75
602.296	9.55
602.632	9.27
602.968	9.44
603.304	9.83
603.64	9.4
603.976	9.57
604.312	9.52
604.648	9.69
604.984	9.51
605.319	9.66
605.655	9.47
605.991	9.61
606.326	9.59
606.662	9.62
606.998	9.76
607.333	9.61
607.668	9.93
608.004	9.85
608.339	9.86
608.674	9.92
609.01	9.97
609.345	9.91
609.68	10.11
610.015	9.92
610.35	9.91
610.685	9.98
611.02	10.05
611.355	9.87
611.689	10.11
612.024	10.07
612.359	10.07
612.694	10.12
613.028	10.55
613.363	10.16
613.697	10.43
614.032	10.54
614.366	10.45
614.7	10.31
615.035	10.39
615.369	10.47
615.703	10.58
616.037	10.23
616.371	10.63
616.705	10.52
617.039	10.48
617.373	10.49
617.707	10.22
618.041	10.6
618.375	10.79
618.709	10.74
619.042	11.04
619.376	10.77
619.71	10.51
620.043	10.99
620.377	11.15
620.71	10.77
621.043	10.72
621.377	11.02
621.71	10.64
622.043	10.73
622.376	10.97
622.709	10.98
623.043	10.69
623.376	11.15
623.709	11.2
624.041	10.79
624.374	11.14
624.707	11.01
625.04	11.46
625.373	11.19
625.705	11.22
626.038	11.18
626.37	11.53
626.703	11.32
627.035	11.11
627.368	11.06
627.7	11
628.032	10.93
628.365	11.11
628.697	11.4
629.029	11.25
629.361	11.08
629.693	11.36
630.025	11.56
630.357	11.43
630.689	11.31
631.021	11.54
631.353	11.56
631.684	11.3
632.016	11.19
632.348	11.26
632.679	11.91
633.011	11.88
633.342	11.68
633.674	11.39
634.005	12.03
634.336	12.07
634.668	11.6
634.999	11.74
635.33	11.85
635.661	11.79
635.992	12.04
636.323	11.82
636.654	11.67
636.985	11.82
637.316	12.15
637.647	11.85
637.977	12.11
638.308	11.88
638.639	12.1
638.969	12.31
639.3	12.17
639.63	12.28
639.961	12.34
640.291	12.29
640.622	12.02
640.952	12.6
641.282	12.34
641.612	12.17
641.943	12.54
642.273	12.36
642.603	12.75
642.933	12.33
643.263	12.54
643.592	12.59
643.922	12.37
644.252	12.42
644.582	12.5
644.911	12.39
645.241	12.43
645.571	12.8
645.9	12.66
646.23	13.05
646.559	12.55
646.888	12.54
647.218	12.92
647.547	12.73
647.876	13.13
648.205	12.88
648.534	12.38
648.863	12.25
649.192	12.64
649.521	12.8
649.85	13.36
650.179	12.84
650.508	12.89
650.837	12.31
651.165	12.84
651.494	13.02
651.822	12.99
652.151	13.37
652.479	13.02
652.808	13.38
653.136	13.39
653.465	12.95
653.793	13.01
654.121	13.24
654.449	13.27
654.777	13.29
655.105	13.35
655.433	13.25
655.761	13.3
656.089	13.26
656.417	13.41
656.745	13.4
657.073	13.66
657.4	13.83
657.728	13.94
658.056	13.76
658.383	13.59
658.711	12.94
659.038	13.76
659.365	13.37
659.693	13.63
660.02	13.54
660.347	13.28
660.674	13.49
661.001	13.7
661.329	13.84
661.656	13.76
661.982	13.2
662.309	13.53
662.636	13.71
662.963	13.84
663.29	14.2
663.616	13.8
663.943	13.87
664.27	13.43
664.596	14
664.923	14.03
665.249	13.99
665.576	13.83
665.902	13.73
666.228	13.96
666.554	14.16
666.881	14.49
667.207	14.34
667.533	14.5
667.859	14.14
668.185	14.52
668.511	14.66
668.837	14.59
669.162	14.54
669.488	14.24
669.814	14.43
670.139	13.82
670.465	14.33
670.791	13.95
671.116	14.27
671.442	14.4
671.767	13.95
672.092	14.49
672.418	15.36
672.743	14.49
673.068	14.79
673.393	14.33
673.718	14.87
674.043	14.76
674.368	14.62
674.693	14.24
675.018	14.58
675.343	14.86
675.667	14.4
675.992	15.03
676.317	14.87
676.641	15.01
676.966	14.79
677.29	14.98
677.615	14.9
677.939	15.09
678.264	15.56
678.588	14.99
678.912	15.08
679.236	15.14
679.56	14.46
679.885	15.35
680.209	15.26
680.532	14.8
680.856	15.11
681.18	14.8
681.504	15.31
681.828	15.38
682.152	15.23
682.475	14.83
682.799	15.41
683.122	15.16
683.446	14.84
683.769	14.88
684.093	15.42
684.416	15.55
684.739	15.67
685.062	15.74
685.386	15.52
685.709	15.23
686.032	16.17
686.355	15.69
686.678	15.49
687.001	15.61
