Data from 1710-3_crown_Reflection__0__141.txt Node

Date: Fri Sep 30 19:14:06 CDT 2022
User: ToomeyLab
Spectrometer: FLMS14357
Trigger mode: 0
Integration Time (sec): 1.000000E-2
Scans to average: 100
Electric dark correction enabled: true
Nonlinearity correction enabled: false
Boxcar width: 0
XAxis mode: Wavelengths
Number of Pixels in Spectrum: 2048
>>>>>Begin Spectral Data<<<<<
189.047	-728.75
189.435	-728.75
189.823	-728.75
190.211	-17.99
190.599	-1312.95
190.987	58.75
191.375	-312.32
191.763	85.22
192.151	-200.61
192.538	175.42
192.926	116.52
193.314	-37.72
193.702	-5681.25
194.089	-149.83
194.477	143.44
194.864	10.09
195.252	133.79
195.639	5.43
196.027	145.81
196.414	20718.75
196.801	-402.37
197.189	52.86
197.576	-9.26
197.963	0.85
198.351	32.85
198.738	1.76
199.125	3
199.512	0.82
199.899	-59.55
200.286	17.3
200.673	-14.5
201.06	-20.3
201.447	-58.53
201.833	27.36
202.22	-92.43
202.607	29.94
202.994	-19.8
203.38	-0.84
203.767	-22.18
204.154	22.96
204.54	-1.75
204.927	-17.86
205.313	18.72
205.699	-27.53
206.086	28.66
206.472	-8.63
206.858	16.08
207.245	-93.83
207.631	-11.36
208.017	-4.41
208.403	16.74
208.789	13.31
209.175	-0.02
209.561	-10.88
209.947	22.52
210.333	23.78
210.719	-24.67
211.105	-32.42
211.491	17.69
211.876	8.37
212.262	13.4
212.648	5.18
213.034	-1.38
213.419	-13.84
213.805	-4.19
214.19	-2.45
214.576	-15.18
214.961	35.17
215.346	19.43
215.732	2
216.117	-11.01
216.502	-32.08
216.888	-3.42
217.273	10.44
217.658	-17.72
218.043	16.54
218.428	5.46
218.813	-2.58
219.198	5.5
219.583	2.98
219.968	-27.26
220.353	-9.48
220.738	11.38
221.122	-4.12
221.507	-1.03
221.892	10.3
222.276	-22.71
222.661	3.81
223.046	-1.78
223.43	8.98
223.815	-3.06
224.199	8.2
224.583	6.09
224.968	-2.91
225.352	-9.66
225.736	-2.16
226.121	8.81
226.505	1.76
226.889	4.93
227.273	-0.67
227.657	-5.06
228.041	0.28
228.425	0.6
228.809	3.32
229.193	1.22
229.577	2.05
229.961	1.29
230.344	2.28
230.728	1.77
231.112	2.14
231.495	1.08
231.879	1.61
232.263	1.84
232.646	2.62
233.03	0.93
233.413	0.06
233.797	-1.88
234.18	-0.74
234.563	3.98
234.946	0.72
235.33	2.51
235.713	-0.36
236.096	1.19
236.479	1.15
236.862	1.66
237.245	1.64
237.628	1.13
238.011	0.83
238.394	-1.51
238.777	0.81
239.16	0.91
239.543	-0.22
239.925	1.49
240.308	0.17
240.691	-0.07
241.073	0.5
241.456	0.47
241.838	1.36
242.221	1.13
242.603	1.07
242.986	1.96
243.368	1.15
243.75	1.45
244.133	0.66
244.515	0.99
244.897	0.83
245.279	1.08
245.661	1.41
246.043	0.37
246.425	1.48
246.807	0.44
247.189	1.46
247.571	1.21
247.953	1.04
248.335	1.36
248.717	1.1
249.098	1.16
249.48	1.55
249.862	0.86
250.243	1.18
250.625	1.04
251.006	1.42
251.388	1.57
251.769	1.58
252.151	0.79
252.532	1.1
252.913	-0.31
253.295	1.1
253.676	1.44
254.057	1.4
254.438	1.07
254.819	1.61
255.2	1.3
255.581	1.92
255.962	1.89
256.343	-0.39
256.724	1.62
257.105	-0.24
257.486	1.83
257.867	2.18
258.247	1.08
258.628	0.82
259.009	1.34
259.389	1.74
259.77	0.94
260.15	1.07
260.531	1.34
260.911	1.04
261.292	1.29
261.672	1.17
262.052	1.15
262.432	1.58
262.813	1.45
263.193	1.53
263.573	1.16
263.953	1.41
264.333	1.7
264.713	1.49
265.093	1.37
265.473	1.64
265.853	1.24
266.233	0.67
266.612	1.53
266.992	1.29
267.372	1.18
267.752	0.42
268.131	1.39
268.511	1.14
268.89	1.26
269.27	1.58
269.649	1.49
270.029	1.45
270.408	1.12
270.787	1.5
271.167	1.4
271.546	1.11
271.925	1.5
272.304	1.19
272.683	1.08
273.062	1.49
273.441	0.75
273.82	1.05
274.199	1.21
274.578	1.1
274.957	1.24
275.336	1.04
275.715	0.7
276.093	1.43
276.472	1.28
276.851	1.42
277.229	1.24
277.608	1.2
277.986	1.35
278.365	1.18
278.743	1.27
279.122	0.83
279.5	1.55
279.878	1.11
280.257	0.91
280.635	1.24
281.013	1.06
281.391	0.9
281.769	1.37
282.147	1.26
282.525	1.43
282.903	0.88
283.281	1.63
283.659	0.7
284.037	1.47
284.415	0.17
284.792	1.64
285.17	1.51
285.548	1.17
285.925	1.08
286.303	1.13
286.68	1.03
287.058	1.29
287.435	1.09
287.813	1.33
288.19	1.29
288.567	1.14
288.945	0.92
289.322	1.35
289.699	0.87
290.076	1.38
290.453	1.5
290.83	0.98
291.207	1.92
291.584	1.25
291.961	1.15
292.338	1.17
292.715	1.29
293.092	1.13
293.469	1.22
293.845	1.3
294.222	1.04
294.599	1.24
294.975	1.51
295.352	1.68
295.728	1.43
296.105	1.42
296.481	1.66
296.858	1.25
297.234	1.3
297.61	1.54
297.986	1.42
298.363	1.23
298.739	1.69
299.115	1.32
299.491	1.44
299.867	1.74
300.243	1.75
300.619	1.53
300.995	1.56
301.371	2
301.746	2.21
302.122	1.56
302.498	1.24
302.874	1.34
303.249	1.71
303.625	1.33
304	1.39
304.376	1.56
304.751	1.38
305.127	2.01
305.502	1.56
305.878	2
306.253	2.37
306.628	1.68
307.003	1.92
307.378	1.57
307.754	1.68
308.129	1.79
308.504	1.91
308.879	2.22
309.254	1.24
309.629	1.65
310.003	1.67
310.378	1.9
310.753	1.73
311.128	1.48
311.502	1.7
311.877	1.51
312.252	1.57
312.626	2.02
313.001	1.67
313.375	1.73
313.75	1.59
314.124	1.69
314.498	1.8
314.873	1.54
315.247	1.95
315.621	2.07
315.995	1.46
316.369	1.87
316.743	1.88
317.117	2.21
317.491	1.34
317.865	2.01
318.239	2.18
318.613	1.88
318.987	2.31
319.361	1.82
319.734	1.8
320.108	2.17
320.482	2.3
320.855	2.06
321.229	2.24
321.602	1.97
321.976	2.2
322.349	1.62
322.723	1.61
323.096	2.06
323.469	2.16
323.843	2.02
324.216	2.17
324.589	2.6
324.962	1.83
325.335	1.78
325.708	1.7
326.081	2.42
326.454	2.17
326.827	2.31
327.2	2.16
327.573	2.36
327.945	2.29
328.318	2.27
328.691	2.05
329.063	1.62
329.436	1.73
329.809	2.07
330.181	1.73
330.553	2.41
330.926	2.2
331.298	2.38
331.671	2.4
332.043	2.66
332.415	2.58
332.787	2.43
333.159	2.19
333.532	2.61
333.904	2.03
334.276	2.23
334.648	1.93
335.02	2.08
335.391	2.36
335.763	2.19
336.135	2.3
336.507	1.97
336.879	2.09
337.25	2.33
337.622	1.91
337.993	1.87
338.365	2.54
338.736	2.22
339.108	2.28
339.479	2.15
339.851	2.15
340.222	2.19
340.593	2.4
340.964	2.19
341.336	2.07
341.707	2.13
342.078	2.16
342.449	2.11
342.82	1.88
343.191	2.03
343.562	1.73
343.933	2.59
344.303	2.22
344.674	2.58
345.045	2
345.416	2.26
345.786	2.54
346.157	1.61
346.527	1.85
346.898	1.98
347.268	2.51
347.639	2.15
348.009	1.86
348.38	2.31
348.75	2.11
349.12	1.67
349.49	2.24
349.861	2.19
350.231	2.35
350.601	1.99
350.971	1.78
351.341	2.37
351.711	2.38
352.081	1.45
352.45	2.22
352.82	2.07
353.19	2.31
353.56	2.01
353.929	2.23
354.299	2.13
354.669	1.96
355.038	2.28
355.408	2.09
355.777	2.18
356.147	2.15
356.516	2.5
356.885	2.16
357.254	2.38
357.624	2.34
357.993	1.91
358.362	2.14
358.731	2
359.1	1.96
359.469	2.56
359.838	2.08
360.207	2.28
360.576	2.27
360.945	2.14
361.314	2.05
361.682	2.21
362.051	2.06
362.42	2.19
362.788	2.01
363.157	2
363.525	2.09
363.894	2.23
364.262	2.16
364.631	2.2
364.999	2.27
365.367	2.33
365.735	1.84
366.104	1.76
366.472	2.11
366.84	2.31
367.208	2.23
367.576	2.28
367.944	2.12
368.312	2.12
368.68	2.15
369.048	2.45
369.416	2.32
369.783	2.21
370.151	2.21
370.519	2.19
370.886	2.16
371.254	2.33
371.621	2.43
371.989	2.14
372.356	2.39
372.724	2.02
373.091	2.15
373.458	2
373.826	2.11
374.193	2.57
374.56	2.4
374.927	2.32
375.294	1.88
375.661	2
376.028	2.49
376.395	2.02
376.762	2.53
377.129	2.33
377.496	2.11
377.863	2.32
378.229	2.15
378.596	1.97
378.963	1.85
379.329	2.12
379.696	2.21
380.062	2.16
380.429	2.13
380.795	2.07
381.161	2.37
381.528	2.05
381.894	2.06
382.26	2.41
382.626	2.27
382.993	2.17
383.359	2.17
383.725	2.11
384.091	1.89
384.457	2.35
384.823	2.45
385.188	2.52
385.554	2.23
385.92	2.42
386.286	2.33
386.651	2.38
387.017	2.15
387.383	2.49
387.748	2.33
388.114	2.3
388.479	2.36
388.845	2.34
389.21	2.1
389.575	2.3
389.94	2.14
390.306	2.14
390.671	2.19
391.036	2.06
391.401	2.31
391.766	2.4
392.131	2.14
392.496	2.31
392.861	2.16
393.226	2.11
393.591	2.21
393.956	2.49
394.32	2.36
394.685	2.36
395.05	2.36
395.414	2.29
395.779	2.18
396.143	2.01
396.508	2.27
396.872	2.22
397.236	2.25
397.601	2.19
397.965	2.27
398.329	2.03
398.694	2.3
399.058	2.57
399.422	2.39
399.786	2.49
400.15	2.29
400.514	2.56
400.878	2.24
401.242	2.24
401.605	2.52
401.969	2.34
402.333	2.44
402.697	2.23
403.06	2.37
403.424	2.24
403.787	2.32
404.151	2.37
404.514	2.24
404.878	2.24
405.241	2.45
405.604	2.33
405.968	2.16
406.331	2.39
406.694	2.33
407.057	2.22
407.42	2.45
407.783	2.42
408.146	2.26
408.509	2.44
408.872	2.28
409.235	2.59
409.598	2.28
409.961	2.45
410.323	2.16
410.686	2.27
411.049	2.08
411.411	2.33
411.774	2.33
412.136	2.58
412.499	2.58
412.861	2.38
413.223	2.24
413.586	2.28
413.948	2.36
414.31	2.37
414.672	2.61
415.035	2.38
415.397	2.13
415.759	2.52
416.121	2.55
416.483	2.2
416.845	2.08
417.206	2.61
417.568	2.56
417.93	2.18
418.292	2.45
418.653	2.29
419.015	2.36
419.377	2.27
419.738	2.25
420.1	2.33
420.461	2.35
420.822	2.26
421.184	2.16
421.545	2.29
421.906	2.42
422.267	2.33
422.629	2.2
422.99	2.24
423.351	2.3
423.712	2.23
424.073	2.38
424.434	2.39
424.795	2.32
425.155	2.35
425.516	2.27
425.877	2.29
426.238	2.43
426.598	2.25
426.959	2.45
427.32	2.4
427.68	2.41
428.041	2.27
428.401	2.52
428.761	2.27
429.122	2.47
429.482	2.29
429.842	2.51
430.202	2.36
430.563	2.29
430.923	2.47
431.283	2.43
431.643	2.63
432.003	2.6
432.363	2.37
432.722	2.19
433.082	2.46
433.442	2.42
433.802	2.35
434.161	2.56
434.521	2.37
434.881	2.46
435.24	2.35
435.6	2.43
435.959	2.49
436.319	2.3
436.678	2.43
437.037	2.52
437.396	2.33
437.756	2.37
438.115	2.4
438.474	2.5
438.833	2.57
439.192	2.4
439.551	2.54
439.91	2.45
440.269	2.44
440.628	2.39
440.987	2.54
441.345	2.48
441.704	2.36
442.063	2.43
442.421	2.45
442.78	2.45
443.138	2.43
443.497	2.35
443.855	2.6
444.214	2.44
444.572	2.49
444.93	2.46
445.288	2.63
445.647	2.48
446.005	2.44
446.363	2.54
446.721	2.52
447.079	2.37
447.437	2.43
447.795	2.38
448.153	2.49
448.51	2.26
448.868	2.53
449.226	2.4
449.584	2.58
449.941	2.46
450.299	2.6
450.656	2.53
451.014	2.47
451.371	2.65
451.729	2.42
452.086	2.53
452.443	2.61
452.801	2.58
453.158	2.46
453.515	2.33
453.872	2.52
454.229	2.48
454.586	2.36
454.943	2.52
455.3	2.58
455.657	2.6
456.014	2.71
456.371	2.63
456.727	2.45
457.084	2.54
457.441	2.68
457.797	2.4
458.154	2.7
458.51	2.57
458.867	2.74
459.223	2.71
459.58	2.48
459.936	2.53
460.292	2.53
460.648	2.5
461.005	2.36
461.361	2.43
461.717	2.41
462.073	2.47
462.429	2.59
462.785	2.55
463.141	2.58
463.496	2.69
463.852	2.56
464.208	2.78
464.564	2.7
464.919	2.56
465.275	2.8
465.631	2.6
465.986	2.62
466.342	2.67
466.697	2.46
467.052	2.39
467.408	2.55
467.763	2.69
468.118	2.74
468.473	2.69
468.829	2.58
469.184	2.58
469.539	2.57
469.894	2.73
470.249	2.52
470.603	2.8
470.958	2.6
471.313	2.63
471.668	2.65
472.023	2.76
472.377	2.66
472.732	2.73
473.086	2.62
473.441	2.61
473.795	2.71
474.15	2.74
474.504	2.63
474.859	2.7
475.213	2.78
475.567	2.54
475.921	2.7
476.275	2.59
476.63	2.74
476.984	2.45
477.338	2.78
477.692	2.67
478.045	2.65
478.399	2.64
478.753	2.65
479.107	2.66
479.461	2.55
479.814	2.67
480.168	2.59
480.521	2.68
480.875	2.67
481.228	2.72
481.582	2.79
481.935	2.52
482.289	2.51
482.642	2.75
482.995	2.62
483.348	2.56
483.701	2.61
484.055	2.65
484.408	2.61
484.761	2.48
485.114	2.37
485.466	2.31
485.819	2.38
486.172	2.53
486.525	2.63
486.878	2.66
487.23	2.73
487.583	2.74
487.936	2.65
488.288	2.58
488.641	2.5
488.993	2.5
489.345	2.47
489.698	2.53
490.05	2.59
490.402	2.61
490.754	2.64
491.107	2.79
491.459	2.67
491.811	2.76
492.163	2.71
492.515	2.46
492.866	2.58
493.218	2.47
493.57	2.54
493.922	2.56
494.274	2.7
494.625	2.79
494.977	2.78
495.328	2.79
495.68	2.72
496.031	2.68
496.383	2.76
496.734	2.77
497.086	2.77
497.437	2.68
497.788	2.59
498.139	2.78
498.49	2.63
498.842	2.77
499.193	2.72
499.544	2.78
499.894	2.84
500.245	2.83
500.596	2.69
500.947	2.79
501.298	2.77
501.648	2.77
501.999	2.63
502.35	2.73
502.7	2.85
503.051	2.92
503.401	2.95
503.752	2.6
504.102	2.7
504.452	2.77
504.803	2.7
505.153	2.76
505.503	2.63
505.853	2.76
506.203	2.86
506.553	2.87
506.903	2.8
507.253	2.88
507.603	2.91
507.953	2.75
508.303	2.85
508.652	2.75
509.002	2.76
509.352	2.86
509.701	2.83
510.051	2.85
510.4	2.82
510.75	2.74
511.099	2.78
511.449	2.73
511.798	2.79
512.147	2.8
512.496	2.9
512.846	2.92
513.195	2.83
513.544	2.91
513.893	2.76
514.242	2.76
514.591	2.83
514.939	2.87
515.288	2.86
515.637	2.78
515.986	2.84
516.334	2.79
516.683	2.81
517.032	2.95
517.38	2.82
517.729	2.81
518.077	2.92
518.426	2.83
518.774	2.88
519.122	2.82
519.47	2.74
519.819	2.89
520.167	2.71
520.515	2.76
520.863	2.82
521.211	2.86
521.559	2.78
521.907	2.94
522.255	3
522.602	2.96
522.95	2.93
523.298	2.9
523.645	2.9
523.993	2.96
524.341	2.9
524.688	2.95
525.036	2.73
525.383	2.99
525.73	2.93
526.078	2.97
526.425	2.81
526.772	2.78
527.119	2.82
527.466	2.72
527.814	2.82
528.161	2.92
528.508	3
528.854	2.96
529.201	2.86
529.548	2.76
529.895	2.65
530.242	2.64
530.588	2.65
530.935	2.78
531.282	2.84
531.628	2.94
531.975	2.97
532.321	2.99
532.667	3.05
533.014	3.04
533.36	2.98
533.706	2.92
534.052	2.97
534.399	2.76
534.745	2.82
535.091	2.76
535.437	2.76
535.783	2.92
536.129	3
536.474	2.97
536.82	3.06
537.166	2.99
537.512	2.91
537.857	2.92
538.203	2.82
538.549	2.83
538.894	3.01
539.239	3.04
539.585	3
539.93	3.12
540.276	3.17
540.621	3.01
540.966	3.07
541.311	2.93
541.656	2.96
542.001	2.91
542.346	2.88
542.691	2.78
543.036	2.73
543.381	2.85
543.726	2.93
544.071	2.97
544.415	3.06
544.76	3.04
545.105	3.03
545.449	3.08
545.794	3.01
546.138	3.12
546.483	3.1
546.827	3.15
547.171	3.04
547.516	3.05
547.86	2.94
548.204	2.99
548.548	3.02
548.892	3.06
549.236	3.02
549.58	3.03
549.924	3.22
550.268	3.14
550.612	3.26
550.956	3.23
551.3	3.14
551.643	3.2
551.987	3.15
552.33	3.26
552.674	3.16
553.017	3.04
553.361	3.09
553.704	3.15
554.048	3.13
554.391	3.11
554.734	3.07
555.077	3.12
555.42	3.07
555.764	3.24
556.107	3.15
556.45	3.37
556.793	3.17
557.135	3.09
557.478	3.11
557.821	3.15
558.164	3.35
558.507	3.41
558.849	3.15
559.192	3.36
559.534	3.13
559.877	3.35
560.219	3.15
560.562	3.26
560.904	3.36
561.246	3.18
561.589	3.16
561.931	3.2
562.273	3.12
562.615	3.11
562.957	3.18
563.299	3.17
563.641	3.13
563.983	3.25
564.325	3.19
564.667	3.16
565.008	3.43
565.35	3.38
565.692	3.27
566.033	3.25
566.375	3.24
566.716	3.37
567.058	3.29
567.399	3.06
567.741	3.06
568.082	3.14
568.423	3.25
568.764	3.2
569.105	3.25
569.447	3.26
569.788	3.36
570.129	3.37
570.47	3.39
570.811	3.19
571.151	3.21
571.492	3.28
571.833	3.29
572.174	3.22
572.514	3.2
572.855	3.28
573.195	3.18
573.536	3.25
573.876	3.12
574.217	3.28
574.557	3.32
574.898	3.32
575.238	3.19
575.578	3.22
575.918	3.31
576.258	3.23
576.598	3.16
576.938	3.28
577.278	3.27
577.618	3.45
577.958	3.21
578.298	3.31
578.638	3.63
578.977	3.54
579.317	3.57
579.657	3.32
579.996	3.38
580.336	3.48
580.675	3.51
581.014	3.34
581.354	3.09
581.693	3.69
582.032	3.51
582.372	3.54
582.711	3.31
583.05	3.55
583.389	3.26
583.728	3.41
584.067	3.68
584.406	3.21
584.745	3.45
585.083	3.36
585.422	3.53
585.761	3.48
586.1	3.53
586.438	3.32
586.777	3.19
587.115	3.46
587.454	3.32
587.792	3.67
588.13	3.86
588.469	3.29
588.807	3.56
589.145	3.83
589.483	3.48
589.821	3.42
590.159	3.54
590.497	3.55
590.835	3.62
591.173	3.52
591.511	3.41
591.849	3.3
592.187	3.45
592.524	3.54
592.862	3.36
593.2	3.26
593.537	3.43
593.875	3.47
594.212	3.27
594.55	3.51
594.887	3.73
595.224	3.77
595.561	3.48
595.899	3.67
596.236	3.46
596.573	3.53
596.91	3.57
597.247	3.59
597.584	3.65
597.921	3.44
598.258	3.61
598.594	3.38
598.931	3.48
599.268	3.31
599.604	3.58
599.941	3.33
600.277	3.69
600.614	3.77
600.95	3.51
601.287	3.61
601.623	3.55
601.959	3.73
602.296	3.73
602.632	3.42
602.968	3.65
603.304	3.65
603.64	3.55
603.976	3.55
604.312	3.4
604.648	3.59
604.984	3.54
605.319	3.4
605.655	3.26
605.991	3.46
606.326	3.5
606.662	3.55
606.998	3.59
607.333	3.57
607.668	3.61
608.004	3.73
608.339	3.67
608.674	3.65
609.01	3.7
609.345	3.5
609.68	3.29
610.015	3.61
610.35	3.57
610.685	3.51
611.02	3.57
611.355	3.54
611.689	3.74
612.024	3.55
612.359	3.67
612.694	3.65
613.028	3.66
613.363	3.58
613.697	3.5
614.032	3.7
614.366	3.49
614.7	3.51
615.035	3.65
615.369	3.71
615.703	3.56
616.037	3.42
616.371	4.08
616.705	3.76
617.039	3.77
617.373	3.47
617.707	3.48
618.041	3.6
618.375	3.65
618.709	3.62
619.042	4.05
619.376	3.99
619.71	3.53
620.043	3.96
620.377	3.9
620.71	3.55
621.043	3.57
621.377	3.81
621.71	3.44
622.043	3.49
622.376	4.2
622.709	3.81
623.043	3.53
623.376	4.09
623.709	3.53
624.041	3.54
624.374	3.84
624.707	3.99
625.04	4.12
625.373	3.52
625.705	3.74
626.038	3.97
626.37	3.91
626.703	3.94
627.035	4
627.368	3.66
627.7	3.57
628.032	3.33
628.365	3.73
628.697	3.86
629.029	3.41
629.361	3.53
629.693	3.7
630.025	4.02
630.357	3.92
630.689	3.63
631.021	3.79
631.353	3.98
631.684	3.51
632.016	3.64
632.348	3.04
632.679	4.11
633.011	3.77
633.342	3.95
633.674	3.41
634.005	3.79
634.336	3.85
634.668	3.58
634.999	3.85
635.33	4.13
635.661	3.76
635.992	3.88
636.323	3.94
636.654	3.76
636.985	3.92
637.316	3.95
637.647	3.96
637.977	3.92
638.308	3.82
638.639	3.79
638.969	3.72
639.3	3.61
639.63	4
639.961	4.18
640.291	3.74
640.622	4.2
640.952	4.02
641.282	3.78
641.612	3.76
641.943	3.78
642.273	3.85
642.603	4.07
642.933	3.97
643.263	3.99
643.592	4.23
643.922	4.12
644.252	3.94
644.582	4.11
644.911	3.66
645.241	3.93
645.571	4.06
645.9	4.01
646.23	4.59
646.559	3.95
646.888	3.96
647.218	4.19
647.547	4.06
647.876	4.4
648.205	4.03
648.534	3.41
648.863	3.8
649.192	4.38
649.521	3.79
649.85	4.4
650.179	3.78
650.508	4.18
650.837	3.84
651.165	4.1
651.494	4.39
651.822	4.13
652.151	4.38
652.479	3.86
652.808	4.33
653.136	4.4
653.465	3.59
653.793	3.93
654.121	3.7
654.449	3.92
654.777	3.87
655.105	4.23
655.433	4.4
655.761	4.12
656.089	4.66
656.417	3.9
656.745	4.23
657.073	3.82
657.4	4.2
657.728	4.21
658.056	4.12
658.383	4.18
658.711	3.77
659.038	4.44
659.365	4.14
659.693	4.72
660.02	4.4
660.347	3.95
660.674	4.26
661.001	4.35
661.329	4.22
661.656	4.06
661.982	4.1
662.309	4.22
662.636	4.27
662.963	4.16
663.29	4.31
663.616	3.75
663.943	4.06
664.27	4.66
664.596	4.61
664.923	4.3
665.249	4.23
665.576	4.11
665.902	4.41
666.228	4.3
666.554	4.24
666.881	4
667.207	4.63
667.533	4.4
667.859	3.67
668.185	4.58
668.511	4.7
668.837	4.75
669.162	4.38
669.488	4.38
669.814	4.26
670.139	3.72
670.465	3.69
670.791	3.6
671.116	3.9
671.442	4.28
671.767	4.16
672.092	4.1
672.418	4.02
672.743	3.85
673.068	4.11
673.393	4.17
673.718	4.44
674.043	4.31
674.368	4.2
674.693	3.77
675.018	4.29
675.343	3.68
675.667	4.49
675.992	4.53
676.317	4.06
676.641	4.19
676.966	4.26
677.29	4.62
677.615	3.8
677.939	4.3
678.264	4.26
678.588	4.58
678.912	3.81
679.236	4.11
679.56	4.13
679.885	5.05
680.209	4.92
680.532	3.99
680.856	4.23
681.18	4.07
681.504	4.02
681.828	5.01
682.152	4.05
682.475	4.29
682.799	4.42
683.122	4.09
683.446	4.21
683.769	4.39
684.093	4.6
684.416	4.58
684.739	4.33
685.062	4.41
685.386	4.84
685.709	4.31
686.032	4.61
686.355	4.09
686.678	4.02
687.001	4.49
687.324	4.23
687.646	4.44
687.969	4.73
688.292	4.55
688.614	4.46
688.937	4.08
689.26	4.67
689.582	3.6
689.904	4.32
690.227	4.35
690.549	4.67
690.871	4.13
691.194	5.22
691.516	3.6
691.838	4.93
692.16	4.77
