Data from 1710-3_chest_Reflection__4__140.txt Node

Date: Fri Sep 30 19:12:52 CDT 2022
User: ToomeyLab
Spectrometer: FLMS14357
Trigger mode: 0
Integration Time (sec): 1.000000E-2
Scans to average: 100
Electric dark correction enabled: true
Nonlinearity correction enabled: false
Boxcar width: 0
XAxis mode: Wavelengths
Number of Pixels in Spectrum: 2048
>>>>>Begin Spectral Data<<<<<
189.047	-629.25
189.435	-629.25
189.823	-629.25
190.211	7.79
190.599	-1562.05
190.987	651.25
191.375	-0.92
191.763	66.45
192.151	-160.21
192.538	12.7
192.926	77.93
193.314	85.56
193.702	8631.25
194.089	280.84
194.477	53.8
194.864	45.31
195.252	342.16
195.639	277.47
196.027	-43.91
196.414	30131.25
196.801	425.37
197.189	10.79
197.576	57.84
197.963	57.87
198.351	-1.59
198.738	-13.75
199.125	46.76
199.512	39.84
199.899	-21.6
200.286	6.86
200.673	-24.12
201.06	-26.13
201.447	-8.28
201.833	41.04
202.22	-145.64
202.607	2.7
202.994	21.84
203.38	23.03
203.767	-25.91
204.154	46.53
204.54	15.04
204.927	-28.88
205.313	18.55
205.699	34.03
206.086	24.46
206.472	24.24
206.858	30.26
207.245	-31.33
207.631	24.64
208.017	49.55
208.403	4.24
208.789	38.12
209.175	17.08
209.561	-4.19
209.947	19.61
210.333	56.93
210.719	-30.75
211.105	-16.75
211.491	4.74
211.876	-12.93
212.262	16.01
212.648	-5.85
213.034	11.76
213.419	14.12
213.805	15.61
214.19	-5.98
214.576	-13.22
214.961	34.11
215.346	28.89
215.732	-7.34
216.117	9.43
216.502	19.39
216.888	6.5
217.273	26.01
217.658	36.12
218.043	11.59
218.428	19.31
218.813	-1.36
219.198	29.66
219.583	15.82
219.968	7.14
220.353	16.76
220.738	11.38
221.122	-1.12
221.507	10.82
221.892	-6.69
222.276	-8.3
222.661	-6.15
223.046	8.69
223.43	11.32
223.815	6.33
224.199	3.48
224.583	15.45
224.968	0.09
225.352	2.28
225.736	10.77
226.121	10.62
226.505	8.89
226.889	4.83
227.273	3.93
227.657	-3.34
228.041	0.52
228.425	2.8
228.809	3.39
229.193	2.38
229.577	2.29
229.961	2.51
230.344	2.21
230.728	3
231.112	3.01
231.495	2.41
231.879	3.42
232.263	3.25
232.646	2.97
233.03	2.21
233.413	1.28
233.797	1.44
234.18	0.88
234.563	3.2
234.946	0.91
235.33	2.16
235.713	0.93
236.096	2.96
236.479	2.33
236.862	3.52
237.245	2.28
237.628	1.79
238.011	1.6
238.394	-0.27
238.777	0.92
239.16	2.3
239.543	2.37
239.925	0.36
240.308	0.15
240.691	0.88
241.073	1.77
241.456	2.38
241.838	2.29
242.221	2.87
242.603	2.03
242.986	2.35
243.368	2.15
243.75	2.27
244.133	2.16
244.515	1.83
244.897	1.52
245.279	2.14
245.661	2.83
246.043	2.56
246.425	2.8
246.807	2.55
247.189	1.97
247.571	2.96
247.953	2.09
248.335	2.47
248.717	2.29
249.098	2.33
249.48	2.17
249.862	1.8
250.243	2.21
250.625	1.48
251.006	2.27
251.388	2.48
251.769	2.02
252.151	1.61
252.532	0.77
252.913	1.69
253.295	2.14
253.676	2.27
254.057	2.28
254.438	1.54
254.819	2.31
255.2	1.71
255.581	2.23
255.962	3.08
256.343	1.33
256.724	2.44
257.105	1.62
257.486	2.04
257.867	2.29
258.247	2.62
258.628	2.02
259.009	2.62
259.389	2.79
259.77	2.01
260.15	2.06
260.531	2.27
260.911	2.09
261.292	2.43
261.672	2.06
262.052	2.32
262.432	2.46
262.813	2.47
263.193	1.89
263.573	2.22
263.953	2.01
264.333	2.65
264.713	2.13
265.093	2.9
265.473	2.4
265.853	2.41
266.233	2.06
266.612	2.34
266.992	2.2
267.372	2.48
267.752	1.65
268.131	2.64
268.511	2.27
268.89	2.05
269.27	2.7
269.649	2.6
270.029	2.56
270.408	2.83
270.787	2.36
271.167	2.37
271.546	2.38
271.925	2.32
272.304	2.46
272.683	1.97
273.062	2.14
273.441	2
273.82	1.93
274.199	2.32
274.578	2.26
274.957	2.12
275.336	1.97
275.715	1.82
276.093	1.84
276.472	1.4
276.851	2.52
277.229	2.88
277.608	2.28
277.986	2.05
278.365	2.27
278.743	2.41
279.122	1.33
279.5	2.52
279.878	1.41
280.257	2.32
280.635	1.93
281.013	2.27
281.391	2.04
281.769	1.9
282.147	1.83
282.525	2.33
282.903	1.65
283.281	2.25
283.659	2.19
284.037	2.13
284.415	1.84
284.792	2.09
285.17	2.21
285.548	2.35
285.925	1.96
286.303	1.98
286.68	2.41
287.058	2
287.435	1.8
287.813	1.94
288.19	1.95
288.567	2.02
288.945	1.45
289.322	2.25
289.699	2
290.076	2.24
290.453	2.37
290.83	1.95
291.207	2.47
291.584	2.1
291.961	2.35
292.338	1.99
292.715	2.37
293.092	2.38
293.469	2.24
293.845	2.64
294.222	2.26
294.599	2.05
294.975	2.29
295.352	2.6
295.728	2.03
296.105	2.62
296.481	2.19
296.858	1.98
297.234	1.89
297.61	2.27
297.986	2.27
298.363	2.4
298.739	2.31
299.115	2.32
299.491	2.28
299.867	2.41
300.243	2.37
300.619	2.06
300.995	2.56
301.371	2.77
301.746	2.48
302.122	2.23
302.498	2.06
302.874	2.13
303.249	2.5
303.625	2.44
304	1.96
304.376	2.26
304.751	2.6
305.127	2.31
305.502	2.17
305.878	2.38
306.253	2.81
306.628	2.23
307.003	2.43
307.378	2.74
307.754	2.23
308.129	2.48
308.504	2.62
308.879	2.54
309.254	1.74
309.629	2.24
310.003	2.15
310.378	2.39
310.753	2.17
311.128	2.39
311.502	2.84
311.877	2.26
312.252	2.43
312.626	2.36
313.001	2.48
313.375	2.19
313.75	2.58
314.124	2.13
314.498	2.43
314.873	2.35
315.247	1.84
315.621	2.23
315.995	2.56
316.369	2.7
316.743	2.58
317.117	2.28
317.491	2.34
317.865	2.76
318.239	2.12
318.613	2.75
318.987	2.18
319.361	2.1
319.734	2.28
320.108	2.57
320.482	2.19
320.855	2.87
321.229	2.49
321.602	2.68
321.976	2.98
322.349	2.82
322.723	2.38
323.096	2.22
323.469	3.06
323.843	2.88
324.216	2.59
324.589	2.99
324.962	2.81
325.335	2.66
325.708	2.77
326.081	2.85
326.454	2.56
326.827	2.6
327.2	2.74
327.573	2.83
327.945	2.75
328.318	2.86
328.691	2.94
329.063	2.26
329.436	2.64
329.809	2.64
330.181	2.21
330.553	3.35
330.926	2.57
331.298	2.19
331.671	2.42
332.043	2.65
332.415	2.76
332.787	2.8
333.159	2.74
333.532	2.63
333.904	2.99
334.276	2.8
334.648	2.42
335.02	2.66
335.391	2.79
335.763	2.27
336.135	2.26
336.507	2.95
336.879	2.71
337.25	2.81
337.622	2.82
337.993	2.18
338.365	2.67
338.736	2.49
339.108	2.77
339.479	2.99
339.851	2.74
340.222	2.53
340.593	2.61
340.964	3.07
341.336	2.45
341.707	2.31
342.078	2.55
342.449	2.4
342.82	2.83
343.191	2.18
343.562	2.75
343.933	2.86
344.303	2.63
344.674	2.97
345.045	2.53
345.416	2.52
345.786	2.76
346.157	2.31
346.527	2.67
346.898	2.87
347.268	2.5
347.639	2.58
348.009	2.33
348.38	2.01
348.75	2.66
349.12	2.52
349.49	2.65
349.861	2.71
350.231	2.9
350.601	2.3
350.971	2.34
351.341	2.55
351.711	2.45
352.081	2.58
352.45	2.47
352.82	2.46
353.19	2.42
353.56	2.52
353.929	2.37
354.299	2.58
354.669	2.75
355.038	2.92
355.408	2.17
355.777	2.68
356.147	2.19
356.516	2.41
356.885	2.39
357.254	2.83
357.624	2.75
357.993	2.8
358.362	2.24
358.731	2.24
359.1	2.34
359.469	2.58
359.838	2.71
360.207	2.75
360.576	2.73
360.945	2.43
361.314	2.33
361.682	2.61
362.051	2.53
362.42	2.14
362.788	2.76
363.157	2.68
363.525	2.82
363.894	2.71
364.262	2.43
364.631	2.92
364.999	2.78
365.367	2.64
365.735	2.62
366.104	2.39
366.472	2.57
366.84	2.71
367.208	2.53
367.576	2.56
367.944	2.71
368.312	2.52
368.68	2.76
369.048	2.65
369.416	2.43
369.783	2.68
370.151	2.56
370.519	2.8
370.886	2.84
371.254	2.64
371.621	3.32
371.989	2.83
372.356	2.84
372.724	2.79
373.091	2.82
373.458	2.25
373.826	2.72
374.193	2.91
374.56	2.79
374.927	2.93
375.294	2.64
375.661	2.42
376.028	2.98
376.395	2.88
376.762	2.57
377.129	2.63
377.496	2.59
377.863	3.03
378.229	2.73
378.596	2.47
378.963	2.6
379.329	2.52
379.696	2.92
380.062	2.7
380.429	2.38
380.795	2.33
381.161	2.62
381.528	2.66
381.894	2.82
382.26	3.07
382.626	2.6
382.993	2.92
383.359	2.61
383.725	2.95
384.091	2.58
384.457	2.99
384.823	2.9
385.188	2.73
385.554	3.01
385.92	2.84
386.286	2.97
386.651	2.66
387.017	2.6
387.383	2.94
387.748	2.91
388.114	2.94
388.479	2.77
388.845	2.72
389.21	2.62
389.575	2.88
389.94	2.62
390.306	2.78
390.671	2.68
391.036	2.4
391.401	2.64
391.766	2.71
392.131	2.69
392.496	2.47
392.861	2.91
393.226	2.65
393.591	2.63
393.956	2.78
394.32	2.69
394.685	2.71
395.05	2.66
395.414	2.88
395.779	2.74
396.143	2.8
396.508	2.57
396.872	2.89
397.236	2.89
397.601	3.08
397.965	2.86
398.329	2.82
398.694	2.83
399.058	2.95
399.422	2.93
399.786	2.85
400.15	2.97
400.514	2.89
400.878	2.92
401.242	2.85
401.605	3.12
401.969	2.73
402.333	2.92
402.697	3.05
403.06	2.86
403.424	2.82
403.787	2.95
404.151	2.9
404.514	2.85
404.878	2.83
405.241	2.92
405.604	2.89
405.968	2.86
406.331	2.91
406.694	2.9
407.057	2.92
407.42	2.95
407.783	3.05
408.146	2.84
408.509	3.06
408.872	2.98
409.235	2.94
409.598	3.02
409.961	2.83
410.323	2.65
410.686	2.83
411.049	2.59
411.411	2.99
411.774	2.85
412.136	3.16
412.499	2.97
412.861	2.98
413.223	2.96
413.586	2.83
413.948	3.03
414.31	3.25
414.672	3.27
415.035	2.71
415.397	2.89
415.759	3.26
416.121	2.98
416.483	2.97
416.845	3.08
417.206	3
417.568	3.26
417.93	2.87
418.292	3.03
418.653	2.94
419.015	2.92
419.377	2.83
419.738	2.89
420.1	2.93
420.461	2.88
420.822	2.79
421.184	2.87
421.545	2.91
421.906	2.95
422.267	2.99
422.629	2.92
422.99	2.87
423.351	2.93
423.712	2.84
424.073	2.99
424.434	2.83
424.795	2.98
425.155	2.89
425.516	2.87
425.877	2.95
426.238	2.9
426.598	2.81
426.959	2.92
427.32	2.93
427.68	2.96
428.041	2.86
428.401	3.05
428.761	2.95
429.122	3.09
429.482	3.05
429.842	3.08
430.202	3.08
430.563	3.04
430.923	3.05
431.283	3.13
431.643	3.25
432.003	3.04
432.363	3.05
432.722	2.67
433.082	3.03
433.442	3.21
433.802	2.91
434.161	3.11
434.521	2.96
434.881	2.96
435.24	2.85
435.6	2.99
435.959	3.03
436.319	2.92
436.678	2.99
437.037	3.06
437.396	3.07
437.756	2.98
438.115	3.01
438.474	3.19
438.833	3.21
439.192	3.05
439.551	3.33
439.91	3.05
440.269	3.14
440.628	2.94
440.987	3.13
441.345	3.06
441.704	3.01
442.063	3.09
442.421	3.13
442.78	3.05
443.138	2.97
443.497	3.13
443.855	3.2
444.214	3.09
444.572	3.19
444.93	3.11
445.288	3.27
445.647	3.13
446.005	3.28
446.363	3.17
446.721	3.17
447.079	3.12
447.437	3.14
447.795	3.08
448.153	3.13
448.51	3.09
448.868	3.11
449.226	3.07
449.584	3.05
449.941	3.14
450.299	3.23
450.656	3.13
451.014	3.12
451.371	3.24
451.729	3.11
452.086	3.17
452.443	3.38
452.801	3.2
453.158	3.2
453.515	3.03
453.872	3.28
454.229	3.16
454.586	3.05
454.943	3.15
455.3	3.32
455.657	3.24
456.014	3.33
456.371	3.37
456.727	3.03
457.084	3.34
457.441	3.26
457.797	3.15
458.154	3.4
458.51	3.39
458.867	3.3
459.223	3.4
459.58	3.22
459.936	3.38
460.292	3.38
460.648	3.26
461.005	3.16
461.361	3.15
461.717	3.07
462.073	3.16
462.429	3.31
462.785	3.27
463.141	3.28
463.496	3.32
463.852	3.34
464.208	3.46
464.564	3.37
464.919	3.29
465.275	3.48
465.631	3.38
465.986	3.33
466.342	3.11
466.697	3.38
467.052	3.27
467.408	3.21
467.763	3.44
468.118	3.42
468.473	3.47
468.829	3.22
469.184	3.4
469.539	3.38
469.894	3.48
470.249	3.49
470.603	3.39
470.958	3.42
471.313	3.3
471.668	3.3
472.023	3.34
472.377	3.3
472.732	3.49
473.086	3.35
473.441	3.49
473.795	3.43
474.15	3.54
474.504	3.35
474.859	3.47
475.213	3.5
475.567	3.36
475.921	3.38
476.275	3.34
476.63	3.52
476.984	3.48
477.338	3.46
477.692	3.42
478.045	3.48
478.399	3.46
478.753	3.45
479.107	3.59
479.461	3.5
479.814	3.58
480.168	3.54
480.521	3.54
480.875	3.5
481.228	3.57
481.582	3.67
481.935	3.32
482.289	3.32
482.642	3.57
482.995	3.36
483.348	3.45
483.701	3.48
484.055	3.48
484.408	3.42
484.761	3.36
485.114	3.33
485.466	3.28
485.819	3.27
486.172	3.28
486.525	3.36
486.878	3.38
487.23	3.42
487.583	3.45
487.936	3.43
488.288	3.45
488.641	3.4
488.993	3.37
489.345	3.39
489.698	3.37
490.05	3.42
490.402	3.39
490.754	3.41
491.107	3.55
491.459	3.52
491.811	3.63
492.163	3.56
492.515	3.59
492.866	3.52
493.218	3.53
493.57	3.47
493.922	3.45
494.274	3.46
494.625	3.6
494.977	3.56
495.328	3.67
495.68	3.66
496.031	3.66
496.383	3.61
496.734	3.71
497.086	3.82
497.437	3.61
497.788	3.69
498.139	3.75
498.49	3.65
498.842	3.78
499.193	3.63
499.544	3.52
499.894	3.77
500.245	3.82
500.596	3.72
500.947	3.81
501.298	3.88
501.648	3.67
501.999	3.76
502.35	3.81
502.7	3.97
503.051	4.02
503.401	4
503.752	3.76
504.102	3.83
504.452	3.82
504.803	3.81
505.153	3.8
505.503	3.87
505.853	3.84
506.203	3.89
506.553	3.84
506.903	3.93
507.253	3.88
507.603	3.9
507.953	3.97
508.303	3.99
508.652	3.91
509.002	3.9
509.352	3.94
509.701	3.9
510.051	3.91
510.4	3.94
510.75	3.92
511.099	3.97
511.449	3.88
511.798	3.87
512.147	4.01
512.496	3.99
512.846	3.99
513.195	3.98
513.544	4.12
513.893	4.1
514.242	4
514.591	4.04
514.939	3.98
515.288	4.11
515.637	3.97
515.986	3.92
516.334	4.09
516.683	4.14
517.032	4.16
517.38	4.23
517.729	4.09
518.077	4.2
518.426	4.23
518.774	4.09
519.122	4.11
519.47	4.09
519.819	4.13
520.167	4.11
520.515	4.02
520.863	4.07
521.211	4.2
521.559	4.19
521.907	4.03
522.255	4.19
522.602	4.34
522.95	4.21
523.298	4.17
523.645	4.27
523.993	4.23
524.341	4.37
524.688	4.25
525.036	4.19
525.383	4.39
525.73	4.26
526.078	4.26
526.425	4.34
526.772	4.28
527.119	4.22
527.466	4.28
527.814	4.29
528.161	4.28
528.508	4.44
528.854	4.33
529.201	4.33
529.548	4.27
529.895	4.26
530.242	4.23
530.588	4.17
530.935	4.21
531.282	4.23
531.628	4.36
531.975	4.33
532.321	4.39
532.667	4.44
533.014	4.47
533.36	4.48
533.706	4.47
534.052	4.55
534.399	4.42
534.745	4.41
535.091	4.42
535.437	4.48
535.783	4.54
536.129	4.5
536.474	4.58
536.82	4.54
537.166	4.55
537.512	4.61
537.857	4.67
538.203	4.63
538.549	4.58
538.894	4.63
539.239	4.69
539.585	4.68
539.93	4.77
540.276	4.81
540.621	4.73
540.966	4.85
541.311	4.73
541.656	4.72
542.001	4.82
542.346	4.83
542.691	4.67
543.036	4.66
543.381	4.71
543.726	4.72
544.071	4.67
544.415	4.86
544.76	4.77
545.105	4.9
545.449	4.91
545.794	4.87
546.138	4.87
546.483	4.97
546.827	5.04
547.171	4.98
547.516	5.05
547.86	4.97
548.204	5.01
548.548	4.92
548.892	5.08
549.236	4.96
549.58	5.13
549.924	5.14
550.268	5.15
550.612	5.15
550.956	5.24
551.3	5.39
551.643	5.17
551.987	5.33
552.33	5.55
552.674	5.31
553.017	5.43
553.361	5.42
553.704	5.38
554.048	5.42
554.391	5.43
554.734	5.35
555.077	5.24
555.42	5.38
555.764	5.5
556.107	5.33
556.45	5.65
556.793	5.7
557.135	5.61
557.478	5.56
557.821	5.5
558.164	5.76
558.507	5.71
558.849	5.68
559.192	5.78
559.534	5.84
559.877	5.95
560.219	5.76
560.562	5.9
560.904	5.89
561.246	5.73
561.589	5.81
561.931	5.75
562.273	5.81
562.615	5.82
562.957	5.76
563.299	5.97
563.641	5.86
563.983	6.01
564.325	5.77
564.667	5.87
565.008	6.09
565.35	5.93
565.692	6.03
566.033	5.99
566.375	6.04
566.716	5.99
567.058	6.12
567.399	5.97
567.741	6
568.082	6.08
568.423	6.12
568.764	6.08
569.105	6.23
569.447	6
569.788	6.23
570.129	6.18
570.47	6.21
570.811	6.06
571.151	6.23
571.492	6.38
571.833	6.31
572.174	6.24
572.514	6.34
572.855	6.49
573.195	6.37
573.536	6.44
573.876	6.33
574.217	6.45
574.557	6.32
574.898	6.43
575.238	6.5
575.578	6.26
575.918	6.55
576.258	6.41
576.598	6.54
576.938	6.55
577.278	6.53
577.618	6.66
577.958	6.66
578.298	6.77
578.638	6.84
578.977	6.78
579.317	6.65
579.657	6.82
579.996	6.81
580.336	6.6
580.675	6.84
581.014	6.83
581.354	6.96
581.693	7.05
582.032	6.99
582.372	6.92
582.711	6.84
583.05	7.38
583.389	7.01
583.728	7.23
584.067	7.11
584.406	7.27
584.745	7.04
585.083	7.06
585.422	7.19
585.761	7.11
586.1	7.43
586.438	7.07
586.777	7.21
587.115	7.28
587.454	7.37
587.792	7.63
588.13	7.53
588.469	7.28
588.807	7.58
589.145	7.73
589.483	7.42
589.821	7.51
590.159	7.48
590.497	7.66
590.835	7.75
591.173	7.65
591.511	7.56
591.849	7.6
592.187	7.84
592.524	7.68
592.862	7.53
593.2	7.57
593.537	7.56
593.875	7.7
594.212	7.87
594.55	7.75
594.887	7.84
595.224	8.03
595.561	8.02
595.899	7.99
596.236	7.95
596.573	8.25
596.91	7.99
597.247	7.82
597.584	8.17
597.921	8.06
598.258	8.2
598.594	7.95
598.931	8.12
599.268	8.15
599.604	8.16
599.941	8.18
600.277	8.23
600.614	8.41
600.95	8.13
601.287	8.22
601.623	8.4
601.959	8.41
602.296	8.62
602.632	8.23
602.968	8.31
603.304	8.42
603.64	8.34
603.976	8.54
604.312	8.6
604.648	8.8
604.984	8.58
605.319	8.46
605.655	8.52
605.991	8.69
606.326	8.76
606.662	8.69
606.998	8.75
607.333	8.65
607.668	8.58
608.004	8.87
608.339	8.91
608.674	8.87
609.01	8.86
609.345	8.97
609.68	8.83
610.015	9.01
610.35	9.17
610.685	9.16
611.02	9.05
611.355	8.96
611.689	9.06
612.024	8.94
612.359	8.96
612.694	9.27
613.028	9.22
613.363	9.12
613.697	9.33
614.032	9.22
614.366	9.43
614.7	9.3
615.035	9.71
615.369	9.6
615.703	9.41
616.037	9.37
616.371	9.72
616.705	9.69
617.039	9.51
617.373	9.29
617.707	9.61
618.041	9.61
618.375	10
618.709	9.73
619.042	9.82
619.376	9.88
619.71	9.48
620.043	9.87
620.377	9.86
620.71	9.89
621.043	9.66
621.377	9.94
621.71	9.79
622.043	9.74
622.376	10.19
622.709	10.22
623.043	9.85
623.376	9.86
623.709	10.42
624.041	10
624.374	10.52
624.707	10.25
625.04	10.55
625.373	10.38
625.705	9.93
626.038	10.67
626.37	10.18
626.703	9.97
627.035	10.16
627.368	10.42
627.7	10.47
628.032	10.13
628.365	10.31
628.697	10.44
629.029	10.25
629.361	10.36
629.693	10.55
630.025	10.54
630.357	10.53
630.689	10.49
631.021	10.74
631.353	10.76
631.684	10.3
632.016	10.63
632.348	10.71
632.679	10.91
633.011	11.25
633.342	11.16
633.674	10.56
634.005	11.11
634.336	11.28
634.668	11.15
634.999	11.03
635.33	11.54
635.661	11.39
635.992	11.2
636.323	11.1
636.654	11.04
636.985	11.38
637.316	10.94
637.647	11.47
637.977	11.3
638.308	11.31
638.639	11.33
638.969	11.45
639.3	11.66
639.63	11.73
639.961	11.56
640.291	11.84
640.622	11.5
640.952	11.82
641.282	11.72
641.612	11.59
641.943	11.86
642.273	11.9
642.603	11.84
642.933	12.16
643.263	11.49
643.592	12.09
643.922	11.89
644.252	11.64
644.582	12.05
644.911	11.85
645.241	12.17
645.571	11.9
645.9	11.9
646.23	12.39
646.559	11.88
646.888	12.18
647.218	12.34
647.547	12.2
647.876	12.29
648.205	11.92
648.534	11.74
648.863	11.88
649.192	12.63
649.521	12.22
649.85	12.59
650.179	12.15
650.508	12.58
650.837	11.92
651.165	12.24
651.494	12.33
651.822	12.68
652.151	12.4
652.479	12.53
652.808	12.73
653.136	12.95
653.465	12.26
653.793	12.58
654.121	12.61
654.449	12.88
654.777	12.64
655.105	13.03
655.433	13.31
655.761	13.69
656.089	13.3
656.417	12.79
656.745	13.01
657.073	12.64
657.4	13.69
657.728	12.91
658.056	13.09
658.383	13.43
658.711	12.88
659.038	13.61
659.365	12.92
659.693	13.4
660.02	13.84
660.347	13.11
660.674	13.55
661.001	13.58
661.329	13.5
661.656	13.36
661.982	13.23
662.309	13.55
662.636	13.54
662.963	13.66
663.29	14.06
663.616	13.65
663.943	13.87
664.27	13.17
664.596	13.82
664.923	14.1
665.249	13.76
665.576	13.36
665.902	13.6
666.228	13.55
666.554	14.04
666.881	13.77
667.207	13.86
667.533	14.1
667.859	13.92
668.185	14.24
668.511	14.55
668.837	14.4
669.162	14.19
669.488	13.68
669.814	14.4
670.139	14.1
670.465	14.03
670.791	13.8
671.116	14.23
671.442	14.01
671.767	14.09
672.092	14.16
672.418	14.33
672.743	14.45
673.068	13.87
673.393	14.29
673.718	14.55
674.043	14.54
674.368	14.51
674.693	14.15
675.018	14.55
675.343	14.6
675.667	14
675.992	14.9
676.317	14.83
676.641	14.54
676.966	14.7
677.29	15.73
677.615	15.25
677.939	14.7
678.264	15.18
678.588	14.46
678.912	15.15
679.236	14.97
679.56	14.86
679.885	15.63
680.209	15.68
680.532	14.89
680.856	15.12
681.18	14.88
681.504	15.22
681.828	15.45
682.152	15.25
682.475	15.21
682.799	15.52
683.122	15.05
683.446	14.85
683.769	15.36
684.093	15.97
684.416	15.12
684.739	16.2
685.062	15.31
685.386	15.63
685.709	15.08
686.032	16.1
686.355	15.32
686.678	15.32
687.001	16.06
687.324	15.58
687.646	15.83
