Data from 1710-3_chest_Reflection__0__136.txt Node

Date: Fri Sep 30 19:11:58 CDT 2022
User: ToomeyLab
Spectrometer: FLMS14357
Trigger mode: 0
Integration Time (sec): 1.000000E-2
Scans to average: 100
Electric dark correction enabled: true
Nonlinearity correction enabled: false
Boxcar width: 0
XAxis mode: Wavelengths
Number of Pixels in Spectrum: 2048
>>>>>Begin Spectral Data<<<<<
189.047	-34.75
189.435	-34.75
189.823	-34.75
190.211	18.82
190.599	-2145.09
190.987	1362.08
191.375	-619.67
191.763	10.47
192.151	67.68
192.538	-6.87
192.926	-64.89
193.314	25.86
193.702	-11531.25
194.089	34.9
194.477	33.32
194.864	45.44
195.252	61.62
195.639	266.39
196.027	-120.65
196.414	52868.75
196.801	630.62
197.189	143.83
197.576	135.55
197.963	-46.08
198.351	30.01
198.738	-8.92
199.125	15.64
199.512	25.61
199.899	-29.24
200.286	5.86
200.673	-10.9
201.06	35.22
201.447	-60.08
201.833	34.84
202.22	-16.08
202.607	33.57
202.994	11.54
203.38	54.97
203.767	-10.48
204.154	36.14
204.54	-11.21
204.927	-112.67
205.313	46.54
205.699	44.74
206.086	33.1
206.472	-6.87
206.858	16.98
207.245	-105.93
207.631	26.13
208.017	9.24
208.403	-13.52
208.789	41.9
209.175	29.64
209.561	15.48
209.947	38.63
210.333	14.06
210.719	20.65
211.105	2.21
211.491	14.93
211.876	6.52
212.262	-0.08
212.648	-6.74
213.034	13.96
213.419	13.75
213.805	5.98
214.19	-4.65
214.576	-8.31
214.961	36.1
215.346	46.27
215.732	-19.69
216.117	-2.58
216.502	19.59
216.888	19.08
217.273	20.35
217.658	14.02
218.043	3.56
218.428	15.19
218.813	-0.82
219.198	17.98
219.583	8.27
219.968	29.38
220.353	-21.06
220.738	16.88
221.122	-1.52
221.507	5.82
221.892	8.38
222.276	-1.55
222.661	1.85
223.046	-7.85
223.43	2.96
223.815	7.16
224.199	11.27
224.583	13.83
224.968	7.5
225.352	-1.31
225.736	0.88
226.121	8.19
226.505	2.21
226.889	3.43
227.273	2.39
227.657	-3.65
228.041	2.98
228.425	0.48
228.809	6.71
229.193	2.46
229.577	2.56
229.961	0.8
230.344	2.04
230.728	2.06
231.112	1.98
231.495	1.72
231.879	3.79
232.263	2.83
232.646	2.51
233.03	1.87
233.413	1.32
233.797	-1.04
234.18	0.13
234.563	3.2
234.946	4.1
235.33	-0.32
235.713	-0.29
236.096	1.04
236.479	1.67
236.862	2.73
237.245	1.66
237.628	1.68
238.011	2.1
238.394	-0.2
238.777	0.45
239.16	1.78
239.543	3.55
239.925	1.25
240.308	1.39
240.691	1.04
241.073	2.28
241.456	2.08
241.838	1.22
242.221	2.44
242.603	2.09
242.986	1.72
243.368	1.76
243.75	1.22
244.133	1.45
244.515	1.68
244.897	0.82
245.279	1.47
245.661	2.1
246.043	1.2
246.425	1.53
246.807	1.93
247.189	1.54
247.571	2
247.953	1.39
248.335	1.75
248.717	1.38
249.098	1.64
249.48	1.42
249.862	1.12
250.243	1.66
250.625	1.44
251.006	2.26
251.388	1.67
251.769	1.48
252.151	0.42
252.532	0.73
252.913	0.35
253.295	1.27
253.676	1.65
254.057	1.53
254.438	1.62
254.819	1.66
255.2	1.97
255.581	2.26
255.962	1.91
256.343	1.22
256.724	2.12
257.105	1.1
257.486	1.85
257.867	0.88
258.247	1.89
258.628	1.75
259.009	1.92
259.389	2.44
259.77	1.61
260.15	1.17
260.531	1.87
260.911	1.58
261.292	1.85
261.672	1.44
262.052	1.41
262.432	1.8
262.813	2.11
263.193	1.84
263.573	1.88
263.953	1.28
264.333	1.34
264.713	1.95
265.093	1.76
265.473	1.96
265.853	1.33
266.233	1.45
266.612	1.75
266.992	1.97
267.372	2.17
267.752	1.11
268.131	2.02
268.511	2
268.89	1.41
269.27	1.7
269.649	1.9
270.029	1.12
270.408	1.36
270.787	1.96
271.167	1.35
271.546	1.59
271.925	1.62
272.304	1.56
272.683	1.46
273.062	1.6
273.441	1.42
273.82	1.3
274.199	1.66
274.578	1.5
274.957	1.39
275.336	1.01
275.715	1.64
276.093	1.96
276.472	1.53
276.851	2.21
277.229	2.18
277.608	1.6
277.986	1.36
278.365	1.65
278.743	1.92
279.122	0.77
279.5	1.61
279.878	1.51
280.257	1.16
280.635	1.42
281.013	1.97
281.391	0.84
281.769	1.5
282.147	1.68
282.525	1.74
282.903	1.81
283.281	1.63
283.659	1.82
284.037	1.63
284.415	1.12
284.792	1.54
285.17	1.27
285.548	1.49
285.925	1.64
286.303	1.4
286.68	1.43
287.058	1.48
287.435	1.33
287.813	1.35
288.19	1.5
288.567	1.47
288.945	1.14
289.322	1.88
289.699	0.79
290.076	1.56
290.453	1.4
290.83	1.21
291.207	1.88
291.584	1.4
291.961	1.53
292.338	1.24
292.715	1.69
293.092	1.66
293.469	1.66
293.845	2.04
294.222	1.93
294.599	1.36
294.975	1.66
295.352	2.19
295.728	1.66
296.105	1.69
296.481	1.71
296.858	1.39
297.234	1.27
297.61	1.82
297.986	1.83
298.363	1.62
298.739	2.01
299.115	1.91
299.491	1.82
299.867	1.88
300.243	1.88
300.619	1.69
300.995	2.04
301.371	2.22
301.746	2.32
302.122	1.67
302.498	1.61
302.874	1.52
303.249	1.54
303.625	1.58
304	2.02
304.376	1.83
304.751	1.76
305.127	1.84
305.502	1.67
305.878	1.98
306.253	2.66
306.628	1.73
307.003	2.38
307.378	1.86
307.754	2.01
308.129	1.93
308.504	1.86
308.879	2.13
309.254	1.75
309.629	1.92
310.003	2.08
310.378	2.41
310.753	1.77
311.128	1.66
311.502	2.13
311.877	2.1
312.252	1.92
312.626	2.3
313.001	2.2
313.375	2.29
313.75	2.42
314.124	1.85
314.498	2.18
314.873	2.06
315.247	2.28
315.621	2.13
315.995	1.97
316.369	2.31
316.743	2.05
317.117	1.95
317.491	2.03
317.865	2.53
318.239	2.52
318.613	2.53
318.987	2.19
319.361	2.41
319.734	2.13
320.108	2.13
320.482	2.04
320.855	2.42
321.229	1.85
321.602	2.67
321.976	2.63
322.349	1.72
322.723	2.04
323.096	1.67
323.469	2.66
323.843	2.33
324.216	1.98
324.589	2.49
324.962	2.47
325.335	2.29
325.708	2.32
326.081	2.78
326.454	2.34
326.827	2.41
327.2	2.28
327.573	2.55
327.945	2.52
328.318	2.57
328.691	2.57
329.063	2.46
329.436	1.99
329.809	2.28
330.181	2.12
330.553	2.36
330.926	2.19
331.298	2.58
331.671	2.26
332.043	2.5
332.415	2.54
332.787	3.02
333.159	2.43
333.532	1.93
333.904	2.54
334.276	2.5
334.648	2.43
335.02	2.59
335.391	2.6
335.763	2.11
336.135	1.86
336.507	2.93
336.879	2.79
337.25	2.68
337.622	2.8
337.993	2.07
338.365	2.55
338.736	2.91
339.108	2.8
339.479	2.7
339.851	2.32
340.222	2.18
340.593	2.79
340.964	2.51
341.336	2.44
341.707	2.2
342.078	2.66
342.449	2.07
342.82	1.88
343.191	2.52
343.562	2.28
343.933	2.77
344.303	2.57
344.674	2.71
345.045	2.07
345.416	2.77
345.786	2.73
346.157	1.82
346.527	2.47
346.898	2.77
347.268	2.47
347.639	2.09
348.009	1.94
348.38	2.36
348.75	2.44
349.12	2.36
349.49	1.96
349.861	2.49
350.231	2.52
350.601	2.95
350.971	2.18
351.341	2.57
351.711	2.53
352.081	2.22
352.45	2.34
352.82	2.37
353.19	2.58
353.56	2.46
353.929	2.35
354.299	2.65
354.669	2.72
355.038	2.96
355.408	2.38
355.777	2.24
356.147	2.45
356.516	2.51
356.885	2.74
357.254	2.39
357.624	2.7
357.993	2.41
358.362	2.64
358.731	2.2
359.1	2.37
359.469	2.44
359.838	2.55
360.207	2.65
360.576	3.02
360.945	2.3
361.314	2.29
361.682	2.53
362.051	2.63
362.42	2.52
362.788	2.51
363.157	2.54
363.525	2.6
363.894	2.52
364.262	2.47
364.631	2.41
364.999	2.5
365.367	2.36
365.735	2.58
366.104	2.26
366.472	2.57
366.84	2.56
367.208	2.59
367.576	2.66
367.944	2.52
368.312	2.39
368.68	2.55
369.048	2.53
369.416	2.51
369.783	2.74
370.151	2.91
370.519	2.54
370.886	2.57
371.254	2.73
371.621	3.19
371.989	2.71
372.356	2.5
372.724	2.7
373.091	2.62
373.458	2.62
373.826	2.35
374.193	2.77
374.56	2.97
374.927	2.58
375.294	2.41
375.661	2.69
376.028	2.68
376.395	2.58
376.762	2.66
377.129	2.57
377.496	2.56
377.863	2.86
378.229	2.43
378.596	2.54
378.963	2.53
379.329	2.5
379.696	2.38
380.062	2.62
380.429	2.69
380.795	2.44
381.161	2.8
381.528	2.48
381.894	2.71
382.26	2.8
382.626	2.78
382.993	2.91
383.359	2.74
383.725	2.82
384.091	2.53
384.457	2.75
384.823	2.83
385.188	2.89
385.554	2.68
385.92	2.67
386.286	2.9
386.651	2.92
387.017	2.62
387.383	2.98
387.748	2.88
388.114	2.82
388.479	2.77
388.845	2.79
389.21	2.25
389.575	2.79
389.94	2.67
390.306	2.69
390.671	2.74
391.036	2.53
391.401	2.74
391.766	2.71
392.131	2.74
392.496	2.52
392.861	2.77
393.226	2.83
393.591	2.71
393.956	2.77
394.32	2.64
394.685	2.7
395.05	2.49
395.414	2.53
395.779	2.72
396.143	2.57
396.508	2.79
396.872	2.73
397.236	2.73
397.601	2.99
397.965	2.78
398.329	2.55
398.694	2.74
399.058	3.07
399.422	3.01
399.786	2.95
400.15	2.72
400.514	3.09
400.878	2.63
401.242	2.57
401.605	3
401.969	2.6
402.333	2.75
402.697	3.05
403.06	2.8
403.424	2.84
403.787	2.89
404.151	2.78
404.514	2.91
404.878	2.71
405.241	2.74
405.604	3.02
405.968	2.76
406.331	2.76
406.694	2.84
407.057	2.88
407.42	3.02
407.783	2.9
408.146	2.9
408.509	2.68
408.872	2.83
409.235	2.92
409.598	2.95
409.961	2.89
410.323	2.71
410.686	2.94
411.049	2.62
411.411	2.75
411.774	2.76
412.136	3
412.499	2.94
412.861	2.9
413.223	2.81
413.586	2.82
413.948	2.75
414.31	2.97
414.672	3.18
415.035	2.8
415.397	2.69
415.759	3.35
416.121	2.77
416.483	2.74
416.845	2.79
417.206	3.03
417.568	3.1
417.93	2.77
418.292	2.86
418.653	2.92
419.015	2.91
419.377	2.79
419.738	2.84
420.1	2.69
420.461	2.79
420.822	2.75
421.184	2.72
421.545	2.76
421.906	2.87
422.267	2.79
422.629	2.71
422.99	2.76
423.351	2.86
423.712	2.81
424.073	2.84
424.434	2.79
424.795	2.81
425.155	2.83
425.516	2.79
425.877	2.78
426.238	2.87
426.598	2.72
426.959	2.81
427.32	2.84
427.68	2.85
428.041	2.82
428.401	2.9
428.761	2.81
429.122	2.82
429.482	2.97
429.842	2.98
430.202	3.01
430.563	2.88
430.923	3.15
431.283	3.1
431.643	3.04
432.003	2.96
432.363	2.96
432.722	2.85
433.082	2.96
433.442	2.98
433.802	2.94
434.161	3.04
434.521	2.89
434.881	2.86
435.24	2.87
435.6	2.9
435.959	3.07
436.319	2.97
436.678	3.05
437.037	3.13
437.396	2.9
437.756	2.92
438.115	2.94
438.474	3.14
438.833	3.14
439.192	3.11
439.551	3.19
439.91	2.88
440.269	3.06
440.628	2.9
440.987	2.98
441.345	2.95
441.704	3
442.063	2.96
442.421	3.05
442.78	2.97
443.138	3.01
443.497	3.02
443.855	3.02
444.214	3.11
444.572	3.01
444.93	3
445.288	3.03
445.647	2.96
446.005	3.25
446.363	3.1
446.721	3.13
447.079	2.99
447.437	3
447.795	2.98
448.153	3.09
448.51	2.96
448.868	3.03
449.226	2.99
449.584	3.06
449.941	3.11
450.299	3.15
450.656	3.06
451.014	3.01
451.371	3.05
451.729	3.06
452.086	3.2
452.443	3.11
452.801	3.26
453.158	3.05
453.515	2.93
453.872	3.16
454.229	3.1
454.586	2.89
454.943	3.13
455.3	3.01
455.657	3.19
456.014	3.29
456.371	3.25
456.727	3.18
457.084	3.15
457.441	3.21
457.797	3.12
458.154	3.41
458.51	3.21
458.867	3.25
459.223	3.16
459.58	3.23
459.936	3.24
460.292	3.29
460.648	3.08
461.005	3.07
461.361	3.08
461.717	2.99
462.073	3.1
462.429	3.09
462.785	3.19
463.141	3.26
463.496	3.23
463.852	3.18
464.208	3.34
464.564	3.2
464.919	3.17
465.275	3.29
465.631	3.17
465.986	3.27
466.342	3.32
466.697	3.2
467.052	3.18
467.408	2.99
467.763	3.26
468.118	3.26
468.473	3.32
468.829	3.18
469.184	3.24
469.539	3.31
469.894	3.39
470.249	3.22
470.603	3.47
470.958	3.41
471.313	3.24
471.668	3.31
472.023	3.23
472.377	3.38
472.732	3.41
473.086	3.17
473.441	3.32
473.795	3.34
474.15	3.49
474.504	3.25
474.859	3.53
475.213	3.47
475.567	3.4
475.921	3.46
476.275	3.31
476.63	3.28
476.984	3.29
477.338	3.33
477.692	3.44
478.045	3.41
478.399	3.4
478.753	3.37
479.107	3.46
479.461	3.35
479.814	3.42
480.168	3.44
480.521	3.4
480.875	3.44
481.228	3.44
481.582	3.54
481.935	3.27
482.289	3.26
482.642	3.46
482.995	3.34
483.348	3.37
483.701	3.39
484.055	3.39
484.408	3.25
484.761	3.28
485.114	3.13
485.466	3.1
485.819	3.12
486.172	3.2
486.525	3.26
486.878	3.3
487.23	3.39
487.583	3.39
487.936	3.35
488.288	3.35
488.641	3.22
488.993	3.22
489.345	3.26
489.698	3.27
490.05	3.26
490.402	3.29
490.754	3.37
491.107	3.43
491.459	3.41
491.811	3.51
492.163	3.53
492.515	3.36
492.866	3.36
493.218	3.34
493.57	3.34
493.922	3.33
494.274	3.43
494.625	3.56
494.977	3.52
495.328	3.46
495.68	3.65
496.031	3.54
496.383	3.62
496.734	3.5
497.086	3.58
497.437	3.55
497.788	3.4
498.139	3.58
498.49	3.36
498.842	3.56
499.193	3.51
499.544	3.55
499.894	3.67
500.245	3.59
500.596	3.61
500.947	3.61
501.298	3.74
501.648	3.74
501.999	3.63
502.35	3.62
502.7	3.64
503.051	3.71
503.401	3.8
503.752	3.66
504.102	3.79
504.452	3.63
504.803	3.67
505.153	3.72
505.503	3.66
505.853	3.74
506.203	3.67
506.553	3.84
506.903	3.75
507.253	3.74
507.603	3.79
507.953	3.77
508.303	3.87
508.652	3.66
509.002	3.78
509.352	3.82
509.701	3.79
510.051	3.83
510.4	3.84
510.75	3.77
511.099	3.84
511.449	3.71
511.798	3.84
512.147	3.85
512.496	3.89
512.846	3.84
513.195	3.82
513.544	3.83
513.893	3.87
514.242	3.85
514.591	3.82
514.939	3.93
515.288	3.91
515.637	3.88
515.986	3.94
516.334	3.91
516.683	3.94
517.032	4.07
517.38	4.06
517.729	4.06
518.077	4.08
518.426	4.1
518.774	4.05
519.122	3.99
519.47	3.94
519.819	4.02
520.167	3.92
520.515	3.9
520.863	3.92
521.211	4
521.559	3.9
521.907	3.92
522.255	4.03
522.602	4.25
522.95	4.04
523.298	4.08
523.645	4.12
523.993	4.04
524.341	4.22
524.688	4.07
525.036	4.13
525.383	4.09
525.73	4.21
526.078	4.22
526.425	4.07
526.772	4.03
527.119	4.06
527.466	4.01
527.814	4.11
528.161	4.12
528.508	4.18
528.854	4.15
529.201	4.13
529.548	4.07
529.895	4.03
530.242	3.97
530.588	3.99
530.935	4.08
531.282	4.15
531.628	4.21
531.975	4.2
532.321	4.22
532.667	4.27
533.014	4.35
533.36	4.35
533.706	4.32
534.052	4.35
534.399	4.27
534.745	4.22
535.091	4.2
535.437	4.2
535.783	4.35
536.129	4.34
536.474	4.43
536.82	4.44
537.166	4.47
537.512	4.48
537.857	4.49
538.203	4.43
538.549	4.44
538.894	4.49
539.239	4.42
539.585	4.58
539.93	4.66
540.276	4.78
540.621	4.66
540.966	4.75
541.311	4.55
541.656	4.6
542.001	4.62
542.346	4.57
542.691	4.42
543.036	4.49
543.381	4.44
543.726	4.57
544.071	4.5
544.415	4.78
544.76	4.71
545.105	4.68
545.449	4.77
545.794	4.73
546.138	4.78
546.483	4.84
546.827	4.86
547.171	4.86
547.516	4.8
547.86	4.82
548.204	4.81
548.548	4.83
548.892	4.92
549.236	4.89
549.58	4.91
549.924	4.97
550.268	4.97
550.612	5.2
550.956	5.16
551.3	5.09
551.643	5.01
551.987	5.03
552.33	5.32
552.674	5.09
553.017	5.16
553.361	5.22
553.704	5.19
554.048	5.17
554.391	5.14
554.734	5.22
555.077	5.2
555.42	5.32
555.764	5.29
556.107	5.34
556.45	5.53
556.793	5.4
557.135	5.39
557.478	5.37
557.821	5.47
558.164	5.54
558.507	5.67
558.849	5.43
559.192	5.62
559.534	5.46
559.877	5.75
560.219	5.64
560.562	5.67
560.904	5.52
561.246	5.66
561.589	5.68
561.931	5.65
562.273	5.61
562.615	5.74
562.957	5.57
563.299	5.71
563.641	5.78
563.983	5.75
564.325	5.71
564.667	5.7
565.008	5.82
565.35	5.81
565.692	5.89
566.033	5.85
566.375	5.81
566.716	6.05
567.058	5.92
567.399	5.75
567.741	5.81
568.082	5.84
568.423	5.8
568.764	5.97
569.105	5.93
569.447	5.84
569.788	6.12
570.129	6.15
570.47	6.05
570.811	6.05
571.151	6.04
571.492	6.11
571.833	6.03
572.174	6.19
572.514	6.32
572.855	6.06
573.195	6.21
573.536	6.21
573.876	6.17
574.217	6.28
574.557	6.4
574.898	6.14
575.238	6.32
575.578	6.25
575.918	6.45
576.258	6.19
576.598	6.26
576.938	6.44
577.278	6.35
577.618	6.4
577.958	6.46
578.298	6.62
578.638	6.75
578.977	6.62
579.317	6.69
579.657	6.61
579.996	6.73
580.336	6.7
580.675	6.66
581.014	6.77
581.354	6.53
581.693	6.88
582.032	6.95
582.372	7
582.711	6.97
583.05	7.3
583.389	6.87
583.728	7.03
584.067	7.04
584.406	7.19
584.745	7.21
585.083	7.2
585.422	7.13
585.761	7.01
586.1	7.1
586.438	7.48
586.777	6.97
587.115	7.24
587.454	7.34
587.792	7.32
588.13	7.55
588.469	7.31
588.807	7.5
589.145	7.63
589.483	7.56
589.821	7.45
590.159	7.55
590.497	7.39
590.835	7.57
591.173	7.49
591.511	7.52
591.849	7.4
592.187	7.61
592.524	7.6
592.862	7.52
593.2	7.64
593.537	7.73
593.875	7.72
594.212	7.97
594.55	7.79
594.887	8.02
595.224	7.7
595.561	7.85
595.899	8.05
596.236	8.12
596.573	7.92
596.91	8.01
597.247	7.98
597.584	8.22
597.921	7.82
598.258	8.13
598.594	7.74
598.931	8.11
599.268	8.07
599.604	8.15
599.941	8.07
600.277	8.17
600.614	8.51
600.95	8.44
601.287	8.38
601.623	8.03
601.959	8.55
602.296	8.54
602.632	8.33
602.968	8.54
603.304	8.71
603.64	8.43
603.976	8.41
604.312	8.46
604.648	8.79
604.984	8.54
605.319	8.48
605.655	8.5
605.991	8.5
606.326	8.52
606.662	8.59
606.998	8.58
607.333	8.76
607.668	8.67
608.004	8.88
608.339	8.75
608.674	9.01
609.01	8.9
609.345	9
609.68	8.74
610.015	8.78
610.35	9.06
610.685	8.87
611.02	8.95
611.355	8.85
611.689	9.13
612.024	9.07
612.359	9.04
612.694	9.26
613.028	9.44
613.363	9.21
613.697	9.59
614.032	9.16
614.366	9.25
614.7	9.51
615.035	9.52
615.369	9.57
615.703	9.47
616.037	9.41
616.371	9.64
616.705	9.69
617.039	9.88
617.373	9.58
617.707	9.34
618.041	9.7
618.375	9.94
618.709	9.79
619.042	9.67
619.376	10.02
619.71	9.68
620.043	9.88
620.377	9.86
620.71	9.97
621.043	9.71
621.377	10.33
621.71	9.79
622.043	9.83
622.376	10.12
622.709	10.1
623.043	10.09
623.376	10.41
623.709	10.1
624.041	10.11
624.374	10.28
624.707	10.51
625.04	10.58
625.373	10.24
625.705	10.41
626.038	10.5
626.37	10.48
626.703	10.53
627.035	10.53
627.368	10.41
627.7	10.53
628.032	10.25
628.365	10.73
628.697	10.78
629.029	10.26
629.361	10.56
629.693	10.51
630.025	10.97
630.357	10.81
630.689	10.61
631.021	10.95
631.353	11.16
631.684	10.91
632.016	10.69
632.348	10.84
632.679	11.18
633.011	11.04
633.342	10.97
633.674	10.78
634.005	11.26
634.336	11.03
634.668	11.05
634.999	11.32
635.33	11.32
635.661	11.29
635.992	11.22
636.323	11.46
636.654	11.16
636.985	11.28
637.316	11.28
637.647	11.35
637.977	11.74
638.308	11.65
638.639	11.68
638.969	11.58
639.3	11.61
639.63	11.44
639.961	12.13
640.291	11.63
640.622	11.67
640.952	12.14
641.282	11.92
641.612	11.62
641.943	11.79
642.273	12.24
642.603	12.1
642.933	11.78
643.263	11.95
643.592	12.24
643.922	12.23
644.252	11.62
644.582	12.44
644.911	12.13
645.241	12.94
645.571	12.47
645.9	11.88
646.23	12.39
646.559	12.16
646.888	12.18
647.218	12.55
647.547	12.3
647.876	12.84
648.205	12.33
648.534	12.26
648.863	12.24
649.192	12.49
649.521	12.59
649.85	12.92
650.179	12.33
650.508	12.82
650.837	12.35
651.165	13.21
651.494	12.96
651.822	12.6
652.151	12.93
652.479	12.78
652.808	13.02
653.136	13.01
653.465	12.68
653.793	12.73
654.121	12.8
654.449	13.1
654.777	12.64
655.105	13.13
655.433	13.5
655.761	13.23
656.089	13.69
656.417	13.42
656.745	13.22
657.073	12.95
657.4	13.38
657.728	14.09
658.056	13.24
658.383	13.41
658.711	13.54
659.038	13.54
659.365	13.28
659.693	13.9
660.02	13.94
660.347	13.46
660.674	13.85
661.001	13.39
661.329	13.83
661.656	13.52
661.982	13.72
662.309	13.26
662.636	13.58
662.963	13.99
663.29	13.95
663.616	13.86
663.943	13.72
664.27	14.18
664.596	14.19
664.923	14.04
665.249	14.4
665.576	13.89
665.902	14.36
666.228	14.2
666.554	14.24
666.881	14.67
667.207	14.4
667.533	14.72
667.859	14.49
668.185	14.65
668.511	14.68
668.837	14.95
669.162	14.69
669.488	15.32
669.814	15.09
670.139	14.21
670.465	14.43
670.791	14.47
671.116	14.62
671.442	14.79
671.767	14.21
672.092	14.71
672.418	14.91
672.743	15.46
673.068	15.05
673.393	14.96
673.718	15.06
674.043	15.08
674.368	15.1
674.693	14.78
675.018	15.63
675.343	14.72
675.667	15.12
675.992	15.89
676.317	15.23
676.641	15.41
676.966	14.9
677.29	15.45
677.615	14.69
677.939	15.17
678.264	15.76
678.588	15.68
678.912	15.67
679.236	15.19
679.56	15.4
679.885	16.07
680.209	16.09
680.532	15.22
680.856	15.49
681.18	15.39
681.504	15.8
681.828	15.64
682.152	15.6
682.475	15.78
682.799	15.86
683.122	15.88
683.446	15.78
683.769	15.89
684.093	16.42
684.416	16.26
684.739	16.63
685.062	15.96
685.386	16.32
685.709	16
686.032	16.01
686.355	15.75
686.678	15.34
687.001	16.29
687.324	16.55
687.646	16.28
