Data from 1710-3_chest_Reflection__1__137.txt Node

Date: Fri Sep 30 19:12:11 CDT 2022
User: ToomeyLab
Spectrometer: FLMS14357
Trigger mode: 0
Integration Time (sec): 1.000000E-2
Scans to average: 100
Electric dark correction enabled: true
Nonlinearity correction enabled: false
Boxcar width: 0
XAxis mode: Wavelengths
Number of Pixels in Spectrum: 2048
>>>>>Begin Spectral Data<<<<<
189.047	-215.75
189.435	-215.75
189.823	-215.75
190.211	7.93
190.599	-1129.02
190.987	1407.08
191.375	-788.05
191.763	46.17
192.151	8.16
192.538	92.8
192.926	64.22
193.314	23.99
193.702	-22806.25
194.089	-61.17
194.477	155.87
194.864	70.28
195.252	130.25
195.639	209.59
196.027	51.82
196.414	30693.75
196.801	-175.87
197.189	53.39
197.576	-20.81
197.963	68.43
198.351	26.45
198.738	35.74
199.125	25.16
199.512	28.94
199.899	-57.8
200.286	24.91
200.673	24.54
201.06	8.5
201.447	-50.55
201.833	43.98
202.22	-62.58
202.607	12.73
202.994	9.69
203.38	31.99
203.767	-1.23
204.154	-0.83
204.54	29.92
204.927	-24.61
205.313	31.43
205.699	1.5
206.086	33.47
206.472	23.36
206.858	15.47
207.245	9.65
207.631	29.64
208.017	30.03
208.403	10.47
208.789	24.92
209.175	9.69
209.561	-11.92
209.947	6.88
210.333	39.33
210.719	14.46
211.105	5.61
211.491	10.15
211.876	-1.31
212.262	-13.3
212.648	14.54
213.034	23.93
213.419	15.28
213.805	25.24
214.19	17.16
214.576	-9.91
214.961	44.13
215.346	32.49
215.732	-18.37
216.117	18.07
216.502	22.9
216.888	16.2
217.273	25.91
217.658	9.37
218.043	27.24
218.428	22.69
218.813	-16.31
219.198	6.31
219.583	6.5
219.968	23.24
220.353	6.79
220.738	19.83
221.122	-11.94
221.507	13.83
221.892	19.55
222.276	-11.23
222.661	17.71
223.046	3
223.43	14.88
223.815	11.74
224.199	1.93
224.583	22.34
224.968	7.15
225.352	-4.11
225.736	10.59
226.121	3.63
226.505	5.45
226.889	-1.13
227.273	4.14
227.657	0.11
228.041	7.98
228.425	1.5
228.809	5.8
229.193	4.1
229.577	4.02
229.961	3.07
230.344	3.62
230.728	3.27
231.112	4.42
231.495	3.02
231.879	4.03
232.263	3.79
232.646	3.36
233.03	2.54
233.413	0.95
233.797	2.33
234.18	3.28
234.563	4
234.946	4.82
235.33	2.35
235.713	1.08
236.096	3.33
236.479	4.35
236.862	2.15
237.245	1.33
237.628	2.85
238.011	3.01
238.394	2.23
238.777	2.23
239.16	3.16
239.543	3.73
239.925	2.29
240.308	4.27
240.691	3.24
241.073	3.22
241.456	2.59
241.838	2.9
242.221	3.8
242.603	3.96
242.986	2.82
243.368	3.24
243.75	2.61
244.133	2.39
244.515	2.7
244.897	2.81
245.279	2.96
245.661	3.4
246.043	2.49
246.425	3.82
246.807	3.38
247.189	2.17
247.571	3.5
247.953	2.47
248.335	3.17
248.717	2.76
249.098	3.03
249.48	2.94
249.862	2.52
250.243	2.71
250.625	2.99
251.006	3.28
251.388	2.59
251.769	2.62
252.151	2.29
252.532	3.26
252.913	1.58
253.295	3.08
253.676	3.03
254.057	3.05
254.438	3.05
254.819	3.43
255.2	2.78
255.581	2.98
255.962	3.01
256.343	2.89
256.724	3.92
257.105	1.59
257.486	3.66
257.867	3.93
258.247	3.05
258.628	2.67
259.009	1.76
259.389	3.37
259.77	2.18
260.15	2.84
260.531	3.18
260.911	2.56
261.292	3.26
261.672	2.52
262.052	2.74
262.432	2.76
262.813	3.35
263.193	2.82
263.573	3.21
263.953	2.81
264.333	2.48
264.713	2.98
265.093	2.82
265.473	2.74
265.853	2.71
266.233	2.09
266.612	3.15
266.992	2.33
267.372	3.04
267.752	2.9
268.131	2.35
268.511	2.55
268.89	2.66
269.27	3.22
269.649	2.88
270.029	2.83
270.408	2.57
270.787	2.96
271.167	2.51
271.546	2.81
271.925	2.74
272.304	2.49
272.683	2.54
273.062	2.62
273.441	2.61
273.82	2.48
274.199	2.86
274.578	2.55
274.957	2.72
275.336	2.41
275.715	2.48
276.093	2.98
276.472	2.39
276.851	3.15
277.229	3.29
277.608	2.38
277.986	2.32
278.365	2.65
278.743	3.12
279.122	1.82
279.5	3.31
279.878	2.13
280.257	2.94
280.635	2.56
281.013	2.72
281.391	2.5
281.769	3.17
282.147	2.58
282.525	3.09
282.903	2.27
283.281	2.92
283.659	2.78
284.037	2.69
284.415	2.36
284.792	2.3
285.17	2.4
285.548	2.47
285.925	2.41
286.303	2.56
286.68	2.26
287.058	2.13
287.435	2.52
287.813	2.48
288.19	2.31
288.567	2.16
288.945	2.36
289.322	3.03
289.699	2.24
290.076	2.55
290.453	2.54
290.83	2.41
291.207	2.93
291.584	2.74
291.961	2.52
292.338	2.52
292.715	3.02
293.092	3.03
293.469	2.65
293.845	3.15
294.222	2.23
294.599	2.85
294.975	2.48
295.352	2.95
295.728	2.61
296.105	3.03
296.481	2.87
296.858	2.54
297.234	2.61
297.61	2.82
297.986	2.8
298.363	2.57
298.739	2.8
299.115	2.34
299.491	2.7
299.867	2.58
300.243	2.77
300.619	2.49
300.995	2.91
301.371	2.95
301.746	3.03
302.122	2.51
302.498	2.35
302.874	2.29
303.249	2.5
303.625	2.61
304	2.74
304.376	2.81
304.751	2.88
305.127	3.17
305.502	2.58
305.878	2.43
306.253	3.27
306.628	2.66
307.003	3.06
307.378	2.57
307.754	2.67
308.129	2.85
308.504	3.02
308.879	3.55
309.254	2.38
309.629	2.93
310.003	2.16
310.378	3.07
310.753	2.71
311.128	3.07
311.502	3.05
311.877	2.9
312.252	2.76
312.626	2.51
313.001	2.42
313.375	2.68
313.75	3.2
314.124	2.49
314.498	2.53
314.873	2.63
315.247	2.75
315.621	3.26
315.995	2.46
316.369	2.93
316.743	2.78
317.117	2.67
317.491	2.78
317.865	2.74
318.239	2.86
318.613	2.67
318.987	2.86
319.361	2.68
319.734	3.12
320.108	2.88
320.482	2.15
320.855	2.48
321.229	2.97
321.602	2.68
321.976	2.7
322.349	2.98
322.723	2.73
323.096	2.54
323.469	2.89
323.843	2.69
324.216	3.2
324.589	2.91
324.962	2.69
325.335	2.77
325.708	2.6
326.081	3.08
326.454	3.32
326.827	3.66
327.2	2.88
327.573	3.56
327.945	2.78
328.318	3.52
328.691	2.48
329.063	2.91
329.436	3.06
329.809	3.19
330.181	2.82
330.553	2.99
330.926	2.69
331.298	2.82
331.671	3.29
332.043	2.58
332.415	3.27
332.787	3.6
333.159	3.03
333.532	3.16
333.904	3.15
334.276	3.4
334.648	3
335.02	3.29
335.391	2.95
335.763	3.05
336.135	2.57
336.507	3.13
336.879	2.84
337.25	3
337.622	3.18
337.993	2.65
338.365	3.22
338.736	3.01
339.108	3.58
339.479	3.41
339.851	3.2
340.222	2.91
340.593	3.01
340.964	3.26
341.336	2.85
341.707	2.96
342.078	3.14
342.449	2.87
342.82	2.94
343.191	2.71
343.562	3.19
343.933	3.37
344.303	3.01
344.674	3.54
345.045	2.87
345.416	2.9
345.786	3.15
346.157	2.29
346.527	3.03
346.898	3.05
347.268	3.22
347.639	2.84
348.009	2.76
348.38	2.82
348.75	2.84
349.12	2.78
349.49	2.64
349.861	3.47
350.231	3.12
350.601	3.23
350.971	2.47
351.341	2.86
351.711	3.12
352.081	2.72
352.45	3.15
352.82	3.09
353.19	3.07
353.56	2.89
353.929	2.84
354.299	2.88
354.669	3.07
355.038	3.22
355.408	3.14
355.777	2.78
356.147	2.94
356.516	3.4
356.885	2.91
357.254	3.07
357.624	3.27
357.993	2.85
358.362	2.97
358.731	2.81
359.1	2.85
359.469	3.15
359.838	3.06
360.207	3.11
360.576	2.86
360.945	3.07
361.314	2.76
361.682	3.13
362.051	3.04
362.42	2.86
362.788	3.02
363.157	3.03
363.525	2.92
363.894	3
364.262	2.9
364.631	3.07
364.999	3.33
365.367	3.03
365.735	3.05
366.104	2.84
366.472	3.11
366.84	3.08
367.208	3.03
367.576	3.02
367.944	2.99
368.312	2.63
368.68	3.17
369.048	2.91
369.416	3.12
369.783	3.1
370.151	3.02
370.519	3.24
370.886	3.37
371.254	3.41
371.621	3.47
371.989	2.95
372.356	2.98
372.724	3.17
373.091	3.33
373.458	2.88
373.826	2.9
374.193	3.39
374.56	3.21
374.927	3.13
375.294	2.71
375.661	3.46
376.028	3.3
376.395	3.37
376.762	3.22
377.129	3.23
377.496	2.98
377.863	3.1
378.229	3.26
378.596	3.04
378.963	3.09
379.329	2.94
379.696	2.88
380.062	3.05
380.429	2.92
380.795	3.13
381.161	2.93
381.528	3.26
381.894	3.24
382.26	3.36
382.626	3.25
382.993	3.39
383.359	3.23
383.725	3.14
384.091	2.86
384.457	3.37
384.823	3.34
385.188	3.39
385.554	3.29
385.92	3.15
386.286	3.5
386.651	3.13
387.017	2.99
387.383	3.38
387.748	3.38
388.114	3.23
388.479	3.29
388.845	2.98
389.21	2.82
389.575	3.08
389.94	2.89
390.306	3.25
390.671	3.29
391.036	3.29
391.401	3.27
391.766	3.18
392.131	2.96
392.496	3.1
392.861	3.18
393.226	3.01
393.591	3
393.956	3.41
394.32	3.04
394.685	3.07
395.05	2.93
395.414	3.11
395.779	3.02
396.143	3.23
396.508	3.21
396.872	3.05
397.236	3.29
397.601	3.36
397.965	3.29
398.329	2.92
398.694	3.23
399.058	3.31
399.422	3.15
399.786	3.3
400.15	3.23
400.514	3.45
400.878	2.98
401.242	3.16
401.605	3.41
401.969	3.29
402.333	3.25
402.697	3.32
403.06	3.39
403.424	3.42
403.787	3.16
404.151	2.92
404.514	3.09
404.878	3.08
405.241	3.26
405.604	3.07
405.968	3.22
406.331	3.29
406.694	3.27
407.057	3.39
407.42	3.22
407.783	3.4
408.146	3.1
408.509	3.34
408.872	3.24
409.235	3.26
409.598	3.08
409.961	3.1
410.323	2.98
410.686	3.36
411.049	3
411.411	3.18
411.774	3.1
412.136	3.39
412.499	3.22
412.861	3.12
413.223	3.09
413.586	3.11
413.948	3.18
414.31	3.37
414.672	3.56
415.035	3.38
415.397	3.3
415.759	3.42
416.121	3.2
416.483	3.15
416.845	3.2
417.206	3.24
417.568	3.44
417.93	3.08
418.292	3.22
418.653	3.19
419.015	3.39
419.377	3.13
419.738	3.15
420.1	3.18
420.461	3.13
420.822	3.09
421.184	3.15
421.545	3.21
421.906	3.19
422.267	3.2
422.629	3.14
422.99	3.17
423.351	3.23
423.712	3.24
424.073	3.27
424.434	3.22
424.795	3.22
425.155	3.12
425.516	3.18
425.877	3.15
426.238	3.21
426.598	3.17
426.959	3.23
427.32	3.31
427.68	3.3
428.041	3.28
428.401	3.33
428.761	3.31
429.122	3.38
429.482	3.34
429.842	3.32
430.202	3.18
430.563	3.25
430.923	3.3
431.283	3.34
431.643	3.53
432.003	3.37
432.363	3.26
432.722	3.25
433.082	3.49
433.442	3.42
433.802	3.29
434.161	3.48
434.521	3.21
434.881	3.25
435.24	3.22
435.6	3.4
435.959	3.38
436.319	3.22
436.678	3.47
437.037	3.43
437.396	3.35
437.756	3.31
438.115	3.31
438.474	3.42
438.833	3.32
439.192	3.34
439.551	3.63
439.91	3.29
440.269	3.33
440.628	3.29
440.987	3.41
441.345	3.15
441.704	3.3
442.063	3.32
442.421	3.37
442.78	3.29
443.138	3.3
443.497	3.38
443.855	3.51
444.214	3.48
444.572	3.31
444.93	3.44
445.288	3.52
445.647	3.33
446.005	3.49
446.363	3.52
446.721	3.43
447.079	3.26
447.437	3.38
447.795	3.39
448.153	3.46
448.51	3.23
448.868	3.4
449.226	3.32
449.584	3.4
449.941	3.46
450.299	3.47
450.656	3.45
451.014	3.37
451.371	3.59
451.729	3.44
452.086	3.61
452.443	3.61
452.801	3.6
453.158	3.42
453.515	3.54
453.872	3.51
454.229	3.49
454.586	3.35
454.943	3.47
455.3	3.58
455.657	3.5
456.014	3.61
456.371	3.64
456.727	3.43
457.084	3.51
457.441	3.51
457.797	3.52
458.154	3.63
458.51	3.5
458.867	3.55
459.223	3.56
459.58	3.51
459.936	3.53
460.292	3.61
460.648	3.4
461.005	3.47
461.361	3.48
461.717	3.41
462.073	3.47
462.429	3.57
462.785	3.47
463.141	3.64
463.496	3.54
463.852	3.47
464.208	3.81
464.564	3.67
464.919	3.37
465.275	3.68
465.631	3.49
465.986	3.71
466.342	3.57
466.697	3.49
467.052	3.56
467.408	3.53
467.763	3.56
468.118	3.69
468.473	3.67
468.829	3.51
469.184	3.48
469.539	3.66
469.894	3.69
470.249	3.61
470.603	3.77
470.958	3.67
471.313	3.4
471.668	3.71
472.023	3.63
472.377	3.74
472.732	3.75
473.086	3.64
473.441	3.58
473.795	3.64
474.15	3.72
474.504	3.6
474.859	3.72
475.213	3.75
475.567	3.65
475.921	3.82
476.275	3.74
476.63	3.68
476.984	3.62
477.338	3.79
477.692	3.79
478.045	3.71
478.399	3.74
478.753	3.77
479.107	3.8
479.461	3.67
479.814	3.69
480.168	3.63
480.521	3.74
480.875	3.78
481.228	3.77
481.582	3.83
481.935	3.66
482.289	3.55
482.642	3.73
482.995	3.58
483.348	3.77
483.701	3.61
484.055	3.78
484.408	3.66
484.761	3.58
485.114	3.47
485.466	3.41
485.819	3.45
486.172	3.53
486.525	3.64
486.878	3.64
487.23	3.67
487.583	3.72
487.936	3.69
488.288	3.73
488.641	3.56
488.993	3.52
489.345	3.52
489.698	3.58
490.05	3.67
490.402	3.7
490.754	3.78
491.107	3.81
491.459	3.8
491.811	3.85
492.163	3.82
492.515	3.66
492.866	3.63
493.218	3.63
493.57	3.7
493.922	3.69
494.274	3.79
494.625	3.92
494.977	3.85
495.328	3.79
495.68	4
496.031	3.91
496.383	3.86
496.734	3.96
497.086	4
497.437	3.93
497.788	3.8
498.139	3.98
498.49	3.87
498.842	3.92
499.193	3.84
499.544	3.78
499.894	4
500.245	4.03
500.596	3.96
500.947	3.95
501.298	4.03
501.648	3.91
501.999	3.93
502.35	3.96
502.7	4.13
503.051	4.15
503.401	4.15
503.752	4.08
504.102	4.08
504.452	4.01
504.803	4.22
505.153	4.1
505.503	4.03
505.853	4.09
506.203	4.14
506.553	4.05
506.903	4.07
507.253	4.05
507.603	4.17
507.953	4.05
508.303	4.12
508.652	4.09
509.002	4.18
509.352	4.18
509.701	4.08
510.051	4.22
510.4	4.11
510.75	4.16
511.099	4.11
511.449	4.1
511.798	4.04
512.147	4.15
512.496	4.2
512.846	4.13
513.195	4.22
513.544	4.2
513.893	4.16
514.242	4.1
514.591	4.28
514.939	4.22
515.288	4.36
515.637	4.3
515.986	4.23
516.334	4.31
516.683	4.28
517.032	4.37
517.38	4.36
517.729	4.37
518.077	4.49
518.426	4.39
518.774	4.4
519.122	4.26
519.47	4.36
519.819	4.3
520.167	4.15
520.515	4.2
520.863	4.26
521.211	4.31
521.559	4.3
521.907	4.35
522.255	4.46
522.602	4.61
522.95	4.42
523.298	4.36
523.645	4.46
523.993	4.42
524.341	4.51
524.688	4.47
525.036	4.36
525.383	4.6
525.73	4.47
526.078	4.56
526.425	4.59
526.772	4.53
527.119	4.38
527.466	4.3
527.814	4.42
528.161	4.49
528.508	4.56
528.854	4.5
529.201	4.54
529.548	4.46
529.895	4.37
530.242	4.3
530.588	4.31
530.935	4.37
531.282	4.48
531.628	4.51
531.975	4.53
532.321	4.6
532.667	4.66
533.014	4.67
533.36	4.71
533.706	4.66
534.052	4.63
534.399	4.57
534.745	4.6
535.091	4.58
535.437	4.64
535.783	4.68
536.129	4.75
536.474	4.79
536.82	4.73
537.166	4.82
537.512	4.84
537.857	4.87
538.203	4.72
538.549	4.78
538.894	4.83
539.239	4.88
539.585	4.92
539.93	4.97
540.276	5.06
540.621	4.97
540.966	5.07
541.311	4.95
541.656	4.99
542.001	4.87
542.346	4.87
542.691	4.76
543.036	4.85
543.381	4.87
543.726	4.94
544.071	4.97
544.415	5.1
544.76	5.01
545.105	5.1
545.449	5.13
545.794	5
546.138	5.26
546.483	5.29
546.827	5.32
547.171	5.32
547.516	5.15
547.86	5.29
548.204	5.18
548.548	5.25
548.892	5.31
549.236	5.28
549.58	5.34
549.924	5.2
550.268	5.4
550.612	5.54
550.956	5.46
551.3	5.5
551.643	5.57
551.987	5.44
552.33	5.76
552.674	5.67
553.017	5.47
553.361	5.76
553.704	5.77
554.048	5.48
554.391	5.79
554.734	5.53
555.077	5.37
555.42	5.73
555.764	5.67
556.107	5.66
556.45	5.87
556.793	5.75
557.135	5.82
557.478	5.82
557.821	5.94
558.164	6.15
558.507	6.11
558.849	6.11
559.192	5.94
559.534	5.9
559.877	6.21
560.219	5.94
560.562	6.09
560.904	6.06
561.246	6.07
561.589	5.97
561.931	6.13
562.273	6.02
562.615	6.2
562.957	5.9
563.299	6.18
563.641	6.05
563.983	6.27
564.325	6.12
564.667	6.22
565.008	6.36
565.35	6.22
565.692	6.18
566.033	6.36
566.375	6.19
566.716	6.3
567.058	6.3
567.399	6.25
567.741	6.31
568.082	6.41
568.423	6.36
568.764	6.45
569.105	6.44
569.447	6.51
569.788	6.51
570.129	6.42
570.47	6.5
570.811	6.58
571.151	6.49
571.492	6.6
571.833	6.66
572.174	6.59
572.514	6.73
572.855	6.67
573.195	6.58
573.536	6.72
573.876	6.62
574.217	6.73
574.557	6.66
574.898	6.69
575.238	6.81
575.578	6.83
575.918	6.97
576.258	6.88
576.598	6.92
576.938	7.13
577.278	6.99
577.618	7.11
577.958	7.02
578.298	7.3
578.638	7.37
578.977	7.25
579.317	7.17
579.657	7.25
579.996	7.27
580.336	7.16
580.675	7.32
581.014	7.3
581.354	7.22
581.693	7.64
582.032	7.67
582.372	7.47
582.711	7.5
583.05	7.79
583.389	7.64
583.728	7.53
584.067	7.67
584.406	7.65
584.745	7.94
585.083	7.73
585.422	7.85
585.761	7.67
586.1	7.88
586.438	7.8
586.777	7.78
587.115	7.76
587.454	8.13
587.792	7.94
588.13	7.99
588.469	7.98
588.807	7.98
589.145	8.31
589.483	8.01
589.821	8.21
590.159	8.03
590.497	8.21
590.835	8.38
591.173	8.22
591.511	8.21
591.849	8.07
592.187	8.37
592.524	8.29
592.862	8.26
593.2	8.38
593.537	8.36
593.875	8.27
594.212	8.53
594.55	8.39
594.887	8.54
595.224	8.56
595.561	8.6
595.899	8.73
596.236	8.52
596.573	8.69
596.91	8.65
597.247	8.68
597.584	8.71
597.921	8.88
598.258	8.85
598.594	8.78
598.931	8.84
599.268	8.69
599.604	8.84
599.941	8.81
600.277	9.02
600.614	9.12
600.95	8.88
601.287	9.03
601.623	8.96
601.959	9.29
602.296	9.04
602.632	9.06
602.968	9.06
603.304	9.46
603.64	9.22
603.976	9.04
604.312	9.31
604.648	9.52
604.984	9.46
605.319	9.32
605.655	9.22
605.991	9.31
606.326	9.33
606.662	9.46
606.998	9.4
607.333	9.33
607.668	9.48
608.004	9.65
608.339	9.71
608.674	9.75
609.01	9.74
609.345	9.87
609.68	9.66
610.015	9.83
610.35	9.91
610.685	9.99
611.02	10
611.355	9.85
611.689	10.07
612.024	10.03
612.359	9.96
612.694	9.99
613.028	10.47
613.363	9.83
613.697	10.41
614.032	10.04
614.366	10.4
614.7	10.26
615.035	10.73
615.369	10.47
615.703	10.37
616.037	10.24
616.371	10.56
616.705	10.64
617.039	10.59
617.373	10.35
617.707	10.77
618.041	11.1
618.375	10.61
618.709	10.74
619.042	10.95
619.376	10.94
619.71	10.94
620.043	10.89
620.377	10.95
620.71	10.87
621.043	11.15
621.377	11.2
621.71	10.96
622.043	11.12
622.376	11.3
622.709	11.26
623.043	11.02
623.376	11.38
623.709	11.23
624.041	11.17
624.374	11.69
624.707	11.51
625.04	11.56
625.373	10.97
625.705	11.55
626.038	11.75
626.37	11.38
626.703	11.53
627.035	11.76
627.368	11.66
627.7	11.66
628.032	11.38
628.365	11.57
628.697	11.8
629.029	11.52
629.361	11.55
629.693	11.84
630.025	12.09
630.357	12.06
630.689	11.78
631.021	12.1
631.353	12.26
631.684	11.69
632.016	12.08
632.348	11.7
632.679	12.57
633.011	12.25
633.342	12.18
633.674	12.09
634.005	12.55
634.336	12.41
634.668	12.24
634.999	12.43
635.33	12.69
635.661	12.72
635.992	12.97
636.323	12.48
636.654	12.41
636.985	12.71
637.316	12.32
637.647	12.49
637.977	12.96
638.308	12.79
638.639	13.22
638.969	12.62
639.3	12.62
639.63	12.88
639.961	13.34
640.291	12.73
640.622	12.94
640.952	13.43
641.282	12.93
641.612	13.5
641.943	13.51
642.273	13.56
642.603	13.83
642.933	13.24
643.263	13.55
643.592	13.66
643.922	13.34
644.252	13.51
644.582	13.69
644.911	13.55
645.241	13.7
645.571	13.56
645.9	13.39
646.23	14.23
646.559	13.83
646.888	13.81
647.218	14.28
647.547	13.97
647.876	14.65
648.205	14.16
648.534	13.45
648.863	13.73
649.192	14.11
649.521	14.16
649.85	15.04
650.179	14.22
650.508	14.5
650.837	14.22
651.165	14.46
651.494	14.65
651.822	14.28
652.151	14.53
652.479	14.49
652.808	14.79
653.136	14.51
653.465	14.37
653.793	14.42
654.121	14.51
654.449	14.19
654.777	14.81
655.105	14.4
655.433	14.68
655.761	14.97
656.089	15.08
656.417	15.17
656.745	14.69
657.073	14.84
657.4	15.55
657.728	15.4
658.056	14.97
658.383	15.09
658.711	15
659.038	15.09
659.365	15.22
659.693	15.17
660.02	15.28
660.347	15.44
660.674	15.74
661.001	15.25
661.329	15.64
661.656	15.16
661.982	15.55
662.309	15.29
662.636	15.62
662.963	15.61
663.29	15.46
663.616	15.17
663.943	15.82
664.27	16.16
664.596	16.18
664.923	16.44
665.249	15.99
665.576	16.01
665.902	16
666.228	15.84
666.554	16.34
666.881	16.15
667.207	16.03
667.533	16.35
667.859	16.1
668.185	16.4
668.511	16.07
668.837	16.7
669.162	15.76
669.488	16.72
669.814	16.89
670.139	16.02
670.465	16.54
670.791	16.87
671.116	16.5
671.442	16.74
671.767	16.11
672.092	17.11
672.418	16.76
672.743	17.15
673.068	16.91
673.393	17.07
673.718	17.33
674.043	17.4
674.368	16.92
674.693	17.07
675.018	16.75
675.343	16.65
675.667	16.95
675.992	17.57
676.317	17.28
676.641	17.53
676.966	17.08
677.29	17.48
677.615	17.49
677.939	17.47
678.264	17.45
678.588	17.29
678.912	17.59
679.236	17.46
679.56	17.48
679.885	17.43
680.209	18.02
680.532	17.63
680.856	17.89
681.18	17.97
681.504	17.84
681.828	18.33
682.152	17.61
682.475	17.63
682.799	18.19
683.122	18.06
683.446	17.97
683.769	18.4
684.093	18.03
684.416	18.46
684.739	18.53
685.062	18.04
685.386	18.42
685.709	17.91
686.032	18.69
686.355	18.23
686.678	18.29
687.001	18.09
687.324	18.62
