Data from 1710-3_forehead_Reflection__0__146.txt Node

Date: Fri Sep 30 19:15:34 CDT 2022
User: ToomeyLab
Spectrometer: FLMS14357
Trigger mode: 0
Integration Time (sec): 1.000000E-2
Scans to average: 100
Electric dark correction enabled: true
Nonlinearity correction enabled: false
Boxcar width: 0
XAxis mode: Wavelengths
Number of Pixels in Spectrum: 2048
>>>>>Begin Spectral Data<<<<<
189.047	-546.5
189.435	-546.5
189.823	-546.5
190.211	15.16
190.599	-1445.54
190.987	1855.83
191.375	-528.31
191.763	-1.88
192.151	-27.89
192.538	91.31
192.926	4.65
193.314	56.15
193.702	2862.5
194.089	-104.05
194.477	175.08
194.864	22.55
195.252	109.79
195.639	42.65
196.027	245.09
196.414	21962.5
196.801	198.75
197.189	94.28
197.576	325.12
197.963	79.89
198.351	19.47
198.738	20.94
199.125	27.37
199.512	57.08
199.899	12.12
200.286	20.62
200.673	-6.92
201.06	-12.76
201.447	-45.09
201.833	39.75
202.22	8.73
202.607	10.98
202.994	-10.33
203.38	9.9
203.767	-3.67
204.154	68.4
204.54	28.97
204.927	-36.09
205.313	40.99
205.699	32.34
206.086	32.33
206.472	15.85
206.858	20.17
207.245	-81.5
207.631	19.52
208.017	-11.47
208.403	15.62
208.789	27.02
209.175	24.69
209.561	4.62
209.947	37.31
210.333	36.92
210.719	28.84
211.105	16.03
211.491	14.59
211.876	19.75
212.262	27.12
212.648	20.14
213.034	8.58
213.419	-2.41
213.805	-2.05
214.19	4.71
214.576	-12.27
214.961	15.33
215.346	6.58
215.732	20.86
216.117	2.54
216.502	62.42
216.888	9.69
217.273	34.29
217.658	17.18
218.043	-1.71
218.428	21.76
218.813	27.74
219.198	19.3
219.583	9.81
219.968	10.84
220.353	-8
220.738	2.79
221.122	4.57
221.507	11.3
221.892	8.52
222.276	-13.06
222.661	3.52
223.046	-0.52
223.43	18.99
223.815	5.11
224.199	15.58
224.583	13.67
224.968	8.08
225.352	0.59
225.736	-2.05
226.121	7.68
226.505	11.05
226.889	-1.57
227.273	2.05
227.657	-1.11
228.041	2.43
228.425	4.09
228.809	4.83
229.193	3.24
229.577	2.52
229.961	1.08
230.344	2.38
230.728	1.5
231.112	3.12
231.495	2.83
231.879	2.66
232.263	4.07
232.646	3.41
233.03	1.51
233.413	3.02
233.797	-0.72
234.18	2.4
234.563	3.13
234.946	2.2
235.33	3.33
235.713	1.5
236.096	3.4
236.479	3.56
236.862	2.15
237.245	3.88
237.628	1.9
238.011	1.63
238.394	1.66
238.777	2.82
239.16	0.98
239.543	2.87
239.925	2.5
240.308	2.19
240.691	1.48
241.073	2.82
241.456	2.03
241.838	2.77
242.221	2.62
242.603	3.34
242.986	2.91
243.368	2.41
243.75	1.7
244.133	1.99
244.515	1.89
244.897	2.51
245.279	2.38
245.661	3.6
246.043	2.93
246.425	2.56
246.807	2.71
247.189	2.61
247.571	3
247.953	2.46
248.335	2.68
248.717	2.23
249.098	2.61
249.48	2.27
249.862	2.3
250.243	2.5
250.625	2.3
251.006	2.9
251.388	2
251.769	2.43
252.151	2.77
252.532	2.11
252.913	2.2
253.295	2.34
253.676	2.77
254.057	2.48
254.438	2.65
254.819	2.51
255.2	3.03
255.581	3.11
255.962	3.24
256.343	2.25
256.724	3.94
257.105	1.81
257.486	3.1
257.867	3.73
258.247	3.21
258.628	2.74
259.009	2.86
259.389	2.37
259.77	2.83
260.15	2.49
260.531	2.91
260.911	2.39
261.292	2.78
261.672	2.22
262.052	2.47
262.432	2.66
262.813	2.88
263.193	2.81
263.573	2.72
263.953	2.51
264.333	3.03
264.713	2.78
265.093	2.67
265.473	3.2
265.853	2.93
266.233	1.87
266.612	3.59
266.992	2.57
267.372	3.27
267.752	2.24
268.131	2.26
268.511	2.53
268.89	2.35
269.27	2.93
269.649	2.82
270.029	2.8
270.408	2.94
270.787	3.12
271.167	2.39
271.546	2.76
271.925	2.34
272.304	2.94
272.683	2.27
273.062	2.59
273.441	2.08
273.82	2.57
274.199	2.67
274.578	2.62
274.957	2.4
275.336	2.08
275.715	2.3
276.093	2.44
276.472	2.5
276.851	3.09
277.229	2.63
277.608	2.7
277.986	2.04
278.365	2.59
278.743	2.84
279.122	2.06
279.5	2.83
279.878	2.2
280.257	2.11
280.635	2.93
281.013	2.58
281.391	2.52
281.769	2.52
282.147	2.39
282.525	2.95
282.903	2.78
283.281	2.72
283.659	2.93
284.037	2.88
284.415	2.17
284.792	2.61
285.17	2.47
285.548	2.51
285.925	2.5
286.303	2.13
286.68	2.54
287.058	2.45
287.435	2.23
287.813	2.25
288.19	2.5
288.567	2.48
288.945	2.28
289.322	2.87
289.699	2.53
290.076	2.64
290.453	2.72
290.83	2.39
291.207	2.79
291.584	2.55
291.961	2.68
292.338	2.33
292.715	2.82
293.092	2.85
293.469	2.83
293.845	2.74
294.222	2.88
294.599	2.84
294.975	3.22
295.352	3.31
295.728	2.92
296.105	3.11
296.481	2.87
296.858	2.54
297.234	2.53
297.61	2.76
297.986	3.12
298.363	2.86
298.739	2.88
299.115	2.71
299.491	2.91
299.867	2.88
300.243	3.3
300.619	2.92
300.995	3.47
301.371	3.64
301.746	4.1
302.122	3.06
302.498	2.92
302.874	3.46
303.249	3.11
303.625	3.33
304	3.17
304.376	3.52
304.751	3.66
305.127	3.6
305.502	3.8
305.878	3.46
306.253	4.02
306.628	3.46
307.003	4.01
307.378	3.87
307.754	3.95
308.129	4.26
308.504	3.92
308.879	4.35
309.254	3.66
309.629	4.19
310.003	3.91
310.378	4.27
310.753	3.93
311.128	4.09
311.502	4.67
311.877	3.99
312.252	4.4
312.626	4.43
313.001	4.34
313.375	4.37
313.75	4.72
314.124	4.33
314.498	4.45
314.873	4.78
315.247	4.42
315.621	4.62
315.995	4.84
316.369	4.69
316.743	4.85
317.117	4.93
317.491	4.87
317.865	5.19
318.239	5.36
318.613	5.66
318.987	5.56
319.361	5.45
319.734	5.56
320.108	5.7
320.482	5.63
320.855	5.78
321.229	5.83
321.602	5.84
321.976	5.93
322.349	5.04
322.723	5.47
323.096	5.66
323.469	5.99
323.843	6.1
324.216	6.03
324.589	6.11
324.962	6.04
325.335	5.87
325.708	6.32
326.081	6.74
326.454	6.7
326.827	6.5
327.2	6.68
327.573	6.56
327.945	6.71
328.318	6.66
328.691	6.55
329.063	6.44
329.436	6.95
329.809	7.27
330.181	6.53
330.553	7.26
330.926	7.01
331.298	6.96
331.671	7.69
332.043	7.09
332.415	7.5
332.787	7.02
333.159	7.55
333.532	7.58
333.904	7.06
334.276	7.2
334.648	7.17
335.02	7.36
335.391	7.68
335.763	7.85
336.135	7.41
336.507	7.75
336.879	7.6
337.25	7.94
337.622	7.98
337.993	7.39
338.365	8.12
338.736	8.04
339.108	8.17
339.479	7.84
339.851	8.04
340.222	7.81
340.593	8.24
340.964	7.99
341.336	8.12
341.707	7.92
342.078	8.67
342.449	8.28
342.82	8.19
343.191	8.32
343.562	8.43
343.933	8.38
344.303	8.67
344.674	8.79
345.045	8.17
345.416	8.44
345.786	8.52
346.157	8.09
346.527	8.4
346.898	8.47
347.268	8.76
347.639	8.7
348.009	8.95
348.38	9.05
348.75	8.81
349.12	8.73
349.49	8.76
349.861	9.06
350.231	9.64
350.601	8.84
350.971	9.03
351.341	9.13
351.711	9.29
352.081	8.88
352.45	9.21
352.82	9.23
353.19	9.19
353.56	9.16
353.929	9.1
354.299	9.5
354.669	9.45
355.038	10.03
355.408	9.57
355.777	9.71
356.147	9.34
356.516	9.65
356.885	9.53
357.254	9.65
357.624	9.75
357.993	9.72
358.362	9.61
358.731	9.79
359.1	9.63
359.469	10.07
359.838	9.84
360.207	9.91
360.576	9.98
360.945	9.87
361.314	9.84
361.682	10.03
362.051	10.15
362.42	9.89
362.788	9.98
363.157	10.08
363.525	10.28
363.894	10.33
364.262	9.99
364.631	10.08
364.999	10.36
365.367	10.46
365.735	10.56
366.104	10.32
366.472	10.51
366.84	10.47
367.208	10.66
367.576	10.57
367.944	10.61
368.312	10.54
368.68	10.63
369.048	10.59
369.416	10.96
369.783	10.79
370.151	10.56
370.519	10.87
370.886	11.12
371.254	11.19
371.621	11.59
371.989	11.15
372.356	11.31
372.724	11.18
373.091	11.36
373.458	11.16
373.826	10.82
374.193	11.65
374.56	11.45
374.927	11.46
375.294	11.26
375.661	11.51
376.028	11.52
376.395	11.91
376.762	11.53
377.129	11.64
377.496	11.66
377.863	11.38
378.229	11.64
378.596	11.52
378.963	11.75
379.329	11.99
379.696	11.77
380.062	11.92
380.429	11.93
380.795	11.94
381.161	11.94
381.528	11.91
381.894	11.96
382.26	12.45
382.626	12.51
382.993	12.3
383.359	11.98
383.725	12.42
384.091	11.94
384.457	12.28
384.823	12.63
385.188	12.58
385.554	12.72
385.92	12.41
386.286	12.62
386.651	12.66
387.017	12.34
387.383	12.68
387.748	12.79
388.114	12.92
388.479	12.8
388.845	12.8
389.21	13.02
389.575	12.88
389.94	12.61
390.306	12.91
390.671	12.7
391.036	12.9
391.401	12.97
391.766	13.17
392.131	13.15
392.496	13.15
392.861	13.1
393.226	12.87
393.591	12.97
393.956	13.17
394.32	13.1
394.685	13.09
395.05	13.53
395.414	13.27
395.779	13.39
396.143	13.29
396.508	13.64
396.872	13.55
397.236	13.53
397.601	13.92
397.965	13.66
398.329	13.48
398.694	13.77
399.058	13.92
399.422	13.91
399.786	14.13
400.15	13.89
400.514	14.24
400.878	13.89
401.242	13.73
401.605	13.92
401.969	14.01
402.333	14.28
402.697	14.29
403.06	14.18
403.424	14.05
403.787	14.01
404.151	14.07
404.514	14.37
404.878	14.41
405.241	14.53
405.604	14.35
405.968	14.15
406.331	14.35
406.694	14.31
407.057	14.46
407.42	14.4
407.783	14.46
408.146	14.68
408.509	14.65
408.872	14.72
409.235	14.66
409.598	14.79
409.961	14.77
410.323	14.52
410.686	14.62
411.049	14.7
411.411	14.8
411.774	14.81
412.136	14.81
412.499	14.94
412.861	14.83
413.223	15.11
413.586	14.87
413.948	15.43
414.31	15.15
414.672	15.39
415.035	15.12
415.397	15.1
415.759	15.14
416.121	15.15
416.483	15.28
416.845	15.38
417.206	15.44
417.568	15.43
417.93	15.02
418.292	15.21
418.653	15.53
419.015	15.48
419.377	15.24
419.738	15.24
420.1	15.24
420.461	15.37
420.822	15.15
421.184	15.3
421.545	15.23
421.906	15.36
422.267	15.38
422.629	15.29
422.99	15.3
423.351	15.36
423.712	15.35
424.073	15.38
424.434	15.48
424.795	15.79
425.155	15.63
425.516	15.52
425.877	15.48
426.238	15.6
426.598	15.46
426.959	15.62
427.32	15.66
427.68	16
428.041	15.98
428.401	16.09
428.761	15.95
429.122	16.19
429.482	16.45
429.842	16.39
430.202	16.51
430.563	16.08
430.923	16.61
431.283	16.53
431.643	16.6
432.003	16.44
432.363	16.52
432.722	16.48
433.082	16.73
433.442	16.54
433.802	16.59
434.161	16.55
434.521	16.45
434.881	16.47
435.24	16.43
435.6	16.63
435.959	16.63
436.319	16.44
436.678	16.76
437.037	16.98
437.396	16.96
437.756	16.99
438.115	16.99
438.474	17.14
438.833	16.96
439.192	17
439.551	17.16
439.91	16.96
440.269	17.02
440.628	17.06
440.987	17.03
441.345	17.14
441.704	17.03
442.063	16.97
442.421	17
442.78	17.06
443.138	16.95
443.497	17.18
443.855	17.31
444.214	17.46
444.572	17.48
444.93	17.46
445.288	17.67
445.647	17.51
446.005	17.6
446.363	17.62
446.721	17.6
447.079	17.43
447.437	17.31
447.795	17.33
448.153	17.43
448.51	17.16
448.868	17.43
449.226	17.39
449.584	17.5
449.941	17.73
450.299	17.81
450.656	17.88
451.014	17.79
451.371	18.12
451.729	18.08
452.086	18.23
452.443	18.3
452.801	18.1
453.158	18.22
453.515	18.05
453.872	18.29
454.229	18.1
454.586	18.05
454.943	18.23
455.3	18.34
455.657	18.26
456.014	18.47
456.371	18.66
456.727	18.41
457.084	18.67
457.441	18.66
457.797	18.4
458.154	18.76
458.51	18.77
458.867	18.55
459.223	18.82
459.58	18.63
459.936	18.7
460.292	18.83
460.648	18.73
461.005	18.56
461.361	18.35
461.717	18.22
462.073	18.37
462.429	18.54
462.785	18.74
463.141	18.72
463.496	18.91
463.852	19.02
464.208	19.03
464.564	19.13
464.919	19.15
465.275	19.53
465.631	19.48
465.986	19.38
466.342	19.24
466.697	19.15
467.052	19.18
467.408	19.13
467.763	19.48
468.118	19.37
468.473	19.53
468.829	19.28
469.184	19.31
469.539	19.34
469.894	19.63
470.249	19.54
470.603	19.71
470.958	19.75
471.313	19.68
471.668	19.79
472.023	19.61
472.377	19.68
472.732	19.8
473.086	19.84
473.441	19.8
473.795	19.85
474.15	19.82
474.504	19.9
474.859	19.99
475.213	19.84
475.567	19.81
475.921	19.96
476.275	19.93
476.63	20.1
476.984	20.09
477.338	20.05
477.692	20.27
478.045	20.07
478.399	20.33
478.753	20.04
479.107	20.26
479.461	20.21
479.814	20.26
480.168	20.32
480.521	20.25
480.875	20.27
481.228	20.37
481.582	20.38
481.935	20.41
482.289	20.31
482.642	20.48
482.995	20.29
483.348	20.28
483.701	20.16
484.055	20.15
484.408	20.14
484.761	19.84
485.114	19.57
485.466	19.45
485.819	19.42
486.172	19.4
486.525	19.52
486.878	19.76
487.23	19.92
487.583	20.22
487.936	20.19
488.288	20.23
488.641	20.08
488.993	19.94
489.345	19.84
489.698	19.89
490.05	19.98
490.402	19.99
490.754	20.27
491.107	20.45
491.459	20.5
491.811	20.84
492.163	20.75
492.515	20.66
492.866	20.55
493.218	20.28
493.57	20.26
493.922	20.22
494.274	20.41
494.625	20.77
494.977	20.98
495.328	20.84
495.68	21.24
496.031	21.41
496.383	21.41
496.734	21.52
497.086	21.5
497.437	21.4
497.788	21.46
498.139	21.51
498.49	21.27
498.842	21.35
499.193	21.29
499.544	21.34
499.894	21.38
500.245	21.64
500.596	21.53
500.947	21.67
501.298	21.76
501.648	21.79
501.999	21.7
502.35	21.87
502.7	21.89
503.051	22.07
503.401	22.16
503.752	22.05
504.102	21.99
504.452	22.06
504.803	22.11
505.153	22.03
505.503	21.96
505.853	22.17
506.203	22.17
506.553	22.19
506.903	22.21
507.253	22.23
507.603	22.26
507.953	22.15
508.303	22.35
508.652	22.25
509.002	22.36
509.352	22.48
509.701	22.38
510.051	22.28
510.4	22.23
510.75	22.22
511.099	22.35
511.449	22.25
511.798	22.4
512.147	22.41
512.496	22.51
512.846	22.55
513.195	22.54
513.544	22.59
513.893	22.57
514.242	22.38
514.591	22.57
514.939	22.72
515.288	22.7
515.637	22.75
515.986	23.02
516.334	22.86
516.683	22.95
517.032	23.15
517.38	23.06
517.729	23.14
518.077	23.13
518.426	23.18
518.774	23.09
519.122	23.04
519.47	22.86
519.819	22.75
520.167	22.71
520.515	22.7
520.863	22.69
521.211	22.85
521.559	22.82
521.907	23.05
522.255	23.16
522.602	23.41
522.95	23.38
523.298	23.31
523.645	23.39
523.993	23.42
524.341	23.46
524.688	23.49
525.036	23.44
525.383	23.71
525.73	23.57
526.078	23.63
526.425	23.46
526.772	23.41
527.119	23.26
527.466	23.14
527.814	23.22
528.161	23.28
528.508	23.36
528.854	23.32
529.201	23.36
529.548	23.19
529.895	22.99
530.242	22.82
530.588	22.71
530.935	22.82
531.282	22.88
531.628	23.09
531.975	23.2
532.321	23.56
532.667	23.56
533.014	23.69
533.36	23.67
533.706	23.82
534.052	23.88
534.399	23.66
534.745	23.56
535.091	23.27
535.437	23.42
535.783	23.42
536.129	23.72
536.474	23.89
536.82	23.99
537.166	24.12
537.512	24.22
537.857	24.32
538.203	23.87
538.549	23.97
538.894	23.99
539.239	24.21
539.585	24.29
539.93	24.51
540.276	24.71
540.621	24.82
540.966	24.66
541.311	24.6
541.656	24.64
542.001	24.65
542.346	24.47
542.691	24.07
543.036	23.79
543.381	23.87
543.726	23.96
544.071	23.95
544.415	24.39
544.76	24.39
545.105	24.47
545.449	24.56
545.794	24.77
546.138	24.71
546.483	24.96
546.827	25.01
547.171	24.97
547.516	24.92
547.86	25.05
548.204	24.89
548.548	24.84
548.892	24.97
549.236	24.93
549.58	25.1
549.924	25.23
550.268	25.46
550.612	25.67
550.956	25.59
551.3	25.73
551.643	25.67
551.987	25.46
552.33	25.76
552.674	25.71
553.017	25.86
553.361	25.77
553.704	25.84
554.048	25.71
554.391	25.74
554.734	25.54
555.077	25.7
555.42	25.87
555.764	25.66
556.107	25.98
556.45	26.03
556.793	26.19
557.135	26.03
557.478	26.32
557.821	26.22
558.164	26.25
558.507	26.39
558.849	26.25
559.192	26.41
559.534	26.33
559.877	26.68
560.219	26.43
560.562	26.54
560.904	26.59
561.246	26.53
561.589	26.3
561.931	26.35
562.273	26.38
562.615	26.47
562.957	26.48
563.299	26.67
563.641	26.43
563.983	26.74
564.325	26.74
564.667	26.62
565.008	26.88
565.35	26.82
565.692	26.58
566.033	26.88
566.375	26.72
566.716	26.78
567.058	26.68
567.399	26.8
567.741	26.82
568.082	26.77
568.423	26.82
568.764	26.71
569.105	26.86
569.447	26.72
569.788	27.11
570.129	27.01
570.47	27.09
570.811	26.83
571.151	27.06
571.492	27.1
571.833	27.26
572.174	27.32
572.514	27.21
572.855	27.37
573.195	27.37
573.536	27.12
573.876	26.96
574.217	27.2
574.557	27.28
574.898	27.06
575.238	27.31
575.578	27.39
575.918	27.35
576.258	27.28
576.598	27.36
576.938	27.37
577.278	27.34
577.618	27.3
577.958	27.34
578.298	27.64
578.638	27.79
578.977	27.66
579.317	27.78
579.657	27.69
579.996	27.74
580.336	27.89
580.675	28.08
581.014	27.79
581.354	27.83
581.693	28.1
582.032	28.17
582.372	28.23
582.711	28.14
583.05	28.3
583.389	28
583.728	28.33
584.067	28.55
584.406	28.22
584.745	28.45
585.083	28.21
585.422	28.42
585.761	28.4
586.1	28.66
586.438	28.26
586.777	28.33
587.115	28.27
587.454	28.42
587.792	28.65
588.13	28.84
588.469	28.43
588.807	28.64
589.145	28.72
589.483	28.72
589.821	29.08
590.159	28.59
590.497	28.66
590.835	28.81
591.173	28.86
591.511	28.67
591.849	28.37
592.187	28.73
592.524	28.93
592.862	28.82
593.2	28.83
593.537	28.99
593.875	28.67
594.212	29.14
594.55	29.18
594.887	28.84
595.224	28.91
595.561	29.13
595.899	29.09
596.236	29.04
596.573	28.96
596.91	28.8
597.247	29.15
597.584	28.86
597.921	29.02
598.258	29.2
598.594	28.77
598.931	28.84
599.268	28.73
599.604	28.88
599.941	29.04
600.277	28.94
600.614	29.49
600.95	29.31
601.287	29.31
601.623	29.31
601.959	29.53
602.296	29.58
602.632	29.7
602.968	29.41
603.304	29.71
603.64	29.7
603.976	29.73
604.312	29.44
604.648	29.57
604.984	29.46
605.319	29.43
605.655	29.3
605.991	29.58
606.326	29.53
606.662	29.21
606.998	29.36
607.333	29.5
607.668	29.3
608.004	29.78
608.339	29.9
608.674	30
609.01	30.15
609.345	29.77
609.68	29.85
610.015	29.73
610.35	29.83
610.685	29.88
611.02	29.77
611.355	29.7
611.689	29.7
612.024	29.93
612.359	29.82
612.694	29.82
613.028	30.15
613.363	30.29
613.697	30.19
614.032	30.27
614.366	30.31
614.7	30.57
615.035	30.5
615.369	30.81
615.703	30.5
616.037	30.23
616.371	30.53
616.705	30.47
617.039	30.46
617.373	30.46
617.707	30.35
618.041	30.38
618.375	30.69
618.709	30.52
619.042	31
619.376	30.88
619.71	30.75
620.043	30.83
620.377	30.61
620.71	30.59
621.043	30.76
621.377	30.67
621.71	30.49
622.043	30.97
622.376	31.44
622.709	31.11
623.043	30.79
623.376	30.92
623.709	30.6
624.041	30.79
624.374	31.1
624.707	30.84
625.04	31.51
625.373	30.57
625.705	30.99
626.038	31.2
626.37	31.06
626.703	31.53
627.035	31.19
627.368	31.16
627.7	30.93
628.032	31.17
628.365	31.15
628.697	31.01
629.029	31.01
629.361	31.18
629.693	31.34
630.025	31.33
630.357	31.28
630.689	31.22
631.021	31.37
631.353	31.66
631.684	31.09
632.016	30.91
632.348	31.29
632.679	31.56
633.011	31.43
633.342	31.46
633.674	31.28
634.005	31.64
634.336	31.76
634.668	32.02
634.999	31.73
635.33	31.73
635.661	31.74
635.992	31.71
636.323	31.76
636.654	31.74
636.985	31.68
637.316	31.93
637.647	31.94
637.977	31.65
638.308	32.32
638.639	32.15
638.969	31.81
639.3	31.88
639.63	31.98
639.961	32.8
640.291	32.01
640.622	31.83
640.952	32.11
641.282	32.31
641.612	32.19
641.943	31.78
642.273	32.43
642.603	32.31
642.933	32.1
643.263	32.06
643.592	32.37
643.922	32.21
644.252	32.24
644.582	32.28
644.911	32.64
645.241	32.83
645.571	32.52
645.9	32.83
646.23	32.86
646.559	32.28
646.888	32.87
647.218	32.57
647.547	32.89
647.876	32.68
648.205	32.48
648.534	32.5
648.863	32.42
649.192	33.07
649.521	32.59
649.85	32.58
650.179	32.98
650.508	32.47
650.837	32.89
651.165	32.96
651.494	32.65
651.822	32.56
652.151	32.89
652.479	32.9
652.808	32.78
653.136	33.14
653.465	32.7
653.793	32.69
654.121	32.8
654.449	32.92
654.777	32.75
655.105	33.29
655.433	32.79
655.761	33.45
656.089	33.38
656.417	33.25
656.745	32.9
657.073	32.61
657.4	33.12
657.728	33.8
658.056	32.99
658.383	33.21
658.711	33.18
659.038	33.64
659.365	33.14
659.693	33.87
660.02	34.05
660.347	33.4
660.674	33.71
661.001	33.17
661.329	33.32
661.656	32.95
661.982	33.55
662.309	33.31
662.636	33.33
662.963	33.41
663.29	33.68
663.616	33.28
663.943	33.09
664.27	33.75
664.596	34.17
664.923	33.85
665.249	33.68
665.576	34.08
665.902	34.12
666.228	33.78
666.554	34.09
666.881	33.77
667.207	34.08
667.533	34.6
667.859	33.55
668.185	34.17
668.511	33.93
668.837	34.09
669.162	33.44
669.488	33.62
669.814	34.06
670.139	33.62
670.465	33.44
670.791	34.74
671.116	34.33
671.442	34.08
