Data from 1710-3_forehead_Reflection__1__147.txt Node

Date: Fri Sep 30 19:15:47 CDT 2022
User: ToomeyLab
Spectrometer: FLMS14357
Trigger mode: 0
Integration Time (sec): 1.000000E-2
Scans to average: 100
Electric dark correction enabled: true
Nonlinearity correction enabled: false
Boxcar width: 0
XAxis mode: Wavelengths
Number of Pixels in Spectrum: 2048
>>>>>Begin Spectral Data<<<<<
189.047	-588.5
189.435	-588.5
189.823	-588.5
190.211	36.94
190.599	122.32
190.987	1325.83
191.375	223.16
191.763	46.78
192.151	-94.68
192.538	122.48
192.926	182.19
193.314	48.47
193.702	-2887.5
194.089	-105.44
194.477	234.28
194.864	13.85
195.252	-65.21
195.639	233.44
196.027	-299.84
196.414	17412.5
196.801	-166.25
197.189	9.61
197.576	255.78
197.963	37.68
198.351	40.43
198.738	33.75
199.125	17.64
199.512	60.24
199.899	0.52
200.286	5.53
200.673	6.62
201.06	18.91
201.447	-9.36
201.833	53.25
202.22	-45.1
202.607	7.71
202.994	-24.28
203.38	23.73
203.767	6.05
204.154	-0.26
204.54	43
204.927	-13.98
205.313	10.19
205.699	70.53
206.086	59.99
206.472	28.24
206.858	51.26
207.245	-77.11
207.631	34.7
208.017	7.73
208.403	8.43
208.789	17.38
209.175	13.87
209.561	-8.21
209.947	34.95
210.333	22.94
210.719	29
211.105	-19.95
211.491	17.89
211.876	25.96
212.262	17.05
212.648	-6.92
213.034	37.06
213.419	31.65
213.805	30.12
214.19	14.02
214.576	23.78
214.961	38.15
215.346	32.77
215.732	25.79
216.117	15.55
216.502	48.75
216.888	-3.32
217.273	19.81
217.658	0.27
218.043	37.37
218.428	21.8
218.813	11.85
219.198	9.27
219.583	-3.66
219.968	0.47
220.353	2.67
220.738	17.38
221.122	25.63
221.507	21.15
221.892	12.53
222.276	1.04
222.661	-3.77
223.046	2.16
223.43	9.43
223.815	9.32
224.199	9.99
224.583	14.81
224.968	3.76
225.352	1.57
225.736	14.73
226.121	2.32
226.505	8
226.889	12.97
227.273	6.25
227.657	-1.55
228.041	2.64
228.425	3.2
228.809	6.53
229.193	1.47
229.577	4.09
229.961	3.19
230.344	2.73
230.728	2.63
231.112	3.77
231.495	2.05
231.879	3.11
232.263	5.14
232.646	4.74
233.03	2.37
233.413	1.63
233.797	0.66
234.18	4.16
234.563	4.94
234.946	2.8
235.33	3.56
235.713	1.59
236.096	2.8
236.479	2.66
236.862	4
237.245	2.3
237.628	2.95
238.011	2.71
238.394	0.78
238.777	2.07
239.16	3
239.543	3.02
239.925	3.28
240.308	1.45
240.691	2.44
241.073	3.24
241.456	3.68
241.838	2.47
242.221	2.72
242.603	2.98
242.986	3.33
243.368	2.02
243.75	2.18
244.133	1.95
244.515	2.38
244.897	2.35
245.279	2.06
245.661	3.9
246.043	2.77
246.425	3.66
246.807	3.17
247.189	2.28
247.571	3.21
247.953	2.3
248.335	2.9
248.717	2.38
249.098	2.61
249.48	2.83
249.862	2.13
250.243	2.83
250.625	2.99
251.006	3.26
251.388	3.42
251.769	3.3
252.151	2.09
252.532	2.26
252.913	2.44
253.295	2.52
253.676	3.08
254.057	2.72
254.438	2.42
254.819	3.01
255.2	3.62
255.581	4.52
255.962	4.2
256.343	3.2
256.724	3.3
257.105	2.03
257.486	3.35
257.867	3.44
258.247	2.46
258.628	2.31
259.009	3.46
259.389	3.46
259.77	2.12
260.15	2.55
260.531	2.85
260.911	2.33
261.292	2.89
261.672	2.34
262.052	2.44
262.432	2.77
262.813	2.95
263.193	3.14
263.573	3.03
263.953	2.96
264.333	2.56
264.713	2.95
265.093	3.35
265.473	3.07
265.853	3.53
266.233	3.41
266.612	2.5
266.992	2.87
267.372	2.95
267.752	2.62
268.131	3.17
268.511	2.38
268.89	2.35
269.27	3.26
269.649	2.38
270.029	2.97
270.408	2.67
270.787	3.07
271.167	2.62
271.546	2.42
271.925	2.36
272.304	3.06
272.683	2.62
273.062	2.55
273.441	1.97
273.82	2.78
274.199	2.56
274.578	2.85
274.957	2.7
275.336	2.49
275.715	2.45
276.093	2.64
276.472	2.52
276.851	3.21
277.229	3.21
277.608	2.39
277.986	2.4
278.365	3.12
278.743	3.24
279.122	1.68
279.5	2.7
279.878	2.47
280.257	2.52
280.635	2.32
281.013	3.09
281.391	2.54
281.769	3.02
282.147	2.55
282.525	3
282.903	2.88
283.281	2.89
283.659	2.9
284.037	2.6
284.415	2.31
284.792	2.8
285.17	2.79
285.548	2.59
285.925	2.47
286.303	2.38
286.68	2.43
287.058	2.2
287.435	2.21
287.813	2.69
288.19	2.5
288.567	2.11
288.945	2.07
289.322	3.43
289.699	2.65
290.076	3.04
290.453	2.81
290.83	2.74
291.207	3.12
291.584	2.72
291.961	3
292.338	2.57
292.715	3.45
293.092	3
293.469	3.28
293.845	3.04
294.222	2.93
294.599	3.31
294.975	3.2
295.352	3.06
295.728	2.99
296.105	3.13
296.481	3.55
296.858	2.69
297.234	2.89
297.61	3.36
297.986	3.53
298.363	2.97
298.739	3.53
299.115	3.28
299.491	3.44
299.867	3.38
300.243	3.23
300.619	3.15
300.995	3.51
301.371	3.83
301.746	3.96
302.122	3.7
302.498	3.48
302.874	3.22
303.249	3.49
303.625	3.41
304	3.85
304.376	3.83
304.751	3.99
305.127	3.41
305.502	3.62
305.878	4.31
306.253	4.79
306.628	3.6
307.003	4.18
307.378	4.01
307.754	4.26
308.129	4.63
308.504	4.79
308.879	5.08
309.254	4.11
309.629	4.41
310.003	4.71
310.378	5.2
310.753	4.62
311.128	4.82
311.502	5.22
311.877	5.12
312.252	4.74
312.626	4.89
313.001	4.93
313.375	5.45
313.75	5.55
314.124	4.96
314.498	5.29
314.873	6.01
315.247	5.87
315.621	5.89
315.995	5.1
316.369	5.84
316.743	5.9
317.117	5.51
317.491	5.52
317.865	6.23
318.239	6.56
318.613	6.01
318.987	6.01
319.361	6.05
319.734	6.56
320.108	5.83
320.482	6.64
320.855	6.59
321.229	6.51
321.602	6.73
321.976	6.85
322.349	6.31
322.723	7.19
323.096	6.98
323.469	7.61
323.843	7.13
324.216	7.05
324.589	7.43
324.962	6.9
325.335	7.74
325.708	7.38
326.081	8.15
326.454	7.64
326.827	8.02
327.2	7.76
327.573	7.91
327.945	8.05
328.318	7.97
328.691	8.15
329.063	7.88
329.436	8.47
329.809	7.95
330.181	7.8
330.553	8.37
330.926	8.43
331.298	8.25
331.671	9.27
332.043	8.61
332.415	8.86
332.787	9.1
333.159	8.7
333.532	9.39
333.904	8.54
334.276	9.27
334.648	9.16
335.02	9.63
335.391	9.3
335.763	8.96
336.135	8.76
336.507	9.82
336.879	9.35
337.25	9.82
337.622	9.74
337.993	9.26
338.365	9.79
338.736	9.84
339.108	9.87
339.479	10.68
339.851	9.82
340.222	9.68
340.593	10.16
340.964	10.25
341.336	10.7
341.707	10.03
342.078	10.22
342.449	9.93
342.82	10.26
343.191	10.34
343.562	10.55
343.933	10.55
344.303	10.49
344.674	10.59
345.045	10.65
345.416	11.05
345.786	10.85
346.157	10.35
346.527	10.95
346.898	11.02
347.268	11.09
347.639	10.85
348.009	11.11
348.38	10.83
348.75	10.91
349.12	11.2
349.49	10.97
349.861	11.8
350.231	11.34
350.601	11.06
350.971	11.42
351.341	11.13
351.711	12.06
352.081	11.78
352.45	11.46
352.82	12.1
353.19	11.78
353.56	11.89
353.929	11.86
354.299	12.23
354.669	11.81
355.038	12
355.408	12.02
355.777	12.52
356.147	12.47
356.516	12.56
356.885	12.56
357.254	12.62
357.624	12.62
357.993	12.27
358.362	12.43
358.731	12.56
359.1	12.65
359.469	12.86
359.838	12.76
360.207	12.79
360.576	12.76
360.945	13.05
361.314	13.03
361.682	13.27
362.051	13.17
362.42	13.06
362.788	13.07
363.157	13.3
363.525	13.37
363.894	13.49
364.262	13.46
364.631	13.3
364.999	13.85
365.367	13.73
365.735	13.81
366.104	13.66
366.472	14.09
366.84	13.8
367.208	13.81
367.576	14.18
367.944	13.98
368.312	13.94
368.68	14.03
369.048	14.23
369.416	14.39
369.783	14.53
370.151	14.49
370.519	14.68
370.886	14.6
371.254	14.59
371.621	14.73
371.989	14.96
372.356	14.74
372.724	14.79
373.091	15.01
373.458	14.54
373.826	14.91
374.193	15.22
374.56	15.26
374.927	15.33
375.294	15
375.661	15.12
376.028	15.27
376.395	15.55
376.762	15.6
377.129	15.33
377.496	15.54
377.863	15.45
378.229	15.69
378.596	15.41
378.963	15.53
379.329	15.88
379.696	15.87
380.062	15.62
380.429	16.06
380.795	15.64
381.161	16
381.528	16.46
381.894	16.24
382.26	16.41
382.626	16.34
382.993	16.44
383.359	16.08
383.725	16.6
384.091	16.58
384.457	16.64
384.823	16.91
385.188	16.87
385.554	16.66
385.92	16.6
386.286	17.11
386.651	17.41
387.017	16.97
387.383	17.19
387.748	17.04
388.114	17.14
388.479	17.25
388.845	17.39
389.21	17.1
389.575	17.4
389.94	17.3
390.306	17.62
390.671	17.39
391.036	17.71
391.401	17.58
391.766	17.53
392.131	17.65
392.496	17.58
392.861	18.01
393.226	17.5
393.591	17.9
393.956	17.8
394.32	17.82
394.685	17.83
395.05	18
395.414	17.92
395.779	18.41
396.143	18.09
396.508	18.24
396.872	18.21
397.236	18.49
397.601	18.5
397.965	18.72
398.329	18.55
398.694	18.74
399.058	18.87
399.422	18.95
399.786	18.99
400.15	18.93
400.514	19.19
400.878	18.75
401.242	18.93
401.605	19.35
401.969	19.03
402.333	19.13
402.697	19.26
403.06	19.17
403.424	19.46
403.787	19.58
404.151	19.32
404.514	19.74
404.878	19.23
405.241	19.55
405.604	19.41
405.968	19.66
406.331	19.63
406.694	19.5
407.057	19.55
407.42	20.01
407.783	19.8
408.146	19.94
408.509	20.01
408.872	19.98
409.235	20.08
409.598	20.01
409.961	20.68
410.323	20.15
410.686	20.31
411.049	20.08
411.411	20.52
411.774	20.09
412.136	20.5
412.499	20.43
412.861	20.52
413.223	20.53
413.586	20.31
413.948	20.64
414.31	21.03
414.672	21.16
415.035	20.83
415.397	20.75
415.759	21.18
416.121	20.98
416.483	20.89
416.845	21.13
417.206	21.06
417.568	20.95
417.93	21.04
418.292	21.18
418.653	21.09
419.015	21.09
419.377	20.99
419.738	21.1
420.1	20.98
420.461	21.15
420.822	21.07
421.184	21.13
421.545	21.19
421.906	21.25
422.267	21.22
422.629	21.1
422.99	21.17
423.351	21.3
423.712	21.33
424.073	21.48
424.434	21.6
424.795	21.64
425.155	21.6
425.516	21.57
425.877	21.51
426.238	21.64
426.598	21.71
426.959	21.85
427.32	21.95
427.68	22.14
428.041	22.23
428.401	22.38
428.761	22.38
429.122	22.53
429.482	22.66
429.842	22.77
430.202	22.76
430.563	22.62
430.923	23.05
431.283	22.85
431.643	23.01
432.003	23.14
432.363	22.92
432.722	22.96
433.082	23.07
433.442	23.17
433.802	23.1
434.161	23.18
434.521	22.99
434.881	23.07
435.24	23.07
435.6	23.22
435.959	23.41
436.319	23.22
436.678	23.58
437.037	23.66
437.396	23.62
437.756	23.88
438.115	23.88
438.474	23.87
438.833	23.85
439.192	23.96
439.551	24.15
439.91	23.88
440.269	23.98
440.628	23.91
440.987	24.05
441.345	23.85
441.704	23.92
442.063	23.81
442.421	23.96
442.78	23.93
443.138	24.05
443.497	24.33
443.855	24.41
444.214	24.57
444.572	24.45
444.93	24.7
445.288	24.78
445.647	24.74
446.005	24.61
446.363	24.76
446.721	24.62
447.079	24.56
447.437	24.54
447.795	24.44
448.153	24.48
448.51	24.57
448.868	24.7
449.226	24.66
449.584	24.91
449.941	25.08
450.299	25.1
450.656	25.55
451.014	25.29
451.371	25.56
451.729	25.49
452.086	25.66
452.443	25.6
452.801	25.79
453.158	25.81
453.515	25.75
453.872	25.9
454.229	25.76
454.586	25.64
454.943	25.75
455.3	26.01
455.657	25.9
456.014	26.15
456.371	26.36
456.727	26.13
457.084	26.25
457.441	26.33
457.797	26.25
458.154	26.56
458.51	26.32
458.867	26.58
459.223	26.6
459.58	26.65
459.936	26.47
460.292	26.56
460.648	26.5
461.005	26.17
461.361	26.08
461.717	26.02
462.073	26.26
462.429	26.5
462.785	26.53
463.141	26.79
463.496	26.95
463.852	27.08
464.208	27.2
464.564	27.36
464.919	27.11
465.275	27.43
465.631	27.54
465.986	27.46
466.342	27.38
466.697	27.33
467.052	27.38
467.408	27.49
467.763	27.7
468.118	27.73
468.473	27.56
468.829	27.59
469.184	27.64
469.539	27.69
469.894	27.82
470.249	27.72
470.603	27.92
470.958	27.82
471.313	28.05
471.668	28.11
472.023	28.02
472.377	28.06
472.732	28.12
473.086	28.4
473.441	28.47
473.795	28.46
474.15	28.35
474.504	28.13
474.859	28.54
475.213	28.44
475.567	28.42
475.921	28.86
476.275	28.84
476.63	28.67
476.984	28.52
477.338	28.85
477.692	28.72
478.045	28.85
478.399	28.85
478.753	28.84
479.107	28.94
479.461	28.91
479.814	28.95
480.168	28.98
480.521	28.95
480.875	29.07
481.228	29.29
481.582	29.31
481.935	29.07
482.289	29.17
482.642	29.39
482.995	29.2
483.348	29.14
483.701	29.03
484.055	29.1
484.408	28.88
484.761	28.57
485.114	28.24
485.466	28.17
485.819	28.3
486.172	28.34
486.525	28.61
486.878	28.69
487.23	28.98
487.583	29.11
487.936	29.17
488.288	29.18
488.641	29.02
488.993	28.86
489.345	28.8
489.698	29.03
490.05	29.04
490.402	29.18
490.754	29.57
491.107	29.62
491.459	29.83
491.811	30
492.163	30.05
492.515	29.83
492.866	29.62
493.218	29.33
493.57	29.41
493.922	29.59
494.274	29.73
494.625	30.12
494.977	30.33
495.328	30.38
495.68	30.74
496.031	30.86
496.383	31.08
496.734	31.15
497.086	31.05
497.437	31.1
497.788	30.92
498.139	30.83
498.49	30.76
498.842	30.73
499.193	30.83
499.544	30.9
499.894	31.03
500.245	31.24
500.596	31.17
500.947	31.38
501.298	31.47
501.648	31.52
501.999	31.65
502.35	31.65
502.7	31.79
503.051	31.9
503.401	31.95
503.752	31.71
504.102	31.87
504.452	31.87
504.803	32
505.153	31.85
505.503	32.07
505.853	31.99
506.203	31.98
506.553	32.12
506.903	32.25
507.253	32.29
507.603	32.19
507.953	32.17
508.303	32.24
508.652	32.39
509.002	32.39
509.352	32.25
509.701	32.26
510.051	32.19
510.4	32.48
510.75	32.26
511.099	32.32
511.449	32.51
511.798	32.39
512.147	32.42
512.496	32.66
512.846	32.63
513.195	32.61
513.544	32.74
513.893	32.81
514.242	32.73
514.591	32.82
514.939	33.06
515.288	33.08
515.637	33.14
515.986	33.21
516.334	33.29
516.683	33.36
517.032	33.34
517.38	33.29
517.729	33.52
518.077	33.5
518.426	33.53
518.774	33.41
519.122	33.43
519.47	33.21
519.819	33.11
520.167	32.99
520.515	33.07
520.863	33.1
521.211	33.36
521.559	33.35
521.907	33.45
522.255	33.5
522.602	33.8
522.95	33.83
523.298	34.11
523.645	34
523.993	33.86
524.341	34.11
524.688	33.94
525.036	34.05
525.383	34.24
525.73	34.15
526.078	34.2
526.425	34.12
526.772	34.03
527.119	33.77
527.466	33.71
527.814	33.81
528.161	33.88
528.508	34.06
528.854	34.08
529.201	33.99
529.548	33.88
529.895	33.34
530.242	33.43
530.588	33.45
530.935	33.55
531.282	33.54
531.628	33.76
531.975	33.98
532.321	34.27
532.667	34.34
533.014	34.5
533.36	34.53
533.706	34.66
534.052	34.64
534.399	34.32
534.745	34.25
535.091	33.96
535.437	34.26
535.783	34.45
536.129	34.67
536.474	34.71
536.82	35.01
537.166	35.03
537.512	35.01
537.857	35.22
538.203	34.86
538.549	34.91
538.894	34.92
539.239	34.99
539.585	35.31
539.93	35.48
540.276	35.73
540.621	35.64
540.966	35.66
541.311	35.89
541.656	35.67
542.001	35.83
542.346	35.45
542.691	35.04
543.036	34.87
543.381	34.86
543.726	35.04
544.071	35.21
544.415	35.52
544.76	35.41
545.105	35.59
545.449	35.65
545.794	35.91
546.138	36.05
546.483	36.26
546.827	36.26
547.171	36.15
547.516	36.16
547.86	36.19
548.204	36.13
548.548	35.94
548.892	36.25
549.236	36.4
549.58	36.57
549.924	36.68
550.268	36.72
550.612	37.14
550.956	37.06
551.3	37
551.643	37.24
551.987	36.96
552.33	37.13
552.674	37.32
553.017	37.49
553.361	37.4
553.704	37.66
554.048	37.2
554.391	37.28
554.734	37.15
555.077	37.19
555.42	37.54
555.764	37.47
556.107	37.33
556.45	37.79
556.793	37.87
557.135	37.94
557.478	37.83
557.821	37.88
558.164	38.16
558.507	38.04
558.849	38.1
559.192	38.05
559.534	37.96
559.877	38.26
560.219	38.34
560.562	38.38
560.904	38.23
561.246	38.03
561.589	38.3
561.931	38.39
562.273	38.19
562.615	38.22
562.957	38.14
563.299	38.55
563.641	38.32
563.983	38.49
564.325	38.64
564.667	38.55
565.008	38.52
565.35	38.5
565.692	38.38
566.033	38.6
566.375	38.73
566.716	38.76
567.058	38.64
567.399	38.53
567.741	38.5
568.082	38.56
568.423	38.45
568.764	38.65
569.105	38.8
569.447	38.81
569.788	39
570.129	39.07
570.47	39.03
570.811	39
571.151	39.12
571.492	39.19
571.833	38.98
572.174	39.46
572.514	39.32
572.855	39.23
573.195	39.12
573.536	39.09
573.876	38.85
574.217	39.12
574.557	39.14
574.898	39.23
575.238	39.35
575.578	39.48
575.918	39.34
576.258	39.4
576.598	39.32
576.938	39.74
577.278	39.38
577.618	39.45
577.958	39.54
578.298	39.73
578.638	39.93
578.977	39.8
579.317	39.98
579.657	40.02
579.996	40.12
580.336	40.05
580.675	40.21
581.014	40.25
581.354	40.05
581.693	40.37
582.032	40.24
582.372	40.22
582.711	40.18
583.05	40.95
583.389	40.44
583.728	40.31
584.067	40.49
584.406	40.84
584.745	40.7
585.083	40.68
585.422	40.48
585.761	41.09
586.1	40.78
586.438	40.7
586.777	40.59
587.115	40.71
587.454	40.67
587.792	41.09
588.13	41.26
588.469	41.18
588.807	41.15
589.145	41.36
589.483	41.19
589.821	41.24
590.159	41.05
590.497	41.39
590.835	41.4
591.173	41.12
591.511	40.97
591.849	40.79
592.187	41.37
592.524	41.09
592.862	41.42
593.2	41.3
593.537	41.64
593.875	41.2
594.212	41.46
594.55	41.53
594.887	41.66
595.224	42.03
595.561	41.69
595.899	41.56
596.236	41.79
596.573	41.48
596.91	41.49
597.247	41.76
597.584	41.76
597.921	41.47
598.258	41.64
598.594	41.46
598.931	41.47
599.268	41.43
599.604	41.83
599.941	41.79
600.277	41.72
600.614	42.03
600.95	41.83
601.287	42.26
601.623	41.95
601.959	42.34
602.296	42.09
602.632	41.97
602.968	42.02
603.304	42.6
603.64	42.32
603.976	42.58
604.312	42.17
604.648	42.31
604.984	42.18
605.319	42.09
605.655	41.91
605.991	41.91
606.326	42.47
606.662	41.94
606.998	42.07
607.333	42.25
607.668	42.36
608.004	42.67
608.339	42.48
608.674	42.64
609.01	42.66
609.345	42.87
609.68	42.94
610.015	42.99
610.35	43.15
610.685	43
611.02	42.45
611.355	42.4
611.689	42.44
612.024	42.48
612.359	42.73
612.694	42.3
613.028	43.34
613.363	42.77
613.697	43.12
614.032	43.08
614.366	43.24
614.7	43.32
615.035	43.57
615.369	43.23
615.703	43.66
616.037	43.33
616.371	43.39
616.705	43.54
617.039	43.73
617.373	43.57
617.707	43.97
618.041	43.51
618.375	43.72
618.709	43.91
619.042	43.88
619.376	43.87
619.71	43.7
620.043	43.66
620.377	43.71
620.71	43.47
621.043	44.16
621.377	43.6
621.71	43.67
622.043	44.27
622.376	43.77
622.709	43.81
623.043	43.96
623.376	44.09
623.709	44.11
624.041	43.99
624.374	44.57
624.707	43.97
625.04	44.16
625.373	44.41
625.705	44.27
626.038	44.37
626.37	44.12
626.703	44.56
627.035	44.16
627.368	44.5
627.7	44.46
628.032	44.06
628.365	44.23
628.697	44.51
629.029	44.15
629.361	44.44
629.693	44.55
630.025	44.78
630.357	44.7
630.689	44.65
631.021	44.46
631.353	44.45
631.684	44.25
632.016	44.33
632.348	44.77
632.679	44.91
633.011	44.9
633.342	45.13
633.674	44.53
634.005	45.57
634.336	45.15
634.668	45.01
634.999	45.14
635.33	45.16
635.661	44.93
635.992	44.9
636.323	45.07
636.654	44.9
636.985	45.26
637.316	45.23
637.647	45.17
637.977	45.26
638.308	45.53
638.639	45.43
638.969	45.19
639.3	45.14
639.63	45.13
639.961	45.81
640.291	44.95
640.622	45.32
640.952	45.45
641.282	45.36
641.612	45.97
641.943	45.61
642.273	45.61
642.603	45.91
642.933	45.79
643.263	45.66
643.592	45.66
643.922	45.89
644.252	45.52
644.582	46.02
644.911	45.96
645.241	46.03
645.571	45.66
645.9	45.37
646.23	45.98
646.559	45.61
646.888	45.33
647.218	46.21
647.547	45.89
647.876	46.18
648.205	45.47
648.534	45.83
648.863	45.99
649.192	46.18
649.521	46.38
649.85	46.3
650.179	46.09
650.508	46.16
650.837	46
651.165	46.02
651.494	45.9
651.822	45.99
652.151	46.38
652.479	46.16
652.808	46.3
653.136	46.59
653.465	45.92
653.793	46.19
654.121	46.48
654.449	46.13
654.777	46.36
655.105	46.73
655.433	46.8
655.761	46.8
656.089	46.55
656.417	46.47
656.745	46.95
657.073	46.31
657.4	47.05
657.728	46.55
658.056	46.4
658.383	47.25
658.711	47.15
659.038	47.08
659.365	46.74
659.693	46.22
660.02	47.18
660.347	47.05
660.674	46.91
661.001	46.94
661.329	46.78
661.656	47.14
661.982	46.98
662.309	46.72
662.636	46.91
662.963	46.92
663.29	47.21
663.616	47.5
663.943	46.84
664.27	47.32
664.596	47.32
664.923	47.62
665.249	46.77
665.576	46.9
665.902	47.75
666.228	47.27
666.554	47.59
666.881	47.44
667.207	47.46
667.533	47.53
667.859	47.92
668.185	47.48
668.511	47.14
668.837	48.39
669.162	47.66
669.488	47.39
669.814	47.52
670.139	47.14
670.465	47.41
670.791	47.49
671.116	47.35
