Data from 1710-3_forehead_Reflection__4__150.txt Node

Date: Fri Sep 30 19:16:19 CDT 2022
User: ToomeyLab
Spectrometer: FLMS14357
Trigger mode: 0
Integration Time (sec): 1.000000E-2
Scans to average: 100
Electric dark correction enabled: true
Nonlinearity correction enabled: false
Boxcar width: 0
XAxis mode: Wavelengths
Number of Pixels in Spectrum: 2048
>>>>>Begin Spectral Data<<<<<
189.047	-259.75
189.435	-259.75
189.823	-259.75
190.211	11.36
190.599	-1221.88
190.987	440.42
191.375	-252.76
191.763	47.85
192.151	176.07
192.538	160.06
192.926	19.29
193.314	-33.49
193.702	-2206.25
194.089	100.87
194.477	158.93
194.864	66.53
195.252	110.44
195.639	-7.07
196.027	-93.75
196.414	26093.75
196.801	24.13
197.189	34.9
197.576	131.07
197.963	184.46
198.351	14.83
198.738	30.84
199.125	40.03
199.512	49.73
199.899	-112.83
200.286	66.72
200.673	-2.31
201.06	4.48
201.447	-12.98
201.833	34.18
202.22	-8.08
202.607	-2.85
202.994	-18.93
203.38	32.26
203.767	4.59
204.154	55.6
204.54	39.69
204.927	-44.79
205.313	50.5
205.699	83.12
206.086	43.81
206.472	29.86
206.858	6.79
207.245	25.92
207.631	76.63
208.017	28.35
208.403	62.79
208.789	47.5
209.175	58.99
209.561	21.63
209.947	50.71
210.333	48.89
210.719	43.68
211.105	6.96
211.491	3.95
211.876	38.95
212.262	44.38
212.648	17.44
213.034	28.38
213.419	59.65
213.805	20.24
214.19	5.85
214.576	64.46
214.961	43
215.346	19.45
215.732	14.74
216.117	55.5
216.502	19.56
216.888	13.42
217.273	30.72
217.658	-17.42
218.043	34.45
218.428	33.12
218.813	17.94
219.198	31.97
219.583	11.98
219.968	21.71
220.353	28.2
220.738	26.22
221.122	27.77
221.507	19.25
221.892	4.32
222.276	18.59
222.661	0.65
223.046	3
223.43	19.52
223.815	18.92
224.199	15.27
224.583	7.59
224.968	5.95
225.352	2.08
225.736	9.78
226.121	7.48
226.505	11.58
226.889	10.38
227.273	9.65
227.657	5.1
228.041	4.59
228.425	3.86
228.809	9.44
229.193	3.64
229.577	4.9
229.961	5.03
230.344	4.59
230.728	3.95
231.112	4.17
231.495	3.8
231.879	4.58
232.263	6.04
232.646	3.65
233.03	5.73
233.413	4.77
233.797	1.58
234.18	2.91
234.563	6.84
234.946	3.17
235.33	2.7
235.713	2.39
236.096	5.76
236.479	3.41
236.862	5.84
237.245	3.72
237.628	4.64
238.011	4.65
238.394	2.36
238.777	4.85
239.16	3.82
239.543	7.46
239.925	2.6
240.308	3.86
240.691	3.95
241.073	4.41
241.456	4.32
241.838	3.88
242.221	4.93
242.603	4.4
242.986	4.73
243.368	4.21
243.75	3.46
244.133	3.73
244.515	3.85
244.897	3.95
245.279	4.1
245.661	5.1
246.043	4.79
246.425	5.15
246.807	3.97
247.189	3.91
247.571	4.95
247.953	3.9
248.335	4.3
248.717	3.99
249.098	4.28
249.48	4.51
249.862	3.96
250.243	4.61
250.625	4.26
251.006	5.18
251.388	4.44
251.769	4.34
252.151	4.25
252.532	4.07
252.913	3.72
253.295	4.54
253.676	4.39
254.057	4.66
254.438	4.24
254.819	5.57
255.2	5.12
255.581	5.08
255.962	5.27
256.343	3.7
256.724	5.34
257.105	3.96
257.486	4.89
257.867	5.55
258.247	4.65
258.628	4.36
259.009	4.23
259.389	4.6
259.77	5.18
260.15	4.12
260.531	4.7
260.911	3.99
261.292	4.47
261.672	4.01
262.052	4.32
262.432	4.78
262.813	4.91
263.193	4.6
263.573	4.42
263.953	4.43
264.333	4.03
264.713	4.27
265.093	4.68
265.473	5.39
265.853	5.19
266.233	4.14
266.612	4.7
266.992	4.4
267.372	4.91
267.752	3.78
268.131	4.42
268.511	4.34
268.89	3.92
269.27	4.23
269.649	4.86
270.029	4.54
270.408	4.05
270.787	4.85
271.167	3.55
271.546	3.69
271.925	4.29
272.304	4.75
272.683	4.29
273.062	4.17
273.441	4
273.82	4.32
274.199	4.08
274.578	4.23
274.957	4.06
275.336	4.2
275.715	4.28
276.093	4.19
276.472	4.57
276.851	4.84
277.229	4.77
277.608	4.14
277.986	3.96
278.365	4.19
278.743	4.56
279.122	3.45
279.5	5.05
279.878	3.98
280.257	4.38
280.635	4.5
281.013	4.69
281.391	4.26
281.769	4.44
282.147	3.84
282.525	4.14
282.903	4.19
283.281	4.25
283.659	4.42
284.037	4.23
284.415	3.91
284.792	4.57
285.17	4.21
285.548	4.35
285.925	4.11
286.303	3.95
286.68	4.23
287.058	4.28
287.435	3.72
287.813	4.03
288.19	4.07
288.567	4.41
288.945	3.99
289.322	4.58
289.699	4.53
290.076	4.57
290.453	4.56
290.83	4.19
291.207	4.72
291.584	4.24
291.961	4.8
292.338	4.58
292.715	4.58
293.092	4.67
293.469	4.65
293.845	5.6
294.222	5.39
294.599	5.14
294.975	5.15
295.352	4.9
295.728	5.14
296.105	5.5
296.481	5.5
296.858	4.78
297.234	4.76
297.61	5.09
297.986	5.07
298.363	5.06
298.739	5.24
299.115	5.32
299.491	5.28
299.867	5.49
300.243	5.48
300.619	5.06
300.995	5.66
301.371	6.06
301.746	6.1
302.122	5.77
302.498	5.7
302.874	5.7
303.249	6
303.625	5.91
304	6.22
304.376	6.38
304.751	6.33
305.127	6.54
305.502	6.4
305.878	6.49
306.253	7.24
306.628	6.69
307.003	7.37
307.378	6.72
307.754	6.86
308.129	7.18
308.504	7.23
308.879	7.21
309.254	7.34
309.629	7.21
310.003	7.17
310.378	7.73
310.753	7.13
311.128	7.13
311.502	7.66
311.877	7.83
312.252	7.83
312.626	7.6
313.001	7.76
313.375	7.4
313.75	8.18
314.124	8.13
314.498	8.37
314.873	8.12
315.247	8.4
315.621	8.38
315.995	8.27
316.369	8.93
316.743	8.62
317.117	9.06
317.491	9.08
317.865	9.34
318.239	9.1
318.613	9.59
318.987	9.64
319.361	9.13
319.734	9.43
320.108	9.43
320.482	10.24
320.855	9.7
321.229	9.95
321.602	10.34
321.976	10.11
322.349	10.47
322.723	10.31
323.096	10.02
323.469	10.97
323.843	10.91
324.216	10.49
324.589	11.09
324.962	10.32
325.335	10.63
325.708	10.93
326.081	11.07
326.454	11
326.827	11.13
327.2	11.39
327.573	11.8
327.945	11.46
328.318	11.63
328.691	11.58
329.063	11.71
329.436	11.7
329.809	11.73
330.181	11.69
330.553	12.36
330.926	12.03
331.298	11.47
331.671	12.78
332.043	12.2
332.415	12.51
332.787	12.76
333.159	12.62
333.532	12.95
333.904	12.78
334.276	12.81
334.648	12.51
335.02	12.88
335.391	12.95
335.763	12.83
336.135	12.96
336.507	13.26
336.879	13.74
337.25	13.33
337.622	12.96
337.993	13.38
338.365	14
338.736	13.69
339.108	13.95
339.479	14.08
339.851	13.67
340.222	13.99
340.593	14.1
340.964	13.92
341.336	14.24
341.707	14
342.078	14.29
342.449	13.83
342.82	14.26
343.191	14.25
343.562	14.47
343.933	14.55
344.303	14.4
344.674	14.25
345.045	14.78
345.416	14.39
345.786	14.76
346.157	14.22
346.527	14.84
346.898	14.47
347.268	14.96
347.639	14.78
348.009	14.98
348.38	15.11
348.75	15.36
349.12	15.34
349.49	15.26
349.861	15.68
350.231	15.95
350.601	15.63
350.971	15.19
351.341	15.66
351.711	15.78
352.081	15.75
352.45	16.08
352.82	15.95
353.19	15.68
353.56	15.61
353.929	15.95
354.299	16.11
354.669	16.2
355.038	16.33
355.408	16.17
355.777	16.56
356.147	16.29
356.516	16.59
356.885	16.58
357.254	16.51
357.624	16.73
357.993	16.78
358.362	16.8
358.731	16.67
359.1	16.75
359.469	17.01
359.838	17.14
360.207	17.71
360.576	17.25
360.945	17.07
361.314	17.21
361.682	17.35
362.051	17.38
362.42	17
362.788	17.52
363.157	17.47
363.525	17.78
363.894	17.45
364.262	17.63
364.631	17.76
364.999	18.26
365.367	18.01
365.735	18.04
366.104	17.76
366.472	18.14
366.84	18.59
367.208	18.34
367.576	18.26
367.944	18.24
368.312	18.63
368.68	18.47
369.048	18.71
369.416	18.63
369.783	18.89
370.151	18.84
370.519	18.68
370.886	19.1
371.254	18.98
371.621	19.36
371.989	19.06
372.356	19.46
372.724	18.95
373.091	19.24
373.458	19.42
373.826	19.19
374.193	19.58
374.56	19.75
374.927	19.85
375.294	19.77
375.661	19.63
376.028	20.01
376.395	19.92
376.762	20.15
377.129	20.12
377.496	19.91
377.863	20.15
378.229	20.22
378.596	19.76
378.963	19.89
379.329	20.3
379.696	20.34
380.062	20.39
380.429	20.27
380.795	20.51
381.161	20.76
381.528	20.74
381.894	20.7
382.26	20.94
382.626	20.84
382.993	21.19
383.359	20.84
383.725	21.2
384.091	20.93
384.457	21.53
384.823	21.42
385.188	21.59
385.554	21.44
385.92	21.48
386.286	21.15
386.651	21.4
387.017	21.22
387.383	21.43
387.748	21.96
388.114	21.47
388.479	22.01
388.845	21.78
389.21	22.01
389.575	22.03
389.94	21.92
390.306	22.06
390.671	22.47
391.036	22.09
391.401	22.38
391.766	22.17
392.131	22.15
392.496	22.32
392.861	22.16
393.226	22.36
393.591	22.43
393.956	22.76
394.32	22.65
394.685	22.54
395.05	22.47
395.414	22.83
395.779	22.94
396.143	22.84
396.508	23.03
396.872	23.02
397.236	23.18
397.601	23.32
397.965	23.39
398.329	23.23
398.694	23.31
399.058	23.51
399.422	23.61
399.786	23.64
400.15	23.57
400.514	23.78
400.878	23.59
401.242	23.52
401.605	23.85
401.969	23.85
402.333	23.98
402.697	24.03
403.06	24.04
403.424	24.18
403.787	24.11
404.151	24.18
404.514	24.42
404.878	24.21
405.241	24.6
405.604	24.25
405.968	24.41
406.331	23.94
406.694	24.14
407.057	24.49
407.42	24.72
407.783	24.73
408.146	24.41
408.509	24.64
408.872	24.85
409.235	24.84
409.598	25.09
409.961	25
410.323	25
410.686	25.05
411.049	25.03
411.411	25.18
411.774	24.98
412.136	25.04
412.499	25.34
412.861	25.56
413.223	25.57
413.586	25.33
413.948	25.37
414.31	25.64
414.672	26
415.035	25.84
415.397	25.57
415.759	25.99
416.121	25.71
416.483	25.69
416.845	25.76
417.206	26.07
417.568	26
417.93	25.69
418.292	25.9
418.653	26.11
419.015	26.01
419.377	25.89
419.738	25.76
420.1	25.58
420.461	25.92
420.822	25.9
421.184	25.97
421.545	26.01
421.906	25.94
422.267	26.16
422.629	25.84
422.99	25.82
423.351	25.94
423.712	26.21
424.073	26.31
424.434	26.46
424.795	26.29
425.155	26.4
425.516	26.24
425.877	26.09
426.238	26.31
426.598	26.27
426.959	26.61
427.32	26.87
427.68	27.01
428.041	27.25
428.401	27.34
428.761	27.26
429.122	27.5
429.482	27.66
429.842	27.72
430.202	27.73
430.563	27.6
430.923	27.82
431.283	27.8
431.643	27.93
432.003	27.93
432.363	28.03
432.722	27.97
433.082	28.18
433.442	27.97
433.802	27.95
434.161	27.97
434.521	27.87
434.881	27.72
435.24	27.74
435.6	28.05
435.959	28.14
436.319	28.16
436.678	28.59
437.037	28.84
437.396	28.58
437.756	28.79
438.115	28.7
438.474	28.8
438.833	28.6
439.192	28.67
439.551	28.95
439.91	28.71
440.269	28.81
440.628	28.66
440.987	28.72
441.345	28.79
441.704	28.69
442.063	28.8
442.421	28.81
442.78	28.78
443.138	28.94
443.497	29.06
443.855	29.42
444.214	29.54
444.572	29.52
444.93	29.55
445.288	29.62
445.647	29.46
446.005	29.48
446.363	29.45
446.721	29.29
447.079	29.23
447.437	29.18
447.795	29.21
448.153	29.17
448.51	29.17
448.868	29.46
449.226	29.5
449.584	29.73
449.941	29.95
450.299	30.06
450.656	30.37
451.014	30.2
451.371	30.43
451.729	30.64
452.086	30.77
452.443	30.98
452.801	30.74
453.158	30.83
453.515	30.84
453.872	30.67
454.229	30.74
454.586	30.62
454.943	30.79
455.3	30.88
455.657	31.03
456.014	30.94
456.371	31.13
456.727	31.07
457.084	31.2
457.441	31.27
457.797	31.29
458.154	31.54
458.51	31.43
458.867	31.61
459.223	31.71
459.58	31.56
459.936	31.65
460.292	31.5
460.648	31.42
461.005	31.12
461.361	30.93
461.717	30.91
462.073	31.08
462.429	31.43
462.785	31.71
463.141	31.87
463.496	31.98
463.852	32.07
464.208	32.35
464.564	32.36
464.919	32.14
465.275	32.38
465.631	32.63
465.986	32.35
466.342	32.24
466.697	32.21
467.052	32.38
467.408	32.3
467.763	32.83
468.118	32.59
468.473	32.73
468.829	32.44
469.184	32.94
469.539	32.71
469.894	33.03
470.249	32.6
470.603	33.06
470.958	33.06
471.313	33
471.668	33.24
472.023	33.01
472.377	33.32
472.732	33.21
473.086	33.24
473.441	33.3
473.795	33.42
474.15	33.42
474.504	33.28
474.859	33.62
475.213	33.61
475.567	33.8
475.921	33.9
476.275	33.79
476.63	33.68
476.984	33.78
477.338	33.78
477.692	33.8
478.045	33.85
478.399	34.11
478.753	33.73
479.107	33.94
479.461	34.12
479.814	34.15
480.168	34.13
480.521	34.03
480.875	34.26
481.228	34.33
481.582	34.26
481.935	34.44
482.289	34.36
482.642	34.49
482.995	34.17
483.348	34.26
483.701	34.26
484.055	34.21
484.408	34.08
484.761	33.65
485.114	33.18
485.466	33.1
485.819	33.26
486.172	33.45
486.525	33.7
486.878	33.95
487.23	34.2
487.583	34.49
487.936	34.43
488.288	34.4
488.641	33.98
488.993	33.86
489.345	33.94
489.698	33.97
490.05	34.15
490.402	34.25
490.754	34.63
491.107	35.07
491.459	35.09
491.811	35.46
492.163	35.24
492.515	35.14
492.866	34.79
493.218	34.3
493.57	34.48
493.922	34.6
494.274	35.07
494.625	35.51
494.977	35.57
495.328	35.71
495.68	35.95
496.031	36.17
496.383	36.29
496.734	36.37
497.086	36.31
497.437	36.34
497.788	36.26
498.139	36.04
498.49	35.85
498.842	36.05
499.193	36.13
499.544	36.07
499.894	36.55
500.245	36.5
500.596	36.36
500.947	36.68
501.298	36.78
501.648	36.71
501.999	36.88
502.35	36.83
502.7	37
503.051	37.28
503.401	37.31
503.752	37.14
504.102	37.17
504.452	37.15
504.803	37.39
505.153	37.19
505.503	37.12
505.853	37.2
506.203	37.27
506.553	37.45
506.903	37.68
507.253	37.7
507.603	37.64
507.953	37.6
508.303	37.66
508.652	37.78
509.002	37.57
509.352	37.49
509.701	37.68
510.051	37.65
510.4	37.57
510.75	37.6
511.099	37.59
511.449	37.72
511.798	37.73
512.147	37.85
512.496	38.05
512.846	38.03
513.195	37.96
513.544	38.07
513.893	38.08
514.242	38.3
514.591	38.37
514.939	38.49
515.288	38.49
515.637	38.68
515.986	38.69
516.334	38.73
516.683	38.75
517.032	39.07
517.38	38.91
517.729	39.03
518.077	39.16
518.426	38.93
518.774	38.98
519.122	38.84
519.47	38.66
519.819	38.62
520.167	38.4
520.515	38.47
520.863	38.62
521.211	38.76
521.559	38.93
521.907	39.08
522.255	39.36
522.602	39.38
522.95	39.57
523.298	39.54
523.645	39.64
523.993	39.49
524.341	39.63
524.688	39.99
525.036	39.73
525.383	39.98
525.73	39.64
526.078	39.96
526.425	39.8
526.772	39.62
527.119	39.47
527.466	39.51
527.814	39.51
528.161	39.58
528.508	39.66
528.854	39.94
529.201	39.93
529.548	39.55
529.895	39.04
530.242	38.96
530.588	39
530.935	39.23
531.282	39.32
531.628	39.56
531.975	39.71
532.321	39.99
532.667	40.3
533.014	40.45
533.36	40.48
533.706	40.49
534.052	40.48
534.399	40.19
534.745	39.9
535.091	39.57
535.437	39.96
535.783	40.18
536.129	40.59
536.474	40.61
536.82	41.04
537.166	41.04
537.512	40.97
537.857	40.94
538.203	40.81
538.549	40.56
538.894	40.8
539.239	41.03
539.585	41.2
539.93	41.5
540.276	41.6
540.621	41.83
540.966	41.92
541.311	42.02
541.656	41.81
542.001	42.03
542.346	41.31
542.691	40.79
543.036	40.48
543.381	40.58
543.726	40.94
544.071	41.17
544.415	41.48
544.76	41.5
545.105	41.72
545.449	41.94
545.794	41.89
546.138	42.08
546.483	42.23
546.827	42.52
547.171	42.26
547.516	42.12
547.86	42.35
548.204	41.99
548.548	41.96
548.892	42.13
549.236	42.42
549.58	42.7
549.924	42.7
550.268	43.01
550.612	43.3
550.956	43.14
551.3	43.32
551.643	43.5
551.987	43.27
552.33	43.47
552.674	43.62
553.017	43.38
553.361	43.55
553.704	43.46
554.048	43.17
554.391	43.2
554.734	43.09
555.077	43.21
555.42	43.73
555.764	43.6
556.107	43.54
556.45	43.95
556.793	43.89
557.135	44.2
557.478	44.23
557.821	44.03
558.164	44.35
558.507	44.1
558.849	44.21
559.192	44.24
559.534	44.11
559.877	44.51
560.219	44.31
560.562	44.44
560.904	44.56
561.246	44.42
561.589	44.61
561.931	44.49
562.273	44.49
562.615	44.53
562.957	44.48
563.299	44.44
563.641	44.73
563.983	44.79
564.325	44.83
564.667	44.82
565.008	44.89
565.35	45
565.692	44.94
566.033	44.77
566.375	45.08
566.716	45.09
567.058	45.23
567.399	44.75
567.741	44.78
568.082	44.59
568.423	44.8
568.764	44.93
569.105	45.29
569.447	45.25
569.788	45.31
570.129	45.66
570.47	45.59
570.811	45.5
571.151	45.45
571.492	45.69
571.833	45.48
572.174	45.88
572.514	45.68
572.855	45.76
573.195	45.59
573.536	45.52
573.876	45.38
574.217	45.52
574.557	45.77
574.898	45.92
575.238	45.95
575.578	46.05
575.918	45.96
576.258	45.86
576.598	45.88
576.938	45.93
577.278	45.95
577.618	46.07
577.958	46.03
578.298	46.04
578.638	46.52
578.977	46.19
579.317	46.51
579.657	46.55
579.996	46.6
580.336	46.62
580.675	46.5
581.014	46.72
581.354	46.36
581.693	47.15
582.032	47.01
582.372	46.91
582.711	46.99
583.05	47.53
583.389	47.37
583.728	47.01
584.067	47.38
584.406	47.33
584.745	47.26
585.083	47.07
585.422	47.34
585.761	47.34
586.1	47.41
586.438	47.19
586.777	47.74
587.115	47.59
587.454	47.7
587.792	47.55
588.13	47.61
588.469	47.76
588.807	47.88
589.145	47.99
589.483	47.92
589.821	48.04
590.159	48.08
590.497	47.68
590.835	47.59
591.173	47.89
591.511	47.96
591.849	47.65
592.187	47.86
592.524	48.07
592.862	48.15
593.2	47.7
593.537	48.03
593.875	48.02
594.212	48.29
594.55	48.17
594.887	48.58
595.224	48.46
595.561	48.3
595.899	48.48
596.236	48.53
596.573	48.42
596.91	48.45
597.247	48.69
597.584	48.58
597.921	48.73
598.258	48.72
598.594	47.88
598.931	48.15
599.268	48.49
599.604	48.68
599.941	48.6
600.277	48.85
600.614	49.14
600.95	48.78
601.287	49.01
601.623	49.16
601.959	49.35
602.296	49.6
602.632	49.13
602.968	49.53
603.304	49.58
603.64	49.32
603.976	49.65
604.312	49.39
604.648	49.29
604.984	48.83
605.319	49.08
605.655	49.15
605.991	48.97
606.326	48.94
606.662	48.77
606.998	49.02
607.333	49.01
607.668	49.44
608.004	49.59
608.339	49.51
608.674	49.85
609.01	49.71
609.345	50.04
609.68	50.03
610.015	49.81
610.35	50.01
610.685	49.67
611.02	49.75
611.355	49.53
611.689	49.33
612.024	49.77
612.359	49.96
612.694	49.82
613.028	50.06
613.363	50.14
613.697	50.19
614.032	50.27
614.366	50.43
614.7	50.28
615.035	50.94
615.369	50.47
615.703	50.58
616.037	50.38
616.371	50.75
616.705	50.51
617.039	50.75
617.373	50.67
617.707	50.63
618.041	50.84
618.375	50.64
618.709	51
619.042	51.08
619.376	51.33
619.71	51.1
620.043	51.14
620.377	50.94
620.71	51.06
621.043	50.91
621.377	51.24
621.71	50.88
622.043	51.35
622.376	51.25
622.709	51.15
623.043	51.28
623.376	51.32
623.709	51.62
624.041	51.22
624.374	51.48
624.707	51.58
625.04	51.61
625.373	51.71
625.705	51.59
626.038	51.73
626.37	51.54
626.703	51.77
627.035	51.75
627.368	51.63
627.7	51.7
628.032	51.75
628.365	51.57
628.697	51.59
629.029	51.24
629.361	51.74
629.693	51.52
630.025	51.62
630.357	51.92
630.689	52.09
631.021	51.71
631.353	52.26
631.684	51.62
632.016	51.84
632.348	51.94
632.679	52.01
633.011	52.44
633.342	52.13
633.674	52.19
634.005	52.71
634.336	52.67
634.668	52.3
634.999	52.6
635.33	52.31
635.661	52.28
635.992	52.37
636.323	52.46
636.654	52.42
636.985	52.26
637.316	52.49
637.647	52.26
637.977	52.84
638.308	52.93
638.639	53.06
638.969	52.47
639.3	52.53
639.63	52.94
639.961	53.11
640.291	52.49
640.622	52.96
640.952	53.33
641.282	53.37
641.612	53.29
641.943	53.43
642.273	52.85
642.603	53.31
642.933	53.22
643.263	53.13
643.592	53
643.922	52.85
644.252	53.53
644.582	53.79
644.911	53.23
645.241	53.43
645.571	53.24
645.9	53.54
646.23	53.78
646.559	53.24
646.888	53.35
647.218	53.57
647.547	53.26
647.876	53.89
648.205	53.97
648.534	53.32
648.863	53.57
649.192	54.12
649.521	53.75
649.85	53.78
650.179	53.73
650.508	53.8
650.837	53.41
651.165	54.41
651.494	53.79
651.822	53.79
652.151	53.84
652.479	53.87
652.808	54.1
653.136	54.21
653.465	54.21
653.793	53.95
654.121	53.96
654.449	54.39
654.777	54.03
655.105	54.32
655.433	54.25
655.761	54.46
656.089	54.91
656.417	53.9
656.745	55
657.073	53.99
657.4	54.55
657.728	54.78
658.056	54.16
658.383	54.25
658.711	54.71
659.038	54.51
659.365	54.33
659.693	54.29
660.02	54.64
660.347	54.58
660.674	54.45
661.001	54.56
661.329	54.39
661.656	54.46
661.982	54.61
662.309	54.42
662.636	54.8
662.963	54.81
663.29	55.5
663.616	55.08
663.943	54.82
664.27	55.11
664.596	55.46
664.923	54.7
665.249	54.87
665.576	55.29
665.902	55.71
666.228	54.92
666.554	55.06
666.881	55.69
667.207	55.18
667.533	56.18
667.859	55.54
668.185	54.76
668.511	54.9
668.837	55.99
669.162	54.99
669.488	55.15
669.814	55.75
