Data from 0064_crown_Reflection__0__229.txt Node

Date: Fri Dec 16 15:45:22 CST 2022
User: ToomeyLab
Spectrometer: FLMS14357
Trigger mode: 0
Integration Time (sec): 1.000000E-2
Scans to average: 100
Electric dark correction enabled: true
Nonlinearity correction enabled: false
Boxcar width: 0
XAxis mode: Wavelengths
Number of Pixels in Spectrum: 2048
>>>>>Begin Spectral Data<<<<<
189.047	199.34
189.435	199.34
189.823	199.34
190.211	-195.89
190.599	39.72
190.987	-82.1
191.375	-92.15
191.763	-2163.13
192.151	121.93
192.538	31.87
192.926	4.26
193.314	95.59
193.702	5.83
194.089	111.43
194.477	19.78
194.864	83.19
195.252	-46.41
195.639	206.17
196.027	-191.97
196.414	-67.56
196.801	-119.09
197.189	70.49
197.576	-117.58
197.963	-119.39
198.351	27.54
198.738	-10.56
199.125	23.53
199.512	14.09
199.899	-36.41
200.286	-42.39
200.673	58.3
201.06	42.17
201.447	12.82
201.833	29.4
202.22	25.03
202.607	18.5
202.994	35.94
203.38	-28.82
203.767	-25.87
204.154	-68.07
204.54	-10.95
204.927	2.29
205.313	66.82
205.699	11.09
206.086	5.28
206.472	-1.62
206.858	-1.75
207.245	25.93
207.631	5.38
208.017	18.95
208.403	-24.2
208.789	-35.99
209.175	45.24
209.561	25.11
209.947	-22.16
210.333	-14.71
210.719	-40.04
211.105	-44.39
211.491	-20.37
211.876	-6.11
212.262	-90.26
212.648	-31.66
213.034	-25.05
213.419	15.66
213.805	-6.12
214.19	-20.88
214.576	1.38
214.961	-8.07
215.346	-127.68
215.732	5.01
216.117	-25.68
216.502	-38.89
216.888	-27.73
217.273	18.77
217.658	-12.69
218.043	18.57
218.428	2.56
218.813	-21.66
219.198	-41
219.583	-21.64
219.968	-9.46
220.353	19
220.738	-2.38
221.122	-25.78
221.507	-24.77
221.892	7.11
222.276	11.13
222.661	-21.09
223.046	0.4
223.43	7.08
223.815	7.38
224.199	19.02
224.583	-1.58
224.968	0.52
225.352	-2.36
225.736	2.6
226.121	-7.06
226.505	6.24
226.889	7.51
227.273	1.31
227.657	0.32
228.041	1.27
228.425	4.29
228.809	1.78
229.193	-0.62
229.577	2.28
229.961	1.18
230.344	2.48
230.728	2.54
231.112	2.27
231.495	2.28
231.879	2.36
232.263	0.6
232.646	1.23
233.03	-0.44
233.413	1.08
233.797	3.93
234.18	0.37
234.563	1.14
234.946	2.19
235.33	3
235.713	2.59
236.096	1.33
236.479	1.54
236.862	2.36
237.245	3.63
237.628	2.94
238.011	1.39
238.394	2.79
238.777	2.42
239.16	-0.2
239.543	0.78
239.925	1.54
240.308	3.25
240.691	1.79
241.073	1.16
241.456	2.78
241.838	2.89
242.221	2.32
242.603	1.89
242.986	2.65
243.368	2.23
243.75	2.23
244.133	2.33
244.515	2.33
244.897	1.79
245.279	3.4
245.661	2.47
246.043	2.47
246.425	1.43
246.807	1.98
247.189	2.54
247.571	2.38
247.953	2.29
248.335	2.54
248.717	2.49
249.098	2.55
249.48	2.11
249.862	2.54
250.243	2.55
250.625	2.54
251.006	2.54
251.388	2.78
251.769	2
252.151	2.93
252.532	2.37
252.913	2.31
253.295	1.92
253.676	2.56
254.057	2.39
254.438	2
254.819	1.7
255.2	2.61
255.581	1.8
255.962	2.32
256.343	2.87
256.724	1.94
257.105	2.33
257.486	1.82
257.867	1.32
258.247	2.48
258.628	3.45
259.009	1.52
259.389	2.47
259.77	1.77
260.15	2.91
260.531	2.6
260.911	2.35
261.292	2.29
261.672	2.36
262.052	2.07
262.432	2.15
262.813	2.34
263.193	1.55
263.573	1.84
263.953	2.18
264.333	1.94
264.713	1.75
265.093	1.17
265.473	2.96
265.853	2.24
266.233	2.19
266.612	2.56
266.992	1.74
267.372	1.78
267.752	1.81
268.131	1.93
268.511	2.55
268.89	2.45
269.27	2.61
269.649	2.57
270.029	2.32
270.408	1.79
270.787	2.15
271.167	2.04
271.546	1.79
271.925	2.84
272.304	2.16
272.683	1.8
273.062	2.3
273.441	2.28
273.82	2.31
274.199	2.4
274.578	1.97
274.957	2.38
275.336	1.99
275.715	2.62
276.093	2.36
276.472	2.67
276.851	2.53
277.229	2.41
277.608	2.13
277.986	1.71
278.365	2.02
278.743	2.35
279.122	2.16
279.5	1.94
279.878	1.51
280.257	2.32
280.635	2.06
281.013	2.67
281.391	2.24
281.769	1.73
282.147	2.67
282.525	1.5
282.903	2.18
283.281	1.75
283.659	2.25
284.037	2.14
284.415	2.63
284.792	2.07
285.17	1.77
285.548	1.82
285.925	2.1
286.303	2.07
286.68	2.55
287.058	1.85
287.435	2.02
287.813	2.33
288.19	2.72
288.567	1.96
288.945	1.62
289.322	1.41
289.699	2.45
290.076	2.31
290.453	1.92
290.83	2.07
291.207	2.15
291.584	2.1
291.961	2.21
292.338	2.03
292.715	2.53
293.092	2.38
293.469	2.49
293.845	2.41
294.222	2.03
294.599	2.69
294.975	2.53
295.352	2.06
295.728	2.5
296.105	2.07
296.481	2.92
296.858	2.28
297.234	2.43
297.61	2.01
297.986	2.4
298.363	1.69
298.739	2.34
299.115	1.65
299.491	2.07
299.867	2.36
300.243	2
300.619	2.03
300.995	2.47
301.371	2.36
301.746	2.6
302.122	2.61
302.498	2.49
302.874	2.35
303.249	2.2
303.625	2.11
304	2.01
304.376	2.23
304.751	1.99
305.127	2.16
305.502	2.56
305.878	2.09
306.253	2.26
306.628	2.58
307.003	2.04
307.378	1.42
307.754	2.35
308.129	1.9
308.504	2.24
308.879	2.66
309.254	3.02
309.629	1.97
310.003	2.75
310.378	2.53
310.753	2.46
311.128	2.29
311.502	2.24
311.877	1.94
312.252	1.96
312.626	1.96
313.001	2.09
313.375	2.49
313.75	2.15
314.124	2.69
314.498	2.27
314.873	1.94
315.247	1.63
315.621	2.58
315.995	1.86
316.369	2.24
316.743	2.65
317.117	2.13
317.491	2.11
317.865	1.56
318.239	2.71
318.613	2.35
318.987	2.49
319.361	2.43
319.734	1.79
320.108	2.29
320.482	2.16
320.855	2.35
321.229	2.49
321.602	2.24
321.976	2.43
322.349	1.18
322.723	1.92
323.096	2.1
323.469	1.52
323.843	2.35
324.216	1.54
324.589	2.61
324.962	2.06
325.335	1.89
325.708	2.39
326.081	3.01
326.454	2.63
326.827	2.43
327.2	2.23
327.573	2.12
327.945	2.49
328.318	2.51
328.691	2.7
329.063	2.06
329.436	2.31
329.809	1.91
330.181	2.69
330.553	3.17
330.926	2.5
331.298	2.06
331.671	2.42
332.043	2.31
332.415	2.26
332.787	2.86
333.159	2.04
333.532	2.39
333.904	2.88
334.276	2.33
334.648	2.06
335.02	2.04
335.391	2.89
335.763	2.1
336.135	2.35
336.507	2.49
336.879	2.17
337.25	2.36
337.622	2.49
337.993	2.3
338.365	2.47
338.736	2.54
339.108	2.18
339.479	2.28
339.851	2.69
340.222	2.15
340.593	2.1
340.964	2.39
341.336	1.64
341.707	2.29
342.078	2.17
342.449	3.02
342.82	2.29
343.191	2.03
343.562	2.09
343.933	2.08
344.303	2.47
344.674	2.36
345.045	2.77
345.416	2.01
345.786	1.97
346.157	2.65
346.527	2.44
346.898	2.4
347.268	2.07
347.639	2.44
348.009	2.59
348.38	2.74
348.75	2.23
349.12	2.62
349.49	2.4
349.861	2.79
350.231	2.85
350.601	2.22
350.971	2.77
351.341	2.36
351.711	2.41
352.081	2.16
352.45	2.85
352.82	2.49
353.19	2.21
353.56	2.43
353.929	2.23
354.299	2.14
354.669	2.19
355.038	2.36
355.408	2.79
355.777	2.27
356.147	2.53
356.516	2.72
356.885	2.21
357.254	2.5
357.624	2.54
357.993	2.33
358.362	2.38
358.731	2.53
359.1	2.29
359.469	2.44
359.838	2.46
360.207	2.44
360.576	2.64
360.945	2.2
361.314	2.58
361.682	2.41
362.051	2.23
362.42	2.66
362.788	2.56
363.157	2.21
363.525	2.3
363.894	2.27
364.262	2.23
364.631	3.05
364.999	2.28
365.367	2.69
365.735	2.19
366.104	2.44
366.472	2.59
366.84	2.69
367.208	2.36
367.576	2.53
367.944	2.83
368.312	2.09
368.68	2.57
369.048	2.63
369.416	1.88
369.783	2.39
370.151	2.41
370.519	2.25
370.886	2.88
371.254	2.56
371.621	2.66
371.989	2.41
372.356	2.46
372.724	2.47
373.091	2.49
373.458	2.48
373.826	2.62
374.193	2.93
374.56	2.34
374.927	2.6
375.294	2.56
375.661	2.61
376.028	2.65
376.395	2.26
376.762	2.72
377.129	2.27
377.496	2.54
377.863	2.16
378.229	2.45
378.596	2.11
378.963	2.48
379.329	2.6
379.696	2.66
380.062	2.52
380.429	2.64
380.795	2.37
381.161	2.21
381.528	2.07
381.894	2.72
382.26	2.28
382.626	2.31
382.993	2.49
383.359	2.45
383.725	2.67
384.091	2.75
384.457	2.36
384.823	2.6
385.188	2.6
385.554	2.64
385.92	2.65
386.286	2.63
386.651	2.41
387.017	2.84
387.383	2.55
387.748	2.45
388.114	2.61
388.479	2.62
388.845	2.47
389.21	2.76
389.575	2.65
389.94	2.54
390.306	2.45
390.671	2.62
391.036	2.6
391.401	3.04
391.766	2.51
392.131	2.65
392.496	2.64
392.861	2.46
393.226	2.59
393.591	2.8
393.956	2.56
394.32	2.36
394.685	2.66
395.05	2.56
395.414	2.61
395.779	2.49
396.143	2.52
396.508	2.66
396.872	2.53
397.236	2.42
397.601	2.94
397.965	2.3
398.329	2.69
398.694	2.49
399.058	2.67
399.422	2.67
399.786	2.45
400.15	2.47
400.514	2.56
400.878	2.7
401.242	2.91
401.605	2.47
401.969	2.49
402.333	2.38
402.697	2.85
403.06	2.78
403.424	2.69
403.787	2.82
404.151	2.44
404.514	2.71
404.878	2.73
405.241	3.01
405.604	2.78
405.968	2.62
406.331	2.8
406.694	2.72
407.057	3.07
407.42	2.8
407.783	2.74
408.146	2.46
408.509	2.67
408.872	2.47
409.235	2.7
409.598	2.83
409.961	2.85
410.323	2.75
410.686	2.57
411.049	2.45
411.411	2.73
411.774	2.69
412.136	2.49
412.499	2.51
412.861	2.42
413.223	2.78
413.586	2.51
413.948	2.65
414.31	3.01
414.672	2.51
415.035	2.79
415.397	2.8
415.759	2.65
416.121	3.03
416.483	2.87
416.845	2.83
417.206	2.74
417.568	2.78
417.93	2.52
418.292	2.73
418.653	2.63
419.015	2.74
419.377	2.76
419.738	2.52
420.1	2.67
420.461	2.62
420.822	2.78
421.184	2.64
421.545	2.63
421.906	2.69
422.267	2.65
422.629	2.72
422.99	2.72
423.351	2.67
423.712	2.67
424.073	2.84
424.434	2.67
424.795	2.64
425.155	2.67
425.516	2.66
425.877	2.78
426.238	2.59
426.598	2.72
426.959	2.52
427.32	2.77
427.68	2.82
428.041	2.76
428.401	2.79
428.761	2.61
429.122	2.65
429.482	2.66
429.842	2.79
430.202	2.65
430.563	2.72
430.923	2.68
431.283	2.93
431.643	2.78
432.003	2.82
432.363	2.81
432.722	2.74
433.082	2.77
433.442	2.78
433.802	2.92
434.161	2.72
434.521	2.8
434.881	2.8
435.24	2.77
435.6	2.7
435.959	2.66
436.319	2.87
436.678	2.88
437.037	2.79
437.396	2.9
437.756	2.94
438.115	2.89
438.474	2.88
438.833	2.79
439.192	2.97
439.551	2.94
439.91	2.78
440.269	2.92
440.628	2.84
440.987	2.72
441.345	2.69
441.704	2.75
442.063	2.76
442.421	2.85
442.78	2.74
443.138	2.8
443.497	2.73
443.855	2.89
444.214	2.83
444.572	2.85
444.93	2.94
445.288	2.98
445.647	2.81
446.005	2.75
446.363	2.87
446.721	2.77
447.079	2.81
447.437	2.78
447.795	2.74
448.153	2.8
448.51	2.73
448.868	2.85
449.226	2.8
449.584	2.83
449.941	2.89
450.299	2.74
450.656	2.95
451.014	2.93
451.371	2.9
451.729	2.88
452.086	2.85
452.443	2.81
452.801	2.97
453.158	2.85
453.515	2.68
453.872	2.81
454.229	2.83
454.586	2.8
454.943	2.72
455.3	2.86
455.657	2.74
456.014	2.9
456.371	2.85
456.727	2.97
457.084	2.87
457.441	2.86
457.797	2.94
458.154	2.81
458.51	2.84
458.867	2.68
459.223	2.8
459.58	2.73
459.936	2.71
460.292	2.98
460.648	2.79
461.005	2.77
461.361	2.8
461.717	2.87
462.073	2.98
462.429	2.91
462.785	2.86
463.141	2.9
463.496	2.78
463.852	3
464.208	2.77
464.564	2.82
464.919	2.8
465.275	2.94
465.631	2.82
465.986	2.78
466.342	2.93
466.697	2.87
467.052	2.82
467.408	2.91
467.763	2.72
468.118	2.89
468.473	2.98
468.829	2.89
469.184	3.09
469.539	2.81
469.894	2.85
470.249	2.93
470.603	3.05
470.958	3.01
471.313	2.87
471.668	3.08
472.023	3.06
472.377	2.81
472.732	2.83
473.086	2.7
473.441	2.87
473.795	3.04
474.15	3.02
474.504	2.98
474.859	2.92
475.213	2.75
475.567	2.93
475.921	3.13
476.275	3.08
476.63	2.9
476.984	2.93
477.338	3.05
477.692	2.93
478.045	2.84
478.399	2.93
478.753	3.01
479.107	2.91
479.461	3
479.814	2.95
480.168	3.04
480.521	2.86
480.875	3.04
481.228	3.11
481.582	2.9
481.935	2.86
482.289	2.87
482.642	2.92
482.995	2.96
483.348	2.87
483.701	2.88
484.055	2.9
484.408	2.89
484.761	2.74
485.114	2.76
485.466	2.75
485.819	2.8
486.172	2.84
486.525	2.9
486.878	2.87
487.23	2.89
487.583	2.9
487.936	2.93
488.288	2.85
488.641	2.84
488.993	2.75
489.345	2.81
489.698	2.89
490.05	2.88
490.402	2.9
490.754	2.95
491.107	2.95
491.459	3.06
491.811	3.04
492.163	3.02
492.515	2.96
492.866	2.75
493.218	2.86
493.57	2.93
493.922	2.88
494.274	3
494.625	3.01
494.977	3.03
495.328	3.08
495.68	3.16
496.031	3.05
496.383	2.99
496.734	3.04
497.086	2.87
497.437	3.03
497.788	2.98
498.139	3.09
498.49	2.99
498.842	3.03
499.193	3.02
499.544	3.19
499.894	3.06
500.245	2.95
500.596	3.13
500.947	2.95
501.298	3.04
501.648	3.1
501.999	3.17
502.35	3.09
502.7	3.1
503.051	3.13
503.401	3.1
503.752	2.99
504.102	3.03
504.452	2.88
504.803	2.92
505.153	3.04
505.503	3.04
505.853	2.96
506.203	3.02
506.553	3.04
506.903	3.08
507.253	3.07
507.603	3.04
507.953	3.2
508.303	3.08
508.652	3.01
509.002	3.14
509.352	2.89
509.701	3.15
510.051	3.13
510.4	3.12
510.75	3.12
511.099	3.05
511.449	3.02
511.798	3.17
512.147	3.17
512.496	3.18
512.846	3.05
513.195	3.15
513.544	3.02
513.893	2.99
514.242	3.11
514.591	3.15
514.939	2.95
515.288	3.12
515.637	3.12
515.986	3.07
516.334	3.18
516.683	3.12
517.032	3.18
517.38	3.14
517.729	3.18
518.077	3.24
518.426	3.12
518.774	3.06
519.122	3.11
519.47	3.06
519.819	3.08
520.167	3.12
520.515	3.08
520.863	3.13
521.211	3.18
521.559	3.12
521.907	3.13
522.255	3.18
522.602	3.26
522.95	3.18
523.298	3.08
523.645	3.06
523.993	3.28
524.341	3.18
524.688	3.05
525.036	3.3
525.383	3.29
525.73	3.23
526.078	3.25
526.425	3.16
526.772	3.03
527.119	3.13
527.466	3.1
527.814	3.12
528.161	3.16
528.508	3.13
528.854	3.03
529.201	3.1
529.548	3.02
529.895	2.95
530.242	2.96
530.588	3.06
530.935	3.04
531.282	3.1
531.628	3.1
531.975	3.15
532.321	3.15
532.667	3.16
533.014	3.16
533.36	3.07
533.706	3.13
534.052	3.06
534.399	3.06
534.745	3
535.091	3.09
535.437	3.13
535.783	3.14
536.129	3.23
536.474	3.25
536.82	3.22
537.166	3.08
537.512	3.25
537.857	3.14
538.203	3.09
538.549	3.25
538.894	3.16
539.239	3.34
539.585	3.34
539.93	3.2
540.276	3.14
540.621	3.22
540.966	3.28
541.311	3.21
541.656	3.18
542.001	3.22
542.346	3.22
542.691	3.05
543.036	3.09
543.381	3.18
543.726	3.2
544.071	3.3
544.415	3.23
544.76	3.18
545.105	3.2
545.449	3.2
545.794	3.21
546.138	3.33
546.483	3.24
546.827	3.27
547.171	3.21
547.516	3.31
547.86	3.31
548.204	3.18
548.548	3.33
548.892	3.33
549.236	3.32
549.58	3.38
549.924	3.31
550.268	3.39
550.612	3.44
550.956	3.16
551.3	3.27
551.643	3.24
551.987	3.48
552.33	3.28
552.674	3.45
553.017	3.46
553.361	3.27
553.704	3.28
554.048	3.53
554.391	3.21
554.734	3.41
555.077	3.39
555.42	3.39
555.764	3.43
556.107	3.24
556.45	3.21
556.793	3.42
557.135	3.62
557.478	3.44
557.821	3.16
558.164	3.42
558.507	3.26
558.849	3.32
559.192	3.34
559.534	3.31
559.877	3.5
560.219	3.47
560.562	3.43
560.904	3.32
561.246	3.59
561.589	3.4
561.931	3.61
562.273	3.32
562.615	3.46
562.957	3.31
563.299	3.42
563.641	3.47
563.983	3.35
564.325	3.44
564.667	3.37
565.008	3.32
565.35	3.71
565.692	3.49
566.033	3.35
566.375	3.21
566.716	3.37
567.058	3.55
567.399	3.35
567.741	3.41
568.082	3.35
568.423	3.45
568.764	3.42
569.105	3.41
569.447	3.44
569.788	3.45
570.129	3.37
570.47	3.53
570.811	3.38
571.151	3.44
571.492	3.45
571.833	3.54
572.174	3.49
572.514	3.42
572.855	3.42
573.195	3.32
573.536	3.43
573.876	3.49
574.217	3.44
574.557	3.34
574.898	3.31
575.238	3.43
575.578	3.57
575.918	3.42
576.258	3.51
576.598	3.47
576.938	3.6
577.278	3.36
577.618	3.37
577.958	3.36
578.298	3.6
578.638	3.48
578.977	3.35
579.317	3.57
579.657	3.61
579.996	3.51
580.336	3.49
580.675	3.55
581.014	3.49
581.354	3.63
581.693	3.36
582.032	3.5
582.372	3.62
582.711	3.58
583.05	3.62
583.389	3.57
583.728	3.85
584.067	3.44
584.406	3.48
584.745	3.48
585.083	3.74
585.422	3.65
585.761	3.63
586.1	3.61
586.438	3.44
586.777	3.5
587.115	3.6
587.454	3.62
587.792	3.46
588.13	3.93
588.469	3.73
588.807	3.62
589.145	3.72
589.483	3.47
589.821	3.5
590.159	3.48
590.497	3.17
590.835	3.38
591.173	3.72
591.511	3.68
591.849	3.48
592.187	3.64
592.524	3.57
592.862	3.76
593.2	3.61
593.537	3.48
593.875	3.76
594.212	3.7
594.55	3.56
594.887	3.77
595.224	3.55
595.561	3.44
595.899	3.62
596.236	3.66
596.573	3.45
596.91	3.67
597.247	3.5
597.584	3.5
597.921	3.62
598.258	3.48
598.594	3.35
598.931	3.57
599.268	3.48
599.604	3.68
599.941	3.66
600.277	3.62
600.614	3.54
600.95	3.77
601.287	3.75
601.623	3.86
601.959	3.69
602.296	3.63
602.632	3.83
602.968	3.69
603.304	3.63
603.64	3.6
603.976	3.74
604.312	3.91
604.648	3.82
604.984	3.47
605.319	3.79
605.655	3.54
605.991	3.66
606.326	3.53
606.662	3.64
606.998	3.66
607.333	3.72
607.668	3.66
608.004	3.77
608.339	3.75
608.674	3.68
609.01	3.53
609.345	3.74
609.68	3.6
610.015	3.5
610.35	3.75
610.685	3.54
611.02	3.71
611.355	3.73
611.689	3.52
612.024	3.78
612.359	3.68
612.694	3.96
613.028	4.01
613.363	3.74
613.697	3.7
614.032	3.72
614.366	3.55
614.7	4.07
615.035	3.63
615.369	3.78
615.703	4.01
616.037	3.67
616.371	3.64
616.705	3.95
617.039	3.89
617.373	3.73
617.707	3.68
618.041	4.03
618.375	3.56
618.709	4.17
619.042	3.65
619.376	3.68
619.71	3.69
620.043	3.81
620.377	3.82
620.71	3.53
621.043	3.53
621.377	3.71
621.71	4.17
622.043	3.69
622.376	3.69
622.709	3.98
623.043	3.74
623.376	3.91
623.709	3.91
624.041	3.83
624.374	3.67
624.707	3.34
625.04	3.99
625.373	3.84
625.705	4.02
626.038	3.68
626.37	4
626.703	3.48
627.035	4.06
627.368	3.96
627.7	4.2
628.032	3.76
628.365	3.78
628.697	3.56
629.029	4.24
629.361	3.65
629.693	3.98
630.025	4.03
630.357	4.18
630.689	3.99
631.021	4.06
631.353	4.04
631.684	3.7
632.016	3.84
632.348	3.94
632.679	3.54
633.011	3.74
633.342	3.62
633.674	3.72
634.005	3.74
634.336	4.2
634.668	3.8
634.999	4.09
635.33	3.76
635.661	4.02
635.992	4.07
636.323	3.78
636.654	3.88
636.985	3.76
637.316	3.7
637.647	3.95
637.977	4.18
638.308	3.62
638.639	3.9
638.969	3.63
639.3	3.77
639.63	3.33
639.961	3.93
640.291	4.5
640.622	3.96
640.952	3.8
641.282	3.41
641.612	3.96
641.943	4.02
642.273	3.93
642.603	3.92
642.933	3.99
643.263	4.47
643.592	4.24
643.922	4.14
644.252	4.05
644.582	3.87
644.911	3.81
645.241	3.85
645.571	3.94
645.9	4.31
646.23	3.36
646.559	4.17
646.888	3.97
647.218	4.02
647.547	3.79
647.876	4.23
648.205	3.45
648.534	3.95
648.863	4.03
649.192	3.65
649.521	4.11
649.85	4.06
650.179	3.38
650.508	4.15
650.837	3.73
651.165	3.92
651.494	3.91
651.822	3.79
652.151	4.56
652.479	4.28
652.808	3.73
653.136	3.83
653.465	4.21
653.793	4.27
654.121	4.39
654.449	4.02
654.777	3.79
655.105	4.19
655.433	4.37
655.761	3.72
656.089	4.19
656.417	3.88
656.745	4.65
657.073	4.44
657.4	4.16
657.728	4.42
658.056	3.8
658.383	4.27
658.711	3.85
659.038	4.26
659.365	4.24
659.693	3.98
660.02	4.12
660.347	4.26
660.674	3.94
661.001	3.87
661.329	4.19
661.656	3.97
661.982	4.06
662.309	4.29
662.636	3.93
662.963	4.24
663.29	4.06
663.616	4.44
663.943	4.06
664.27	4.32
664.596	3.95
664.923	4.48
665.249	4.78
665.576	4.34
665.902	3.9
666.228	3.86
666.554	4.23
666.881	3.87
667.207	3.82
667.533	4.26
667.859	3.92
668.185	3.86
668.511	3.56
668.837	3.62
669.162	4.24
669.488	4.27
669.814	4.34
670.139	5.12
670.465	3.79
670.791	4.42
671.116	4.19
671.442	3.92
671.767	4.37
672.092	4.58
672.418	4.3
672.743	4.24
673.068	4.02
673.393	4.21
673.718	3.96
674.043	4.39
674.368	4.43
674.693	4.35
675.018	4.38
675.343	4.26
675.667	3.72
675.992	4.25
676.317	4.7
676.641	4.38
676.966	4.2
677.29	3.72
677.615	4.46
677.939	4.36
678.264	4.22
678.588	4.43
678.912	4.38
679.236	4.44
679.56	3.91
679.885	4.5
680.209	4.21
680.532	4.18
680.856	5.01
681.18	4.39
681.504	3.84
681.828	3.85
682.152	4
682.475	4.31
682.799	4.76
683.122	4.32
683.446	4.12
683.769	4.41
684.093	4.63
684.416	4.02
684.739	5.2
685.062	4.34
685.386	3.76
685.709	4.26
686.032	4.58
686.355	4.43
686.678	4.08
687.001	3.73
687.324	3.83
687.646	4.6
687.969	4.31
688.292	4.83
688.614	4.8
688.937	3.67
689.26	3.78
689.582	4.15
689.904	4.75
690.227	5.03
690.549	4.57
690.871	4.73
691.194	4.93
691.516	4.48
691.838	3.92
