Data from 0064_chest_Reflection__0__223.txt Node

Date: Fri Dec 16 15:43:13 CST 2022
User: ToomeyLab
Spectrometer: FLMS14357
Trigger mode: 0
Integration Time (sec): 1.000000E-2
Scans to average: 100
Electric dark correction enabled: true
Nonlinearity correction enabled: false
Boxcar width: 0
XAxis mode: Wavelengths
Number of Pixels in Spectrum: 2048
>>>>>Begin Spectral Data<<<<<
189.047	91.38
189.435	91.38
189.823	91.38
190.211	-300.59
190.599	-2.28
190.987	-91.03
191.375	106.21
191.763	-1341.47
192.151	-734.9
192.538	104.33
192.926	19.82
193.314	70.33
193.702	64.8
194.089	-325.41
194.477	28.77
194.864	-134.02
195.252	254.15
195.639	177.41
196.027	-108.91
196.414	-85.75
196.801	-20.64
197.189	25.56
197.576	271.2
197.963	583.68
198.351	11.69
198.738	-74.13
199.125	27.67
199.512	2.55
199.899	22.57
200.286	-53.37
200.673	39.22
201.06	11.22
201.447	14.11
201.833	11.55
202.22	-10.05
202.607	18.59
202.994	10.79
203.38	34.99
203.767	-11.26
204.154	-149.65
204.54	-23.66
204.927	9.25
205.313	49.34
205.699	20.63
206.086	7.39
206.472	-32.96
206.858	34.55
207.245	26.01
207.631	-50.79
208.017	9.97
208.403	4.81
208.789	18.01
209.175	60.88
209.561	3.47
209.947	-30.44
210.333	-8.32
210.719	-11.92
211.105	-57.23
211.491	9.33
211.876	9.82
212.262	-141.91
212.648	-94.78
213.034	-6.83
213.419	11.28
213.805	8.25
214.19	-22.62
214.576	16.34
214.961	11.89
215.346	-87.08
215.732	4.73
216.117	23.01
216.502	-4.11
216.888	-25.28
217.273	16.46
217.658	-10.71
218.043	1.05
218.428	5.15
218.813	-12.88
219.198	-25.07
219.583	8.84
219.968	12.73
220.353	-16.03
220.738	11.69
221.122	-2.69
221.507	14.45
221.892	-0.46
222.276	-18.97
222.661	-6.31
223.046	-7.47
223.43	-0.63
223.815	7.71
224.199	5.62
224.583	-0.61
224.968	12.52
225.352	-9.23
225.736	8.31
226.121	-2.97
226.505	6.05
226.889	11.09
227.273	1.1
227.657	3.04
228.041	11.68
228.425	5.34
228.809	4.03
229.193	2.99
229.577	3.72
229.961	4.72
230.344	4.9
230.728	4.39
231.112	4.51
231.495	4.34
231.879	4.86
232.263	4.16
232.646	4.5
233.03	2.88
233.413	2.99
233.797	7.22
234.18	0.04
234.563	3.52
234.946	5.35
235.33	5.68
235.713	4.07
236.096	3.85
236.479	5.47
236.862	4.93
237.245	4.5
237.628	5.75
238.011	3.87
238.394	5.91
238.777	4.19
239.16	1.84
239.543	3.11
239.925	3.71
240.308	3.94
240.691	5.66
241.073	3.3
241.456	4.16
241.838	4.86
242.221	4.27
242.603	3.88
242.986	5.44
243.368	4.74
243.75	4.43
244.133	4.7
244.515	4.3
244.897	4.65
245.279	4.59
245.661	4.04
246.043	4.55
246.425	3.49
246.807	5.15
247.189	3.86
247.571	4.84
247.953	4.28
248.335	4.73
248.717	4.73
249.098	4.67
249.48	4.54
249.862	4.81
250.243	4.94
250.625	4.55
251.006	4.32
251.388	4.91
251.769	4.62
252.151	5.12
252.532	5
252.913	4.66
253.295	5.18
253.676	4.41
254.057	4.1
254.438	4.41
254.819	5.19
255.2	4.53
255.581	4.42
255.962	4.73
256.343	3.88
256.724	3.28
257.105	4.04
257.486	4.62
257.867	2.47
258.247	4.06
258.628	4.97
259.009	4.78
259.389	4.96
259.77	4.17
260.15	4.97
260.531	4.58
260.911	4.61
261.292	4.34
261.672	4.34
262.052	4.3
262.432	3.96
262.813	4.23
263.193	3.99
263.573	4.45
263.953	4.3
264.333	4.05
264.713	3.73
265.093	3.7
265.473	5.45
265.853	4.34
266.233	3.24
266.612	4.29
266.992	3.83
267.372	4.38
267.752	4.1
268.131	3.98
268.511	4.19
268.89	4.98
269.27	4.53
269.649	4.7
270.029	4.28
270.408	4.31
270.787	4.38
271.167	4.6
271.546	3.67
271.925	4.55
272.304	3.95
272.683	4.45
273.062	4.75
273.441	4.44
273.82	4.41
274.199	4.07
274.578	3.89
274.957	4.36
275.336	3.93
275.715	4.29
276.093	4.65
276.472	5.22
276.851	4.39
277.229	4.89
277.608	4.22
277.986	4.72
278.365	3.87
278.743	3.96
279.122	3.85
279.5	4.27
279.878	3.82
280.257	4.56
280.635	3.5
281.013	4.55
281.391	3.68
281.769	3.99
282.147	4.59
282.525	4.07
282.903	4.56
283.281	3.84
283.659	4.52
284.037	4.04
284.415	4.31
284.792	4.58
285.17	3.99
285.548	4
285.925	4.33
286.303	3.92
286.68	4.56
287.058	4.1
287.435	3.74
287.813	4.12
288.19	4.61
288.567	4.04
288.945	4.18
289.322	4.31
289.699	3.77
290.076	4.37
290.453	4.54
290.83	4.62
291.207	4.25
291.584	3.93
291.961	4.46
292.338	4.4
292.715	4.26
293.092	3.99
293.469	4.22
293.845	4.45
294.222	4.13
294.599	4.78
294.975	4.49
295.352	4.28
295.728	4.45
296.105	4.35
296.481	5.19
296.858	4.58
297.234	4.47
297.61	4.72
297.986	4.53
298.363	4.16
298.739	4.65
299.115	4.28
299.491	4.29
299.867	4.5
300.243	3.99
300.619	4.67
300.995	4.61
301.371	5.06
301.746	4.6
302.122	4.95
302.498	4.74
302.874	4.88
303.249	4.72
303.625	4.61
304	4.05
304.376	4.29
304.751	5.11
305.127	4.54
305.502	4.98
305.878	4.6
306.253	4.7
306.628	4.75
307.003	5.15
307.378	4.49
307.754	4.92
308.129	4.75
308.504	4.69
308.879	4.92
309.254	4.79
309.629	4.8
310.003	5.17
310.378	4.92
310.753	4.95
311.128	4.41
311.502	4.81
311.877	5.24
312.252	4.74
312.626	4.56
313.001	4.91
313.375	4.79
313.75	4.59
314.124	4.92
314.498	4.82
314.873	4.52
315.247	4.47
315.621	4.91
315.995	4.85
316.369	4.8
316.743	5.4
317.117	4.83
317.491	4.96
317.865	4.39
318.239	4.94
318.613	4.73
318.987	4.75
319.361	4.67
319.734	4.88
320.108	4.97
320.482	5.1
320.855	5.22
321.229	5.42
321.602	5.27
321.976	5.02
322.349	4.01
322.723	4.66
323.096	4.32
323.469	4.55
323.843	5.08
324.216	4.53
324.589	5.45
324.962	5.13
325.335	4.57
325.708	5.01
326.081	5.17
326.454	5.01
326.827	4.7
327.2	5.4
327.573	5.16
327.945	5.28
328.318	5.03
328.691	5.27
329.063	4.51
329.436	4.96
329.809	4.82
330.181	4.61
330.553	5.24
330.926	4.76
331.298	4.74
331.671	4.87
332.043	5.54
332.415	5.03
332.787	5.51
333.159	4.74
333.532	5.21
333.904	5.46
334.276	4.74
334.648	4.77
335.02	4.68
335.391	5.07
335.763	4.9
336.135	5.14
336.507	5.29
336.879	4.79
337.25	5.49
337.622	5.13
337.993	5.03
338.365	4.73
338.736	4.89
339.108	4.67
339.479	4.79
339.851	5.41
340.222	5.14
340.593	5.09
340.964	4.55
341.336	4.6
341.707	5.28
342.078	4.71
342.449	5.26
342.82	5.21
343.191	4.66
343.562	5.09
343.933	5.29
344.303	5.13
344.674	5.05
345.045	5.03
345.416	5.45
345.786	5
346.157	4.79
346.527	4.85
346.898	4.83
347.268	5.25
347.639	5.08
348.009	4.94
348.38	4.94
348.75	5.29
349.12	4.99
349.49	4.7
349.861	5.43
350.231	5.29
350.601	5.33
350.971	4.9
351.341	4.79
351.711	5.04
352.081	5.4
352.45	5.08
352.82	5.16
353.19	4.72
353.56	4.89
353.929	5.04
354.299	5.38
354.669	5.3
355.038	5.12
355.408	5.28
355.777	5.23
356.147	5.55
356.516	5.44
356.885	5.04
357.254	5.37
357.624	5.63
357.993	4.98
358.362	5.27
358.731	5.35
359.1	5.39
359.469	4.94
359.838	5.33
360.207	4.98
360.576	4.96
360.945	4.96
361.314	5.12
361.682	4.84
362.051	4.97
362.42	5.27
362.788	5.17
363.157	4.98
363.525	5.1
363.894	4.92
364.262	4.8
364.631	5.51
364.999	4.87
365.367	5.19
365.735	4.85
366.104	4.9
366.472	5.43
366.84	5.38
367.208	4.73
367.576	5.25
367.944	5.42
368.312	4.6
368.68	5.43
369.048	5.31
369.416	5.12
369.783	5.31
370.151	5.38
370.519	5.01
370.886	4.97
371.254	5.17
371.621	5.13
371.989	5.25
372.356	5.07
372.724	5.09
373.091	5.3
373.458	5.01
373.826	5.33
374.193	5.46
374.56	5.25
374.927	5.1
375.294	5.26
375.661	5.42
376.028	5.24
376.395	5.16
376.762	5.31
377.129	5.44
377.496	5.16
377.863	5.17
378.229	5.19
378.596	5.09
378.963	5.07
379.329	5.02
379.696	5.45
380.062	5.29
380.429	4.94
380.795	5.09
381.161	4.96
381.528	4.75
381.894	5.47
382.26	4.94
382.626	5.17
382.993	5
383.359	5.07
383.725	5.29
384.091	5.15
384.457	5.49
384.823	5.36
385.188	5.62
385.554	5.31
385.92	5.5
386.286	5.46
386.651	4.91
387.017	5.27
387.383	5.18
387.748	5.08
388.114	5.3
388.479	5.31
388.845	5.31
389.21	5.36
389.575	5.45
389.94	5.33
390.306	5.29
390.671	5.11
391.036	5.53
391.401	5.83
391.766	5.3
392.131	5.37
392.496	5.27
392.861	5.03
393.226	5.48
393.591	5.46
393.956	5.52
394.32	5.16
394.685	5.34
395.05	5.28
395.414	5.34
395.779	5.19
396.143	5.27
396.508	5.4
396.872	5.5
397.236	4.9
397.601	5.57
397.965	5.09
398.329	5.77
398.694	5.28
399.058	5.28
399.422	5.62
399.786	5.33
400.15	5.56
400.514	5.32
400.878	5.38
401.242	5.48
401.605	5.38
401.969	5.38
402.333	5.1
402.697	5.79
403.06	5.51
403.424	5.11
403.787	5.65
404.151	5.47
404.514	5.54
404.878	5.48
405.241	5.54
405.604	5.33
405.968	5.15
406.331	5.36
406.694	5.2
407.057	5.51
407.42	5.29
407.783	5.53
408.146	5.34
408.509	5.15
408.872	5.24
409.235	5.52
409.598	5.57
409.961	5.28
410.323	5.38
410.686	5.39
411.049	5.45
411.411	5.5
411.774	5.39
412.136	5.51
412.499	5.28
412.861	5.22
413.223	5.37
413.586	5.41
413.948	5.46
414.31	5.84
414.672	5.48
415.035	5.6
415.397	5.48
415.759	5.43
416.121	5.51
416.483	5.57
416.845	5.44
417.206	5.6
417.568	5.5
417.93	5.38
418.292	5.5
418.653	5.44
419.015	5.52
419.377	5.47
419.738	5.33
420.1	5.3
420.461	5.33
420.822	5.49
421.184	5.52
421.545	5.45
421.906	5.55
422.267	5.35
422.629	5.49
422.99	5.44
423.351	5.29
423.712	5.45
424.073	5.5
424.434	5.31
424.795	5.4
425.155	5.42
425.516	5.39
425.877	5.46
426.238	5.28
426.598	5.5
426.959	5.34
427.32	5.44
427.68	5.56
428.041	5.53
428.401	5.44
428.761	5.44
429.122	5.43
429.482	5.5
429.842	5.42
430.202	5.53
430.563	5.57
430.923	5.52
431.283	5.67
431.643	5.59
432.003	5.52
432.363	5.54
432.722	5.53
433.082	5.49
433.442	5.54
433.802	5.67
434.161	5.59
434.521	5.75
434.881	5.69
435.24	5.64
435.6	5.57
435.959	5.49
436.319	5.46
436.678	5.71
437.037	5.75
437.396	5.62
437.756	5.51
438.115	5.66
438.474	5.56
438.833	5.72
439.192	5.86
439.551	5.66
439.91	5.72
440.269	5.79
440.628	5.71
440.987	5.66
441.345	5.66
441.704	5.74
442.063	5.61
442.421	5.7
442.78	5.58
443.138	5.55
443.497	5.67
443.855	5.65
444.214	5.73
444.572	5.67
444.93	5.58
445.288	5.71
445.647	5.75
446.005	5.55
446.363	5.76
446.721	5.6
447.079	5.69
447.437	5.72
447.795	5.57
448.153	5.56
448.51	5.61
448.868	5.83
449.226	5.55
449.584	5.66
449.941	5.78
450.299	5.67
450.656	5.73
451.014	5.78
451.371	5.76
451.729	5.82
452.086	5.7
452.443	5.7
452.801	5.76
453.158	5.82
453.515	5.64
453.872	5.79
454.229	5.74
454.586	5.75
454.943	5.7
455.3	5.93
455.657	5.71
456.014	5.87
456.371	5.86
456.727	5.55
457.084	5.81
457.441	5.85
457.797	5.83
458.154	5.88
458.51	5.96
458.867	5.59
459.223	5.64
459.58	5.87
459.936	5.73
460.292	5.79
460.648	5.69
461.005	5.69
461.361	5.76
461.717	5.7
462.073	5.82
462.429	5.72
462.785	5.86
463.141	5.92
463.496	5.78
463.852	5.91
464.208	5.89
464.564	5.93
464.919	5.88
465.275	5.93
465.631	5.79
465.986	5.84
466.342	5.94
466.697	5.85
467.052	6
467.408	6
467.763	5.85
468.118	6.08
468.473	6.01
468.829	5.91
469.184	6.01
469.539	5.82
469.894	6.03
470.249	5.97
470.603	6.01
470.958	6.01
471.313	5.79
471.668	6.11
472.023	6.2
472.377	5.94
472.732	6.01
473.086	5.93
473.441	6.07
473.795	6.29
474.15	5.96
474.504	5.94
474.859	6.06
475.213	6.13
475.567	6.03
475.921	6.04
476.275	6.12
476.63	5.97
476.984	6.12
477.338	6.28
477.692	5.97
478.045	5.94
478.399	6.06
478.753	5.93
479.107	6.02
479.461	6.15
479.814	6.03
480.168	6.01
480.521	6.03
480.875	6.2
481.228	6.13
481.582	6.02
481.935	6.01
482.289	5.99
482.642	6.14
482.995	6.04
483.348	5.96
483.701	5.95
484.055	5.98
484.408	5.98
484.761	5.82
485.114	5.77
485.466	5.77
485.819	5.78
486.172	5.8
486.525	5.9
486.878	5.87
487.23	6.02
487.583	6.02
487.936	6.03
488.288	5.95
488.641	5.91
488.993	5.86
489.345	5.88
489.698	5.95
490.05	5.93
490.402	6.01
490.754	6.1
491.107	6.07
491.459	6.08
491.811	6.08
492.163	6.17
492.515	6.11
492.866	5.97
493.218	5.98
493.57	5.99
493.922	5.98
494.274	6.08
494.625	6.02
494.977	6.13
495.328	6.25
495.68	6.37
496.031	6.28
496.383	6.26
496.734	6.34
497.086	6.14
497.437	6.35
497.788	6.24
498.139	6.28
498.49	6.43
498.842	6.23
499.193	6.27
499.544	6.26
499.894	6.31
500.245	6.34
500.596	6.27
500.947	6.33
501.298	6.31
501.648	6.32
501.999	6.45
502.35	6.44
502.7	6.53
503.051	6.51
503.401	6.55
503.752	6.31
504.102	6.38
504.452	6.26
504.803	6.36
505.153	6.46
505.503	6.49
505.853	6.34
506.203	6.48
506.553	6.4
506.903	6.44
507.253	6.5
507.603	6.43
507.953	6.7
508.303	6.56
508.652	6.48
509.002	6.44
509.352	6.46
509.701	6.48
510.051	6.54
510.4	6.42
510.75	6.53
511.099	6.43
511.449	6.45
511.798	6.64
512.147	6.61
512.496	6.57
512.846	6.56
513.195	6.39
513.544	6.43
513.893	6.33
514.242	6.51
514.591	6.64
514.939	6.57
515.288	6.7
515.637	6.69
515.986	6.51
516.334	6.66
516.683	6.65
517.032	6.62
517.38	6.67
517.729	6.7
518.077	6.67
518.426	6.63
518.774	6.55
519.122	6.66
519.47	6.7
519.819	6.61
520.167	6.55
520.515	6.54
520.863	6.56
521.211	6.68
521.559	6.69
521.907	6.64
522.255	6.78
522.602	6.89
522.95	6.81
523.298	6.74
523.645	6.81
523.993	6.89
524.341	6.9
524.688	6.79
525.036	6.96
525.383	6.74
525.73	6.86
526.078	6.95
526.425	6.75
526.772	6.68
527.119	6.73
527.466	6.8
527.814	6.81
528.161	6.82
528.508	6.85
528.854	6.75
529.201	6.7
529.548	6.68
529.895	6.63
530.242	6.63
530.588	6.71
530.935	6.69
531.282	6.72
531.628	6.77
531.975	6.84
532.321	6.85
532.667	6.87
533.014	7.01
533.36	6.93
533.706	6.94
534.052	6.86
534.399	6.88
534.745	6.83
535.091	6.87
535.437	6.88
535.783	6.94
536.129	7.01
536.474	7.14
536.82	7.08
537.166	7.1
537.512	7.14
537.857	7.16
538.203	7.04
538.549	7.15
538.894	7.14
539.239	7.28
539.585	7.3
539.93	7.25
540.276	7.22
540.621	7.29
540.966	7.3
541.311	7.31
541.656	7.27
542.001	7.24
542.346	7.19
542.691	7.13
543.036	7.07
543.381	7.19
543.726	7.19
544.071	7.19
544.415	7.33
544.76	7.21
545.105	7.27
545.449	7.26
545.794	7.37
546.138	7.42
546.483	7.37
546.827	7.49
547.171	7.51
547.516	7.6
547.86	7.59
548.204	7.44
548.548	7.59
548.892	7.59
549.236	7.54
549.58	7.62
549.924	7.61
550.268	7.76
550.612	7.83
550.956	7.68
551.3	7.81
551.643	7.71
551.987	7.68
552.33	7.8
552.674	7.7
553.017	7.85
553.361	7.88
553.704	7.56
554.048	7.77
554.391	7.65
554.734	7.82
555.077	7.96
555.42	7.77
555.764	7.77
556.107	8.06
556.45	7.87
556.793	7.95
557.135	8.25
557.478	8.15
557.821	7.97
558.164	8.07
558.507	7.98
558.849	8.04
559.192	8
559.534	8.15
559.877	8.34
560.219	8.19
560.562	8.19
560.904	8.12
561.246	8.21
561.589	8.29
561.931	8.25
562.273	8.23
562.615	8.25
562.957	8.08
563.299	8.42
563.641	8.31
563.983	8.28
564.325	8.06
564.667	8.29
565.008	8.28
565.35	8.61
565.692	8.35
566.033	8.43
566.375	8.41
566.716	8.46
567.058	8.63
567.399	8.63
567.741	8.48
568.082	8.43
568.423	8.5
568.764	8.53
569.105	8.52
569.447	8.65
569.788	8.7
570.129	8.54
570.47	8.79
570.811	8.71
571.151	8.65
571.492	8.69
571.833	8.74
572.174	8.79
572.514	8.77
572.855	8.89
573.195	8.74
573.536	8.81
573.876	8.88
574.217	8.93
574.557	8.91
574.898	8.85
575.238	8.79
575.578	8.95
575.918	8.97
576.258	8.94
576.598	9.02
576.938	9.22
577.278	9.1
577.618	9.15
577.958	9.12
578.298	9.2
578.638	9.09
578.977	9.24
579.317	9.23
579.657	9.15
579.996	9.2
580.336	9.37
580.675	9.29
581.014	9.26
581.354	9.37
581.693	9.29
582.032	9.2
582.372	9.38
582.711	9.41
583.05	9.67
583.389	9.48
583.728	9.62
584.067	9.45
584.406	9.61
584.745	9.32
585.083	9.58
585.422	9.5
585.761	9.69
586.1	9.72
586.438	9.79
586.777	9.9
587.115	9.9
587.454	9.84
587.792	9.69
588.13	10.04
588.469	9.87
588.807	9.97
589.145	9.97
589.483	9.75
589.821	9.8
590.159	9.96
590.497	10.06
590.835	10.08
591.173	10.15
591.511	10.23
591.849	10.18
592.187	10.24
592.524	10
592.862	10.2
593.2	10.21
593.537	10.15
593.875	10.11
594.212	10.16
594.55	10.3
594.887	10.67
595.224	10.09
595.561	10.32
595.899	10.22
596.236	10.54
596.573	10.24
596.91	10.39
597.247	10.46
597.584	10.46
597.921	10.37
598.258	10.57
598.594	10.34
598.931	10.49
599.268	10.51
599.604	10.55
599.941	10.56
600.277	10.61
600.614	10.69
600.95	10.67
601.287	10.78
601.623	10.95
601.959	10.74
602.296	10.72
602.632	11
602.968	10.79
603.304	10.78
603.64	10.96
603.976	10.94
604.312	10.88
604.648	10.96
604.984	10.92
605.319	10.99
605.655	11.09
605.991	10.96
606.326	10.95
606.662	10.96
606.998	11.07
607.333	11.03
607.668	11
608.004	11.16
608.339	11
608.674	11.2
609.01	11.51
609.345	11.41
609.68	11.36
610.015	11.36
610.35	11.45
610.685	11.38
611.02	11.57
611.355	11.57
611.689	11.39
612.024	11.6
612.359	11.58
612.694	11.65
613.028	11.69
613.363	11.45
613.697	11.56
614.032	11.64
614.366	11.66
614.7	12.01
615.035	11.51
615.369	11.87
615.703	12.58
616.037	11.98
616.371	12.03
616.705	11.92
617.039	12.01
617.373	11.94
617.707	12.04
618.041	12.51
618.375	11.86
618.709	11.93
619.042	11.89
619.376	11.82
619.71	12.22
620.043	12.02
620.377	12.4
620.71	12.36
621.043	11.83
621.377	11.89
621.71	12.28
622.043	12.21
622.376	12.13
622.709	12.89
623.043	12.51
623.376	12.38
623.709	12.99
624.041	12.2
624.374	12.48
624.707	12.54
625.04	12.67
625.373	12.05
625.705	12.31
626.038	12.58
626.37	12.59
626.703	12.75
627.035	12.47
627.368	12.94
627.7	13
628.032	12.78
628.365	12.75
628.697	12.72
629.029	13.18
629.361	12.7
629.693	13.27
630.025	13
630.357	13.03
630.689	13.37
631.021	13.07
631.353	13.2
631.684	13
632.016	12.97
632.348	13.25
632.679	13.1
633.011	13.12
633.342	13.04
633.674	12.99
634.005	13.4
634.336	13.42
634.668	13.25
634.999	13.36
635.33	13.42
635.661	13.66
635.992	13.26
636.323	13.57
636.654	13.47
636.985	13.08
637.316	13.74
637.647	13.51
637.977	13.37
638.308	13.65
638.639	13.62
638.969	13.44
639.3	13.69
639.63	13.52
639.961	13.71
640.291	14.07
640.622	13.96
640.952	14.01
641.282	13.18
641.612	13.78
641.943	14.05
642.273	13.8
642.603	13.76
642.933	14.08
643.263	14.12
643.592	14.41
643.922	14.3
644.252	14.07
644.582	13.75
644.911	13.7
645.241	14.06
645.571	14.02
645.9	14.56
646.23	14.16
646.559	14.28
646.888	13.75
647.218	14.14
647.547	14.29
647.876	14.59
648.205	13.94
648.534	14.04
648.863	14.86
649.192	14.39
649.521	14.25
649.85	14.73
650.179	14.39
650.508	14.47
650.837	14.54
651.165	14.83
651.494	14.84
651.822	15.05
652.151	14.42
652.479	15.05
652.808	14.51
653.136	14.8
653.465	15.04
653.793	15.2
654.121	15.18
654.449	14.66
654.777	15.11
655.105	14.9
655.433	15.53
655.761	15.13
656.089	14.95
656.417	14.76
656.745	15.35
657.073	15.71
657.4	15.32
657.728	15.36
658.056	15.48
658.383	15.29
658.711	15.26
659.038	16.15
659.365	15.58
659.693	15.1
660.02	15.36
660.347	15.91
660.674	15.37
661.001	15.28
661.329	15.49
661.656	15.44
661.982	15.41
662.309	15.28
662.636	15.5
662.963	16.15
663.29	15.91
663.616	16.27
663.943	16.08
664.27	15.45
664.596	15.47
664.923	15.91
665.249	15.81
665.576	15.84
665.902	16.52
666.228	15.78
666.554	15.19
666.881	16.37
667.207	15.83
667.533	15.76
667.859	16.02
668.185	16.45
668.511	16.07
668.837	15.84
669.162	16.42
669.488	16.34
669.814	16.61
670.139	16.94
670.465	16.57
670.791	16.19
671.116	16.3
671.442	16.15
671.767	16.34
672.092	16.49
672.418	16.53
672.743	16.14
673.068	16.57
673.393	16.82
673.718	16.5
674.043	17.2
674.368	17.23
674.693	16.48
675.018	16.27
675.343	17.3
675.667	16.74
675.992	16.21
676.317	17
676.641	17.45
676.966	16.8
677.29	16.85
677.615	17.07
677.939	16.96
678.264	17.11
678.588	16.87
678.912	17.92
679.236	16.81
679.56	17.27
679.885	17.51
680.209	16.27
680.532	17.29
680.856	16.96
681.18	17.03
681.504	16.66
681.828	17.18
682.152	17.2
682.475	17.21
682.799	17.43
683.122	16.92
683.446	17.46
683.769	17.28
684.093	17.72
684.416	17.58
684.739	17.14
685.062	18.06
685.386	17.8
685.709	17.13
