Data from 0064_crown_Reflection__3__232.txt Node

Date: Fri Dec 16 15:45:51 CST 2022
User: ToomeyLab
Spectrometer: FLMS14357
Trigger mode: 0
Integration Time (sec): 1.000000E-2
Scans to average: 100
Electric dark correction enabled: true
Nonlinearity correction enabled: false
Boxcar width: 0
XAxis mode: Wavelengths
Number of Pixels in Spectrum: 2048
>>>>>Begin Spectral Data<<<<<
189.047	279.78
189.435	279.78
189.823	279.78
190.211	-437.15
190.599	-59.12
190.987	29.28
191.375	21.87
191.763	-162.67
192.151	-269.92
192.538	26.71
192.926	-32.04
193.314	71.35
193.702	355.17
194.089	630.31
194.477	-8.86
194.864	130.01
195.252	414.21
195.639	262
196.027	66.99
196.414	18.69
196.801	-13.12
197.189	131.49
197.576	-56.09
197.963	250.04
198.351	-17.33
198.738	-38.29
199.125	12.67
199.512	33.86
199.899	-42.18
200.286	-60.17
200.673	36.95
201.06	5.88
201.447	37.88
201.833	7.3
202.22	22.84
202.607	18.77
202.994	10.22
203.38	-39.46
203.767	-10.37
204.154	-58.8
204.54	54.27
204.927	18.32
205.313	27.65
205.699	5.58
206.086	-42.21
206.472	11.76
206.858	23.78
207.245	66.78
207.631	-32.72
208.017	8.92
208.403	7.4
208.789	-27.71
209.175	50.28
209.561	-3.68
209.947	14.91
210.333	-67.95
210.719	10.86
211.105	-54.21
211.491	3.22
211.876	-28.17
212.262	-85.94
212.648	-49.93
213.034	-18.06
213.419	21.21
213.805	-4.58
214.19	-7.81
214.576	-14.34
214.961	-1.29
215.346	-36.12
215.732	-7.27
216.117	-7.03
216.502	-27.18
216.888	-29.32
217.273	-3.6
217.658	-20.5
218.043	-10.08
218.428	22.56
218.813	-26.05
219.198	-32.75
219.583	5.06
219.968	4.55
220.353	17.24
220.738	18.08
221.122	6.4
221.507	-0.42
221.892	-4.83
222.276	1.29
222.661	7.86
223.046	-0.99
223.43	-13.32
223.815	-2.66
224.199	10.42
224.583	-2.16
224.968	1.41
225.352	-2.11
225.736	0.78
226.121	0.33
226.505	7.83
226.889	3.95
227.273	3.39
227.657	-2.06
228.041	3.2
228.425	1.73
228.809	4.89
229.193	0.67
229.577	1.51
229.961	2.46
230.344	2.8
230.728	2.77
231.112	1.67
231.495	2.79
231.879	2.17
232.263	1.2
232.646	0.7
233.03	1.38
233.413	3.75
233.797	5
234.18	-0.62
234.563	0.6
234.946	1.89
235.33	1.12
235.713	1.68
236.096	2.02
236.479	2.38
236.862	1.53
237.245	2.87
237.628	2.54
238.011	1.82
238.394	5.32
238.777	0.08
239.16	1.51
239.543	2.49
239.925	2.78
240.308	3.01
240.691	3.81
241.073	2.56
241.456	1.74
241.838	2.82
242.221	2.71
242.603	2.52
242.986	3.13
243.368	2.39
243.75	2.51
244.133	2.65
244.515	2.65
244.897	2.82
245.279	2.42
245.661	3.12
246.043	3
246.425	1.75
246.807	3.13
247.189	2.14
247.571	2.18
247.953	2.74
248.335	2.81
248.717	2.72
249.098	3.03
249.48	2.23
249.862	2.93
250.243	3
250.625	2.77
251.006	2.58
251.388	3.55
251.769	3.02
252.151	2.61
252.532	1.85
252.913	2.24
253.295	2.63
253.676	2.61
254.057	2.45
254.438	1.96
254.819	2.58
255.2	2.48
255.581	2.12
255.962	2.57
256.343	2.57
256.724	1.62
257.105	2.28
257.486	2.47
257.867	0.77
258.247	2.99
258.628	3.01
259.009	2.66
259.389	2.81
259.77	2.22
260.15	3.17
260.531	2.21
260.911	2.81
261.292	2.49
261.672	2.52
262.052	2.4
262.432	2.52
262.813	2.47
263.193	2.13
263.573	2.54
263.953	1.94
264.333	2.47
264.713	2.2
265.093	3.33
265.473	3.08
265.853	2.64
266.233	2.78
266.612	2.09
266.992	1.92
267.372	2.19
267.752	1.53
268.131	2.48
268.511	2.8
268.89	2.86
269.27	2.54
269.649	2.93
270.029	2.7
270.408	2.56
270.787	2.62
271.167	2.92
271.546	1.69
271.925	2.36
272.304	2.4
272.683	2.32
273.062	2.35
273.441	2.36
273.82	3.06
274.199	2.68
274.578	2.29
274.957	2.45
275.336	2.25
275.715	2.73
276.093	3.23
276.472	2.87
276.851	2.58
277.229	2.57
277.608	2.18
277.986	2.05
278.365	2.11
278.743	2.3
279.122	1.43
279.5	2.38
279.878	1.8
280.257	2.6
280.635	2.07
281.013	2.49
281.391	1.96
281.769	2.02
282.147	2.78
282.525	2
282.903	2.49
283.281	2.08
283.659	2.3
284.037	2.22
284.415	2.91
284.792	2.34
285.17	2.14
285.548	2.21
285.925	2.09
286.303	2.34
286.68	2.53
287.058	2.21
287.435	2.02
287.813	2.25
288.19	2.82
288.567	2.05
288.945	2.12
289.322	2.36
289.699	2.52
290.076	2.67
290.453	1.98
290.83	2.79
291.207	2.26
291.584	1.98
291.961	2.87
292.338	2.15
292.715	2.68
293.092	2.23
293.469	2.2
293.845	2.73
294.222	2.2
294.599	2.66
294.975	2.32
295.352	2.01
295.728	2.69
296.105	2.1
296.481	2.79
296.858	2.02
297.234	2.21
297.61	2.68
297.986	2.36
298.363	2
298.739	2.43
299.115	1.97
299.491	2.45
299.867	2.45
300.243	2.49
300.619	2.15
300.995	2.14
301.371	2.23
301.746	1.94
302.122	2.39
302.498	2.83
302.874	2.52
303.249	2.97
303.625	2.34
304	2.23
304.376	2.72
304.751	2.54
305.127	2.37
305.502	2.71
305.878	2.12
306.253	2
306.628	2.42
307.003	2.3
307.378	1.87
307.754	2.38
308.129	1.9
308.504	2.57
308.879	2.56
309.254	2.67
309.629	2.11
310.003	2.86
310.378	2.11
310.753	2.58
311.128	2.24
311.502	1.87
311.877	2.43
312.252	2.07
312.626	2.06
313.001	2.22
313.375	2.54
313.75	2.07
314.124	2.58
314.498	1.95
314.873	2.78
315.247	2.24
315.621	2.74
315.995	2.18
316.369	2.64
316.743	2.84
317.117	2.17
317.491	2.15
317.865	1.68
318.239	2.5
318.613	2.41
318.987	2.42
319.361	2.12
319.734	2.52
320.108	2.83
320.482	2.14
320.855	2.27
321.229	2.78
321.602	2.26
321.976	2.15
322.349	1.98
322.723	2.17
323.096	1.94
323.469	1.54
323.843	1.77
324.216	2.01
324.589	2.68
324.962	2.09
325.335	2.58
325.708	2.23
326.081	2.85
326.454	2.64
326.827	2.27
327.2	2.67
327.573	2.15
327.945	2.39
328.318	2.68
328.691	2.34
329.063	1.91
329.436	1.85
329.809	2.16
330.181	1.92
330.553	2.31
330.926	2.19
331.298	1.92
331.671	2.54
332.043	2.18
332.415	2.51
332.787	2.75
333.159	1.71
333.532	2.24
333.904	2.48
334.276	2.67
334.648	2.28
335.02	2.34
335.391	2.24
335.763	2.24
336.135	2.74
336.507	2.11
336.879	2.96
337.25	2.37
337.622	2.78
337.993	2.48
338.365	2.08
338.736	2.13
339.108	2.32
339.479	2.18
339.851	2.59
340.222	2.17
340.593	2.29
340.964	2.64
341.336	2.22
341.707	2.17
342.078	1.65
342.449	2.26
342.82	2.32
343.191	2.39
343.562	2.54
343.933	2.42
344.303	2.71
344.674	2.08
345.045	2.4
345.416	2.28
345.786	1.57
346.157	2.47
346.527	2.31
346.898	2.37
347.268	2.28
347.639	2.41
348.009	2.74
348.38	2.79
348.75	2.45
349.12	2.63
349.49	2.12
349.861	2.38
350.231	2.44
350.601	2.57
350.971	2.38
351.341	2.44
351.711	2.05
352.081	2.57
352.45	2.61
352.82	2.88
353.19	2.06
353.56	2.46
353.929	2.58
354.299	2.47
354.669	2.3
355.038	2.37
355.408	2.73
355.777	2.3
356.147	2.88
356.516	2.84
356.885	2.44
357.254	2.78
357.624	2.66
357.993	2.27
358.362	2.77
358.731	2.63
359.1	2.66
359.469	2.48
359.838	2.62
360.207	2.45
360.576	2.49
360.945	2.39
361.314	2.9
361.682	2.07
362.051	2.24
362.42	2.96
362.788	2.49
363.157	2.32
363.525	2.38
363.894	2.32
364.262	2.49
364.631	3.14
364.999	2.25
365.367	2.66
365.735	2.3
366.104	2.47
366.472	2.73
366.84	2.54
367.208	2.35
367.576	2.64
367.944	2.62
368.312	2.15
368.68	2.63
369.048	2.63
369.416	2.54
369.783	2.72
370.151	2.58
370.519	2.37
370.886	2.7
371.254	2.66
371.621	2.61
371.989	2.78
372.356	2.69
372.724	2.76
373.091	2.61
373.458	2.48
373.826	2.37
374.193	3.26
374.56	2.36
374.927	2.48
375.294	3.12
375.661	2.72
376.028	2.72
376.395	2.47
376.762	2.83
377.129	2.78
377.496	2.7
377.863	2.48
378.229	2.59
378.596	2.51
378.963	2.57
379.329	2.48
379.696	2.75
380.062	2.8
380.429	2.72
380.795	2.47
381.161	2.41
381.528	2.13
381.894	2.59
382.26	2.36
382.626	2.59
382.993	2.61
383.359	2.52
383.725	2.86
384.091	2.57
384.457	2.96
384.823	2.75
385.188	2.75
385.554	2.52
385.92	2.69
386.286	2.79
386.651	2.66
387.017	2.77
387.383	2.59
387.748	2.27
388.114	2.92
388.479	2.57
388.845	2.96
389.21	2.51
389.575	2.73
389.94	2.76
390.306	2.56
390.671	2.55
391.036	2.92
391.401	2.87
391.766	2.69
392.131	2.82
392.496	2.64
392.861	2.64
393.226	2.67
393.591	3.04
393.956	2.77
394.32	2.52
394.685	2.93
395.05	2.53
395.414	2.57
395.779	2.83
396.143	2.78
396.508	3.02
396.872	2.87
397.236	2.53
397.601	2.87
397.965	2.56
398.329	2.84
398.694	2.43
399.058	2.81
399.422	2.85
399.786	3.03
400.15	2.71
400.514	2.67
400.878	2.65
401.242	2.95
401.605	2.74
401.969	2.89
402.333	2.94
402.697	2.93
403.06	2.82
403.424	2.55
403.787	2.97
404.151	2.64
404.514	2.8
404.878	2.85
405.241	2.86
405.604	2.85
405.968	2.73
406.331	2.82
406.694	2.74
407.057	3.09
407.42	2.75
407.783	2.79
408.146	2.94
408.509	2.85
408.872	2.62
409.235	2.91
409.598	2.95
409.961	2.88
410.323	2.8
410.686	3.13
411.049	2.73
411.411	2.95
411.774	2.81
412.136	2.99
412.499	2.8
412.861	2.7
413.223	2.8
413.586	2.82
413.948	2.76
414.31	3.02
414.672	2.63
415.035	3.13
415.397	3.02
415.759	2.83
416.121	3.11
416.483	3.18
416.845	2.97
417.206	2.94
417.568	2.87
417.93	2.92
418.292	2.88
418.653	2.9
419.015	2.97
419.377	3.01
419.738	2.77
420.1	2.84
420.461	2.8
420.822	3.02
421.184	2.84
421.545	2.85
421.906	2.91
422.267	2.84
422.629	2.86
422.99	2.87
423.351	2.9
423.712	2.9
424.073	3
424.434	2.86
424.795	2.84
425.155	2.91
425.516	2.93
425.877	2.95
426.238	2.79
426.598	2.98
426.959	2.95
427.32	2.91
427.68	2.93
428.041	2.9
428.401	2.93
428.761	2.86
429.122	2.83
429.482	2.9
429.842	2.99
430.202	2.98
430.563	3.09
430.923	3.01
431.283	3.09
431.643	2.97
432.003	3.01
432.363	2.96
432.722	2.88
433.082	2.83
433.442	2.95
433.802	3.11
434.161	2.95
434.521	3.04
434.881	3.06
435.24	3.02
435.6	2.9
435.959	3.06
436.319	2.99
436.678	3.13
437.037	3.11
437.396	3.1
437.756	2.93
438.115	2.97
438.474	3.08
438.833	3.17
439.192	3.25
439.551	3.17
439.91	3.2
440.269	3.21
440.628	3
440.987	2.98
441.345	2.9
441.704	3.07
442.063	3.02
442.421	2.95
442.78	3
443.138	2.95
443.497	3.07
443.855	2.89
444.214	3.04
444.572	3.06
444.93	3.21
445.288	3.04
445.647	3.03
446.005	2.93
446.363	2.99
446.721	3.05
447.079	3.08
447.437	3.07
447.795	3.05
448.153	3.03
448.51	2.94
448.868	3.13
449.226	3.12
449.584	3.11
449.941	3.14
450.299	3.05
450.656	3.15
451.014	3.04
451.371	3.22
451.729	3.2
452.086	3
452.443	3.04
452.801	3.21
453.158	3.14
453.515	3.17
453.872	3.2
454.229	3.05
454.586	3.08
454.943	3.11
455.3	3.2
455.657	3.1
456.014	3.16
456.371	3.16
456.727	2.99
457.084	3.09
457.441	3.27
457.797	3.08
458.154	3.26
458.51	3.08
458.867	3
459.223	3.17
459.58	3.23
459.936	3.02
460.292	3.15
460.648	3.02
461.005	3.09
461.361	3.08
461.717	3.17
462.073	3.21
462.429	3.23
462.785	3.25
463.141	3.28
463.496	3.05
463.852	3.35
464.208	3.18
464.564	3.18
464.919	3.13
465.275	3.11
465.631	3.11
465.986	3.1
466.342	3.22
466.697	3.28
467.052	3.21
467.408	3.24
467.763	3.24
468.118	3.29
468.473	3.37
468.829	3.19
469.184	3.37
469.539	3.07
469.894	3.34
470.249	3.2
470.603	3.34
470.958	3.5
471.313	3.18
471.668	3.41
472.023	3.35
472.377	3.29
472.732	3.24
473.086	3.05
473.441	3.24
473.795	3.5
474.15	3.32
474.504	3.25
474.859	3.34
475.213	3.2
475.567	3.24
475.921	3.34
476.275	3.38
476.63	3.26
476.984	3.33
477.338	3.49
477.692	3.36
478.045	3.16
478.399	3.35
478.753	3.15
479.107	3.32
479.461	3.36
479.814	3.21
480.168	3.39
480.521	3.38
480.875	3.46
481.228	3.36
481.582	3.23
481.935	3.28
482.289	3.19
482.642	3.36
482.995	3.35
483.348	3.26
483.701	3.31
484.055	3.19
484.408	3.22
484.761	3.04
485.114	3.04
485.466	3.05
485.819	3.14
486.172	3.22
486.525	3.28
486.878	3.31
487.23	3.32
487.583	3.35
487.936	3.28
488.288	3.23
488.641	3.16
488.993	3.11
489.345	3.18
489.698	3.22
490.05	3.26
490.402	3.36
490.754	3.4
491.107	3.34
491.459	3.47
491.811	3.39
492.163	3.38
492.515	3.33
492.866	3.15
493.218	3.19
493.57	3.29
493.922	3.38
494.274	3.4
494.625	3.46
494.977	3.41
495.328	3.5
495.68	3.5
496.031	3.43
496.383	3.36
496.734	3.49
497.086	3.31
497.437	3.48
497.788	3.39
498.139	3.51
498.49	3.43
498.842	3.44
499.193	3.41
499.544	3.56
499.894	3.49
500.245	3.41
500.596	3.47
500.947	3.44
501.298	3.51
501.648	3.59
501.999	3.53
502.35	3.62
502.7	3.55
503.051	3.57
503.401	3.55
503.752	3.52
504.102	3.51
504.452	3.44
504.803	3.35
505.153	3.48
505.503	3.49
505.853	3.36
506.203	3.64
506.553	3.52
506.903	3.61
507.253	3.62
507.603	3.52
507.953	3.67
508.303	3.51
508.652	3.53
509.002	3.61
509.352	3.51
509.701	3.58
510.051	3.6
510.4	3.55
510.75	3.62
511.099	3.52
511.449	3.57
511.798	3.64
512.147	3.52
512.496	3.65
512.846	3.54
513.195	3.61
513.544	3.58
513.893	3.43
514.242	3.7
514.591	3.62
514.939	3.64
515.288	3.65
515.637	3.75
515.986	3.47
516.334	3.65
516.683	3.58
517.032	3.62
517.38	3.66
517.729	3.65
518.077	3.55
518.426	3.5
518.774	3.62
519.122	3.59
519.47	3.57
519.819	3.56
520.167	3.55
520.515	3.52
520.863	3.63
521.211	3.66
521.559	3.67
521.907	3.59
522.255	3.66
522.602	3.77
522.95	3.64
523.298	3.68
523.645	3.73
523.993	3.73
524.341	3.75
524.688	3.58
525.036	3.77
525.383	3.79
525.73	3.62
526.078	3.71
526.425	3.65
526.772	3.42
527.119	3.65
527.466	3.62
527.814	3.65
528.161	3.68
528.508	3.62
528.854	3.6
529.201	3.54
529.548	3.49
529.895	3.39
530.242	3.43
530.588	3.56
530.935	3.56
531.282	3.67
531.628	3.66
531.975	3.72
532.321	3.72
532.667	3.67
533.014	3.71
533.36	3.61
533.706	3.67
534.052	3.57
534.399	3.54
534.745	3.51
535.091	3.59
535.437	3.66
535.783	3.79
536.129	3.67
536.474	3.77
536.82	3.73
537.166	3.79
537.512	3.78
537.857	3.64
538.203	3.65
538.549	3.77
538.894	3.8
539.239	3.91
539.585	3.77
539.93	3.84
540.276	3.88
540.621	3.84
540.966	3.84
541.311	3.78
541.656	3.7
542.001	3.76
542.346	3.68
542.691	3.56
543.036	3.61
543.381	3.73
543.726	3.71
544.071	3.79
544.415	3.75
544.76	3.65
545.105	3.77
545.449	3.79
545.794	3.84
546.138	3.84
546.483	3.78
546.827	3.86
547.171	3.8
547.516	4.01
547.86	3.75
548.204	3.73
548.548	3.91
548.892	3.91
549.236	3.81
549.58	3.88
549.924	3.89
550.268	3.96
550.612	3.84
550.956	3.85
551.3	3.92
551.643	3.97
551.987	4.01
552.33	3.94
552.674	4.02
553.017	3.92
553.361	3.92
553.704	3.87
554.048	4.04
554.391	3.9
554.734	3.87
555.077	4.02
555.42	3.95
555.764	3.99
556.107	3.97
556.45	3.81
556.793	4.06
557.135	4.19
557.478	4.21
557.821	4.12
558.164	3.99
558.507	3.92
558.849	3.87
559.192	4.17
559.534	3.71
559.877	4.02
560.219	4.26
560.562	4.17
560.904	3.97
561.246	4.15
561.589	3.98
561.931	4.16
562.273	4.1
562.615	4.17
562.957	4.16
563.299	4.16
563.641	3.93
563.983	4.11
564.325	3.95
564.667	3.97
565.008	4.11
565.35	4.27
565.692	4.21
566.033	4.18
566.375	3.91
566.716	4.16
567.058	4.13
567.399	4.13
567.741	4.08
568.082	4
568.423	3.93
568.764	4.13
569.105	4.22
569.447	4.08
569.788	4.09
570.129	4.05
570.47	4.23
570.811	4.17
571.151	4.09
571.492	4.19
571.833	4.04
572.174	3.98
572.514	3.92
572.855	4.12
573.195	4.16
573.536	4.17
573.876	4.06
574.217	4.19
574.557	4.15
574.898	3.96
575.238	4.21
575.578	4.31
575.918	4.02
576.258	4.09
576.598	4
576.938	4.26
577.278	4.01
577.618	4.13
577.958	4.13
578.298	4.24
578.638	4.11
578.977	4.11
579.317	4.25
579.657	4.24
579.996	4.25
580.336	4.14
580.675	4.24
581.014	4.22
581.354	4.32
581.693	4.24
582.032	3.89
582.372	4.2
582.711	4.17
583.05	4.23
583.389	4.26
583.728	4.3
584.067	4.31
584.406	4.34
584.745	4.22
585.083	4.48
585.422	4.16
585.761	4.35
586.1	4.58
586.438	4.3
586.777	4.29
587.115	4.36
587.454	4.15
587.792	4.34
588.13	4.49
588.469	4.49
588.807	4.49
589.145	4.38
589.483	4.33
589.821	4.36
590.159	4.23
590.497	4.02
590.835	4.29
591.173	4.3
591.511	4.21
591.849	4.32
592.187	4.39
592.524	4.21
592.862	4.22
593.2	4.33
593.537	4.18
593.875	4.32
594.212	4.2
594.55	4.41
594.887	4.3
595.224	4.29
595.561	4.36
595.899	4.26
596.236	4.2
596.573	4.16
596.91	4.42
597.247	4.5
597.584	4.46
597.921	4.54
598.258	4.1
598.594	4.05
598.931	4.28
599.268	4.41
599.604	4.5
599.941	4.33
600.277	4.28
600.614	4.34
600.95	4.49
601.287	4.22
601.623	4.63
601.959	4.42
602.296	4.62
602.632	4.72
602.968	4.35
603.304	4.36
603.64	4.38
603.976	4.37
604.312	4.39
604.648	4.45
604.984	4.39
605.319	4.28
605.655	4.35
605.991	4.36
606.326	4.49
606.662	4.32
606.998	4.56
607.333	4.27
607.668	4.59
608.004	4.57
608.339	4.53
608.674	4.63
609.01	4.5
609.345	4.49
609.68	4.35
610.015	4.52
610.35	4.33
610.685	4.53
611.02	4.57
611.355	4.47
611.689	4.19
612.024	4.73
612.359	4.58
612.694	4.49
613.028	4.71
613.363	4.62
613.697	4.78
614.032	4.98
614.366	4.26
614.7	4.8
615.035	4.59
615.369	4.66
615.703	4.84
616.037	4.51
616.371	4.47
616.705	4.55
617.039	4.55
617.373	4.65
617.707	4.7
618.041	4.79
618.375	4.39
618.709	4.45
619.042	4.8
619.376	4.47
619.71	4.57
620.043	4.24
620.377	4.73
620.71	4.59
621.043	4.4
621.377	4.37
621.71	4.77
622.043	4.8
622.376	4.75
622.709	4.95
623.043	4.8
623.376	4.86
623.709	4.83
624.041	4.4
624.374	4.39
624.707	4.61
625.04	5.08
625.373	4.74
625.705	4.54
626.038	4.69
626.37	4.74
626.703	4.54
627.035	4.63
627.368	4.88
627.7	4.82
628.032	4.51
628.365	4.43
628.697	4.58
629.029	4.92
629.361	4.68
629.693	5.11
630.025	4.53
630.357	4.78
630.689	4.78
631.021	4.76
631.353	4.82
631.684	4.93
632.016	4.49
632.348	4.65
632.679	4.65
633.011	4.95
633.342	4.73
633.674	4.94
634.005	4.75
634.336	4.6
634.668	4.43
634.999	5.02
635.33	4.87
635.661	4.76
635.992	4.68
636.323	4.84
636.654	4.82
636.985	4.6
637.316	4.95
637.647	4.83
637.977	4.69
638.308	4.69
638.639	4.78
638.969	4.74
639.3	4.84
639.63	4.95
639.961	5.19
640.291	5.13
640.622	4.85
640.952	4.89
641.282	4.52
641.612	4.97
641.943	4.97
642.273	4.74
642.603	4.69
642.933	5.06
643.263	5.49
643.592	4.72
643.922	5.42
644.252	5.14
644.582	4.78
644.911	4.69
645.241	4.5
645.571	4.74
645.9	5.23
646.23	4.52
646.559	4.86
646.888	4.57
647.218	5.05
647.547	5.1
647.876	5.1
648.205	4.63
648.534	5.13
648.863	5.23
649.192	4.74
649.521	4.72
649.85	5.21
650.179	4.83
650.508	5.29
650.837	5.07
651.165	5.2
651.494	5.19
651.822	4.85
652.151	5.46
652.479	5.2
652.808	4.87
653.136	4.76
653.465	5.11
653.793	5.2
654.121	4.94
654.449	4.74
654.777	5.3
655.105	5.31
655.433	4.96
655.761	4.76
656.089	5.17
656.417	4.85
656.745	5.99
657.073	5.32
657.4	5.31
657.728	5.05
658.056	5.01
658.383	5.44
658.711	5.07
659.038	5.13
659.365	5.11
659.693	4.66
660.02	5.04
660.347	5.17
660.674	4.73
661.001	4.88
661.329	4.97
661.656	5.1
661.982	5.34
662.309	5.43
662.636	5.4
662.963	5.49
663.29	4.92
663.616	5.1
663.943	5.36
664.27	5.09
664.596	4.85
664.923	5.29
665.249	5.26
665.576	5.28
665.902	5.78
666.228	4.99
666.554	4.88
666.881	5.38
667.207	5.12
667.533	5.79
667.859	5.09
668.185	5.62
668.511	5.37
668.837	5.43
669.162	4.69
669.488	5.23
669.814	5.5
670.139	5.72
670.465	5.53
670.791	5.53
671.116	5.12
671.442	5.44
671.767	5.23
672.092	5.65
672.418	5.55
672.743	5.57
673.068	5.16
673.393	5.19
673.718	5.25
674.043	5.39
674.368	5.66
674.693	5.19
675.018	4.85
675.343	5.67
675.667	5.19
675.992	4.65
676.317	5.25
676.641	6.01
676.966	5.43
677.29	5.69
677.615	5.38
677.939	5.59
678.264	5.35
678.588	5.54
678.912	5.77
679.236	5.76
679.56	5.2
679.885	5.19
680.209	4.36
680.532	5.16
680.856	6.15
681.18	5.24
681.504	5.47
681.828	4.94
682.152	5.55
682.475	5.69
682.799	5.73
683.122	5.58
683.446	5.15
683.769	5.14
684.093	5.1
684.416	5.7
684.739	6.01
685.062	5.44
685.386	5.16
685.709	5.41
686.032	5.35
686.355	6.08
686.678	5.27
687.001	5.01
687.324	5.11
687.646	5.71
687.969	5.55
688.292	6.04
688.614	6.17
688.937	5.09
689.26	5.05
689.582	5.59
689.904	5.43
690.227	5.87
690.549	5.68
690.871	5.24
691.194	5.8
691.516	4.85
691.838	5.51
692.16	5.63
