Data from 0064_forehead_Reflection__3__237.txt Node

Date: Fri Dec 16 15:47:15 CST 2022
User: ToomeyLab
Spectrometer: FLMS14357
Trigger mode: 0
Integration Time (sec): 1.000000E-2
Scans to average: 100
Electric dark correction enabled: true
Nonlinearity correction enabled: false
Boxcar width: 0
XAxis mode: Wavelengths
Number of Pixels in Spectrum: 2048
>>>>>Begin Spectral Data<<<<<
189.047	-75.39
189.435	-75.39
189.823	-75.39
190.211	-387.96
190.599	47.57
190.987	-76.51
191.375	-35.18
191.763	-480.18
192.151	284.96
192.538	33.47
192.926	-49.32
193.314	24
193.702	138.51
194.089	136.84
194.477	-77.43
194.864	32.01
195.252	511.11
195.639	213.31
196.027	227.6
196.414	-31.01
196.801	-76.48
197.189	59.65
197.576	-146.54
197.963	-104.37
198.351	32.01
198.738	-51.15
199.125	74.12
199.512	-11.17
199.899	45.87
200.286	-131.97
200.673	46.99
201.06	76.73
201.447	32.17
201.833	37
202.22	-10.39
202.607	-26.93
202.994	42.33
203.38	98.92
203.767	-22.68
204.154	-53.28
204.54	27.55
204.927	13.92
205.313	44.39
205.699	9.69
206.086	41.57
206.472	-12.34
206.858	3.47
207.245	-5.27
207.631	-21.33
208.017	39.41
208.403	19.14
208.789	34.12
209.175	60.03
209.561	29.42
209.947	-3.53
210.333	16.14
210.719	0.47
211.105	0.18
211.491	-15.59
211.876	-12.02
212.262	29.43
212.648	-82.95
213.034	8.18
213.419	20.87
213.805	-20.31
214.19	8.19
214.576	-7.66
214.961	19.81
215.346	5.03
215.732	20.47
216.117	-34.04
216.502	-21.9
216.888	20.92
217.273	27.39
217.658	1.48
218.043	-7.77
218.428	3.42
218.813	12.89
219.198	15.87
219.583	1.64
219.968	14.16
220.353	3.13
220.738	-8.98
221.122	14.7
221.507	1.04
221.892	3.68
222.276	2.48
222.661	-5.91
223.046	2.57
223.43	4.46
223.815	0.69
224.199	10.25
224.583	7.15
224.968	8.01
225.352	5
225.736	8.02
226.121	4.58
226.505	12.65
226.889	9.65
227.273	7.96
227.657	-0.64
228.041	4.76
228.425	9.23
228.809	6.78
229.193	2.75
229.577	4.03
229.961	6.29
230.344	6.48
230.728	4.68
231.112	5.01
231.495	3.68
231.879	6.55
232.263	3.04
232.646	4.29
233.03	3.8
233.413	4.6
233.797	5.75
234.18	1.82
234.563	3.82
234.946	5.13
235.33	6.97
235.713	6.23
236.096	5.21
236.479	6.3
236.862	4.42
237.245	7.03
237.628	5.61
238.011	4.94
238.394	7.27
238.777	3.16
239.16	2.77
239.543	4.45
239.925	6.25
240.308	5.22
240.691	5.94
241.073	4.96
241.456	4.85
241.838	4.25
242.221	5.14
242.603	5.23
242.986	5.57
243.368	5.22
243.75	4.92
244.133	5.4
244.515	4.78
244.897	5.18
245.279	4.99
245.661	6.14
246.043	5.26
246.425	5.36
246.807	4.96
247.189	4.77
247.571	5.59
247.953	5.33
248.335	5.43
248.717	5.1
249.098	5.41
249.48	4.95
249.862	5.26
250.243	5.21
250.625	5.12
251.006	5.18
251.388	5.7
251.769	6.06
252.151	5.91
252.532	5.43
252.913	5.74
253.295	5.47
253.676	5.83
254.057	5.06
254.438	5.27
254.819	5.4
255.2	5.43
255.581	5.52
255.962	5.52
256.343	6.73
256.724	6.14
257.105	4.76
257.486	5.88
257.867	3.88
258.247	5.16
258.628	6.19
259.009	5.41
259.389	5.73
259.77	5.52
260.15	5.77
260.531	5.29
260.911	5.3
261.292	5.09
261.672	5.06
262.052	4.88
262.432	5.17
262.813	5.25
263.193	5.08
263.573	5.49
263.953	5.17
264.333	5.09
264.713	4.76
265.093	4.97
265.473	6.01
265.853	5.3
266.233	5.03
266.612	4.84
266.992	4.63
267.372	6
267.752	5.3
268.131	5.05
268.511	5.66
268.89	5.13
269.27	5.16
269.649	5.42
270.029	5.27
270.408	5.24
270.787	5.3
271.167	4.86
271.546	4.87
271.925	5.03
272.304	5.19
272.683	4.78
273.062	5.24
273.441	5.33
273.82	5.31
274.199	5.42
274.578	4.73
274.957	5.22
275.336	4.97
275.715	5.78
276.093	5.29
276.472	5.7
276.851	5.63
277.229	5.69
277.608	4.83
277.986	5.03
278.365	4.73
278.743	5.14
279.122	4.74
279.5	4.91
279.878	4.73
280.257	5.49
280.635	5.39
281.013	5.76
281.391	5.1
281.769	4.33
282.147	5.16
282.525	5.01
282.903	5.09
283.281	4.57
283.659	5.55
284.037	5.1
284.415	5.17
284.792	4.9
285.17	5.06
285.548	5.03
285.925	4.97
286.303	4.82
286.68	4.95
287.058	4.85
287.435	5.01
287.813	5.15
288.19	5.31
288.567	4.77
288.945	5.21
289.322	4.82
289.699	5.09
290.076	5.35
290.453	4.71
290.83	5.54
291.207	5.31
291.584	5.4
291.961	5.25
292.338	5.01
292.715	5.04
293.092	5.17
293.469	5.04
293.845	5.65
294.222	5.3
294.599	5.79
294.975	5.59
295.352	4.77
295.728	5.59
296.105	5.45
296.481	6.05
296.858	5.96
297.234	5.9
297.61	6.11
297.986	5.71
298.363	5.63
298.739	5.83
299.115	5.51
299.491	5.56
299.867	5.61
300.243	6.07
300.619	5.54
300.995	6.27
301.371	6.32
301.746	6.03
302.122	5.82
302.498	6.28
302.874	5.85
303.249	5.92
303.625	6.11
304	5.47
304.376	6.28
304.751	6.04
305.127	6.18
305.502	6.36
305.878	5.98
306.253	6.17
306.628	6.67
307.003	6.26
307.378	6.37
307.754	6.34
308.129	5.67
308.504	6.1
308.879	6.38
309.254	6.59
309.629	5.97
310.003	6.99
310.378	6.79
310.753	6.79
311.128	6.5
311.502	5.91
311.877	6.92
312.252	6.56
312.626	6.71
313.001	6.75
313.375	6.69
313.75	6.52
314.124	7.3
314.498	6.82
314.873	6.88
315.247	6.79
315.621	6.95
315.995	7.32
316.369	7.36
316.743	7.28
317.117	7.49
317.491	7.39
317.865	6.59
318.239	7.83
318.613	7.17
318.987	6.99
319.361	7.14
319.734	7.48
320.108	7.36
320.482	7.37
320.855	7.46
321.229	7.92
321.602	7.06
321.976	7.17
322.349	6.72
322.723	6.97
323.096	7.85
323.469	7
323.843	7.49
324.216	7.41
324.589	7.89
324.962	7.69
325.335	7.64
325.708	7.62
326.081	7.96
326.454	7.54
326.827	7.71
327.2	8.24
327.573	7.86
327.945	7.93
328.318	7.92
328.691	7.99
329.063	8.01
329.436	8.05
329.809	7.77
330.181	8.17
330.553	8.59
330.926	8.01
331.298	8.09
331.671	8.17
332.043	8.08
332.415	8.17
332.787	8.56
333.159	8.17
333.532	8.26
333.904	8.24
334.276	8.32
334.648	7.92
335.02	7.87
335.391	8.39
335.763	8.5
336.135	8.33
336.507	8.36
336.879	8.49
337.25	7.98
337.622	8.27
337.993	8.55
338.365	9.06
338.736	8.66
339.108	8.49
339.479	8.51
339.851	8.56
340.222	8.55
340.593	8.4
340.964	8.61
341.336	8.88
341.707	8.87
342.078	8.49
342.449	8.87
342.82	8.82
343.191	8.64
343.562	8.8
343.933	8.8
344.303	9.18
344.674	9.23
345.045	9.76
345.416	9.15
345.786	8.8
346.157	8.77
346.527	8.88
346.898	9
347.268	9.31
347.639	9.19
348.009	9.42
348.38	9.24
348.75	9.18
349.12	9.16
349.49	9.41
349.861	9.72
350.231	9.29
350.601	9.29
350.971	9.05
351.341	9.24
351.711	9.57
352.081	9.2
352.45	9.56
352.82	9.55
353.19	9.58
353.56	9.58
353.929	9.73
354.299	9.16
354.669	9.45
355.038	9.75
355.408	10.21
355.777	9.54
356.147	9.95
356.516	10.24
356.885	9.62
357.254	9.97
357.624	9.71
357.993	9.69
358.362	10.15
358.731	10.31
359.1	10.12
359.469	10.29
359.838	9.59
360.207	9.74
360.576	9.75
360.945	10.28
361.314	10.4
361.682	10.01
362.051	10.14
362.42	10.28
362.788	10.22
363.157	10.07
363.525	10.36
363.894	9.82
364.262	10.13
364.631	10.78
364.999	10.04
365.367	10.34
365.735	10.31
366.104	10.09
366.472	10.54
366.84	10.55
367.208	10.08
367.576	10.64
367.944	10.89
368.312	10.42
368.68	10.72
369.048	10.85
369.416	10.64
369.783	10.75
370.151	11.07
370.519	10.75
370.886	11.2
371.254	10.97
371.621	10.76
371.989	10.92
372.356	11.17
372.724	10.88
373.091	10.85
373.458	11.16
373.826	11.13
374.193	11.45
374.56	10.9
374.927	11.17
375.294	11.45
375.661	11.38
376.028	11.36
376.395	10.89
376.762	11.9
377.129	11.56
377.496	11.37
377.863	11.35
378.229	11.09
378.596	11.42
378.963	11.54
379.329	11.68
379.696	11.53
380.062	11.75
380.429	11.55
380.795	11.38
381.161	11.66
381.528	11.21
381.894	12
382.26	11.41
382.626	11.75
382.993	11.83
383.359	11.67
383.725	12.36
384.091	11.87
384.457	11.75
384.823	12.17
385.188	12.19
385.554	12.13
385.92	12.1
386.286	12.3
386.651	12.21
387.017	12.14
387.383	12.18
387.748	12.08
388.114	12.39
388.479	12.47
388.845	12.57
389.21	12.45
389.575	12.39
389.94	12.51
390.306	12.33
390.671	12.36
391.036	12.42
391.401	12.85
391.766	12.73
392.131	12.38
392.496	12.64
392.861	12.71
393.226	12.73
393.591	12.62
393.956	12.65
394.32	12.85
394.685	12.8
395.05	12.44
395.414	12.83
395.779	12.76
396.143	12.87
396.508	12.96
396.872	13.06
397.236	12.62
397.601	13.05
397.965	12.99
398.329	13.4
398.694	12.82
399.058	13.24
399.422	13.34
399.786	13.28
400.15	13.2
400.514	13.29
400.878	13.34
401.242	13.69
401.605	13.4
401.969	13.39
402.333	13.37
402.697	13.65
403.06	13.56
403.424	13.43
403.787	13.77
404.151	13.45
404.514	13.54
404.878	13.66
405.241	13.81
405.604	13.74
405.968	13.79
406.331	13.85
406.694	13.73
407.057	13.91
407.42	13.94
407.783	13.53
408.146	13.63
408.509	13.7
408.872	13.69
409.235	13.83
409.598	13.98
409.961	14.05
410.323	14.02
410.686	13.82
411.049	13.82
411.411	14.09
411.774	14.01
412.136	14.12
412.499	14
412.861	14
413.223	14.23
413.586	14.22
413.948	14.46
414.31	14.49
414.672	14.37
415.035	14.54
415.397	14.37
415.759	14.48
416.121	14.6
416.483	14.64
416.845	14.42
417.206	14.77
417.568	14.54
417.93	14.34
418.292	14.69
418.653	14.59
419.015	14.71
419.377	14.78
419.738	14.55
420.1	14.73
420.461	14.42
420.822	14.57
421.184	14.7
421.545	14.49
421.906	14.74
422.267	14.45
422.629	14.6
422.99	14.67
423.351	14.67
423.712	14.76
424.073	15.02
424.434	14.91
424.795	14.87
425.155	14.92
425.516	14.93
425.877	14.92
426.238	14.89
426.598	15.07
426.959	15.03
427.32	15.21
427.68	15.2
428.041	15.32
428.401	15.24
428.761	15.36
429.122	15.3
429.482	15.29
429.842	15.65
430.202	15.42
430.563	15.67
430.923	15.76
431.283	15.64
431.643	15.6
432.003	15.7
432.363	15.96
432.722	15.6
433.082	15.82
433.442	15.69
433.802	15.87
434.161	15.78
434.521	15.83
434.881	15.83
435.24	15.74
435.6	15.83
435.959	15.78
436.319	15.85
436.678	16
437.037	16.08
437.396	16.06
437.756	16.1
438.115	16.4
438.474	16.23
438.833	16.37
439.192	16.48
439.551	16.32
439.91	16.57
440.269	16.39
440.628	16.31
440.987	16.41
441.345	16.28
441.704	16.39
442.063	16.46
442.421	16.4
442.78	16.43
443.138	16.5
443.497	16.56
443.855	16.69
444.214	16.75
444.572	16.71
444.93	16.85
445.288	16.92
445.647	16.82
446.005	16.68
446.363	16.93
446.721	16.76
447.079	16.76
447.437	16.89
447.795	16.81
448.153	16.67
448.51	16.87
448.868	16.92
449.226	17
449.584	16.93
449.941	17.07
450.299	16.97
450.656	17.34
451.014	17.25
451.371	17.3
451.729	17.25
452.086	17.14
452.443	17.63
452.801	17.64
453.158	17.49
453.515	17.48
453.872	17.64
454.229	17.54
454.586	17.44
454.943	17.5
455.3	17.91
455.657	17.65
456.014	17.89
456.371	18.02
456.727	17.73
457.084	17.78
457.441	17.95
457.797	17.83
458.154	17.85
458.51	18.02
458.867	18.11
459.223	18.08
459.58	18.08
459.936	18.25
460.292	18.13
460.648	18.03
461.005	17.89
461.361	17.83
461.717	17.95
462.073	17.97
462.429	18.04
462.785	18.35
463.141	18.29
463.496	18.19
463.852	18.46
464.208	18.4
464.564	18.32
464.919	18.51
465.275	18.64
465.631	18.74
465.986	18.62
466.342	18.53
466.697	18.76
467.052	18.7
467.408	18.71
467.763	18.75
468.118	18.65
468.473	18.86
468.829	18.75
469.184	19
469.539	18.98
469.894	18.92
470.249	18.85
470.603	19.03
470.958	19.03
471.313	19.23
471.668	19.2
472.023	19.17
472.377	19.31
472.732	19.21
473.086	19.22
473.441	19.59
473.795	19.57
474.15	19.49
474.504	19.4
474.859	19.51
475.213	19.45
475.567	19.37
475.921	19.66
476.275	19.96
476.63	19.65
476.984	19.75
477.338	20.09
477.692	19.65
478.045	19.72
478.399	19.84
478.753	19.78
479.107	19.82
479.461	19.83
479.814	19.78
480.168	19.91
480.521	19.93
480.875	20.1
481.228	19.97
481.582	19.99
481.935	20.09
482.289	20.05
482.642	20.04
482.995	20.17
483.348	19.99
483.701	19.95
484.055	19.87
484.408	19.76
484.761	19.57
485.114	19.53
485.466	19.41
485.819	19.35
486.172	19.3
486.525	19.44
486.878	19.6
487.23	19.75
487.583	19.88
487.936	20.02
488.288	19.98
488.641	19.94
488.993	19.85
489.345	19.8
489.698	19.81
490.05	19.77
490.402	20.06
490.754	20.13
491.107	20.37
491.459	20.58
491.811	20.67
492.163	20.72
492.515	20.63
492.866	20.31
493.218	20.34
493.57	20.28
493.922	20.22
494.274	20.46
494.625	20.65
494.977	20.78
495.328	21.04
495.68	21.37
496.031	21.25
496.383	21.23
496.734	21.65
497.086	21.45
497.437	21.64
497.788	21.44
498.139	21.54
498.49	21.29
498.842	21.26
499.193	21.36
499.544	21.62
499.894	21.64
500.245	21.58
500.596	21.64
500.947	21.62
501.298	21.54
501.648	21.84
501.999	22
502.35	21.9
502.7	21.91
503.051	22.09
503.401	21.91
503.752	21.97
504.102	22.13
504.452	22.15
504.803	22.1
505.153	22.34
505.503	22.09
505.853	22.1
506.203	22.31
506.553	22.27
506.903	22.34
507.253	22.51
507.603	22.52
507.953	22.61
508.303	22.34
508.652	22.45
509.002	22.54
509.352	22.52
509.701	22.49
510.051	22.57
510.4	22.52
510.75	22.5
511.099	22.64
511.449	22.68
511.798	22.82
512.147	22.72
512.496	22.81
512.846	22.8
513.195	22.75
513.544	22.81
513.893	22.69
514.242	23.02
514.591	23.06
514.939	22.93
515.288	23.11
515.637	23.14
515.986	23.07
516.334	23.25
516.683	23.31
517.032	23.38
517.38	23.36
517.729	23.36
518.077	23.41
518.426	23.34
518.774	23.41
519.122	23.41
519.47	23.32
519.819	23.13
520.167	23.23
520.515	23.15
520.863	23.14
521.211	23.33
521.559	23.35
521.907	23.42
522.255	23.64
522.602	23.66
522.95	23.73
523.298	23.83
523.645	23.92
523.993	24.11
524.341	23.93
524.688	23.96
525.036	24.16
525.383	24.01
525.73	24.15
526.078	24.16
526.425	24.11
526.772	23.87
527.119	23.88
527.466	23.79
527.814	23.93
528.161	23.88
528.508	23.95
528.854	23.95
529.201	23.93
529.548	23.78
529.895	23.71
530.242	23.65
530.588	23.61
530.935	23.41
531.282	23.57
531.628	23.66
531.975	23.86
532.321	24.18
532.667	24.29
533.014	24.33
533.36	24.52
533.706	24.4
534.052	24.4
534.399	24.37
534.745	24.19
535.091	24.07
535.437	24.21
535.783	24.35
536.129	24.31
536.474	24.66
536.82	24.61
537.166	24.82
537.512	24.83
537.857	24.99
538.203	24.83
538.549	24.86
538.894	24.75
539.239	25.11
539.585	25.24
539.93	25.15
540.276	25.35
540.621	25.47
540.966	25.52
541.311	25.51
541.656	25.48
542.001	25.43
542.346	25.26
542.691	24.99
543.036	24.79
543.381	24.9
543.726	24.88
544.071	24.96
544.415	25.21
544.76	25.18
545.105	25.41
545.449	25.44
545.794	25.54
546.138	25.7
546.483	25.86
546.827	25.89
547.171	25.98
547.516	26.05
547.86	25.96
548.204	25.94
548.548	26
548.892	26.01
549.236	26.02
549.58	26.16
549.924	26.24
550.268	26.5
550.612	26.65
550.956	26.53
551.3	26.8
551.643	26.89
551.987	26.75
552.33	26.71
552.674	26.97
553.017	27.03
553.361	26.75
553.704	26.59
554.048	26.95
554.391	26.9
554.734	26.91
555.077	26.93
555.42	26.98
555.764	26.98
556.107	27.08
556.45	27.23
556.793	27.52
557.135	27.5
557.478	27.61
557.821	27.37
558.164	27.41
558.507	27.48
558.849	27.42
559.192	27.61
559.534	27.4
559.877	27.67
560.219	27.81
560.562	27.65
560.904	27.73
561.246	27.69
561.589	27.74
561.931	27.98
562.273	27.57
562.615	27.8
562.957	28
563.299	28.02
563.641	27.96
563.983	28.1
564.325	27.93
564.667	28.1
565.008	28.25
565.35	28.48
565.692	28.08
566.033	28.03
566.375	28.1
566.716	28.33
567.058	28.4
567.399	28.37
567.741	28.19
568.082	28.04
568.423	28.06
568.764	28.19
569.105	28.3
569.447	28.17
569.788	28.58
570.129	28.42
570.47	28.66
570.811	28.7
571.151	28.48
571.492	28.78
571.833	28.74
572.174	28.79
572.514	28.66
572.855	28.85
573.195	28.65
573.536	28.56
573.876	28.7
574.217	28.72
574.557	28.7
574.898	28.77
575.238	28.73
575.578	28.99
575.918	28.98
576.258	29.06
576.598	29.25
576.938	29.17
577.278	29
577.618	28.97
577.958	29.04
578.298	29.14
578.638	29.16
578.977	29.32
579.317	29.66
579.657	29.61
579.996	29.52
580.336	29.69
580.675	29.8
581.014	29.78
581.354	30.02
581.693	29.87
582.032	29.68
582.372	29.76
582.711	30.04
583.05	30.19
583.389	30.39
583.728	30.04
584.067	29.99
584.406	30.04
584.745	30.13
585.083	30.16
585.422	29.9
585.761	30.25
586.1	30.18
586.438	30.29
586.777	30.33
587.115	30.38
587.454	30.7
587.792	30.08
588.13	30.56
588.469	30.53
588.807	30.4
589.145	30.57
589.483	30.36
589.821	30.68
590.159	30.42
590.497	30.67
590.835	30.78
591.173	30.82
591.511	30.86
591.849	30.61
592.187	30.86
592.524	30.55
592.862	31.05
593.2	30.98
593.537	31.07
593.875	30.9
594.212	30.75
594.55	30.84
594.887	31.28
595.224	31.22
595.561	31.09
595.899	30.98
596.236	31.32
596.573	31.28
596.91	31.26
597.247	31.23
597.584	31.67
597.921	31.26
598.258	31.29
598.594	31.11
598.931	31.19
599.268	31.23
599.604	31.35
599.941	31.22
600.277	31.57
600.614	31.79
600.95	31.71
601.287	31.56
601.623	31.87
601.959	31.76
602.296	31.7
602.632	32.12
602.968	31.71
603.304	31.97
603.64	32.02
603.976	31.83
604.312	32.05
604.648	32.31
604.984	32.01
605.319	32.16
605.655	32.03
605.991	31.77
606.326	31.85
606.662	32
606.998	32.13
607.333	31.97
607.668	32.27
608.004	32.12
608.339	32.38
608.674	32.35
609.01	32.44
609.345	32.54
609.68	32.3
610.015	32.56
610.35	32.51
610.685	32.7
611.02	32.57
611.355	32.62
611.689	32.27
612.024	32.76
612.359	32.61
612.694	32.91
613.028	32.89
613.363	32.81
613.697	32.86
614.032	32.96
614.366	33.13
614.7	33.05
615.035	32.9
615.369	33.21
615.703	33.39
616.037	33.04
616.371	33.34
616.705	33.39
617.039	33.58
617.373	33.12
617.707	33.45
618.041	33.09
618.375	33.19
618.709	33.81
619.042	33.32
619.376	33.28
619.71	33.55
620.043	32.91
620.377	33.17
620.71	33.39
621.043	33.48
621.377	33.25
621.71	33.67
622.043	34.16
622.376	33.41
622.709	33.93
623.043	34.27
623.376	33.8
623.709	34.05
624.041	33.57
624.374	33.72
624.707	34.14
625.04	34.03
625.373	34.04
625.705	34.13
626.038	34.26
626.37	34.26
626.703	33.96
627.035	34.17
627.368	34.45
627.7	34.55
628.032	34.01
628.365	34.35
628.697	34.55
629.029	34.25
629.361	34.21
629.693	34.26
630.025	34.49
630.357	34.2
630.689	34.72
631.021	34.69
631.353	34.63
631.684	34.28
632.016	34.71
632.348	34.54
632.679	34.91
633.011	34.55
633.342	34.73
633.674	34.67
634.005	34.98
634.336	35.16
634.668	34.81
634.999	34.94
635.33	34.92
635.661	34.97
635.992	34.87
636.323	35.18
636.654	34.91
636.985	34.93
637.316	35.15
637.647	35.37
637.977	35.02
638.308	35.48
638.639	35.2
638.969	35.39
639.3	35.32
639.63	34.83
639.961	35.78
640.291	35.78
640.622	35.55
640.952	35.52
641.282	34.96
641.612	35.63
641.943	35.46
642.273	35.79
642.603	35.4
642.933	35.78
643.263	35.96
643.592	36.05
643.922	36.18
644.252	36.48
644.582	35.59
644.911	35.57
645.241	35.62
645.571	36.15
645.9	36.58
646.23	35.52
646.559	36.03
646.888	35.89
647.218	36.17
647.547	36.29
647.876	36.34
648.205	35.56
648.534	36.14
648.863	36.32
649.192	36.4
649.521	35.61
649.85	36.19
650.179	36.19
650.508	36.51
650.837	36.68
651.165	36.49
651.494	35.97
651.822	36.59
652.151	36.75
652.479	36.83
652.808	36.33
653.136	36.45
653.465	36.71
653.793	36.99
654.121	37.14
654.449	36.8
654.777	36.73
655.105	37.31
655.433	37.21
655.761	36.44
656.089	37.22
656.417	36.88
656.745	37.02
657.073	37.09
657.4	37.19
657.728	37.07
658.056	37.35
658.383	37.31
658.711	37.28
659.038	38.1
659.365	36.94
659.693	36.42
660.02	37.11
660.347	37.5
660.674	37.57
661.001	37.18
661.329	37.01
661.656	37.25
661.982	37.19
662.309	37.09
662.636	37.29
662.963	37.63
663.29	37.38
663.616	37.19
663.943	37.48
664.27	37.49
664.596	37.66
664.923	38.04
665.249	37.71
665.576	37.1
665.902	37.39
666.228	37.48
666.554	37.7
666.881	36.94
667.207	37.91
667.533	37.95
667.859	37.81
668.185	38.21
668.511	38.29
668.837	38.13
669.162	37.87
669.488	37.92
669.814	38.22
670.139	38.38
670.465	38.15
670.791	38.35
671.116	38.57
671.442	38.45
