Data from 0064_forehead_Reflection__1__235.txt Node

Date: Fri Dec 16 15:46:40 CST 2022
User: ToomeyLab
Spectrometer: FLMS14357
Trigger mode: 0
Integration Time (sec): 1.000000E-2
Scans to average: 100
Electric dark correction enabled: true
Nonlinearity correction enabled: false
Boxcar width: 0
XAxis mode: Wavelengths
Number of Pixels in Spectrum: 2048
>>>>>Begin Spectral Data<<<<<
189.047	-31.32
189.435	-31.32
189.823	-31.32
190.211	386.78
190.599	52.45
190.987	-70.53
191.375	98.98
191.763	-2458.06
192.151	-704.71
192.538	17.56
192.926	107.1
193.314	100.59
193.702	39.84
194.089	15.61
194.477	-12.12
194.864	231.71
195.252	39.1
195.639	146.22
196.027	-59.21
196.414	434.03
196.801	-28.51
197.189	54.78
197.576	405.57
197.963	489.96
198.351	23.73
198.738	-76.51
199.125	23.86
199.512	25.76
199.899	-38
200.286	-49.72
200.673	41.58
201.06	6.81
201.447	44.19
201.833	47.01
202.22	-3.06
202.607	18.97
202.994	22.52
203.38	-25.16
203.767	-1
204.154	-85.84
204.54	30.19
204.927	44.19
205.313	29.77
205.699	-7.89
206.086	26.98
206.472	-3.6
206.858	-17.23
207.245	43.52
207.631	-64.26
208.017	0.45
208.403	32.51
208.789	2.41
209.175	21.76
209.561	-18.08
209.947	-18.3
210.333	-14.71
210.719	23.57
211.105	-48.01
211.491	-17.89
211.876	-29.73
212.262	-126.92
212.648	-112.34
213.034	-16.98
213.419	21.01
213.805	-33.27
214.19	-3.32
214.576	-15.41
214.961	-41.93
215.346	-56.73
215.732	-16.48
216.117	-54.14
216.502	6.98
216.888	-29.6
217.273	21.86
217.658	-29.59
218.043	-6.11
218.428	-29.13
218.813	-2.5
219.198	-37.98
219.583	-5.38
219.968	-4.31
220.353	-1.53
220.738	-16.2
221.122	-4.84
221.507	-19.72
221.892	2.15
222.276	9.33
222.661	-19.55
223.046	-1.06
223.43	-1.02
223.815	12.78
224.199	6.51
224.583	-2.68
224.968	11.02
225.352	-1.26
225.736	-1.41
226.121	2.77
226.505	1.81
226.889	7.76
227.273	3.38
227.657	1.89
228.041	0.89
228.425	3.59
228.809	2.27
229.193	0.23
229.577	3.23
229.961	3.85
230.344	3.35
230.728	2.85
231.112	3.13
231.495	3.51
231.879	4.93
232.263	2.7
232.646	2.1
233.03	1.84
233.413	1.74
233.797	6.32
234.18	0.77
234.563	4.47
234.946	1.64
235.33	4.29
235.713	2.67
236.096	1.77
236.479	5.13
236.862	2.84
237.245	4.03
237.628	5.38
238.011	4.18
238.394	4.02
238.777	3.46
239.16	1.74
239.543	2.48
239.925	2.6
240.308	1.86
240.691	3.13
241.073	4.82
241.456	2.2
241.838	3.8
242.221	5.11
242.603	4.14
242.986	5.3
243.368	3.54
243.75	3.79
244.133	3.97
244.515	3.97
244.897	4.26
245.279	3.33
245.661	4.37
246.043	4.44
246.425	3.73
246.807	4.46
247.189	3.23
247.571	4.28
247.953	4.35
248.335	4.3
248.717	4.16
249.098	4.28
249.48	3.81
249.862	4.39
250.243	3.92
250.625	4.61
251.006	4.33
251.388	4.62
251.769	3.89
252.151	5.09
252.532	4.67
252.913	4.11
253.295	3.57
253.676	4.6
254.057	3.73
254.438	4.34
254.819	3.18
255.2	3.75
255.581	2.85
255.962	3.91
256.343	4.81
256.724	2.94
257.105	3.31
257.486	4.24
257.867	3.57
258.247	4.32
258.628	4.64
259.009	3.98
259.389	4.44
259.77	3.66
260.15	4.62
260.531	4.09
260.911	4.17
261.292	4.06
261.672	4.13
262.052	3.94
262.432	4.16
262.813	4.13
263.193	3.34
263.573	4
263.953	3.9
264.333	4.2
264.713	3.82
265.093	4.09
265.473	4.78
265.853	4.34
266.233	2.51
266.612	3.26
266.992	3.17
267.372	4.09
267.752	3.63
268.131	3.79
268.511	3.79
268.89	4.2
269.27	4.09
269.649	4.32
270.029	4.15
270.408	3.62
270.787	3.69
271.167	3.87
271.546	2.86
271.925	4
272.304	4.04
272.683	3.5
273.062	3.83
273.441	4.17
273.82	4.1
274.199	4.17
274.578	3.59
274.957	3.82
275.336	3.78
275.715	4.09
276.093	4.76
276.472	4.13
276.851	4.3
277.229	4.31
277.608	3.39
277.986	4
278.365	3.49
278.743	3.63
279.122	3.19
279.5	4.32
279.878	3.04
280.257	3.01
280.635	3.15
281.013	4.48
281.391	3.25
281.769	3.66
282.147	4.49
282.525	3.88
282.903	3.77
283.281	3.77
283.659	3.85
284.037	4.05
284.415	3.62
284.792	3.67
285.17	3.82
285.548	3.71
285.925	3.7
286.303	3.6
286.68	3.87
287.058	4.03
287.435	3.84
287.813	3.73
288.19	4.39
288.567	3.96
288.945	3.81
289.322	3.85
289.699	3.99
290.076	3.86
290.453	3.86
290.83	4.22
291.207	4.03
291.584	3.96
291.961	4.3
292.338	3.92
292.715	4.27
293.092	3.85
293.469	3.86
293.845	4.41
294.222	4.77
294.599	4.91
294.975	4.84
295.352	4.29
295.728	4.84
296.105	4.51
296.481	4.96
296.858	4.58
297.234	4.38
297.61	4.72
297.986	4.46
298.363	4.22
298.739	4.74
299.115	4.22
299.491	4.66
299.867	5.1
300.243	4.84
300.619	4.6
300.995	5.34
301.371	4.91
301.746	4.55
302.122	4.96
302.498	4.8
302.874	4.66
303.249	4.97
303.625	4.75
304	4.68
304.376	4.62
304.751	4.73
305.127	4.79
305.502	5.54
305.878	4.76
306.253	4.82
306.628	5.17
307.003	5.6
307.378	4.32
307.754	5.16
308.129	4.77
308.504	4.95
308.879	4.85
309.254	5.45
309.629	5.19
310.003	5.33
310.378	5.49
310.753	5.72
311.128	4.95
311.502	5.32
311.877	5.29
312.252	5.07
312.626	5.1
313.001	5.39
313.375	5.36
313.75	5.14
314.124	5.7
314.498	5.68
314.873	5.54
315.247	5.01
315.621	5.78
315.995	5.16
316.369	5.43
316.743	6.1
317.117	5.92
317.491	5.49
317.865	4.94
318.239	6.02
318.613	5.39
318.987	5.91
319.361	5.73
319.734	5.75
320.108	5.38
320.482	5.51
320.855	5.62
321.229	5.94
321.602	5.77
321.976	5.84
322.349	5.4
322.723	5.6
323.096	6.11
323.469	4.84
323.843	5.8
324.216	5.44
324.589	6.18
324.962	5.68
325.335	5.92
325.708	6.13
326.081	6.08
326.454	5.65
326.827	5.93
327.2	6.3
327.573	6.08
327.945	6.07
328.318	6
328.691	6.2
329.063	5.73
329.436	6.04
329.809	5.35
330.181	5.9
330.553	6.28
330.926	6.18
331.298	5.33
331.671	5.79
332.043	6.21
332.415	6.41
332.787	5.81
333.159	5.89
333.532	5.87
333.904	5.97
334.276	6.37
334.648	6.04
335.02	5.93
335.391	6.21
335.763	6.04
336.135	6.36
336.507	6.47
336.879	6.6
337.25	6.22
337.622	6.02
337.993	6.19
338.365	6.4
338.736	6.43
339.108	5.92
339.479	5.86
339.851	6.5
340.222	6.37
340.593	6.16
340.964	6.51
341.336	6.15
341.707	6.23
342.078	6.52
342.449	6.25
342.82	5.99
343.191	6.34
343.562	6.18
343.933	6.3
344.303	6.45
344.674	6.4
345.045	6.54
345.416	6.25
345.786	5.69
346.157	6.68
346.527	6.05
346.898	6.37
347.268	6.52
347.639	6.26
348.009	6.55
348.38	6.28
348.75	6.13
349.12	6.29
349.49	6.21
349.861	6.63
350.231	6.62
350.601	6.62
350.971	6.6
351.341	6.7
351.711	6.3
352.081	6.98
352.45	6.6
352.82	6.59
353.19	6.39
353.56	6.62
353.929	6.67
354.299	6.12
354.669	7.12
355.038	6.66
355.408	6.83
355.777	6.27
356.147	6.62
356.516	7.01
356.885	6.43
357.254	6.74
357.624	6.77
357.993	6.65
358.362	6.76
358.731	6.53
359.1	6.99
359.469	6.83
359.838	6.72
360.207	6.63
360.576	6.84
360.945	6.85
361.314	6.99
361.682	6.32
362.051	6.77
362.42	7.25
362.788	6.77
363.157	6.76
363.525	7.06
363.894	6.54
364.262	6.91
364.631	7.64
364.999	6.54
365.367	7.4
365.735	6.77
366.104	6.69
366.472	6.81
366.84	6.95
367.208	6.8
367.576	7.46
367.944	7.27
368.312	6.61
368.68	7.15
369.048	7.06
369.416	6.98
369.783	7.18
370.151	7.13
370.519	6.85
370.886	7.27
371.254	6.99
371.621	7.15
371.989	7.18
372.356	6.85
372.724	7.12
373.091	6.99
373.458	7.01
373.826	7.1
374.193	7.58
374.56	7.04
374.927	7.34
375.294	7.38
375.661	7.19
376.028	7.44
376.395	6.82
376.762	7.36
377.129	7.57
377.496	7.28
377.863	7.5
378.229	6.95
378.596	7.33
378.963	7.23
379.329	7.27
379.696	7.47
380.062	7.37
380.429	7.15
380.795	7.28
381.161	7.3
381.528	6.92
381.894	7.69
382.26	7.13
382.626	7.55
382.993	7.31
383.359	7.35
383.725	7.44
384.091	7.29
384.457	7.48
384.823	7.37
385.188	7.72
385.554	7.39
385.92	7.64
386.286	7.7
386.651	7.37
387.017	7.47
387.383	7.51
387.748	7.44
388.114	7.8
388.479	7.64
388.845	7.75
389.21	7.59
389.575	7.87
389.94	7.73
390.306	7.53
390.671	7.76
391.036	7.93
391.401	7.93
391.766	7.85
392.131	7.78
392.496	7.46
392.861	7.54
393.226	7.9
393.591	8
393.956	7.94
394.32	7.86
394.685	8
395.05	7.65
395.414	7.88
395.779	7.9
396.143	7.81
396.508	7.97
396.872	7.93
397.236	7.66
397.601	7.95
397.965	7.53
398.329	8.23
398.694	7.57
399.058	8.15
399.422	8.07
399.786	8.12
400.15	8.16
400.514	7.98
400.878	8.02
401.242	8.16
401.605	8.1
401.969	7.84
402.333	8.2
402.697	8.34
403.06	8.19
403.424	8.15
403.787	8.18
404.151	7.96
404.514	8.27
404.878	8.1
405.241	8.23
405.604	8.35
405.968	8.22
406.331	8.25
406.694	8.17
407.057	8.48
407.42	8.03
407.783	8.11
408.146	8.35
408.509	8.18
408.872	8.06
409.235	8.23
409.598	8.36
409.961	8.39
410.323	8.3
410.686	8.42
411.049	8.31
411.411	8.47
411.774	8.36
412.136	8.43
412.499	8.35
412.861	8.36
413.223	8.56
413.586	8.42
413.948	8.33
414.31	8.44
414.672	8.3
415.035	8.5
415.397	8.56
415.759	8.29
416.121	8.82
416.483	8.64
416.845	8.75
417.206	8.67
417.568	8.62
417.93	8.49
418.292	8.43
418.653	8.63
419.015	8.56
419.377	8.74
419.738	8.46
420.1	8.63
420.461	8.44
420.822	8.61
421.184	8.63
421.545	8.58
421.906	8.62
422.267	8.51
422.629	8.48
422.99	8.47
423.351	8.67
423.712	8.7
424.073	8.71
424.434	8.57
424.795	8.57
425.155	8.67
425.516	8.65
425.877	8.73
426.238	8.69
426.598	8.81
426.959	8.79
427.32	8.94
427.68	8.88
428.041	8.93
428.401	8.87
428.761	8.98
429.122	8.96
429.482	8.98
429.842	8.93
430.202	8.85
430.563	8.98
430.923	8.77
431.283	9.13
431.643	9.17
432.003	9.2
432.363	9.42
432.722	9.08
433.082	9.12
433.442	9.11
433.802	9.08
434.161	9.07
434.521	9.1
434.881	9.16
435.24	9.04
435.6	9.23
435.959	9.19
436.319	9.13
436.678	9.24
437.037	9.36
437.396	9.28
437.756	9.29
438.115	9.16
438.474	9.34
438.833	9.43
439.192	9.46
439.551	9.43
439.91	9.4
440.269	9.5
440.628	9.32
440.987	9.18
441.345	9.37
441.704	9.28
442.063	9.35
442.421	9.42
442.78	9.25
443.138	9.29
443.497	9.3
443.855	9.48
444.214	9.59
444.572	9.47
444.93	9.6
445.288	9.61
445.647	9.61
446.005	9.4
446.363	9.64
446.721	9.5
447.079	9.54
447.437	9.41
447.795	9.43
448.153	9.53
448.51	9.5
448.868	9.6
449.226	9.59
449.584	9.66
449.941	9.61
450.299	9.74
450.656	9.68
451.014	9.72
451.371	9.94
451.729	9.84
452.086	9.6
452.443	9.68
452.801	9.86
453.158	9.86
453.515	9.8
453.872	9.87
454.229	9.77
454.586	9.86
454.943	9.8
455.3	10.11
455.657	9.71
456.014	10
456.371	9.9
456.727	9.78
457.084	10.03
457.441	9.87
457.797	9.96
458.154	9.9
458.51	10.12
458.867	10.07
459.223	9.95
459.58	9.97
459.936	10.15
460.292	10.08
460.648	9.94
461.005	9.93
461.361	9.92
461.717	9.95
462.073	10
462.429	10.08
462.785	10.11
463.141	10.29
463.496	10.11
463.852	10.35
464.208	10.28
464.564	10.03
464.919	10.17
465.275	10.23
465.631	10.26
465.986	10.3
466.342	10.37
466.697	10.35
467.052	10.37
467.408	10.43
467.763	10.26
468.118	10.3
468.473	10.53
468.829	10.61
469.184	10.61
469.539	10.41
469.894	10.35
470.249	10.52
470.603	10.46
470.958	10.56
471.313	10.59
471.668	10.83
472.023	10.6
472.377	10.57
472.732	10.49
473.086	10.52
473.441	10.72
473.795	10.83
474.15	10.79
474.504	10.63
474.859	10.69
475.213	10.67
475.567	10.65
475.921	10.72
476.275	10.83
476.63	10.83
476.984	10.8
477.338	10.92
477.692	10.79
478.045	10.78
478.399	10.98
478.753	10.86
479.107	10.95
479.461	10.91
479.814	10.78
480.168	10.84
480.521	10.93
480.875	11.09
481.228	10.91
481.582	10.96
481.935	10.99
482.289	10.82
482.642	10.87
482.995	10.82
483.348	10.81
483.701	10.89
484.055	10.79
484.408	10.79
484.761	10.56
485.114	10.48
485.466	10.39
485.819	10.46
486.172	10.59
486.525	10.71
486.878	10.82
487.23	10.84
487.583	10.91
487.936	10.9
488.288	10.83
488.641	10.78
488.993	10.69
489.345	10.71
489.698	10.82
490.05	10.86
490.402	10.96
490.754	11.04
491.107	11.13
491.459	11.21
491.811	11.17
492.163	11.26
492.515	11.08
492.866	10.87
493.218	10.92
493.57	11.1
493.922	11.05
494.274	11.23
494.625	11.33
494.977	11.42
495.328	11.54
495.68	11.72
496.031	11.58
496.383	11.63
496.734	11.62
497.086	11.5
497.437	11.64
497.788	11.52
498.139	11.64
498.49	11.6
498.842	11.45
499.193	11.66
499.544	11.67
499.894	11.65
500.245	11.68
500.596	11.63
500.947	11.81
501.298	11.75
501.648	11.77
501.999	11.89
502.35	11.87
502.7	11.93
503.051	11.96
503.401	11.95
503.752	12.01
504.102	11.83
504.452	11.85
504.803	11.79
505.153	11.99
505.503	11.97
505.853	11.84
506.203	12.08
506.553	12.15
506.903	12.14
507.253	12.03
507.603	12.14
507.953	12.15
508.303	12.14
508.652	12.11
509.002	12.11
509.352	12.18
509.701	12.13
510.051	12.18
510.4	12.09
510.75	12.19
511.099	12.12
511.449	12.25
511.798	12.21
512.147	12.3
512.496	12.29
512.846	12.17
513.195	12.24
513.544	12.29
513.893	12.27
514.242	12.44
514.591	12.37
514.939	12.33
515.288	12.31
515.637	12.52
515.986	12.27
516.334	12.64
516.683	12.51
517.032	12.48
517.38	12.5
517.729	12.69
518.077	12.61
518.426	12.57
518.774	12.37
519.122	12.51
519.47	12.42
519.819	12.33
520.167	12.49
520.515	12.45
520.863	12.48
521.211	12.55
521.559	12.64
521.907	12.58
522.255	12.69
522.602	12.8
522.95	12.83
523.298	12.81
523.645	12.77
523.993	12.95
524.341	12.77
524.688	12.76
525.036	12.91
525.383	12.87
525.73	12.87
526.078	12.87
526.425	12.74
526.772	12.68
527.119	12.68
527.466	12.65
527.814	12.8
528.161	12.84
528.508	12.84
528.854	12.81
529.201	12.76
529.548	12.56
529.895	12.41
530.242	12.37
530.588	12.51
530.935	12.59
531.282	12.71
531.628	12.78
531.975	12.93
532.321	12.95
532.667	13.02
533.014	13.09
533.36	13.1
533.706	13.05
534.052	12.95
534.399	12.88
534.745	12.78
535.091	12.87
535.437	12.96
535.783	13.09
536.129	13.1
536.474	13.28
536.82	13.23
537.166	13.36
537.512	13.32
537.857	13.32
538.203	13.25
538.549	13.37
538.894	13.43
539.239	13.48
539.585	13.66
539.93	13.46
540.276	13.51
540.621	13.61
540.966	13.51
541.311	13.56
541.656	13.51
542.001	13.4
542.346	13.17
542.691	13.16
543.036	13.07
543.381	13.23
543.726	13.36
544.071	13.49
544.415	13.51
544.76	13.46
545.105	13.66
545.449	13.62
545.794	13.69
546.138	13.75
546.483	13.88
546.827	13.91
547.171	13.78
547.516	13.92
547.86	13.71
548.204	13.72
548.548	13.92
548.892	13.87
549.236	13.91
549.58	14.06
549.924	14.02
550.268	14.18
550.612	14.2
550.956	14.05
551.3	14.17
551.643	14.23
551.987	14.26
552.33	14.16
552.674	14.22
553.017	14.36
553.361	14.31
553.704	14.17
554.048	14.15
554.391	14.18
554.734	14.29
555.077	14.24
555.42	14.15
555.764	14.44
556.107	14.47
556.45	14.33
556.793	14.64
557.135	14.62
557.478	14.49
557.821	14.4
558.164	14.57
558.507	14.43
558.849	14.56
559.192	14.59
559.534	14.34
559.877	14.63
560.219	14.69
560.562	14.93
560.904	14.63
561.246	14.76
561.589	14.57
561.931	14.72
562.273	14.56
562.615	14.7
562.957	14.68
563.299	14.7
563.641	14.92
563.983	14.85
564.325	14.76
564.667	14.96
565.008	14.81
565.35	15.09
565.692	14.94
566.033	14.75
566.375	14.6
566.716	14.95
567.058	14.99
567.399	15.01
567.741	14.92
568.082	14.87
568.423	15.05
568.764	14.94
569.105	15.12
569.447	14.98
569.788	15.04
570.129	14.89
570.47	15.1
570.811	15.07
571.151	15.11
571.492	15.29
571.833	15.16
572.174	15.15
572.514	15.16
572.855	15.26
573.195	15
573.536	15.24
573.876	15.17
574.217	15.35
574.557	15.2
574.898	15.27
575.238	15.24
575.578	15.41
575.918	15.32
576.258	15.26
576.598	15.36
576.938	15.47
577.278	15.37
577.618	15.58
577.958	15.59
578.298	15.49
578.638	15.46
578.977	15.63
579.317	15.65
579.657	15.5
579.996	15.66
580.336	15.72
580.675	15.75
581.014	15.69
581.354	16.01
581.693	15.66
582.032	15.78
582.372	15.86
582.711	16.04
583.05	16.04
583.389	15.99
583.728	16.01
584.067	15.85
584.406	16.12
584.745	15.92
585.083	16.09
585.422	15.8
585.761	16.03
586.1	16.27
586.438	16
586.777	16.04
587.115	16.08
587.454	16
587.792	16.07
588.13	16.25
588.469	16.25
588.807	16.19
589.145	16.4
589.483	16.12
589.821	16.17
590.159	16.51
590.497	16.28
590.835	16.19
591.173	16.52
591.511	16.42
591.849	16.24
592.187	16.36
592.524	16.43
592.862	16.43
593.2	16.32
593.537	16.32
593.875	16.19
594.212	16.46
594.55	16.36
594.887	16.56
595.224	16.48
595.561	16.47
595.899	16.6
596.236	16.41
596.573	16.32
596.91	16.49
597.247	16.72
597.584	16.64
597.921	16.41
598.258	16.5
598.594	16.42
598.931	16.45
599.268	16.62
599.604	16.79
599.941	16.7
600.277	16.76
600.614	16.65
600.95	16.62
601.287	16.66
601.623	16.86
601.959	16.93
602.296	16.61
602.632	17.31
602.968	16.9
603.304	16.99
603.64	17.12
603.976	16.77
604.312	16.97
604.648	16.87
604.984	16.89
605.319	16.68
605.655	16.78
605.991	16.84
606.326	16.89
606.662	16.72
606.998	16.89
607.333	17.09
607.668	17.27
608.004	17.22
608.339	17.24
608.674	17.27
609.01	17.37
609.345	17.5
609.68	16.78
610.015	17.29
610.35	17.31
610.685	17.22
611.02	17.38
611.355	17.51
611.689	17.14
612.024	17.58
612.359	17.39
612.694	17.51
613.028	17.69
613.363	17.32
613.697	17.7
614.032	17.23
614.366	17.32
614.7	17.55
615.035	17.36
615.369	17.68
615.703	17.64
616.037	17.47
616.371	17.61
616.705	17.61
617.039	17.97
617.373	17.39
617.707	17.55
618.041	17.98
618.375	17.38
618.709	17.95
619.042	17.58
619.376	17.71
619.71	17.72
620.043	17.82
620.377	17.88
620.71	17.56
621.043	17.67
621.377	17.9
621.71	17.73
622.043	17.97
622.376	17.56
622.709	18.41
623.043	18.17
623.376	17.97
623.709	18.21
624.041	18.04
624.374	17.96
624.707	18.17
625.04	18.12
625.373	18.13
625.705	18.24
626.038	18.18
626.37	18.19
626.703	18.08
627.035	18.2
627.368	18.45
627.7	18.16
628.032	18.26
628.365	18.08
628.697	18.02
629.029	18.82
629.361	17.83
629.693	18.31
630.025	18.03
630.357	18.12
630.689	18.89
631.021	18.72
631.353	18.71
631.684	18.31
632.016	18.11
632.348	18.6
632.679	18.51
633.011	18.21
633.342	18.69
633.674	18.35
634.005	18.77
634.336	18.42
634.668	18.3
634.999	18.69
635.33	18.81
635.661	18.5
635.992	18.22
636.323	18.86
636.654	18.49
636.985	18.31
637.316	18.97
637.647	18.99
637.977	18.52
638.308	18.66
638.639	18.6
638.969	18.57
639.3	18.79
639.63	18.61
639.961	19.05
640.291	19.44
640.622	19.01
640.952	19.26
641.282	18.31
641.612	18.72
641.943	19.08
642.273	18.97
642.603	19.09
642.933	18.72
643.263	19.56
643.592	19.02
643.922	19.14
644.252	18.89
644.582	18.87
644.911	19.2
645.241	19.1
645.571	19.44
645.9	19.66
646.23	19.37
646.559	19.7
646.888	19.23
647.218	19.47
647.547	19.17
647.876	19.39
648.205	19.01
648.534	19.34
648.863	19.47
649.192	19.32
649.521	19.08
649.85	19.33
650.179	19.34
650.508	19.02
650.837	19.52
651.165	19.83
651.494	19.49
651.822	19.5
652.151	19.84
652.479	20.06
652.808	19.45
653.136	19.6
653.465	19.88
653.793	20.07
654.121	19.81
654.449	19.72
654.777	19.73
655.105	20.11
655.433	19.63
655.761	19.56
656.089	20.24
656.417	19.92
656.745	19.75
657.073	19.86
657.4	20.5
657.728	19.95
658.056	19.95
658.383	20.59
658.711	19.82
659.038	20.45
659.365	20.14
659.693	20.12
660.02	20.08
660.347	19.98
660.674	19.52
661.001	19.83
661.329	20.15
661.656	19.91
661.982	20.45
662.309	20.41
662.636	20.11
662.963	20.45
663.29	20.05
663.616	20.11
663.943	20.61
664.27	20.24
664.596	19.75
664.923	20.66
665.249	20.43
665.576	20.12
665.902	19.93
666.228	19.76
666.554	19.91
666.881	20.06
667.207	20.44
667.533	20.51
667.859	20.06
668.185	19.95
668.511	20.35
668.837	19.88
669.162	20.27
669.488	20.11
669.814	20.54
670.139	20.86
670.465	20.68
670.791	20.66
671.116	20.39
671.442	20.66
671.767	20.19
672.092	21
672.418	20.44
672.743	21.12
673.068	20.5
673.393	20.8
673.718	20.43
674.043	20.97
674.368	20.82
674.693	20.57
675.018	20.75
675.343	20.74
675.667	20.36
675.992	20.6
676.317	19.88
676.641	21.28
676.966	21.19
677.29	20.56
