Data from 0064_crown_Reflection__1__230.txt Node

Date: Fri Dec 16 15:45:31 CST 2022
User: ToomeyLab
Spectrometer: FLMS14357
Trigger mode: 0
Integration Time (sec): 1.000000E-2
Scans to average: 100
Electric dark correction enabled: true
Nonlinearity correction enabled: false
Boxcar width: 0
XAxis mode: Wavelengths
Number of Pixels in Spectrum: 2048
>>>>>Begin Spectral Data<<<<<
189.047	-19.14
189.435	-19.14
189.823	-19.14
190.211	-71.81
190.599	17.7
190.987	3.42
191.375	180.48
191.763	-2459.45
192.151	-438
192.538	104.1
192.926	-82.18
193.314	59.06
193.702	284.38
194.089	-474.59
194.477	-40.61
194.864	-170.65
195.252	-543.32
195.639	166.61
196.027	199.04
196.414	122.63
196.801	81.16
197.189	56.42
197.576	-210.74
197.963	205.29
198.351	3.74
198.738	-96.23
199.125	24.4
199.512	21.14
199.899	-38.42
200.286	-13.77
200.673	34.23
201.06	49.09
201.447	-12.6
201.833	-7.37
202.22	-18.58
202.607	-15.36
202.994	-6.48
203.38	-55.03
203.767	-14.58
204.154	-218.6
204.54	30.7
204.927	-19.72
205.313	4.09
205.699	-8.06
206.086	-59.63
206.472	-61.86
206.858	-15.68
207.245	-22.8
207.631	-53.67
208.017	44.52
208.403	-24.33
208.789	15.19
209.175	34.54
209.561	1.47
209.947	-15.58
210.333	-35.64
210.719	-33.38
211.105	-72.57
211.491	8.98
211.876	-0.65
212.262	-173
212.648	-75.67
213.034	-14.75
213.419	20.35
213.805	-19.34
214.19	-11.24
214.576	-18.5
214.961	-27.96
215.346	-50.16
215.732	-6.06
216.117	-17.82
216.502	-27.13
216.888	-33.43
217.273	9.84
217.658	-5.12
218.043	-10.03
218.428	-5.29
218.813	-4
219.198	-47.77
219.583	-19
219.968	-28.34
220.353	2.91
220.738	-5.46
221.122	-1.63
221.507	-22.27
221.892	4.03
222.276	5.08
222.661	-16.06
223.046	-5.23
223.43	-7.94
223.815	-6.32
224.199	-2.94
224.583	-10.14
224.968	-4.42
225.352	-1.55
225.736	0.96
226.121	-4.68
226.505	1.4
226.889	2.69
227.273	-2.75
227.657	1.29
228.041	2.88
228.425	0.32
228.809	2.45
229.193	3.44
229.577	4.58
229.961	4.53
230.344	4.61
230.728	4.54
231.112	3.77
231.495	2.99
231.879	3.22
232.263	2.33
232.646	1.77
233.03	3.41
233.413	2.36
233.797	2.56
234.18	2.23
234.563	3.07
234.946	3.59
235.33	4.06
235.713	2.12
236.096	4.07
236.479	3.38
236.862	4.25
237.245	2.07
237.628	2.84
238.011	3.74
238.394	5.11
238.777	3.95
239.16	2.19
239.543	3.4
239.925	5.17
240.308	3.78
240.691	1.46
241.073	2.87
241.456	1.89
241.838	3.98
242.221	4.78
242.603	3.5
242.986	4.59
243.368	3.88
243.75	3.71
244.133	4.03
244.515	3.37
244.897	3.51
245.279	3.6
245.661	3.57
246.043	2.91
246.425	2.76
246.807	3.76
247.189	3.27
247.571	4.1
247.953	3.79
248.335	3.91
248.717	4.12
249.098	4.12
249.48	3.57
249.862	4.4
250.243	3.81
250.625	3.57
251.006	3.91
251.388	3.67
251.769	4
252.151	3.48
252.532	3.48
252.913	3.68
253.295	3.52
253.676	4.08
254.057	3.68
254.438	3.33
254.819	4.51
255.2	4.5
255.581	3.1
255.962	2.1
256.343	3.1
256.724	2.86
257.105	3.68
257.486	3.6
257.867	1.84
258.247	3.81
258.628	4.43
259.009	3.77
259.389	3.39
259.77	3.63
260.15	4.17
260.531	3.5
260.911	3.8
261.292	3.65
261.672	3.9
262.052	3.89
262.432	3.69
262.813	3.95
263.193	3.06
263.573	3.94
263.953	3.89
264.333	3.47
264.713	3.18
265.093	2.65
265.473	3.66
265.853	4.15
266.233	2.87
266.612	3.57
266.992	3.17
267.372	3.74
267.752	3.05
268.131	3.69
268.511	3.61
268.89	3.74
269.27	3.95
269.649	4.01
270.029	3.77
270.408	3.92
270.787	3.51
271.167	3.69
271.546	3.27
271.925	3.56
272.304	4.22
272.683	3.51
273.062	3.87
273.441	3.83
273.82	3.98
274.199	3.37
274.578	3.17
274.957	3.62
275.336	3.57
275.715	4.1
276.093	3.66
276.472	3.28
276.851	4.24
277.229	3.94
277.608	3.11
277.986	3.38
278.365	3.57
278.743	3.56
279.122	3.55
279.5	3.19
279.878	2.65
280.257	3.3
280.635	3.07
281.013	3.79
281.391	3.37
281.769	3.71
282.147	3.62
282.525	3.16
282.903	3.67
283.281	3.59
283.659	3.45
284.037	3.64
284.415	3.6
284.792	3.36
285.17	3.18
285.548	3.04
285.925	3.71
286.303	3.42
286.68	3.58
287.058	3.37
287.435	3.44
287.813	3.69
288.19	4.14
288.567	3.35
288.945	3.73
289.322	3.41
289.699	3.66
290.076	3.48
290.453	3.07
290.83	3.73
291.207	3.05
291.584	3.15
291.961	3.53
292.338	3.59
292.715	3.39
293.092	3.36
293.469	3.53
293.845	3.44
294.222	3.01
294.599	3.6
294.975	3.75
295.352	3.68
295.728	3.75
296.105	3.51
296.481	3.91
296.858	3.46
297.234	3.42
297.61	3.7
297.986	3.4
298.363	3.27
298.739	3.48
299.115	3.2
299.491	3.62
299.867	3.9
300.243	3.45
300.619	3.84
300.995	3.81
301.371	3.56
301.746	3.32
302.122	3.11
302.498	3.35
302.874	3.3
303.249	3.49
303.625	3.62
304	2.84
304.376	3.37
304.751	3
305.127	3.61
305.502	3.72
305.878	3.16
306.253	3.14
306.628	3.58
307.003	2.99
307.378	2.84
307.754	3.16
308.129	2.89
308.504	3.36
308.879	3.5
309.254	3.36
309.629	3.23
310.003	3.61
310.378	3.45
310.753	3.72
311.128	2.99
311.502	3.13
311.877	3.16
312.252	3.06
312.626	3.19
313.001	3.21
313.375	3.45
313.75	3.57
314.124	3.69
314.498	3.11
314.873	2.98
315.247	2.99
315.621	3.6
315.995	3.18
316.369	3.38
316.743	3.61
317.117	3.51
317.491	2.9
317.865	2.9
318.239	3.47
318.613	3.24
318.987	3.7
319.361	4.06
319.734	3.63
320.108	2.97
320.482	3.23
320.855	2.87
321.229	3.7
321.602	3.37
321.976	2.84
322.349	2.37
322.723	2.74
323.096	2.81
323.469	3.01
323.843	3.13
324.216	2.93
324.589	3.54
324.962	3.44
325.335	3.39
325.708	2.99
326.081	3.41
326.454	3.36
326.827	3.44
327.2	3.79
327.573	3.25
327.945	3.53
328.318	3.59
328.691	3.73
329.063	2.9
329.436	3.03
329.809	3.13
330.181	3.14
330.553	3.34
330.926	2.85
331.298	2.63
331.671	3.42
332.043	3.61
332.415	3.26
332.787	3.9
333.159	2.99
333.532	3.26
333.904	3.02
334.276	3.3
334.648	3.19
335.02	3.31
335.391	3.44
335.763	2.9
336.135	2.91
336.507	3.47
336.879	3.33
337.25	2.84
337.622	3
337.993	3.38
338.365	3.28
338.736	3.51
339.108	2.77
339.479	3.53
339.851	3.34
340.222	3.46
340.593	2.59
340.964	3.35
341.336	2.54
341.707	3.15
342.078	3.17
342.449	3.46
342.82	3.43
343.191	3.12
343.562	2.93
343.933	3.2
344.303	3.48
344.674	3.19
345.045	3.63
345.416	3.28
345.786	2.96
346.157	2.93
346.527	3.07
346.898	2.64
347.268	3.13
347.639	3.33
348.009	3.75
348.38	3.29
348.75	3.24
349.12	3.31
349.49	3.19
349.861	3.54
350.231	3.36
350.601	3.44
350.971	3.65
351.341	3.54
351.711	3.11
352.081	3.28
352.45	3.46
352.82	3.3
353.19	3.32
353.56	2.97
353.929	3.4
354.299	3.21
354.669	3.73
355.038	3.31
355.408	3.72
355.777	3.48
356.147	3.06
356.516	3.44
356.885	3.17
357.254	3.31
357.624	3.47
357.993	3.31
358.362	3.5
358.731	3.08
359.1	3.31
359.469	3.19
359.838	3.2
360.207	3.23
360.576	3.48
360.945	3.46
361.314	3.24
361.682	3
362.051	3.34
362.42	3.5
362.788	3.36
363.157	3.13
363.525	3.26
363.894	3.26
364.262	3.22
364.631	3.92
364.999	3
365.367	3.63
365.735	3.16
366.104	3.22
366.472	3.55
366.84	3.51
367.208	3.13
367.576	3.62
367.944	3.6
368.312	3
368.68	3.69
369.048	3.38
369.416	3.46
369.783	3.19
370.151	3.42
370.519	3.53
370.886	3.45
371.254	3.69
371.621	3.57
371.989	3.39
372.356	3.42
372.724	3.36
373.091	3.38
373.458	3.45
373.826	3.51
374.193	3.58
374.56	3.31
374.927	3.11
375.294	3.61
375.661	3.56
376.028	3.52
376.395	3.32
376.762	3.43
377.129	3.66
377.496	3.64
377.863	3.61
378.229	2.91
378.596	3.27
378.963	3.26
379.329	3.44
379.696	3.37
380.062	3.27
380.429	3.44
380.795	3.23
381.161	3.35
381.528	3.1
381.894	3.58
382.26	3.37
382.626	3.35
382.993	3.08
383.359	3.37
383.725	3.52
384.091	3.47
384.457	3.66
384.823	3.56
385.188	3.6
385.554	3.65
385.92	3.68
386.286	3.7
386.651	3.54
387.017	3.72
387.383	3.65
387.748	3.31
388.114	3.43
388.479	3.72
388.845	3.42
389.21	3.6
389.575	3.55
389.94	3.61
390.306	3.75
390.671	3.44
391.036	3.84
391.401	3.76
391.766	3.61
392.131	3.53
392.496	3.63
392.861	3.35
393.226	3.68
393.591	3.64
393.956	3.5
394.32	3.58
394.685	3.55
395.05	3.52
395.414	3.55
395.779	3.43
396.143	3.51
396.508	3.74
396.872	3.89
397.236	3.31
397.601	3.7
397.965	3.26
398.329	3.69
398.694	3.54
399.058	3.55
399.422	3.8
399.786	3.45
400.15	3.44
400.514	3.45
400.878	3.52
401.242	3.68
401.605	3.48
401.969	3.66
402.333	3.68
402.697	3.6
403.06	3.66
403.424	3.71
403.787	3.89
404.151	3.5
404.514	3.48
404.878	3.61
405.241	3.62
405.604	3.49
405.968	3.66
406.331	3.78
406.694	3.71
407.057	3.81
407.42	3.55
407.783	3.58
408.146	3.57
408.509	3.59
408.872	3.54
409.235	3.62
409.598	3.91
409.961	3.8
410.323	3.71
410.686	3.61
411.049	3.48
411.411	3.62
411.774	3.63
412.136	3.68
412.499	3.58
412.861	3.38
413.223	3.62
413.586	3.46
413.948	3.54
414.31	3.83
414.672	3.63
415.035	3.81
415.397	3.8
415.759	3.48
416.121	3.83
416.483	3.8
416.845	3.84
417.206	3.77
417.568	3.58
417.93	3.54
418.292	3.81
418.653	3.66
419.015	3.59
419.377	3.66
419.738	3.64
420.1	3.7
420.461	3.6
420.822	3.61
421.184	3.68
421.545	3.63
421.906	3.69
422.267	3.46
422.629	3.55
422.99	3.65
423.351	3.66
423.712	3.63
424.073	3.76
424.434	3.6
424.795	3.61
425.155	3.66
425.516	3.6
425.877	3.66
426.238	3.6
426.598	3.62
426.959	3.62
427.32	3.63
427.68	3.81
428.041	3.84
428.401	3.51
428.761	3.69
429.122	3.77
429.482	3.73
429.842	3.79
430.202	3.68
430.563	3.81
430.923	3.49
431.283	3.86
431.643	3.75
432.003	3.65
432.363	3.79
432.722	3.59
433.082	3.83
433.442	3.71
433.802	3.78
434.161	3.56
434.521	3.72
434.881	3.69
435.24	3.7
435.6	3.72
435.959	3.48
436.319	3.57
436.678	3.89
437.037	3.82
437.396	3.76
437.756	3.74
438.115	3.71
438.474	3.89
438.833	3.75
439.192	3.8
439.551	3.77
439.91	3.76
440.269	3.73
440.628	3.64
440.987	3.76
441.345	3.55
441.704	3.71
442.063	3.72
442.421	3.77
442.78	3.63
443.138	3.64
443.497	3.75
443.855	3.81
444.214	3.73
444.572	3.69
444.93	3.74
445.288	3.73
445.647	3.82
446.005	3.63
446.363	3.78
446.721	3.62
447.079	3.74
447.437	3.63
447.795	3.62
448.153	3.59
448.51	3.65
448.868	3.85
449.226	3.76
449.584	3.79
449.941	3.85
450.299	3.74
450.656	3.91
451.014	3.78
451.371	3.86
451.729	3.83
452.086	3.68
452.443	3.75
452.801	3.84
453.158	3.74
453.515	3.6
453.872	3.88
454.229	3.79
454.586	3.82
454.943	3.69
455.3	4.04
455.657	3.64
456.014	3.97
456.371	3.79
456.727	3.76
457.084	3.73
457.441	3.79
457.797	3.92
458.154	3.84
458.51	3.67
458.867	3.6
459.223	3.81
459.58	3.66
459.936	3.63
460.292	3.8
460.648	3.64
461.005	3.65
461.361	3.75
461.717	3.73
462.073	3.74
462.429	3.8
462.785	3.91
463.141	3.92
463.496	3.83
463.852	4.01
464.208	3.95
464.564	3.59
464.919	3.64
465.275	3.75
465.631	3.91
465.986	3.72
466.342	3.88
466.697	3.66
467.052	3.79
467.408	3.79
467.763	3.78
468.118	3.95
468.473	3.92
468.829	3.74
469.184	3.97
469.539	3.65
469.894	3.9
470.249	3.92
470.603	3.83
470.958	3.86
471.313	3.94
471.668	3.93
472.023	4.06
472.377	3.74
472.732	3.7
473.086	3.66
473.441	3.77
473.795	3.82
474.15	3.66
474.504	3.79
474.859	3.83
475.213	3.88
475.567	3.77
475.921	3.97
476.275	3.92
476.63	3.85
476.984	3.88
477.338	4.01
477.692	3.9
478.045	3.71
478.399	3.9
478.753	3.72
479.107	3.94
479.461	3.81
479.814	3.81
480.168	3.85
480.521	3.82
480.875	4.01
481.228	3.89
481.582	3.7
481.935	3.71
482.289	3.79
482.642	3.82
482.995	3.92
483.348	3.84
483.701	3.86
484.055	3.72
484.408	3.68
484.761	3.57
485.114	3.54
485.466	3.56
485.819	3.64
486.172	3.76
486.525	3.82
486.878	3.79
487.23	3.83
487.583	3.79
487.936	3.86
488.288	3.66
488.641	3.75
488.993	3.59
489.345	3.65
489.698	3.76
490.05	3.78
490.402	3.83
490.754	3.9
491.107	3.96
491.459	3.93
491.811	3.92
492.163	3.82
492.515	3.71
492.866	3.61
493.218	3.68
493.57	3.8
493.922	3.77
494.274	3.88
494.625	3.88
494.977	3.84
495.328	3.97
495.68	4.03
496.031	4.01
496.383	3.84
496.734	3.98
497.086	3.66
497.437	3.95
497.788	3.79
498.139	3.91
498.49	3.98
498.842	3.83
499.193	3.99
499.544	4.04
499.894	3.9
500.245	4.04
500.596	3.94
500.947	4
501.298	3.85
501.648	3.9
501.999	4.25
502.35	3.99
502.7	3.99
503.051	4.09
503.401	3.95
503.752	3.87
504.102	3.88
504.452	3.99
504.803	3.78
505.153	4.02
505.503	3.96
505.853	3.87
506.203	4
506.553	4.02
506.903	3.89
507.253	3.98
507.603	3.92
507.953	4.11
508.303	3.99
508.652	3.93
509.002	4.05
509.352	4
509.701	4.1
510.051	4.06
510.4	4
510.75	3.98
511.099	3.91
511.449	3.96
511.798	4.09
512.147	3.9
512.496	4.02
512.846	3.96
513.195	3.97
513.544	4.05
513.893	3.87
514.242	4.06
514.591	4.08
514.939	3.92
515.288	3.99
515.637	4.05
515.986	3.82
516.334	4.12
516.683	3.98
517.032	3.93
517.38	4.03
517.729	4.1
518.077	4
518.426	3.98
518.774	3.96
519.122	3.97
519.47	4.01
519.819	4
520.167	3.93
520.515	3.87
520.863	4.02
521.211	4.03
521.559	4.04
521.907	3.94
522.255	4.07
522.602	4.08
522.95	4.08
523.298	4.08
523.645	4.1
523.993	4.15
524.341	4.02
524.688	4.11
525.036	4.21
525.383	4.03
525.73	3.99
526.078	4.06
526.425	3.98
526.772	3.81
527.119	3.91
527.466	3.94
527.814	3.95
528.161	4.03
528.508	3.97
528.854	3.92
529.201	3.95
529.548	3.76
529.895	3.75
530.242	3.79
530.588	3.89
530.935	3.93
531.282	4.02
531.628	4.03
531.975	4.05
532.321	4.02
532.667	4.02
533.014	4.09
533.36	4
533.706	4.01
534.052	3.88
534.399	3.86
534.745	3.84
535.091	3.91
535.437	3.97
535.783	4.11
536.129	4.05
536.474	4.15
536.82	4.01
537.166	4.13
537.512	4
537.857	3.95
538.203	4.04
538.549	4.11
538.894	4.11
539.239	4.2
539.585	4.22
539.93	4.07
540.276	4.02
540.621	4.04
540.966	4.03
541.311	4.16
541.656	3.95
542.001	4.03
542.346	3.96
542.691	3.89
543.036	3.87
543.381	3.92
543.726	4.05
544.071	4.13
544.415	4.05
544.76	4.01
545.105	4.08
545.449	4.06
545.794	4.12
546.138	4.14
546.483	4.01
546.827	4.1
547.171	4.02
547.516	4.22
547.86	4.06
548.204	4.06
548.548	4.17
548.892	4.21
549.236	4.34
549.58	4.13
549.924	4.22
550.268	4.29
550.612	4.3
550.956	4.12
551.3	4.16
551.643	4.26
551.987	4.19
552.33	4.12
552.674	4.17
553.017	4.23
553.361	4.09
553.704	4.14
554.048	4.28
554.391	4.06
554.734	4.04
555.077	4.23
555.42	4.23
555.764	4.17
556.107	4.32
556.45	4.04
556.793	4.44
557.135	4.47
557.478	4.31
557.821	4.15
558.164	4.29
558.507	4.11
558.849	4.21
559.192	4.43
559.534	3.98
559.877	4.34
560.219	4.23
560.562	4.24
560.904	4.19
561.246	4.41
561.589	4.11
561.931	4.51
562.273	4.22
562.615	4.13
562.957	4.39
563.299	4.41
563.641	4.32
563.983	4.26
564.325	4.03
564.667	4.21
565.008	4.21
565.35	4.38
565.692	4.33
566.033	4.23
566.375	3.96
566.716	4.3
567.058	4.25
567.399	4.19
567.741	4.34
568.082	4.26
568.423	4.18
568.764	4.45
569.105	4.26
569.447	4.05
569.788	4.37
570.129	4.22
570.47	4.36
570.811	4.23
571.151	4.23
571.492	4.44
571.833	4.17
572.174	4.21
572.514	4.21
572.855	4.31
573.195	4.16
573.536	4.33
573.876	4.21
574.217	4.09
574.557	4.42
574.898	4.2
575.238	4.3
575.578	4.35
575.918	4.3
576.258	4.27
576.598	4.19
576.938	4.45
577.278	4.34
577.618	4.24
577.958	4.13
578.298	4.41
578.638	4.32
578.977	4.3
579.317	4.42
579.657	4.37
579.996	4.32
580.336	4.25
580.675	4.43
581.014	4.37
581.354	4.47
581.693	4.49
582.032	4.15
582.372	4.36
582.711	4.29
583.05	4.41
583.389	4.52
583.728	4.31
584.067	4.25
584.406	4.44
584.745	4.35
585.083	4.67
585.422	4.25
585.761	4.48
586.1	4.43
586.438	4.39
586.777	4.29
587.115	4.42
587.454	4.35
587.792	4.28
588.13	4.54
588.469	4.52
588.807	4.48
589.145	4.42
589.483	4.05
589.821	4.44
590.159	4.13
590.497	3.97
590.835	4.25
591.173	4.52
591.511	4.4
591.849	4.42
592.187	4.33
592.524	4.41
592.862	4.53
593.2	4.39
593.537	4.23
593.875	4.42
594.212	4.21
594.55	4.43
594.887	4.46
595.224	4.22
595.561	4.19
595.899	4.39
596.236	4.36
596.573	4.32
596.91	4.45
597.247	4.26
597.584	4.34
597.921	4.36
598.258	4.36
598.594	4.16
598.931	4.27
599.268	4.38
599.604	4.63
599.941	4.45
600.277	4.47
600.614	4.42
600.95	4.59
601.287	4.5
601.623	4.56
601.959	4.53
602.296	4.58
602.632	4.49
602.968	4.4
603.304	4.26
603.64	4.19
603.976	4.29
604.312	4.66
604.648	4.52
604.984	4.25
605.319	4.53
605.655	4.31
605.991	4.39
606.326	4.28
606.662	4.24
606.998	4.34
607.333	4.29
607.668	4.53
608.004	4.56
608.339	4.49
608.674	4.26
609.01	4.54
609.345	4.55
609.68	4.1
610.015	4.51
610.35	4.52
610.685	4.5
611.02	4.61
611.355	4.41
611.689	4.08
612.024	4.56
612.359	4.53
612.694	4.8
613.028	4.77
613.363	4.35
613.697	4.66
614.032	4.58
614.366	4.6
614.7	4.78
615.035	4.35
615.369	4.43
615.703	4.88
616.037	4.62
616.371	4.43
616.705	4.12
617.039	4.69
617.373	4.56
617.707	4.27
618.041	4.46
618.375	4.38
618.709	4.37
619.042	4.21
619.376	4.42
619.71	4.24
620.043	4.53
620.377	4.53
620.71	4.65
621.043	4.3
621.377	4.34
621.71	4.53
622.043	4.68
622.376	4.75
622.709	4.68
623.043	4.18
623.376	4.73
623.709	4.46
624.041	4.76
624.374	4.02
624.707	4.15
625.04	4.73
625.373	4.21
625.705	4.86
626.038	4.22
626.37	4.56
626.703	4.47
627.035	4.65
627.368	4.87
627.7	4.37
628.032	4.44
628.365	4.41
628.697	4.55
629.029	4.67
629.361	4.22
629.693	4.65
630.025	4.77
630.357	4.44
630.689	4.93
631.021	4.55
631.353	4.56
631.684	4.41
632.016	4.42
632.348	4.62
632.679	4.41
633.011	4.46
633.342	4.51
633.674	4.6
634.005	5.05
634.336	4.68
634.668	4.23
634.999	4.56
635.33	4.52
635.661	4.45
635.992	4.44
636.323	4.38
636.654	4.64
636.985	4.24
637.316	4.47
637.647	4.68
637.977	4.53
638.308	4.04
638.639	4.45
638.969	4.66
639.3	4.6
639.63	4.1
639.961	4.73
640.291	4.97
640.622	4.64
640.952	4.68
641.282	4.17
641.612	4.4
641.943	5.17
642.273	4.86
642.603	4.8
642.933	4.57
643.263	4.67
643.592	4.64
643.922	5.05
644.252	4.24
644.582	4.74
644.911	4.48
645.241	4.7
645.571	4.19
645.9	4.97
646.23	4.5
646.559	5.03
646.888	4.38
647.218	4.78
647.547	4.71
647.876	4.83
648.205	4.29
648.534	4.46
648.863	4.9
649.192	4.81
649.521	4.22
649.85	4.94
650.179	4.19
650.508	4.39
650.837	4.46
651.165	5.02
651.494	4.87
651.822	4.75
652.151	5
652.479	5.01
652.808	4.38
653.136	4.68
653.465	4.51
653.793	4.64
654.121	5.25
654.449	4.63
654.777	4.84
655.105	4.83
655.433	4.82
655.761	4.51
656.089	4.51
656.417	4.71
656.745	4.87
657.073	4.61
657.4	4.95
657.728	4.29
658.056	4.6
658.383	4.84
658.711	4.3
659.038	4.64
659.365	5.03
659.693	4.73
660.02	4.62
660.347	4.99
660.674	4.41
661.001	4.4
661.329	4.8
661.656	4.79
661.982	4.98
662.309	5.08
662.636	4.53
662.963	5.23
663.29	5.29
663.616	5.17
663.943	5.18
664.27	4.92
664.596	4.84
664.923	5.16
665.249	4.5
665.576	4.61
665.902	4.85
666.228	4.4
666.554	4.52
666.881	4.72
667.207	4.32
667.533	4.65
667.859	4.69
668.185	4.98
668.511	4.26
668.837	4.58
669.162	5.07
669.488	4.28
669.814	4.81
670.139	5.18
670.465	5.22
670.791	4.91
671.116	4.68
671.442	4.71
671.767	4.54
672.092	4.78
672.418	4.52
672.743	4.26
673.068	4.58
673.393	4.82
673.718	4.96
674.043	5.46
674.368	5.31
674.693	5.1
675.018	5.11
675.343	4.81
675.667	4.97
675.992	4.22
676.317	4.8
676.641	4.23
676.966	5.07
677.29	4.63
677.615	4.91
677.939	4.44
678.264	4.39
678.588	4.92
678.912	5.52
679.236	5.02
679.56	4.08
679.885	4.91
680.209	3.89
680.532	4.52
680.856	4.73
681.18	4.75
681.504	4.34
681.828	4.21
682.152	4.92
682.475	4.83
682.799	4.91
683.122	4.94
683.446	4.13
683.769	4.91
684.093	4.86
684.416	4.81
684.739	5.29
685.062	5.49
685.386	4.59
685.709	4.95
686.032	4.52
686.355	4.96
686.678	4.58
687.001	4.07
687.324	4.6
687.646	4.51
687.969	4.73
688.292	4.97
688.614	4.86
688.937	4.98
689.26	4.22
689.582	4.47
689.904	4.85
690.227	5.37
690.549	4.76
690.871	4.87
691.194	5.24
691.516	4.45
691.838	5.31
692.16	4.74
