Data from 0064_forehead_Reflection__0__234.txt Node

Date: Fri Dec 16 15:46:29 CST 2022
User: ToomeyLab
Spectrometer: FLMS14357
Trigger mode: 0
Integration Time (sec): 1.000000E-2
Scans to average: 100
Electric dark correction enabled: true
Nonlinearity correction enabled: false
Boxcar width: 0
XAxis mode: Wavelengths
Number of Pixels in Spectrum: 2048
>>>>>Begin Spectral Data<<<<<
189.047	275.14
189.435	275.14
189.823	275.14
190.211	-238.62
190.599	-24.46
190.987	-59.09
191.375	-8.16
191.763	202.3
192.151	-153.27
192.538	-2.85
192.926	-25.68
193.314	71.25
193.702	120.66
194.089	-18.69
194.477	1.09
194.864	119.17
195.252	-235.02
195.639	148.62
196.027	42.53
196.414	5.95
196.801	249.97
197.189	48.67
197.576	-8.35
197.963	-68.12
198.351	42.93
198.738	-51.64
199.125	62.72
199.512	-64.52
199.899	-30.21
200.286	-32.73
200.673	74.16
201.06	46.92
201.447	36.82
201.833	-42.04
202.22	19.44
202.607	27.67
202.994	43.12
203.38	-13.72
203.767	-27.77
204.154	-26.64
204.54	24.22
204.927	-9.8
205.313	21.37
205.699	29.89
206.086	36.1
206.472	37.47
206.858	41.82
207.245	58.13
207.631	94.21
208.017	27.22
208.403	16.96
208.789	23.64
209.175	10.67
209.561	28.82
209.947	-30.69
210.333	0.94
210.719	8.53
211.105	2.3
211.491	-23.7
211.876	-5.35
212.262	-50.7
212.648	-62.61
213.034	9.47
213.419	54.43
213.805	-0.45
214.19	-16.89
214.576	-24.84
214.961	-7.08
215.346	-3.36
215.732	-4.21
216.117	-24.37
216.502	-3.96
216.888	-25.53
217.273	18.79
217.658	19.9
218.043	3.22
218.428	24.36
218.813	5.02
219.198	22.43
219.583	28.04
219.968	-4.29
220.353	20.15
220.738	8.95
221.122	-9.19
221.507	-17.74
221.892	17.12
222.276	16.3
222.661	1.71
223.046	13.2
223.43	-4.07
223.815	4.2
224.199	9.44
224.583	18.23
224.968	15.17
225.352	-7.13
225.736	4.8
226.121	-1.23
226.505	0.75
226.889	0.54
227.273	2.51
227.657	3.99
228.041	7.59
228.425	4.96
228.809	2.74
229.193	2.45
229.577	4.42
229.961	4.81
230.344	5.25
230.728	5.35
231.112	4.54
231.495	3.42
231.879	5
232.263	4.25
232.646	5.09
233.03	3.77
233.413	5.01
233.797	7.26
234.18	1.6
234.563	4.14
234.946	4.33
235.33	5.46
235.713	5.03
236.096	6.1
236.479	6.04
236.862	5.39
237.245	5.47
237.628	5.64
238.011	4.45
238.394	6.36
238.777	3.19
239.16	1.97
239.543	2.72
239.925	3.8
240.308	3.79
240.691	3.46
241.073	4.89
241.456	3.42
241.838	3.73
242.221	5.38
242.603	4.72
242.986	5.24
243.368	5.05
243.75	4.38
244.133	4.41
244.515	4.39
244.897	4.59
245.279	4.57
245.661	4.47
246.043	4.01
246.425	4.53
246.807	5.14
247.189	4.85
247.571	4.96
247.953	4.63
248.335	4.97
248.717	4.79
249.098	4.81
249.48	4.43
249.862	4.86
250.243	4.9
250.625	4.84
251.006	5.23
251.388	5.25
251.769	5.14
252.151	5.11
252.532	4.06
252.913	5.22
253.295	4.75
253.676	4.88
254.057	4.48
254.438	4.74
254.819	4.91
255.2	5.2
255.581	5.07
255.962	4.95
256.343	6.09
256.724	4.92
257.105	5
257.486	4.52
257.867	3.75
258.247	4.89
258.628	4.87
259.009	5.19
259.389	5.28
259.77	4.42
260.15	5.08
260.531	4.8
260.911	4.79
261.292	4.61
261.672	4.37
262.052	4.71
262.432	4.85
262.813	4.37
263.193	3.84
263.573	4.93
263.953	4.67
264.333	4.83
264.713	4.98
265.093	4.13
265.473	5.39
265.853	3.88
266.233	4.88
266.612	4.53
266.992	4.29
267.372	4.51
267.752	3.73
268.131	3.92
268.511	4.3
268.89	4.6
269.27	4.85
269.649	4.94
270.029	4.21
270.408	4.76
270.787	4.32
271.167	4.25
271.546	3.77
271.925	4.56
272.304	4.54
272.683	4.33
273.062	4.56
273.441	4.78
273.82	4.7
274.199	4.33
274.578	4.28
274.957	4.72
275.336	4.3
275.715	5.15
276.093	4.73
276.472	4.48
276.851	4.29
277.229	5.37
277.608	4.39
277.986	4.69
278.365	4.56
278.743	4.99
279.122	4.47
279.5	3.74
279.878	4.11
280.257	4.68
280.635	3.85
281.013	4.95
281.391	4.67
281.769	4.6
282.147	4.79
282.525	4.55
282.903	4.15
283.281	4.76
283.659	4.41
284.037	4.76
284.415	4.69
284.792	4.03
285.17	4.66
285.548	4.29
285.925	4.58
286.303	4.35
286.68	4.69
287.058	4.54
287.435	4.32
287.813	4.61
288.19	4.83
288.567	4.18
288.945	4.59
289.322	4.24
289.699	4.72
290.076	4.99
290.453	4.4
290.83	5.1
291.207	4.52
291.584	4.59
291.961	4.25
292.338	4.81
292.715	4.72
293.092	5.15
293.469	4.95
293.845	4.92
294.222	5.38
294.599	5.04
294.975	4.98
295.352	4.53
295.728	5.15
296.105	5.03
296.481	5.16
296.858	5.29
297.234	5.3
297.61	5.08
297.986	5.12
298.363	4.78
298.739	5.09
299.115	4.7
299.491	5.33
299.867	5.09
300.243	4.77
300.619	4.96
300.995	5.13
301.371	5.43
301.746	5.55
302.122	5.65
302.498	5.82
302.874	5.32
303.249	5.55
303.625	5.53
304	5.39
304.376	5.51
304.751	5.47
305.127	5.33
305.502	5.83
305.878	5.5
306.253	5.52
306.628	5.84
307.003	5.66
307.378	5.61
307.754	5.65
308.129	5.12
308.504	5.3
308.879	5.67
309.254	5.84
309.629	5.67
310.003	6.13
310.378	5.87
310.753	5.97
311.128	6.12
311.502	5.66
311.877	5.74
312.252	5.87
312.626	5.39
313.001	5.87
313.375	5.93
313.75	5.97
314.124	6.65
314.498	6.52
314.873	6.01
315.247	6.04
315.621	6.6
315.995	6.4
316.369	6.23
316.743	6.83
317.117	6.57
317.491	6.64
317.865	6
318.239	6.86
318.613	6.95
318.987	6.54
319.361	6.12
319.734	6.33
320.108	6.57
320.482	6.46
320.855	6.64
321.229	7.26
321.602	6.55
321.976	6.96
322.349	6.57
322.723	6.22
323.096	7.11
323.469	6.34
323.843	6.74
324.216	6.44
324.589	7.23
324.962	7.07
325.335	6.89
325.708	7.09
326.081	7.26
326.454	6.8
326.827	7.22
327.2	7.15
327.573	6.98
327.945	6.45
328.318	7.06
328.691	6.8
329.063	6.94
329.436	6.82
329.809	7.01
330.181	7.56
330.553	7.28
330.926	7.63
331.298	7.17
331.671	7.77
332.043	7.36
332.415	7.94
332.787	8.15
333.159	7.54
333.532	7.36
333.904	7.45
334.276	7.3
334.648	7.36
335.02	7.15
335.391	7.91
335.763	7.59
336.135	7.65
336.507	8.26
336.879	7.41
337.25	7.6
337.622	7.96
337.993	7.87
338.365	7.73
338.736	8.29
339.108	8
339.479	7.45
339.851	8.26
340.222	8.18
340.593	7.96
340.964	8.09
341.336	7.67
341.707	8.11
342.078	7.66
342.449	7.98
342.82	7.89
343.191	7.52
343.562	8.07
343.933	8.08
344.303	8.09
344.674	7.99
345.045	8.05
345.416	8.14
345.786	7.89
346.157	8.17
346.527	8.16
346.898	8.16
347.268	8.32
347.639	8.26
348.009	8.45
348.38	8.23
348.75	8
349.12	8.57
349.49	8.46
349.861	8.6
350.231	8.54
350.601	8.4
350.971	8.59
351.341	8.78
351.711	8.33
352.081	8.65
352.45	8.98
352.82	8.6
353.19	8.32
353.56	8.57
353.929	8.91
354.299	8.51
354.669	9.05
355.038	8.67
355.408	9.38
355.777	8.84
356.147	9.49
356.516	8.9
356.885	8.99
357.254	9.07
357.624	9
357.993	8.98
358.362	9.19
358.731	8.96
359.1	9.29
359.469	9.21
359.838	9.17
360.207	8.75
360.576	9.32
360.945	9.13
361.314	9.53
361.682	9.12
362.051	9.12
362.42	9.92
362.788	9.33
363.157	9.33
363.525	9.35
363.894	9.14
364.262	9.36
364.631	10.32
364.999	9.29
365.367	9.35
365.735	9.33
366.104	9.2
366.472	9.57
366.84	9.55
367.208	9.13
367.576	9.55
367.944	9.81
368.312	9.56
368.68	9.86
369.048	9.94
369.416	10.03
369.783	9.65
370.151	10.14
370.519	9.41
370.886	9.86
371.254	10.14
371.621	9.92
371.989	10.23
372.356	10.1
372.724	10.02
373.091	10.05
373.458	10.09
373.826	10.05
374.193	10.5
374.56	10.08
374.927	10.09
375.294	10.55
375.661	10.45
376.028	10.32
376.395	10.33
376.762	10.68
377.129	10.8
377.496	10.49
377.863	10.37
378.229	10.4
378.596	10.3
378.963	10.66
379.329	10.5
379.696	10.44
380.062	10.68
380.429	11.02
380.795	10.49
381.161	10.94
381.528	10.51
381.894	11.15
382.26	10.91
382.626	10.59
382.993	10.36
383.359	10.62
383.725	11.15
384.091	10.81
384.457	11.26
384.823	11.2
385.188	11.18
385.554	11.18
385.92	11.25
386.286	11.39
386.651	11.12
387.017	11.43
387.383	11.16
387.748	11.13
388.114	11.17
388.479	11.21
388.845	11.56
389.21	11.41
389.575	11.16
389.94	11.46
390.306	11.69
390.671	11.49
391.036	11.64
391.401	11.79
391.766	11.55
392.131	11.63
392.496	11.31
392.861	11.35
393.226	11.65
393.591	11.84
393.956	11.82
394.32	11.67
394.685	12.01
395.05	11.64
395.414	11.92
395.779	11.82
396.143	12.13
396.508	11.94
396.872	12.23
397.236	11.67
397.601	12.22
397.965	11.61
398.329	12.35
398.694	11.74
399.058	12.1
399.422	12.18
399.786	12.22
400.15	11.99
400.514	12.18
400.878	12.18
401.242	12.7
401.605	12.26
401.969	12.13
402.333	12.39
402.697	12.75
403.06	12.64
403.424	12.49
403.787	12.56
404.151	12.38
404.514	12.6
404.878	12.39
405.241	12.6
405.604	12.5
405.968	12.41
406.331	12.55
406.694	12.57
407.057	12.83
407.42	12.73
407.783	12.67
408.146	12.76
408.509	12.62
408.872	12.63
409.235	12.79
409.598	12.95
409.961	12.81
410.323	12.93
410.686	12.89
411.049	13
411.411	12.96
411.774	13.07
412.136	13.16
412.499	13.19
412.861	12.9
413.223	13.18
413.586	13.13
413.948	13.26
414.31	13.6
414.672	12.98
415.035	13.36
415.397	13.41
415.759	13.38
416.121	13.65
416.483	13.55
416.845	13.47
417.206	13.39
417.568	13.51
417.93	13.22
418.292	13.58
418.653	13.66
419.015	13.55
419.377	13.41
419.738	13.35
420.1	13.49
420.461	13.41
420.822	13.34
421.184	13.61
421.545	13.43
421.906	13.54
422.267	13.39
422.629	13.43
422.99	13.53
423.351	13.59
423.712	13.73
424.073	13.66
424.434	13.7
424.795	13.76
425.155	13.81
425.516	13.7
425.877	13.76
426.238	13.81
426.598	13.95
426.959	13.92
427.32	13.93
427.68	14.19
428.041	14.13
428.401	14.09
428.761	14.25
429.122	14.28
429.482	14.23
429.842	14.34
430.202	14.31
430.563	14.5
430.923	14.42
431.283	14.65
431.643	14.6
432.003	14.43
432.363	14.76
432.722	14.62
433.082	14.56
433.442	14.44
433.802	14.76
434.161	14.51
434.521	14.81
434.881	14.73
435.24	14.73
435.6	14.75
435.959	14.8
436.319	14.91
436.678	14.79
437.037	14.88
437.396	14.94
437.756	14.95
438.115	14.89
438.474	15
438.833	15.14
439.192	15.28
439.551	15.12
439.91	15.11
440.269	15.25
440.628	15.1
440.987	15.16
441.345	15.18
441.704	15.11
442.063	15.17
442.421	15.23
442.78	15.33
443.138	15.32
443.497	15.36
443.855	15.49
444.214	15.43
444.572	15.44
444.93	15.56
445.288	15.65
445.647	15.62
446.005	15.47
446.363	15.66
446.721	15.54
447.079	15.61
447.437	15.46
447.795	15.67
448.153	15.6
448.51	15.61
448.868	15.76
449.226	15.7
449.584	15.85
449.941	15.84
450.299	15.92
450.656	16.07
451.014	16.08
451.371	16.14
451.729	16.27
452.086	16.11
452.443	16.21
452.801	16.34
453.158	16.14
453.515	16.21
453.872	16.4
454.229	16.31
454.586	16.46
454.943	16.26
455.3	16.71
455.657	16.44
456.014	16.5
456.371	16.59
456.727	16.56
457.084	16.65
457.441	16.67
457.797	16.69
458.154	16.61
458.51	16.64
458.867	16.61
459.223	16.84
459.58	16.66
459.936	16.71
460.292	16.85
460.648	16.71
461.005	16.62
461.361	16.68
461.717	16.78
462.073	16.82
462.429	16.81
462.785	17.02
463.141	17.1
463.496	17.15
463.852	17.35
464.208	17.14
464.564	17.26
464.919	17.27
465.275	17.14
465.631	17.38
465.986	17.33
466.342	17.32
466.697	17.51
467.052	17.63
467.408	17.52
467.763	17.3
468.118	17.44
468.473	17.55
468.829	17.53
469.184	17.69
469.539	17.63
469.894	17.65
470.249	17.68
470.603	17.95
470.958	17.86
471.313	17.78
471.668	17.87
472.023	18.04
472.377	17.89
472.732	18.02
473.086	17.93
473.441	18.21
473.795	18.26
474.15	18.01
474.504	18.04
474.859	18.06
475.213	18.18
475.567	18.23
475.921	18.35
476.275	18.42
476.63	18.32
476.984	18.33
477.338	18.68
477.692	18.35
478.045	18.49
478.399	18.56
478.753	18.36
479.107	18.47
479.461	18.45
479.814	18.4
480.168	18.55
480.521	18.47
480.875	18.62
481.228	18.65
481.582	18.7
481.935	18.8
482.289	18.66
482.642	18.76
482.995	18.76
483.348	18.53
483.701	18.67
484.055	18.59
484.408	18.41
484.761	18.1
485.114	18.07
485.466	18.02
485.819	18.23
486.172	18.32
486.525	18.44
486.878	18.54
487.23	18.69
487.583	18.76
487.936	18.76
488.288	18.62
488.641	18.6
488.993	18.53
489.345	18.5
489.698	18.61
490.05	18.78
490.402	19.03
490.754	19.02
491.107	19.16
491.459	19.28
491.811	19.47
492.163	19.31
492.515	19.22
492.866	18.98
493.218	18.94
493.57	19.11
493.922	19.23
494.274	19.48
494.625	19.56
494.977	19.65
495.328	19.78
495.68	20.09
496.031	19.97
496.383	20.04
496.734	20.19
497.086	19.89
497.437	20.14
497.788	20.04
498.139	20.25
498.49	20.11
498.842	20.11
499.193	20.18
499.544	20.3
499.894	20.26
500.245	20.23
500.596	20.43
500.947	20.33
501.298	20.53
501.648	20.51
501.999	20.63
502.35	20.73
502.7	20.66
503.051	20.79
503.401	21.02
503.752	20.79
504.102	20.84
504.452	21.02
504.803	20.76
505.153	20.92
505.503	20.95
505.853	20.75
506.203	21.02
506.553	21.09
506.903	21.12
507.253	21.05
507.603	21.14
507.953	21.22
508.303	21.2
508.652	21.29
509.002	21.3
509.352	21.03
509.701	21.19
510.051	21.25
510.4	21.21
510.75	21.25
511.099	21.26
511.449	21.19
511.798	21.4
512.147	21.52
512.496	21.5
512.846	21.53
513.195	21.55
513.544	21.52
513.893	21.43
514.242	21.64
514.591	21.71
514.939	21.67
515.288	21.84
515.637	21.84
515.986	21.91
516.334	22.06
516.683	21.79
517.032	21.97
517.38	22.05
517.729	22.04
518.077	22.14
518.426	21.98
518.774	22.07
519.122	22.22
519.47	22.08
519.819	21.85
520.167	22.06
520.515	21.85
520.863	21.98
521.211	22.12
521.559	22.13
521.907	22.15
522.255	22.49
522.602	22.46
522.95	22.53
523.298	22.6
523.645	22.59
523.993	22.85
524.341	22.69
524.688	22.9
525.036	22.84
525.383	22.92
525.73	22.91
526.078	22.86
526.425	22.6
526.772	22.46
527.119	22.52
527.466	22.62
527.814	22.56
528.161	22.73
528.508	22.71
528.854	22.69
529.201	22.46
529.548	22.39
529.895	22.16
530.242	22.23
530.588	22.46
530.935	22.46
531.282	22.69
531.628	22.63
531.975	22.87
532.321	22.98
532.667	23.13
533.014	23.21
533.36	23.2
533.706	23.31
534.052	23.21
534.399	23.03
534.745	22.92
535.091	23.08
535.437	23.17
535.783	23.34
536.129	23.41
536.474	23.57
536.82	23.55
537.166	23.65
537.512	23.72
537.857	23.7
538.203	23.62
538.549	23.72
538.894	23.71
539.239	24.04
539.585	24.1
539.93	24.07
540.276	24.23
540.621	24.12
540.966	24.35
541.311	24.3
541.656	24.01
542.001	24.13
542.346	23.81
542.691	23.63
543.036	23.73
543.381	23.76
543.726	23.89
544.071	24.03
544.415	24.17
544.76	24.12
545.105	24.3
545.449	24.43
545.794	24.54
546.138	24.56
546.483	24.68
546.827	24.61
547.171	24.69
547.516	24.98
547.86	24.81
548.204	24.67
548.548	24.84
548.892	25.14
549.236	25.07
549.58	25
549.924	25.24
550.268	25.37
550.612	25.27
550.956	25.47
551.3	25.47
551.643	25.63
551.987	25.58
552.33	25.53
552.674	25.72
553.017	25.72
553.361	25.81
553.704	25.51
554.048	25.73
554.391	25.63
554.734	25.62
555.077	25.92
555.42	25.92
555.764	26.01
556.107	26.02
556.45	25.86
556.793	26.3
557.135	26.29
557.478	26.32
557.821	26.16
558.164	26.27
558.507	26.12
558.849	26.24
559.192	26.41
559.534	26.26
559.877	26.34
560.219	26.6
560.562	26.85
560.904	26.85
561.246	26.45
561.589	26.44
561.931	26.8
562.273	26.68
562.615	26.58
562.957	26.8
563.299	26.67
563.641	26.8
563.983	26.94
564.325	26.7
564.667	26.85
565.008	27.23
565.35	27.37
565.692	27.03
566.033	27.01
566.375	26.89
566.716	26.96
567.058	27.22
567.399	27.36
567.741	27.27
568.082	27.11
568.423	27.11
568.764	27.32
569.105	27.29
569.447	27.32
569.788	27.48
570.129	27.47
570.47	27.64
570.811	27.67
571.151	27.52
571.492	27.58
571.833	27.61
572.174	27.49
572.514	27.8
572.855	27.79
573.195	27.71
573.536	27.91
573.876	27.71
574.217	28.01
574.557	28.09
574.898	27.61
575.238	27.82
575.578	28.26
575.918	28.04
576.258	27.91
576.598	28.19
576.938	28.18
577.278	28.04
577.618	28.1
577.958	28.09
578.298	28.23
578.638	28.22
578.977	28.38
579.317	28.76
579.657	28.45
579.996	28.57
580.336	28.78
580.675	28.74
581.014	28.71
581.354	28.71
581.693	28.92
582.032	28.53
582.372	28.65
582.711	28.82
583.05	29.24
583.389	29.12
583.728	29.08
584.067	28.93
584.406	29.21
584.745	29.08
585.083	29.19
585.422	29.23
585.761	29.26
586.1	29.45
586.438	29.14
586.777	29.51
587.115	29.45
587.454	29.96
587.792	29.29
588.13	29.65
588.469	29.58
588.807	29.72
589.145	29.73
589.483	29.63
589.821	29.94
590.159	29.42
590.497	29.86
590.835	29.74
591.173	30.09
591.511	30.03
591.849	29.94
592.187	30.06
592.524	30.18
592.862	30.17
593.2	30.01
593.537	29.95
593.875	29.96
594.212	30.07
594.55	30.06
594.887	30.08
595.224	30.26
595.561	30.28
595.899	30.27
596.236	30.32
596.573	30.22
596.91	30.42
597.247	30.24
597.584	30.39
597.921	30.29
598.258	30.38
598.594	30.16
598.931	30.35
599.268	30.3
599.604	30.58
599.941	30.6
600.277	30.76
600.614	31.14
600.95	30.92
601.287	30.89
601.623	31.45
601.959	30.7
602.296	31.02
602.632	31.08
602.968	30.85
603.304	31.16
603.64	30.94
603.976	30.67
604.312	31.18
604.648	31.03
604.984	31.17
605.319	31.29
605.655	30.97
605.991	30.99
606.326	30.9
606.662	31.36
606.998	31.38
607.333	31.28
607.668	31.52
608.004	31.63
608.339	31.53
608.674	31.56
609.01	31.42
609.345	31.98
609.68	31.33
610.015	31.61
610.35	31.78
610.685	31.65
611.02	31.67
611.355	31.6
611.689	31.83
612.024	31.99
612.359	32.08
612.694	32.23
613.028	32.04
613.363	31.73
613.697	32.24
614.032	32.39
614.366	32.06
614.7	32.31
615.035	32.36
615.369	32.51
615.703	32.62
616.037	32.42
616.371	32.77
616.705	32.76
617.039	32.63
617.373	32.4
617.707	32.41
618.041	32.84
618.375	32.75
618.709	33.28
619.042	32.95
619.376	32.62
619.71	32.74
620.043	32.59
620.377	33.07
620.71	33.24
621.043	32.96
621.377	33.11
621.71	33.31
622.043	33.12
622.376	32.86
622.709	33.17
623.043	33.24
623.376	33.2
623.709	33.67
624.041	33.56
624.374	33.34
624.707	33.63
625.04	33.41
625.373	33.18
625.705	33.61
626.038	33.3
626.37	33.49
626.703	33.31
627.035	33.55
627.368	33.48
627.7	33.82
628.032	33.65
628.365	33.84
628.697	33.59
629.029	33.87
629.361	33.56
629.693	34.08
630.025	33.72
630.357	33.41
630.689	34.37
631.021	33.74
631.353	33.99
631.684	34.15
632.016	34.21
632.348	34.32
632.679	34.42
633.011	34.08
633.342	33.99
633.674	34.47
634.005	34.32
634.336	34.7
634.668	34.33
634.999	34.24
635.33	34.74
635.661	34.67
635.992	34.36
636.323	34.48
636.654	34.37
636.985	34.6
637.316	34.94
637.647	34.83
637.977	34.6
638.308	34.57
638.639	34.64
638.969	34.46
639.3	34.85
639.63	35.11
639.961	34.97
640.291	35
640.622	34.93
640.952	35.43
641.282	34.71
641.612	35.21
641.943	35.43
642.273	35.24
642.603	35.48
642.933	35.49
643.263	35.03
643.592	34.98
643.922	35.62
644.252	35.53
644.582	35.22
644.911	35.1
645.241	35.25
645.571	35.47
645.9	35.73
646.23	35.47
646.559	35.71
646.888	35.33
647.218	35.36
647.547	35.81
647.876	35.63
648.205	35.44
648.534	35.24
648.863	36.19
649.192	35.98
649.521	35.27
649.85	35.99
650.179	35.8
650.508	35.72
650.837	35.87
651.165	35.97
651.494	35.87
651.822	36.3
652.151	36.34
652.479	36.2
652.808	36.12
653.136	35.44
653.465	35.82
653.793	36.68
654.121	36.77
654.449	36.52
654.777	36.54
655.105	36.77
655.433	36.76
655.761	35.88
656.089	36.73
656.417	36.13
656.745	36.46
657.073	36.46
657.4	36.15
657.728	36.71
658.056	37.01
658.383	36.53
658.711	36.54
659.038	37.21
659.365	36.66
659.693	36.63
660.02	37.32
660.347	37.05
660.674	36.99
661.001	36.74
661.329	37.14
661.656	36.93
661.982	36.76
662.309	37.46
662.636	37.48
662.963	37.49
663.29	37.29
663.616	37.07
663.943	37.61
664.27	37.92
664.596	37.68
664.923	37.95
665.249	37.57
665.576	37.6
665.902	37.8
666.228	37.27
666.554	37.52
666.881	37.21
667.207	37.39
667.533	38.45
667.859	37.46
668.185	38.22
668.511	37.63
668.837	37.52
669.162	37.97
669.488	38.16
669.814	37.97
670.139	38.2
670.465	38.24
670.791	38.08
671.116	38.05
671.442	37.71
671.767	37.59
