Data from 0064_chest_Reflection__2__225.txt Node

Date: Fri Dec 16 15:43:44 CST 2022
User: ToomeyLab
Spectrometer: FLMS14357
Trigger mode: 0
Integration Time (sec): 1.000000E-2
Scans to average: 100
Electric dark correction enabled: true
Nonlinearity correction enabled: false
Boxcar width: 0
XAxis mode: Wavelengths
Number of Pixels in Spectrum: 2048
>>>>>Begin Spectral Data<<<<<
189.047	82.19
189.435	82.19
189.823	82.19
190.211	-86.93
190.599	-35.37
190.987	-17.75
191.375	116.66
191.763	-929.03
192.151	457.41
192.538	57.61
192.926	-24.44
193.314	15.59
193.702	101.24
194.089	-348.46
194.477	-17.06
194.864	-124.44
195.252	18
195.639	197.49
196.027	54.5
196.414	445.26
196.801	161.4
197.189	76.22
197.576	39.46
197.963	361.69
198.351	-31.86
198.738	-25.12
199.125	73.59
199.512	7.94
199.899	-67.28
200.286	27.82
200.673	20.93
201.06	22.08
201.447	13.33
201.833	1.78
202.22	-10.28
202.607	5.52
202.994	35.16
203.38	-40.29
203.767	-11.03
204.154	-12.6
204.54	38.06
204.927	-26.24
205.313	31.93
205.699	-22.5
206.086	-35.33
206.472	-13.73
206.858	12.86
207.245	61.76
207.631	-1.66
208.017	24.89
208.403	14.46
208.789	30.63
209.175	42.87
209.561	6.4
209.947	-8.13
210.333	-0
210.719	22.91
211.105	-13.08
211.491	7
211.876	-25.68
212.262	-112.82
212.648	-80.68
213.034	-14.61
213.419	37.04
213.805	5.12
214.19	-21.17
214.576	-28.91
214.961	26.83
215.346	-30.91
215.732	-5.89
216.117	-14.23
216.502	-20.25
216.888	11.55
217.273	15.65
217.658	-6.54
218.043	-9.99
218.428	-12.06
218.813	-17.54
219.198	-37.44
219.583	-22.94
219.968	-4.95
220.353	-4.85
220.738	-12.28
221.122	-23.56
221.507	-3.59
221.892	-7.28
222.276	7.69
222.661	-9.85
223.046	7.66
223.43	-8.28
223.815	12.5
224.199	1.57
224.583	0
224.968	6.28
225.352	2.08
225.736	-1.36
226.121	1.13
226.505	-3.27
226.889	11.92
227.273	1.71
227.657	-1.75
228.041	4.36
228.425	4.36
228.809	3.26
229.193	-0.51
229.577	2.26
229.961	3.34
230.344	3.61
230.728	2.74
231.112	2.84
231.495	2.85
231.879	2.66
232.263	2.16
232.646	2.02
233.03	0.07
233.413	0.9
233.797	1.9
234.18	-0.37
234.563	2.06
234.946	3.27
235.33	2.59
235.713	2.74
236.096	2.96
236.479	2.26
236.862	3.24
237.245	2.73
237.628	2.93
238.011	1.38
238.394	4.68
238.777	2.55
239.16	1.66
239.543	3.43
239.925	2.41
240.308	4.9
240.691	2.6
241.073	2.07
241.456	2.13
241.838	2.79
242.221	3.87
242.603	3.09
242.986	3.93
243.368	2.86
243.75	2.62
244.133	2.81
244.515	3.23
244.897	2.82
245.279	2.66
245.661	2.8
246.043	3.13
246.425	1.98
246.807	3.75
247.189	2.94
247.571	3.11
247.953	3
248.335	2.91
248.717	3.16
249.098	3.15
249.48	2.81
249.862	2.96
250.243	2.97
250.625	3.29
251.006	2.71
251.388	3.74
251.769	2.82
252.151	3.27
252.532	2.94
252.913	3
253.295	2.78
253.676	3.06
254.057	2.69
254.438	2.27
254.819	2.61
255.2	2.5
255.581	2.08
255.962	2.87
256.343	3.2
256.724	3
257.105	3.01
257.486	3.37
257.867	1.99
258.247	3.35
258.628	3.23
259.009	3.07
259.389	3.36
259.77	2.74
260.15	3.01
260.531	3.14
260.911	3.16
261.292	2.89
261.672	2.73
262.052	2.92
262.432	2.42
262.813	3.05
263.193	2.34
263.573	2.97
263.953	2.72
264.333	3.08
264.713	2.28
265.093	1.67
265.473	3.59
265.853	2.19
266.233	2.95
266.612	2.39
266.992	2.45
267.372	2.97
267.752	2.38
268.131	3
268.511	3.09
268.89	2.96
269.27	3.01
269.649	3.01
270.029	2.94
270.408	3.2
270.787	2.66
271.167	3.39
271.546	1.92
271.925	3.17
272.304	2.95
272.683	2.77
273.062	3.05
273.441	3.11
273.82	3.13
274.199	3.04
274.578	2.58
274.957	2.46
275.336	2.54
275.715	3.29
276.093	3.22
276.472	3.01
276.851	2.99
277.229	2.81
277.608	2.44
277.986	2.74
278.365	2.42
278.743	3.04
279.122	2.35
279.5	2.8
279.878	1.79
280.257	2.84
280.635	2.8
281.013	2.99
281.391	2.76
281.769	2.76
282.147	2.8
282.525	2.8
282.903	2.92
283.281	2.28
283.659	2.76
284.037	3
284.415	3.26
284.792	2.86
285.17	2.23
285.548	2.53
285.925	2.77
286.303	2.91
286.68	2.99
287.058	2.66
287.435	2.69
287.813	2.99
288.19	3.22
288.567	2.5
288.945	2.75
289.322	2.89
289.699	2.74
290.076	3.33
290.453	2.25
290.83	2.94
291.207	2.99
291.584	2.82
291.961	3.19
292.338	2.69
292.715	3.19
293.092	3.13
293.469	3.17
293.845	2.83
294.222	3.35
294.599	3.1
294.975	3.13
295.352	2.77
295.728	2.96
296.105	2.64
296.481	3.48
296.858	3.35
297.234	3.13
297.61	2.98
297.986	3.04
298.363	2.55
298.739	3.2
299.115	2.8
299.491	3.11
299.867	2.86
300.243	3.09
300.619	2.92
300.995	3.48
301.371	3.18
301.746	2.83
302.122	3.15
302.498	3.13
302.874	3.11
303.249	3.18
303.625	3.22
304	2.7
304.376	3.09
304.751	2.95
305.127	2.75
305.502	3.62
305.878	3.1
306.253	2.6
306.628	3.49
307.003	3.41
307.378	2.88
307.754	3.4
308.129	3.07
308.504	2.95
308.879	3.15
309.254	3.48
309.629	3.46
310.003	3.69
310.378	3.45
310.753	3.7
311.128	3.06
311.502	2.89
311.877	3.42
312.252	3.13
312.626	3.01
313.001	3.43
313.375	3.61
313.75	3.2
314.124	3.72
314.498	3
314.873	3.01
315.247	2.8
315.621	3.53
315.995	3.22
316.369	3.49
316.743	3.49
317.117	3.35
317.491	3.88
317.865	3.08
318.239	4.06
318.613	3.46
318.987	3.21
319.361	3.49
319.734	3.51
320.108	3.23
320.482	3.21
320.855	3.16
321.229	3.72
321.602	3.67
321.976	3.03
322.349	2.98
322.723	3.32
323.096	3.59
323.469	3.16
323.843	3.98
324.216	3.52
324.589	3.57
324.962	3.55
325.335	3.56
325.708	3.65
326.081	3.79
326.454	3.78
326.827	3.93
327.2	4.11
327.573	3.55
327.945	3.2
328.318	3.79
328.691	3.78
329.063	3.65
329.436	3.7
329.809	3.44
330.181	3.19
330.553	3.61
330.926	3.6
331.298	3.54
331.671	3.85
332.043	3.89
332.415	4.1
332.787	3.8
333.159	3.82
333.532	3.64
333.904	3.89
334.276	3.38
334.648	3.86
335.02	3.32
335.391	3.57
335.763	3.47
336.135	3.85
336.507	4.09
336.879	3.35
337.25	3.69
337.622	3.96
337.993	3.82
338.365	4.23
338.736	3.54
339.108	3.16
339.479	3.36
339.851	3.94
340.222	4.03
340.593	3.58
340.964	3.56
341.336	3.36
341.707	3.51
342.078	3.46
342.449	3.89
342.82	3.7
343.191	3.47
343.562	3.53
343.933	3.91
344.303	4.19
344.674	3.94
345.045	4.24
345.416	3.58
345.786	3.32
346.157	3.86
346.527	3.23
346.898	3.64
347.268	3.4
347.639	3.48
348.009	3.96
348.38	4.27
348.75	3.99
349.12	3.95
349.49	3.8
349.861	4.01
350.231	3.69
350.601	4.02
350.971	3.29
351.341	3.91
351.711	3.52
352.081	4.13
352.45	3.95
352.82	3.65
353.19	3.83
353.56	3.77
353.929	3.79
354.299	3.48
354.669	3.63
355.038	3.73
355.408	3.83
355.777	3.64
356.147	4.17
356.516	4.25
356.885	3.46
357.254	4.01
357.624	4.09
357.993	3.8
358.362	3.92
358.731	3.89
359.1	3.94
359.469	3.91
359.838	3.83
360.207	3.62
360.576	3.92
360.945	3.71
361.314	4.36
361.682	3.45
362.051	3.85
362.42	4.18
362.788	4.06
363.157	3.82
363.525	3.9
363.894	3.54
364.262	3.77
364.631	4.72
364.999	3.92
365.367	3.62
365.735	3.44
366.104	3.81
366.472	4.04
366.84	4.15
367.208	3.53
367.576	3.94
367.944	4.21
368.312	3.78
368.68	4.08
369.048	3.87
369.416	3.83
369.783	3.75
370.151	4.04
370.519	3.68
370.886	4.01
371.254	3.92
371.621	3.91
371.989	4.22
372.356	3.73
372.724	3.9
373.091	3.8
373.458	3.92
373.826	3.78
374.193	4.46
374.56	4.01
374.927	3.71
375.294	4.3
375.661	4.2
376.028	4.31
376.395	3.87
376.762	4.28
377.129	4.32
377.496	4.41
377.863	4.11
378.229	3.86
378.596	4.27
378.963	3.96
379.329	3.83
379.696	3.92
380.062	4.19
380.429	3.98
380.795	3.9
381.161	4.06
381.528	3.54
381.894	4.37
382.26	4.14
382.626	4.01
382.993	3.94
383.359	3.86
383.725	4.11
384.091	4.14
384.457	4.18
384.823	4.47
385.188	4.23
385.554	3.93
385.92	4.47
386.286	4.3
386.651	4
387.017	4.15
387.383	4.02
387.748	3.98
388.114	4.08
388.479	4.28
388.845	4.09
389.21	4.27
389.575	4.1
389.94	4.18
390.306	3.89
390.671	4.14
391.036	4.29
391.401	4.34
391.766	4.28
392.131	4.22
392.496	4.03
392.861	4.28
393.226	4.32
393.591	4.31
393.956	4.3
394.32	4.2
394.685	4.34
395.05	4.15
395.414	4.43
395.779	4.16
396.143	4.38
396.508	4.5
396.872	4.43
397.236	4.02
397.601	4.5
397.965	4.02
398.329	4.51
398.694	4.1
399.058	4.1
399.422	4.25
399.786	4.52
400.15	4.19
400.514	4.17
400.878	4.14
401.242	4.62
401.605	4.23
401.969	4.25
402.333	4.42
402.697	4.3
403.06	4.33
403.424	4.07
403.787	4.47
404.151	4.26
404.514	4.61
404.878	4.19
405.241	4.54
405.604	4.5
405.968	4.33
406.331	4.24
406.694	4.25
407.057	4.61
407.42	4.52
407.783	4.24
408.146	4.41
408.509	4.2
408.872	4.33
409.235	4.26
409.598	4.59
409.961	4.55
410.323	4.5
410.686	4.25
411.049	4.2
411.411	4.51
411.774	4.45
412.136	4.45
412.499	4.33
412.861	4.22
413.223	4.52
413.586	4.32
413.948	4.66
414.31	4.46
414.672	4.69
415.035	4.63
415.397	4.58
415.759	4.53
416.121	4.8
416.483	4.74
416.845	4.42
417.206	4.45
417.568	4.7
417.93	4.5
418.292	4.69
418.653	4.51
419.015	4.65
419.377	4.65
419.738	4.52
420.1	4.41
420.461	4.46
420.822	4.54
421.184	4.47
421.545	4.51
421.906	4.58
422.267	4.4
422.629	4.56
422.99	4.52
423.351	4.51
423.712	4.53
424.073	4.5
424.434	4.64
424.795	4.54
425.155	4.57
425.516	4.51
425.877	4.56
426.238	4.48
426.598	4.54
426.959	4.5
427.32	4.64
427.68	4.68
428.041	4.69
428.401	4.57
428.761	4.6
429.122	4.65
429.482	4.62
429.842	4.71
430.202	4.55
430.563	4.71
430.923	4.58
431.283	4.95
431.643	4.7
432.003	4.64
432.363	4.8
432.722	4.73
433.082	4.76
433.442	4.78
433.802	4.75
434.161	4.56
434.521	4.71
434.881	4.83
435.24	4.74
435.6	4.71
435.959	4.87
436.319	4.81
436.678	4.73
437.037	4.72
437.396	4.68
437.756	4.91
438.115	4.78
438.474	4.76
438.833	4.99
439.192	4.81
439.551	4.8
439.91	4.79
440.269	5.02
440.628	4.84
440.987	4.87
441.345	4.81
441.704	4.85
442.063	4.74
442.421	4.94
442.78	4.85
443.138	4.89
443.497	4.74
443.855	4.94
444.214	4.87
444.572	4.86
444.93	4.89
445.288	4.98
445.647	5.02
446.005	4.7
446.363	4.83
446.721	4.73
447.079	4.93
447.437	4.84
447.795	4.85
448.153	4.82
448.51	4.95
448.868	5.01
449.226	4.98
449.584	4.92
449.941	5.04
450.299	4.93
450.656	5.1
451.014	4.95
451.371	5.06
451.729	5.03
452.086	4.99
452.443	4.87
452.801	5.08
453.158	4.98
453.515	4.84
453.872	5.08
454.229	4.89
454.586	4.99
454.943	5.07
455.3	5.31
455.657	5.07
456.014	5.05
456.371	5.24
456.727	5.11
457.084	5.04
457.441	4.93
457.797	5.15
458.154	5.01
458.51	5.04
458.867	5.03
459.223	5.33
459.58	5.11
459.936	5.05
460.292	5.1
460.648	5.02
461.005	4.97
461.361	5.07
461.717	5.01
462.073	5.12
462.429	5.16
462.785	5.31
463.141	5.18
463.496	5.28
463.852	5.28
464.208	5.23
464.564	4.98
464.919	5.25
465.275	5.3
465.631	5.03
465.986	5.2
466.342	5.3
466.697	5.22
467.052	5.28
467.408	5.25
467.763	5.21
468.118	5.36
468.473	5.4
468.829	5.3
469.184	5.27
469.539	5.25
469.894	5.34
470.249	5.32
470.603	5.34
470.958	5.52
471.313	5.24
471.668	5.55
472.023	5.43
472.377	5.57
472.732	5.47
473.086	5.06
473.441	5.32
473.795	5.42
474.15	5.46
474.504	5.6
474.859	5.42
475.213	5.5
475.567	5.35
475.921	5.55
476.275	5.48
476.63	5.45
476.984	5.38
477.338	5.73
477.692	5.53
478.045	5.46
478.399	5.59
478.753	5.4
479.107	5.58
479.461	5.58
479.814	5.42
480.168	5.44
480.521	5.57
480.875	5.77
481.228	5.61
481.582	5.44
481.935	5.7
482.289	5.41
482.642	5.59
482.995	5.62
483.348	5.54
483.701	5.58
484.055	5.44
484.408	5.4
484.761	5.27
485.114	5.24
485.466	5.22
485.819	5.28
486.172	5.35
486.525	5.44
486.878	5.43
487.23	5.55
487.583	5.54
487.936	5.57
488.288	5.44
488.641	5.42
488.993	5.36
489.345	5.41
489.698	5.49
490.05	5.48
490.402	5.59
490.754	5.63
491.107	5.65
491.459	5.66
491.811	5.78
492.163	5.71
492.515	5.61
492.866	5.44
493.218	5.46
493.57	5.59
493.922	5.62
494.274	5.72
494.625	5.72
494.977	5.76
495.328	5.92
495.68	5.87
496.031	5.85
496.383	5.79
496.734	5.93
497.086	5.84
497.437	5.89
497.788	5.87
498.139	5.97
498.49	5.88
498.842	5.9
499.193	5.89
499.544	6.09
499.894	6.02
500.245	5.96
500.596	6.02
500.947	6.03
501.298	6.01
501.648	6.03
501.999	6.18
502.35	6.13
502.7	6
503.051	6.25
503.401	6.02
503.752	6.15
504.102	6.11
504.452	6.03
504.803	6.03
505.153	6.11
505.503	5.97
505.853	5.98
506.203	6.22
506.553	6.17
506.903	6.18
507.253	6.25
507.603	6.05
507.953	6.37
508.303	6.15
508.652	6.11
509.002	6.28
509.352	6.11
509.701	6.14
510.051	6.08
510.4	6.21
510.75	6.16
511.099	6.11
511.449	6.15
511.798	6.35
512.147	6.27
512.496	6.26
512.846	6.18
513.195	6.28
513.544	6.29
513.893	6.16
514.242	6.3
514.591	6.4
514.939	6.3
515.288	6.44
515.637	6.25
515.986	6.29
516.334	6.46
516.683	6.44
517.032	6.46
517.38	6.4
517.729	6.4
518.077	6.55
518.426	6.39
518.774	6.5
519.122	6.31
519.47	6.42
519.819	6.31
520.167	6.39
520.515	6.28
520.863	6.48
521.211	6.32
521.559	6.51
521.907	6.42
522.255	6.48
522.602	6.61
522.95	6.57
523.298	6.54
523.645	6.59
523.993	6.76
524.341	6.56
524.688	6.6
525.036	6.72
525.383	6.68
525.73	6.58
526.078	6.54
526.425	6.6
526.772	6.41
527.119	6.55
527.466	6.58
527.814	6.51
528.161	6.58
528.508	6.53
528.854	6.52
529.201	6.5
529.548	6.43
529.895	6.3
530.242	6.35
530.588	6.43
530.935	6.51
531.282	6.57
531.628	6.62
531.975	6.69
532.321	6.7
532.667	6.71
533.014	6.8
533.36	6.8
533.706	6.83
534.052	6.67
534.399	6.66
534.745	6.59
535.091	6.6
535.437	6.8
535.783	6.85
536.129	6.83
536.474	6.98
536.82	6.87
537.166	6.85
537.512	6.94
537.857	6.91
538.203	6.88
538.549	6.92
538.894	6.93
539.239	7.14
539.585	7.13
539.93	7.01
540.276	7.09
540.621	7.05
540.966	7.21
541.311	7.13
541.656	6.97
542.001	6.99
542.346	7
542.691	6.83
543.036	6.84
543.381	6.95
543.726	7.05
544.071	7.05
544.415	7.07
544.76	6.96
545.105	7.09
545.449	7.12
545.794	7.23
546.138	7.2
546.483	7.26
546.827	7.27
547.171	7.2
547.516	7.41
547.86	7.31
548.204	7.28
548.548	7.4
548.892	7.37
549.236	7.39
549.58	7.4
549.924	7.43
550.268	7.62
550.612	7.65
550.956	7.42
551.3	7.71
551.643	7.48
551.987	7.72
552.33	7.59
552.674	7.79
553.017	7.63
553.361	7.65
553.704	7.62
554.048	7.73
554.391	7.62
554.734	7.71
555.077	7.74
555.42	7.74
555.764	7.85
556.107	7.78
556.45	7.92
556.793	7.75
557.135	8.04
557.478	7.89
557.821	7.86
558.164	7.85
558.507	7.85
558.849	7.84
559.192	7.94
559.534	7.88
559.877	7.99
560.219	8.09
560.562	8.05
560.904	8.02
561.246	7.92
561.589	8
561.931	7.96
562.273	8.1
562.615	7.89
562.957	8.03
563.299	8.27
563.641	8.32
563.983	8.23
564.325	7.93
564.667	8.01
565.008	8.05
565.35	8.34
565.692	8.32
566.033	8.18
566.375	7.92
566.716	8.3
567.058	8.35
567.399	8.18
567.741	8.39
568.082	8.2
568.423	8.33
568.764	8.19
569.105	8.34
569.447	8.35
569.788	8.34
570.129	8.3
570.47	8.41
570.811	8.47
571.151	8.48
571.492	8.57
571.833	8.46
572.174	8.55
572.514	8.37
572.855	8.46
573.195	8.36
573.536	8.56
573.876	8.51
574.217	8.67
574.557	8.56
574.898	8.47
575.238	8.63
575.578	8.66
575.918	8.51
576.258	8.49
576.598	8.68
576.938	8.85
577.278	8.62
577.618	8.72
577.958	8.76
578.298	8.8
578.638	8.81
578.977	9
579.317	9.03
579.657	8.85
579.996	8.93
580.336	8.71
580.675	9.03
581.014	8.98
581.354	9.17
581.693	8.9
582.032	8.77
582.372	9.31
582.711	9.05
583.05	9.06
583.389	9.06
583.728	9.28
584.067	9.09
584.406	9.39
584.745	9.16
585.083	9.45
585.422	9.35
585.761	9.19
586.1	9.29
586.438	9.04
586.777	9.12
587.115	9.35
587.454	9.57
587.792	9.31
588.13	9.59
588.469	9.62
588.807	9.59
589.145	9.48
589.483	9.54
589.821	9.54
590.159	9.49
590.497	9.3
590.835	9.58
591.173	9.58
591.511	9.68
591.849	9.79
592.187	9.72
592.524	9.55
592.862	9.72
593.2	9.71
593.537	9.88
593.875	9.79
594.212	9.72
594.55	9.6
594.887	9.84
595.224	9.77
595.561	9.87
595.899	9.77
596.236	9.56
596.573	9.72
596.91	9.7
597.247	9.7
597.584	10.05
597.921	9.77
598.258	9.9
598.594	9.63
598.931	9.8
599.268	9.87
599.604	10.07
599.941	9.8
600.277	10.12
600.614	10.22
600.95	10.09
601.287	9.96
601.623	10.46
601.959	9.92
602.296	10.29
602.632	10.14
602.968	10.19
603.304	10
603.64	10.15
603.976	10.06
604.312	10.37
604.648	10.34
604.984	10.01
605.319	10.33
605.655	10.17
605.991	10.22
606.326	10.13
606.662	10.17
606.998	10.24
607.333	10.13
607.668	10.63
608.004	10.45
608.339	10.65
608.674	10.51
609.01	10.59
609.345	10.64
609.68	10.46
610.015	10.6
610.35	10.43
610.685	10.59
611.02	10.69
611.355	10.49
611.689	10.19
612.024	10.91
612.359	10.65
612.694	10.73
613.028	10.91
613.363	10.61
613.697	10.71
614.032	10.85
614.366	10.79
614.7	11.2
615.035	10.8
615.369	10.75
615.703	11.23
616.037	10.9
616.371	10.62
616.705	11.11
617.039	11.25
617.373	11.02
617.707	10.81
618.041	11.1
618.375	10.93
618.709	11.6
619.042	11.23
619.376	11.16
619.71	11.09
620.043	11.09
620.377	11.25
620.71	11.16
621.043	10.97
621.377	11.15
621.71	11.29
622.043	11.35
622.376	11.24
622.709	11.48
623.043	11.29
623.376	11.66
623.709	11.85
624.041	11.22
624.374	11.22
624.707	11.38
625.04	11.29
625.373	11.7
625.705	11.52
626.038	11.7
626.37	11.69
626.703	11.56
627.035	11.52
627.368	11.89
627.7	12.05
628.032	11.59
628.365	11.52
628.697	11.27
629.029	11.95
629.361	11.53
629.693	12.26
630.025	11.68
630.357	11.49
630.689	12.55
631.021	11.72
631.353	12.22
631.684	11.98
632.016	11.95
632.348	11.85
632.679	12.04
633.011	12.07
633.342	12.05
633.674	12.01
634.005	12.05
634.336	12.17
634.668	12.27
634.999	11.89
635.33	11.8
635.661	12.15
635.992	12.16
636.323	12.24
636.654	12.06
636.985	12.54
637.316	12.23
637.647	12.72
637.977	12.18
638.308	12.34
638.639	12.14
638.969	12.19
639.3	12.42
639.63	12.48
639.961	12.22
640.291	13.16
640.622	12.56
640.952	12.44
641.282	12.02
641.612	12.41
641.943	12.83
642.273	12.63
642.603	12.68
642.933	12.34
643.263	12.75
643.592	12.77
643.922	13.25
644.252	12.84
644.582	12.92
644.911	12.7
645.241	12.76
645.571	12.67
645.9	12.99
646.23	12.72
646.559	12.56
646.888	12.89
647.218	13.06
647.547	13.13
647.876	13.49
648.205	12.43
648.534	12.89
648.863	12.71
649.192	12.73
649.521	12.54
649.85	13.11
650.179	13.02
650.508	12.92
650.837	13.65
651.165	13.31
651.494	13.06
651.822	13.32
652.151	13.64
652.479	13.4
652.808	13.16
653.136	13.15
653.465	13.47
653.793	13.51
654.121	13.14
654.449	13.15
654.777	13.23
655.105	13.54
655.433	13.36
655.761	13.22
656.089	13.52
656.417	13.7
656.745	13.75
657.073	13.85
657.4	13.94
657.728	13.58
658.056	13.29
658.383	14.04
658.711	13.33
659.038	14.04
659.365	13.26
659.693	13.23
660.02	13.47
660.347	13.57
660.674	13.41
661.001	13.49
661.329	13.77
661.656	13.99
661.982	13.89
662.309	13.92
662.636	14.02
662.963	14.03
663.29	14.15
663.616	13.82
663.943	14.15
664.27	13.94
664.596	13.85
664.923	14.51
665.249	14.18
665.576	14.4
665.902	13.97
666.228	14.1
666.554	14
666.881	14.65
667.207	14.35
667.533	14.27
667.859	13.95
668.185	14.12
668.511	13.68
668.837	14.11
669.162	14.36
669.488	14.02
669.814	14.58
670.139	15.01
670.465	14.77
670.791	14.42
671.116	14.59
671.442	14.61
671.767	14.45
672.092	15.06
672.418	14.61
672.743	14.3
673.068	14.23
673.393	14.45
673.718	13.97
674.043	14.25
674.368	15.44
674.693	14.93
675.018	15.09
675.343	15.29
675.667	14.67
675.992	13.87
676.317	14.3
676.641	15.2
676.966	14.74
677.29	15.17
677.615	15.04
677.939	14.53
678.264	14.96
678.588	15.85
678.912	15.48
679.236	14.8
679.56	14.65
679.885	15.2
680.209	15.09
680.532	15.14
680.856	15.16
681.18	14.81
681.504	14.96
681.828	15.05
682.152	14.66
682.475	14.99
682.799	15.66
683.122	14.9
683.446	14.85
683.769	15.89
684.093	15.29
684.416	15.37
684.739	15.15
685.062	15.05
685.386	15.84
685.709	15.36
686.032	14.71
686.355	15.98
686.678	15.81
