Data from 0064_chest_Reflection__3__226.txt Node

Date: Fri Dec 16 15:43:57 CST 2022
User: ToomeyLab
Spectrometer: FLMS14357
Trigger mode: 0
Integration Time (sec): 1.000000E-2
Scans to average: 100
Electric dark correction enabled: true
Nonlinearity correction enabled: false
Boxcar width: 0
XAxis mode: Wavelengths
Number of Pixels in Spectrum: 2048
>>>>>Begin Spectral Data<<<<<
189.047	161.64
189.435	161.64
189.823	161.64
190.211	-643.61
190.599	-5.96
190.987	-181.33
191.375	-48.68
191.763	1600.46
192.151	-218.71
192.538	61.78
192.926	126.73
193.314	41.95
193.702	45.03
194.089	-609.98
194.477	-25.57
194.864	0.05
195.252	-24.89
195.639	123.1
196.027	-206.72
196.414	-366.05
196.801	-69.22
197.189	89.84
197.576	2.63
197.963	-63.68
198.351	41.86
198.738	-35.82
199.125	26.15
199.512	-73.77
199.899	-57.03
200.286	-96.11
200.673	30.6
201.06	45.94
201.447	28.68
201.833	7.99
202.22	18.28
202.607	-14.98
202.994	25.23
203.38	-0.22
203.767	-33.53
204.154	-36.86
204.54	49.23
204.927	53.8
205.313	42.15
205.699	-7.54
206.086	-32.81
206.472	-4.28
206.858	24.04
207.245	44.31
207.631	21.35
208.017	8.38
208.403	32.44
208.789	0.13
209.175	50.85
209.561	24.74
209.947	28.34
210.333	-24.19
210.719	12.8
211.105	-14.35
211.491	-16.06
211.876	-32.59
212.262	-67.65
212.648	-5.91
213.034	-3.95
213.419	38.86
213.805	-27.16
214.19	-4.7
214.576	-22.13
214.961	-10.72
215.346	-35.06
215.732	1.96
216.117	-43.98
216.502	-5.39
216.888	-18.1
217.273	53.52
217.658	-7.33
218.043	18.62
218.428	19.15
218.813	-20.38
219.198	-24.01
219.583	2.25
219.968	2.12
220.353	30.05
220.738	-14.02
221.122	-9.38
221.507	7.09
221.892	-1.1
222.276	9.42
222.661	-12.75
223.046	-2.76
223.43	-6.75
223.815	0.07
224.199	6.36
224.583	2.2
224.968	6.56
225.352	-5.07
225.736	10.83
226.121	-2.14
226.505	-3.44
226.889	12.39
227.273	5.22
227.657	1.95
228.041	2.03
228.425	2.33
228.809	5.4
229.193	1.16
229.577	3.62
229.961	4.43
230.344	4.16
230.728	3.67
231.112	3.68
231.495	1.61
231.879	5.02
232.263	2.25
232.646	4.24
233.03	1.52
233.413	4.08
233.797	4.37
234.18	0.47
234.563	1.13
234.946	3.98
235.33	3.26
235.713	3.43
236.096	2.39
236.479	3.37
236.862	3.82
237.245	5.22
237.628	4.01
238.011	4.61
238.394	4.89
238.777	3.72
239.16	3.09
239.543	2.54
239.925	4.44
240.308	4.92
240.691	3.83
241.073	3.47
241.456	2.12
241.838	3.18
242.221	3.94
242.603	3.65
242.986	4.49
243.368	3.69
243.75	3.6
244.133	3.66
244.515	3.87
244.897	3.62
245.279	3.75
245.661	3.65
246.043	3.47
246.425	2.08
246.807	4.27
247.189	3.5
247.571	3.73
247.953	3.6
248.335	3.87
248.717	3.68
249.098	3.93
249.48	3.52
249.862	3.76
250.243	3.54
250.625	3.48
251.006	3.54
251.388	4.74
251.769	3.44
252.151	3.64
252.532	3.66
252.913	3.64
253.295	3.6
253.676	3.82
254.057	2.89
254.438	3.4
254.819	3.5
255.2	3.01
255.581	2.81
255.962	4.48
256.343	4.05
256.724	3.68
257.105	3.51
257.486	3.73
257.867	2.38
258.247	2.82
258.628	3.86
259.009	3.13
259.389	4.11
259.77	3.1
260.15	3.94
260.531	3.46
260.911	3.36
261.292	3.45
261.672	3.41
262.052	3.48
262.432	3.57
262.813	3.55
263.193	3.26
263.573	3.12
263.953	3.31
264.333	3.35
264.713	3.1
265.093	3.39
265.473	3.63
265.853	2.57
266.233	2.3
266.612	3
266.992	2.85
267.372	3.6
267.752	2.76
268.131	3.38
268.511	3.47
268.89	3.43
269.27	3.52
269.649	3.83
270.029	2.94
270.408	3.16
270.787	3.57
271.167	3.3
271.546	2.5
271.925	3.52
272.304	4.01
272.683	3.13
273.062	3.31
273.441	3.35
273.82	3.56
274.199	3.57
274.578	2.85
274.957	3.44
275.336	3.15
275.715	3.29
276.093	3.97
276.472	3.17
276.851	3.75
277.229	3.67
277.608	3.18
277.986	3.6
278.365	2.7
278.743	4.08
279.122	3.01
279.5	3.27
279.878	2.98
280.257	3.65
280.635	2.69
281.013	3.6
281.391	3.51
281.769	3.23
282.147	3.14
282.525	3.13
282.903	3.87
283.281	2.99
283.659	2.91
284.037	3.07
284.415	3.61
284.792	3.41
285.17	2.69
285.548	3.43
285.925	3.08
286.303	3.02
286.68	3.85
287.058	3.65
287.435	2.96
287.813	3.6
288.19	3.81
288.567	3.01
288.945	3.27
289.322	3.49
289.699	3.51
290.076	3.46
290.453	3.28
290.83	3.4
291.207	3.48
291.584	2.71
291.961	3.5
292.338	3.3
292.715	3.4
293.092	3.47
293.469	3.5
293.845	3.71
294.222	3.3
294.599	3.83
294.975	3.58
295.352	2.99
295.728	3.56
296.105	3.5
296.481	3.73
296.858	3.4
297.234	3.56
297.61	3.72
297.986	3.61
298.363	3.2
298.739	3.69
299.115	3.12
299.491	3.18
299.867	3.73
300.243	3.48
300.619	3.77
300.995	3.45
301.371	3.55
301.746	3.18
302.122	3.65
302.498	3.61
302.874	3.49
303.249	3.74
303.625	3.13
304	3.44
304.376	3.43
304.751	3.8
305.127	3.53
305.502	3.77
305.878	3.22
306.253	3.39
306.628	3.68
307.003	4.02
307.378	3.35
307.754	3.65
308.129	3.61
308.504	3.6
308.879	3.27
309.254	3.67
309.629	3.39
310.003	4.07
310.378	3.78
310.753	4.08
311.128	3.42
311.502	3.52
311.877	3.53
312.252	3.66
312.626	3.65
313.001	3.11
313.375	3.73
313.75	3.3
314.124	4.35
314.498	3.66
314.873	3.52
315.247	3.06
315.621	3.74
315.995	3.7
316.369	3.6
316.743	3.69
317.117	3.68
317.491	4.04
317.865	3.19
318.239	3.97
318.613	3.68
318.987	3.67
319.361	3.32
319.734	4.23
320.108	3.96
320.482	3.64
320.855	3.9
321.229	4.25
321.602	3.87
321.976	3.84
322.349	3.3
322.723	3.32
323.096	3.42
323.469	3.24
323.843	3.9
324.216	3.34
324.589	4.14
324.962	3.45
325.335	3.41
325.708	3.91
326.081	3.94
326.454	3.49
326.827	3.77
327.2	4.01
327.573	3.59
327.945	4.09
328.318	3.8
328.691	4.17
329.063	3.72
329.436	3.42
329.809	3.7
330.181	3.86
330.553	4.14
330.926	4.11
331.298	3.72
331.671	3.52
332.043	3.81
332.415	3.78
332.787	4.52
333.159	3.51
333.532	3.92
333.904	4.19
334.276	4.06
334.648	3.89
335.02	3.5
335.391	4.29
335.763	4.32
336.135	3.5
336.507	3.86
336.879	3.63
337.25	3.81
337.622	3.86
337.993	3.66
338.365	3.64
338.736	3.89
339.108	3.23
339.479	3.78
339.851	4.06
340.222	4
340.593	3.8
340.964	3.89
341.336	3.73
341.707	3.6
342.078	3.49
342.449	4.07
342.82	3.9
343.191	3.09
343.562	4.02
343.933	4.06
344.303	3.59
344.674	3.67
345.045	4.32
345.416	3.91
345.786	3.04
346.157	3.83
346.527	3.57
346.898	3.65
347.268	3.33
347.639	3.61
348.009	4.09
348.38	3.86
348.75	3.87
349.12	3.74
349.49	3.35
349.861	4.24
350.231	4.15
350.601	3.93
350.971	3.65
351.341	4.42
351.711	3.68
352.081	3.64
352.45	3.97
352.82	3.78
353.19	3.79
353.56	3.58
353.929	4.14
354.299	3.84
354.669	4.26
355.038	3.92
355.408	4.36
355.777	3.5
356.147	4.19
356.516	3.86
356.885	3.68
357.254	3.86
357.624	4
357.993	3.88
358.362	3.8
358.731	3.8
359.1	4.25
359.469	3.8
359.838	3.75
360.207	3.73
360.576	4.04
360.945	3.65
361.314	3.87
361.682	3.68
362.051	3.74
362.42	4.17
362.788	3.95
363.157	3.77
363.525	3.76
363.894	3.63
364.262	3.82
364.631	4.49
364.999	3.83
365.367	4.01
365.735	3.53
366.104	3.53
366.472	3.74
366.84	3.78
367.208	3.48
367.576	3.97
367.944	4.05
368.312	3.52
368.68	4.02
369.048	3.95
369.416	3.65
369.783	3.85
370.151	3.76
370.519	3.81
370.886	3.95
371.254	3.77
371.621	4.02
371.989	3.92
372.356	3.8
372.724	4.08
373.091	3.79
373.458	3.97
373.826	4.05
374.193	4.33
374.56	3.78
374.927	3.81
375.294	3.97
375.661	3.96
376.028	3.85
376.395	3.79
376.762	3.84
377.129	4.1
377.496	4.28
377.863	4.08
378.229	3.85
378.596	3.65
378.963	3.79
379.329	3.85
379.696	3.63
380.062	4.2
380.429	4.15
380.795	3.79
381.161	4.06
381.528	3.66
381.894	4.03
382.26	4.07
382.626	3.81
382.993	3.83
383.359	3.93
383.725	4.14
384.091	3.85
384.457	4.31
384.823	4.08
385.188	4.33
385.554	4
385.92	4.05
386.286	4.24
386.651	3.91
387.017	4.24
387.383	4.05
387.748	3.84
388.114	4.13
388.479	4.08
388.845	4.24
389.21	4.04
389.575	3.96
389.94	4.1
390.306	4.15
390.671	4.15
391.036	4.2
391.401	4.2
391.766	4.24
392.131	4.18
392.496	3.98
392.861	3.96
393.226	4.18
393.591	4.41
393.956	4.07
394.32	3.94
394.685	4.11
395.05	3.99
395.414	4.16
395.779	4.09
396.143	4.11
396.508	4.07
396.872	4.25
397.236	3.84
397.601	4.29
397.965	3.98
398.329	4.18
398.694	3.92
399.058	4.3
399.422	4.33
399.786	4.3
400.15	4.21
400.514	4.24
400.878	3.9
401.242	4.28
401.605	3.94
401.969	4.24
402.333	4.29
402.697	4.45
403.06	4.29
403.424	4.01
403.787	4.22
404.151	4.09
404.514	4.31
404.878	4.26
405.241	4.24
405.604	4.28
405.968	4.2
406.331	4.1
406.694	4
407.057	4.35
407.42	4.22
407.783	4.19
408.146	4.15
408.509	3.99
408.872	4.35
409.235	4.08
409.598	4.47
409.961	4.24
410.323	4.35
410.686	4.2
411.049	4.09
411.411	4.24
411.774	4.31
412.136	4.39
412.499	4.25
412.861	4.26
413.223	4.15
413.586	4.1
413.948	4.45
414.31	4.14
414.672	4.09
415.035	4.13
415.397	4.38
415.759	4.12
416.121	4.38
416.483	4.26
416.845	4.24
417.206	4.32
417.568	4.34
417.93	4.28
418.292	4.27
418.653	4.16
419.015	4.34
419.377	4.38
419.738	4.13
420.1	4.13
420.461	4.23
420.822	4.29
421.184	4.17
421.545	4.15
421.906	4.21
422.267	4.05
422.629	4.18
422.99	4.24
423.351	4.29
423.712	4.26
424.073	4.23
424.434	4.17
424.795	4.19
425.155	4.22
425.516	4.12
425.877	4.29
426.238	4.25
426.598	4.3
426.959	4.27
427.32	4.39
427.68	4.34
428.041	4.27
428.401	4.2
428.761	4.32
429.122	4.34
429.482	4.23
429.842	4.41
430.202	4.39
430.563	4.35
430.923	4.3
431.283	4.39
431.643	4.4
432.003	4.48
432.363	4.5
432.722	4.28
433.082	4.35
433.442	4.48
433.802	4.39
434.161	4.31
434.521	4.44
434.881	4.45
435.24	4.29
435.6	4.38
435.959	4.38
436.319	4.43
436.678	4.56
437.037	4.46
437.396	4.58
437.756	4.43
438.115	4.47
438.474	4.35
438.833	4.34
439.192	4.43
439.551	4.57
439.91	4.44
440.269	4.49
440.628	4.48
440.987	4.33
441.345	4.42
441.704	4.43
442.063	4.41
442.421	4.45
442.78	4.37
443.138	4.46
443.497	4.4
443.855	4.51
444.214	4.58
444.572	4.41
444.93	4.58
445.288	4.6
445.647	4.54
446.005	4.32
446.363	4.39
446.721	4.32
447.079	4.4
447.437	4.39
447.795	4.42
448.153	4.45
448.51	4.41
448.868	4.51
449.226	4.57
449.584	4.59
449.941	4.56
450.299	4.44
450.656	4.58
451.014	4.54
451.371	4.64
451.729	4.54
452.086	4.57
452.443	4.5
452.801	4.71
453.158	4.56
453.515	4.45
453.872	4.7
454.229	4.33
454.586	4.54
454.943	4.59
455.3	4.83
455.657	4.49
456.014	4.7
456.371	4.79
456.727	4.72
457.084	4.55
457.441	4.62
457.797	4.59
458.154	4.65
458.51	4.5
458.867	4.49
459.223	4.65
459.58	4.59
459.936	4.57
460.292	4.68
460.648	4.48
461.005	4.53
461.361	4.57
461.717	4.55
462.073	4.68
462.429	4.61
462.785	4.68
463.141	4.67
463.496	4.67
463.852	4.92
464.208	4.72
464.564	4.61
464.919	4.51
465.275	4.7
465.631	4.75
465.986	4.65
466.342	4.7
466.697	4.57
467.052	4.95
467.408	4.67
467.763	4.63
468.118	4.71
468.473	4.77
468.829	4.54
469.184	4.85
469.539	4.72
469.894	4.78
470.249	4.87
470.603	4.73
470.958	4.79
471.313	4.84
471.668	4.89
472.023	4.98
472.377	4.74
472.732	4.69
473.086	4.71
473.441	5.05
473.795	4.99
474.15	4.76
474.504	4.83
474.859	4.86
475.213	4.78
475.567	4.73
475.921	4.95
476.275	4.85
476.63	4.93
476.984	4.72
477.338	5.15
477.692	4.88
478.045	4.71
478.399	4.89
478.753	4.75
479.107	4.8
479.461	4.85
479.814	4.77
480.168	4.78
480.521	4.86
480.875	5.05
481.228	4.9
481.582	4.74
481.935	4.86
482.289	4.71
482.642	4.94
482.995	4.9
483.348	4.86
483.701	4.73
484.055	4.73
484.408	4.78
484.761	4.53
485.114	4.56
485.466	4.57
485.819	4.63
486.172	4.7
486.525	4.79
486.878	4.85
487.23	4.88
487.583	4.81
487.936	4.85
488.288	4.73
488.641	4.74
488.993	4.71
489.345	4.7
489.698	4.84
490.05	4.79
490.402	4.91
490.754	4.99
491.107	4.97
491.459	5.06
491.811	5.05
492.163	4.95
492.515	4.88
492.866	4.7
493.218	4.81
493.57	4.85
493.922	4.96
494.274	4.99
494.625	5.11
494.977	5.09
495.328	5.13
495.68	5.22
496.031	5.05
496.383	5.04
496.734	5.16
497.086	5.01
497.437	5.12
497.788	5.1
498.139	5.12
498.49	5.1
498.842	5.08
499.193	5.25
499.544	5.22
499.894	5.1
500.245	5.17
500.596	5.26
500.947	5.17
501.298	5.17
501.648	5.08
501.999	5.32
502.35	5.38
502.7	5.23
503.051	5.29
503.401	5.25
503.752	5.29
504.102	5.26
504.452	5.15
504.803	5.18
505.153	5.33
505.503	5.23
505.853	5.22
506.203	5.35
506.553	5.29
506.903	5.21
507.253	5.46
507.603	5.28
507.953	5.41
508.303	5.35
508.652	5.34
509.002	5.44
509.352	5.27
509.701	5.32
510.051	5.33
510.4	5.32
510.75	5.39
511.099	5.34
511.449	5.31
511.798	5.5
512.147	5.39
512.496	5.45
512.846	5.4
513.195	5.46
513.544	5.4
513.893	5.24
514.242	5.53
514.591	5.39
514.939	5.47
515.288	5.5
515.637	5.58
515.986	5.4
516.334	5.59
516.683	5.44
517.032	5.43
517.38	5.51
517.729	5.51
518.077	5.53
518.426	5.42
518.774	5.5
519.122	5.52
519.47	5.48
519.819	5.41
520.167	5.53
520.515	5.48
520.863	5.48
521.211	5.57
521.559	5.57
521.907	5.52
522.255	5.66
522.602	5.76
522.95	5.63
523.298	5.6
523.645	5.57
523.993	5.78
524.341	5.68
524.688	5.68
525.036	5.82
525.383	5.79
525.73	5.81
526.078	5.84
526.425	5.7
526.772	5.49
527.119	5.68
527.466	5.62
527.814	5.64
528.161	5.76
528.508	5.67
528.854	5.68
529.201	5.62
529.548	5.53
529.895	5.42
530.242	5.47
530.588	5.6
530.935	5.65
531.282	5.72
531.628	5.75
531.975	5.83
532.321	5.89
532.667	5.86
533.014	5.84
533.36	5.84
533.706	5.86
534.052	5.78
534.399	5.71
534.745	5.69
535.091	5.79
535.437	5.85
535.783	5.92
536.129	5.93
536.474	6.05
536.82	5.95
537.166	6.01
537.512	6.17
537.857	5.93
538.203	5.95
538.549	6.09
538.894	6.01
539.239	6.22
539.585	6.23
539.93	6.16
540.276	6.25
540.621	6.14
540.966	6.25
541.311	6.24
541.656	6.2
542.001	6.15
542.346	6.09
542.691	5.97
543.036	5.94
543.381	6.06
543.726	6.05
544.071	6.18
544.415	6.21
544.76	6.13
545.105	6.16
545.449	6.26
545.794	6.22
546.138	6.41
546.483	6.33
546.827	6.45
547.171	6.38
547.516	6.58
547.86	6.29
548.204	6.33
548.548	6.46
548.892	6.42
549.236	6.58
549.58	6.64
549.924	6.74
550.268	6.61
550.612	6.62
550.956	6.48
551.3	6.62
551.643	6.8
551.987	6.67
552.33	6.71
552.674	6.7
553.017	6.8
553.361	6.72
553.704	6.58
554.048	6.74
554.391	6.69
554.734	6.65
555.077	6.89
555.42	6.75
555.764	6.88
556.107	6.79
556.45	6.91
556.793	6.94
557.135	7.05
557.478	7.08
557.821	6.96
558.164	7.02
558.507	6.82
558.849	6.81
559.192	7.07
559.534	6.89
559.877	7.16
560.219	7.27
560.562	7.23
560.904	7.01
561.246	7.08
561.589	7.29
561.931	7.36
562.273	7.18
562.615	7.2
562.957	7.34
563.299	7.21
563.641	7.29
563.983	7.22
564.325	7.15
564.667	7.14
565.008	7.33
565.35	7.38
565.692	7.36
566.033	7.24
566.375	7.13
566.716	7.39
567.058	7.54
567.399	7.47
567.741	7.42
568.082	7.39
568.423	7.32
568.764	7.59
569.105	7.71
569.447	7.6
569.788	7.54
570.129	7.44
570.47	7.65
570.811	7.66
571.151	7.74
571.492	7.78
571.833	7.76
572.174	7.73
572.514	7.7
572.855	7.68
573.195	7.59
573.536	7.62
573.876	7.64
574.217	7.77
574.557	8.07
574.898	7.72
575.238	7.68
575.578	7.98
575.918	7.9
576.258	7.83
576.598	7.99
576.938	7.99
577.278	7.81
577.618	7.99
577.958	8.17
578.298	8.11
578.638	7.86
578.977	8.12
579.317	8.21
579.657	8.15
579.996	8.11
580.336	8
580.675	8.43
581.014	8.22
581.354	8.33
581.693	8.48
582.032	8.16
582.372	8.52
582.711	8.41
583.05	8.43
583.389	8.64
583.728	8.66
584.067	8.59
584.406	8.6
584.745	8.62
585.083	8.6
585.422	8.48
585.761	8.6
586.1	8.79
586.438	8.79
586.777	8.67
587.115	8.81
587.454	8.75
587.792	8.73
588.13	8.8
588.469	8.79
588.807	8.72
589.145	8.96
589.483	8.8
589.821	8.97
590.159	8.99
590.497	8.59
590.835	8.86
591.173	8.99
591.511	9.07
591.849	9.09
592.187	8.94
592.524	9.04
592.862	9
593.2	9.29
593.537	9.13
593.875	8.93
594.212	9.02
594.55	9.19
594.887	9.15
595.224	9.03
595.561	9.16
595.899	8.96
596.236	9.37
596.573	9.07
596.91	9.57
597.247	9.36
597.584	9.57
597.921	9.36
598.258	9.32
598.594	9.07
598.931	9.31
599.268	9.25
599.604	9.63
599.941	9.5
600.277	9.47
600.614	9.67
600.95	9.87
601.287	9.94
601.623	9.83
601.959	9.53
602.296	9.72
602.632	9.78
602.968	9.81
603.304	10.05
603.64	9.87
603.976	9.97
604.312	10.07
604.648	9.93
604.984	9.81
605.319	9.95
605.655	9.95
605.991	9.93
606.326	9.8
606.662	9.85
606.998	9.98
607.333	10.1
607.668	10.16
608.004	10.02
608.339	10.03
608.674	10.2
609.01	10.22
609.345	10.29
609.68	9.99
610.015	10.33
610.35	10.3
610.685	10.12
611.02	10.42
611.355	10.48
611.689	10.5
612.024	10.57
612.359	10.36
612.694	10.44
613.028	10.7
613.363	10.48
613.697	10.84
614.032	10.59
614.366	10.44
614.7	10.87
615.035	10.65
615.369	10.57
615.703	11.31
616.037	10.79
616.371	10.6
616.705	11.16
617.039	10.79
617.373	11.03
617.707	10.86
618.041	10.99
618.375	11.11
618.709	11.15
619.042	11
619.376	10.89
619.71	10.88
620.043	10.92
620.377	11.01
620.71	11.2
621.043	10.92
621.377	10.93
621.71	11.24
622.043	11.26
622.376	11.15
622.709	11.46
623.043	11.43
623.376	11.53
623.709	11.38
624.041	11.32
624.374	11.22
624.707	11.31
625.04	11.8
625.373	11.36
625.705	11.63
626.038	11.27
626.37	11.63
626.703	11.51
627.035	11.57
627.368	11.84
627.7	11.7
628.032	11.49
628.365	11.71
628.697	11.7
629.029	12.08
629.361	11.66
629.693	12.05
630.025	12.11
630.357	11.79
630.689	12.02
631.021	12.02
631.353	12.17
631.684	11.94
632.016	11.87
632.348	12.08
632.679	12.22
633.011	11.86
633.342	11.87
633.674	12.29
634.005	12.07
634.336	12.39
634.668	12.38
634.999	12.58
635.33	12.4
635.661	12.33
635.992	12.4
636.323	12.49
636.654	12.48
636.985	12.32
637.316	12.51
637.647	12.72
637.977	12.35
638.308	11.97
638.639	12.63
638.969	12.52
639.3	12.85
639.63	12.53
639.961	12.38
640.291	12.99
640.622	12.93
640.952	13.06
641.282	12.4
641.612	12.49
641.943	12.68
642.273	12.75
642.603	13.17
642.933	12.83
643.263	13.35
643.592	12.96
643.922	13.32
644.252	13.17
644.582	13.04
644.911	12.97
645.241	13.08
645.571	13.49
645.9	13.65
646.23	12.9
646.559	13.4
646.888	13.12
647.218	13.5
647.547	13.15
647.876	13.29
648.205	12.85
648.534	13.13
648.863	13.38
649.192	13.22
649.521	13.33
649.85	13.57
650.179	13.44
650.508	13.55
650.837	13.3
651.165	14.11
651.494	13.04
651.822	13.6
652.151	13.97
652.479	13.98
652.808	13.78
653.136	13.43
653.465	13.72
653.793	14.14
654.121	13.76
654.449	14.1
654.777	13.88
655.105	14.16
655.433	14.31
655.761	13.54
656.089	13.65
656.417	13.64
656.745	14.38
657.073	14.35
657.4	14.43
657.728	14.12
658.056	13.91
658.383	14.23
658.711	14.49
659.038	14.38
659.365	14.32
659.693	14.24
660.02	14.09
660.347	14.38
660.674	13.79
661.001	13.98
661.329	14.65
661.656	14.27
661.982	14.53
662.309	14.86
662.636	14.44
662.963	14.96
663.29	14.34
663.616	14.46
663.943	14.79
664.27	14.58
664.596	14.59
664.923	15.04
665.249	14.39
665.576	14.82
665.902	14.83
666.228	14.41
666.554	14.4
666.881	15.1
667.207	15.12
667.533	14.85
667.859	14.64
668.185	14.7
668.511	15.03
668.837	15.06
669.162	15.2
669.488	15.17
669.814	15
670.139	15.22
670.465	15.55
670.791	15.32
671.116	15.09
671.442	14.98
671.767	14.88
672.092	15.52
672.418	15.44
672.743	15.46
673.068	14.7
673.393	15.6
673.718	15.56
674.043	15.54
674.368	16.19
674.693	15.68
675.018	15.54
675.343	15.56
675.667	14.88
675.992	15.51
676.317	16.28
676.641	16.24
676.966	16.06
677.29	15.8
677.615	16.16
677.939	15.68
678.264	16.17
678.588	16.5
678.912	16.02
679.236	15.81
679.56	15.66
679.885	15.97
680.209	15.64
680.532	16.09
680.856	16.62
681.18	16.52
681.504	15.69
681.828	15.85
682.152	16.09
682.475	16.05
682.799	16.66
683.122	16.16
683.446	16.03
683.769	16.08
684.093	16.46
684.416	16.11
684.739	16.81
685.062	16.54
685.386	16.43
685.709	16.19
686.032	16.92
686.355	16.8
686.678	15.67
