Data from 0064_forehead_Reflection__4__238.txt Node

Date: Fri Dec 16 15:47:26 CST 2022
User: ToomeyLab
Spectrometer: FLMS14357
Trigger mode: 0
Integration Time (sec): 1.000000E-2
Scans to average: 100
Electric dark correction enabled: true
Nonlinearity correction enabled: false
Boxcar width: 0
XAxis mode: Wavelengths
Number of Pixels in Spectrum: 2048
>>>>>Begin Spectral Data<<<<<
189.047	182.52
189.435	182.52
189.823	182.52
190.211	-133.19
190.599	-59.79
190.987	14.13
191.375	-54.76
191.763	-1597.7
192.151	126.18
192.538	-28.5
192.926	44.64
193.314	79.67
193.702	55.91
194.089	-442.29
194.477	0.1
194.864	-59.16
195.252	-277.5
195.639	114.02
196.027	31.18
196.414	224.39
196.801	-61.19
197.189	62.68
197.576	29.67
197.963	48.2
198.351	12.5
198.738	62.39
199.125	63.41
199.512	15.33
199.899	-59.6
200.286	-61.28
200.673	47.62
201.06	55.61
201.447	73.36
201.833	-10.37
202.22	3.67
202.607	28.01
202.994	4.19
203.38	-26.31
203.767	31.29
204.154	-12.7
204.54	69.27
204.927	67.42
205.313	37.14
205.699	4.96
206.086	10.04
206.472	-24
206.858	33.41
207.245	11.68
207.631	-10.91
208.017	32.83
208.403	43.65
208.789	45.98
209.175	48.97
209.561	25.47
209.947	15.5
210.333	-20.75
210.719	-21
211.105	-2.73
211.491	2.73
211.876	-32.92
212.262	-14.95
212.648	-22.62
213.034	-8.2
213.419	54.78
213.805	29.6
214.19	0.56
214.576	-12.26
214.961	-2.63
215.346	-4.2
215.732	18.22
216.117	-27.87
216.502	11.61
216.888	-26.66
217.273	-5.69
217.658	-31.14
218.043	13.7
218.428	-11.41
218.813	-1.65
219.198	-54.69
219.583	3.94
219.968	-11.96
220.353	1.97
220.738	0.36
221.122	1.5
221.507	-20.98
221.892	5.91
222.276	5.93
222.661	-7.49
223.046	-1.12
223.43	1.07
223.815	11.31
224.199	10.71
224.583	7.58
224.968	19.47
225.352	-3.44
225.736	11.73
226.121	-4.44
226.505	-3.19
226.889	6.58
227.273	8.15
227.657	4.93
228.041	6.65
228.425	5.12
228.809	4.16
229.193	3.57
229.577	4.29
229.961	4.56
230.344	4.91
230.728	5.34
231.112	5.21
231.495	3.93
231.879	5.88
232.263	3.25
232.646	3.45
233.03	3.52
233.413	4.08
233.797	8.01
234.18	7.3
234.563	4.15
234.946	1.7
235.33	6.92
235.713	5.8
236.096	4.14
236.479	5.92
236.862	4.89
237.245	7.08
237.628	4.84
238.011	4.5
238.394	6.28
238.777	4.44
239.16	3.55
239.543	4.78
239.925	6.05
240.308	6.31
240.691	6.02
241.073	5.96
241.456	4.39
241.838	5.06
242.221	4.52
242.603	5.56
242.986	5.82
243.368	4.74
243.75	4.53
244.133	4.85
244.515	4.88
244.897	4.77
245.279	4.33
245.661	4.45
246.043	4.97
246.425	4.46
246.807	4.97
247.189	4.73
247.571	4.95
247.953	5.07
248.335	5.19
248.717	5.26
249.098	5.11
249.48	4.67
249.862	5.42
250.243	5.34
250.625	5.31
251.006	5.31
251.388	5.8
251.769	5
252.151	5
252.532	4.75
252.913	6.15
253.295	5.38
253.676	5.11
254.057	4.64
254.438	4.51
254.819	5.39
255.2	5.72
255.581	4.87
255.962	5.23
256.343	5.78
256.724	4.63
257.105	5.46
257.486	3.98
257.867	5
258.247	4.61
258.628	6
259.009	5.34
259.389	5.07
259.77	5.06
260.15	5.46
260.531	5.12
260.911	5.31
261.292	4.98
261.672	5.02
262.052	4.91
262.432	4.77
262.813	4.87
263.193	5.36
263.573	4.8
263.953	5.48
264.333	5.42
264.713	4.94
265.093	4.37
265.473	5.83
265.853	4.51
266.233	4.25
266.612	5.47
266.992	5.07
267.372	5.55
267.752	4.94
268.131	5.18
268.511	5.48
268.89	5.47
269.27	4.97
269.649	5.29
270.029	5.49
270.408	4.83
270.787	4.93
271.167	5.41
271.546	4.57
271.925	5
272.304	5.05
272.683	5.03
273.062	5.3
273.441	5.27
273.82	5.15
274.199	5.32
274.578	4.62
274.957	4.95
275.336	4.61
275.715	5.35
276.093	5.74
276.472	4.65
276.851	5.4
277.229	5.55
277.608	4.54
277.986	4.94
278.365	3.93
278.743	4.77
279.122	4.1
279.5	4.64
279.878	4.73
280.257	5.35
280.635	4.98
281.013	5.02
281.391	4.97
281.769	5.02
282.147	5.24
282.525	5.1
282.903	4.76
283.281	4.95
283.659	5.04
284.037	5.14
284.415	4.6
284.792	5.15
285.17	4.73
285.548	4.66
285.925	4.69
286.303	4.7
286.68	5.01
287.058	4.94
287.435	4.57
287.813	4.91
288.19	5.49
288.567	4.83
288.945	5.05
289.322	4.81
289.699	5.18
290.076	5.13
290.453	5.05
290.83	5.06
291.207	4.87
291.584	4.89
291.961	5.1
292.338	5.2
292.715	5.47
293.092	4.87
293.469	5.76
293.845	5.41
294.222	4.96
294.599	5.81
294.975	5.64
295.352	4.77
295.728	5.41
296.105	5.47
296.481	5.82
296.858	5.48
297.234	5.21
297.61	5.65
297.986	5.54
298.363	5.24
298.739	5.73
299.115	5.25
299.491	5.65
299.867	5.68
300.243	5.49
300.619	5.63
300.995	5.78
301.371	6.31
301.746	5.69
302.122	5.99
302.498	5.8
302.874	6.09
303.249	6.17
303.625	5.91
304	5.74
304.376	5.48
304.751	5.99
305.127	5.63
305.502	6.15
305.878	5.68
306.253	6.13
306.628	6.39
307.003	6.57
307.378	5.9
307.754	6.36
308.129	5.69
308.504	6.4
308.879	6.22
309.254	6.77
309.629	5.89
310.003	6.76
310.378	6.86
310.753	6.47
311.128	6.1
311.502	6.26
311.877	6.49
312.252	6.4
312.626	6.21
313.001	6.15
313.375	6.16
313.75	6.48
314.124	6.64
314.498	6.67
314.873	6.72
315.247	6.58
315.621	7.14
315.995	6.8
316.369	6.88
316.743	6.85
317.117	7.01
317.491	7.13
317.865	6.46
318.239	7.12
318.613	6.65
318.987	7.47
319.361	7.21
319.734	7.19
320.108	7.3
320.482	7.11
320.855	7.34
321.229	7.72
321.602	7.16
321.976	6.73
322.349	6.76
322.723	7.27
323.096	7.14
323.469	6.74
323.843	7.53
324.216	7.13
324.589	7.66
324.962	7.28
325.335	7.62
325.708	7.36
326.081	7.49
326.454	7.68
326.827	7.57
327.2	7.92
327.573	7.65
327.945	7.52
328.318	7.59
328.691	7.57
329.063	7.78
329.436	7.36
329.809	7.56
330.181	7.68
330.553	8.34
330.926	7.85
331.298	7.52
331.671	8.23
332.043	8.07
332.415	8.09
332.787	8.39
333.159	7.6
333.532	7.74
333.904	7.84
334.276	7.62
334.648	8.4
335.02	8.1
335.391	8.5
335.763	7.79
336.135	7.96
336.507	8.56
336.879	8.4
337.25	8.09
337.622	8.4
337.993	8.33
338.365	8.45
338.736	8.11
339.108	8.23
339.479	8.05
339.851	8.46
340.222	8.52
340.593	7.9
340.964	8.64
341.336	8.24
341.707	8.45
342.078	8.1
342.449	8.96
342.82	8.91
343.191	8.48
343.562	8.87
343.933	8.64
344.303	8.8
344.674	8.62
345.045	9.04
345.416	8.72
345.786	8.72
346.157	8.99
346.527	8.83
346.898	9.13
347.268	9
347.639	8.96
348.009	9.24
348.38	8.97
348.75	9.05
349.12	8.78
349.49	9.15
349.861	9.2
350.231	9.55
350.601	9.16
350.971	9.03
351.341	9.2
351.711	9.17
352.081	9.01
352.45	9.28
352.82	9.47
353.19	9.34
353.56	9.24
353.929	9.41
354.299	9.21
354.669	9.17
355.038	9.62
355.408	10.05
355.777	9.27
356.147	9.83
356.516	9.42
356.885	9.39
357.254	9.67
357.624	9.32
357.993	9.49
358.362	9.62
358.731	9.91
359.1	9.64
359.469	9.81
359.838	9.93
360.207	10.13
360.576	9.76
360.945	9.9
361.314	9.98
361.682	9.88
362.051	9.94
362.42	10.08
362.788	10.04
363.157	9.69
363.525	9.94
363.894	9.94
364.262	9.84
364.631	10.67
364.999	10.1
365.367	10.55
365.735	10.25
366.104	9.97
366.472	10.4
366.84	10.19
367.208	10.02
367.576	10.05
367.944	10.49
368.312	10.01
368.68	10.68
369.048	10.75
369.416	10.44
369.783	10.36
370.151	10.59
370.519	10.78
370.886	10.83
371.254	10.76
371.621	10.39
371.989	10.75
372.356	10.63
372.724	10.6
373.091	10.66
373.458	10.63
373.826	10.79
374.193	11.28
374.56	10.66
374.927	10.8
375.294	11.3
375.661	11.04
376.028	11.16
376.395	11.06
376.762	11.22
377.129	11.46
377.496	11.13
377.863	11.27
378.229	11.27
378.596	11.02
378.963	11.13
379.329	11.34
379.696	11.27
380.062	11.36
380.429	11.5
380.795	11.1
381.161	11.6
381.528	11.03
381.894	11.58
382.26	11.46
382.626	11.61
382.993	11.49
383.359	11.62
383.725	11.94
384.091	11.34
384.457	11.49
384.823	11.78
385.188	11.99
385.554	11.74
385.92	12.03
386.286	12.12
386.651	11.87
387.017	12.04
387.383	11.79
387.748	12.12
388.114	12.25
388.479	12.04
388.845	12.17
389.21	12.46
389.575	11.94
389.94	12.41
390.306	12.43
390.671	11.96
391.036	12.16
391.401	12.5
391.766	12.29
392.131	12.61
392.496	12.28
392.861	12.24
393.226	12.33
393.591	12.64
393.956	12.36
394.32	12.56
394.685	12.62
395.05	12.34
395.414	12.49
395.779	12.51
396.143	12.7
396.508	12.76
396.872	12.7
397.236	12.44
397.601	12.78
397.965	12.61
398.329	13.05
398.694	12.59
399.058	12.84
399.422	13.17
399.786	13.02
400.15	13.18
400.514	13.07
400.878	12.78
401.242	13.24
401.605	13.09
401.969	13.28
402.333	13.07
402.697	13.43
403.06	13.53
403.424	13.02
403.787	13.33
404.151	13.26
404.514	13.16
404.878	13.29
405.241	13.51
405.604	13.63
405.968	13.38
406.331	13.41
406.694	13.41
407.057	13.71
407.42	13.58
407.783	13.49
408.146	13.58
408.509	13.59
408.872	13.63
409.235	13.5
409.598	13.92
409.961	13.78
410.323	14.01
410.686	13.76
411.049	13.68
411.411	13.98
411.774	13.64
412.136	14.11
412.499	13.84
412.861	13.66
413.223	14.1
413.586	13.75
413.948	14.18
414.31	14.47
414.672	14.06
415.035	14.23
415.397	14.39
415.759	14.16
416.121	14.31
416.483	14.47
416.845	14.33
417.206	14.29
417.568	14.29
417.93	14.09
418.292	14.34
418.653	14.33
419.015	14.38
419.377	14.47
419.738	14.23
420.1	14.34
420.461	14.51
420.822	14.42
421.184	14.42
421.545	14.28
421.906	14.44
422.267	14.18
422.629	14.36
422.99	14.44
423.351	14.53
423.712	14.55
424.073	14.73
424.434	14.66
424.795	14.76
425.155	14.71
425.516	14.64
425.877	14.65
426.238	14.69
426.598	14.8
426.959	14.78
427.32	15.1
427.68	15
428.041	15.18
428.401	15.06
428.761	15.09
429.122	15.13
429.482	15.2
429.842	15.45
430.202	15.18
430.563	15.42
430.923	15.24
431.283	15.39
431.643	15.46
432.003	15.47
432.363	15.66
432.722	15.5
433.082	15.5
433.442	15.71
433.802	15.54
434.161	15.42
434.521	15.77
434.881	15.8
435.24	15.57
435.6	15.7
435.959	15.93
436.319	15.7
436.678	15.83
437.037	15.92
437.396	15.83
437.756	16.04
438.115	16.05
438.474	15.96
438.833	16.12
439.192	16.24
439.551	16.18
439.91	16.11
440.269	16.19
440.628	16.14
440.987	16.02
441.345	16.01
441.704	16.19
442.063	16.13
442.421	16.12
442.78	16.12
443.138	16.27
443.497	16.14
443.855	16.44
444.214	16.42
444.572	16.59
444.93	16.66
445.288	16.62
445.647	16.53
446.005	16.57
446.363	16.51
446.721	16.46
447.079	16.49
447.437	16.5
447.795	16.54
448.153	16.54
448.51	16.59
448.868	16.67
449.226	16.7
449.584	16.91
449.941	17.01
450.299	16.89
450.656	16.99
451.014	16.97
451.371	17.11
451.729	17.16
452.086	17.08
452.443	17.12
452.801	17.26
453.158	17.37
453.515	17.13
453.872	17.36
454.229	17.22
454.586	17.25
454.943	17.53
455.3	17.76
455.657	17.62
456.014	17.62
456.371	17.73
456.727	17.49
457.084	17.73
457.441	17.74
457.797	17.5
458.154	17.61
458.51	17.8
458.867	17.79
459.223	17.7
459.58	17.96
459.936	17.57
460.292	17.87
460.648	17.65
461.005	17.7
461.361	17.63
461.717	17.81
462.073	17.89
462.429	17.92
462.785	18.17
463.141	18.29
463.496	18.25
463.852	18.34
464.208	18.35
464.564	18.34
464.919	18.29
465.275	18.32
465.631	18.38
465.986	18.34
466.342	18.6
466.697	18.5
467.052	18.43
467.408	18.63
467.763	18.55
468.118	18.6
468.473	18.7
468.829	18.69
469.184	18.9
469.539	18.87
469.894	18.76
470.249	19.13
470.603	18.93
470.958	19.08
471.313	19.08
471.668	19.2
472.023	19.12
472.377	19.07
472.732	19.12
473.086	19.08
473.441	19.3
473.795	19.35
474.15	19.28
474.504	19.15
474.859	19.33
475.213	19.44
475.567	19.14
475.921	19.61
476.275	19.54
476.63	19.43
476.984	19.49
477.338	19.85
477.692	19.55
478.045	19.7
478.399	19.72
478.753	19.65
479.107	19.79
479.461	19.73
479.814	19.7
480.168	19.88
480.521	19.88
480.875	20
481.228	19.96
481.582	19.72
481.935	19.84
482.289	19.69
482.642	19.99
482.995	19.84
483.348	19.81
483.701	19.7
484.055	19.58
484.408	19.43
484.761	19.11
485.114	19.04
485.466	19.1
485.819	19.25
486.172	19.43
486.525	19.61
486.878	19.68
487.23	19.85
487.583	19.95
487.936	19.95
488.288	19.79
488.641	19.63
488.993	19.64
489.345	19.65
489.698	19.83
490.05	19.94
490.402	20.08
490.754	20.34
491.107	20.39
491.459	20.52
491.811	20.6
492.163	20.51
492.515	20.24
492.866	19.96
493.218	20.11
493.57	20.29
493.922	20.39
494.274	20.74
494.625	20.74
494.977	20.94
495.328	21.11
495.68	21.39
496.031	21.4
496.383	21.41
496.734	21.44
497.086	21.44
497.437	21.37
497.788	21.4
498.139	21.3
498.49	21.36
498.842	21.44
499.193	21.41
499.544	21.54
499.894	21.59
500.245	21.75
500.596	21.62
500.947	21.67
501.298	21.74
501.648	21.87
501.999	22.06
502.35	22.09
502.7	21.9
503.051	22.03
503.401	22.25
503.752	22.11
504.102	22.21
504.452	22.15
504.803	22.06
505.153	22.18
505.503	22.28
505.853	22.09
506.203	22.37
506.553	22.36
506.903	22.42
507.253	22.51
507.603	22.46
507.953	22.66
508.303	22.43
508.652	22.56
509.002	22.59
509.352	22.49
509.701	22.62
510.051	22.63
510.4	22.51
510.75	22.55
511.099	22.68
511.449	22.83
511.798	22.83
512.147	22.87
512.496	22.96
512.846	22.86
513.195	23.06
513.544	22.95
513.893	22.76
514.242	23.07
514.591	23.17
514.939	23.07
515.288	23.14
515.637	23.14
515.986	23.21
516.334	23.3
516.683	23.34
517.032	23.19
517.38	23.4
517.729	23.57
518.077	23.48
518.426	23.45
518.774	23.36
519.122	23.37
519.47	23.39
519.819	23.2
520.167	23.2
520.515	23.3
520.863	23.3
521.211	23.57
521.559	23.57
521.907	23.6
522.255	23.78
522.602	23.97
522.95	23.85
523.298	23.95
523.645	23.91
523.993	24.02
524.341	23.92
524.688	24.02
525.036	24.19
525.383	24.22
525.73	24.18
526.078	24.13
526.425	24.07
526.772	23.86
527.119	23.75
527.466	23.94
527.814	23.98
528.161	24.02
528.508	24.1
528.854	23.96
529.201	23.94
529.548	23.64
529.895	23.49
530.242	23.6
530.588	23.81
530.935	23.76
531.282	24.05
531.628	24.05
531.975	24.42
532.321	24.43
532.667	24.66
533.014	24.66
533.36	24.68
533.706	24.63
534.052	24.43
534.399	24.31
534.745	24.11
535.091	24.36
535.437	24.48
535.783	24.76
536.129	24.8
536.474	25.05
536.82	25.07
537.166	24.99
537.512	24.96
537.857	24.97
538.203	25.03
538.549	25.12
538.894	25.21
539.239	25.42
539.585	25.54
539.93	25.53
540.276	25.68
540.621	25.67
540.966	25.73
541.311	25.67
541.656	25.52
542.001	25.42
542.346	25.14
542.691	25.03
543.036	25.07
543.381	25.2
543.726	25.33
544.071	25.49
544.415	25.47
544.76	25.67
545.105	25.87
545.449	25.79
545.794	26.01
546.138	26.05
546.483	26
546.827	26.04
547.171	26.14
547.516	26.33
547.86	26.26
548.204	26.02
548.548	26.37
548.892	26.41
549.236	26.48
549.58	26.61
549.924	26.78
550.268	26.88
550.612	26.81
550.956	26.73
551.3	27
551.643	27.03
551.987	27.21
552.33	26.99
552.674	27.04
553.017	27.16
553.361	27.04
553.704	27.09
554.048	27.32
554.391	27.27
554.734	27.23
555.077	27.28
555.42	27.39
555.764	27.63
556.107	27.45
556.45	27.67
556.793	27.75
557.135	27.86
557.478	27.83
557.821	27.74
558.164	27.95
558.507	27.66
558.849	27.88
559.192	28.19
559.534	27.89
559.877	28.18
560.219	28.14
560.562	28.02
560.904	28.21
561.246	28.18
561.589	28.09
561.931	28.34
562.273	28.07
562.615	28.07
562.957	28.36
563.299	28.54
563.641	28.27
563.983	28.42
564.325	28.43
564.667	28.71
565.008	28.61
565.35	28.95
565.692	28.68
566.033	28.44
566.375	28.39
566.716	28.54
567.058	28.79
567.399	28.68
567.741	28.5
568.082	28.61
568.423	28.64
568.764	28.77
569.105	28.85
569.447	28.79
569.788	28.91
570.129	29.05
570.47	29.26
570.811	29.22
571.151	29.26
571.492	29.02
571.833	29.13
572.174	29.28
572.514	29.14
572.855	29.35
573.195	29.13
573.536	29.26
573.876	29.25
574.217	29.53
574.557	29.28
574.898	29.27
575.238	29.37
575.578	29.64
575.918	29.6
576.258	29.44
576.598	29.74
576.938	29.79
577.278	29.73
577.618	29.72
577.958	29.79
578.298	29.95
578.638	29.8
578.977	29.95
579.317	30.24
579.657	30.27
579.996	30.19
580.336	30.39
580.675	30.52
581.014	30.28
581.354	30.54
581.693	30.47
582.032	30.37
582.372	30.51
582.711	30.91
583.05	30.71
583.389	30.54
583.728	30.77
584.067	30.78
584.406	30.99
584.745	30.51
585.083	30.82
585.422	30.8
585.761	30.9
586.1	31.05
586.438	30.87
586.777	31.08
587.115	31.07
587.454	31.08
587.792	31.17
588.13	31.26
588.469	31.58
588.807	31.12
589.145	31.19
589.483	31.19
589.821	31.38
590.159	31.16
590.497	31.29
590.835	31.49
591.173	31.72
591.511	31.81
591.849	31.66
592.187	31.58
592.524	31.55
592.862	31.58
593.2	31.66
593.537	31.65
593.875	31.78
594.212	31.53
594.55	31.73
594.887	31.99
595.224	31.76
595.561	31.83
595.899	32.1
596.236	31.73
596.573	31.8
596.91	32.2
597.247	31.96
597.584	32.28
597.921	32.25
598.258	31.99
598.594	31.76
598.931	31.97
599.268	31.88
599.604	32.05
599.941	32.42
600.277	32.29
600.614	32.52
600.95	32.73
601.287	32.48
601.623	32.75
601.959	32.56
602.296	32.79
602.632	32.88
602.968	32.7
603.304	32.92
603.64	32.64
603.976	32.79
604.312	32.84
604.648	32.85
604.984	32.84
605.319	32.92
605.655	32.62
605.991	32.87
606.326	32.97
606.662	32.72
606.998	32.61
607.333	32.85
607.668	33.02
608.004	33.13
608.339	33.42
608.674	33.42
609.01	33.5
609.345	33.3
609.68	32.97
610.015	33.53
610.35	33.29
610.685	33.66
611.02	33.57
611.355	33.39
611.689	33.41
612.024	33.62
612.359	33.85
612.694	33.88
613.028	33.79
613.363	33.57
613.697	34.03
614.032	33.71
614.366	33.82
614.7	34.29
615.035	33.98
615.369	34.34
615.703	34.68
616.037	33.85
616.371	34.02
616.705	34.15
617.039	34.12
617.373	34.14
617.707	34.01
618.041	34.27
618.375	33.83
618.709	34.35
619.042	34.09
619.376	34.22
619.71	33.98
620.043	34.57
620.377	34.5
620.71	34.66
621.043	34.62
621.377	34.58
621.71	34.75
622.043	34.99
622.376	34.55
622.709	34.91
623.043	34.9
623.376	35.13
623.709	35.41
624.041	34.68
624.374	34.96
624.707	34.99
625.04	35.47
625.373	35.03
625.705	35.16
626.038	34.9
626.37	35.54
626.703	35.36
627.035	35.27
627.368	35.14
627.7	35.44
628.032	35.47
628.365	35.53
628.697	35.53
629.029	35.76
629.361	34.96
629.693	35.24
630.025	35.47
630.357	35.47
630.689	35.65
631.021	35.89
631.353	35.65
631.684	35.45
632.016	35.78
632.348	36.09
632.679	35.87
633.011	35.65
633.342	35.6
633.674	36.4
634.005	35.89
634.336	36.43
634.668	36.52
634.999	35.75
635.33	35.87
635.661	36.24
635.992	36.21
636.323	36.3
636.654	36.43
636.985	35.88
637.316	36.54
637.647	36.34
637.977	35.99
638.308	36.12
638.639	36.51
638.969	36.33
639.3	36.79
639.63	36.13
639.961	36.75
640.291	36.75
640.622	37.19
640.952	36.58
641.282	36.04
641.612	36.83
641.943	36.84
642.273	36.92
642.603	37.05
642.933	36.91
643.263	36.98
643.592	36.77
643.922	37.37
644.252	37.06
644.582	36.95
644.911	36.87
645.241	37.02
645.571	37.39
645.9	37.85
646.23	37.25
646.559	37.34
646.888	37.41
647.218	37.28
647.547	37.59
647.876	37.65
648.205	36.85
648.534	37.4
648.863	37.62
649.192	38.08
649.521	37.44
649.85	37.6
650.179	37.81
650.508	38.01
650.837	37.58
651.165	38
651.494	37.75
651.822	38.3
652.151	38.19
652.479	38.25
652.808	38.04
653.136	37.79
653.465	37.8
653.793	38.4
654.121	38.55
654.449	38.1
654.777	38.55
655.105	38.14
655.433	38.83
655.761	38.03
656.089	38.47
656.417	37.99
656.745	38.71
657.073	38.33
657.4	38.73
657.728	39.11
658.056	38.17
658.383	38.56
658.711	38.8
659.038	38.93
659.365	38.25
659.693	38.2
660.02	38.36
660.347	38.94
660.674	38.61
661.001	38.68
661.329	39.08
661.656	38.64
661.982	38.99
662.309	38.78
662.636	38.62
662.963	39.19
663.29	38.56
663.616	39.02
663.943	39.16
664.27	39.44
664.596	39.47
664.923	39.09
665.249	39.14
665.576	39.24
665.902	39.01
666.228	39.51
666.554	39.83
666.881	38.76
667.207	39.06
667.533	39.61
667.859	39.32
668.185	39.77
668.511	39.87
668.837	39.05
669.162	40.09
669.488	40.03
669.814	39.96
670.139	40.15
670.465	39.78
670.791	40.06
671.116	39.08
671.442	39.95
671.767	39.45
