Data from 0064_forehead_Reflection__2__236.txt Node

Date: Fri Dec 16 15:47:01 CST 2022
User: ToomeyLab
Spectrometer: FLMS14357
Trigger mode: 0
Integration Time (sec): 1.000000E-2
Scans to average: 100
Electric dark correction enabled: true
Nonlinearity correction enabled: false
Boxcar width: 0
XAxis mode: Wavelengths
Number of Pixels in Spectrum: 2048
>>>>>Begin Spectral Data<<<<<
189.047	155.1
189.435	155.1
189.823	155.1
190.211	-183.26
190.599	-22.92
190.987	-56.34
191.375	118.65
191.763	-1968.66
192.151	-365.56
192.538	86.99
192.926	-43.78
193.314	57.55
193.702	110.73
194.089	-406.53
194.477	26.85
194.864	28.9
195.252	-18
195.639	146.7
196.027	-247.34
196.414	100.59
196.801	75.76
197.189	44.81
197.576	-295.31
197.963	-142.22
198.351	33.41
198.738	33.29
199.125	84.9
199.512	44.81
199.899	59.76
200.286	7.33
200.673	24.1
201.06	41.74
201.447	42.13
201.833	25.25
202.22	25.11
202.607	48.7
202.994	70.61
203.38	5.9
203.767	-32.22
204.154	-72.39
204.54	18.79
204.927	39.7
205.313	14.51
205.699	-3.72
206.086	34.65
206.472	55.08
206.858	-9.4
207.245	25.31
207.631	1.66
208.017	-2.4
208.403	55.11
208.789	31.19
209.175	60.99
209.561	19.32
209.947	11.88
210.333	-10.66
210.719	3.62
211.105	9.46
211.491	11.53
211.876	37.27
212.262	-86.27
212.648	-12.55
213.034	16.92
213.419	20.74
213.805	1.31
214.19	17.92
214.576	-19.46
214.961	-0.54
215.346	-0.65
215.732	12.25
216.117	24.62
216.502	-10.07
216.888	-10.92
217.273	11.32
217.658	-24
218.043	8.07
218.428	16.92
218.813	-22
219.198	-25.21
219.583	31.69
219.968	-3.03
220.353	31.1
220.738	-23.39
221.122	-2.69
221.507	24.37
221.892	5.8
222.276	20.65
222.661	-0.9
223.046	10.04
223.43	-7.2
223.815	2.01
224.199	17.52
224.583	2.04
224.968	10.43
225.352	2.85
225.736	16.78
226.121	-2.17
226.505	2.14
226.889	7.03
227.273	4.79
227.657	5.09
228.041	6.55
228.425	5.88
228.809	3.75
229.193	4.43
229.577	2.51
229.961	5.29
230.344	4.12
230.728	3.84
231.112	3.98
231.495	3.27
231.879	5.33
232.263	1.93
232.646	2.78
233.03	2.62
233.413	4.5
233.797	4.67
234.18	2.64
234.563	2.45
234.946	4.85
235.33	4.63
235.713	3.21
236.096	3.58
236.479	5.19
236.862	5.19
237.245	4.88
237.628	4.5
238.011	4.06
238.394	5.79
238.777	4.08
239.16	3.2
239.543	3.75
239.925	4.94
240.308	6.08
240.691	4.32
241.073	4.93
241.456	3.79
241.838	2.8
242.221	3.46
242.603	4.25
242.986	5.08
243.368	4.33
243.75	4.19
244.133	4.06
244.515	4.21
244.897	3.84
245.279	4.55
245.661	4.51
246.043	5.05
246.425	3.4
246.807	4.65
247.189	4.26
247.571	4.81
247.953	4.01
248.335	4.48
248.717	4.03
249.098	4.37
249.48	4.06
249.862	4.34
250.243	4.24
250.625	4.23
251.006	3.99
251.388	5.16
251.769	4.12
252.151	4.73
252.532	4.97
252.913	4.62
253.295	4.69
253.676	4.26
254.057	4.08
254.438	3.67
254.819	4.42
255.2	4.22
255.581	4.07
255.962	5.26
256.343	4.84
256.724	3.65
257.105	5.27
257.486	4.34
257.867	3.69
258.247	4.86
258.628	5.48
259.009	3.98
259.389	4.28
259.77	4.36
260.15	5.15
260.531	4.34
260.911	4.2
261.292	4.01
261.672	4
262.052	4.15
262.432	4.27
262.813	4.34
263.193	4.42
263.573	4.44
263.953	4.23
264.333	4.62
264.713	4.1
265.093	3.32
265.473	5.25
265.853	4.32
266.233	4.17
266.612	5.12
266.992	3.28
267.372	4.07
267.752	3.99
268.131	4.08
268.511	4.11
268.89	4.59
269.27	4.8
269.649	4.37
270.029	4.02
270.408	4.12
270.787	4.07
271.167	4.54
271.546	3.87
271.925	4.59
272.304	4.42
272.683	3.48
273.062	4.35
273.441	4.18
273.82	4.05
274.199	4
274.578	3.84
274.957	4.18
275.336	3.86
275.715	4.94
276.093	5.17
276.472	4.32
276.851	4.32
277.229	4.92
277.608	4.06
277.986	4.19
278.365	3.73
278.743	4.53
279.122	3.68
279.5	4.55
279.878	3.43
280.257	3.77
280.635	3.51
281.013	4.38
281.391	4.16
281.769	4.21
282.147	5.05
282.525	3.48
282.903	3.98
283.281	4.07
283.659	3.93
284.037	4.31
284.415	4.11
284.792	3.91
285.17	3.67
285.548	4.25
285.925	3.79
286.303	4.06
286.68	4.41
287.058	4.23
287.435	3.95
287.813	4.26
288.19	4.69
288.567	3.74
288.945	4.3
289.322	4.25
289.699	4.33
290.076	4.31
290.453	4.31
290.83	4.18
291.207	3.87
291.584	4.08
291.961	4.45
292.338	4.47
292.715	4.54
293.092	4.5
293.469	4.55
293.845	4.44
294.222	4.49
294.599	4.82
294.975	4.77
295.352	4.45
295.728	4.59
296.105	4.71
296.481	5.17
296.858	4.89
297.234	4.07
297.61	4.57
297.986	4.6
298.363	4.58
298.739	4.87
299.115	4.47
299.491	4.52
299.867	4.93
300.243	4.72
300.619	4.72
300.995	4.73
301.371	5.08
301.746	5.1
302.122	4.79
302.498	4.76
302.874	5.53
303.249	5.41
303.625	5.21
304	4.86
304.376	5.41
304.751	5.41
305.127	4.9
305.502	5.18
305.878	5.69
306.253	5.47
306.628	5.43
307.003	5.79
307.378	5
307.754	5.71
308.129	4.95
308.504	5.07
308.879	5.3
309.254	5.59
309.629	5.4
310.003	5.86
310.378	5.81
310.753	5.81
311.128	5.69
311.502	5.31
311.877	5.79
312.252	5.53
312.626	5.39
313.001	5.45
313.375	5.92
313.75	5.83
314.124	6.11
314.498	5.46
314.873	5.78
315.247	6.17
315.621	6.35
315.995	5.71
316.369	6.03
316.743	6.26
317.117	5.75
317.491	5.95
317.865	5.49
318.239	6.79
318.613	5.93
318.987	6.38
319.361	6.13
319.734	6.31
320.108	6.23
320.482	6.09
320.855	6.64
321.229	6.97
321.602	6.18
321.976	6.49
322.349	5.46
322.723	5.91
323.096	5.7
323.469	6.04
323.843	6.52
324.216	6.26
324.589	7.21
324.962	6.57
325.335	6.18
325.708	6.97
326.081	6.82
326.454	6.94
326.827	6.54
327.2	7.73
327.573	6.93
327.945	6.63
328.318	6.86
328.691	6.73
329.063	6.66
329.436	6.21
329.809	6.68
330.181	7.04
330.553	7.21
330.926	6.77
331.298	7
331.671	6.8
332.043	7.31
332.415	7.12
332.787	7.45
333.159	6.9
333.532	7.42
333.904	7.22
334.276	7.12
334.648	7
335.02	6.9
335.391	7.27
335.763	6.8
336.135	7.34
336.507	7.06
336.879	7.66
337.25	7.3
337.622	7.43
337.993	7.86
338.365	7.64
338.736	7.29
339.108	7.23
339.479	7.21
339.851	7.65
340.222	7.38
340.593	6.85
340.964	7.55
341.336	7.05
341.707	7.55
342.078	6.97
342.449	7.63
342.82	7.57
343.191	7.22
343.562	7.8
343.933	7.35
344.303	7.7
344.674	7.74
345.045	7.9
345.416	7.73
345.786	7.34
346.157	8.04
346.527	7.38
346.898	7.85
347.268	7.61
347.639	7.49
348.009	7.93
348.38	7.69
348.75	8.19
349.12	7.9
349.49	8.06
349.861	8.37
350.231	8.74
350.601	8.44
350.971	8.23
351.341	8.09
351.711	7.9
352.081	7.9
352.45	8.2
352.82	8.4
353.19	7.91
353.56	8.58
353.929	8.54
354.299	8.24
354.669	8.84
355.038	8.39
355.408	8.79
355.777	8.44
356.147	9.01
356.516	8.55
356.885	8.37
357.254	8.82
357.624	8.69
357.993	8.47
358.362	8.72
358.731	8.46
359.1	8.83
359.469	8.67
359.838	8.32
360.207	8.76
360.576	8.84
360.945	8.81
361.314	9.09
361.682	8.42
362.051	8.66
362.42	9.1
362.788	9.06
363.157	8.7
363.525	8.93
363.894	8.74
364.262	8.97
364.631	9.33
364.999	8.83
365.367	9.03
365.735	8.94
366.104	9.09
366.472	9.27
366.84	9.3
367.208	9
367.576	9.29
367.944	9.67
368.312	8.86
368.68	9.37
369.048	9.56
369.416	9.76
369.783	9.32
370.151	9.54
370.519	9.32
370.886	9.28
371.254	9.72
371.621	9.69
371.989	9.99
372.356	9.82
372.724	9.39
373.091	9.45
373.458	9.78
373.826	9.56
374.193	10.09
374.56	9.6
374.927	9.66
375.294	9.96
375.661	10.1
376.028	9.56
376.395	10.04
376.762	10.45
377.129	10.29
377.496	9.81
377.863	10.14
378.229	9.92
378.596	9.93
378.963	9.93
379.329	10.05
379.696	9.95
380.062	10.58
380.429	10.29
380.795	9.94
381.161	10.16
381.528	9.71
381.894	10.32
382.26	10.22
382.626	10.11
382.993	10.08
383.359	10.06
383.725	10.58
384.091	10.37
384.457	10.74
384.823	10.63
385.188	10.58
385.554	10.58
385.92	10.94
386.286	10.83
386.651	10.72
387.017	10.76
387.383	10.63
387.748	10.76
388.114	11.17
388.479	10.88
388.845	10.83
389.21	11.06
389.575	10.99
389.94	10.78
390.306	11.12
390.671	10.74
391.036	11.05
391.401	11.26
391.766	11.27
392.131	10.95
392.496	11.47
392.861	10.85
393.226	11.33
393.591	11.19
393.956	11.3
394.32	11.25
394.685	11.36
395.05	11.43
395.414	11.32
395.779	11.27
396.143	11.32
396.508	11.59
396.872	11.46
397.236	11.37
397.601	11.7
397.965	11.33
398.329	11.94
398.694	11.71
399.058	11.69
399.422	11.78
399.786	11.8
400.15	11.67
400.514	11.65
400.878	11.68
401.242	11.88
401.605	11.77
401.969	11.94
402.333	11.74
402.697	11.94
403.06	12.04
403.424	11.93
403.787	12.26
404.151	12.07
404.514	12.03
404.878	12.07
405.241	12.19
405.604	12.29
405.968	12.11
406.331	12.17
406.694	12.06
407.057	12.51
407.42	12.12
407.783	12.25
408.146	12.3
408.509	12.25
408.872	12.21
409.235	12.41
409.598	12.64
409.961	12.46
410.323	12.53
410.686	12.51
411.049	12.63
411.411	12.44
411.774	12.45
412.136	12.61
412.499	12.37
412.861	12.48
413.223	12.81
413.586	12.54
413.948	12.92
414.31	12.84
414.672	12.67
415.035	13.09
415.397	12.86
415.759	12.85
416.121	12.95
416.483	13.21
416.845	12.78
417.206	13.34
417.568	13.1
417.93	12.87
418.292	13.11
418.653	13.1
419.015	13.1
419.377	13.11
419.738	12.92
420.1	13.15
420.461	12.81
420.822	13.09
421.184	13.05
421.545	12.96
421.906	13.18
422.267	12.98
422.629	12.96
422.99	12.99
423.351	13.09
423.712	13.14
424.073	13.4
424.434	13.27
424.795	13.26
425.155	13.45
425.516	13.19
425.877	13.18
426.238	13.19
426.598	13.35
426.959	13.36
427.32	13.54
427.68	13.57
428.041	13.63
428.401	13.45
428.761	13.57
429.122	13.77
429.482	13.69
429.842	13.94
430.202	13.96
430.563	14.05
430.923	14.04
431.283	14.21
431.643	13.97
432.003	14.14
432.363	14.32
432.722	14.12
433.082	14.15
433.442	14.18
433.802	14.22
434.161	14.14
434.521	14.15
434.881	14.18
435.24	14.24
435.6	14.15
435.959	14.24
436.319	14.43
436.678	14.28
437.037	14.47
437.396	14.41
437.756	14.48
438.115	14.65
438.474	14.65
438.833	14.76
439.192	14.52
439.551	14.72
439.91	14.6
440.269	14.83
440.628	14.69
440.987	14.55
441.345	14.56
441.704	14.82
442.063	14.69
442.421	14.78
442.78	14.71
443.138	14.71
443.497	14.73
443.855	14.95
444.214	14.99
444.572	14.95
444.93	15.02
445.288	15.16
445.647	15.11
446.005	14.97
446.363	15.18
446.721	14.99
447.079	15.09
447.437	15.04
447.795	15.06
448.153	15.1
448.51	15.06
448.868	15.15
449.226	15.32
449.584	15.19
449.941	15.48
450.299	15.27
450.656	15.49
451.014	15.5
451.371	15.69
451.729	15.72
452.086	15.52
452.443	15.62
452.801	15.85
453.158	15.76
453.515	15.69
453.872	15.83
454.229	15.72
454.586	15.83
454.943	15.77
455.3	16.05
455.657	15.87
456.014	15.97
456.371	16.21
456.727	15.98
457.084	15.94
457.441	16.04
457.797	16.19
458.154	16.1
458.51	16.11
458.867	16.03
459.223	16.38
459.58	16.18
459.936	16.24
460.292	16.38
460.648	16.17
461.005	16.07
461.361	16.23
461.717	16.09
462.073	16.15
462.429	16.25
462.785	16.34
463.141	16.56
463.496	16.52
463.852	16.99
464.208	16.8
464.564	16.53
464.919	16.77
465.275	16.84
465.631	16.95
465.986	16.72
466.342	17.03
466.697	17.09
467.052	17.05
467.408	16.92
467.763	16.91
468.118	17.05
468.473	17.29
468.829	17.16
469.184	17.05
469.539	17.02
469.894	17.1
470.249	17.26
470.603	17.26
470.958	17.4
471.313	17.18
471.668	17.52
472.023	17.66
472.377	17.37
472.732	17.41
473.086	17.58
473.441	17.5
473.795	17.71
474.15	17.58
474.504	17.57
474.859	17.76
475.213	17.68
475.567	17.58
475.921	17.83
476.275	17.74
476.63	17.75
476.984	17.79
477.338	18.17
477.692	17.98
478.045	18.09
478.399	17.98
478.753	17.96
479.107	17.98
479.461	18.06
479.814	17.88
480.168	17.95
480.521	18.11
480.875	18.24
481.228	18.26
481.582	18.09
481.935	18.25
482.289	18.13
482.642	18.21
482.995	18.21
483.348	18.15
483.701	17.98
484.055	18.09
484.408	17.95
484.761	17.69
485.114	17.58
485.466	17.51
485.819	17.47
486.172	17.37
486.525	17.52
486.878	17.62
487.23	17.94
487.583	18.08
487.936	18.19
488.288	18.09
488.641	18.06
488.993	17.87
489.345	17.91
489.698	17.94
490.05	18.03
490.402	18.16
490.754	18.24
491.107	18.52
491.459	18.71
491.811	18.68
492.163	18.72
492.515	18.72
492.866	18.34
493.218	18.35
493.57	18.45
493.922	18.34
494.274	18.6
494.625	18.82
494.977	18.86
495.328	19.12
495.68	19.42
496.031	19.35
496.383	19.59
496.734	19.59
497.086	19.51
497.437	19.62
497.788	19.53
498.139	19.46
498.49	19.5
498.842	19.45
499.193	19.54
499.544	19.58
499.894	19.66
500.245	19.73
500.596	19.79
500.947	19.86
501.298	19.91
501.648	19.88
501.999	20.15
502.35	20.08
502.7	20.01
503.051	20.27
503.401	20.32
503.752	20.12
504.102	20.19
504.452	20.24
504.803	20.09
505.153	20.29
505.503	20.23
505.853	20.08
506.203	20.46
506.553	20.34
506.903	20.47
507.253	20.43
507.603	20.46
507.953	20.6
508.303	20.69
508.652	20.6
509.002	20.64
509.352	20.72
509.701	20.62
510.051	20.51
510.4	20.62
510.75	20.67
511.099	20.56
511.449	20.56
511.798	20.68
512.147	20.79
512.496	20.86
512.846	20.81
513.195	20.92
513.544	20.81
513.893	20.71
514.242	21.05
514.591	20.89
514.939	20.94
515.288	21.13
515.637	21.2
515.986	21.16
516.334	21.12
516.683	21.32
517.032	21.24
517.38	21.43
517.729	21.38
518.077	21.56
518.426	21.6
518.774	21.36
519.122	21.38
519.47	21.19
519.819	21.22
520.167	21.22
520.515	21.2
520.863	21.19
521.211	21.22
521.559	21.43
521.907	21.42
522.255	21.65
522.602	21.79
522.95	21.74
523.298	21.82
523.645	21.86
523.993	22.02
524.341	21.92
524.688	22.1
525.036	22.02
525.383	22.06
525.73	22.05
526.078	22.2
526.425	21.93
526.772	21.79
527.119	21.82
527.466	21.75
527.814	21.85
528.161	21.77
528.508	21.71
528.854	21.83
529.201	21.85
529.548	21.68
529.895	21.56
530.242	21.54
530.588	21.5
530.935	21.33
531.282	21.61
531.628	21.54
531.975	21.91
532.321	22.02
532.667	22.11
533.014	22.3
533.36	22.39
533.706	22.41
534.052	22.29
534.399	22.31
534.745	22.15
535.091	22.16
535.437	22.05
535.783	22.26
536.129	22.34
536.474	22.58
536.82	22.74
537.166	22.85
537.512	22.82
537.857	22.81
538.203	22.68
538.549	22.74
538.894	22.71
539.239	22.9
539.585	23.06
539.93	23.15
540.276	23.29
540.621	23.19
540.966	23.4
541.311	23.49
541.656	23.2
542.001	23.28
542.346	23.09
542.691	22.79
543.036	22.78
543.381	22.81
543.726	22.82
544.071	22.94
544.415	23.1
544.76	23.09
545.105	23.29
545.449	23.3
545.794	23.36
546.138	23.66
546.483	23.69
546.827	23.63
547.171	23.66
547.516	23.84
547.86	23.77
548.204	23.63
548.548	23.8
548.892	23.91
549.236	23.8
549.58	24.07
549.924	24.18
550.268	24.25
550.612	24.31
550.956	24.33
551.3	24.31
551.643	24.75
551.987	24.53
552.33	24.53
552.674	24.74
553.017	24.77
553.361	24.62
553.704	24.59
554.048	24.87
554.391	24.61
554.734	24.62
555.077	24.73
555.42	24.72
555.764	24.91
556.107	24.8
556.45	24.94
556.793	25.06
557.135	25.23
557.478	25.24
557.821	25.01
558.164	25.24
558.507	25.4
558.849	25.24
559.192	25.5
559.534	25.13
559.877	25.32
560.219	25.45
560.562	25.56
560.904	25.6
561.246	25.47
561.589	25.54
561.931	25.73
562.273	25.59
562.615	25.52
562.957	25.69
563.299	25.49
563.641	25.7
563.983	25.77
564.325	25.77
564.667	25.6
565.008	25.9
565.35	26.04
565.692	26.03
566.033	25.77
566.375	26.1
566.716	25.86
567.058	26.1
567.399	25.93
567.741	25.77
568.082	25.84
568.423	25.74
568.764	25.95
569.105	25.83
569.447	25.75
569.788	26.03
570.129	26.14
570.47	26.24
570.811	26.27
571.151	26.15
571.492	26.46
571.833	26.17
572.174	26.31
572.514	26.3
572.855	26.34
573.195	26.41
573.536	26.37
573.876	26.34
574.217	26.4
574.557	26.44
574.898	26.28
575.238	26.45
575.578	26.72
575.918	26.61
576.258	26.63
576.598	26.83
576.938	26.88
577.278	26.74
577.618	26.66
577.958	26.86
578.298	26.87
578.638	26.76
578.977	26.9
579.317	27.03
579.657	26.95
579.996	27.28
580.336	27.08
580.675	27.46
581.014	27.12
581.354	27.65
581.693	27.4
582.032	27.18
582.372	27.46
582.711	27.65
583.05	27.55
583.389	27.54
583.728	27.73
584.067	27.57
584.406	27.64
584.745	27.55
585.083	27.64
585.422	27.33
585.761	27.73
586.1	27.67
586.438	27.95
586.777	27.6
587.115	27.94
587.454	28.09
587.792	27.9
588.13	28.01
588.469	28.2
588.807	28.28
589.145	28.13
589.483	28.04
589.821	28.34
590.159	28.14
590.497	27.98
590.835	28.33
591.173	28.47
591.511	28.64
591.849	28.34
592.187	28.5
592.524	28.02
592.862	28.29
593.2	28.71
593.537	28.51
593.875	28.61
594.212	28.38
594.55	28.52
594.887	28.68
595.224	28.65
595.561	28.52
595.899	28.58
596.236	28.61
596.573	28.51
596.91	28.78
597.247	29.01
597.584	28.84
597.921	28.67
598.258	28.66
598.594	28.64
598.931	28.7
599.268	28.49
599.604	28.92
599.941	28.75
600.277	29.04
600.614	28.98
600.95	29.18
601.287	29.03
601.623	29.27
601.959	29.23
602.296	29.23
602.632	29.67
602.968	29.24
603.304	29.35
603.64	29.23
603.976	29.59
604.312	29.24
604.648	29.66
604.984	29.61
605.319	29.47
605.655	29.2
605.991	29.54
606.326	29.29
606.662	29.1
606.998	29.34
607.333	29.36
607.668	29.39
608.004	29.56
608.339	29.52
608.674	29.89
609.01	30.05
609.345	29.86
609.68	29.55
610.015	30.07
610.35	30.18
610.685	30.13
611.02	29.87
611.355	29.97
611.689	29.68
612.024	30.1
612.359	30.25
612.694	29.98
613.028	30.6
613.363	30.07
613.697	30.19
614.032	30.55
614.366	30.32
614.7	30.72
615.035	30.25
615.369	30.3
615.703	31.02
616.037	30.51
616.371	30.78
616.705	30.6
617.039	30.76
617.373	30.53
617.707	30.61
618.041	30.45
618.375	30.73
618.709	31.14
619.042	30.86
619.376	30.72
619.71	30.55
620.043	30.73
620.377	30.76
620.71	31.17
621.043	30.94
621.377	30.79
621.71	31.07
622.043	31.11
622.376	31.04
622.709	31.11
623.043	31.78
623.376	31.19
623.709	31.66
624.041	31.3
624.374	31.28
624.707	31.59
625.04	31.63
625.373	31.14
625.705	31.18
626.038	31.09
626.37	31.39
626.703	31.54
627.035	31.36
627.368	31.9
627.7	31.42
628.032	31.43
628.365	31.61
628.697	31.83
629.029	31.99
629.361	31.35
629.693	31.75
630.025	31.5
630.357	31.5
630.689	32.02
631.021	31.98
631.353	32.06
631.684	31.77
632.016	31.74
632.348	32.24
632.679	32.13
633.011	31.77
633.342	31.71
633.674	32.05
634.005	32.26
634.336	32.04
634.668	32.41
634.999	32.23
635.33	32.35
635.661	32.33
635.992	32.09
636.323	32.36
636.654	32.46
636.985	32.57
637.316	32.27
637.647	32.63
637.977	32.39
638.308	32.43
638.639	32.76
638.969	32.32
639.3	32.51
639.63	32.62
639.961	32.73
640.291	33.06
640.622	32.66
640.952	32.87
641.282	32.39
641.612	32.47
641.943	32.69
642.273	33.18
642.603	32.99
642.933	33.15
643.263	33.08
643.592	32.79
643.922	33.74
644.252	33.25
644.582	32.96
644.911	32.61
645.241	33.13
645.571	33
645.9	33.68
646.23	32.4
646.559	32.99
646.888	33.58
647.218	33.41
647.547	33.42
647.876	33.5
648.205	33.54
648.534	33.43
648.863	33.48
649.192	33.62
649.521	33.41
649.85	33.41
650.179	33.49
650.508	33.76
650.837	33.99
651.165	33.28
651.494	33.7
651.822	33.77
652.151	33.85
652.479	34.17
652.808	33.88
653.136	33.45
653.465	33.86
653.793	33.82
654.121	33.73
654.449	34.1
654.777	34.29
655.105	34.21
655.433	34.37
655.761	33.86
656.089	34.2
656.417	33.72
656.745	34.71
657.073	34.88
657.4	34.23
657.728	34.37
658.056	33.86
658.383	34.69
658.711	34.18
659.038	34.63
659.365	34.09
659.693	34.41
660.02	34.22
660.347	34.66
660.674	34.54
661.001	34.37
661.329	34.48
661.656	34.37
661.982	34.88
662.309	34.98
662.636	34.33
662.963	35
663.29	34.58
663.616	34.17
663.943	34.86
664.27	34.81
664.596	34.9
664.923	35.51
665.249	34.7
665.576	34.78
665.902	34.88
666.228	34.68
666.554	34.67
666.881	34.62
667.207	34.16
667.533	35.1
667.859	35.1
668.185	35.01
668.511	35.46
668.837	35.45
669.162	35.58
669.488	35.32
669.814	35.56
670.139	35.44
670.465	36.06
670.791	36.06
671.116	35.45
671.442	35.3
671.767	34.94
672.092	35.47
672.418	35.36
