Data from 0064_chest_Reflection__5__228.txt Node

Date: Fri Dec 16 15:44:31 CST 2022
User: ToomeyLab
Spectrometer: FLMS14357
Trigger mode: 0
Integration Time (sec): 1.000000E-2
Scans to average: 100
Electric dark correction enabled: true
Nonlinearity correction enabled: false
Boxcar width: 0
XAxis mode: Wavelengths
Number of Pixels in Spectrum: 2048
>>>>>Begin Spectral Data<<<<<
189.047	358.41
189.435	358.41
189.823	358.41
190.211	-644.64
190.599	-30.73
190.987	-153.11
191.375	19.55
191.763	-1912.44
192.151	-30.54
192.538	152.74
192.926	48.55
193.314	70.41
193.702	-5.24
194.089	-1055.9
194.477	31.15
194.864	-46.06
195.252	799.72
195.639	221.69
196.027	-43.84
196.414	38.39
196.801	131.24
197.189	45.78
197.576	-199.05
197.963	296.25
198.351	-15.59
198.738	-36.31
199.125	61.84
199.512	-16.95
199.899	-71.3
200.286	-78.81
200.673	49.15
201.06	62.21
201.447	25.59
201.833	-14.69
202.22	-10.36
202.607	-29.73
202.994	18.58
203.38	-76.03
203.767	-16.57
204.154	-106.52
204.54	48
204.927	0.08
205.313	-2.16
205.699	-10.53
206.086	-1.79
206.472	-4.98
206.858	3.65
207.245	2.63
207.631	-44.84
208.017	43.43
208.403	33.64
208.789	-28.5
209.175	49.14
209.561	7.85
209.947	-1.84
210.333	-22.77
210.719	-6.27
211.105	-32.88
211.491	-0.82
211.876	-29.44
212.262	-169.27
212.648	-81.09
213.034	-3.62
213.419	9.27
213.805	-28.28
214.19	11.83
214.576	-26.53
214.961	-9.37
215.346	-33
215.732	-4
216.117	-4.9
216.502	0.43
216.888	-37.92
217.273	0.45
217.658	-16.86
218.043	-25.6
218.428	-14.35
218.813	-16.38
219.198	-54.59
219.583	11.86
219.968	-38.77
220.353	7.92
220.738	-20.55
221.122	10.71
221.507	-17.84
221.892	-8.29
222.276	-2.62
222.661	-10.66
223.046	5.99
223.43	-0.75
223.815	-1.66
224.199	0.54
224.583	-5.62
224.968	10.41
225.352	0.82
225.736	0.17
226.121	-8.31
226.505	3.22
226.889	8.17
227.273	8.8
227.657	6.46
228.041	4.28
228.425	4.92
228.809	5.04
229.193	1.22
229.577	2.93
229.961	3.94
230.344	3.57
230.728	3.48
231.112	3.79
231.495	3.3
231.879	2.88
232.263	1.69
232.646	3.28
233.03	2.13
233.413	2.82
233.797	3.02
234.18	-0.26
234.563	3.07
234.946	4.59
235.33	3.1
235.713	3.01
236.096	3.1
236.479	5.03
236.862	3.84
237.245	3.41
237.628	2.3
238.011	2.34
238.394	4.85
238.777	3.33
239.16	0.8
239.543	1.24
239.925	4.55
240.308	2.22
240.691	3.14
241.073	2.12
241.456	2.98
241.838	4.14
242.221	2.34
242.603	4.15
242.986	4.25
243.368	3.54
243.75	3.01
244.133	3.75
244.515	3.59
244.897	3.03
245.279	3.13
245.661	3.48
246.043	2.47
246.425	3.03
246.807	3.16
247.189	3.56
247.571	3.39
247.953	3.17
248.335	3.68
248.717	3.62
249.098	3.73
249.48	2.99
249.862	3.59
250.243	3.24
250.625	3.46
251.006	4.05
251.388	4.03
251.769	2.33
252.151	3.7
252.532	2.43
252.913	3.72
253.295	3.27
253.676	3.51
254.057	3.58
254.438	3.16
254.819	4.39
255.2	3.35
255.581	2.72
255.962	3.22
256.343	3.08
256.724	4.05
257.105	2.95
257.486	2.85
257.867	0.53
258.247	3.03
258.628	3.71
259.009	3.34
259.389	3.56
259.77	3.21
260.15	3.85
260.531	3.29
260.911	3.55
261.292	3.26
261.672	3.47
262.052	3.29
262.432	3.26
262.813	3.68
263.193	2.6
263.573	3.79
263.953	2.93
264.333	3.48
264.713	3.12
265.093	2.62
265.473	4.36
265.853	3.16
266.233	2.82
266.612	3.6
266.992	2.73
267.372	3.07
267.752	3.08
268.131	2.62
268.511	3.72
268.89	3.96
269.27	3.8
269.649	3.37
270.029	3.69
270.408	3.03
270.787	3.34
271.167	3.39
271.546	2.57
271.925	3.26
272.304	3.41
272.683	3.42
273.062	3.05
273.441	3.33
273.82	3.58
274.199	3.01
274.578	3.12
274.957	3.49
275.336	3.12
275.715	2.82
276.093	3.85
276.472	3.64
276.851	2.97
277.229	3.38
277.608	3.02
277.986	3.2
278.365	3.29
278.743	3.23
279.122	3.17
279.5	3.13
279.878	2.21
280.257	2.98
280.635	3.06
281.013	3.47
281.391	3.32
281.769	2.76
282.147	2.75
282.525	3.29
282.903	3.25
283.281	3.46
283.659	3.25
284.037	3.08
284.415	3.51
284.792	3.28
285.17	2.88
285.548	3.13
285.925	3.08
286.303	2.92
286.68	3.2
287.058	3.21
287.435	3.28
287.813	3.31
288.19	3.51
288.567	2.94
288.945	3.07
289.322	3.03
289.699	2.89
290.076	3.53
290.453	2.87
290.83	3.87
291.207	3.23
291.584	3.16
291.961	3.28
292.338	3.02
292.715	3.46
293.092	3.22
293.469	3.4
293.845	3.25
294.222	2.88
294.599	3.57
294.975	3.42
295.352	2.83
295.728	2.91
296.105	3.37
296.481	4.2
296.858	3.21
297.234	3.32
297.61	3.62
297.986	3.35
298.363	2.82
298.739	3.47
299.115	3.39
299.491	3.17
299.867	3.52
300.243	2.76
300.619	3.29
300.995	3.32
301.371	3.39
301.746	3.27
302.122	3.38
302.498	3.4
302.874	3.34
303.249	3.57
303.625	3.38
304	2.99
304.376	3.61
304.751	3
305.127	3.35
305.502	3.39
305.878	3.11
306.253	3.1
306.628	3.74
307.003	3.27
307.378	3.28
307.754	4.2
308.129	3.13
308.504	2.62
308.879	2.94
309.254	3.3
309.629	3.08
310.003	3.32
310.378	3.67
310.753	3.29
311.128	3.46
311.502	3.09
311.877	3.15
312.252	3.11
312.626	2.97
313.001	3.53
313.375	3.24
313.75	2.92
314.124	3.51
314.498	3.37
314.873	2.67
315.247	3.33
315.621	3.53
315.995	3.35
316.369	3.72
316.743	3.85
317.117	3.27
317.491	3.23
317.865	3.02
318.239	3.58
318.613	3.45
318.987	3.21
319.361	3.48
319.734	2.95
320.108	3.68
320.482	3.29
320.855	3.79
321.229	3.64
321.602	3.22
321.976	3.24
322.349	2.65
322.723	2.97
323.096	2.87
323.469	3.05
323.843	3.29
324.216	2.65
324.589	3.5
324.962	3.44
325.335	2.94
325.708	3.14
326.081	3.64
326.454	3.35
326.827	3.45
327.2	3.5
327.573	3.61
327.945	3.03
328.318	2.97
328.691	3.77
329.063	3.27
329.436	3.37
329.809	3.25
330.181	3.61
330.553	3.14
330.926	3.26
331.298	2.84
331.671	3.32
332.043	3.32
332.415	4.1
332.787	3.55
333.159	3.22
333.532	3.59
333.904	3.21
334.276	3.47
334.648	3.32
335.02	3.06
335.391	3.43
335.763	3.45
336.135	4.09
336.507	3.7
336.879	2.71
337.25	3.03
337.622	3.51
337.993	3.31
338.365	3.4
338.736	3.47
339.108	2.74
339.479	3.25
339.851	3.31
340.222	3.06
340.593	2.9
340.964	2.98
341.336	3.14
341.707	2.87
342.078	3.09
342.449	3.57
342.82	3.37
343.191	3.1
343.562	3.04
343.933	3.2
344.303	3.05
344.674	3.19
345.045	3.65
345.416	3.65
345.786	3.18
346.157	3.31
346.527	3.24
346.898	3.35
347.268	3.17
347.639	3.67
348.009	3.56
348.38	3.06
348.75	3.55
349.12	3.02
349.49	3.42
349.861	3.99
350.231	3.48
350.601	3.3
350.971	3.22
351.341	3.58
351.711	3.41
352.081	3.25
352.45	4.12
352.82	3.39
353.19	2.97
353.56	3.13
353.929	3.73
354.299	3.36
354.669	3.44
355.038	3.22
355.408	4.14
355.777	3.15
356.147	3.86
356.516	3.53
356.885	3.25
357.254	3.43
357.624	3.64
357.993	3.35
358.362	3.79
358.731	3.38
359.1	3.43
359.469	3.72
359.838	3.06
360.207	3.43
360.576	3.12
360.945	3.42
361.314	3.39
361.682	3.13
362.051	3.15
362.42	3.82
362.788	3.37
363.157	3.27
363.525	3.47
363.894	3.11
364.262	3.39
364.631	4.02
364.999	3.36
365.367	3.49
365.735	3.09
366.104	3.39
366.472	3.67
366.84	3.61
367.208	3.32
367.576	3.54
367.944	3.82
368.312	2.99
368.68	3.4
369.048	3.55
369.416	3.15
369.783	3.37
370.151	3.27
370.519	3.23
370.886	3.39
371.254	3.59
371.621	3.44
371.989	3.51
372.356	3.44
372.724	3.52
373.091	3.46
373.458	3.5
373.826	3.49
374.193	3.92
374.56	3.44
374.927	3.22
375.294	3.99
375.661	3.32
376.028	3.21
376.395	3.27
376.762	3.42
377.129	3.97
377.496	3.51
377.863	3.65
378.229	3.26
378.596	3.43
378.963	3.26
379.329	3.64
379.696	3.4
380.062	3.79
380.429	3.46
380.795	3.2
381.161	3.29
381.528	3.11
381.894	3.39
382.26	3.42
382.626	3.28
382.993	3.49
383.359	3.63
383.725	3.53
384.091	3.3
384.457	3.56
384.823	3.67
385.188	3.53
385.554	3.48
385.92	3.85
386.286	3.78
386.651	3.58
387.017	3.65
387.383	3.59
387.748	3.16
388.114	3.57
388.479	3.79
388.845	3.49
389.21	3.56
389.575	3.64
389.94	3.55
390.306	3.43
390.671	3.29
391.036	3.55
391.401	3.63
391.766	3.68
392.131	3.51
392.496	3.23
392.861	3.41
393.226	3.48
393.591	3.61
393.956	3.57
394.32	3.48
394.685	3.59
395.05	3.36
395.414	3.62
395.779	3.51
396.143	3.65
396.508	3.89
396.872	3.68
397.236	3.37
397.601	3.51
397.965	3.42
398.329	3.81
398.694	3.11
399.058	3.46
399.422	3.67
399.786	3.56
400.15	3.62
400.514	3.78
400.878	3.49
401.242	3.86
401.605	3.55
401.969	3.71
402.333	3.66
402.697	3.62
403.06	3.39
403.424	3.75
403.787	3.64
404.151	3.56
404.514	3.65
404.878	3.52
405.241	3.86
405.604	3.64
405.968	3.55
406.331	3.72
406.694	3.45
407.057	3.77
407.42	3.78
407.783	3.18
408.146	3.64
408.509	3.55
408.872	3.65
409.235	3.63
409.598	3.8
409.961	3.83
410.323	3.65
410.686	3.57
411.049	3.65
411.411	3.66
411.774	3.55
412.136	3.75
412.499	3.58
412.861	3.48
413.223	3.88
413.586	3.61
413.948	3.65
414.31	3.68
414.672	3.53
415.035	3.74
415.397	3.64
415.759	3.62
416.121	3.72
416.483	3.91
416.845	3.61
417.206	3.73
417.568	3.65
417.93	3.66
418.292	3.71
418.653	3.61
419.015	3.68
419.377	3.77
419.738	3.6
420.1	3.66
420.461	3.61
420.822	3.76
421.184	3.64
421.545	3.7
421.906	3.73
422.267	3.58
422.629	3.68
422.99	3.69
423.351	3.68
423.712	3.66
424.073	3.73
424.434	3.62
424.795	3.55
425.155	3.72
425.516	3.61
425.877	3.71
426.238	3.59
426.598	3.7
426.959	3.6
427.32	3.77
427.68	3.82
428.041	3.73
428.401	3.75
428.761	3.59
429.122	3.64
429.482	3.67
429.842	3.9
430.202	3.84
430.563	3.51
430.923	3.81
431.283	3.9
431.643	3.78
432.003	3.79
432.363	3.92
432.722	3.73
433.082	3.84
433.442	3.76
433.802	3.82
434.161	3.71
434.521	3.8
434.881	3.92
435.24	3.69
435.6	3.77
435.959	3.72
436.319	3.72
436.678	3.9
437.037	3.83
437.396	3.67
437.756	3.71
438.115	3.91
438.474	3.9
438.833	4.13
439.192	3.9
439.551	3.8
439.91	4.05
440.269	4.05
440.628	3.82
440.987	3.64
441.345	3.85
441.704	3.83
442.063	3.81
442.421	3.86
442.78	3.82
443.138	3.77
443.497	3.81
443.855	3.8
444.214	4
444.572	3.76
444.93	3.97
445.288	3.94
445.647	3.89
446.005	3.74
446.363	3.85
446.721	3.88
447.079	3.8
447.437	3.9
447.795	3.84
448.153	3.83
448.51	3.85
448.868	3.89
449.226	3.89
449.584	3.86
449.941	3.99
450.299	3.92
450.656	3.89
451.014	3.99
451.371	4.01
451.729	3.91
452.086	3.93
452.443	3.78
452.801	3.97
453.158	4.02
453.515	4
453.872	4.12
454.229	3.96
454.586	4.03
454.943	4.01
455.3	4.04
455.657	3.87
456.014	3.97
456.371	4.04
456.727	3.9
457.084	3.91
457.441	3.83
457.797	4.04
458.154	3.89
458.51	3.89
458.867	3.96
459.223	4.02
459.58	3.95
459.936	4.05
460.292	3.96
460.648	3.95
461.005	3.83
461.361	3.9
461.717	4.02
462.073	3.98
462.429	3.98
462.785	4.01
463.141	4.08
463.496	3.96
463.852	4.07
464.208	4.04
464.564	3.82
464.919	3.9
465.275	3.89
465.631	4.06
465.986	4.01
466.342	4.18
466.697	4.09
467.052	4.14
467.408	3.9
467.763	3.98
468.118	4.06
468.473	4.06
468.829	4.02
469.184	4.13
469.539	4.01
469.894	4.21
470.249	4.07
470.603	4.09
470.958	4.33
471.313	4.1
471.668	4.3
472.023	4.19
472.377	4.11
472.732	4.15
473.086	4.07
473.441	4.05
473.795	4.38
474.15	4.22
474.504	4.14
474.859	4.22
475.213	4.04
475.567	3.98
475.921	4.36
476.275	4.15
476.63	4.22
476.984	4.12
477.338	4.23
477.692	4.11
478.045	4.11
478.399	4.16
478.753	4.1
479.107	4.12
479.461	4.18
479.814	4.12
480.168	4.1
480.521	4.14
480.875	4.34
481.228	4.26
481.582	4.07
481.935	4.25
482.289	4.02
482.642	4.08
482.995	4.11
483.348	4.08
483.701	4.12
484.055	4.04
484.408	4.02
484.761	3.89
485.114	3.83
485.466	3.88
485.819	3.95
486.172	4.01
486.525	4.04
486.878	4.11
487.23	4.15
487.583	4.05
487.936	4.14
488.288	4.02
488.641	4.05
488.993	3.9
489.345	4.06
489.698	4.07
490.05	4.04
490.402	4.14
490.754	4.21
491.107	4.25
491.459	4.31
491.811	4.28
492.163	4.14
492.515	4.16
492.866	3.97
493.218	4.01
493.57	4.14
493.922	4.11
494.274	4.23
494.625	4.24
494.977	4.37
495.328	4.38
495.68	4.39
496.031	4.31
496.383	4.28
496.734	4.31
497.086	4.21
497.437	4.32
497.788	4.27
498.139	4.29
498.49	4.3
498.842	4.24
499.193	4.28
499.544	4.35
499.894	4.4
500.245	4.37
500.596	4.39
500.947	4.3
501.298	4.34
501.648	4.44
501.999	4.49
502.35	4.41
502.7	4.43
503.051	4.48
503.401	4.49
503.752	4.35
504.102	4.29
504.452	4.38
504.803	4.28
505.153	4.41
505.503	4.28
505.853	4.39
506.203	4.38
506.553	4.41
506.903	4.38
507.253	4.4
507.603	4.44
507.953	4.53
508.303	4.43
508.652	4.46
509.002	4.44
509.352	4.48
509.701	4.46
510.051	4.47
510.4	4.45
510.75	4.45
511.099	4.47
511.449	4.5
511.798	4.66
512.147	4.49
512.496	4.59
512.846	4.54
513.195	4.53
513.544	4.57
513.893	4.41
514.242	4.58
514.591	4.53
514.939	4.55
515.288	4.64
515.637	4.66
515.986	4.46
516.334	4.66
516.683	4.66
517.032	4.54
517.38	4.66
517.729	4.71
518.077	4.69
518.426	4.51
518.774	4.59
519.122	4.54
519.47	4.6
519.819	4.65
520.167	4.61
520.515	4.48
520.863	4.59
521.211	4.65
521.559	4.66
521.907	4.54
522.255	4.75
522.602	4.74
522.95	4.75
523.298	4.79
523.645	4.69
523.993	4.83
524.341	4.71
524.688	4.81
525.036	4.95
525.383	4.87
525.73	4.76
526.078	4.85
526.425	4.72
526.772	4.6
527.119	4.68
527.466	4.74
527.814	4.72
528.161	4.77
528.508	4.78
528.854	4.77
529.201	4.7
529.548	4.61
529.895	4.58
530.242	4.59
530.588	4.71
530.935	4.69
531.282	4.81
531.628	4.79
531.975	4.82
532.321	4.77
532.667	4.88
533.014	4.94
533.36	4.83
533.706	4.88
534.052	4.86
534.399	4.74
534.745	4.76
535.091	4.79
535.437	4.83
535.783	4.95
536.129	4.93
536.474	5.04
536.82	4.88
537.166	5.06
537.512	5.08
537.857	4.95
538.203	5.06
538.549	5.12
538.894	4.99
539.239	5.17
539.585	5.18
539.93	5.13
540.276	5.12
540.621	4.99
540.966	5.06
541.311	5.22
541.656	5.19
542.001	5.09
542.346	5.01
542.691	4.97
543.036	4.96
543.381	5.04
543.726	5.15
544.071	5.2
544.415	5.1
544.76	5.08
545.105	5.16
545.449	5.2
545.794	5.25
546.138	5.3
546.483	5.24
546.827	5.27
547.171	5.33
547.516	5.36
547.86	5.33
548.204	5.26
548.548	5.4
548.892	5.47
549.236	5.54
549.58	5.45
549.924	5.47
550.268	5.67
550.612	5.61
550.956	5.46
551.3	5.54
551.643	5.59
551.987	5.58
552.33	5.39
552.674	5.69
553.017	5.68
553.361	5.58
553.704	5.63
554.048	5.64
554.391	5.6
554.734	5.58
555.077	5.56
555.42	5.8
555.764	5.66
556.107	5.78
556.45	5.71
556.793	6.02
557.135	5.86
557.478	5.97
557.821	5.66
558.164	5.83
558.507	5.75
558.849	5.62
559.192	5.85
559.534	5.74
559.877	5.96
560.219	6.09
560.562	6.14
560.904	5.94
561.246	5.98
561.589	5.95
561.931	6.31
562.273	5.95
562.615	6.08
562.957	6.02
563.299	6.03
563.641	6.13
563.983	5.94
564.325	5.9
564.667	5.84
565.008	5.99
565.35	6.42
565.692	6.32
566.033	6.05
566.375	6.09
566.716	6.11
567.058	6.15
567.399	6.25
567.741	6.27
568.082	6.16
568.423	6.25
568.764	6.33
569.105	6.26
569.447	6.24
569.788	6.39
570.129	6.37
570.47	6.41
570.811	6.49
571.151	6.4
571.492	6.73
571.833	6.4
572.174	6.44
572.514	6.32
572.855	6.54
573.195	6.45
573.536	6.34
573.876	6.45
574.217	6.69
574.557	6.62
574.898	6.45
575.238	6.53
575.578	6.63
575.918	6.61
576.258	6.61
576.598	6.67
576.938	6.91
577.278	6.46
577.618	6.9
577.958	6.95
578.298	6.94
578.638	6.75
578.977	7
579.317	6.94
579.657	6.65
579.996	6.85
580.336	6.9
580.675	7.01
581.014	6.94
581.354	7.12
581.693	7.01
582.032	6.79
582.372	6.92
582.711	6.91
583.05	7.39
583.389	7.23
583.728	7.31
584.067	7.15
584.406	7.13
584.745	7.29
585.083	7.47
585.422	7.41
585.761	7.54
586.1	7.32
586.438	7.23
586.777	7.44
587.115	7.4
587.454	7.58
587.792	7.17
588.13	7.68
588.469	7.63
588.807	7.59
589.145	7.69
589.483	7.5
589.821	7.57
590.159	7.58
590.497	7.35
590.835	7.44
591.173	7.6
591.511	7.68
591.849	7.78
592.187	7.63
592.524	7.68
592.862	7.72
593.2	7.74
593.537	7.8
593.875	7.62
594.212	7.92
594.55	7.71
594.887	8.03
595.224	7.7
595.561	8.09
595.899	7.7
596.236	8.06
596.573	7.49
596.91	8.06
597.247	7.83
597.584	8.13
597.921	7.94
598.258	7.97
598.594	7.92
598.931	8.22
599.268	8.23
599.604	8.47
599.941	8.25
600.277	7.87
600.614	8.32
600.95	8.43
601.287	8.52
601.623	8.55
601.959	8.23
602.296	8.46
602.632	8.56
602.968	8.2
603.304	8.41
603.64	8.29
603.976	8.61
604.312	8.58
604.648	8.47
604.984	8.47
605.319	8.53
605.655	8.77
605.991	8.62
606.326	8.55
606.662	8.48
606.998	8.66
607.333	8.56
607.668	8.79
608.004	8.89
608.339	8.62
608.674	8.75
609.01	8.71
609.345	9.23
609.68	8.75
610.015	8.88
610.35	8.98
610.685	8.85
611.02	9.08
611.355	8.97
611.689	8.86
612.024	9.21
612.359	9.31
612.694	9.46
613.028	9.35
613.363	8.95
613.697	9.2
614.032	9.46
614.366	9.09
614.7	9.35
615.035	9.11
615.369	9.3
615.703	9.61
616.037	9.33
616.371	9.33
616.705	9.63
617.039	9.38
617.373	9.46
617.707	9.4
618.041	9.69
618.375	8.85
618.709	9.4
619.042	9.64
619.376	9.58
619.71	9.61
620.043	9.4
620.377	9.58
620.71	9.63
621.043	9.75
621.377	9.73
621.71	9.85
622.043	10.17
622.376	9.83
622.709	10.32
623.043	9.85
623.376	10.02
623.709	10.24
624.041	10.02
624.374	9.99
624.707	10.03
625.04	10.4
625.373	9.86
625.705	9.93
626.038	10.27
626.37	10.19
626.703	10.11
627.035	10.39
627.368	10.72
627.7	10.36
628.032	10.4
628.365	10.15
628.697	10.22
629.029	10.74
629.361	10.44
629.693	10.39
630.025	10.73
630.357	10.72
630.689	10.72
631.021	10.56
631.353	10.91
631.684	10.84
632.016	10.71
632.348	10.88
632.679	10.76
633.011	10.84
633.342	10.62
633.674	10.75
634.005	10.83
634.336	10.99
634.668	10.92
634.999	10.74
635.33	11.14
635.661	10.97
635.992	10.71
636.323	10.99
636.654	11.37
636.985	10.9
637.316	10.93
637.647	11.45
637.977	11.06
638.308	10.57
638.639	11.1
638.969	10.88
639.3	11.23
639.63	11.15
639.961	11.39
640.291	11.59
640.622	11.25
640.952	11.85
641.282	10.95
641.612	11.37
641.943	11.48
642.273	11.34
642.603	11.25
642.933	11.58
643.263	12.18
643.592	11.68
643.922	12.43
644.252	11.42
644.582	11.62
644.911	11.5
645.241	11.84
645.571	12.08
645.9	12.3
646.23	11.7
646.559	12.33
646.888	12.01
647.218	12.35
647.547	12.2
647.876	12.26
648.205	12.36
648.534	12.06
648.863	12.29
649.192	12.11
649.521	11.38
649.85	12
650.179	11.87
650.508	12.51
650.837	12.18
651.165	12.77
651.494	12.45
651.822	12.54
652.151	12.46
652.479	13.3
652.808	12.19
653.136	12.38
653.465	12.53
653.793	12.75
654.121	13.05
654.449	12.59
654.777	12.75
655.105	12.9
655.433	12.65
655.761	12.54
656.089	12.79
656.417	12.77
656.745	13.24
657.073	13.51
657.4	12.99
657.728	13.03
658.056	12.92
658.383	12.98
658.711	12.99
659.038	13.55
659.365	12.84
659.693	12.94
660.02	12.92
660.347	13.16
660.674	12.7
661.001	12.76
661.329	12.97
661.656	13.06
661.982	13.64
662.309	13.43
662.636	13.29
662.963	13.45
663.29	13.23
663.616	13.04
663.943	13.93
664.27	13.47
664.596	13.47
664.923	13.81
665.249	13.44
665.576	13.22
665.902	13.83
666.228	13.26
666.554	13.45
666.881	13.84
667.207	13.1
667.533	13.49
667.859	13.61
668.185	13.71
668.511	13.47
668.837	13.37
669.162	13.28
669.488	13.69
669.814	13.87
670.139	14.59
670.465	14.43
670.791	14.21
671.116	13.98
671.442	14.33
671.767	13.77
672.092	13.75
672.418	14.34
672.743	13.76
673.068	13.72
673.393	14.15
673.718	14.02
674.043	13.94
674.368	14.7
674.693	14.76
675.018	14.44
675.343	14.8
675.667	14.35
675.992	13.95
676.317	15.41
676.641	13.87
676.966	14.4
677.29	13.99
677.615	14.85
677.939	14.57
678.264	15.04
678.588	14.97
678.912	15.09
679.236	14.67
679.56	14.56
679.885	14.9
680.209	14.79
680.532	14.59
680.856	15.81
681.18	14.86
681.504	14.87
681.828	14.95
682.152	14.77
682.475	15.53
682.799	15.75
683.122	15.75
683.446	14.79
683.769	15.37
684.093	15.07
684.416	14.99
684.739	15.47
685.062	16.08
685.386	15.01
685.709	15.1
686.032	15.07
686.355	14.99
686.678	14.76
687.001	14.89
