Data from 0064_chest_Reflection__1__224.txt Node

Date: Fri Dec 16 15:43:29 CST 2022
User: ToomeyLab
Spectrometer: FLMS14357
Trigger mode: 0
Integration Time (sec): 1.000000E-2
Scans to average: 100
Electric dark correction enabled: true
Nonlinearity correction enabled: false
Boxcar width: 0
XAxis mode: Wavelengths
Number of Pixels in Spectrum: 2048
>>>>>Begin Spectral Data<<<<<
189.047	247.8
189.435	247.8
189.823	247.8
190.211	96.48
190.599	-8.79
190.987	-4.58
191.375	-19.39
191.763	-1407.83
192.151	-598.97
192.538	69.69
192.926	35.09
193.314	84.31
193.702	171.58
194.089	-206.35
194.477	-22.72
194.864	-12.79
195.252	-303.94
195.639	162.95
196.027	47.6
196.414	-101.84
196.801	151.47
197.189	50.48
197.576	271.2
197.963	-68.58
198.351	13.38
198.738	-79.16
199.125	36.62
199.512	-10.52
199.899	-100.83
200.286	13.64
200.673	55.93
201.06	27.31
201.447	19.94
201.833	-16.72
202.22	25.34
202.607	-27.75
202.994	32.67
203.38	-54.34
203.767	-15.58
204.154	-109.9
204.54	73.84
204.927	20.5
205.313	29.85
205.699	9.68
206.086	16.98
206.472	13.11
206.858	2.76
207.245	-10.73
207.631	-10.84
208.017	32.73
208.403	35.01
208.789	18.43
209.175	38.09
209.561	-4.78
209.947	-17.31
210.333	-11.42
210.719	-18.1
211.105	-35.63
211.491	-33.56
211.876	-24.81
212.262	-1.92
212.648	-95.81
213.034	16.81
213.419	41.59
213.805	-4.21
214.19	5.4
214.576	-1.56
214.961	8.43
215.346	-47.25
215.732	-5.09
216.117	-40.78
216.502	-14.48
216.888	-34.43
217.273	3.91
217.658	-16.57
218.043	21.5
218.428	-3.41
218.813	12.46
219.198	-75.49
219.583	14.62
219.968	14.14
220.353	3.03
220.738	-11.61
221.122	7.85
221.507	-1.54
221.892	-1.87
222.276	16.72
222.661	2.06
223.046	-1.27
223.43	-5.04
223.815	1.37
224.199	2.35
224.583	4.53
224.968	7.54
225.352	7.19
225.736	3.39
226.121	-4.01
226.505	2.11
226.889	4.14
227.273	5.14
227.657	3.22
228.041	5.52
228.425	3.42
228.809	4.72
229.193	3.48
229.577	5.26
229.961	5.12
230.344	5
230.728	4.82
231.112	3.62
231.495	3.45
231.879	4.51
232.263	3.78
232.646	2.88
233.03	0.4
233.413	4.94
233.797	6.2
234.18	0.41
234.563	3.7
234.946	5.02
235.33	4.28
235.713	4.76
236.096	4.48
236.479	3.93
236.862	4.38
237.245	5.78
237.628	4.02
238.011	4.63
238.394	8.03
238.777	4.43
239.16	1.5
239.543	3.27
239.925	3.86
240.308	4.67
240.691	3.96
241.073	4.61
241.456	4.44
241.838	4.7
242.221	5
242.603	4.8
242.986	5.89
243.368	4.51
243.75	4.56
244.133	4.83
244.515	4.99
244.897	4.34
245.279	4.02
245.661	4.21
246.043	4.79
246.425	3.44
246.807	4.42
247.189	4.24
247.571	4.58
247.953	4.73
248.335	4.91
248.717	4.71
249.098	4.63
249.48	4.45
249.862	4.61
250.243	4.88
250.625	4.59
251.006	3.84
251.388	4.32
251.769	4.21
252.151	4.51
252.532	4.68
252.913	4.47
253.295	4.31
253.676	5.07
254.057	4.4
254.438	4.56
254.819	4.73
255.2	4.22
255.581	4.63
255.962	4.49
256.343	4.92
256.724	4.9
257.105	4.43
257.486	4.44
257.867	3.15
258.247	3.31
258.628	5.53
259.009	3.88
259.389	5
259.77	3.76
260.15	4.91
260.531	4.66
260.911	4.52
261.292	4.58
261.672	4.31
262.052	4.39
262.432	4.39
262.813	4.15
263.193	4.16
263.573	4.43
263.953	4.05
264.333	4.36
264.713	4.38
265.093	4.52
265.473	5.3
265.853	4.09
266.233	4.34
266.612	4.38
266.992	4.11
267.372	4.53
267.752	4.38
268.131	4.1
268.511	4.55
268.89	4.86
269.27	4.18
269.649	4.55
270.029	4.41
270.408	4.18
270.787	4.29
271.167	4.01
271.546	3.34
271.925	4.41
272.304	4.41
272.683	4.43
273.062	4.61
273.441	4.45
273.82	4.39
274.199	4.18
274.578	4.16
274.957	4.52
275.336	4.06
275.715	4.65
276.093	4.76
276.472	4.89
276.851	4.17
277.229	4.65
277.608	3.95
277.986	4.1
278.365	4.12
278.743	4.46
279.122	4.11
279.5	3.87
279.878	3.35
280.257	4.27
280.635	3.83
281.013	5.08
281.391	3.72
281.769	3.98
282.147	4.24
282.525	4.05
282.903	4.43
283.281	4.54
283.659	4.35
284.037	3.7
284.415	4.48
284.792	3.87
285.17	4.44
285.548	4.09
285.925	4.17
286.303	3.91
286.68	4.39
287.058	4.12
287.435	3.97
287.813	3.92
288.19	4.37
288.567	3.69
288.945	3.91
289.322	4.18
289.699	4.22
290.076	4.63
290.453	4.34
290.83	4.15
291.207	4.38
291.584	4.08
291.961	4.44
292.338	4.25
292.715	4.37
293.092	4.01
293.469	4.57
293.845	4.05
294.222	4.1
294.599	4.77
294.975	3.94
295.352	3.53
295.728	4.32
296.105	3.8
296.481	4.44
296.858	4.86
297.234	4.31
297.61	4.06
297.986	4.26
298.363	3.94
298.739	4.33
299.115	3.94
299.491	4.33
299.867	4.24
300.243	3.74
300.619	4.13
300.995	4.57
301.371	4.27
301.746	3.86
302.122	4.2
302.498	4.54
302.874	4.42
303.249	4.61
303.625	3.96
304	3.76
304.376	4.35
304.751	4.37
305.127	3.99
305.502	4.79
305.878	4.07
306.253	4.18
306.628	4.2
307.003	4.32
307.378	4.22
307.754	4.61
308.129	3.94
308.504	4.23
308.879	3.61
309.254	4.56
309.629	4.33
310.003	4.33
310.378	4.55
310.753	4.34
311.128	4.22
311.502	3.96
311.877	4.55
312.252	3.85
312.626	3.98
313.001	4.26
313.375	4.03
313.75	4.12
314.124	4.7
314.498	3.8
314.873	4.1
315.247	3.63
315.621	4.47
315.995	4.14
316.369	4.89
316.743	4.53
317.117	4.51
317.491	3.68
317.865	3.37
318.239	3.98
318.613	4.29
318.987	4.07
319.361	4.37
319.734	4.41
320.108	4.19
320.482	3.9
320.855	4.4
321.229	4.94
321.602	3.85
321.976	3.88
322.349	3.81
322.723	3.5
323.096	3.79
323.469	3.66
323.843	4.19
324.216	3.95
324.589	4.43
324.962	4.17
325.335	3.7
325.708	4.25
326.081	4.26
326.454	4.36
326.827	4.11
327.2	4.47
327.573	4.16
327.945	4.23
328.318	4.16
328.691	4.18
329.063	4.02
329.436	4.04
329.809	3.67
330.181	4.43
330.553	4.08
330.926	4.07
331.298	3.71
331.671	4.2
332.043	4.36
332.415	4.08
332.787	4.35
333.159	4.15
333.532	4.5
333.904	4.54
334.276	4.37
334.648	4.74
335.02	3.96
335.391	4.38
335.763	3.96
336.135	4.53
336.507	4.4
336.879	4.06
337.25	4.25
337.622	4.45
337.993	4.81
338.365	4.19
338.736	4.27
339.108	3.94
339.479	4.33
339.851	4.65
340.222	4.56
340.593	4.13
340.964	3.98
341.336	3.66
341.707	4.44
342.078	3.98
342.449	4.83
342.82	4.39
343.191	3.82
343.562	4.47
343.933	4.39
344.303	4.3
344.674	4.34
345.045	4.48
345.416	4.23
345.786	3.77
346.157	4.14
346.527	4.4
346.898	4.09
347.268	4.2
347.639	4.02
348.009	4.33
348.38	4.14
348.75	4.56
349.12	4.38
349.49	4.17
349.861	4.64
350.231	3.87
350.601	4.26
350.971	4.27
351.341	4.13
351.711	4.21
352.081	4.25
352.45	4.67
352.82	4.36
353.19	4.28
353.56	4.23
353.929	4.24
354.299	4.22
354.669	4.31
355.038	4.25
355.408	4.61
355.777	4.25
356.147	4.5
356.516	4.66
356.885	3.97
357.254	4.52
357.624	4.29
357.993	4.41
358.362	4.55
358.731	4
359.1	4.45
359.469	4.56
359.838	4.18
360.207	4.05
360.576	4.56
360.945	4.01
361.314	3.99
361.682	4.17
362.051	4.26
362.42	4.75
362.788	4.48
363.157	4.14
363.525	4.21
363.894	3.96
364.262	4.04
364.631	4.88
364.999	3.85
365.367	4.31
365.735	3.91
366.104	4.3
366.472	4.73
366.84	4.47
367.208	3.93
367.576	4.36
367.944	4.31
368.312	3.78
368.68	4.26
369.048	4.5
369.416	4.41
369.783	4.45
370.151	4.3
370.519	4.12
370.886	4.48
371.254	4.27
371.621	4.22
371.989	4.26
372.356	4.39
372.724	4.46
373.091	4.44
373.458	4.39
373.826	4.17
374.193	4.71
374.56	4.46
374.927	4.22
375.294	4.67
375.661	4.35
376.028	4.5
376.395	4.26
376.762	4.97
377.129	4.54
377.496	4.61
377.863	4.62
378.229	4.27
378.596	4.25
378.963	4.33
379.329	4.39
379.696	4.42
380.062	4.8
380.429	4.53
380.795	4.2
381.161	4.29
381.528	3.89
381.894	4.58
382.26	4.04
382.626	4.16
382.993	4.24
383.359	4.26
383.725	4.69
384.091	4.34
384.457	4.29
384.823	4.14
385.188	4.6
385.554	4.47
385.92	4.54
386.286	4.48
386.651	4.5
387.017	4.77
387.383	4.22
387.748	4.41
388.114	4.64
388.479	4.51
388.845	4.56
389.21	4.34
389.575	4.27
389.94	4.46
390.306	4.39
390.671	4.57
391.036	4.55
391.401	4.66
391.766	4.42
392.131	4.45
392.496	4.47
392.861	4.42
393.226	4.47
393.591	4.69
393.956	4.52
394.32	4.39
394.685	4.52
395.05	4.35
395.414	4.57
395.779	4.41
396.143	4.56
396.508	4.47
396.872	4.81
397.236	4.17
397.601	4.51
397.965	4.13
398.329	4.77
398.694	4.39
399.058	4.55
399.422	4.58
399.786	4.54
400.15	4.45
400.514	4.46
400.878	4.57
401.242	4.61
401.605	4.65
401.969	4.95
402.333	4.58
402.697	4.85
403.06	4.48
403.424	4.46
403.787	4.65
404.151	4.54
404.514	4.56
404.878	4.68
405.241	4.67
405.604	4.56
405.968	4.57
406.331	4.47
406.694	4.55
407.057	4.85
407.42	4.38
407.783	4.55
408.146	4.58
408.509	4.29
408.872	4.5
409.235	4.82
409.598	4.76
409.961	4.71
410.323	4.51
410.686	4.48
411.049	4.6
411.411	4.5
411.774	4.55
412.136	4.46
412.499	4.44
412.861	4.54
413.223	4.67
413.586	4.52
413.948	4.68
414.31	4.53
414.672	4.54
415.035	4.75
415.397	4.65
415.759	4.43
416.121	4.98
416.483	4.67
416.845	4.62
417.206	4.5
417.568	4.74
417.93	4.79
418.292	4.75
418.653	4.59
419.015	4.51
419.377	4.79
419.738	4.51
420.1	4.56
420.461	4.46
420.822	4.62
421.184	4.54
421.545	4.65
421.906	4.61
422.267	4.42
422.629	4.51
422.99	4.53
423.351	4.52
423.712	4.61
424.073	4.72
424.434	4.45
424.795	4.58
425.155	4.54
425.516	4.49
425.877	4.58
426.238	4.44
426.598	4.59
426.959	4.59
427.32	4.65
427.68	4.68
428.041	4.67
428.401	4.65
428.761	4.65
429.122	4.6
429.482	4.6
429.842	4.68
430.202	4.75
430.563	4.72
430.923	4.64
431.283	4.85
431.643	4.7
432.003	4.72
432.363	4.77
432.722	4.7
433.082	4.63
433.442	4.69
433.802	4.65
434.161	4.58
434.521	4.7
434.881	4.74
435.24	4.65
435.6	4.73
435.959	4.64
436.319	4.56
436.678	4.71
437.037	4.75
437.396	4.77
437.756	4.7
438.115	4.73
438.474	4.75
438.833	4.86
439.192	5.01
439.551	4.82
439.91	4.78
440.269	4.8
440.628	4.81
440.987	4.63
441.345	4.76
441.704	4.71
442.063	4.73
442.421	4.6
442.78	4.69
443.138	4.66
443.497	4.6
443.855	4.68
444.214	4.79
444.572	4.74
444.93	4.74
445.288	4.75
445.647	4.85
446.005	4.7
446.363	4.73
446.721	4.64
447.079	4.81
447.437	4.66
447.795	4.69
448.153	4.66
448.51	4.67
448.868	4.86
449.226	4.73
449.584	4.8
449.941	4.75
450.299	4.78
450.656	4.97
451.014	4.79
451.371	4.82
451.729	4.8
452.086	4.68
452.443	4.65
452.801	4.85
453.158	4.86
453.515	4.69
453.872	4.89
454.229	4.7
454.586	4.72
454.943	4.85
455.3	5.1
455.657	4.73
456.014	4.86
456.371	4.84
456.727	4.67
457.084	4.86
457.441	4.64
457.797	4.91
458.154	4.91
458.51	4.89
458.867	4.92
459.223	4.81
459.58	4.75
459.936	4.87
460.292	4.8
460.648	4.7
461.005	4.78
461.361	4.74
461.717	4.74
462.073	4.76
462.429	4.78
462.785	4.87
463.141	5.03
463.496	5.01
463.852	5.16
464.208	4.89
464.564	4.89
464.919	4.95
465.275	4.99
465.631	4.88
465.986	4.76
466.342	4.94
466.697	4.95
467.052	4.98
467.408	4.78
467.763	4.79
468.118	4.8
468.473	4.96
468.829	4.95
469.184	5.04
469.539	4.96
469.894	4.83
470.249	5.02
470.603	4.96
470.958	5.08
471.313	4.88
471.668	5.1
472.023	4.99
472.377	4.87
472.732	4.91
473.086	4.7
473.441	4.8
473.795	5.11
474.15	4.9
474.504	4.96
474.859	4.97
475.213	4.99
475.567	4.88
475.921	4.96
476.275	5
476.63	4.88
476.984	5.05
477.338	5.02
477.692	4.91
478.045	4.94
478.399	5.07
478.753	4.82
479.107	4.93
479.461	4.96
479.814	5.08
480.168	5.01
480.521	4.99
480.875	5.16
481.228	5.13
481.582	4.92
481.935	4.95
482.289	4.87
482.642	5.06
482.995	4.99
483.348	4.96
483.701	4.99
484.055	4.87
484.408	4.83
484.761	4.74
485.114	4.63
485.466	4.68
485.819	4.72
486.172	4.76
486.525	4.84
486.878	4.86
487.23	4.91
487.583	4.91
487.936	4.89
488.288	4.84
488.641	4.8
488.993	4.78
489.345	4.75
489.698	4.82
490.05	4.83
490.402	4.98
490.754	5.08
491.107	5.01
491.459	5.03
491.811	5.1
492.163	5.04
492.515	5.02
492.866	4.78
493.218	4.83
493.57	4.97
493.922	4.97
494.274	4.99
494.625	5.01
494.977	5.11
495.328	5.18
495.68	5.28
496.031	5.11
496.383	5.09
496.734	5.22
497.086	5.13
497.437	5.21
497.788	5.12
498.139	5.1
498.49	5.21
498.842	5.09
499.193	5.12
499.544	5.19
499.894	5.25
500.245	5.19
500.596	5.22
500.947	5.18
501.298	5.06
501.648	5.2
501.999	5.35
502.35	5.27
502.7	5.23
503.051	5.32
503.401	5.31
503.752	5.14
504.102	5.19
504.452	5.22
504.803	5.02
505.153	5.25
505.503	5.21
505.853	5.05
506.203	5.23
506.553	5.3
506.903	5.2
507.253	5.31
507.603	5.2
507.953	5.23
508.303	5.32
508.652	5.25
509.002	5.34
509.352	5.29
509.701	5.17
510.051	5.21
510.4	5.2
510.75	5.14
511.099	5.27
511.449	5.32
511.798	5.42
512.147	5.36
512.496	5.28
512.846	5.26
513.195	5.31
513.544	5.28
513.893	5.24
514.242	5.3
514.591	5.32
514.939	5.28
515.288	5.33
515.637	5.51
515.986	5.35
516.334	5.45
516.683	5.39
517.032	5.33
517.38	5.52
517.729	5.39
518.077	5.5
518.426	5.27
518.774	5.3
519.122	5.37
519.47	5.31
519.819	5.35
520.167	5.31
520.515	5.3
520.863	5.3
521.211	5.38
521.559	5.4
521.907	5.34
522.255	5.36
522.602	5.47
522.95	5.52
523.298	5.38
523.645	5.47
523.993	5.58
524.341	5.45
524.688	5.58
525.036	5.54
525.383	5.62
525.73	5.54
526.078	5.52
526.425	5.47
526.772	5.29
527.119	5.34
527.466	5.4
527.814	5.48
528.161	5.45
528.508	5.41
528.854	5.37
529.201	5.42
529.548	5.35
529.895	5.26
530.242	5.26
530.588	5.36
530.935	5.39
531.282	5.44
531.628	5.47
531.975	5.5
532.321	5.56
532.667	5.56
533.014	5.63
533.36	5.51
533.706	5.55
534.052	5.53
534.399	5.49
534.745	5.45
535.091	5.48
535.437	5.57
535.783	5.55
536.129	5.64
536.474	5.74
536.82	5.61
537.166	5.77
537.512	5.67
537.857	5.68
538.203	5.66
538.549	5.68
538.894	5.57
539.239	5.85
539.585	5.83
539.93	5.84
540.276	5.83
540.621	5.87
540.966	5.84
541.311	5.72
541.656	5.81
542.001	5.77
542.346	5.69
542.691	5.58
543.036	5.58
543.381	5.71
543.726	5.69
544.071	5.8
544.415	5.81
544.76	5.76
545.105	5.89
545.449	5.86
545.794	5.83
546.138	6.05
546.483	5.93
546.827	5.96
547.171	6.09
547.516	5.99
547.86	5.95
548.204	5.89
548.548	6.02
548.892	6.04
549.236	6.18
549.58	6.11
549.924	6.02
550.268	6.2
550.612	6.11
550.956	6.14
551.3	6.23
551.643	6.29
551.987	6.14
552.33	6.08
552.674	6.14
553.017	6.25
553.361	6.25
553.704	6.2
554.048	6.3
554.391	6.16
554.734	6.18
555.077	6.2
555.42	6.32
555.764	6.38
556.107	6.44
556.45	6.29
556.793	6.46
557.135	6.44
557.478	6.57
557.821	6.56
558.164	6.42
558.507	6.35
558.849	6.32
559.192	6.58
559.534	6.27
559.877	6.57
560.219	6.59
560.562	6.69
560.904	6.45
561.246	6.62
561.589	6.68
561.931	6.74
562.273	6.54
562.615	6.81
562.957	6.62
563.299	6.81
563.641	6.69
563.983	6.66
564.325	6.57
564.667	6.62
565.008	6.65
565.35	6.74
565.692	6.82
566.033	6.92
566.375	6.59
566.716	6.72
567.058	6.74
567.399	6.82
567.741	7.02
568.082	6.72
568.423	6.7
568.764	6.76
569.105	6.92
569.447	6.65
569.788	6.89
570.129	6.87
570.47	6.91
570.811	6.86
571.151	6.89
571.492	7.17
571.833	6.93
572.174	7.02
572.514	6.85
572.855	7.03
573.195	6.92
573.536	7.13
573.876	7.04
574.217	7.08
574.557	6.97
574.898	6.84
575.238	6.99
575.578	7.15
575.918	7.04
576.258	7.26
576.598	7.11
576.938	7.46
577.278	7.12
577.618	7
577.958	7.26
578.298	7.29
578.638	7.24
578.977	7.26
579.317	7.48
579.657	7.15
579.996	7.16
580.336	7.28
580.675	7.51
581.014	7.42
581.354	7.7
581.693	7.45
582.032	7.28
582.372	7.71
582.711	7.54
583.05	7.73
583.389	7.5
583.728	7.77
584.067	7.34
584.406	7.66
584.745	7.6
585.083	7.58
585.422	7.73
585.761	7.88
586.1	7.87
586.438	7.77
586.777	7.78
587.115	7.87
587.454	7.79
587.792	7.58
588.13	8.08
588.469	8.09
588.807	7.92
589.145	7.97
589.483	7.76
589.821	8.01
590.159	7.9
590.497	7.88
590.835	7.96
591.173	8.34
591.511	7.91
591.849	7.97
592.187	7.91
592.524	8.07
592.862	8.25
593.2	8.11
593.537	8.18
593.875	8.35
594.212	8.09
594.55	8.37
594.887	8.32
595.224	8.36
595.561	8.3
595.899	8.32
596.236	8.51
596.573	8.33
596.91	8.32
597.247	8.34
597.584	8.56
597.921	8.45
598.258	8.4
598.594	8.14
598.931	8.26
599.268	8.35
599.604	8.55
599.941	8.33
600.277	8.53
600.614	8.58
600.95	8.74
601.287	8.44
601.623	8.62
601.959	8.51
602.296	8.65
602.632	8.88
602.968	8.44
603.304	8.69
603.64	8.73
603.976	8.72
604.312	8.93
604.648	9
604.984	8.75
605.319	8.8
605.655	8.91
605.991	8.83
606.326	8.65
606.662	8.75
606.998	8.9
607.333	8.86
607.668	9.22
608.004	9.07
608.339	9.11
608.674	9.13
609.01	9.01
609.345	9.51
609.68	8.88
610.015	9.18
610.35	8.96
610.685	9.37
611.02	9.4
611.355	9.3
611.689	9.03
612.024	9.33
612.359	9.29
612.694	9.46
613.028	9.62
613.363	9.37
613.697	9.62
614.032	9.83
614.366	9.59
614.7	9.96
615.035	9.21
615.369	9.62
615.703	10.13
616.037	9.66
616.371	9.81
616.705	9.56
617.039	9.9
617.373	9.45
617.707	9.55
618.041	9.97
618.375	9.53
618.709	9.58
619.042	9.97
619.376	9.45
619.71	9.84
620.043	9.76
620.377	10.16
620.71	10.3
621.043	9.7
621.377	9.64
621.71	10.25
622.043	10.14
622.376	9.78
622.709	10.32
623.043	10.26
623.376	10.11
623.709	10.28
624.041	10.13
624.374	10.17
624.707	9.91
625.04	10.49
625.373	10.14
625.705	10.08
626.038	10.29
626.37	10.43
626.703	10.21
627.035	10.5
627.368	10.68
627.7	10.63
628.032	10.41
628.365	10.22
628.697	10.48
629.029	10.58
629.361	10.43
629.693	10.71
630.025	10.67
630.357	10.51
630.689	10.94
631.021	10.66
631.353	10.69
631.684	10.68
632.016	10.83
632.348	11.25
632.679	11.08
633.011	10.98
633.342	11.12
633.674	11.36
634.005	11.19
634.336	11.38
634.668	11.23
634.999	11.25
635.33	10.97
635.661	11.32
635.992	10.91
636.323	10.82
636.654	11.12
636.985	11.04
637.316	11.37
637.647	11.45
637.977	11.16
638.308	11.33
638.639	11.16
638.969	11.08
639.3	11.78
639.63	11.61
639.961	11.43
640.291	11.85
640.622	11.36
640.952	11.81
641.282	11
641.612	11.33
641.943	11.77
642.273	11.64
642.603	12.08
642.933	11.93
643.263	11.69
643.592	11.41
643.922	12
644.252	12.09
644.582	11.62
644.911	11.73
645.241	12.15
645.571	11.79
645.9	12.3
646.23	12
646.559	12.03
646.888	11.87
647.218	11.94
647.547	11.84
647.876	12.76
648.205	12.03
648.534	12.16
648.863	12.5
649.192	11.91
649.521	11.83
649.85	12.2
650.179	11.86
650.508	12.59
650.837	12.25
651.165	12.5
651.494	12.42
651.822	12.56
652.151	12.87
652.479	12.48
652.808	12.23
653.136	12.29
653.465	12.69
653.793	12.61
654.121	13.02
654.449	12.62
654.777	12.74
655.105	12.56
655.433	12.81
655.761	12.58
656.089	13.09
656.417	12.53
656.745	13.37
657.073	13.17
657.4	12.8
657.728	12.93
658.056	12.16
658.383	13.26
658.711	12.94
659.038	13.61
659.365	12.92
659.693	12.84
660.02	12.75
660.347	13.4
660.674	12.81
661.001	12.93
661.329	12.86
661.656	12.85
661.982	13.12
662.309	13.2
662.636	13.02
662.963	13.59
663.29	13.44
663.616	13.16
663.943	13.45
664.27	13.74
664.596	13.52
664.923	13.89
665.249	13.33
665.576	13.7
665.902	13.51
666.228	13.37
666.554	13.86
666.881	13.88
667.207	13.37
667.533	13.9
667.859	12.9
668.185	14.08
668.511	13.58
668.837	13.61
669.162	14.15
669.488	13.58
669.814	13.9
670.139	14.44
670.465	14.33
670.791	14.41
671.116	13.81
671.442	14.18
671.767	14
672.092	13.78
672.418	13.99
672.743	14.03
673.068	13.47
673.393	14.17
673.718	13.97
674.043	14.48
674.368	15.04
674.693	14.93
675.018	14.67
675.343	14.82
675.667	13.34
675.992	13.69
676.317	14.73
676.641	15.07
676.966	14.9
677.29	14.41
677.615	14.93
677.939	14.42
678.264	14.68
678.588	15.25
678.912	14.8
679.236	15.09
679.56	14.72
679.885	14.57
680.209	14.43
680.532	15
680.856	15.16
681.18	15.33
681.504	14.68
681.828	14.67
682.152	14.81
682.475	14.49
682.799	15.09
683.122	14.98
683.446	15.09
683.769	15.38
684.093	15.38
684.416	15.07
684.739	15.64
685.062	15.22
685.386	14.77
685.709	15.59
686.032	15.34
686.355	15.39
686.678	15.28
687.001	15.27
687.324	14.93
687.646	15.36
