Data from 0064_crown_Reflection__4__233.txt Node

Date: Fri Dec 16 15:46:01 CST 2022
User: ToomeyLab
Spectrometer: FLMS14357
Trigger mode: 0
Integration Time (sec): 1.000000E-2
Scans to average: 100
Electric dark correction enabled: true
Nonlinearity correction enabled: false
Boxcar width: 0
XAxis mode: Wavelengths
Number of Pixels in Spectrum: 2048
>>>>>Begin Spectral Data<<<<<
189.047	401.24
189.435	401.24
189.823	401.24
190.211	-27.46
190.599	-4.9
190.987	54.27
191.375	-82.07
191.763	503.69
192.151	241.91
192.538	29.11
192.926	24.79
193.314	124.63
193.702	350.91
194.089	-302.9
194.477	-17.28
194.864	61.26
195.252	-603.8
195.639	127.42
196.027	-66.64
196.414	185.5
196.801	-16.73
197.189	88.01
197.576	128.96
197.963	111.95
198.351	-5.82
198.738	-130.11
199.125	8.05
199.512	-39.52
199.899	7.68
200.286	-72.91
200.673	62.05
201.06	43.74
201.447	28.65
201.833	-49.66
202.22	15.5
202.607	3.1
202.994	13.67
203.38	-34.45
203.767	-67.75
204.154	-23.69
204.54	45.78
204.927	39.85
205.313	43.36
205.699	-14.99
206.086	-15.87
206.472	-17.14
206.858	7.7
207.245	-21.78
207.631	-12.85
208.017	15.79
208.403	16.18
208.789	19.5
209.175	73.72
209.561	-14.14
209.947	-34.95
210.333	-12.81
210.719	-15.72
211.105	-29.21
211.491	1.41
211.876	-34.09
212.262	-118.29
212.648	-90.24
213.034	-12.81
213.419	23.1
213.805	14.12
214.19	-49.47
214.576	-35.83
214.961	-21.78
215.346	-30.54
215.732	-14.25
216.117	-16.52
216.502	-2.77
216.888	-57.65
217.273	-30.71
217.658	-49.05
218.043	-11.55
218.428	6.68
218.813	-1.35
219.198	-54.84
219.583	-1.56
219.968	17.96
220.353	2.48
220.738	-1.38
221.122	-1.55
221.507	9.21
221.892	11.07
222.276	10.47
222.661	-2.92
223.046	9.56
223.43	-8.56
223.815	10.7
224.199	15.41
224.583	7.95
224.968	6.01
225.352	-3.44
225.736	2.84
226.121	-7.62
226.505	4.86
226.889	9.68
227.273	1.35
227.657	7.3
228.041	3.98
228.425	6.57
228.809	5.92
229.193	2.69
229.577	5.11
229.961	6.26
230.344	5.78
230.728	5.69
231.112	5.07
231.495	4.84
231.879	6.73
232.263	5.39
232.646	6.07
233.03	4.57
233.413	4.3
233.797	8.04
234.18	2.64
234.563	5.12
234.946	3.56
235.33	4.98
235.713	5.38
236.096	5.28
236.479	4.94
236.862	4.41
237.245	6.41
237.628	4.1
238.011	5.38
238.394	7.12
238.777	4.69
239.16	4.93
239.543	7.1
239.925	5.98
240.308	5.55
240.691	5.07
241.073	5.71
241.456	5.33
241.838	5.73
242.221	6.3
242.603	6.01
242.986	6.36
243.368	5.45
243.75	5.61
244.133	5.44
244.515	5.65
244.897	4.53
245.279	5.29
245.661	5.72
246.043	6.31
246.425	5.38
246.807	5.49
247.189	5.56
247.571	5.33
247.953	5.55
248.335	5.71
248.717	5.71
249.098	5.54
249.48	4.99
249.862	5.6
250.243	5.53
250.625	5.02
251.006	5.61
251.388	6.28
251.769	5.98
252.151	5.51
252.532	5.82
252.913	5.09
253.295	5.32
253.676	5.82
254.057	5.48
254.438	5.4
254.819	5.52
255.2	5.01
255.581	5.37
255.962	4.77
256.343	5.49
256.724	5.42
257.105	5.82
257.486	5.42
257.867	3.48
258.247	5
258.628	5.32
259.009	5.74
259.389	5.57
259.77	4.81
260.15	5.92
260.531	5.62
260.911	5.53
261.292	5.29
261.672	5.35
262.052	5.41
262.432	5.28
262.813	5.79
263.193	4.69
263.573	5.38
263.953	5.64
264.333	5.14
264.713	5.05
265.093	4.77
265.473	6.21
265.853	5.57
266.233	5.08
266.612	5.81
266.992	5.51
267.372	5.28
267.752	5.52
268.131	4.96
268.511	5.04
268.89	5.6
269.27	5.48
269.649	5.69
270.029	5.33
270.408	4.94
270.787	5.1
271.167	5.14
271.546	4.23
271.925	5.69
272.304	5.2
272.683	4.86
273.062	5.55
273.441	5.22
273.82	5.78
274.199	5.3
274.578	5.08
274.957	4.96
275.336	4.92
275.715	5.33
276.093	5.14
276.472	4.99
276.851	5.54
277.229	5.78
277.608	4.73
277.986	4.66
278.365	4.54
278.743	4.95
279.122	4.7
279.5	4.89
279.878	4.42
280.257	5.64
280.635	4.5
281.013	5.52
281.391	5.68
281.769	5.22
282.147	5.02
282.525	5.02
282.903	5.01
283.281	4.91
283.659	5.67
284.037	5.28
284.415	5.04
284.792	5.1
285.17	5.07
285.548	5.11
285.925	4.83
286.303	4.8
286.68	5.3
287.058	4.96
287.435	5.05
287.813	4.98
288.19	5.33
288.567	4.76
288.945	4.7
289.322	4.8
289.699	5.16
290.076	5.39
290.453	4.87
290.83	5.28
291.207	4.83
291.584	4.44
291.961	5.44
292.338	5.18
292.715	4.98
293.092	5.06
293.469	5.15
293.845	5.04
294.222	4.98
294.599	5.53
294.975	5.3
295.352	4.76
295.728	4.87
296.105	5.24
296.481	5.02
296.858	5.16
297.234	5.33
297.61	5.28
297.986	4.92
298.363	4.76
298.739	5.13
299.115	4.65
299.491	4.9
299.867	5.09
300.243	5.23
300.619	5.29
300.995	5.32
301.371	5.02
301.746	4.85
302.122	5.23
302.498	5.34
302.874	5.05
303.249	5.45
303.625	4.78
304	4.72
304.376	5.02
304.751	5.13
305.127	5.05
305.502	5.17
305.878	4.92
306.253	4.76
306.628	5.04
307.003	5.33
307.378	4.68
307.754	5.1
308.129	4.9
308.504	5.37
308.879	5.11
309.254	4.61
309.629	4.88
310.003	4.71
310.378	5.34
310.753	5.14
311.128	5.11
311.502	4.68
311.877	4.94
312.252	4.87
312.626	4.6
313.001	4.8
313.375	4.75
313.75	5.07
314.124	5.25
314.498	4.75
314.873	5.01
315.247	4.5
315.621	5.33
315.995	4.95
316.369	5.01
316.743	5.62
317.117	5.12
317.491	5.09
317.865	4.15
318.239	5.39
318.613	5.09
318.987	4.83
319.361	4.54
319.734	5.25
320.108	5.04
320.482	4.94
320.855	4.67
321.229	4.81
321.602	4.76
321.976	4.75
322.349	4.34
322.723	3.99
323.096	4.61
323.469	4.22
323.843	5.06
324.216	4.7
324.589	5.24
324.962	5.19
325.335	5.12
325.708	5.27
326.081	5.56
326.454	5.18
326.827	5.07
327.2	5.75
327.573	5.11
327.945	4.96
328.318	4.96
328.691	5.13
329.063	4.77
329.436	4.96
329.809	4.96
330.181	5.16
330.553	5.18
330.926	5.44
331.298	4.26
331.671	4.67
332.043	4.82
332.415	5.35
332.787	5.56
333.159	4.88
333.532	4.99
333.904	5.24
334.276	4.7
334.648	4.84
335.02	4.91
335.391	5.04
335.763	5.03
336.135	5.32
336.507	5.32
336.879	4.77
337.25	5.29
337.622	4.76
337.993	4.69
338.365	4.93
338.736	5.45
339.108	4.63
339.479	4.5
339.851	5.31
340.222	5
340.593	4.73
340.964	4.69
341.336	4.57
341.707	5.01
342.078	4.67
342.449	5.56
342.82	4.63
343.191	4.97
343.562	5.1
343.933	4.74
344.303	5.46
344.674	4.8
345.045	5.14
345.416	4.55
345.786	4.77
346.157	5.16
346.527	5.21
346.898	5.07
347.268	4.9
347.639	5.21
348.009	5.09
348.38	5
348.75	4.92
349.12	5.07
349.49	5.28
349.861	5.21
350.231	5.47
350.601	5.26
350.971	4.74
351.341	4.81
351.711	5.33
352.081	5.05
352.45	5.02
352.82	5.37
353.19	4.91
353.56	4.94
353.929	4.92
354.299	5.21
354.669	4.99
355.038	4.84
355.408	5.22
355.777	4.83
356.147	5.3
356.516	5.18
356.885	4.73
357.254	5.27
357.624	5.02
357.993	5.06
358.362	4.89
358.731	5.14
359.1	5.34
359.469	4.9
359.838	4.88
360.207	4.6
360.576	5.04
360.945	5.29
361.314	5.02
361.682	5.09
362.051	5.08
362.42	5.08
362.788	5.13
363.157	4.97
363.525	5.04
363.894	4.98
364.262	5.02
364.631	5.44
364.999	5.03
365.367	5.35
365.735	4.92
366.104	5.01
366.472	5.25
366.84	4.93
367.208	4.87
367.576	5.1
367.944	5.36
368.312	4.77
368.68	5.22
369.048	5.03
369.416	4.85
369.783	5.09
370.151	5.18
370.519	5.23
370.886	5.08
371.254	5.05
371.621	4.91
371.989	5.33
372.356	5.11
372.724	5.29
373.091	5.24
373.458	5.14
373.826	4.99
374.193	5.33
374.56	5.17
374.927	4.81
375.294	5.39
375.661	5.19
376.028	5.2
376.395	5.14
376.762	5.57
377.129	4.96
377.496	5.02
377.863	5.11
378.229	5.15
378.596	5.18
378.963	5.1
379.329	4.95
379.696	5.19
380.062	5.62
380.429	5.07
380.795	5.19
381.161	5.11
381.528	4.99
381.894	5.48
382.26	5.24
382.626	5.17
382.993	5.1
383.359	4.87
383.725	5.36
384.091	5.01
384.457	5.54
384.823	5.51
385.188	5.51
385.554	5.33
385.92	5.51
386.286	5.41
386.651	5.26
387.017	5.46
387.383	5.42
387.748	5
388.114	5.4
388.479	5.52
388.845	5.52
389.21	5.44
389.575	5.18
389.94	5.26
390.306	5.21
390.671	5.59
391.036	5.55
391.401	6.08
391.766	5.22
392.131	5.31
392.496	5.21
392.861	5.18
393.226	5.21
393.591	5.34
393.956	5.36
394.32	5.11
394.685	5.63
395.05	5.15
395.414	5.61
395.779	5.06
396.143	5.4
396.508	5.52
396.872	5.57
397.236	5.08
397.601	5.52
397.965	5.11
398.329	5.63
398.694	5.35
399.058	5.42
399.422	5.46
399.786	5.46
400.15	5.24
400.514	5.53
400.878	5.38
401.242	5.61
401.605	5.29
401.969	5.54
402.333	5.49
402.697	5.64
403.06	5.54
403.424	5.36
403.787	5.66
404.151	5.41
404.514	5.26
404.878	5.6
405.241	5.48
405.604	5.42
405.968	5.54
406.331	5.69
406.694	5.61
407.057	5.79
407.42	5.36
407.783	5.37
408.146	5.45
408.509	5.53
408.872	5.32
409.235	5.46
409.598	5.62
409.961	5.61
410.323	5.44
410.686	5.56
411.049	5.45
411.411	5.52
411.774	5.3
412.136	5.56
412.499	5.51
412.861	5.49
413.223	5.76
413.586	5.45
413.948	5.7
414.31	5.62
414.672	5.62
415.035	5.72
415.397	5.46
415.759	5.42
416.121	5.71
416.483	5.69
416.845	5.71
417.206	5.56
417.568	5.62
417.93	5.4
418.292	5.51
418.653	5.51
419.015	5.59
419.377	5.58
419.738	5.43
420.1	5.54
420.461	5.43
420.822	5.63
421.184	5.53
421.545	5.43
421.906	5.49
422.267	5.37
422.629	5.51
422.99	5.55
423.351	5.57
423.712	5.5
424.073	5.6
424.434	5.52
424.795	5.5
425.155	5.51
425.516	5.5
425.877	5.55
426.238	5.39
426.598	5.48
426.959	5.48
427.32	5.64
427.68	5.61
428.041	5.66
428.401	5.54
428.761	5.64
429.122	5.48
429.482	5.51
429.842	5.65
430.202	5.56
430.563	5.53
430.923	5.62
431.283	5.62
431.643	5.62
432.003	5.77
432.363	5.58
432.722	5.54
433.082	5.67
433.442	5.68
433.802	5.72
434.161	5.5
434.521	5.68
434.881	5.63
435.24	5.54
435.6	5.56
435.959	5.68
436.319	5.62
436.678	5.74
437.037	5.75
437.396	5.64
437.756	5.74
438.115	5.72
438.474	5.76
438.833	5.85
439.192	5.92
439.551	5.83
439.91	5.75
440.269	5.82
440.628	5.75
440.987	5.58
441.345	5.68
441.704	5.75
442.063	5.63
442.421	5.74
442.78	5.61
443.138	5.65
443.497	5.56
443.855	5.69
444.214	5.9
444.572	5.66
444.93	5.77
445.288	5.68
445.647	5.84
446.005	5.75
446.363	5.82
446.721	5.64
447.079	5.75
447.437	5.68
447.795	5.56
448.153	5.64
448.51	5.61
448.868	5.78
449.226	5.8
449.584	5.64
449.941	5.85
450.299	5.85
450.656	5.76
451.014	5.74
451.371	5.89
451.729	5.81
452.086	5.59
452.443	5.81
452.801	5.84
453.158	5.65
453.515	5.76
453.872	5.79
454.229	5.8
454.586	5.68
454.943	5.78
455.3	5.87
455.657	5.57
456.014	5.68
456.371	5.92
456.727	5.84
457.084	5.99
457.441	5.72
457.797	5.78
458.154	5.79
458.51	5.72
458.867	5.74
459.223	5.78
459.58	5.86
459.936	5.99
460.292	5.96
460.648	5.69
461.005	5.76
461.361	5.69
461.717	5.78
462.073	5.72
462.429	5.85
462.785	5.83
463.141	5.98
463.496	5.84
463.852	6
464.208	5.89
464.564	5.68
464.919	5.64
465.275	5.87
465.631	5.83
465.986	5.72
466.342	5.85
466.697	5.83
467.052	5.92
467.408	5.81
467.763	5.92
468.118	5.99
468.473	5.84
468.829	5.79
469.184	6.22
469.539	5.68
469.894	5.97
470.249	5.82
470.603	5.91
470.958	6.04
471.313	5.74
471.668	5.99
472.023	6.1
472.377	5.94
472.732	5.95
473.086	5.82
473.441	5.94
473.795	6.17
474.15	5.92
474.504	5.99
474.859	6.05
475.213	6.22
475.567	5.79
475.921	5.98
476.275	6.05
476.63	5.97
476.984	5.79
477.338	6.14
477.692	5.97
478.045	5.83
478.399	6.13
478.753	5.89
479.107	5.89
479.461	5.95
479.814	6
480.168	5.91
480.521	5.97
480.875	6.11
481.228	6.06
481.582	5.86
481.935	5.91
482.289	5.93
482.642	6.13
482.995	5.99
483.348	6.05
483.701	5.97
484.055	5.84
484.408	5.84
484.761	5.7
485.114	5.64
485.466	5.64
485.819	5.67
486.172	5.71
486.525	5.75
486.878	5.81
487.23	5.85
487.583	5.81
487.936	5.89
488.288	5.82
488.641	5.81
488.993	5.74
489.345	5.71
489.698	5.81
490.05	5.82
490.402	5.95
490.754	5.97
491.107	5.96
491.459	6.02
491.811	6.06
492.163	6
492.515	5.89
492.866	5.75
493.218	5.82
493.57	5.89
493.922	5.84
494.274	5.95
494.625	5.94
494.977	5.96
495.328	6.16
495.68	6.18
496.031	6.16
496.383	6.15
496.734	6.2
497.086	6.07
497.437	6.14
497.788	6.11
498.139	6.05
498.49	6.15
498.842	6.04
499.193	6.15
499.544	6.18
499.894	6.18
500.245	6.22
500.596	6.23
500.947	6.13
501.298	6.09
501.648	6.06
501.999	6.3
502.35	6.24
502.7	6.2
503.051	6.29
503.401	6.33
503.752	6.18
504.102	6.2
504.452	6.15
504.803	6.04
505.153	6.19
505.503	6.2
505.853	6.11
506.203	6.23
506.553	6.24
506.903	6.12
507.253	6.27
507.603	6.26
507.953	6.3
508.303	6.29
508.652	6.18
509.002	6.33
509.352	6.2
509.701	6.14
510.051	6.26
510.4	6.15
510.75	6.19
511.099	6.17
511.449	6.14
511.798	6.29
512.147	6.23
512.496	6.35
512.846	6.25
513.195	6.21
513.544	6.24
513.893	6.18
514.242	6.35
514.591	6.29
514.939	6.23
515.288	6.18
515.637	6.28
515.986	6.28
516.334	6.36
516.683	6.17
517.032	6.34
517.38	6.36
517.729	6.23
518.077	6.38
518.426	6.32
518.774	6.3
519.122	6.16
519.47	6.22
519.819	6.26
520.167	6.22
520.515	6.34
520.863	6.21
521.211	6.33
521.559	6.32
521.907	6.31
522.255	6.44
522.602	6.3
522.95	6.55
523.298	6.34
523.645	6.3
523.993	6.4
524.341	6.44
524.688	6.35
525.036	6.38
525.383	6.45
525.73	6.5
526.078	6.44
526.425	6.39
526.772	6.22
527.119	6.27
527.466	6.21
527.814	6.25
528.161	6.38
528.508	6.26
528.854	6.21
529.201	6.18
529.548	6.19
529.895	6.09
530.242	6.09
530.588	6.15
530.935	6.16
531.282	6.27
531.628	6.26
531.975	6.3
532.321	6.28
532.667	6.4
533.014	6.32
533.36	6.48
533.706	6.44
534.052	6.3
534.399	6.2
534.745	6.21
535.091	6.26
535.437	6.29
535.783	6.38
536.129	6.38
536.474	6.4
536.82	6.47
537.166	6.44
537.512	6.42
537.857	6.44
538.203	6.38
538.549	6.46
538.894	6.4
539.239	6.58
539.585	6.63
539.93	6.47
540.276	6.48
540.621	6.63
540.966	6.56
541.311	6.56
541.656	6.44
542.001	6.46
542.346	6.41
542.691	6.32
543.036	6.27
543.381	6.33
543.726	6.37
544.071	6.42
544.415	6.42
544.76	6.36
545.105	6.49
545.449	6.42
545.794	6.48
546.138	6.56
546.483	6.62
546.827	6.53
547.171	6.54
547.516	6.63
547.86	6.56
548.204	6.48
548.548	6.58
548.892	6.6
549.236	6.58
549.58	6.58
549.924	6.73
550.268	6.66
550.612	6.76
550.956	6.49
551.3	6.54
551.643	6.71
551.987	6.63
552.33	6.71
552.674	6.74
553.017	6.69
553.361	6.76
553.704	6.66
554.048	6.77
554.391	6.83
554.734	6.69
555.077	6.71
555.42	6.78
555.764	6.8
556.107	6.75
556.45	6.66
556.793	6.89
557.135	6.98
557.478	6.87
557.821	6.68
558.164	6.82
558.507	6.79
558.849	6.74
559.192	7.02
559.534	6.78
559.877	7.05
560.219	6.98
560.562	6.9
560.904	6.77
561.246	6.74
561.589	6.72
561.931	7.08
562.273	6.81
562.615	6.82
562.957	6.88
563.299	6.82
563.641	6.94
563.983	6.78
564.325	6.66
564.667	6.71
565.008	6.71
565.35	6.98
565.692	7.06
566.033	6.89
566.375	6.77
566.716	7.04
567.058	6.93
567.399	6.99
567.741	6.87
568.082	6.83
568.423	6.87
568.764	6.83
569.105	6.83
569.447	6.83
569.788	6.88
570.129	6.73
570.47	6.93
570.811	6.85
571.151	6.85
571.492	7.13
571.833	6.91
572.174	6.68
572.514	6.94
572.855	7.07
573.195	6.81
573.536	6.8
573.876	6.86
574.217	6.89
574.557	7.03
574.898	6.7
575.238	6.81
575.578	6.9
575.918	6.91
576.258	6.92
576.598	6.83
576.938	7.13
577.278	6.82
577.618	6.86
577.958	6.89
578.298	6.93
578.638	6.92
578.977	7.04
579.317	7.03
579.657	6.86
579.996	6.87
580.336	6.87
580.675	7.2
581.014	7.11
581.354	6.96
581.693	6.97
582.032	6.98
582.372	6.83
582.711	6.92
583.05	7.05
583.389	6.89
583.728	7.05
584.067	6.97
584.406	7.11
584.745	6.94
585.083	7.25
585.422	6.85
585.761	7.27
586.1	7.33
586.438	6.98
586.777	7.27
587.115	7.06
587.454	7.28
587.792	6.89
588.13	7.22
588.469	7.11
588.807	7.19
589.145	7.11
589.483	7.25
589.821	7.26
590.159	7.19
590.497	6.82
590.835	7.25
591.173	7.04
591.511	7.14
591.849	7.22
592.187	7.06
592.524	7.13
592.862	7.34
593.2	7.14
593.537	7.09
593.875	6.9
594.212	7.38
594.55	7.1
594.887	7.5
595.224	7.22
595.561	7.2
595.899	7.08
596.236	7.36
596.573	7.13
596.91	7.17
597.247	7.12
597.584	7.39
597.921	7.28
598.258	7.22
598.594	7.09
598.931	7.03
599.268	6.96
599.604	7.28
599.941	7.13
600.277	7.23
600.614	7.36
600.95	7.56
601.287	7.2
601.623	7.44
601.959	7.14
602.296	7.22
602.632	7.47
602.968	7.44
603.304	7.32
603.64	7.5
603.976	7.26
604.312	7.34
604.648	7.3
604.984	7.32
605.319	7.29
605.655	7.25
605.991	7.22
606.326	7.3
606.662	7.22
606.998	7.06
607.333	7.1
607.668	7.2
608.004	7.33
608.339	7.19
608.674	7.39
609.01	7.26
609.345	7.52
609.68	7.09
610.015	7.31
610.35	7.35
610.685	7.54
611.02	7.43
611.355	7.45
611.689	7.25
612.024	7.53
612.359	7.39
612.694	7.55
613.028	7.64
613.363	7.37
613.697	7.43
614.032	7.42
614.366	7.05
614.7	7.68
615.035	7.23
615.369	7.52
615.703	7.78
616.037	7.52
616.371	7.62
616.705	7.65
617.039	7.56
617.373	7.71
617.707	7.42
618.041	7.41
618.375	7.2
618.709	7.45
619.042	7.5
619.376	7.33
619.71	7.55
620.043	7.37
620.377	7.64
620.71	7.32
621.043	7.3
621.377	7.4
621.71	7.63
622.043	7.63
622.376	7.34
622.709	7.49
623.043	7.69
623.376	7.49
623.709	7.8
624.041	7.5
624.374	7.57
624.707	7.36
625.04	7.69
625.373	7.45
625.705	7.73
626.038	7.6
626.37	7.81
626.703	7.34
627.035	7.66
627.368	7.73
627.7	7.81
628.032	7.55
628.365	7.23
628.697	7.27
629.029	7.88
629.361	7.3
629.693	7.82
630.025	7.83
630.357	7.33
630.689	7.77
631.021	7.84
631.353	8.08
631.684	7.73
632.016	7.45
632.348	8.04
632.679	7.44
633.011	7.5
633.342	7.75
633.674	7.78
634.005	7.43
634.336	7.51
634.668	7.65
634.999	7.54
635.33	7.81
635.661	7.96
635.992	7.67
636.323	7.86
636.654	7.89
636.985	7.52
637.316	7.61
637.647	8.22
637.977	7.75
638.308	7.66
638.639	7.72
638.969	7.54
639.3	7.74
639.63	7.66
639.961	7.56
640.291	8.64
640.622	7.5
640.952	7.89
641.282	7.29
641.612	7.61
641.943	8.01
642.273	7.9
642.603	7.99
642.933	7.58
643.263	8.24
643.592	8.14
643.922	8.27
644.252	8.1
644.582	7.54
644.911	7.71
645.241	7.28
645.571	7.93
645.9	8.17
646.23	7.46
646.559	8.07
646.888	7.71
647.218	7.86
647.547	7.75
647.876	8.18
648.205	7.48
648.534	8.22
648.863	7.93
649.192	7.22
649.521	7.51
649.85	8.48
650.179	8.07
650.508	8.16
650.837	8.25
651.165	7.74
651.494	7.68
651.822	7.6
652.151	8.16
652.479	7.8
652.808	7.8
653.136	8.25
653.465	8.29
653.793	8.15
654.121	7.96
654.449	7.85
654.777	8.24
655.105	8.09
655.433	8.05
655.761	7.31
656.089	7.97
656.417	7.84
656.745	8.51
657.073	8.3
657.4	8.15
657.728	8.11
658.056	7.88
658.383	8.15
658.711	7.89
659.038	8.67
659.365	8.05
659.693	8.06
660.02	7.62
660.347	8.09
660.674	7.96
661.001	7.76
661.329	7.96
661.656	7.53
661.982	8.52
662.309	8.07
662.636	8.04
662.963	8.71
663.29	7.89
663.616	8.12
663.943	8.52
664.27	8.4
664.596	7.9
664.923	8.37
665.249	8.03
665.576	8.31
665.902	7.8
666.228	8.01
666.554	7.62
666.881	8.31
667.207	7.84
667.533	8.27
667.859	8.77
668.185	8.52
668.511	8.32
668.837	7.25
669.162	8.38
669.488	8.33
669.814	8.26
670.139	8.75
670.465	8.4
670.791	8.38
671.116	8.06
671.442	8.4
671.767	8.03
672.092	8.87
672.418	8.24
672.743	8.24
673.068	8.82
673.393	8.45
673.718	8.24
674.043	8.49
674.368	8.95
674.693	8.89
675.018	8.55
675.343	8.68
675.667	8.73
675.992	8.6
676.317	8.66
676.641	8.27
676.966	8.44
677.29	8.36
677.615	8.63
677.939	8.11
678.264	8.45
678.588	8.38
678.912	8.31
679.236	8.32
679.56	8.26
679.885	8.6
680.209	8.13
680.532	8.35
680.856	8.52
681.18	8.71
681.504	8.65
681.828	7.76
682.152	8.05
682.475	8.21
682.799	8.68
683.122	8.6
683.446	8.32
683.769	8.58
684.093	8.41
684.416	8.45
684.739	8.72
685.062	8.45
685.386	7.99
685.709	8.83
686.032	8.03
686.355	8.15
686.678	8.66
687.001	7.46
687.324	7.21
687.646	7.88
687.969	8.39
688.292	9.06
688.614	8.62
688.937	8.36
689.26	7.88
689.582	8.26
689.904	8.51
690.227	8.76
690.549	9.1
690.871	8.8
691.194	8.48
691.516	8.91
691.838	8.49
