Data from 0018_chest_Reflection__2__83.txt Node

Date: Mon Oct 17 15:06:19 CDT 2022
User: ToomeyLab
Spectrometer: FLMS14357
Trigger mode: 0
Integration Time (sec): 1.000000E-2
Scans to average: 100
Electric dark correction enabled: true
Nonlinearity correction enabled: false
Boxcar width: 0
XAxis mode: Wavelengths
Number of Pixels in Spectrum: 2048
>>>>>Begin Spectral Data<<<<<
189.047	3.7
189.435	3.7
189.823	3.7
190.211	14.95
190.599	48.73
190.987	-232.67
191.375	101.72
191.763	-33.53
192.151	259.2
192.538	-443.01
192.926	0.55
193.314	195.92
193.702	-10.15
194.089	-58.02
194.477	430.29
194.864	1036.15
195.252	371.7
195.639	117.9
196.027	153.9
196.414	43.43
196.801	59.12
197.189	42.88
197.576	117.87
197.963	-312.6
198.351	-1187.79
198.738	34.71
199.125	-38.78
199.512	-78.75
199.899	-20.48
200.286	-8.18
200.673	23.76
201.06	-67.88
201.447	4.65
201.833	32.67
202.22	7.12
202.607	-63.01
202.994	5.09
203.38	1.06
203.767	0.4
204.154	23.62
204.54	-39.41
204.927	18.01
205.313	-28.18
205.699	9.34
206.086	0.75
206.472	8.58
206.858	-4.16
207.245	19.03
207.631	24.38
208.017	23.86
208.403	41.6
208.789	34.05
209.175	-1.97
209.561	-87.57
209.947	-95.36
210.333	34.94
210.719	8.52
211.105	15.17
211.491	-25.95
211.876	-109.88
212.262	15.65
212.648	11.6
213.034	7.28
213.419	16.38
213.805	-44.74
214.19	1.23
214.576	-19.64
214.961	-25.34
215.346	-19.31
215.732	-10.7
216.117	2.5
216.502	3.2
216.888	10.67
217.273	2.26
217.658	26.02
218.043	-38.66
218.428	-41.14
218.813	4.52
219.198	-1.41
219.583	-37.92
219.968	-7.36
220.353	-26.26
220.738	-44.42
221.122	-20.37
221.507	0.32
221.892	12.92
222.276	-22.24
222.661	-3.2
223.046	-0.8
223.43	8.35
223.815	-13.27
224.199	-1.93
224.583	-15.12
224.968	-17
225.352	-18.09
225.736	5.12
226.121	-17.37
226.505	-6.05
226.889	-2.14
227.273	-1.99
227.657	0.15
228.041	4.51
228.425	-1.25
228.809	-1.86
229.193	-0.67
229.577	1.27
229.961	2.49
230.344	0.31
230.728	0.44
231.112	1.23
231.495	0.91
231.879	0.96
232.263	0.74
232.646	1.46
233.03	-0.51
233.413	-1.85
233.797	-1.35
234.18	0.59
234.563	-1.97
234.946	0.54
235.33	0.52
235.713	0.16
236.096	1.65
236.479	0.13
236.862	-0.89
237.245	-1.09
237.628	-1.85
238.011	0.06
238.394	0.91
238.777	0.12
239.16	0.68
239.543	0.25
239.925	1.28
240.308	0.2
240.691	0.62
241.073	1.51
241.456	0.73
241.838	1.06
242.221	-0.27
242.603	1.15
242.986	0.76
243.368	1
243.75	1.11
244.133	1.04
244.515	1.13
244.897	1.91
245.279	1.66
245.661	0.9
246.043	1.97
246.425	-0.46
246.807	0.52
247.189	1.27
247.571	1.17
247.953	1.42
248.335	1.32
248.717	1.43
249.098	1.64
249.48	1.59
249.862	1.06
250.243	1.28
250.625	1.36
251.006	0.96
251.388	2
251.769	0.87
252.151	-0.03
252.532	0.93
252.913	1.7
253.295	0.35
253.676	1.39
254.057	1.55
254.438	1.4
254.819	2.06
255.2	2.33
255.581	1.59
255.962	0.19
256.343	0.37
256.724	0.77
257.105	0.72
257.486	0.57
257.867	0.39
258.247	0.62
258.628	1.18
259.009	1.8
259.389	0.79
259.77	1.53
260.15	1.2
260.531	0.76
260.911	1.54
261.292	1.43
261.672	1.24
262.052	1.35
262.432	1.34
262.813	1.64
263.193	0.91
263.573	1.68
263.953	1.02
264.333	1.68
264.713	0.96
265.093	1.56
265.473	1.21
265.853	0.93
266.233	2.06
266.612	1.03
266.992	1.69
267.372	0.65
267.752	1.9
268.131	1.39
268.511	1.28
268.89	1.55
269.27	1.02
269.649	1.49
270.029	1.11
270.408	1.7
270.787	1.25
271.167	0.59
271.546	0.91
271.925	0.99
272.304	1.68
272.683	1.4
273.062	1.02
273.441	0.86
273.82	1.12
274.199	1.27
274.578	1.7
274.957	0.95
275.336	1.36
275.715	1.32
276.093	1.27
276.472	1.23
276.851	1.59
277.229	1.09
277.608	1.27
277.986	1.1
278.365	1.43
278.743	1.45
279.122	1.06
279.5	1.68
279.878	1.37
280.257	1.65
280.635	1.29
281.013	1.28
281.391	0.73
281.769	1.19
282.147	1.64
282.525	1.23
282.903	0.52
283.281	0.95
283.659	1.1
284.037	0.95
284.415	1.2
284.792	1.24
285.17	1.06
285.548	0.99
285.925	1.48
286.303	1.34
286.68	1.57
287.058	1.59
287.435	1.41
287.813	1.19
288.19	1.38
288.567	1.16
288.945	1.42
289.322	1.91
289.699	1.46
290.076	1.19
290.453	1.07
290.83	1.29
291.207	1.19
291.584	1.47
291.961	1.62
292.338	1.49
292.715	1.73
293.092	1.53
293.469	1.52
293.845	1.99
294.222	1.91
294.599	1.86
294.975	1.09
295.352	1.13
295.728	1.72
296.105	1.37
296.481	1.9
296.858	2.02
297.234	1.63
297.61	1.53
297.986	1.5
298.363	1.44
298.739	2.14
299.115	1.72
299.491	1.65
299.867	1.84
300.243	1.74
300.619	1.59
300.995	1.98
301.371	1.8
301.746	1.86
302.122	1.51
302.498	2.07
302.874	2.27
303.249	2.03
303.625	2.44
304	1.67
304.376	1.93
304.751	2.62
305.127	1.91
305.502	1.84
305.878	2.25
306.253	1.58
306.628	2.59
307.003	1.97
307.378	2.04
307.754	1.87
308.129	1.65
308.504	2
308.879	1.86
309.254	2.25
309.629	1.76
310.003	1.95
310.378	1.7
310.753	2.05
311.128	1.59
311.502	1.94
311.877	1.94
312.252	1.84
312.626	1.84
313.001	2.01
313.375	1.81
313.75	1.87
314.124	2.28
314.498	1.78
314.873	1.98
315.247	2.17
315.621	2.71
315.995	1.95
316.369	2.17
316.743	2.43
317.117	2.04
317.491	1.91
317.865	2.46
318.239	2.51
318.613	2.51
318.987	1.7
319.361	1.73
319.734	2.4
320.108	2.16
320.482	1.91
320.855	1.87
321.229	1.68
321.602	2.29
321.976	1.97
322.349	2.02
322.723	1.69
323.096	2.3
323.469	2.46
323.843	2.46
324.216	2.69
324.589	1.82
324.962	2.48
325.335	2.26
325.708	2.22
326.081	2.12
326.454	2.13
326.827	1.91
327.2	2.11
327.573	2.46
327.945	2.51
328.318	1.97
328.691	2.4
329.063	2.01
329.436	2.29
329.809	2.15
330.181	2.38
330.553	1.86
330.926	2.24
331.298	2.77
331.671	2.69
332.043	2.31
332.415	2.16
332.787	2.17
333.159	2.33
333.532	1.93
333.904	2.4
334.276	2.49
334.648	1.6
335.02	1.87
335.391	2.57
335.763	2.26
336.135	2.23
336.507	2.56
336.879	2.91
337.25	2.51
337.622	2.12
337.993	2.5
338.365	2.52
338.736	1.79
339.108	2.39
339.479	2.14
339.851	2.46
340.222	2.18
340.593	1.91
340.964	2.34
341.336	2.18
341.707	2.14
342.078	2.86
342.449	2.48
342.82	2.44
343.191	2.13
343.562	2.4
343.933	2.78
344.303	2.09
344.674	3.02
345.045	2.56
345.416	2.46
345.786	2.51
346.157	2.42
346.527	2.45
346.898	2.75
347.268	2.72
347.639	2.51
348.009	2.36
348.38	3.13
348.75	2.28
349.12	2.54
349.49	2.32
349.861	2.65
350.231	2.58
350.601	2.43
350.971	2.14
351.341	2.19
351.711	2.2
352.081	2.44
352.45	2.72
352.82	2.65
353.19	2.44
353.56	2.1
353.929	2.55
354.299	2.68
354.669	2.6
355.038	3.29
355.408	2.68
355.777	2.21
356.147	2.62
356.516	2.55
356.885	2.63
357.254	2.68
357.624	2.7
357.993	2.56
358.362	1.95
358.731	2.39
359.1	2.47
359.469	2.3
359.838	2.5
360.207	2.53
360.576	2.23
360.945	2.54
361.314	2.74
361.682	2.42
362.051	2.45
362.42	2.54
362.788	2.67
363.157	2.57
363.525	2.45
363.894	2.62
364.262	2.7
364.631	2.44
364.999	2.45
365.367	2.25
365.735	2.8
366.104	2.49
366.472	2.31
366.84	2.59
367.208	2.85
367.576	2.44
367.944	2.31
368.312	2.55
368.68	2.81
369.048	2.83
369.416	2.53
369.783	2.69
370.151	2.58
370.519	2.87
370.886	2.82
371.254	2.69
371.621	2.25
371.989	2.91
372.356	2.78
372.724	2.46
373.091	2.83
373.458	2.59
373.826	2.85
374.193	2.99
374.56	2.56
374.927	2.84
375.294	2.97
375.661	2.81
376.028	2.68
376.395	2.57
376.762	2.55
377.129	2.85
377.496	2.36
377.863	2.31
378.229	2.79
378.596	2.49
378.963	2.54
379.329	2.63
379.696	2.56
380.062	2.86
380.429	2.7
380.795	2.74
381.161	2.78
381.528	2.63
381.894	2.59
382.26	2.86
382.626	2.53
382.993	2.86
383.359	2.82
383.725	2.58
384.091	2.54
384.457	2.61
384.823	2.59
385.188	2.62
385.554	2.56
385.92	3.04
386.286	2.92
386.651	2.88
387.017	2.51
387.383	2.88
387.748	2.64
388.114	2.72
388.479	2.73
388.845	2.79
389.21	2.73
389.575	2.85
389.94	2.63
390.306	2.98
390.671	2.82
391.036	2.95
391.401	2.57
391.766	2.84
392.131	2.61
392.496	2.83
392.861	2.66
393.226	2.73
393.591	2.5
393.956	2.84
394.32	2.67
394.685	2.87
395.05	2.75
395.414	3.04
395.779	2.8
396.143	2.93
396.508	2.97
396.872	2.87
397.236	2.78
397.601	2.89
397.965	2.69
398.329	3.16
398.694	3.09
399.058	2.95
399.422	2.98
399.786	3.13
400.15	2.95
400.514	2.59
400.878	2.79
401.242	2.66
401.605	2.96
401.969	2.73
402.333	2.79
402.697	2.62
403.06	2.78
403.424	2.78
403.787	2.73
404.151	2.94
404.514	2.82
404.878	2.84
405.241	2.9
405.604	2.76
405.968	2.94
406.331	2.78
406.694	2.83
407.057	2.66
407.42	2.89
407.783	3.01
408.146	3.06
408.509	2.99
408.872	2.87
409.235	2.84
409.598	3.02
409.961	2.7
410.323	2.97
410.686	3.12
411.049	2.82
411.411	2.87
411.774	3.07
412.136	3
412.499	3.07
412.861	3.11
413.223	2.83
413.586	2.96
413.948	2.9
414.31	2.91
414.672	2.83
415.035	3.2
415.397	3.22
415.759	3.02
416.121	2.97
416.483	3.05
416.845	2.97
417.206	3
417.568	3.16
417.93	2.88
418.292	3.18
418.653	2.9
419.015	2.96
419.377	3.02
419.738	2.85
420.1	3.1
420.461	3.07
420.822	3.01
421.184	2.87
421.545	2.97
421.906	2.94
422.267	2.88
422.629	2.87
422.99	2.9
423.351	3.01
423.712	3.04
424.073	3.07
424.434	2.95
424.795	3.08
425.155	3.19
425.516	2.86
425.877	2.93
426.238	2.9
426.598	3.06
426.959	3.03
427.32	3.08
427.68	3.1
428.041	2.97
428.401	3.1
428.761	3.13
429.122	3.06
429.482	3.12
429.842	2.85
430.202	3.1
430.563	3.12
430.923	3.37
431.283	3.18
431.643	3.18
432.003	3.13
432.363	3.36
432.722	3.08
433.082	3.01
433.442	3.27
433.802	3.08
434.161	3.08
434.521	3.16
434.881	3.04
435.24	3.09
435.6	3.23
435.959	3.06
436.319	3.27
436.678	3.11
437.037	3.2
437.396	3.11
437.756	3.31
438.115	3.24
438.474	3.19
438.833	3.09
439.192	3.15
439.551	3.05
439.91	3.17
440.269	3.24
440.628	3.04
440.987	3.03
441.345	3.16
441.704	3.25
442.063	3.01
442.421	3.19
442.78	3.05
443.138	3.26
443.497	3.17
443.855	3.38
444.214	3.22
444.572	3.11
444.93	3.23
445.288	3.16
445.647	3.19
446.005	3.34
446.363	3.3
446.721	3.23
447.079	3.2
447.437	3.16
447.795	3.22
448.153	3.28
448.51	3.17
448.868	3.19
449.226	3.2
449.584	3.32
449.941	3.31
450.299	3.4
450.656	3.06
451.014	3.27
451.371	3.35
451.729	3.34
452.086	3.32
452.443	3.41
452.801	3.3
453.158	3.42
453.515	3.19
453.872	3.27
454.229	3.17
454.586	3.14
454.943	3.4
455.3	3.29
455.657	3.22
456.014	3.38
456.371	3.45
456.727	3.35
457.084	3.27
457.441	3.29
457.797	3.38
458.154	3.54
458.51	3.47
458.867	3.5
459.223	3.51
459.58	3.31
459.936	3.39
460.292	3.6
460.648	3.26
461.005	3.39
461.361	3.28
461.717	3.26
462.073	3.32
462.429	3.35
462.785	3.51
463.141	3.46
463.496	3.38
463.852	3.55
464.208	3.61
464.564	3.43
464.919	3.58
465.275	3.46
465.631	3.67
465.986	3.45
466.342	3.33
466.697	3.49
467.052	3.4
467.408	3.46
467.763	3.32
468.118	3.33
468.473	3.61
468.829	3.48
469.184	3.57
469.539	3.49
469.894	3.54
470.249	3.59
470.603	3.43
470.958	3.59
471.313	3.45
471.668	3.58
472.023	3.51
472.377	3.69
472.732	3.57
473.086	3.58
473.441	3.63
473.795	3.45
474.15	3.69
474.504	3.83
474.859	3.62
475.213	3.6
475.567	3.72
475.921	3.54
476.275	3.59
476.63	3.6
476.984	3.7
477.338	3.62
477.692	3.73
478.045	3.64
478.399	3.7
478.753	3.69
479.107	3.58
479.461	3.67
479.814	3.67
480.168	3.63
480.521	3.58
480.875	3.59
481.228	3.59
481.582	3.76
481.935	3.74
482.289	3.54
482.642	3.62
482.995	3.62
483.348	3.69
483.701	3.67
484.055	3.58
484.408	3.59
484.761	3.52
485.114	3.42
485.466	3.34
485.819	3.34
486.172	3.43
486.525	3.58
486.878	3.66
487.23	3.7
487.583	3.71
487.936	3.67
488.288	3.67
488.641	3.51
488.993	3.49
489.345	3.49
489.698	3.53
490.05	3.55
490.402	3.61
490.754	3.67
491.107	3.73
491.459	3.77
491.811	3.73
492.163	3.72
492.515	3.69
492.866	3.6
493.218	3.57
493.57	3.61
493.922	3.66
494.274	3.76
494.625	3.83
494.977	3.83
495.328	3.85
495.68	3.94
496.031	3.92
496.383	4.02
496.734	3.81
497.086	3.85
497.437	3.85
497.788	3.93
498.139	3.83
498.49	3.89
498.842	3.85
499.193	3.87
499.544	3.94
499.894	4.03
500.245	3.87
500.596	4.01
500.947	4.03
501.298	3.96
501.648	3.9
501.999	3.93
502.35	4.04
502.7	4.06
503.051	3.96
503.401	4.09
503.752	4.21
504.102	3.99
504.452	4.08
504.803	4.15
505.153	3.99
505.503	3.99
505.853	4.05
506.203	3.99
506.553	3.96
506.903	4.13
507.253	3.94
507.603	4.15
507.953	4.14
508.303	4.11
508.652	4.07
509.002	4.18
509.352	4.11
509.701	4.16
510.051	4.11
510.4	4.05
510.75	4.11
511.099	4.13
511.449	4.14
511.798	4.17
512.147	4.2
512.496	4.18
512.846	4.09
513.195	4.16
513.544	4.19
513.893	4.07
514.242	4.21
514.591	4.21
514.939	4.2
515.288	4.18
515.637	4.21
515.986	4.29
516.334	4.32
516.683	4.42
517.032	4.25
517.38	4.29
517.729	4.34
518.077	4.35
518.426	4.18
518.774	4.24
519.122	4.28
519.47	4.22
519.819	4.34
520.167	4.29
520.515	4.21
520.863	4.29
521.211	4.27
521.559	4.36
521.907	4.49
522.255	4.33
522.602	4.3
522.95	4.5
523.298	4.39
523.645	4.36
523.993	4.51
524.341	4.56
524.688	4.42
525.036	4.45
525.383	4.49
525.73	4.44
526.078	4.56
526.425	4.36
526.772	4.38
527.119	4.35
527.466	4.32
527.814	4.37
528.161	4.44
528.508	4.46
528.854	4.4
529.201	4.37
529.548	4.35
529.895	4.32
530.242	4.18
530.588	4.26
530.935	4.33
531.282	4.41
531.628	4.53
531.975	4.57
532.321	4.51
532.667	4.66
533.014	4.59
533.36	4.64
533.706	4.68
534.052	4.58
534.399	4.51
534.745	4.51
535.091	4.51
535.437	4.59
535.783	4.63
536.129	4.74
536.474	4.82
536.82	4.86
537.166	4.85
537.512	4.82
537.857	4.79
538.203	4.68
538.549	4.65
538.894	4.72
539.239	4.91
539.585	4.83
539.93	4.87
540.276	4.95
540.621	4.84
540.966	4.9
541.311	4.87
541.656	4.89
542.001	4.87
542.346	4.8
542.691	4.81
543.036	4.68
543.381	4.76
543.726	4.78
544.071	4.89
544.415	4.98
544.76	4.97
545.105	4.91
545.449	5.02
545.794	5.05
546.138	5
546.483	5.18
546.827	5.22
547.171	5.11
547.516	5.06
547.86	5.17
548.204	5.07
548.548	5.16
548.892	5.11
549.236	5.17
549.58	5.31
549.924	5.31
550.268	5.36
550.612	5.3
550.956	5.44
551.3	5.25
551.643	5.36
551.987	5.4
552.33	5.47
552.674	5.44
553.017	5.46
553.361	5.25
553.704	5.26
554.048	5.08
554.391	5.42
554.734	5.19
555.077	5.38
555.42	5.47
555.764	5.45
556.107	5.48
556.45	5.6
556.793	5.49
557.135	5.75
557.478	5.49
557.821	5.76
558.164	5.54
558.507	5.71
558.849	5.69
559.192	5.61
559.534	5.47
559.877	5.62
560.219	5.48
560.562	5.64
560.904	5.63
561.246	5.87
561.589	5.61
561.931	5.61
562.273	5.93
562.615	5.83
562.957	5.95
563.299	5.85
563.641	5.87
563.983	5.65
564.325	6.02
564.667	6.05
565.008	6.18
565.35	5.89
565.692	6.18
566.033	6.03
566.375	5.88
566.716	6
567.058	5.86
567.399	5.95
567.741	5.75
568.082	5.97
568.423	5.98
568.764	5.99
569.105	6.08
569.447	6.1
569.788	6.12
570.129	6.08
570.47	6.21
570.811	6.18
571.151	6.13
571.492	6.4
571.833	6.08
572.174	6.32
572.514	6.25
572.855	6.33
573.195	6.21
573.536	6.18
573.876	6.33
574.217	6.21
574.557	6.05
574.898	6.22
575.238	6.45
575.578	6.39
575.918	6.36
576.258	6.58
576.598	6.44
576.938	6.45
577.278	6.41
577.618	6.55
577.958	6.3
578.298	6.5
578.638	6.51
578.977	6.64
579.317	6.32
579.657	6.56
579.996	6.6
580.336	6.75
580.675	6.38
581.014	6.52
581.354	6.67
581.693	6.66
582.032	6.58
582.372	6.68
582.711	6.92
583.05	6.73
583.389	6.61
583.728	6.78
584.067	6.73
584.406	6.73
584.745	6.71
585.083	6.95
585.422	6.84
585.761	7.08
586.1	7.16
586.438	7.18
586.777	7.26
587.115	6.97
587.454	6.95
587.792	7.19
588.13	6.99
588.469	7.32
588.807	6.89
589.145	7.1
589.483	7.01
589.821	6.96
590.159	6.85
590.497	7.27
590.835	6.98
591.173	7.24
591.511	7.31
591.849	7.12
592.187	7.26
592.524	7.44
592.862	7.1
593.2	7.54
593.537	7.44
593.875	7.4
594.212	7.35
594.55	7.28
594.887	7.33
595.224	7.42
595.561	7.41
595.899	7.49
596.236	7.47
596.573	7.45
596.91	7.63
597.247	7.58
597.584	7.35
597.921	7.35
598.258	7.39
598.594	7.41
598.931	7.54
599.268	7.56
599.604	7.6
599.941	7.73
600.277	7.86
600.614	7.6
600.95	7.73
601.287	7.46
601.623	7.66
601.959	7.71
602.296	7.78
602.632	7.83
602.968	7.67
603.304	7.78
603.64	7.85
603.976	7.68
604.312	7.79
604.648	7.81
604.984	7.76
605.319	7.57
605.655	7.82
605.991	7.97
606.326	7.8
606.662	7.86
606.998	7.95
607.333	8.08
607.668	7.78
608.004	8.15
608.339	8.17
608.674	8.29
609.01	8.32
609.345	8.21
609.68	8.12
610.015	8.17
610.35	8.18
610.685	7.89
611.02	8.19
611.355	8.11
611.689	8.16
612.024	8.3
612.359	8.34
612.694	8.38
613.028	8.33
613.363	8.3
613.697	8.41
614.032	8.41
614.366	8.3
614.7	8.76
615.035	8.33
615.369	8.88
615.703	8.37
616.037	8.65
616.371	8.48
616.705	8.45
617.039	8.75
617.373	8.81
617.707	8.69
618.041	8.81
618.375	8.29
618.709	9.1
619.042	8.81
619.376	8.68
619.71	8.64
620.043	8.75
620.377	9.07
620.71	8.76
621.043	8.94
621.377	9.3
621.71	9.09
622.043	8.74
622.376	9.02
622.709	8.93
623.043	8.83
623.376	8.82
623.709	8.89
624.041	8.9
624.374	9.21
624.707	9.3
625.04	8.7
625.373	9.14
625.705	9.01
626.038	9.03
626.37	8.8
626.703	9.33
627.035	8.93
627.368	9.19
627.7	9.27
628.032	9.2
628.365	8.98
628.697	9.31
629.029	9.46
629.361	9.16
629.693	8.85
630.025	9.08
630.357	9.25
630.689	9.05
631.021	8.85
631.353	9.16
631.684	9.39
632.016	9.28
632.348	9.53
632.679	9.38
633.011	9.4
633.342	9.38
633.674	9.68
634.005	9.21
634.336	9.22
634.668	9.57
634.999	9.54
635.33	9.5
635.661	9.79
635.992	9.31
636.323	9.67
636.654	9.42
636.985	9.58
637.316	9.68
637.647	9.46
637.977	9.41
638.308	9.86
638.639	9.42
638.969	9.5
639.3	9.95
639.63	10.26
639.961	9.9
640.291	9.45
640.622	9.8
640.952	9.68
641.282	9.8
641.612	9.99
641.943	9.69
642.273	9.95
642.603	9.93
642.933	9.8
643.263	10.2
643.592	9.95
643.922	9.85
644.252	10.21
644.582	10.61
644.911	10.66
645.241	10.34
645.571	9.93
645.9	9.91
646.23	10.22
646.559	10.46
646.888	10.06
647.218	10
647.547	10.62
647.876	10.15
648.205	10.28
648.534	10.07
648.863	10.33
649.192	10.14
649.521	10.11
649.85	10.34
650.179	11
650.508	10.24
650.837	10.33
651.165	10.8
651.494	10.39
651.822	10.35
652.151	10.42
652.479	10.31
652.808	9.91
653.136	10
653.465	10.42
653.793	10.48
654.121	10.6
654.449	10.41
654.777	10.38
655.105	10.52
655.433	10.86
655.761	10.3
656.089	10.91
656.417	10.79
656.745	10.01
657.073	10.78
657.4	10.58
657.728	10.4
658.056	10.62
658.383	11.11
658.711	10.24
659.038	10.46
659.365	10.65
659.693	10.68
660.02	10.64
660.347	10.91
660.674	11.1
661.001	10.72
661.329	10.77
661.656	10.86
661.982	10.74
662.309	11.05
662.636	11.13
662.963	10.99
663.29	10.9
663.616	11.15
663.943	10.93
664.27	11.08
664.596	10.99
664.923	11.41
665.249	11.14
665.576	11.02
665.902	10.93
666.228	10.7
666.554	11.08
666.881	11.65
667.207	11.15
667.533	10.85
667.859	11.23
668.185	11.12
668.511	11.53
668.837	11.47
669.162	10.96
669.488	11.85
669.814	11.31
670.139	11
670.465	11.87
670.791	11.07
671.116	10.82
671.442	11.74
671.767	11.11
672.092	11.28
672.418	11.28
672.743	10.98
673.068	11.37
673.393	11.53
673.718	11.12
674.043	11.78
674.368	11
674.693	11.12
675.018	11.92
675.343	12.2
675.667	12.12
675.992	11.5
676.317	11.38
676.641	11.05
676.966	11.75
677.29	11.78
677.615	11.48
677.939	12.04
678.264	11.48
678.588	11.77
678.912	12.3
679.236	12.48
679.56	11.6
679.885	11.84
680.209	12.29
680.532	11.97
680.856	12.05
681.18	11.59
681.504	12
681.828	12.03
682.152	11.75
682.475	12.2
682.799	12.34
683.122	11.67
683.446	12.09
683.769	12
684.093	11.75
684.416	12.17
684.739	12.11
685.062	12.7
685.386	11.87
685.709	11.93
686.032	12.53
686.355	12.2
686.678	11.85
687.001	12.22
687.324	12.15
687.646	12.41
687.969	12.18
688.292	12.47
688.614	12.37
688.937	12.2
689.26	12.43
