Data from 0018_crown_Reflection__5__91.txt Node

Date: Mon Oct 17 15:10:12 CDT 2022
User: ToomeyLab
Spectrometer: FLMS14357
Trigger mode: 0
Integration Time (sec): 1.000000E-2
Scans to average: 100
Electric dark correction enabled: true
Nonlinearity correction enabled: false
Boxcar width: 0
XAxis mode: Wavelengths
Number of Pixels in Spectrum: 2048
>>>>>Begin Spectral Data<<<<<
189.047	-262.25
189.435	-262.25
189.823	-262.25
190.211	212.16
190.599	313.04
190.987	-44.4
191.375	97.7
191.763	-293.96
192.151	92.71
192.538	-24.8
192.926	19.1
193.314	434.29
193.702	85.14
194.089	-96.15
194.477	171.7
194.864	404.23
195.252	55.52
195.639	471.65
196.027	-1.76
196.414	-52.87
196.801	86.99
197.189	58.99
197.576	91.22
197.963	-25.36
198.351	-1230.11
198.738	-10.45
199.125	-12.08
199.512	-71.6
199.899	-22.56
200.286	28.39
200.673	-34.42
201.06	-39.63
201.447	27.21
201.833	48.11
202.22	45.63
202.607	-21.46
202.994	19.5
203.38	31.12
203.767	16.07
204.154	55.07
204.54	-15.41
204.927	-17.54
205.313	-21.17
205.699	5.91
206.086	-21.23
206.472	20.61
206.858	-5.33
207.245	-15.3
207.631	6.28
208.017	8.48
208.403	14.1
208.789	18.71
209.175	-17.7
209.561	-43.86
209.947	-90.83
210.333	32.24
210.719	-5.87
211.105	28.69
211.491	-40.39
211.876	-27.77
212.262	32.77
212.648	22.05
213.034	-49.32
213.419	-6.14
213.805	-19.04
214.19	-9.75
214.576	-3.52
214.961	11.46
215.346	-25.59
215.732	0.63
216.117	15.89
216.502	8.38
216.888	-5.22
217.273	8.24
217.658	33.36
218.043	-10.29
218.428	-18.96
218.813	0.79
219.198	-0.36
219.583	-15.49
219.968	16.2
220.353	-7.73
220.738	-10.01
221.122	19.92
221.507	18.36
221.892	8.16
222.276	-19.08
222.661	4.43
223.046	10.4
223.43	10.27
223.815	-0.51
224.199	11
224.583	-6.62
224.968	-5.61
225.352	-6.75
225.736	0.85
226.121	7.96
226.505	6.4
226.889	8.11
227.273	7.68
227.657	8.88
228.041	7.51
228.425	2.65
228.809	5.36
229.193	5.49
229.577	5.26
229.961	6.93
230.344	5.83
230.728	5.82
231.112	6.29
231.495	6.28
231.879	5.99
232.263	6.38
232.646	6.45
233.03	5.52
233.413	3.32
233.797	6.21
234.18	6.69
234.563	1.45
234.946	7.33
235.33	6.4
235.713	5.2
236.096	5.42
236.479	3.81
236.862	5.35
237.245	3.92
237.628	5.54
238.011	6.58
238.394	7.1
238.777	4.7
239.16	4.63
239.543	5.95
239.925	5.65
240.308	6.92
240.691	4.67
241.073	6.41
241.456	4.91
241.838	6.18
242.221	5.16
242.603	5.63
242.986	5.22
243.368	6.28
243.75	5.37
244.133	6.12
244.515	6.07
244.897	5.92
245.279	5.55
245.661	6
246.043	6.45
246.425	4.92
246.807	4.84
247.189	6.35
247.571	5.49
247.953	5.75
248.335	5.54
248.717	5.59
249.098	5.66
249.48	5.9
249.862	5.46
250.243	5.27
250.625	5.73
251.006	5.08
251.388	5.62
251.769	4.96
252.151	5.28
252.532	4.64
252.913	5.54
253.295	5
253.676	5.4
254.057	5.61
254.438	5.04
254.819	6.45
255.2	6.91
255.581	6
255.962	4.73
256.343	4.7
256.724	5.76
257.105	5.11
257.486	4.79
257.867	4.37
258.247	5.25
258.628	5.19
259.009	5.29
259.389	4.92
259.77	5.18
260.15	5.23
260.531	4.87
260.911	5.11
261.292	5.15
261.672	4.83
262.052	5.16
262.432	5.29
262.813	5.15
263.193	4.83
263.573	5.22
263.953	5.19
264.333	5.38
264.713	4.66
265.093	5.4
265.473	4.57
265.853	4.6
266.233	5.73
266.612	4.73
266.992	5.35
267.372	4.65
267.752	4.96
268.131	5.2
268.511	4.93
268.89	5.09
269.27	4.5
269.649	5.01
270.029	4.74
270.408	4.9
270.787	4.27
271.167	4.45
271.546	4.76
271.925	4.44
272.304	4.69
272.683	4.99
273.062	4.53
273.441	4.64
273.82	4.5
274.199	4.86
274.578	4.9
274.957	4.79
275.336	4.85
275.715	4.35
276.093	4.5
276.472	4.38
276.851	5.16
277.229	4.28
277.608	4.31
277.986	4.57
278.365	4.79
278.743	4.46
279.122	4.25
279.5	4.94
279.878	4.7
280.257	5.04
280.635	4.37
281.013	4.51
281.391	3.82
281.769	4.18
282.147	5.1
282.525	4.25
282.903	4.04
283.281	4.09
283.659	4.38
284.037	4.25
284.415	4.72
284.792	4.5
285.17	3.75
285.548	3.9
285.925	4.5
286.303	4.51
286.68	4.58
287.058	4.25
287.435	4.54
287.813	4.18
288.19	4.42
288.567	4.34
288.945	4.34
289.322	4.7
289.699	4.39
290.076	4.43
290.453	3.98
290.83	4.3
291.207	4.22
291.584	4.17
291.961	4.02
292.338	4.71
292.715	4.32
293.092	4.27
293.469	4.22
293.845	4.48
294.222	4.51
294.599	4.58
294.975	4.21
295.352	4.15
295.728	4.08
296.105	3.97
296.481	4.02
296.858	4.29
297.234	3.92
297.61	3.79
297.986	4.24
298.363	4
298.739	4.36
299.115	4.34
299.491	3.9
299.867	4.28
300.243	4.05
300.619	4.14
300.995	3.67
301.371	4.03
301.746	4.01
302.122	3.69
302.498	4.28
302.874	4.37
303.249	3.95
303.625	4.32
304	4.07
304.376	4.22
304.751	4.98
305.127	4.06
305.502	3.5
305.878	4.05
306.253	4.11
306.628	4.05
307.003	4.31
307.378	4.44
307.754	3.61
308.129	3.66
308.504	4.18
308.879	4.25
309.254	3.78
309.629	3.56
310.003	4.47
310.378	4.08
310.753	3.77
311.128	3.94
311.502	3.77
311.877	3.77
312.252	3.72
312.626	3.69
313.001	3.74
313.375	3.83
313.75	3.9
314.124	4.21
314.498	3.95
314.873	3.97
315.247	3.99
315.621	4.48
315.995	3.81
316.369	3.79
316.743	3.96
317.117	3.96
317.491	3.51
317.865	4.01
318.239	4.4
318.613	3.91
318.987	3.7
319.361	3.46
319.734	3.93
320.108	3.58
320.482	4.11
320.855	3.71
321.229	3.94
321.602	3.73
321.976	3.68
322.349	3.47
322.723	4.14
323.096	3.92
323.469	4.16
323.843	3.75
324.216	3.86
324.589	4.08
324.962	3.88
325.335	3.82
325.708	4.26
326.081	3.83
326.454	4.2
326.827	3.68
327.2	3.52
327.573	4
327.945	3.99
328.318	3.59
328.691	3.19
329.063	3.53
329.436	3.99
329.809	4.08
330.181	4.17
330.553	3.62
330.926	4.4
331.298	4.02
331.671	4.21
332.043	4.31
332.415	4.14
332.787	4.27
333.159	3.89
333.532	3.62
333.904	3.69
334.276	4.27
334.648	3.22
335.02	4
335.391	3.91
335.763	3.96
336.135	3.5
336.507	3.68
336.879	4.38
337.25	3.98
337.622	3.92
337.993	4.33
338.365	4.12
338.736	3.82
339.108	4.41
339.479	4.04
339.851	4.4
340.222	3.76
340.593	3.56
340.964	3.82
341.336	4.3
341.707	4.22
342.078	4.3
342.449	3.97
342.82	4.1
343.191	4.13
343.562	4.08
343.933	3.88
344.303	4.06
344.674	4.31
345.045	4.32
345.416	4.02
345.786	4.04
346.157	4.16
346.527	4.15
346.898	4.22
347.268	4.26
347.639	4.04
348.009	3.85
348.38	4.1
348.75	3.66
349.12	4.11
349.49	4.24
349.861	4.43
350.231	4.22
350.601	4.37
350.971	4.34
351.341	3.77
351.711	3.81
352.081	4.46
352.45	4.6
352.82	4.34
353.19	3.72
353.56	4.15
353.929	4.27
354.299	4.02
354.669	4.22
355.038	4.54
355.408	4.23
355.777	3.64
356.147	4.09
356.516	4.33
356.885	4.42
357.254	4.88
357.624	4.49
357.993	4.18
358.362	4.28
358.731	3.65
359.1	4.01
359.469	4.15
359.838	4.43
360.207	4.3
360.576	4.13
360.945	4.4
361.314	4.77
361.682	4.12
362.051	4.28
362.42	4.09
362.788	4.56
363.157	4.5
363.525	4.19
363.894	4.62
364.262	4.27
364.631	4.45
364.999	4.32
365.367	4.05
365.735	4.35
366.104	4.32
366.472	3.9
366.84	4.32
367.208	4.66
367.576	4.35
367.944	4.13
368.312	4.38
368.68	4.4
369.048	4.28
369.416	4.67
369.783	4.58
370.151	4.53
370.519	4.31
370.886	4.66
371.254	4.66
371.621	4.22
371.989	4.6
372.356	4.64
372.724	4.85
373.091	4.6
373.458	4.37
373.826	4.61
374.193	4.49
374.56	4.33
374.927	4.64
375.294	4.64
375.661	4.6
376.028	4.59
376.395	4.51
376.762	4.6
377.129	4.44
377.496	4.3
377.863	4.37
378.229	4.62
378.596	4.56
378.963	4.59
379.329	4.46
379.696	4.47
380.062	4.64
380.429	4.63
380.795	4.79
381.161	4.58
381.528	4.84
381.894	4.09
382.26	4.78
382.626	4.64
382.993	4.82
383.359	4.57
383.725	4.61
384.091	4.75
384.457	4.53
384.823	4.6
385.188	4.57
385.554	4.68
385.92	4.67
386.286	4.64
386.651	4.73
387.017	4.66
387.383	4.73
387.748	4.53
388.114	4.57
388.479	4.74
388.845	4.79
389.21	4.72
389.575	4.74
389.94	4.97
390.306	4.81
390.671	4.78
391.036	4.73
391.401	4.66
391.766	4.83
392.131	4.82
392.496	4.41
392.861	4.73
393.226	4.78
393.591	4.75
393.956	4.66
394.32	4.83
394.685	4.71
395.05	4.79
395.414	4.77
395.779	4.62
396.143	5
396.508	4.92
396.872	4.8
397.236	4.82
397.601	4.89
397.965	4.67
398.329	4.95
398.694	4.86
399.058	4.55
399.422	4.98
399.786	4.92
400.15	4.99
400.514	4.77
400.878	4.89
401.242	4.78
401.605	5.22
401.969	4.85
402.333	4.83
402.697	4.63
403.06	4.69
403.424	5.03
403.787	4.75
404.151	4.82
404.514	4.96
404.878	5.04
405.241	4.84
405.604	4.96
405.968	4.89
406.331	4.8
406.694	5.02
407.057	4.78
407.42	4.96
407.783	4.97
408.146	5.15
408.509	5.25
408.872	4.72
409.235	4.76
409.598	4.94
409.961	4.8
410.323	4.99
410.686	4.91
411.049	4.8
411.411	5.07
411.774	4.98
412.136	4.98
412.499	5
412.861	5.07
413.223	4.87
413.586	5
413.948	5.14
414.31	5.04
414.672	4.97
415.035	5.05
415.397	4.91
415.759	5.09
416.121	4.88
416.483	5.1
416.845	5.06
417.206	4.88
417.568	4.95
417.93	4.79
418.292	5.07
418.653	4.95
419.015	4.95
419.377	5.03
419.738	4.92
420.1	5.08
420.461	4.96
420.822	4.91
421.184	4.84
421.545	4.96
421.906	4.82
422.267	4.87
422.629	4.94
422.99	4.85
423.351	4.95
423.712	4.95
424.073	4.98
424.434	4.97
424.795	5.01
425.155	5.05
425.516	4.89
425.877	4.95
426.238	4.83
426.598	4.94
426.959	4.99
427.32	5.01
427.68	4.98
428.041	4.96
428.401	5.07
428.761	5.05
429.122	5.19
429.482	5.09
429.842	5.05
430.202	5.13
430.563	4.89
430.923	5.14
431.283	5.3
431.643	4.97
432.003	5.19
432.363	5.37
432.722	5.02
433.082	4.98
433.442	5.15
433.802	4.99
434.161	4.95
434.521	5.22
434.881	5.07
435.24	5
435.6	5.2
435.959	5
436.319	5.15
436.678	5.06
437.037	5.13
437.396	4.89
437.756	5.1
438.115	5.03
438.474	5.04
438.833	4.95
439.192	5.12
439.551	4.94
439.91	5.23
440.269	5.11
440.628	5.06
440.987	4.99
441.345	5.05
441.704	4.95
442.063	4.86
442.421	5.09
442.78	5.03
443.138	4.96
443.497	5.03
443.855	5.14
444.214	5.1
444.572	5.18
444.93	5.1
445.288	5.13
445.647	5.1
446.005	5.12
446.363	5.17
446.721	5.03
447.079	4.97
447.437	4.98
447.795	4.99
448.153	5.1
448.51	4.91
448.868	5.01
449.226	5.07
449.584	5.08
449.941	5.13
450.299	5.11
450.656	5.05
451.014	5.08
451.371	5.17
451.729	5.14
452.086	5.19
452.443	5.16
452.801	5.15
453.158	5.37
453.515	4.94
453.872	5.18
454.229	5.05
454.586	5.05
454.943	5.08
455.3	5.12
455.657	5.11
456.014	5.3
456.371	5.16
456.727	5.17
457.084	5.09
457.441	5.15
457.797	5.14
458.154	5.21
458.51	5.18
458.867	5.21
459.223	5.16
459.58	5.07
459.936	4.98
460.292	5.15
460.648	5.07
461.005	5.12
461.361	4.97
461.717	4.93
462.073	4.94
462.429	5.01
462.785	5.15
463.141	5.22
463.496	5.16
463.852	5.26
464.208	5.19
464.564	5.08
464.919	5.19
465.275	5.13
465.631	5.34
465.986	5.07
466.342	5.1
466.697	5.18
467.052	5.17
467.408	5.19
467.763	5.06
468.118	5.15
468.473	5.35
468.829	5.27
469.184	5.17
469.539	5.13
469.894	5.17
470.249	5.18
470.603	5.16
470.958	5.28
471.313	5.14
471.668	5.27
472.023	5.11
472.377	5.26
472.732	5.11
473.086	5.32
473.441	5.21
473.795	5.04
474.15	5.08
474.504	5.21
474.859	5.16
475.213	5.33
475.567	5.26
475.921	5.1
476.275	5.12
476.63	5.35
476.984	5.23
477.338	5.17
477.692	5.27
478.045	5.28
478.399	5.16
478.753	5.18
479.107	5.26
479.461	5.26
479.814	5.21
480.168	5.1
480.521	5.11
480.875	5.15
481.228	5.03
481.582	5.19
481.935	5.17
482.289	5.19
482.642	5.19
482.995	5.25
483.348	5.13
483.701	5.03
484.055	4.96
484.408	5.11
484.761	4.96
485.114	4.81
485.466	4.79
485.819	4.73
486.172	4.81
486.525	4.92
486.878	4.99
487.23	5.09
487.583	5.07
487.936	5.03
488.288	5.03
488.641	4.94
488.993	4.9
489.345	4.86
489.698	4.9
490.05	4.91
490.402	4.95
490.754	5.04
491.107	5.04
491.459	5.12
491.811	5.1
492.163	4.98
492.515	4.97
492.866	4.9
493.218	4.89
493.57	4.95
493.922	4.99
494.274	5.01
494.625	5.11
494.977	5.23
495.328	5.19
495.68	5.15
496.031	5.27
496.383	5.3
496.734	5.2
497.086	5.07
497.437	5.16
497.788	5.24
498.139	5.14
498.49	5.05
498.842	4.96
499.193	5.09
499.544	5.1
499.894	5.07
500.245	5.07
500.596	5.16
500.947	5.19
501.298	5.22
501.648	5.14
501.999	5.03
502.35	5.23
502.7	5.22
503.051	5.2
503.401	5.28
503.752	5.09
504.102	5.19
504.452	4.99
504.803	5.22
505.153	5.09
505.503	5.23
505.853	5.05
506.203	5.11
506.553	5.13
506.903	5.17
507.253	5.08
507.603	5.16
507.953	5.25
508.303	5.06
508.652	5.06
509.002	5.23
509.352	5.13
509.701	5.06
510.051	5.21
510.4	4.89
510.75	5.12
511.099	5.11
511.449	5.06
511.798	5.1
512.147	5.08
512.496	5.12
512.846	5.06
513.195	5.18
513.544	5.21
513.893	5.06
514.242	5.18
514.591	5.18
514.939	5.1
515.288	5.24
515.637	5.17
515.986	5.22
516.334	5.26
516.683	5.24
517.032	5.12
517.38	5.11
517.729	5.11
518.077	5.1
518.426	5.06
518.774	5.12
519.122	4.97
519.47	5.03
519.819	5.18
520.167	5.04
520.515	5.01
520.863	5.05
521.211	5.11
521.559	4.99
521.907	5.13
522.255	5.15
522.602	5.06
522.95	5.25
523.298	5.21
523.645	5.13
523.993	5.21
524.341	5.35
524.688	5.2
525.036	5.3
525.383	5.17
525.73	5.18
526.078	5.05
526.425	5.09
526.772	5
527.119	4.93
527.466	4.96
527.814	4.94
528.161	5.06
528.508	5.03
528.854	4.93
529.201	4.93
529.548	4.98
529.895	4.86
530.242	4.76
530.588	4.79
530.935	4.82
531.282	4.9
531.628	4.99
531.975	5.09
532.321	4.97
532.667	5.12
533.014	5.13
533.36	5.08
533.706	5.09
534.052	5.03
534.399	4.91
534.745	4.9
535.091	4.94
535.437	4.91
535.783	5.03
536.129	5.03
536.474	5.1
536.82	5.02
537.166	5.16
537.512	5.04
537.857	4.99
538.203	5.08
538.549	4.96
538.894	5.02
539.239	5.03
539.585	5.02
539.93	5.08
540.276	5.05
540.621	5.13
540.966	5.14
541.311	5.01
541.656	5
542.001	5.11
542.346	5.04
542.691	4.94
543.036	4.77
543.381	4.85
543.726	4.89
544.071	4.96
544.415	5
544.76	4.97
545.105	4.93
545.449	5.05
545.794	5
546.138	5.16
546.483	5.12
546.827	5.01
547.171	4.99
547.516	5.1
547.86	5.07
548.204	5.08
548.548	5.06
548.892	4.99
549.236	5.14
549.58	5.11
549.924	5.11
550.268	5.28
550.612	5.18
550.956	5.38
551.3	5.11
551.643	5.14
551.987	4.97
552.33	5.2
552.674	5.14
553.017	5.27
553.361	5.11
553.704	4.98
554.048	4.88
554.391	5.04
554.734	5.07
555.077	5.06
555.42	5.02
555.764	5.04
556.107	5.25
556.45	5.13
556.793	5.13
557.135	5.23
557.478	5.1
557.821	5.25
558.164	5.14
558.507	5.04
558.849	5
559.192	5.06
559.534	5.2
559.877	4.99
560.219	4.86
560.562	4.88
560.904	5.02
561.246	5.23
561.589	5.14
561.931	5.04
562.273	5.25
562.615	4.95
562.957	5.04
563.299	5.06
563.641	5.02
563.983	5.03
564.325	5.27
564.667	5.21
565.008	5.32
565.35	5.22
565.692	5.24
566.033	5.01
566.375	4.98
566.716	5.12
567.058	4.84
567.399	5.03
567.741	4.98
568.082	5.04
568.423	5
568.764	5.09
569.105	4.95
569.447	4.95
569.788	5.19
570.129	5.17
570.47	5.22
570.811	5.13
571.151	5.13
571.492	5.18
571.833	5.09
572.174	5.19
572.514	5.02
572.855	4.94
573.195	5.05
573.536	5.03
573.876	4.97
574.217	4.93
574.557	4.98
574.898	4.92
575.238	5.17
575.578	5.12
575.918	5.11
576.258	4.94
576.598	5
576.938	5.08
577.278	5.05
577.618	5.04
577.958	5.04
578.298	5.07
578.638	5.08
578.977	5.22
579.317	4.98
579.657	5
579.996	5.14
580.336	5.04
580.675	5.14
581.014	4.96
581.354	4.98
581.693	4.76
582.032	5.11
582.372	4.98
582.711	4.8
583.05	5.04
583.389	5.06
583.728	5.11
584.067	5.09
584.406	4.88
584.745	5.11
585.083	4.89
585.422	5.07
585.761	5.08
586.1	4.97
586.438	5.32
586.777	4.93
587.115	5.06
587.454	5.1
587.792	5
588.13	4.89
588.469	5.09
588.807	5.01
589.145	5.13
589.483	4.89
589.821	4.92
590.159	4.74
590.497	5.26
590.835	5.12
591.173	5.15
591.511	5.01
591.849	5.04
592.187	5.07
592.524	5.09
592.862	4.73
593.2	5.11
593.537	4.95
593.875	5.13
594.212	5.11
594.55	5.1
594.887	4.94
595.224	5.22
595.561	4.96
595.899	5.2
596.236	5.31
596.573	4.9
596.91	5.06
597.247	5.01
597.584	4.92
597.921	5.03
598.258	5.11
598.594	5.02
598.931	4.87
599.268	4.8
599.604	4.9
599.941	4.92
600.277	5.05
600.614	5.21
600.95	4.81
601.287	4.85
601.623	4.99
601.959	4.99
602.296	4.75
602.632	4.89
602.968	4.83
603.304	5.11
603.64	5.05
603.976	4.87
604.312	5.08
604.648	4.91
604.984	4.89
605.319	4.72
605.655	4.92
605.991	4.86
606.326	4.82
606.662	4.97
606.998	4.78
607.333	5
607.668	4.87
608.004	5.04
608.339	5.15
608.674	4.98
609.01	5.01
609.345	5.18
609.68	5.26
610.015	5.24
610.35	4.86
610.685	4.64
611.02	5.04
611.355	4.81
611.689	5.02
612.024	5.16
612.359	4.83
612.694	5.07
613.028	4.94
613.363	5.03
613.697	4.7
614.032	4.87
614.366	5.09
614.7	4.98
615.035	5.06
615.369	5.38
615.703	4.85
616.037	5.3
616.371	4.65
616.705	4.96
617.039	5.43
617.373	5.28
617.707	5.04
618.041	4.9
618.375	4.63
618.709	5.36
619.042	5.15
619.376	4.97
619.71	4.98
620.043	5.22
620.377	5.17
620.71	5.14
621.043	5.26
621.377	5.26
621.71	5.42
622.043	5.4
622.376	5.19
622.709	5.13
623.043	5
623.376	4.92
623.709	5.09
624.041	4.76
624.374	5.28
624.707	4.65
625.04	4.83
625.373	4.99
625.705	4.77
626.038	4.67
626.37	4.67
626.703	5.12
627.035	5.08
627.368	4.93
627.7	5.26
628.032	4.98
628.365	4.88
628.697	4.76
629.029	5.09
629.361	4.88
629.693	4.76
630.025	4.89
630.357	4.91
630.689	4.84
631.021	4.94
631.353	4.58
631.684	4.71
632.016	4.86
632.348	5.17
632.679	5.07
633.011	4.79
633.342	4.95
633.674	5.32
634.005	4.89
634.336	4.8
634.668	5.11
634.999	4.9
635.33	4.87
635.661	4.78
635.992	4.88
636.323	4.92
636.654	4.93
636.985	4.7
637.316	4.99
637.647	4.77
637.977	4.84
638.308	5.05
638.639	4.8
638.969	4.73
639.3	4.84
639.63	5.04
639.961	4.63
640.291	5.11
640.622	5.08
640.952	5.15
641.282	4.73
641.612	4.74
641.943	5.06
642.273	4.9
642.603	4.8
642.933	5.27
643.263	5.2
643.592	4.82
643.922	4.87
644.252	4.94
644.582	5.52
644.911	5.12
645.241	5.17
645.571	4.44
645.9	5.44
646.23	4.7
646.559	5.17
646.888	4.59
647.218	4.63
647.547	4.98
647.876	5.02
648.205	4.74
648.534	4.81
648.863	4.7
649.192	4.93
649.521	4.61
649.85	4.55
650.179	5.38
650.508	4.96
650.837	4.88
651.165	5.33
651.494	4.83
651.822	5.09
652.151	4.84
652.479	5.03
652.808	4.54
653.136	4.59
653.465	4.78
653.793	4.85
654.121	4.92
654.449	4.84
654.777	4.95
655.105	4.68
655.433	5.13
655.761	4.79
656.089	4.75
656.417	4.41
656.745	4.75
657.073	5
657.4	4.92
657.728	5.15
658.056	4.75
658.383	4.95
658.711	4.92
659.038	4.43
659.365	4.73
659.693	4.61
660.02	4.89
660.347	5.09
660.674	4.82
661.001	4.85
661.329	4.83
661.656	4.99
661.982	4.85
662.309	5.05
662.636	5.4
662.963	4.91
663.29	5.06
663.616	4.89
663.943	4.54
664.27	5.06
664.596	4.71
664.923	5.05
665.249	5.1
665.576	5.48
665.902	4.83
666.228	5.02
666.554	4.45
666.881	5.21
667.207	5.04
667.533	5.1
667.859	4.94
668.185	5.68
668.511	5.04
668.837	5.04
669.162	5.25
669.488	5.3
669.814	5.55
670.139	4.98
670.465	4.74
670.791	4.67
671.116	5.02
671.442	5.1
671.767	4.99
672.092	4.88
672.418	4.88
672.743	4.89
673.068	5.03
673.393	5.1
673.718	5.09
674.043	5.1
674.368	4.45
674.693	5.12
675.018	5.5
675.343	4.8
675.667	5.09
675.992	4.45
676.317	5.09
676.641	5.3
676.966	5.28
677.29	4.89
677.615	4.36
677.939	4.8
678.264	4.99
678.588	4.91
678.912	4.92
679.236	5.46
679.56	4.45
679.885	4.83
680.209	4.81
680.532	4.76
680.856	4.69
681.18	4.68
681.504	5.55
681.828	4.84
682.152	5.02
682.475	5.15
682.799	5.13
683.122	4.77
683.446	5.11
683.769	5.05
684.093	4.15
684.416	5.21
684.739	4.73
685.062	5.27
685.386	5.16
685.709	4.83
686.032	5.34
686.355	4.46
686.678	4.44
687.001	4.36
687.324	5.21
687.646	4.33
687.969	5.26
688.292	5.37
688.614	5.51
688.937	5.66
689.26	5.24
689.582	4.97
689.904	5.24
690.227	6.15
690.549	5.99
690.871	5.41
691.194	5.17
691.516	5.46
691.838	5.83
692.16	5.24
692.482	5.4
692.804	4.54
693.126	5.28
