Data from 0018_crown_Reflection__1__87.txt Node

Date: Mon Oct 17 15:09:30 CDT 2022
User: ToomeyLab
Spectrometer: FLMS14357
Trigger mode: 0
Integration Time (sec): 1.000000E-2
Scans to average: 100
Electric dark correction enabled: true
Nonlinearity correction enabled: false
Boxcar width: 0
XAxis mode: Wavelengths
Number of Pixels in Spectrum: 2048
>>>>>Begin Spectral Data<<<<<
189.047	148.63
189.435	148.63
189.823	148.63
190.211	123.01
190.599	213.78
190.987	-39.16
191.375	67.07
191.763	-76.13
192.151	209.11
192.538	-195.13
192.926	48.41
193.314	797.79
193.702	0.1
194.089	64.77
194.477	229.88
194.864	704.23
195.252	27.55
195.639	385.68
196.027	119.52
196.414	72.52
196.801	138.07
197.189	68.72
197.576	56.48
197.963	-487.88
198.351	-769.53
198.738	32.93
199.125	-7.98
199.512	-22.68
199.899	11.01
200.286	26.04
200.673	-8.87
201.06	-32.83
201.447	7.46
201.833	41.99
202.22	0.15
202.607	-11
202.994	-14.85
203.38	26.78
203.767	7.99
204.154	25.87
204.54	-63.12
204.927	36.17
205.313	-38.75
205.699	20.05
206.086	-18.63
206.472	4.64
206.858	-19.17
207.245	11.75
207.631	55.67
208.017	18.57
208.403	15.16
208.789	18.19
209.175	7.18
209.561	-73.11
209.947	-65.68
210.333	23.65
210.719	9.74
211.105	14.15
211.491	8.15
211.876	-68.61
212.262	25.89
212.648	-32.08
213.034	-76.48
213.419	-16.14
213.805	9.15
214.19	2.84
214.576	10.12
214.961	11.96
215.346	-18.86
215.732	-14.56
216.117	8.11
216.502	9.29
216.888	14.59
217.273	13.55
217.658	23.53
218.043	17.57
218.428	-8.04
218.813	15.59
219.198	-4.04
219.583	-13.38
219.968	16.64
220.353	-10.04
220.738	11.2
221.122	13.73
221.507	-8.94
221.892	16.84
222.276	-6.57
222.661	11.57
223.046	-4.17
223.43	9.41
223.815	0.53
224.199	13.27
224.583	1.05
224.968	-0.29
225.352	-9.21
225.736	5.47
226.121	8.48
226.505	5.9
226.889	13.68
227.273	9.27
227.657	8.52
228.041	6.93
228.425	3.95
228.809	9.27
229.193	7.2
229.577	10.91
229.961	10.68
230.344	7.81
230.728	8.8
231.112	8.5
231.495	8.9
231.879	7.95
232.263	8.74
232.646	8.32
233.03	8.38
233.413	5.9
233.797	6.42
234.18	6.64
234.563	5.9
234.946	9.41
235.33	9.48
235.713	7.28
236.096	7.05
236.479	6.8
236.862	8.06
237.245	6.78
237.628	6.07
238.011	7.59
238.394	6.64
238.777	8.45
239.16	8.06
239.543	7.62
239.925	9.16
240.308	6.7
240.691	6.27
241.073	7.67
241.456	6.14
241.838	7.66
242.221	7.21
242.603	8.07
242.986	7.5
243.368	8.49
243.75	7.88
244.133	7.9
244.515	7.86
244.897	8.09
245.279	8.28
245.661	7.55
246.043	7.86
246.425	6.19
246.807	7.75
247.189	7.52
247.571	6.92
247.953	7.42
248.335	7.71
248.717	7.57
249.098	7.44
249.48	7.83
249.862	7.19
250.243	6.98
250.625	8.02
251.006	7.3
251.388	8.13
251.769	6.97
252.151	7.3
252.532	7.01
252.913	7.19
253.295	6.08
253.676	7.51
254.057	7.57
254.438	7.3
254.819	7.71
255.2	7.49
255.581	8.12
255.962	7.1
256.343	6.64
256.724	6.2
257.105	6.89
257.486	6.42
257.867	6.1
258.247	6.25
258.628	7.18
259.009	6.93
259.389	6.3
259.77	6.83
260.15	6.87
260.531	6.37
260.911	6.86
261.292	6.96
261.672	6.65
262.052	6.94
262.432	6.88
262.813	6.71
263.193	6.11
263.573	7.04
263.953	6.18
264.333	6.48
264.713	6.53
265.093	6.47
265.473	6.57
265.853	6.46
266.233	7
266.612	6.5
266.992	7.29
267.372	6.12
267.752	6.91
268.131	6.75
268.511	6.61
268.89	6.9
269.27	6.43
269.649	6.09
270.029	6.27
270.408	6.8
270.787	5.91
271.167	6.11
271.546	6.44
271.925	5.61
272.304	6.18
272.683	6.3
273.062	6.35
273.441	6.17
273.82	6.17
274.199	6.53
274.578	6.25
274.957	5.75
275.336	6.16
275.715	6.1
276.093	5.92
276.472	5.85
276.851	6.52
277.229	5.54
277.608	6.25
277.986	5.83
278.365	5.98
278.743	6.04
279.122	6.05
279.5	6.84
279.878	6.67
280.257	6.26
280.635	5.62
281.013	6.2
281.391	5.78
281.769	5.79
282.147	6.44
282.525	5.91
282.903	5.33
283.281	5.61
283.659	5.79
284.037	5.51
284.415	5.65
284.792	5.74
285.17	5.23
285.548	5.14
285.925	5.84
286.303	5.93
286.68	5.58
287.058	5.96
287.435	5.73
287.813	5.64
288.19	5.68
288.567	5.38
288.945	5.48
289.322	6.03
289.699	5.39
290.076	5.26
290.453	5.73
290.83	5.1
291.207	5.42
291.584	5.5
291.961	5.41
292.338	5.57
292.715	5.53
293.092	5.43
293.469	5.72
293.845	5.77
294.222	5.95
294.599	5.18
294.975	4.96
295.352	4.91
295.728	5.39
296.105	4.94
296.481	5.43
296.858	5.48
297.234	5.33
297.61	5.39
297.986	5.31
298.363	5.11
298.739	5.44
299.115	5.22
299.491	5.1
299.867	5.5
300.243	5.37
300.619	5.2
300.995	5.21
301.371	5.3
301.746	5.24
302.122	5.22
302.498	4.97
302.874	5.79
303.249	5.75
303.625	5.45
304	5.32
304.376	5.67
304.751	5.79
305.127	5.79
305.502	5.41
305.878	5.5
306.253	5.14
306.628	5.1
307.003	5.11
307.378	5.63
307.754	5.23
308.129	5.55
308.504	5.14
308.879	5.3
309.254	5.33
309.629	4.88
310.003	5.33
310.378	5.3
310.753	5.16
311.128	5.28
311.502	4.93
311.877	5.4
312.252	5.04
312.626	4.97
313.001	4.76
313.375	5.06
313.75	5.33
314.124	5.57
314.498	5.36
314.873	4.87
315.247	5.6
315.621	5.66
315.995	4.99
316.369	4.64
316.743	5.12
317.117	5.69
317.491	4.9
317.865	5.67
318.239	5.16
318.613	5.31
318.987	4.81
319.361	4.84
319.734	5.39
320.108	5.21
320.482	5.07
320.855	4.53
321.229	5.14
321.602	5.07
321.976	5.05
322.349	4.84
322.723	5.14
323.096	5.18
323.469	4.97
323.843	4.6
324.216	5.26
324.589	5.03
324.962	5.07
325.335	5.05
325.708	5.05
326.081	5.21
326.454	5.33
326.827	5.32
327.2	4.92
327.573	5.19
327.945	5.3
328.318	5.27
328.691	4.79
329.063	5.15
329.436	5.29
329.809	5.29
330.181	5.76
330.553	5.14
330.926	4.98
331.298	5.25
331.671	5.5
332.043	5.13
332.415	5.5
332.787	5.09
333.159	5.28
333.532	5.1
333.904	4.95
334.276	5.37
334.648	4.91
335.02	5.13
335.391	5.55
335.763	5.18
336.135	4.94
336.507	5.37
336.879	5.64
337.25	5.52
337.622	5.21
337.993	5.29
338.365	5.35
338.736	4.84
339.108	5.13
339.479	5.04
339.851	5.89
340.222	5.16
340.593	5.39
340.964	5.19
341.336	5.46
341.707	5.48
342.078	5.54
342.449	5.58
342.82	4.91
343.191	5.35
343.562	5.36
343.933	5.5
344.303	5.48
344.674	5.96
345.045	5.22
345.416	5.56
345.786	5.41
346.157	5.85
346.527	5.14
346.898	5.95
347.268	5.84
347.639	5.26
348.009	5.39
348.38	5.69
348.75	5.51
349.12	5.83
349.49	5.68
349.861	5.65
350.231	5.49
350.601	5.79
350.971	5.41
351.341	5.54
351.711	5.58
352.081	5.68
352.45	5.89
352.82	6.01
353.19	5.64
353.56	5.38
353.929	5.58
354.299	5.64
354.669	5.59
355.038	5.81
355.408	5.78
355.777	5.42
356.147	5.64
356.516	5.55
356.885	5.69
357.254	5.92
357.624	6.09
357.993	5.59
358.362	5.53
358.731	5.43
359.1	5.56
359.469	5.8
359.838	6.04
360.207	5.93
360.576	5.56
360.945	6.08
361.314	6.04
361.682	5.84
362.051	5.97
362.42	5.84
362.788	5.94
363.157	6.02
363.525	5.94
363.894	5.96
364.262	6.05
364.631	6.11
364.999	5.78
365.367	5.68
365.735	5.89
366.104	5.98
366.472	5.95
366.84	5.78
367.208	5.97
367.576	6.12
367.944	5.88
368.312	6.04
368.68	5.84
369.048	6.13
369.416	6.41
369.783	6.3
370.151	6.21
370.519	5.92
370.886	6.44
371.254	6.11
371.621	6.05
371.989	6.24
372.356	5.76
372.724	6.02
373.091	6.09
373.458	6.07
373.826	6.23
374.193	6.61
374.56	6.15
374.927	6.12
375.294	6.26
375.661	6.07
376.028	6.35
376.395	6.04
376.762	6.14
377.129	6.37
377.496	5.98
377.863	6.07
378.229	6.34
378.596	6.25
378.963	6.27
379.329	6.06
379.696	6.22
380.062	6.53
380.429	5.85
380.795	6.66
381.161	6.32
381.528	6.26
381.894	5.96
382.26	6.36
382.626	6.42
382.993	6.35
383.359	6.41
383.725	6.25
384.091	6.39
384.457	6.14
384.823	6.06
385.188	6.3
385.554	6.27
385.92	6.57
386.286	6.27
386.651	6.48
387.017	6.25
387.383	6.55
387.748	6.32
388.114	6.43
388.479	6.41
388.845	6.27
389.21	6.07
389.575	6.5
389.94	6.52
390.306	6.38
390.671	6.57
391.036	6.45
391.401	6.21
391.766	6.67
392.131	6.44
392.496	6.78
392.861	6.37
393.226	6.41
393.591	6.43
393.956	6.48
394.32	6.33
394.685	6.53
395.05	6.56
395.414	6.71
395.779	6.41
396.143	6.46
396.508	6.53
396.872	6.54
397.236	6.46
397.601	6.62
397.965	6.49
398.329	6.65
398.694	6.61
399.058	6.58
399.422	6.7
399.786	6.72
400.15	6.65
400.514	6.69
400.878	6.35
401.242	6.53
401.605	6.74
401.969	6.65
402.333	6.77
402.697	6.43
403.06	6.54
403.424	6.69
403.787	6.6
404.151	6.72
404.514	6.81
404.878	6.75
405.241	6.57
405.604	6.69
405.968	6.86
406.331	6.58
406.694	6.47
407.057	6.57
407.42	6.6
407.783	6.62
408.146	6.73
408.509	7.08
408.872	6.53
409.235	6.6
409.598	6.65
409.961	6.44
410.323	6.78
410.686	6.64
411.049	6.59
411.411	6.83
411.774	6.73
412.136	6.57
412.499	6.67
412.861	6.72
413.223	6.76
413.586	6.75
413.948	6.73
414.31	6.64
414.672	6.67
415.035	6.59
415.397	6.86
415.759	6.68
416.121	6.43
416.483	6.91
416.845	6.81
417.206	6.63
417.568	6.77
417.93	6.66
418.292	6.65
418.653	6.41
419.015	6.58
419.377	6.75
419.738	6.54
420.1	6.71
420.461	6.61
420.822	6.73
421.184	6.5
421.545	6.68
421.906	6.71
422.267	6.6
422.629	6.54
422.99	6.59
423.351	6.63
423.712	6.67
424.073	6.68
424.434	6.57
424.795	6.66
425.155	6.7
425.516	6.51
425.877	6.59
426.238	6.55
426.598	6.69
426.959	6.63
427.32	6.73
427.68	6.58
428.041	6.69
428.401	6.8
428.761	6.72
429.122	6.71
429.482	6.6
429.842	6.61
430.202	6.94
430.563	6.82
430.923	6.72
431.283	6.98
431.643	6.85
432.003	6.66
432.363	6.83
432.722	6.81
433.082	6.8
433.442	6.97
433.802	6.64
434.161	6.56
434.521	6.8
434.881	6.81
435.24	6.59
435.6	6.86
435.959	6.68
436.319	6.8
436.678	6.59
437.037	6.88
437.396	6.88
437.756	6.92
438.115	6.64
438.474	6.65
438.833	6.6
439.192	6.76
439.551	6.51
439.91	6.68
440.269	6.82
440.628	6.73
440.987	6.75
441.345	6.84
441.704	6.71
442.063	6.63
442.421	6.81
442.78	6.77
443.138	6.75
443.497	6.73
443.855	6.82
444.214	6.81
444.572	6.71
444.93	6.78
445.288	6.62
445.647	6.78
446.005	6.9
446.363	6.82
446.721	6.71
447.079	6.69
447.437	6.67
447.795	6.73
448.153	6.69
448.51	6.63
448.868	6.75
449.226	6.6
449.584	6.72
449.941	6.71
450.299	6.73
450.656	6.67
451.014	6.76
451.371	6.81
451.729	6.8
452.086	6.85
452.443	6.87
452.801	6.82
453.158	6.97
453.515	6.73
453.872	6.65
454.229	6.75
454.586	6.69
454.943	6.59
455.3	6.76
455.657	6.8
456.014	6.83
456.371	6.87
456.727	6.93
457.084	6.71
457.441	6.93
457.797	6.83
458.154	6.86
458.51	6.91
458.867	6.84
459.223	6.86
459.58	6.81
459.936	6.75
460.292	6.73
460.648	6.78
461.005	6.71
461.361	6.67
461.717	6.53
462.073	6.63
462.429	6.73
462.785	6.68
463.141	6.86
463.496	6.78
463.852	6.88
464.208	6.96
464.564	6.78
464.919	6.95
465.275	6.87
465.631	6.7
465.986	6.74
466.342	6.71
466.697	6.89
467.052	6.79
467.408	6.88
467.763	6.62
468.118	6.79
468.473	6.91
468.829	6.73
469.184	6.82
469.539	6.74
469.894	6.85
470.249	6.89
470.603	7.02
470.958	7.02
471.313	6.8
471.668	6.92
472.023	6.67
472.377	6.96
472.732	6.77
473.086	7.01
473.441	6.84
473.795	6.75
474.15	6.74
474.504	6.91
474.859	6.76
475.213	6.96
475.567	7.02
475.921	6.8
476.275	6.75
476.63	6.77
476.984	6.64
477.338	6.73
477.692	6.94
478.045	6.9
478.399	6.85
478.753	6.91
479.107	6.82
479.461	6.81
479.814	6.76
480.168	6.82
480.521	6.7
480.875	6.69
481.228	6.71
481.582	6.91
481.935	6.72
482.289	6.65
482.642	6.79
482.995	6.78
483.348	6.76
483.701	6.6
484.055	6.56
484.408	6.65
484.761	6.46
485.114	6.34
485.466	6.29
485.819	6.26
486.172	6.31
486.525	6.39
486.878	6.49
487.23	6.56
487.583	6.62
487.936	6.65
488.288	6.5
488.641	6.44
488.993	6.4
489.345	6.35
489.698	6.36
490.05	6.37
490.402	6.45
490.754	6.51
491.107	6.53
491.459	6.7
491.811	6.68
492.163	6.61
492.515	6.54
492.866	6.49
493.218	6.37
493.57	6.42
493.922	6.47
494.274	6.51
494.625	6.65
494.977	6.69
495.328	6.67
495.68	6.75
496.031	6.79
496.383	6.69
496.734	6.78
497.086	6.68
497.437	6.78
497.788	6.68
498.139	6.6
498.49	6.58
498.842	6.61
499.193	6.56
499.544	6.71
499.894	6.58
500.245	6.58
500.596	6.67
500.947	6.78
501.298	6.68
501.648	6.75
501.999	6.61
502.35	6.67
502.7	6.72
503.051	6.68
503.401	6.81
503.752	6.69
504.102	6.7
504.452	6.66
504.803	6.75
505.153	6.6
505.503	6.66
505.853	6.65
506.203	6.71
506.553	6.77
506.903	6.73
507.253	6.65
507.603	6.66
507.953	6.7
508.303	6.55
508.652	6.65
509.002	6.72
509.352	6.71
509.701	6.58
510.051	6.68
510.4	6.48
510.75	6.62
511.099	6.62
511.449	6.58
511.798	6.59
512.147	6.56
512.496	6.71
512.846	6.63
513.195	6.6
513.544	6.64
513.893	6.61
514.242	6.68
514.591	6.55
514.939	6.63
515.288	6.52
515.637	6.55
515.986	6.54
516.334	6.7
516.683	6.73
517.032	6.61
517.38	6.49
517.729	6.64
518.077	6.61
518.426	6.53
518.774	6.5
519.122	6.55
519.47	6.54
519.819	6.58
520.167	6.51
520.515	6.51
520.863	6.49
521.211	6.5
521.559	6.49
521.907	6.59
522.255	6.58
522.602	6.58
522.95	6.54
523.298	6.57
523.645	6.61
523.993	6.57
524.341	6.68
524.688	6.57
525.036	6.59
525.383	6.56
525.73	6.45
526.078	6.58
526.425	6.47
526.772	6.42
527.119	6.45
527.466	6.35
527.814	6.3
528.161	6.4
528.508	6.44
528.854	6.3
529.201	6.32
529.548	6.34
529.895	6.16
530.242	6.12
530.588	6.08
530.935	6.18
531.282	6.21
531.628	6.36
531.975	6.39
532.321	6.38
532.667	6.42
533.014	6.46
533.36	6.44
533.706	6.39
534.052	6.42
534.399	6.3
534.745	6.15
535.091	6.28
535.437	6.33
535.783	6.29
536.129	6.34
536.474	6.4
536.82	6.49
537.166	6.49
537.512	6.46
537.857	6.45
538.203	6.32
538.549	6.28
538.894	6.3
539.239	6.35
539.585	6.38
539.93	6.51
540.276	6.42
540.621	6.41
540.966	6.39
541.311	6.34
541.656	6.39
542.001	6.36
542.346	6.33
542.691	6.29
543.036	6.07
543.381	6.18
543.726	6.13
544.071	6.18
544.415	6.31
544.76	6.23
545.105	6.23
545.449	6.4
545.794	6.34
546.138	6.33
546.483	6.36
546.827	6.4
547.171	6.34
547.516	6.4
547.86	6.5
548.204	6.28
548.548	6.24
548.892	6.32
549.236	6.35
549.58	6.27
549.924	6.34
550.268	6.47
550.612	6.47
550.956	6.61
551.3	6.44
551.643	6.5
551.987	6.52
552.33	6.62
552.674	6.34
553.017	6.63
553.361	6.41
553.704	6.29
554.048	6.39
554.391	6.45
554.734	6.28
555.077	6.29
555.42	6.45
555.764	6.36
556.107	6.46
556.45	6.37
556.793	6.25
557.135	6.46
557.478	6.38
557.821	6.43
558.164	6.32
558.507	6.32
558.849	6.25
559.192	6.32
559.534	6.43
559.877	6.38
560.219	6.04
560.562	6.09
560.904	6.23
561.246	6.24
561.589	6.38
561.931	6.23
562.273	6.3
562.615	6.25
562.957	6.54
563.299	6.19
563.641	6.21
563.983	6.31
564.325	6.54
564.667	6.33
565.008	6.47
565.35	6.27
565.692	6.46
566.033	6.17
566.375	6.05
566.716	6.29
567.058	6.11
567.399	6.14
567.741	6.12
568.082	6.26
568.423	6.16
568.764	6.29
569.105	6.27
569.447	6.22
569.788	6.27
570.129	6.36
570.47	6.21
570.811	6.23
571.151	6.31
571.492	6.49
571.833	6.12
572.174	6.09
572.514	6.35
572.855	6.16
573.195	6.14
573.536	6.14
573.876	6.21
574.217	6.2
574.557	6
574.898	6.08
575.238	6.29
575.578	6.35
575.918	6.14
576.258	6.13
576.598	6.07
576.938	6.24
577.278	6.26
577.618	6.16
577.958	6.13
578.298	6.14
578.638	6.2
578.977	6.31
579.317	6.03
579.657	6.08
579.996	6.03
580.336	6.11
580.675	6.22
581.014	6.13
581.354	6.01
581.693	5.9
582.032	6.04
582.372	6.12
582.711	6.23
583.05	6.07
583.389	5.75
583.728	6.14
584.067	6.09
584.406	6.03
584.745	6.03
585.083	6.12
585.422	6.02
585.761	6.22
586.1	6.22
586.438	6.24
586.777	6.32
587.115	5.88
587.454	6.25
587.792	6.16
588.13	6.09
588.469	6.25
588.807	6.13
589.145	6.23
589.483	5.98
589.821	6.19
590.159	6.05
590.497	6.19
590.835	6.05
591.173	6.08
591.511	6.01
591.849	5.88
592.187	6.3
592.524	6.05
592.862	6.02
593.2	6.14
593.537	6.21
593.875	5.97
594.212	6.06
594.55	5.93
594.887	6.11
595.224	6.15
595.561	6.07
595.899	6.13
596.236	6.11
596.573	5.86
596.91	5.91
597.247	6.06
597.584	6.1
597.921	5.95
598.258	5.86
598.594	5.94
598.931	5.88
599.268	5.79
599.604	6.13
599.941	5.87
600.277	6.05
600.614	6.01
600.95	5.98
601.287	5.96
601.623	6.08
601.959	5.9
602.296	5.97
602.632	5.8
602.968	5.95
603.304	6.16
603.64	5.87
603.976	5.82
604.312	5.82
604.648	6.07
604.984	6
605.319	5.78
605.655	6.04
605.991	6.05
606.326	5.79
606.662	5.88
606.998	5.85
607.333	5.95
607.668	5.84
608.004	5.83
608.339	5.78
608.674	6.25
609.01	5.92
609.345	6.13
609.68	5.94
610.015	6.17
610.35	5.96
610.685	5.83
611.02	6.03
611.355	5.95
611.689	5.85
612.024	6.14
612.359	5.8
612.694	5.96
613.028	5.8
613.363	6.1
613.697	5.86
614.032	6.13
614.366	5.91
614.7	6.07
615.035	5.8
615.369	6.25
615.703	5.85
616.037	6.01
616.371	5.79
616.705	6.16
617.039	6.34
617.373	6.04
617.707	5.84
618.041	6.07
618.375	5.84
618.709	6.16
619.042	6.34
619.376	5.97
619.71	5.7
620.043	6.08
620.377	6.33
620.71	6.24
621.043	5.94
621.377	6.21
621.71	6.3
622.043	6.35
622.376	6.07
622.709	5.99
623.043	5.77
623.376	5.73
623.709	6.05
624.041	5.77
624.374	6.32
624.707	5.73
625.04	6.04
625.373	6.29
625.705	5.58
626.038	5.34
626.37	5.77
626.703	6.23
627.035	6.03
627.368	5.76
627.7	5.84
628.032	5.67
628.365	5.97
628.697	5.73
629.029	5.81
629.361	5.95
629.693	5.91
630.025	5.87
630.357	5.77
630.689	5.67
631.021	5.88
631.353	5.62
631.684	5.59
632.016	5.76
632.348	6.31
632.679	5.9
633.011	5.75
633.342	5.92
633.674	6.05
634.005	5.8
634.336	5.64
634.668	6.07
634.999	5.87
635.33	5.69
635.661	5.98
635.992	5.85
636.323	6.14
636.654	5.74
636.985	5.83
637.316	5.76
637.647	5.78
637.977	5.65
638.308	5.75
638.639	5.63
638.969	5.87
639.3	5.58
639.63	6.08
639.961	6.01
640.291	5.61
640.622	5.75
640.952	5.69
641.282	5.57
641.612	5.81
641.943	5.65
642.273	5.86
642.603	6.05
642.933	5.63
643.263	5.85
643.592	5.75
643.922	5.59
644.252	5.81
644.582	6.1
644.911	6.16
645.241	6.11
645.571	5.87
645.9	5.8
646.23	5.61
646.559	5.62
646.888	5.5
647.218	5.82
647.547	5.67
647.876	5.83
648.205	5.9
648.534	5.91
648.863	5.78
649.192	5.96
649.521	5.62
649.85	5.74
650.179	6.47
650.508	5.8
650.837	5.34
651.165	6.03
651.494	5.99
651.822	5.89
652.151	6.01
652.479	6.22
652.808	5.54
653.136	6.3
653.465	5.58
653.793	5.58
654.121	5.95
654.449	6.05
654.777	5.83
655.105	5.59
655.433	5.91
655.761	5.72
656.089	5.72
656.417	5.76
656.745	5.74
657.073	6.27
657.4	5.63
657.728	5.3
658.056	5.17
658.383	5.62
658.711	5.97
659.038	5.52
659.365	5.76
659.693	5.25
660.02	5.64
660.347	5.82
660.674	5.61
661.001	5.56
661.329	6.15
661.656	5.86
661.982	6.06
662.309	6.37
662.636	5.9
662.963	5.69
663.29	5.68
663.616	5.89
663.943	5.84
664.27	5.86
664.596	5.86
664.923	5.84
665.249	5.83
665.576	5.77
665.902	6.03
666.228	5.96
666.554	5.8
666.881	5.72
667.207	6.32
667.533	6.36
667.859	5.72
668.185	5.76
668.511	5.85
668.837	6.4
669.162	5.66
669.488	5.66
669.814	6.48
670.139	5.94
670.465	5.31
670.791	5.22
671.116	6.22
671.442	6.25
671.767	5.44
672.092	5.76
672.418	5.7
672.743	5.34
673.068	5.5
673.393	5.9
673.718	6.05
674.043	6.17
674.368	5.96
674.693	5.57
675.018	6.41
675.343	6.47
675.667	5.74
675.992	5.96
676.317	6.04
676.641	5.86
676.966	6.06
677.29	6.23
677.615	5.51
677.939	5.92
678.264	6.19
678.588	6.48
678.912	5.81
679.236	6.45
679.56	5.26
679.885	6.25
680.209	6.33
680.532	6.07
680.856	5.78
681.18	5.58
681.504	6.83
681.828	6.4
682.152	6.33
682.475	6.03
682.799	5.91
683.122	5.8
683.446	5.97
683.769	5.97
684.093	5.34
684.416	6.21
684.739	5.31
685.062	6.13
685.386	5.58
685.709	6
686.032	6.19
686.355	5.52
686.678	5.84
687.001	5.88
687.324	5.4
687.646	5.57
687.969	5.32
688.292	5.33
688.614	5.84
688.937	6.51
689.26	6.57
689.582	6.08
689.904	5.88
690.227	6.45
690.549	6.31
690.871	6.27
691.194	5.2
691.516	6.2
691.838	6.4
692.16	5.93
