Data from 0018_forehead_Reflection__3__95.txt Node

Date: Mon Oct 17 15:11:34 CDT 2022
User: ToomeyLab
Spectrometer: FLMS14357
Trigger mode: 0
Integration Time (sec): 1.000000E-2
Scans to average: 100
Electric dark correction enabled: true
Nonlinearity correction enabled: false
Boxcar width: 0
XAxis mode: Wavelengths
Number of Pixels in Spectrum: 2048
>>>>>Begin Spectral Data<<<<<
189.047	-468.46
189.435	-468.46
189.823	-468.46
190.211	395.43
190.599	239.42
190.987	-10.62
191.375	70.55
191.763	290.33
192.151	533.15
192.538	-236.7
192.926	6.71
193.314	839.8
193.702	81.84
194.089	47.55
194.477	184.71
194.864	690.61
195.252	512.45
195.639	137.37
196.027	164.43
196.414	6.37
196.801	53.92
197.189	-52.54
197.576	65.78
197.963	312.92
198.351	-922.73
198.738	-17.74
199.125	-5.53
199.512	-83.58
199.899	-1.12
200.286	59.09
200.673	67.16
201.06	-35.37
201.447	27.08
201.833	58.87
202.22	35.44
202.607	-23.95
202.994	36.66
203.38	14.58
203.767	-7.82
204.154	28.6
204.54	-22.12
204.927	-10.62
205.313	-23.75
205.699	26.01
206.086	-38.09
206.472	16.2
206.858	5.37
207.245	14.5
207.631	23.87
208.017	13.6
208.403	17.23
208.789	33.73
209.175	20.15
209.561	-52.71
209.947	-21.84
210.333	3.98
210.719	36.99
211.105	38.23
211.491	26.18
211.876	-22.69
212.262	34.73
212.648	3.25
213.034	-25.05
213.419	19.71
213.805	-11.95
214.19	33.84
214.576	-0.1
214.961	-19.25
215.346	7.59
215.732	-2.95
216.117	-6.38
216.502	21.24
216.888	38.46
217.273	21.21
217.658	19.14
218.043	22.41
218.428	-23.52
218.813	37.39
219.198	20.22
219.583	-19.71
219.968	0.3
220.353	-5.18
220.738	-4.1
221.122	19.85
221.507	-12.08
221.892	2.3
222.276	-19.09
222.661	-0.55
223.046	2.79
223.43	19.75
223.815	-6.33
224.199	12.23
224.583	0.13
224.968	-0.67
225.352	-12.54
225.736	6.49
226.121	2.29
226.505	-0.26
226.889	-0.27
227.273	4.01
227.657	10.69
228.041	5.21
228.425	0.4
228.809	5.57
229.193	3.05
229.577	4.4
229.961	4.47
230.344	2.24
230.728	2.97
231.112	3.12
231.495	2.41
231.879	4.71
232.263	4.09
232.646	3.68
233.03	3.35
233.413	1.03
233.797	2.68
234.18	5.97
234.563	1.58
234.946	5.39
235.33	3.07
235.713	1.66
236.096	3.53
236.479	3.18
236.862	2.24
237.245	3.47
237.628	4.2
238.011	3.07
238.394	5.21
238.777	4.63
239.16	4.25
239.543	3.51
239.925	3.83
240.308	2.88
240.691	1.35
241.073	3.97
241.456	2.68
241.838	3.45
242.221	3.19
242.603	4.19
242.986	2.98
243.368	4.13
243.75	2.98
244.133	3.28
244.515	3.09
244.897	3.38
245.279	3.68
245.661	3.81
246.043	3.99
246.425	1.89
246.807	4.21
247.189	3.66
247.571	3.5
247.953	3.53
248.335	3.56
248.717	3.62
249.098	3.53
249.48	3.35
249.862	3.27
250.243	3.31
250.625	3.81
251.006	3.28
251.388	3.69
251.769	4.64
252.151	3.27
252.532	2.49
252.913	3.76
253.295	3.24
253.676	3.81
254.057	4.2
254.438	3.81
254.819	4.32
255.2	3.98
255.581	4.25
255.962	4.18
256.343	3.18
256.724	3.57
257.105	4.07
257.486	3.54
257.867	3.51
258.247	2.97
258.628	3.63
259.009	4.18
259.389	4.09
259.77	4.82
260.15	4.08
260.531	3.12
260.911	3.46
261.292	3.63
261.672	3.46
262.052	3.54
262.432	3.65
262.813	3.23
263.193	3.86
263.573	4.08
263.953	3.31
264.333	3.87
264.713	3.51
265.093	3.4
265.473	3.69
265.853	4.69
266.233	4.05
266.612	3.84
266.992	4.13
267.372	3.97
267.752	3.94
268.131	3.82
268.511	3.87
268.89	4.47
269.27	3.72
269.649	3.49
270.029	3.76
270.408	3.74
270.787	3.6
271.167	3.78
271.546	3.84
271.925	3.25
272.304	4.26
272.683	3.84
273.062	3.44
273.441	3.48
273.82	3.99
274.199	3.68
274.578	3.61
274.957	3.46
275.336	3.72
275.715	3.5
276.093	3.95
276.472	3.26
276.851	4.37
277.229	2.77
277.608	3.55
277.986	3.65
278.365	3.58
278.743	3.72
279.122	3.27
279.5	3.47
279.878	3.87
280.257	3.92
280.635	3.5
281.013	3.99
281.391	3.88
281.769	3.44
282.147	3.97
282.525	3.55
282.903	3.28
283.281	3.49
283.659	3.74
284.037	3.23
284.415	4.11
284.792	3.51
285.17	3.26
285.548	3.09
285.925	3.86
286.303	3.64
286.68	3.88
287.058	3.74
287.435	3.82
287.813	3.8
288.19	3.5
288.567	3.99
288.945	3.84
289.322	4.16
289.699	3.71
290.076	3.91
290.453	3.73
290.83	4.03
291.207	4.15
291.584	4.06
291.961	3.75
292.338	4.18
292.715	4.11
293.092	4.14
293.469	4.16
293.845	4.11
294.222	4.38
294.599	4.73
294.975	4.27
295.352	4.12
295.728	4.37
296.105	4.37
296.481	4.41
296.858	5.09
297.234	4.55
297.61	4.6
297.986	4.79
298.363	4.49
298.739	5.01
299.115	4.65
299.491	4.61
299.867	4.69
300.243	4.97
300.619	4.46
300.995	4.77
301.371	5.14
301.746	5.21
302.122	5.17
302.498	5.07
302.874	5.61
303.249	5.47
303.625	5.72
304	5.27
304.376	5.79
304.751	5.97
305.127	5.42
305.502	5.52
305.878	5.49
306.253	5.52
306.628	5.68
307.003	6
307.378	6.1
307.754	5.92
308.129	6.1
308.504	5.91
308.879	6.48
309.254	6.2
309.629	6.22
310.003	6.85
310.378	6.31
310.753	6.26
311.128	6.51
311.502	6.31
311.877	6.89
312.252	6.6
312.626	6.52
313.001	6.46
313.375	6.45
313.75	6.94
314.124	6.77
314.498	7.03
314.873	6.83
315.247	6.91
315.621	7.51
315.995	6.98
316.369	6.9
316.743	7.23
317.117	7.63
317.491	7.61
317.865	8.22
318.239	7.88
318.613	7.96
318.987	7.29
319.361	7.54
319.734	7.82
320.108	7.6
320.482	8.29
320.855	7.95
321.229	8.39
321.602	8.39
321.976	7.97
322.349	7.94
322.723	8.21
323.096	8.59
323.469	8.69
323.843	8.32
324.216	8.05
324.589	8.38
324.962	8.41
325.335	8.43
325.708	9.23
326.081	8.81
326.454	8.82
326.827	9.04
327.2	8.79
327.573	9
327.945	8.9
328.318	9.27
328.691	8.96
329.063	9.05
329.436	9.23
329.809	9.67
330.181	9.33
330.553	9.2
330.926	9.44
331.298	9.68
331.671	10.12
332.043	9.81
332.415	9.81
332.787	10
333.159	9.49
333.532	9.52
333.904	9.56
334.276	9.99
334.648	10.13
335.02	9.88
335.391	10.52
335.763	9.92
336.135	9.85
336.507	10.25
336.879	10.32
337.25	10.55
337.622	10.67
337.993	10.48
338.365	10.63
338.736	10.31
339.108	10.5
339.479	10.55
339.851	11.03
340.222	10.65
340.593	10.88
340.964	10.98
341.336	10.78
341.707	10.68
342.078	11.63
342.449	10.95
342.82	10.96
343.191	11.08
343.562	10.97
343.933	11.42
344.303	10.9
344.674	11.95
345.045	11.58
345.416	11.35
345.786	11.78
346.157	11.21
346.527	11.64
346.898	11.7
347.268	11.89
347.639	11.29
348.009	11.49
348.38	11.79
348.75	11.88
349.12	12.1
349.49	11.86
349.861	12.07
350.231	11.88
350.601	12.2
350.971	12.05
351.341	11.81
351.711	12.38
352.081	11.98
352.45	12.39
352.82	12.4
353.19	12.57
353.56	12.3
353.929	12.92
354.299	12.35
354.669	12.65
355.038	12.77
355.408	12.81
355.777	12.47
356.147	12.59
356.516	12.37
356.885	12.97
357.254	12.88
357.624	13.07
357.993	12.99
358.362	13.02
358.731	12.66
359.1	12.75
359.469	13.17
359.838	13.18
360.207	13.32
360.576	13.13
360.945	13.17
361.314	13.64
361.682	13.45
362.051	13.54
362.42	13.7
362.788	13.75
363.157	13.72
363.525	13.58
363.894	13.8
364.262	13.85
364.631	13.6
364.999	13.68
365.367	13.98
365.735	13.86
366.104	13.91
366.472	14.06
366.84	13.82
367.208	14.23
367.576	14.36
367.944	14.5
368.312	14.35
368.68	14.53
369.048	14.17
369.416	14.48
369.783	14.46
370.151	14.37
370.519	14.73
370.886	14.44
371.254	14.55
371.621	14.58
371.989	15.25
372.356	15.11
372.724	15.03
373.091	14.83
373.458	14.78
373.826	14.9
374.193	14.86
374.56	14.87
374.927	15.09
375.294	15.59
375.661	15.47
376.028	15.63
376.395	15.15
376.762	15.36
377.129	15.39
377.496	15.24
377.863	15.39
378.229	15.5
378.596	15.53
378.963	15.75
379.329	15.57
379.696	15.84
380.062	15.94
380.429	15.62
380.795	16.05
381.161	16.04
381.528	15.57
381.894	15.74
382.26	15.8
382.626	16.4
382.993	16.22
383.359	16.34
383.725	16.36
384.091	16.3
384.457	16.54
384.823	16.34
385.188	16.34
385.554	16.49
385.92	16.72
386.286	16.95
386.651	16.62
387.017	16.71
387.383	16.51
387.748	16.58
388.114	16.82
388.479	17.13
388.845	17.05
389.21	16.44
389.575	17.06
389.94	17.35
390.306	17.18
390.671	17.48
391.036	17.62
391.401	17.19
391.766	17.25
392.131	17.26
392.496	17.55
392.861	17.27
393.226	17.51
393.591	17.23
393.956	17.3
394.32	17.59
394.685	17.58
395.05	17.48
395.414	17.63
395.779	17.6
396.143	17.64
396.508	17.73
396.872	17.74
397.236	17.73
397.601	17.91
397.965	17.71
398.329	18.1
398.694	18.12
399.058	17.93
399.422	18.19
399.786	18.45
400.15	18.1
400.514	18.17
400.878	18.37
401.242	18.57
401.605	18.78
401.969	18.51
402.333	18.57
402.697	18.54
403.06	18.49
403.424	18.82
403.787	18.6
404.151	18.75
404.514	18.59
404.878	18.85
405.241	18.91
405.604	18.87
405.968	19.09
406.331	18.94
406.694	19
407.057	19.08
407.42	18.98
407.783	19.26
408.146	19.45
408.509	19.5
408.872	19.11
409.235	19.39
409.598	19.44
409.961	19.08
410.323	19.6
410.686	19.63
411.049	19.23
411.411	19.63
411.774	19.69
412.136	19.49
412.499	19.94
412.861	19.8
413.223	19.74
413.586	19.72
413.948	19.91
414.31	19.9
414.672	19.88
415.035	19.95
415.397	20.21
415.759	19.93
416.121	19.97
416.483	20.34
416.845	20.29
417.206	20.17
417.568	20.2
417.93	20.16
418.292	20.13
418.653	20.09
419.015	20.3
419.377	20.23
419.738	20.1
420.1	20.47
420.461	20.4
420.822	20.35
421.184	20.24
421.545	20.29
421.906	20.27
422.267	20.26
422.629	20.19
422.99	20.22
423.351	20.39
423.712	20.47
424.073	20.53
424.434	20.65
424.795	20.77
425.155	20.72
425.516	20.54
425.877	20.63
426.238	20.69
426.598	20.76
426.959	20.65
427.32	21.1
427.68	21.02
428.041	21.07
428.401	21.16
428.761	21.47
429.122	21.61
429.482	21.26
429.842	21.51
430.202	21.56
430.563	21.56
430.923	21.62
431.283	21.76
431.643	21.6
432.003	21.75
432.363	21.96
432.722	21.86
433.082	21.87
433.442	21.88
433.802	21.88
434.161	21.82
434.521	22.01
434.881	21.84
435.24	21.92
435.6	22.01
435.959	22
436.319	22.15
436.678	22.07
437.037	22.39
437.396	22.34
437.756	22.57
438.115	22.33
438.474	22.39
438.833	22.19
439.192	22.3
439.551	22.43
439.91	22.48
440.269	22.62
440.628	22.55
440.987	22.49
441.345	22.51
441.704	22.65
442.063	22.46
442.421	22.47
442.78	22.38
443.138	22.7
443.497	22.8
443.855	22.94
444.214	22.84
444.572	22.91
444.93	23.1
445.288	22.93
445.647	23.05
446.005	23.16
446.363	23.34
446.721	23.02
447.079	23.14
447.437	23.07
447.795	22.88
448.153	23.05
448.51	22.91
448.868	22.93
449.226	23.14
449.584	23.3
449.941	23.28
450.299	23.54
450.656	23.49
451.014	23.5
451.371	23.73
451.729	23.99
452.086	23.66
452.443	23.88
452.801	23.81
453.158	24.17
453.515	23.91
453.872	24.04
454.229	23.92
454.586	23.92
454.943	24.14
455.3	24.28
455.657	24.15
456.014	24.39
456.371	24.41
456.727	24.37
457.084	24.15
457.441	24.53
457.797	24.42
458.154	24.78
458.51	24.77
458.867	24.73
459.223	24.74
459.58	24.52
459.936	24.42
460.292	24.65
460.648	24.63
461.005	24.58
461.361	24.35
461.717	24.28
462.073	24.27
462.429	24.52
462.785	24.8
463.141	24.82
463.496	24.97
463.852	25.12
464.208	25.19
464.564	25.28
464.919	25.25
465.275	25.35
465.631	25.52
465.986	25.39
466.342	25.46
466.697	25.31
467.052	25.42
467.408	25.58
467.763	25.28
468.118	25.63
468.473	25.7
468.829	25.65
469.184	25.56
469.539	25.68
469.894	25.65
470.249	25.93
470.603	25.97
470.958	25.84
471.313	25.96
471.668	25.84
472.023	25.96
472.377	26.13
472.732	25.99
473.086	26.03
473.441	25.99
473.795	26.2
474.15	26.18
474.504	26.23
474.859	26.26
475.213	26.35
475.567	26.48
475.921	26.24
476.275	26.46
476.63	26.68
476.984	26.7
477.338	26.46
477.692	26.56
478.045	26.77
478.399	26.58
478.753	26.57
479.107	26.52
479.461	26.51
479.814	26.74
480.168	26.63
480.521	26.67
480.875	26.78
481.228	26.94
481.582	27.01
481.935	27.03
482.289	27.04
482.642	26.84
482.995	26.99
483.348	26.85
483.701	26.87
484.055	26.68
484.408	26.76
484.761	26.48
485.114	26.13
485.466	26.14
485.819	26.08
486.172	26.24
486.525	26.29
486.878	26.4
487.23	26.57
487.583	26.75
487.936	26.93
488.288	26.75
488.641	26.67
488.993	26.59
489.345	26.6
489.698	26.65
490.05	26.72
490.402	26.81
490.754	26.96
491.107	27.2
491.459	27.35
491.811	27.43
492.163	27.67
492.515	27.48
492.866	27.2
493.218	27.16
493.57	27.14
493.922	27.23
494.274	27.49
494.625	27.62
494.977	27.74
495.328	28
495.68	28.06
496.031	28.34
496.383	28.23
496.734	28.4
497.086	28.26
497.437	28.42
497.788	28.55
498.139	28.34
498.49	28.4
498.842	28.4
499.193	28.4
499.544	28.39
499.894	28.5
500.245	28.52
500.596	28.65
500.947	28.95
501.298	28.87
501.648	28.97
501.999	28.89
502.35	29.14
502.7	29.08
503.051	29.09
503.401	29.1
503.752	29.3
504.102	29.16
504.452	29.33
504.803	29.38
505.153	29.37
505.503	29.37
505.853	29.21
506.203	29.38
506.553	29.41
506.903	29.39
507.253	29.58
507.603	29.51
507.953	29.71
508.303	29.54
508.652	29.66
509.002	29.63
509.352	29.6
509.701	29.73
510.051	29.7
510.4	29.58
510.75	29.71
511.099	29.71
511.449	29.58
511.798	29.79
512.147	30.03
512.496	29.92
512.846	30.05
513.195	30.14
513.544	30.08
513.893	30.03
514.242	30.05
514.591	30.08
514.939	30.06
515.288	30.23
515.637	30.27
515.986	30.34
516.334	30.45
516.683	30.55
517.032	30.4
517.38	30.51
517.729	30.74
518.077	30.64
518.426	30.56
518.774	30.59
519.122	30.51
519.47	30.53
519.819	30.58
520.167	30.43
520.515	30.34
520.863	30.44
521.211	30.48
521.559	30.48
521.907	30.67
522.255	30.87
522.602	31
522.95	30.98
523.298	30.88
523.645	31.03
523.993	31.2
524.341	31.4
524.688	31.29
525.036	31.41
525.383	31.22
525.73	31.44
526.078	31.25
526.425	31.33
526.772	31.29
527.119	31.08
527.466	30.93
527.814	31.16
528.161	30.94
528.508	31.19
528.854	31.08
529.201	31.05
529.548	31.11
529.895	30.81
530.242	30.72
530.588	30.84
530.935	30.85
531.282	30.89
531.628	31.12
531.975	31.2
532.321	31.32
532.667	31.55
533.014	31.61
533.36	31.74
533.706	31.89
534.052	31.69
534.399	31.77
534.745	31.57
535.091	31.55
535.437	31.5
535.783	31.75
536.129	31.7
536.474	31.83
536.82	32.17
537.166	32.27
537.512	32.38
537.857	32.37
538.203	32.22
538.549	32.08
538.894	32.19
539.239	32.32
539.585	32.39
539.93	32.67
540.276	32.58
540.621	32.75
540.966	32.85
541.311	32.9
541.656	32.88
542.001	32.86
542.346	32.56
542.691	32.44
543.036	32.22
543.381	32.3
543.726	32.38
544.071	32.39
544.415	32.61
544.76	32.65
545.105	32.67
545.449	32.78
545.794	33.1
546.138	33.24
546.483	33.26
546.827	33.3
547.171	33.34
547.516	33.32
547.86	33.57
548.204	33.34
548.548	33.29
548.892	33.52
549.236	33.6
549.58	33.69
549.924	33.83
550.268	33.98
550.612	34
550.956	34
551.3	33.95
551.643	34.28
551.987	34.04
552.33	34.27
552.674	34.36
553.017	34.48
553.361	34.16
553.704	34.27
554.048	34.19
554.391	34.28
554.734	34.3
555.077	34.25
555.42	34.5
555.764	34.44
556.107	34.47
556.45	34.73
556.793	34.6
557.135	34.87
557.478	34.56
557.821	34.95
558.164	34.88
558.507	34.69
558.849	35.09
559.192	34.92
559.534	35.07
559.877	35.09
560.219	35.15
560.562	34.91
560.904	35.01
561.246	35.07
561.589	35.36
561.931	35.29
562.273	35.33
562.615	35.27
562.957	35.42
563.299	35.55
563.641	35.16
563.983	35.3
564.325	35.55
564.667	35.47
565.008	35.74
565.35	35.48
565.692	35.8
566.033	35.49
566.375	35.58
566.716	35.55
567.058	35.65
567.399	35.72
567.741	35.74
568.082	35.77
568.423	35.58
568.764	35.6
569.105	35.79
569.447	35.66
569.788	36.02
570.129	36.18
570.47	35.89
570.811	36.18
571.151	36.05
571.492	36.21
571.833	36.17
572.174	36.18
572.514	36.21
572.855	36.29
573.195	36.15
573.536	36.27
573.876	36.12
574.217	36.26
574.557	36.36
574.898	36.32
575.238	36.48
575.578	36.52
575.918	36.4
576.258	36.47
576.598	36.57
576.938	36.6
577.278	36.84
577.618	36.81
577.958	36.6
578.298	36.74
578.638	36.66
578.977	37
579.317	36.86
579.657	36.79
579.996	37
580.336	37.2
580.675	37.29
581.014	37.01
581.354	37.33
581.693	37.23
582.032	37.43
582.372	37.38
582.711	37.21
583.05	37.71
583.389	37.53
583.728	37.48
584.067	37.34
584.406	37.71
584.745	37.59
585.083	37.68
585.422	37.65
585.761	37.68
586.1	37.88
586.438	37.92
586.777	37.72
587.115	37.98
587.454	37.73
587.792	38.06
588.13	37.76
588.469	37.87
588.807	38.25
589.145	37.84
589.483	37.94
589.821	38.23
590.159	38.24
590.497	38.44
590.835	38.33
591.173	38.05
591.511	38.34
591.849	38.14
592.187	38.27
592.524	38.31
592.862	38.21
593.2	38.3
593.537	38.3
593.875	38.35
594.212	38.59
594.55	38.86
594.887	38.64
595.224	38.79
595.561	38.66
595.899	38.86
596.236	38.86
596.573	38.42
596.91	39.02
597.247	38.92
597.584	38.64
597.921	38.72
598.258	38.73
598.594	38.43
598.931	38.61
599.268	38.67
599.604	38.83
599.941	38.81
600.277	39
600.614	39.12
600.95	38.86
601.287	39.35
601.623	39.13
601.959	39.19
602.296	39.36
602.632	39.21
602.968	39.26
603.304	39.06
603.64	39.47
603.976	39.64
604.312	39.15
604.648	39.33
604.984	39.64
605.319	39.48
605.655	39.36
605.991	39.55
606.326	39.39
606.662	39.31
606.998	39.18
607.333	39.34
607.668	39.26
608.004	39.67
608.339	39.51
608.674	39.66
609.01	39.84
609.345	39.95
609.68	40
610.015	40.05
610.35	40.32
610.685	39.68
611.02	39.96
611.355	39.81
611.689	40.12
612.024	40.05
612.359	40.09
612.694	40.19
613.028	39.83
613.363	39.89
613.697	40.13
614.032	40.37
614.366	40.14
614.7	40.41
615.035	40.45
615.369	41.12
615.703	40.11
616.037	40.8
616.371	40.86
616.705	40.48
617.039	40.82
617.373	40.8
617.707	40.71
618.041	40.85
618.375	40.47
618.709	41.15
619.042	41.13
619.376	40.8
619.71	40.97
620.043	41.1
620.377	40.8
620.71	40.87
621.043	40.78
621.377	41.08
621.71	41.05
622.043	41.21
622.376	41.59
622.709	41.15
623.043	40.81
623.376	41.01
623.709	41.02
624.041	41.29
624.374	41.57
624.707	41.08
625.04	41.24
625.373	41.43
625.705	41.43
626.038	40.89
626.37	41.37
626.703	41.8
627.035	41.39
627.368	41.28
627.7	41.54
628.032	41.42
628.365	41.59
628.697	41.57
629.029	41.73
629.361	41.66
629.693	41.46
630.025	41.33
630.357	41.63
630.689	41.82
631.021	41.89
631.353	41.76
631.684	41.99
632.016	41.8
632.348	42.28
632.679	42.08
633.011	41.65
633.342	42.32
633.674	41.86
634.005	41.97
634.336	41.73
634.668	41.86
634.999	42.05
635.33	42.1
635.661	42.42
635.992	42.39
636.323	42.13
636.654	42.11
636.985	41.96
637.316	42.28
637.647	42.5
637.977	42.54
638.308	42.26
638.639	42.32
638.969	42.3
639.3	42.68
639.63	42.58
639.961	42.67
640.291	43.08
640.622	42.51
640.952	42.67
641.282	42.88
641.612	42.66
641.943	42.92
642.273	42.7
642.603	43.16
642.933	42.76
643.263	42.61
643.592	42.83
643.922	43.04
644.252	43.15
644.582	42.98
644.911	43.09
645.241	43.19
645.571	42.57
645.9	43.04
646.23	42.93
646.559	43.11
646.888	43.24
647.218	42.65
647.547	43.01
647.876	43.15
648.205	43.34
648.534	43.04
648.863	43.46
649.192	43.59
649.521	43.42
649.85	43.22
650.179	43.46
650.508	43.32
650.837	43.68
651.165	43.11
651.494	43.77
651.822	43.32
652.151	43.3
652.479	43.11
652.808	43.59
653.136	43.5
653.465	43.85
653.793	43.6
654.121	43.58
654.449	43.73
654.777	44.1
655.105	43.46
655.433	43.96
655.761	43.48
656.089	43.59
656.417	43.82
656.745	43.64
657.073	43.44
657.4	44.32
657.728	43.94
658.056	43.35
658.383	43.69
658.711	43.67
659.038	43.81
659.365	44.19
659.693	43.55
660.02	43.9
660.347	44.46
660.674	44.12
661.001	44.09
661.329	44.29
661.656	44.23
661.982	44.03
662.309	44.1
662.636	44.31
662.963	44.54
663.29	44.68
663.616	44.28
663.943	43.78
664.27	44.57
664.596	45.11
664.923	43.57
665.249	45.47
665.576	44.49
665.902	44.57
666.228	44.76
666.554	44.66
666.881	44.76
667.207	44.84
667.533	44.43
667.859	44.83
668.185	44.5
668.511	44.5
668.837	45.04
669.162	45.06
669.488	44.94
669.814	44.67
670.139	44.84
