Data from 0018_forehead_Reflection__4__96.txt Node

Date: Mon Oct 17 15:11:44 CDT 2022
User: ToomeyLab
Spectrometer: FLMS14357
Trigger mode: 0
Integration Time (sec): 1.000000E-2
Scans to average: 100
Electric dark correction enabled: true
Nonlinearity correction enabled: false
Boxcar width: 0
XAxis mode: Wavelengths
Number of Pixels in Spectrum: 2048
>>>>>Begin Spectral Data<<<<<
189.047	248.98
189.435	248.98
189.823	248.98
190.211	248.8
190.599	185.47
190.987	-20.98
191.375	-42.03
191.763	-489.43
192.151	353.37
192.538	-177.1
192.926	144.21
193.314	618.74
193.702	95.96
194.089	91.84
194.477	162.86
194.864	918.31
195.252	18.92
195.639	120.54
196.027	193.76
196.414	151.98
196.801	47.91
197.189	108.73
197.576	66.22
197.963	-972.54
198.351	-534.46
198.738	49.17
199.125	-47.43
199.512	-91.91
199.899	49.66
200.286	22.18
200.673	51.51
201.06	13.53
201.447	48.42
201.833	19.37
202.22	-4.2
202.607	-29.37
202.994	24.4
203.38	-2.89
203.767	26.18
204.154	33.96
204.54	6.17
204.927	44.46
205.313	32.7
205.699	9.76
206.086	20.85
206.472	52.51
206.858	21.7
207.245	7.99
207.631	16.05
208.017	1.6
208.403	34.91
208.789	38.09
209.175	-0.47
209.561	16.09
209.947	-64.38
210.333	44.54
210.719	49.61
211.105	29.68
211.491	22.13
211.876	30.22
212.262	35.97
212.648	30.92
213.034	-5.21
213.419	-13.56
213.805	-3.82
214.19	40.03
214.576	21.01
214.961	-6.74
215.346	24.44
215.732	-17.77
216.117	25.63
216.502	22.03
216.888	27.2
217.273	43.43
217.658	41.54
218.043	-10.24
218.428	21
218.813	42.93
219.198	29.92
219.583	-13.67
219.968	5.74
220.353	-12.15
220.738	-15.41
221.122	4.25
221.507	14.64
221.892	8.77
222.276	1.01
222.661	22.1
223.046	18.47
223.43	15.95
223.815	-8.67
224.199	12.58
224.583	4.07
224.968	-5.49
225.352	0.03
225.736	6.48
226.121	4.78
226.505	5.37
226.889	6.55
227.273	10.85
227.657	13.68
228.041	9.27
228.425	6.12
228.809	7.03
229.193	5.39
229.577	4.04
229.961	6.64
230.344	4.88
230.728	4.48
231.112	4.86
231.495	4.82
231.879	5.54
232.263	4.87
232.646	6.53
233.03	4.51
233.413	4.5
233.797	2.38
234.18	4.42
234.563	3.51
234.946	6.03
235.33	5.49
235.713	3.42
236.096	5.61
236.479	5.64
236.862	4.95
237.245	3.86
237.628	3.48
238.011	5.72
238.394	5.1
238.777	5.08
239.16	4.06
239.543	2.6
239.925	4.99
240.308	4.17
240.691	3.86
241.073	5.35
241.456	5.2
241.838	4.38
242.221	4.66
242.603	5.13
242.986	4.28
243.368	5.21
243.75	5.14
244.133	4.93
244.515	4.91
244.897	5.27
245.279	4.77
245.661	5.76
246.043	5.65
246.425	3.1
246.807	4.79
247.189	5.48
247.571	4.97
247.953	4.62
248.335	5.03
248.717	5.17
249.098	5.11
249.48	5.18
249.862	5.01
250.243	5.06
250.625	5.08
251.006	4.73
251.388	5.12
251.769	6.32
252.151	5.12
252.532	5.41
252.913	5.26
253.295	5.23
253.676	5.62
254.057	5.72
254.438	5.62
254.819	5.99
255.2	6.61
255.581	5.71
255.962	4.86
256.343	5.49
256.724	5.46
257.105	5.67
257.486	5.44
257.867	5.18
258.247	4.41
258.628	6.38
259.009	5.32
259.389	5.81
259.77	5.49
260.15	5.02
260.531	4.66
260.911	5.32
261.292	5.58
261.672	5.32
262.052	5.42
262.432	5.29
262.813	5.26
263.193	4.74
263.573	5.81
263.953	5.09
264.333	5.47
264.713	4.95
265.093	5.69
265.473	5.43
265.853	6.33
266.233	6.45
266.612	5.57
266.992	6.33
267.372	5.05
267.752	5.66
268.131	6.1
268.511	5.47
268.89	5.4
269.27	5.16
269.649	5.07
270.029	5.06
270.408	5.45
270.787	5.14
271.167	4.91
271.546	5.51
271.925	5.75
272.304	5.21
272.683	5.72
273.062	5.03
273.441	5.15
273.82	5.45
274.199	5.48
274.578	5.3
274.957	4.97
275.336	5.51
275.715	5.57
276.093	5.22
276.472	5.12
276.851	5.81
277.229	5.26
277.608	5.08
277.986	5.21
278.365	5.4
278.743	5.81
279.122	5.08
279.5	5.91
279.878	5.32
280.257	5.28
280.635	5.34
281.013	5.29
281.391	5.68
281.769	5.31
282.147	5.81
282.525	5.46
282.903	5.03
283.281	5.24
283.659	5.39
284.037	5.23
284.415	5.67
284.792	5.13
285.17	4.66
285.548	4.81
285.925	5.81
286.303	5.53
286.68	5.35
287.058	5.59
287.435	5.67
287.813	5.59
288.19	5.7
288.567	5.66
288.945	5.46
289.322	6.21
289.699	6.07
290.076	5.62
290.453	5.9
290.83	5.74
291.207	5.7
291.584	5.98
291.961	5.78
292.338	6.01
292.715	5.6
293.092	6.37
293.469	5.79
293.845	6.35
294.222	6.24
294.599	6.82
294.975	6.09
295.352	6.22
295.728	6.43
296.105	6.16
296.481	6.34
296.858	6.83
297.234	6.86
297.61	6.48
297.986	6.64
298.363	6.59
298.739	7.03
299.115	6.9
299.491	6.89
299.867	6.88
300.243	6.97
300.619	7.18
300.995	7.19
301.371	7.33
301.746	6.98
302.122	6.93
302.498	7.35
302.874	7.79
303.249	7.68
303.625	8.08
304	7.99
304.376	7.92
304.751	8.26
305.127	7.87
305.502	7.51
305.878	7.88
306.253	8.01
306.628	8.25
307.003	8.14
307.378	8.55
307.754	8.21
308.129	8.07
308.504	8.48
308.879	8.72
309.254	8.67
309.629	8.97
310.003	9.24
310.378	8.92
310.753	8.97
311.128	8.93
311.502	8.94
311.877	9.36
312.252	9.12
312.626	9.37
313.001	9.44
313.375	9.66
313.75	9.62
314.124	9.95
314.498	9.83
314.873	9.53
315.247	9.63
315.621	10.44
315.995	10.09
316.369	9.87
316.743	10.34
317.117	10.88
317.491	10.43
317.865	10.35
318.239	10.61
318.613	11.41
318.987	10.67
319.361	10.71
319.734	11.44
320.108	11.08
320.482	11.31
320.855	11.24
321.229	11.33
321.602	11.35
321.976	11.42
322.349	11.27
322.723	11.59
323.096	11.28
323.469	11.94
323.843	11.86
324.216	11.82
324.589	11.78
324.962	12.31
325.335	11.92
325.708	12.2
326.081	12.51
326.454	12.32
326.827	11.92
327.2	12.05
327.573	12.3
327.945	12.17
328.318	12.95
328.691	12.87
329.063	13.14
329.436	12.37
329.809	13.1
330.181	13.54
330.553	12.58
330.926	13.59
331.298	13.47
331.671	14.02
332.043	13.57
332.415	13.63
332.787	12.87
333.159	14.16
333.532	13.38
333.904	13.5
334.276	13.52
334.648	13.22
335.02	13.55
335.391	14.01
335.763	14.41
336.135	13.64
336.507	14.53
336.879	14.47
337.25	14.51
337.622	14.55
337.993	14.48
338.365	14.44
338.736	14.24
339.108	14.65
339.479	14.2
339.851	14.67
340.222	14.98
340.593	15.13
340.964	14.63
341.336	14.95
341.707	15.31
342.078	15.68
342.449	15.33
342.82	15.03
343.191	15.32
343.562	14.92
343.933	15.16
344.303	15.35
344.674	16.08
345.045	15.76
345.416	16.05
345.786	15.61
346.157	15.62
346.527	15.63
346.898	16.38
347.268	16.18
347.639	15.74
348.009	16.11
348.38	16.25
348.75	16.5
349.12	16.62
349.49	16.4
349.861	16.78
350.231	16.3
350.601	16.7
350.971	16.5
351.341	16.22
351.711	17.05
352.081	17.2
352.45	17.2
352.82	17.37
353.19	16.8
353.56	17.28
353.929	17.29
354.299	17.21
354.669	17.49
355.038	17.69
355.408	17.67
355.777	17.65
356.147	17.56
356.516	17.85
356.885	17.53
357.254	18.35
357.624	18.25
357.993	17.75
358.362	17.9
358.731	17.76
359.1	18.09
359.469	17.99
359.838	18.31
360.207	18.38
360.576	18
360.945	18.28
361.314	18.52
361.682	18.41
362.051	18.48
362.42	18.75
362.788	18.7
363.157	18.77
363.525	18.59
363.894	18.86
364.262	19
364.631	18.8
364.999	19.1
365.367	19.17
365.735	18.84
366.104	19.17
366.472	19.21
366.84	19.61
367.208	19.45
367.576	19.52
367.944	19.44
368.312	19.82
368.68	20.09
369.048	19.8
369.416	19.78
369.783	20.1
370.151	20.12
370.519	20.01
370.886	20.07
371.254	20.21
371.621	20.11
371.989	20.22
372.356	20.29
372.724	20.44
373.091	20.68
373.458	20.47
373.826	20.39
374.193	20.6
374.56	20.68
374.927	21.09
375.294	20.83
375.661	20.93
376.028	21.1
376.395	20.98
376.762	21.03
377.129	21.2
377.496	21.1
377.863	21.13
378.229	21.44
378.596	21.29
378.963	21.32
379.329	21.17
379.696	21.51
380.062	21.55
380.429	21.44
380.795	21.9
381.161	21.88
381.528	21.65
381.894	21.76
382.26	21.87
382.626	21.92
382.993	22.18
383.359	22.11
383.725	22.22
384.091	22.54
384.457	22.21
384.823	22.57
385.188	22.34
385.554	22.43
385.92	22.71
386.286	22.56
386.651	22.78
387.017	22.67
387.383	22.95
387.748	22.7
388.114	22.52
388.479	23.33
388.845	22.67
389.21	22.9
389.575	23.13
389.94	23.2
390.306	23.25
390.671	23.58
391.036	23.55
391.401	23.34
391.766	23.22
392.131	23.39
392.496	23.91
392.861	23.47
393.226	23.7
393.591	23.6
393.956	23.65
394.32	23.8
394.685	23.62
395.05	23.97
395.414	24.14
395.779	23.99
396.143	24.09
396.508	23.78
396.872	24.05
397.236	24.14
397.601	24.61
397.965	24.67
398.329	24.71
398.694	24.87
399.058	24.42
399.422	24.87
399.786	24.77
400.15	24.69
400.514	24.66
400.878	24.85
401.242	25.13
401.605	25.15
401.969	25.16
402.333	25.01
402.697	25.03
403.06	25.48
403.424	25.26
403.787	25.29
404.151	25.33
404.514	25.34
404.878	25.67
405.241	25.65
405.604	25.47
405.968	25.77
406.331	25.59
406.694	25.65
407.057	25.45
407.42	26.01
407.783	26.15
408.146	26.19
408.509	26.13
408.872	25.86
409.235	26.14
409.598	26.33
409.961	26.15
410.323	26.18
410.686	26.51
411.049	26.37
411.411	26.65
411.774	26.42
412.136	26.26
412.499	26.65
412.861	26.73
413.223	26.46
413.586	26.81
413.948	26.69
414.31	26.59
414.672	26.95
415.035	26.92
415.397	26.93
415.759	27.08
416.121	27.17
416.483	27.31
416.845	27.12
417.206	27.09
417.568	27.25
417.93	27.19
418.292	27.31
418.653	27.11
419.015	27.33
419.377	27.34
419.738	27.32
420.1	27.37
420.461	27.21
420.822	27.29
421.184	27.1
421.545	27.23
421.906	27.37
422.267	27.31
422.629	27.3
422.99	27.38
423.351	27.41
423.712	27.41
424.073	27.53
424.434	27.69
424.795	27.89
425.155	27.77
425.516	27.64
425.877	27.67
426.238	27.83
426.598	27.74
426.959	27.81
427.32	28.11
427.68	28.09
428.041	28.05
428.401	28.36
428.761	28.38
429.122	28.6
429.482	28.52
429.842	28.62
430.202	28.91
430.563	28.87
430.923	29.03
431.283	29.17
431.643	28.91
432.003	29.02
432.363	29.12
432.722	29.31
433.082	29.28
433.442	29.45
433.802	29.23
434.161	29.17
434.521	29.54
434.881	29.4
435.24	29.28
435.6	29.42
435.959	29.28
436.319	29.4
436.678	29.16
437.037	29.59
437.396	29.55
437.756	29.75
438.115	29.6
438.474	30.06
438.833	29.72
439.192	29.88
439.551	29.76
439.91	29.94
440.269	30.13
440.628	29.93
440.987	29.95
441.345	29.89
441.704	30.02
442.063	29.99
442.421	30.22
442.78	29.98
443.138	30.05
443.497	30.06
443.855	30.27
444.214	30.49
444.572	30.41
444.93	30.59
445.288	30.52
445.647	30.58
446.005	30.69
446.363	30.86
446.721	30.51
447.079	30.6
447.437	30.78
447.795	30.51
448.153	30.48
448.51	30.44
448.868	30.52
449.226	30.64
449.584	30.89
449.941	30.94
450.299	30.93
450.656	31.04
451.014	31.05
451.371	31.22
451.729	31.47
452.086	31.53
452.443	31.58
452.801	31.64
453.158	31.68
453.515	31.72
453.872	31.99
454.229	31.65
454.586	31.64
454.943	31.72
455.3	31.74
455.657	31.75
456.014	31.91
456.371	32.07
456.727	31.96
457.084	32.04
457.441	32.03
457.797	32.03
458.154	32.35
458.51	32.22
458.867	32.41
459.223	32.28
459.58	32.31
459.936	32.36
460.292	32.48
460.648	32.36
461.005	32.55
461.361	32.17
461.717	32.22
462.073	32.09
462.429	32.11
462.785	32.41
463.141	32.62
463.496	32.73
463.852	32.65
464.208	33.06
464.564	32.96
464.919	32.99
465.275	33.15
465.631	33.39
465.986	33.24
466.342	33.3
466.697	33.36
467.052	33.31
467.408	33.18
467.763	33.41
468.118	33.56
468.473	33.75
468.829	33.55
469.184	33.68
469.539	33.69
469.894	33.63
470.249	33.83
470.603	33.82
470.958	33.95
471.313	33.94
471.668	34.1
472.023	33.92
472.377	34.12
472.732	34.12
473.086	34.21
473.441	34.07
473.795	34.14
474.15	34.33
474.504	34.56
474.859	34.45
475.213	34.4
475.567	34.51
475.921	34.27
476.275	34.4
476.63	34.48
476.984	34.76
477.338	34.9
477.692	34.64
478.045	34.7
478.399	34.7
478.753	34.65
479.107	34.72
479.461	34.67
479.814	34.69
480.168	34.8
480.521	34.81
480.875	35.03
481.228	34.87
481.582	34.94
481.935	35.21
482.289	35.15
482.642	34.95
482.995	35.17
483.348	35.08
483.701	34.9
484.055	34.76
484.408	34.83
484.761	34.62
485.114	34.36
485.466	34.48
485.819	34.51
486.172	34.34
486.525	34.11
486.878	34.13
487.23	34.17
487.583	34.56
487.936	34.75
488.288	34.81
488.641	34.87
488.993	34.79
489.345	34.71
489.698	34.73
490.05	34.67
490.402	34.76
490.754	34.92
491.107	35.12
491.459	35.24
491.811	35.32
492.163	35.6
492.515	35.32
492.866	35.51
493.218	35.48
493.57	35.43
493.922	35.31
494.274	35.28
494.625	35.48
494.977	35.55
495.328	35.9
495.68	36.39
496.031	36.45
496.383	36.49
496.734	36.65
497.086	36.73
497.437	36.77
497.788	36.91
498.139	36.74
498.49	36.5
498.842	36.54
499.193	36.55
499.544	36.56
499.894	36.76
500.245	36.75
500.596	36.89
500.947	37.11
501.298	37.19
501.648	37.1
501.999	37.08
502.35	37.29
502.7	37.41
503.051	37.63
503.401	37.53
503.752	37.6
504.102	37.82
504.452	37.63
504.803	37.65
505.153	37.71
505.503	37.83
505.853	37.54
506.203	37.65
506.553	37.78
506.903	37.8
507.253	37.72
507.603	37.94
507.953	37.86
508.303	37.92
508.652	38.1
509.002	38.02
509.352	37.84
509.701	38.24
510.051	38.08
510.4	37.99
510.75	38.04
511.099	38.26
511.449	38.1
511.798	38.07
512.147	38.16
512.496	38.23
512.846	38.34
513.195	38.52
513.544	38.62
513.893	38.5
514.242	38.48
514.591	38.48
514.939	38.59
515.288	38.52
515.637	38.62
515.986	38.59
516.334	38.71
516.683	39.04
517.032	38.78
517.38	38.84
517.729	39.01
518.077	38.9
518.426	38.98
518.774	39.11
519.122	39.13
519.47	38.97
519.819	38.89
520.167	38.79
520.515	38.76
520.863	38.87
521.211	38.89
521.559	38.86
521.907	38.79
522.255	39.11
522.602	39.26
522.95	39.28
523.298	39.49
523.645	39.46
523.993	39.6
524.341	39.54
524.688	39.79
525.036	39.98
525.383	39.56
525.73	39.93
526.078	39.77
526.425	39.85
526.772	39.66
527.119	39.61
527.466	39.51
527.814	39.59
528.161	39.24
528.508	39.49
528.854	39.36
529.201	39.55
529.548	39.51
529.895	39.4
530.242	39.57
530.588	39.62
530.935	39.35
531.282	39.06
531.628	39.03
531.975	39.22
532.321	39.29
532.667	39.72
533.014	39.88
533.36	40.08
533.706	40.1
534.052	40.14
534.399	40.16
534.745	39.9
535.091	39.98
535.437	39.94
535.783	39.91
536.129	39.94
536.474	40.05
536.82	40.29
537.166	40.4
537.512	40.63
537.857	40.6
538.203	40.6
538.549	40.59
538.894	40.7
539.239	40.45
539.585	40.88
539.93	41.03
540.276	40.96
540.621	41.12
540.966	41.18
541.311	41.43
541.656	41.44
542.001	41.3
542.346	41.12
542.691	41.14
543.036	40.81
543.381	40.81
543.726	40.67
544.071	40.61
544.415	40.6
544.76	40.66
545.105	40.99
545.449	41.3
545.794	41.36
546.138	41.41
546.483	41.52
546.827	41.41
547.171	41.68
547.516	42.02
547.86	41.8
548.204	41.64
548.548	41.88
548.892	42.05
549.236	41.82
549.58	41.96
549.924	41.98
550.268	42.02
550.612	42.3
550.956	42.4
551.3	42.55
551.643	42.74
551.987	42.74
552.33	42.81
552.674	42.82
553.017	42.82
553.361	42.97
553.704	42.92
554.048	42.86
554.391	42.96
554.734	43.02
555.077	42.79
555.42	42.93
555.764	42.87
556.107	42.92
556.45	43.29
556.793	43.16
557.135	43.43
557.478	43.24
557.821	43.44
558.164	43.11
558.507	43.16
558.849	43.55
559.192	43.39
559.534	43.58
559.877	43.71
560.219	43.39
560.562	43.47
560.904	43.76
561.246	43.75
561.589	43.7
561.931	43.96
562.273	43.89
562.615	44.15
562.957	44.11
563.299	43.99
563.641	43.95
563.983	44.02
564.325	44.1
564.667	44.01
565.008	44.29
565.35	44.15
565.692	44.25
566.033	44.19
566.375	44.19
566.716	44.29
567.058	44.37
567.399	44.26
567.741	44.16
568.082	44.36
568.423	44.11
568.764	44.04
569.105	44.03
569.447	44.32
569.788	44.37
570.129	44.7
570.47	44.79
570.811	44.45
571.151	44.74
571.492	44.78
571.833	44.46
572.174	44.65
572.514	44.88
572.855	45.03
573.195	44.78
573.536	44.82
573.876	44.89
574.217	44.84
574.557	44.6
574.898	44.77
575.238	44.9
575.578	44.98
575.918	45.15
576.258	44.82
576.598	45.11
576.938	45.21
577.278	45.12
577.618	45.04
577.958	45.18
578.298	45.38
578.638	45.28
578.977	45.08
579.317	45.25
579.657	45.46
579.996	45.49
580.336	45.33
580.675	45.92
581.014	45.32
581.354	45.63
581.693	46.21
582.032	46.07
582.372	45.96
582.711	46.11
583.05	46.11
583.389	45.89
583.728	46.21
584.067	46.06
584.406	46.47
584.745	46.39
585.083	46.42
585.422	46.26
585.761	46.29
586.1	46.38
586.438	46.39
586.777	46.41
587.115	46.63
587.454	46.68
587.792	46.59
588.13	46.65
588.469	46.82
588.807	47.05
589.145	46.63
589.483	46.75
589.821	47.03
590.159	46.72
590.497	47.18
590.835	47.28
591.173	47.04
591.511	46.87
591.849	46.86
592.187	46.84
592.524	47.16
592.862	46.78
593.2	47
593.537	46.86
593.875	47.12
594.212	47.12
594.55	47.16
594.887	47.01
595.224	47.16
595.561	47.38
595.899	47.49
596.236	47.24
596.573	47.31
596.91	47.57
597.247	47.18
597.584	47.16
597.921	47.3
598.258	47.34
598.594	47.17
598.931	47.48
599.268	47.01
599.604	47.09
599.941	47.2
600.277	47.36
600.614	47.28
600.95	47.38
601.287	47.7
601.623	47.74
601.959	47.87
602.296	47.83
602.632	47.78
602.968	48.34
603.304	48.01
603.64	47.96
603.976	48.08
604.312	48.35
604.648	47.89
604.984	48.21
605.319	48.07
605.655	48.04
605.991	48.3
606.326	48.15
606.662	47.73
606.998	47.66
607.333	48.1
607.668	47.71
608.004	48.32
608.339	48.15
608.674	47.72
609.01	48.26
609.345	48.49
609.68	48.36
610.015	48.8
610.35	48.95
610.685	48.78
611.02	48.56
611.355	48.61
611.689	48.56
612.024	48.49
612.359	48.65
612.694	48.82
613.028	48.43
613.363	48.38
613.697	48.99
614.032	48.8
614.366	48.96
614.7	48.92
615.035	48.85
615.369	49.45
615.703	48.85
616.037	49.26
616.371	49.77
616.705	49.14
617.039	49.45
617.373	49.33
617.707	49.11
618.041	49.27
618.375	49.12
618.709	49.18
619.042	49.69
619.376	49.49
619.71	49.58
620.043	49.57
620.377	49.27
620.71	49.85
621.043	49.39
621.377	49.76
621.71	49.92
622.043	49.93
622.376	49.66
622.709	49.9
623.043	50.01
623.376	50.02
623.709	49.98
624.041	50.03
624.374	50.29
624.707	49.87
625.04	49.77
625.373	50.41
625.705	50.2
626.038	49.96
626.37	50.15
626.703	50.19
627.035	50.49
627.368	50.11
627.7	50.24
628.032	50.4
628.365	50.45
628.697	50.1
629.029	50.62
629.361	50.15
629.693	50.05
630.025	49.96
630.357	50.02
630.689	50.22
631.021	50.11
631.353	50.3
631.684	50.74
632.016	50.59
632.348	50.88
632.679	50.66
633.011	50.64
633.342	50.94
633.674	50.87
634.005	50.58
634.336	50.41
634.668	51.16
634.999	50.88
635.33	51.02
635.661	51.03
635.992	51.32
636.323	50.69
636.654	50.83
636.985	50.97
637.316	50.9
637.647	51.15
637.977	51.37
638.308	50.97
638.639	50.99
638.969	51.25
639.3	51.39
639.63	51.65
639.961	51.52
640.291	51.12
640.622	51.97
640.952	51.73
641.282	51.13
641.612	51.55
641.943	51.32
642.273	51.43
642.603	51.97
642.933	51.81
643.263	51.55
643.592	51.75
643.922	51.85
644.252	51.85
644.582	52.21
644.911	52.26
645.241	52.02
645.571	51.5
645.9	52.22
646.23	51.93
646.559	52.3
646.888	51.58
647.218	51.24
647.547	52.71
647.876	52.29
648.205	52.69
648.534	52.21
648.863	52.54
649.192	52.17
649.521	52.37
649.85	52.67
650.179	52.6
650.508	52.21
650.837	52.15
651.165	52.83
651.494	52
651.822	52.41
652.151	52.07
652.479	52.56
652.808	52.78
653.136	52.29
653.465	52.11
653.793	52.37
654.121	52.47
654.449	52.73
654.777	52.61
655.105	52.34
655.433	52.49
655.761	52.23
656.089	52.45
656.417	52.51
656.745	52.67
657.073	52.34
657.4	53.19
657.728	53
658.056	52.31
658.383	52.58
658.711	53.34
659.038	53.18
659.365	52.9
659.693	52.66
660.02	52.84
660.347	53.06
660.674	52.97
661.001	53.35
661.329	53.12
661.656	53.58
661.982	52.87
662.309	53.4
662.636	53.13
662.963	53.23
663.29	53.07
663.616	53.77
663.943	53.23
664.27	53.23
664.596	53.36
664.923	53.13
665.249	53.47
665.576	53.34
665.902	53.48
666.228	53.6
666.554	53.26
666.881	52.82
667.207	53.56
667.533	53.06
667.859	53.51
668.185	52.86
668.511	53.67
